##NAMES=Actinolite
##RRUFFID=R050336
##IDEAL CHEMISTRY=Ca_2_(Mg_4.5-2.5_Fe^2+^_0.5-2.5_)Si_8_O_22_(OH)_2_
##LOCALITY=Kragerø, Norway
##OWNER=RRUFF
##SOURCE=California Institute of Technology
##DESCRIPTION=Dark green prismatic fragment
##STATUS=The identification of this mineral has been confirmed by X-ray diffraction and chemical analysis
##URL=rruff.info/R050336
##MEASURED CHEMISTRY=([box]_0.62_Na_0.34_K_0.04_)(Ca_1.60_Na_0.40_)_Σ=2_(Mg_3.90_Fe^2+^_0.70_Al_0.20_Ti_0.10_Fe^3+^_0.10_)_Σ=5_(Si_7.52_Al_0.48_)_Σ=8_O_22_((OH)_0.97_F_0.03_)_2_
##PIN_ID=M00348
##ORIENTATION=Laser parallel to (1 0 1). Fiducial mark perpendicular to laser is parallel to b [0 1 0]
62.34500, 471.0000
63.58900, 568.0000
64.83300, 678.0000
66.07600, 479.0000
67.32000, 494.0000
68.56300, 513.0000
69.80600, 525.0000
71.04900, 575.0000
72.29100, 628.0000
73.53400, 696.1471
74.77600, 748.0000
76.01800, 879.0000
77.26000, 948.0000
78.50200, 1069.000
79.74300, 1199.000
80.98500, 1418.000
82.22600, 1799.000
83.46700, 1977.000
84.70800, 2031.000
85.94900, 2073.000
87.18900, 2447.000
88.42900, 2881.000
89.67000, 3383.000
90.91000, 3730.646
92.14900, 4089.608
93.38900, 4443.000
94.62900, 4646.000
95.86800, 4877.000
97.10700, 5028.000
98.34600, 5517.000
99.58500, 5906.000
100.8230, 5939.000
102.0620, 6283.000
103.3000, 6892.000
104.5380, 7735.000
105.7760, 8760.000
107.0140, 9181.000
108.2510, 9206.000
109.4890, 9327.000
110.7260, 9719.257
111.9630, 10292.00
113.2000, 10689.00
114.4360, 11522.00
115.6730, 12659.00
116.9090, 12580.00
118.1450, 12332.00
119.3810, 11891.85
120.6170, 11521.66
121.8530, 11111.03
123.0880, 10662.49
124.3230, 10061.03
125.5590, 9656.659
126.7930, 9136.727
128.0280, 9228.302
129.2630, 9279.428
130.4970, 9292.277
131.7310, 9152.208
132.9650, 9209.604
134.1990, 9187.864
135.4330, 9327.000
136.6670, 9616.000
137.9000, 9793.000
139.1330, 9981.000
140.3660, 9930.000
141.5990, 9820.000
142.8320, 9889.000
144.0640, 10101.00
145.2960, 10196.00
146.5290, 10389.00
147.7610, 10596.00
148.9920, 10957.00
150.2240, 11506.00
151.4550, 11971.33
152.6870, 12584.00
153.9180, 13088.00
155.1490, 13791.00
156.3800, 14182.00
157.6100, 14906.00
158.8400, 15445.00
160.0710, 16070.00
161.3010, 16458.57
162.5310, 16867.49
163.7600, 16922.47
164.9900, 16936.96
166.2190, 16680.00
167.4480, 16811.00
168.6770, 17005.00
169.9060, 17265.00
171.1350, 17583.00
172.3630, 18195.00
173.5920, 18613.00
174.8200, 19325.00
176.0480, 19885.00
177.2760, 20483.00
178.5030, 20823.00
179.7310, 20862.00
180.9580, 20819.00
182.1850, 20248.00
183.4120, 19653.00
184.6390, 18852.00
185.8650, 17873.00
187.0920, 17174.00
188.3180, 16616.06
189.5440, 15948.74
190.7700, 15439.89
191.9960, 14976.56
193.2210, 14561.71
194.4470, 14220.00
195.6720, 13958.96
196.8970, 14073.19
198.1220, 14146.96
199.3460, 14182.44
200.5710, 14177.00
201.7950, 14325.00
203.0190, 14765.00
204.2430, 15024.00
205.4670, 15517.00
206.6910, 16165.00
207.9140, 16796.00
209.1370, 17583.00
210.3610, 18793.00
211.5840, 20259.00
212.8060, 21729.00
214.0290, 22727.00
215.2510, 24588.00
216.4740, 26089.00
217.6960, 27954.00
218.9180, 29775.00
220.1390, 31126.00
221.3610, 32525.00
222.5820, 33701.00
223.8030, 34385.00
225.0240, 34517.00
226.2450, 34389.00
227.4660, 33298.00
228.6870, 32244.00
229.9070, 30737.00
231.1270, 29097.00
232.3470, 27633.00
233.5670, 25876.00
234.7870, 24519.00
236.0060, 22893.00
237.2250, 21360.00
238.4440, 19901.00
239.6630, 18665.64
240.8820, 17480.00
242.1010, 16519.00
243.3190, 15744.00
244.5380, 14984.00
245.7560, 14652.00
246.9740, 14297.00
248.1910, 13913.01
249.4090, 13864.00
250.6260, 13461.00
251.8440, 13190.00
253.0610, 13093.00
254.2780, 12670.00
255.4940, 12510.00
256.7110, 12226.00
257.9270, 11990.00
259.1430, 11745.15
260.3600, 11594.00
261.5750, 11227.00
262.7910, 11038.00
264.0070, 10804.00
265.2220, 10727.00
266.4370, 10409.00
267.6520, 10327.00
268.8670, 10160.00
270.0820, 9967.000
271.2960, 9875.000
272.5100, 9835.000
273.7250, 9776.000
274.9390, 9752.000
276.1520, 9750.000
277.3660, 9839.000
278.5790, 9822.000
279.7930, 9899.000
281.0060, 9923.000
282.2190, 10092.00
283.4320, 10058.00
284.6440, 10220.00
285.8570, 10463.00
287.0690, 10529.48
288.2810, 10722.00
289.4930, 10814.00
290.7050, 10876.00
291.9160, 10979.00
293.1270, 11012.00
294.3390, 11126.00
295.5500, 11116.09
296.7610, 11160.00
297.9710, 11222.00
299.1820, 11166.00
300.3920, 11479.00
301.6020, 11344.00
302.8120, 11552.00
304.0220, 11527.00
305.2320, 11550.00
306.4410, 11509.16
307.6510, 11275.00
308.8600, 11290.00
310.0690, 11233.00
311.2780, 11098.00
312.4860, 11183.00
313.6950, 11152.00
314.9030, 11219.00
316.1110, 11224.19
317.3190, 11200.00
318.5270, 11283.00
319.7350, 11364.00
320.9420, 11494.00
322.1490, 11522.00
323.3570, 11813.00
324.5630, 12017.00
325.7700, 12107.00
326.9770, 12347.00
328.1830, 12503.00
329.3900, 12630.48
330.5960, 12909.00
331.8020, 12901.56
333.0070, 13097.29
334.2130, 13252.66
335.4180, 13369.67
336.6230, 13333.75
337.8290, 13495.38
339.0330, 13577.71
340.2380, 13666.00
341.4430, 13746.00
342.6470, 13922.00
343.8510, 14048.25
345.0550, 14184.84
346.2590, 14390.46
347.4630, 14555.63
348.6660, 14682.42
349.8700, 14656.40
351.0730, 14827.74
352.2760, 14919.95
353.4790, 15008.91
354.6810, 15207.95
355.8840, 15356.00
357.0860, 15663.00
358.2880, 15954.00
359.4900, 16313.00
360.6920, 16759.00
361.8940, 17364.21
363.0950, 18125.00
364.2960, 18791.00
365.4980, 19775.00
366.6990, 20608.00
367.8990, 21131.00
369.1000, 21474.00
370.3000, 21902.00
371.5010, 21802.00
372.7010, 21832.00
373.9010, 20915.00
375.1010, 20436.00
376.3000, 19685.00
377.5000, 19049.00
378.6990, 18407.00
379.8980, 17699.13
381.0970, 17657.68
382.2960, 17575.77
383.4940, 17455.70
384.6920, 17182.71
385.8910, 17033.45
387.0890, 17193.02
388.2870, 17266.21
389.4840, 17255.21
390.6820, 17045.35
391.8790, 16987.13
393.0770, 16803.76
394.2740, 16571.39
395.4700, 16403.56
396.6670, 15986.66
397.8640, 15738.00
399.0600, 15628.00
400.2560, 15483.00
401.4520, 14423.00
402.6480, 13399.00
403.8440, 12949.00
405.0390, 12638.00
406.2350, 12554.00
407.4300, 12613.00
408.6250, 12570.00
409.8200, 12855.00
411.0140, 12876.00
412.2090, 13236.00
413.4030, 13273.00
414.5970, 13314.00
415.7910, 13456.00
416.9850, 13338.00
418.1790, 13303.00
419.3720, 13138.00
420.5660, 13075.00
421.7590, 12851.00
422.9520, 12658.00
424.1440, 12387.11
425.3370, 12125.57
426.5300, 11802.00
427.7220, 11652.00
428.9140, 11487.00
430.1060, 11326.47
431.2980, 11362.00
432.4890, 11150.00
433.6810, 11123.00
434.8720, 11133.00
436.0630, 11024.00
437.2540, 10706.00
438.4450, 10558.00
439.6350, 10283.00
440.8260, 10245.00
442.0160, 9986.000
443.2060, 9727.000
444.3960, 9746.000
445.5860, 9662.000
446.7750, 9255.000
447.9650, 9284.000
449.1540, 9203.000
450.3430, 8983.000
451.5320, 8950.000
452.7210, 8886.000
453.9090, 8833.000
455.0980, 8779.000
456.2860, 8718.000
457.4740, 8612.000
458.6620, 8685.000
459.8500, 8645.000
461.0370, 8522.000
462.2250, 8612.000
463.4120, 8538.000
464.5990, 8482.000
465.7860, 8512.000
466.9720, 8407.000
468.1590, 8415.000
469.3450, 8361.000
470.5320, 8322.000
471.7180, 8322.153
472.9030, 8320.000
474.0890, 8297.000
475.2750, 8262.000
476.4600, 8228.000
477.6450, 8162.000
478.8300, 8107.000
480.0150, 8281.000
481.2000, 8324.000
482.3840, 8240.000
483.5690, 8271.000
484.7530, 8270.000
485.9370, 8227.000
487.1210, 8213.000
488.3040, 8369.000
489.4880, 8295.000
490.6710, 8417.151
491.8540, 8562.000
493.0370, 8632.000
494.2200, 8751.000
495.4030, 8938.000
496.5850, 9094.223
497.7680, 9339.000
498.9500, 9552.000
500.1320, 9693.000
501.3140, 10030.00
502.4950, 10275.00
503.6770, 10749.00
504.8580, 11031.00
506.0390, 11216.00
507.2200, 11773.00
508.4010, 12062.00
509.5820, 12537.00
510.7620, 12800.00
511.9420, 13114.30
513.1230, 13477.00
514.3030, 13577.00
515.4820, 13984.49
516.6620, 13969.46
517.8420, 14017.49
519.0210, 14130.61
520.2000, 13858.87
521.3790, 13796.91
522.5580, 13696.67
523.7360, 13443.60
524.9150, 13531.00
526.0930, 13406.00
527.2710, 13309.00
528.4490, 13331.00
529.6270, 13264.00
530.8050, 13151.00
531.9820, 12934.00
533.1590, 12905.00
534.3360, 12725.00
535.5130, 12519.37
536.6900, 12355.32
537.8670, 12120.00
539.0430, 11906.00
540.2200, 11799.00
541.3960, 11572.00
542.5720, 11289.00
543.7470, 11132.00
544.9230, 11112.00
546.0980, 10912.70
547.2740, 10849.82
548.4490, 10750.00
549.6240, 10653.00
550.7990, 10704.00
551.9730, 10577.00
553.1480, 10610.00
554.3220, 10598.00
555.4960, 10453.00
556.6700, 10453.00
557.8440, 10415.00
559.0170, 10472.00
560.1910, 10239.00
561.3640, 10333.00
562.5370, 10253.00
563.7100, 10312.93
564.8830, 10408.96
566.0550, 10451.54
567.2280, 10442.83
568.4000, 10268.23
569.5720, 10278.09
570.7440, 10195.84
571.9160, 10097.34
573.0870, 10096.11
574.2590, 9878.810
575.4300, 9849.881
576.6010, 9727.641
577.7720, 9629.211
578.9430, 9438.182
580.1140, 9258.777
581.2840, 9093.255
582.4540, 8990.671
583.6240, 8847.625
584.7940, 8666.311
585.9640, 8332.073
587.1340, 8228.000
588.3030, 8053.000
589.4720, 7850.000
590.6410, 7764.000
591.8100, 7586.000
592.9790, 7411.000
594.1480, 7399.000
595.3160, 7234.000
596.4840, 7250.000
597.6520, 7181.000
598.8200, 7201.000
599.9880, 7054.000
601.1560, 7103.000
602.3230, 7058.000
603.4900, 7145.000
604.6570, 7100.000
605.8240, 7195.000
606.9910, 7129.000
608.1580, 7279.000
609.3240, 7245.000
610.4900, 7366.000
611.6570, 7298.000
612.8230, 7508.000
613.9880, 7496.000
615.1540, 7687.000
616.3190, 7658.000
617.4850, 7650.000
618.6500, 7782.625
619.8150, 8000.676
620.9790, 8178.172
622.1440, 8317.497
623.3080, 8303.798
624.4730, 8487.674
625.6370, 8592.304
626.8010, 8693.689
627.9640, 8905.134
629.1280, 9108.000
630.2910, 9316.000
631.4550, 9565.000
632.6180, 9842.000
633.7810, 9985.000
634.9440, 10406.00
636.1060, 10609.00
637.2690, 11051.00
638.4310, 11430.00
639.5930, 11755.00
640.7550, 12193.00
641.9170, 12738.36
643.0780, 13354.00
644.2400, 13973.00
645.4010, 14610.00
646.5620, 15317.38
647.7230, 16106.00
648.8840, 16927.00
650.0450, 17867.00
651.2050, 18744.00
652.3650, 19505.00
653.5250, 20516.00
654.6850, 21333.00
655.8450, 22558.00
657.0050, 23707.00
658.1640, 25262.00
659.3230, 26941.00
660.4830, 29623.00
661.6420, 31621.00
662.8000, 34683.00
663.9590, 38411.00
665.1170, 42609.00
666.2760, 47846.00
667.4340, 52899.00
668.5920, 57280.00
669.7500, 62459.00
670.9070, 66795.00
672.0650, 69571.00
673.2220, 71319.00
674.3790, 71264.00
675.5360, 68452.00
676.6930, 64282.00
677.8500, 57956.00
679.0060, 52027.00
680.1620, 45293.00
681.3190, 39928.00
682.4750, 35033.00
683.6300, 30900.00
684.7860, 27864.00
685.9420, 25074.00
687.0970, 23151.00
688.2520, 21141.00
689.4070, 19970.00
690.5620, 18746.00
691.7170, 17777.00
692.8710, 16762.00
694.0250, 16032.60
695.1800, 15524.18
696.3340, 14924.50
697.4870, 14200.00
698.6410, 13968.00
699.7950, 13544.00
700.9480, 13247.26
702.1010, 13081.65
703.2540, 12901.00
704.4070, 12790.00
705.5600, 12791.00
706.7120, 12675.00
707.8640, 12696.00
709.0170, 12735.18
710.1690, 12740.00
711.3210, 12862.00
712.4720, 12978.57
713.6240, 13015.44
714.7750, 13244.00
715.9260, 13287.00
717.0770, 13418.00
718.2280, 13603.00
719.3790, 13871.00
720.5290, 14021.00
721.6800, 14148.63
722.8300, 14231.00
723.9800, 14389.00
725.1300, 14544.00
726.2800, 14782.00
727.4290, 14983.00
728.5790, 15098.85
729.7280, 15093.00
730.8770, 15313.00
732.0260, 15335.00
733.1750, 15403.00
734.3230, 15540.00
735.4720, 15603.00
736.6200, 15541.00
737.7680, 15766.00
738.9160, 15828.00
740.0640, 15513.00
741.2110, 15620.00
742.3590, 15301.00
743.5060, 15135.00
744.6530, 14876.00
745.8000, 14750.00
746.9470, 14429.00
748.0930, 14152.00
749.2400, 13619.00
750.3860, 13512.00
751.5320, 13037.00
752.6780, 12851.00
753.8240, 12597.00
754.9690, 12161.00
756.1150, 11798.00
757.2600, 11851.00
758.4050, 11467.00
759.5500, 11196.00
760.6950, 11015.00
761.8400, 10793.00
762.9840, 10541.00
764.1280, 10438.00
765.2730, 10368.00
766.4170, 10284.36
767.5600, 10272.00
768.7040, 10228.63
769.8470, 10156.58
770.9910, 9941.060
772.1340, 9932.598
773.2770, 9854.514
774.4200, 9782.701
775.5620, 9830.604
776.7050, 9684.972
777.8470, 9750.136
778.9890, 9744.456
780.1310, 9636.286
781.2730, 9717.081
782.4150, 9757.426
783.5570, 9759.493
784.6980, 9608.652
785.8390, 9655.274
786.9800, 9622.763
788.1210, 9587.006
789.2620, 9661.420
790.4020, 9532.832
791.5430, 9605.499
792.6830, 9597.835
793.8230, 9605.000
794.9630, 9740.000
796.1020, 9651.000
797.2420, 9705.000
798.3810, 9504.000
799.5210, 9483.000
800.6600, 9510.000
801.7990, 9394.099
802.9370, 9325.533
804.0760, 9295.000
805.2140, 9150.000
806.3530, 9095.000
807.4910, 9140.000
808.6290, 8919.000
809.7660, 8991.000
810.9040, 8835.000
812.0420, 8834.000
813.1790, 8688.000
814.3160, 8668.645
815.4530, 8649.021
816.5900, 8642.000
817.7260, 8595.000
818.8630, 8624.000
819.9990, 8506.000
821.1350, 8442.734
822.2710, 8492.337
823.4070, 8501.490
824.5430, 8472.364
825.6780, 8290.360
826.8130, 8305.818
827.9490, 8242.104
829.0840, 8175.183
830.2180, 8218.469
831.3530, 8058.705
832.4880, 8100.209
833.6220, 8061.407
834.7560, 8059.377
835.8900, 7977.721
837.0240, 7920.662
838.1580, 7943.248
839.2910, 7921.771
840.4250, 7830.952
841.5580, 7831.296
842.6910, 7685.000
843.8240, 7589.000
844.9560, 7586.000
846.0890, 7580.026
847.2210, 7605.463
848.3540, 7654.000
849.4860, 7695.000
850.6180, 7765.000
851.7490, 7750.000
852.8810, 7792.000
854.0120, 7760.000
855.1440, 7766.000
856.2750, 7886.000
857.4060, 7831.000
858.5360, 7872.000
859.6670, 7802.000
860.7980, 7964.000
861.9280, 7908.000
863.0580, 7959.000
864.1880, 8041.444
865.3180, 8100.000
866.4470, 8060.000
867.5770, 8275.000
868.7060, 8050.000
869.8350, 8213.489
870.9640, 8459.000
872.0930, 8278.482
873.2220, 8441.227
874.3500, 8565.074
875.4790, 8652.327
876.6070, 8588.209
877.7350, 8723.167
878.8630, 8780.604
879.9900, 8836.342
881.1180, 9003.933
882.2450, 8970.050
883.3730, 9139.120
884.5000, 9229.386
885.6260, 9357.952
886.7530, 9408.586
887.8800, 9485.424
889.0060, 9643.436
890.1320, 9758.958
891.2580, 9774.000
892.3840, 9939.000
893.5100, 10039.00
894.6360, 10157.05
895.7610, 10369.00
896.8860, 10432.00
898.0120, 10523.25
899.1360, 10582.00
900.2610, 10624.00
901.3860, 10683.95
902.5100, 10727.26
903.6350, 10779.00
904.7590, 10803.00
905.8830, 10868.00
907.0070, 10879.00
908.1300, 10921.66
909.2540, 11086.00
910.3770, 10973.00
911.5000, 11231.00
912.6230, 11242.00
913.7460, 11385.00
914.8690, 11487.00
915.9910, 11657.00
917.1140, 11729.00
918.2360, 11939.00
919.3580, 12075.00
920.4800, 12104.00
921.6020, 12442.00
922.7230, 12567.00
923.8440, 12988.00
924.9660, 13078.00
926.0870, 13251.00
927.2080, 13415.00
928.3280, 13603.59
929.4490, 13689.77
930.5700, 13675.59
931.6900, 13446.52
932.8100, 13352.94
933.9300, 13118.27
935.0500, 12818.37
936.1690, 12679.00
937.2890, 12526.00
938.4080, 12353.00
939.5270, 12351.00
940.6460, 12347.00
941.7650, 12494.00
942.8840, 12503.00
944.0020, 12406.00
945.1200, 12501.00
946.2390, 12290.00
947.3570, 12383.00
948.4750, 12505.00
949.5920, 12416.00
950.7100, 12322.00
951.8270, 12309.00
952.9440, 12163.00
954.0610, 11988.00
955.1780, 11906.00
956.2950, 11889.00
957.4120, 11834.00
958.5280, 11752.00
959.6440, 11746.00
960.7600, 11633.00
961.8760, 11609.00
962.9920, 11524.00
964.1080, 11567.00
965.2230, 11590.00
966.3380, 11537.58
967.4540, 11603.74
968.5690, 11629.47
969.6830, 11616.94
970.7980, 11451.48
971.9120, 11483.50
973.0270, 11436.36
974.1410, 11386.01
975.2550, 11445.82
976.3690, 11302.62
977.4820, 11360.71
978.5960, 11338.44
979.7090, 11352.96
980.8230, 11385.49
981.9360, 11313.54
983.0490, 11381.31
984.1610, 11410.79
985.2740, 11287.37
986.3860, 11361.39
987.4980, 11356.28
988.6110, 11347.94
989.7220, 11449.74
990.8340, 11468.00
991.9460, 11465.00
993.0570, 11479.00
994.1690, 11777.00
995.2800, 11849.00
996.3910, 11968.00
997.5010, 12088.00
998.6120, 12700.00
999.7230, 12652.10
1000.833, 12872.70
1001.943, 12908.00
1003.053, 13129.00
1004.163, 13329.00
1005.273, 13626.00
1006.382, 13811.22
1007.492, 14161.00
1008.601, 14237.71
1009.710, 14397.00
1010.819, 14610.00
1011.927, 14868.00
1013.036, 15152.00
1014.144, 15339.00
1015.253, 15467.06
1016.361, 15559.00
1017.469, 15668.00
1018.576, 15946.00
1019.684, 16146.00
1020.791, 16359.00
1021.899, 16363.00
1023.006, 16565.00
1024.113, 16573.00
1025.220, 16985.00
1026.326, 17226.00
1027.433, 17521.00
1028.539, 17888.00
1029.645, 17943.00
1030.751, 18324.00
1031.857, 18347.00
1032.963, 18277.00
1034.068, 18259.00
1035.174, 18008.00
1036.279, 17888.00
1037.384, 17763.00
1038.489, 17854.00
1039.594, 17587.00
1040.698, 17462.00
1041.803, 17608.00
1042.907, 17897.00
1044.011, 17902.00
1045.115, 18129.00
1046.219, 18202.00
1047.323, 18783.00
1048.426, 19346.00
1049.529, 19583.00
1050.632, 20061.00
1051.735, 20879.00
1052.838, 21210.00
1053.941, 21921.00
1055.043, 22370.00
1056.146, 22872.00
1057.248, 23386.00
1058.350, 23383.00
1059.452, 23882.00
1060.554, 23604.97
1061.655, 23314.00
1062.757, 22938.00
1063.858, 22311.00
1064.959, 21799.00
1066.060, 20749.00
1067.161, 19859.00
1068.261, 19064.00
1069.362, 18009.00
1070.462, 17396.00
1071.562, 16341.00
1072.662, 15538.00
1073.762, 14932.00
1074.862, 14354.00
1075.961, 13931.00
1077.061, 13481.00
1078.160, 12953.00
1079.259, 12605.00
1080.358, 12265.00
1081.456, 12085.00
1082.555, 11848.00
1083.653, 11677.00
1084.751, 11345.00
1085.850, 11273.00
1086.947, 10822.00
1088.045, 10646.00
1089.143, 10299.72
1090.240, 10276.70
1091.338, 10213.13
1092.435, 10111.39
1093.532, 9856.736
1094.628, 9799.640
1095.725, 9663.319
1096.822, 9523.741
1097.918, 9494.451
1099.014, 9262.134
1100.110, 9231.096
1101.206, 9119.704
1102.302, 9045.096
1103.397, 8970.000
1104.493, 8801.000
1105.588, 8774.000
1106.683, 8694.000
1107.778, 8700.000
1108.873, 8524.000
1109.967, 8536.000
1111.062, 8429.000
1112.156, 8436.000
1113.250, 8378.000
1114.344, 8310.000
1115.438, 8166.000
1116.531, 8107.000
1117.625, 8086.000
1118.718, 8052.000
1119.811, 7935.000
1120.904, 7860.000
1121.997, 7899.000
1123.090, 7712.000
1124.183, 7702.000
1125.275, 7619.000
1126.367, 7618.000
1127.459, 7593.000
1128.551, 7471.000
1129.643, 7492.000
1130.735, 7387.000
1131.826, 7300.000
1132.917, 7222.000
1134.008, 7158.494
1135.099, 7211.173
1136.190, 7223.403
1137.281, 7197.352
1138.371, 7018.422
1139.462, 7036.915
1140.552, 6976.313
1141.642, 6912.467
1142.732, 6958.788
1143.821, 6802.135
1144.911, 6846.713
1146.000, 6810.984
1147.090, 6811.991
1148.179, 6733.410
1149.268, 6679.422
1150.356, 6705.118
1151.445, 6686.676
1152.533, 6598.965
1153.622, 6526.994
1154.710, 6605.183
1155.798, 6642.921
1156.886, 6642.383
1157.973, 6488.939
1159.061, 6532.945
1160.148, 6497.831
1161.235, 6459.471
1162.322, 6531.282
1163.409, 6400.079
1164.496, 6470.145
1165.583, 6459.867
1166.669, 6486.374
1167.755, 6433.256
1168.841, 6404.733
1169.927, 6455.857
1171.013, 6462.880
1172.099, 6400.597
1173.184, 6429.454
1174.269, 6295.495
1175.355, 6304.397
1176.440, 6374.954
1177.524, 6316.699
1178.609, 6347.012
1179.694, 6343.589
1180.778, 6202.000
1181.862, 6094.000
1182.946, 6197.000
1184.030, 6116.000
1185.114, 6235.000
1186.197, 6192.000
1187.281, 6156.000
1188.364, 6149.000
1189.447, 6217.000
1190.530, 6174.000
1191.613, 6203.000
1192.696, 6079.705
1193.778, 6174.213
1194.860, 6228.272
1195.943, 6244.056
1197.025, 6106.918
1198.107, 6167.244
1199.188, 6148.434
1200.270, 6126.380
1201.351, 6214.496
1202.432, 6099.599
1203.514, 6185.970
1204.594, 6191.995
1205.675, 6234.792
1206.756, 6197.966
1207.836, 6185.732
1208.917, 6253.148
1209.997, 6276.459
1211.077, 6230.466
1212.157, 6275.599
1213.236, 6157.916
1214.316, 6183.106
1215.395, 6269.938
1216.474, 6227.945
1217.553, 6274.532
1218.632, 6287.383
1219.711, 6146.919
1220.790, 6273.085
1221.868, 6283.940
1222.946, 6176.399
1224.024, 6293.427
1225.102, 6202.208
1226.180, 6185.321
1227.258, 6229.000
1228.335, 6210.000
1229.413, 6222.000
1230.490, 6223.179
1231.567, 6230.041
1232.644, 6235.000
1233.720, 6249.000
1234.797, 6175.621
1235.873, 6270.075
1236.950, 6324.080
1238.026, 6339.807
1239.102, 6202.615
