##NAMES=Actinolite
##RRUFFID=R060045
##IDEAL CHEMISTRY=Ca_2_(Mg_4.5-2.5_Fe^2+^_0.5-2.5_)Si_8_O_22_(OH)_2_
##LOCALITY=Colorado, USA
##OWNER=RRUFF
##SOURCE=University of Arizona Mineral Museum
##DESCRIPTION=Green prismatic crystals in a radial arrangement
##STATUS=The identification of this mineral has been confirmed by X-ray diffraction and chemical analysis
##URL=rruff.info/R060045
##MEASURED CHEMISTRY=(Ca_1.99_Na_0.01_)_Σ=2_(Mg_4.20_Fe^2+^_0.59_Al_0.09_Fe^3+^_0.08_Mn_0.02_Ti_0.01_)_Σ=5_(Si_7.82_Al_0.18_)_Σ=8_O_22_(OH)_2_
##PIN_ID=M00340
##ORIENTATION=Laser parallel to -a* (-1 0 0). Fiducial mark perpendicular to laser is parallel to -b [0 -1 0]
134.1270, 18896.00
135.3560, 19017.00
136.5850, 18900.00
137.8140, 19084.00
139.0430, 19067.00
140.2710, 19138.00
141.5000, 19153.00
142.7280, 19219.00
143.9560, 19446.00
145.1840, 19579.00
146.4120, 19552.00
147.6390, 19834.00
148.8670, 20030.00
150.0940, 20087.92
151.3210, 20295.00
152.5490, 20311.00
153.7750, 20272.00
155.0020, 20418.00
156.2290, 20401.00
157.4550, 20412.00
158.6810, 20403.00
159.9080, 20215.00
161.1340, 20486.00
162.3590, 20416.00
163.5850, 20663.00
164.8110, 20656.00
166.0360, 21098.00
167.2610, 21349.00
168.4860, 21879.00
169.7110, 21921.00
170.9360, 21807.00
172.1610, 21743.00
173.3850, 21812.00
174.6100, 21804.00
175.8340, 21632.00
177.0580, 21582.00
178.2820, 21382.00
179.5050, 21516.00
180.7290, 21247.00
181.9520, 21136.00
183.1760, 20903.00
184.3990, 20818.55
185.6220, 20954.00
186.8450, 20731.00
188.0670, 20779.00
189.2900, 20873.00
190.5120, 20721.00
191.7340, 20809.00
192.9560, 20970.00
194.1780, 20949.00
195.4000, 21009.00
196.6220, 21242.00
197.8430, 21222.00
199.0640, 21197.00
200.2860, 21570.00
201.5070, 21387.00
202.7270, 21779.00
203.9480, 21859.00
205.1690, 21828.00
206.3890, 21958.00
207.6090, 22153.00
208.8290, 22306.00
210.0490, 22624.00
211.2690, 23174.00
212.4890, 23368.00
213.7080, 23724.00
214.9280, 23975.00
216.1470, 23935.00
217.3660, 24257.00
218.5850, 24316.00
219.8030, 24307.00
221.0220, 24562.00
222.2400, 24715.00
223.4590, 24620.00
224.6770, 24685.00
225.8950, 24223.00
227.1120, 24345.00
228.3300, 24012.00
229.5480, 23797.00
230.7650, 23769.00
231.9820, 23309.00
233.1990, 23488.00
234.4160, 23085.00
235.6330, 23182.00
236.8490, 23061.00
238.0660, 23052.00
239.2820, 23106.00
240.4980, 23009.00
241.7140, 22960.00
242.9300, 22932.00
244.1460, 23026.00
245.3610, 22960.30
246.5770, 22935.11
247.7920, 22870.00
249.0070, 22853.00
250.2220, 22831.29
251.4370, 22803.41
252.6510, 22789.00
253.8660, 22761.00
255.0800, 22698.00
256.2940, 22646.00
257.5080, 22827.00
258.7220, 22483.00
259.9360, 22780.00
261.1490, 22602.00
262.3630, 22703.00
263.5760, 22730.00
264.7890, 22555.00
266.0020, 22600.00
267.2150, 22656.00
268.4270, 22535.00
269.6400, 22681.00
270.8520, 22756.00
272.0640, 22623.00
273.2760, 22688.00
274.4880, 22684.00
275.7000, 22648.00
276.9120, 22774.00
278.1230, 22912.00
279.3340, 22908.00
280.5450, 22876.00
281.7560, 23053.00
282.9670, 22987.00
284.1780, 23136.00
285.3880, 22945.00
286.5980, 23159.00
287.8090, 23196.00
289.0190, 23199.00
290.2290, 23341.00
291.4380, 23245.00
292.6480, 23420.00
293.8570, 23343.00
295.0670, 23325.00
296.2760, 23370.00
297.4850, 23607.00
298.6930, 23424.00
299.9020, 23570.00
301.1110, 23201.00
302.3190, 23601.00
303.5270, 23589.00
304.7350, 23657.00
305.9430, 23853.00
307.1510, 23541.00
308.3580, 23401.00
309.5660, 23732.00
310.7730, 23605.00
311.9800, 23839.00
313.1870, 23817.00
314.3940, 23965.00
315.6010, 23800.00
316.8070, 23968.00
318.0130, 23910.00
319.2200, 23905.00
320.4260, 24109.00
321.6310, 24074.00
322.8370, 23965.00
324.0430, 24136.00
325.2480, 24162.00
326.4540, 24329.00
327.6590, 24329.96
328.8640, 24262.00
330.0680, 24353.00
331.2730, 24238.00
332.4780, 24282.00
333.6820, 24291.00
334.8860, 24349.80
336.0900, 24563.00
337.2940, 24583.00
338.4980, 24689.00
339.7010, 24874.00
340.9050, 24937.00
342.1080, 24985.74
343.3110, 25107.00
344.5140, 24993.00
345.7170, 25055.00
346.9200, 25024.00
348.1220, 24952.00
349.3240, 25166.00
350.5270, 25095.84
351.7290, 25150.00
352.9310, 25216.00
354.1320, 25285.00
355.3340, 25511.00
356.5350, 25707.00
357.7370, 25906.00
358.9380, 26011.00
360.1390, 26506.00
361.3400, 26508.00
362.5400, 26505.00
363.7410, 26523.00
364.9410, 26438.00
366.1410, 26533.00
367.3410, 26477.00
368.5410, 26635.00
369.7410, 26480.00
370.9400, 26258.00
372.1400, 26444.00
373.3390, 26267.00
374.5380, 26169.00
375.7370, 26129.00
376.9360, 26269.00
378.1350, 26172.00
379.3330, 26451.37
380.5310, 26878.00
381.7300, 26969.00
382.9280, 27300.00
384.1260, 27519.00
385.3230, 27548.13
386.5210, 27636.00
387.7180, 27541.00
388.9160, 27596.00
390.1130, 27453.00
391.3100, 27408.00
392.5060, 27245.00
393.7030, 27132.73
394.9000, 26973.00
396.0960, 26882.00
397.2920, 26738.00
398.4880, 26639.00
399.6840, 26660.61
400.8800, 26587.00
402.0750, 26747.00
403.2710, 26917.00
404.4660, 26978.00
405.6610, 27086.00
406.8560, 27081.00
408.0510, 27071.00
409.2450, 27040.00
410.4400, 27200.00
411.6340, 27202.00
412.8280, 27200.00
414.0220, 26918.00
415.2160, 26908.00
416.4100, 27173.00
417.6030, 26666.00
418.7970, 26833.00
419.9900, 26770.00
421.1830, 26620.00
422.3760, 26541.00
423.5690, 26318.00
424.7610, 26676.00
425.9540, 26797.00
427.1460, 26760.00
428.3380, 26829.00
429.5300, 26677.00
430.7220, 26679.00
431.9140, 26640.00
433.1050, 26758.00
434.2970, 26667.00
435.4880, 26663.00
436.6790, 26792.00
437.8700, 26632.00
439.0610, 26539.00
440.2510, 26756.00
441.4420, 26840.00
442.6320, 26613.00
443.8220, 26577.00
445.0120, 26572.64
446.2020, 26616.00
447.3910, 26579.00
448.5810, 26653.00
449.7700, 26716.00
450.9600, 26908.00
452.1490, 26639.00
453.3370, 26688.00
454.5260, 27084.00
455.7150, 26955.00
456.9030, 27154.00
458.0910, 27204.00
459.2800, 27061.00
460.4670, 27075.00
461.6550, 26956.00
462.8430, 26756.00
464.0300, 27219.00
465.2180, 27136.00
466.4050, 27304.00
467.5920, 27143.00
468.7790, 27424.00
469.9650, 27263.00
471.1520, 27071.00
472.3380, 27380.00
473.5250, 27318.00
474.7110, 27256.00
475.8970, 27665.00
477.0820, 27500.00
478.2680, 27558.00
479.4540, 27723.00
480.6390, 27573.00
481.8240, 27734.00
483.0090, 27555.00
484.1940, 27850.00
485.3780, 27694.00
486.5630, 27698.00
487.7470, 27834.00
488.9320, 27863.00
490.1160, 27884.00
491.3000, 28013.00
492.4830, 28080.00
493.6670, 27827.00
494.8500, 27892.00
496.0340, 28070.00
497.2170, 28322.00
498.4000, 27917.00
499.5820, 28032.00
500.7650, 28128.00
501.9480, 28058.00
503.1300, 28446.00
504.3120, 28544.00
505.4940, 28455.00
506.6760, 28725.00
507.8580, 28643.00
509.0390, 28870.00
510.2210, 29049.00
511.4020, 28875.00
512.5830, 28853.00
513.7640, 29010.00
514.9450, 28874.00
516.1250, 29101.00
517.3060, 28972.00
518.4860, 28991.00
519.6660, 29110.00
520.8460, 29187.00
522.0260, 29240.84
523.2060, 29316.90
524.3850, 29353.00
525.5650, 29384.00
526.7440, 29406.00
527.9230, 29396.08
529.1020, 29275.00
530.2810, 29338.00
531.4590, 29261.00
532.6380, 29189.00
533.8160, 29225.78
534.9940, 29187.04
536.1720, 29261.00
537.3500, 29271.00
538.5270, 29337.00
539.7050, 29532.00
540.8820, 29348.00
542.0590, 29228.00
543.2360, 29436.00
544.4130, 29232.00
545.5900, 29368.00
546.7660, 29493.00
547.9430, 29557.00
549.1190, 29401.00
550.2950, 29590.00
551.4710, 29506.00
552.6470, 29493.00
553.8220, 29571.00
554.9980, 29655.00
556.1730, 29625.60
557.3480, 29620.00
558.5230, 29699.00
559.6980, 29647.00
560.8730, 29882.00
562.0470, 29762.00
563.2220, 29562.00
564.3960, 29917.00
565.5700, 30272.00
566.7440, 29871.00
567.9170, 29866.00
569.0910, 30129.00
570.2640, 30197.00
571.4380, 30320.00
572.6110, 30340.08
573.7840, 30143.00
574.9570, 30275.00
576.1290, 29993.00
577.3020, 29931.00
578.4740, 30174.00
579.6460, 30264.00
580.8180, 30296.00
581.9900, 30421.75
583.1620, 30312.00
584.3330, 30503.00
585.5040, 30455.00
586.6760, 30413.00
587.8470, 30313.00
589.0180, 30315.00
590.1880, 30375.00
591.3590, 30498.00
592.5290, 30463.95
593.7000, 30271.00
594.8700, 30469.00
596.0400, 30413.00
597.2090, 30436.00
598.3790, 30591.00
599.5490, 30718.00
600.7180, 30530.00
601.8870, 30432.00
603.0560, 30622.00
604.2250, 30685.00
605.3940, 30675.00
606.5620, 30733.00
607.7300, 30804.12
608.8990, 31026.00
610.0670, 30905.00
611.2350, 31162.00
612.4020, 31091.00
613.5700, 31207.00
614.7370, 31116.00
615.9050, 31281.00
617.0720, 31484.00
618.2390, 31396.00
619.4060, 31238.00
620.5720, 31537.00
621.7390, 31706.00
622.9050, 31471.00
624.0710, 31618.00
625.2370, 31743.00
626.4030, 31706.00
627.5690, 31828.00
628.7340, 31710.00
629.9000, 31562.00
631.0650, 31829.00
632.2300, 31786.00
633.3950, 31479.00
634.5600, 32043.00
635.7240, 31797.00
636.8890, 32057.00
638.0530, 32185.00
639.2170, 32511.00
640.3810, 32573.00
641.5450, 32579.00
642.7080, 32691.00
643.8720, 32591.00
645.0350, 32855.00
646.1980, 32959.00
647.3610, 32892.00
648.5240, 33025.00
649.6870, 33027.00
650.8490, 33534.00
652.0120, 33667.00
653.1740, 33876.00
654.3360, 33787.00
655.4980, 34385.00
656.6600, 34764.00
657.8210, 35054.00
658.9830, 35726.00
660.1440, 36537.00
661.3050, 37409.00
662.4660, 38834.00
663.6270, 40159.00
664.7870, 41347.00
665.9480, 42661.00
667.1080, 43071.00
668.2680, 43214.00
669.4280, 43062.00
670.5880, 42608.00
671.7480, 41594.00
672.9070, 40661.00
674.0670, 39727.00
675.2260, 38684.00
676.3850, 37803.00
677.5440, 37023.00
678.7030, 36340.00
679.8610, 35617.00
681.0200, 35367.00
682.1780, 34837.00
683.3360, 34648.00
684.4940, 34406.00
685.6520, 34279.00
686.8090, 33999.00
687.9670, 33983.00
689.1240, 33929.00
690.2810, 33763.00
691.4380, 33665.00
692.5950, 33680.00
693.7520, 33477.00
694.9080, 33506.00
696.0650, 33483.00
697.2210, 33562.00
698.3770, 33548.76
699.5330, 33450.00
700.6880, 33520.00
701.8440, 33505.00
702.9990, 33391.00
704.1550, 33291.00
705.3100, 33543.00
706.4650, 33494.00
707.6190, 33488.00
708.7740, 33717.00
709.9290, 33438.00
711.0830, 33725.00
712.2370, 33735.00
713.3910, 33775.00
714.5450, 33849.69
715.6980, 33791.00
716.8520, 33834.00
718.0050, 33842.00
719.1580, 33794.00
720.3110, 34026.00
721.4640, 34146.00
722.6170, 34011.00
723.7700, 33813.00
724.9220, 34100.00
726.0740, 34068.00
727.2260, 34068.00
728.3780, 34414.00
729.5300, 33988.00
730.6810, 34594.00
731.8330, 34668.00
732.9840, 34308.00
734.1350, 34632.00
735.2860, 34660.00
736.4370, 34796.00
737.5880, 34848.00
738.7380, 34704.00
739.8880, 34845.00
741.0390, 34971.00
742.1890, 35219.00
743.3380, 35035.00
744.4880, 35167.00
745.6380, 35153.00
746.7870, 35035.00
747.9360, 35031.00
749.0850, 35086.00
750.2340, 34968.00
751.3830, 34952.00
752.5310, 34905.96
753.6800, 34874.47
754.8280, 34846.00
755.9760, 34907.00
757.1240, 35002.00
758.2720, 35142.00
759.4190, 35065.00
760.5670, 35081.00
761.7140, 35259.00
762.8610, 35011.00
764.0080, 35277.00
765.1550, 35137.00
766.3020, 35318.00
767.4480, 35251.00
768.5950, 35104.00
769.7410, 35179.00
770.8870, 35476.00
772.0330, 35216.00
773.1780, 35430.00
774.3240, 35148.00
775.4690, 35405.00
776.6140, 35428.00
777.7590, 35619.00
778.9040, 35463.00
780.0490, 35548.00
781.1940, 35556.00
782.3380, 35422.00
783.4820, 35628.00
784.6260, 35910.00
785.7700, 35721.00
786.9140, 35833.00
788.0580, 35795.00
789.2010, 35825.00
790.3450, 35842.19
791.4880, 35934.00
792.6310, 35825.00
793.7730, 35903.00
794.9160, 35867.00
796.0590, 35707.00
797.2010, 36052.00
798.3430, 35963.00
799.4850, 36101.00
800.6270, 36079.00
801.7690, 36026.00
802.9100, 36197.00
804.0520, 36227.00
805.1930, 36115.00
806.3340, 36333.00
807.4750, 36151.00
808.6160, 36289.00
809.7560, 36298.00
810.8970, 36617.00
812.0370, 36350.00
813.1770, 36564.00
814.3170, 36875.00
815.4570, 36461.00
816.5960, 36608.00
817.7360, 36738.00
818.8750, 36730.00
820.0140, 36951.00
821.1530, 36637.00
822.2920, 36683.00
823.4310, 36917.00
824.5690, 37077.00
825.7070, 37243.00
826.8460, 37105.00
827.9840, 37214.05
829.1220, 37032.00
830.2590, 37166.00
831.3970, 37192.00
832.5340, 37105.00
833.6710, 37265.00
834.8080, 37458.00
835.9450, 37482.00
837.0820, 37588.45
838.2190, 37493.00
839.3550, 37661.00
840.4910, 37583.00
841.6270, 37576.00
842.7630, 37776.00
843.8990, 37725.00
845.0350, 37697.00
846.1700, 37898.00
847.3060, 37809.00
848.4410, 37815.00
849.5760, 37805.00
850.7100, 38142.00
851.8450, 37946.00
852.9800, 38223.00
854.1140, 38187.00
855.2480, 38107.00
856.3820, 38353.00
857.5160, 38352.00
858.6500, 38149.00
859.7830, 38555.00
860.9170, 38090.00
862.0500, 38262.00
863.1830, 38399.00
864.3160, 38439.00
865.4480, 38500.14
866.5810, 38407.00
867.7130, 38487.00
868.8460, 38418.00
869.9780, 38360.00
871.1100, 38458.00
872.2410, 38695.00
873.3730, 38412.00
874.5050, 38576.00
875.6360, 38427.00
876.7670, 38644.00
877.8980, 38744.00
879.0290, 38718.00
880.1590, 38850.00
881.2900, 38955.00
882.4200, 38979.00
883.5500, 38981.95
884.6800, 38796.00
885.8100, 38888.00
886.9400, 38906.00
888.0690, 38873.00
889.1990, 39051.00
890.3280, 38730.00
891.4570, 39441.00
892.5860, 39105.00
893.7140, 39194.00
894.8430, 38991.00
895.9710, 39397.00
897.1000, 39171.00
898.2280, 39378.00
899.3560, 39249.00
900.4830, 39387.00
901.6110, 39529.00
902.7380, 39398.00
903.8660, 39623.00
904.9930, 39860.00
906.1200, 39646.00
907.2460, 39814.00
908.3730, 39961.00
909.5000, 39706.00
910.6260, 39992.00
911.7520, 39798.00
912.8780, 39807.00
914.0040, 39904.00
915.1290, 39867.00
916.2550, 39921.00
917.3800, 40022.00
918.5050, 40211.00
919.6300, 40337.00
920.7550, 40461.00
921.8800, 40766.00
923.0040, 40743.00
924.1290, 40788.00
925.2530, 40949.00
926.3770, 41221.00
927.5010, 40988.00
928.6250, 41188.00
929.7480, 41144.00
930.8720, 40963.00
931.9950, 40944.00
933.1180, 40890.52
934.2410, 40867.00
935.3640, 40868.00
936.4860, 40843.00
937.6090, 40882.00
938.7310, 40882.00
939.8530, 40904.39
940.9750, 40903.00
942.0970, 40976.00
943.2180, 41086.00
944.3400, 41165.62
945.4610, 40804.00
946.5820, 41166.00
947.7030, 41112.00
948.8240, 40834.00
949.9450, 41000.00
951.0650, 41265.00
952.1860, 41064.00
953.3060, 41095.00
954.4260, 41026.00
955.5460, 41028.00
956.6650, 41095.40
957.7850, 41042.00
958.9040, 41276.00
960.0230, 41264.00
961.1420, 41401.00
962.2610, 41287.00
963.3800, 41323.00
964.4990, 41350.00
965.6170, 41273.00
966.7350, 41425.00
967.8530, 41321.00
968.9710, 41217.00
970.0890, 41473.00
971.2070, 41388.00
972.3240, 41593.00
973.4410, 41612.00
974.5580, 41545.00
975.6750, 41618.00
976.7920, 41623.00
977.9090, 41513.00
979.0250, 41833.00
980.1410, 41878.00
981.2580, 41784.00
982.3740, 41873.00
983.4890, 41776.00
984.6050, 41695.00
985.7200, 42022.00
986.8360, 42237.00
987.9510, 42103.00
989.0660, 42127.00
990.1810, 42241.00
991.2950, 42142.00
992.4100, 42357.00
993.5240, 42274.00
994.6390, 42250.00
995.7530, 42589.00
996.8660, 42734.00
997.9800, 42722.00
999.0940, 42823.00
1000.207, 42958.00
1001.320, 42671.00
1002.433, 43074.00
1003.546, 42542.00
1004.659, 42955.00
1005.772, 43054.00
1006.884, 42973.00
1007.996, 43057.00
1009.108, 43131.00
1010.220, 42915.00
1011.332, 43349.00
1012.444, 43114.00
1013.555, 43179.00
1014.666, 43734.00
1015.777, 43675.00
1016.888, 43568.00
1017.999, 44149.00
1019.110, 44189.00
1020.220, 44404.00
1021.331, 44586.00
1022.441, 44537.00
1023.551, 44813.00
1024.661, 45048.00
1025.770, 45319.00
1026.880, 45281.00
1027.989, 45108.00
1029.098, 44917.00
1030.207, 44803.00
1031.316, 44951.00
1032.425, 44632.00
1033.533, 44471.00
1034.642, 44135.00
1035.750, 44021.00
1036.858, 44039.00
1037.966, 43989.74
1039.073, 44060.00
1040.181, 44176.00
1041.288, 44357.00
1042.396, 44507.00
1043.503, 44500.00
1044.610, 44581.00
1045.716, 44669.57
1046.823, 44692.00
1047.929, 44824.00
1049.036, 44913.00
1050.142, 44975.00
1051.248, 45215.00
1052.353, 45473.00
1053.459, 45334.00
1054.564, 45691.00
1055.670, 45624.00
1056.775, 45789.00
1057.880, 45817.00
1058.985, 45802.55
1060.089, 45872.60
1061.194, 45782.00
1062.298, 45888.00
1063.402, 45888.52
1064.506, 45868.00
1065.610, 45777.00
1066.713, 45834.00
1067.817, 45697.00
1068.920, 45559.00
1070.023, 45691.00
1071.126, 45208.00
1072.229, 45309.00
1073.332, 45023.00
1074.435, 45158.00
1075.537, 44833.00
1076.639, 44847.00
1077.741, 45017.00
1078.843, 44911.00
1079.945, 45343.00
1081.046, 45273.00
1082.148, 44958.00
1083.249, 45252.00
1084.350, 45435.00
1085.451, 45158.00
1086.551, 45371.00
1087.652, 45275.00
1088.752, 45083.00
1089.853, 45290.00
1090.953, 45122.00
1092.053, 45019.00
1093.152, 45334.00
1094.252, 45241.00
1095.351, 45219.00
1096.451, 45675.00
1097.550, 45406.00
1098.649, 45301.00
1099.748, 45517.00
1100.846, 45234.00
1101.945, 45429.00
1103.043, 45491.00
1104.141, 45636.00
1105.239, 45554.00
1106.337, 45696.00
1107.434, 45580.00
1108.532, 45724.00
1109.629, 45604.00
1110.726, 45844.00
1111.823, 45818.39
1112.920, 45985.00
1114.017, 45890.00
1115.113, 45911.00
1116.210, 45964.00
1117.306, 45949.00
1118.402, 45975.00
1119.498, 45946.00
1120.593, 46194.00
1121.689, 46375.00
1122.784, 46090.00
1123.879, 46340.00
1124.974, 46041.00
1126.069, 46214.00
1127.164, 45917.00
1128.259, 46532.00
1129.353, 46453.00
1130.447, 46412.00
1131.541, 46265.00
1132.635, 46518.00
1133.729, 46419.00
1134.822, 46637.00
1135.916, 46514.00
1137.009, 46851.00
1138.102, 46455.00
1139.195, 46648.00
1140.288, 46501.00
1141.380, 46544.00
1142.473, 46865.00
1143.565, 46703.00
1144.657, 46826.00
1145.749, 46465.00
1146.841, 46818.00
1147.932, 46705.00
1149.024, 46814.00
1150.115, 46963.00
1151.206, 47237.00
1152.297, 46762.00
1153.388, 46943.00
1154.479, 46828.00
1155.569, 46953.00
1156.659, 46726.00
1157.750, 47112.00
1158.839, 47387.00
1159.929, 46958.00
1161.019, 47325.00
1162.108, 47193.00
1163.198, 47379.00
1164.287, 47226.00
1165.376, 47083.00
1166.465, 47357.00
1167.553, 47260.00
1168.642, 47500.00
1169.730, 47490.00
1170.818, 47458.00
1171.906, 47742.00
1172.994, 47809.00
1174.082, 47845.00
1175.170, 47641.00
1176.257, 47674.00
1177.344, 47675.00
1178.431, 47793.00
1179.518, 47636.00
1180.605, 47785.00
1181.691, 47856.00
1182.778, 47729.00
1183.864, 47858.00
1184.950, 48035.00
1186.036, 47919.00
1187.122, 48196.00
1188.207, 48345.00
1189.292, 48203.00
1190.378, 48221.00
1191.463, 48188.00
1192.548, 48107.00
1193.632, 48142.00
1194.717, 48353.00
1195.801, 48246.00
1196.886, 48375.00
1197.970, 48421.00
1199.054, 48332.00
1200.137, 48489.00
1201.221, 48718.00
1202.305, 48618.00
1203.388, 48644.00
1204.471, 48784.00
1205.554, 48612.00
1206.637, 48551.00
1207.719, 48527.00
1208.802, 48548.80
1209.884, 48433.00
1210.966, 48795.00
1212.048, 48726.00
1213.130, 49008.00
1214.212, 48990.00
1215.293, 49223.00
1216.374, 48923.00
1217.456, 49206.00
1218.536, 49154.00
1219.617, 49139.00
1220.698, 49224.00
1221.778, 48908.00
1222.859, 49353.00
1223.939, 48916.00
1225.019, 49423.00
1226.099, 49242.00
1227.178, 49273.00
1228.258, 49402.00
1229.337, 49360.00
1230.417, 49494.00
1231.496, 49697.00
1232.574, 49640.00
1233.653, 49938.00
1234.732, 49546.00
1235.810, 49271.00
1236.888, 49682.00
1237.966, 49999.00
1239.044, 49795.00
1240.122, 49811.00
1241.199, 50019.00
1242.277, 50064.00
1243.354, 49755.00
1244.431, 49771.00
1245.508, 49839.00
1246.585, 49811.37
1247.661, 49903.19
1248.738, 49988.00
1249.814, 50034.00
1250.890, 50092.00
1251.966, 50107.00
1253.042, 49969.00
1254.117, 49730.00
1255.193, 49731.00
1256.268, 49659.00
1257.343, 49921.00
1258.418, 49732.00
1259.493, 50058.00
1260.567, 50335.00
1261.642, 50148.00
1262.716, 50500.00
1263.790, 50735.00
1264.864, 50713.00
1265.938, 51049.00
1267.011, 50747.00
1268.085, 50752.00
1269.158, 50792.00
1270.231, 50919.00
1271.304, 50767.00
1272.377, 50757.00
1273.450, 50768.00
1274.522, 50794.00
1275.594, 50822.00
1276.666, 50850.12
1277.738, 51184.00
1278.810, 51007.00
1279.882, 50969.00
1280.953, 51231.00
1282.025, 51029.00
1283.096, 51209.00
1284.167, 51495.00
1285.238, 50871.00
1286.308, 51322.00
1287.379, 51377.00
1288.449, 51397.00
1289.519, 51387.00
1290.589, 51466.00
1291.659, 51501.30
1292.729, 51750.00
1293.798, 51569.00
1294.868, 51802.00
1295.937, 51721.00
1297.006, 51970.00
1298.075, 51732.00
1299.143, 51949.00
1300.212, 51675.00
1301.280, 51773.00
1302.348, 51947.00
1303.416, 51922.00
