##NAMES=Actinolite
##RRUFFID=R060045
##IDEAL CHEMISTRY=Ca_2_(Mg_4.5-2.5_Fe^2+^_0.5-2.5_)Si_8_O_22_(OH)_2_
##LOCALITY=Colorado, USA
##OWNER=RRUFF
##SOURCE=University of Arizona Mineral Museum
##DESCRIPTION=Green prismatic crystals in a radial arrangement
##STATUS=The identification of this mineral has been confirmed by X-ray diffraction and chemical analysis
##URL=rruff.info/R060045
##MEASURED CHEMISTRY=(Ca_1.99_Na_0.01_)_Σ=2_(Mg_4.20_Fe^2+^_0.59_Al_0.09_Fe^3+^_0.08_Mn_0.02_Ti_0.01_)_Σ=5_(Si_7.82_Al_0.18_)_Σ=8_O_22_(OH)_2_
##PIN_ID=M00311
##ORIENTATION=Laser parallel to c* (0 0 1). Fiducial mark perpendicular to laser is parallel to a [1 0 0]
134.1270, 14027.00
135.3560, 13989.00
136.5850, 14111.00
137.8140, 14275.00
139.0430, 14380.00
140.2710, 14666.00
141.5000, 14642.00
142.7280, 14906.00
143.9560, 15367.00
145.1840, 16117.00
146.4120, 17340.00
147.6390, 18589.00
148.8670, 19745.00
150.0940, 20332.00
151.3210, 20456.00
152.5490, 20434.00
153.7750, 20170.00
155.0020, 20201.00
156.2290, 19996.00
157.4550, 19583.00
158.6810, 19513.00
159.9080, 19364.00
161.1340, 19188.00
162.3590, 19147.00
163.5850, 19335.00
164.8110, 20155.00
166.0360, 21794.00
167.2610, 23593.00
168.4860, 25255.00
169.7110, 26026.00
170.9360, 25971.00
172.1610, 25762.00
173.3850, 25940.00
174.6100, 25387.00
175.8340, 24688.00
177.0580, 23973.00
178.2820, 23087.00
179.5050, 22145.00
180.7290, 21098.00
181.9520, 19773.00
183.1760, 18602.00
184.3990, 18005.00
185.6220, 17395.00
186.8450, 17018.00
188.0670, 16945.00
189.2900, 17106.00
190.5120, 16850.00
191.7340, 16645.00
192.9560, 16761.00
194.1780, 16772.00
195.4000, 16929.00
196.6220, 16985.00
197.8430, 17281.00
199.0640, 17254.00
200.2860, 17669.00
201.5070, 17996.00
202.7270, 18366.00
203.9480, 18847.00
205.1690, 19494.00
206.3890, 20033.00
207.6090, 21230.00
208.8290, 22594.00
210.0490, 24337.00
211.2690, 26434.00
212.4890, 28556.00
213.7080, 29767.00
214.9280, 30813.00
216.1470, 30992.00
217.3660, 30977.00
218.5850, 31088.00
219.8030, 30088.00
221.0220, 29480.00
222.2400, 28180.00
223.4590, 26766.00
224.6770, 25290.00
225.8950, 23860.00
227.1120, 22605.00
228.3300, 21172.00
229.5480, 20177.00
230.7650, 19540.00
231.9820, 18811.00
233.1990, 18410.00
234.4160, 17960.00
235.6330, 17806.00
236.8490, 17750.00
238.0660, 17613.00
239.2820, 17574.05
240.4980, 17412.00
241.7140, 17468.00
242.9300, 17459.00
244.1460, 17327.00
245.3610, 17383.00
246.5770, 17332.20
247.7920, 17272.00
249.0070, 17318.00
250.2220, 17263.00
251.4370, 17273.00
252.6510, 17232.00
253.8660, 17204.04
255.0800, 17199.80
256.2940, 17206.00
257.5080, 17218.00
258.7220, 17355.00
259.9360, 17466.00
261.1490, 17385.00
262.3630, 17340.00
263.5760, 17255.00
264.7890, 17221.00
266.0020, 17246.00
267.2150, 17309.00
268.4270, 17247.00
269.6400, 17290.84
270.8520, 17305.00
272.0640, 17294.00
273.2760, 17375.00
274.4880, 17356.00
275.7000, 17589.00
276.9120, 17425.00
278.1230, 17634.00
279.3340, 17838.00
280.5450, 17755.00
281.7560, 17796.00
282.9670, 18003.00
284.1780, 18097.00
285.3880, 18263.00
286.5980, 18216.00
287.8090, 18380.00
289.0190, 18322.00
290.2290, 18543.00
291.4380, 18734.00
292.6480, 18759.00
293.8570, 18989.00
295.0670, 18903.00
296.2760, 19178.00
297.4850, 18949.00
298.6930, 18990.00
299.9020, 19096.00
301.1110, 18928.00
302.3190, 18640.00
303.5270, 18640.00
304.7350, 18472.00
305.9430, 18589.00
307.1510, 18483.00
308.3580, 18277.00
309.5660, 18445.00
310.7730, 18396.00
311.9800, 18476.00
313.1870, 18513.00
314.3940, 18482.00
315.6010, 18492.00
316.8070, 18537.20
318.0130, 18432.00
319.2200, 18662.00
320.4260, 18723.00
321.6310, 18851.00
322.8370, 18750.00
324.0430, 18908.00
325.2480, 19229.00
326.4540, 19141.00
327.6590, 18777.00
328.8640, 19217.00
330.0680, 19172.00
331.2730, 18956.00
332.4780, 19167.00
333.6820, 19157.00
334.8860, 19212.00
336.0900, 19141.00
337.2940, 19366.00
338.4980, 19339.00
339.7010, 19316.00
340.9050, 19505.00
342.1080, 19630.00
343.3110, 19537.00
344.5140, 19370.00
345.7170, 19690.00
346.9200, 19583.00
348.1220, 19956.00
349.3240, 19785.00
350.5270, 19689.00
351.7290, 19965.00
352.9310, 19788.00
354.1320, 20077.00
355.3340, 19871.00
356.5350, 19830.00
357.7370, 20092.00
358.9380, 20210.00
360.1390, 20437.00
361.3400, 20528.11
362.5400, 20647.93
363.7410, 20698.00
364.9410, 20708.00
366.1410, 20808.00
367.3410, 20572.00
368.5410, 20387.00
369.7410, 20108.00
370.9400, 20263.00
372.1400, 20296.00
373.3390, 20108.00
374.5380, 20143.00
375.7370, 20166.00
376.9360, 20197.87
378.1350, 20267.00
379.3330, 20387.00
380.5310, 20590.00
381.7300, 20664.00
382.9280, 20737.00
384.1260, 20645.00
385.3230, 21095.00
386.5210, 21107.00
387.7180, 21196.00
388.9160, 20994.00
390.1130, 20960.72
391.3100, 20992.00
392.5060, 20717.00
393.7030, 20607.00
394.9000, 20525.00
396.0960, 20479.00
397.2920, 20227.00
398.4880, 20144.00
399.6840, 20204.00
400.8800, 19990.00
402.0750, 20277.00
403.2710, 20166.00
404.4660, 20146.00
405.6610, 20114.00
406.8560, 20199.00
408.0510, 20201.00
409.2450, 20343.00
410.4400, 20180.00
411.6340, 20292.00
412.8280, 20166.00
414.0220, 20215.00
415.2160, 19945.00
416.4100, 20168.00
417.6030, 20105.00
418.7970, 19963.00
419.9900, 20014.00
421.1830, 20029.00
422.3760, 19982.00
423.5690, 19988.00
424.7610, 19981.01
425.9540, 19882.00
427.1460, 20015.00
428.3380, 20077.00
429.5300, 20185.00
430.7220, 20006.00
431.9140, 20157.00
433.1050, 20221.00
434.2970, 19923.00
435.4880, 20327.00
436.6790, 20220.00
437.8700, 20261.00
439.0610, 20115.00
440.2510, 20266.00
441.4420, 20367.00
442.6320, 20370.00
443.8220, 20456.00
445.0120, 20452.00
446.2020, 20386.00
447.3910, 20288.00
448.5810, 20412.00
449.7700, 20416.00
450.9600, 20231.00
452.1490, 20381.00
453.3370, 20574.00
454.5260, 20720.00
455.7150, 20381.00
456.9030, 20640.00
458.0910, 20586.00
459.2800, 20613.00
460.4670, 20755.00
461.6550, 20668.00
462.8430, 20629.00
464.0300, 20630.00
465.2180, 20609.00
466.4050, 20659.00
467.5920, 20780.00
468.7790, 20818.00
469.9650, 20716.00
471.1520, 21095.00
472.3380, 20821.00
473.5250, 21002.00
474.7110, 20774.00
475.8970, 20929.00
477.0820, 21099.00
478.2680, 20950.00
479.4540, 21017.00
480.6390, 21057.00
481.8240, 20976.00
483.0090, 21230.00
484.1940, 21176.00
485.3780, 21228.00
486.5630, 21243.00
487.7470, 21173.00
488.9320, 21119.00
490.1160, 21155.00
491.3000, 21124.00
492.4830, 21237.00
493.6670, 21178.00
494.8500, 21248.00
496.0340, 21125.00
497.2170, 21476.00
498.4000, 21319.00
499.5820, 21520.00
500.7650, 21545.00
501.9480, 21546.00
503.1300, 21655.00
504.3120, 21623.00
505.4940, 21575.00
506.6760, 21699.00
507.8580, 21670.00
509.0390, 21760.00
510.2210, 21921.00
511.4020, 22076.00
512.5830, 21718.00
513.7640, 22090.00
514.9450, 22226.00
516.1250, 22008.00
517.3060, 22337.00
518.4860, 22131.00
519.6660, 22211.00
520.8460, 22404.00
522.0260, 22222.00
523.2060, 22482.00
524.3850, 22493.00
525.5650, 22552.00
526.7440, 22534.00
527.9230, 22406.00
529.1020, 22309.00
530.2810, 22398.00
531.4590, 22499.00
532.6380, 22550.00
533.8160, 22619.00
534.9940, 22504.00
536.1720, 22741.00
537.3500, 22640.00
538.5270, 22379.00
539.7050, 22558.00
540.8820, 22535.00
542.0590, 22336.00
543.2360, 22499.00
544.4130, 22481.00
545.5900, 22334.00
546.7660, 22473.00
547.9430, 22417.00
549.1190, 22617.00
550.2950, 22644.00
551.4710, 22590.00
552.6470, 22502.00
553.8220, 22561.99
554.9980, 22558.00
556.1730, 22668.00
557.3480, 22646.00
558.5230, 22772.00
559.6980, 22568.00
560.8730, 22608.00
562.0470, 23049.00
563.2220, 22751.00
564.3960, 22815.00
565.5700, 22971.00
566.7440, 22937.00
567.9170, 22945.00
569.0910, 22790.00
570.2640, 22838.00
571.4380, 22942.00
572.6110, 23144.00
573.7840, 22921.00
574.9570, 23084.00
576.1290, 23299.00
577.3020, 23000.00
578.4740, 23105.00
579.6460, 23116.00
580.8180, 23106.00
581.9900, 23301.00
583.1620, 23089.00
584.3330, 23234.00
585.5040, 23244.00
586.6760, 23128.00
587.8470, 23347.00
589.0180, 23186.00
590.1880, 23408.00
591.3590, 23501.00
592.5290, 23433.00
593.7000, 23302.00
594.8700, 23434.00
596.0400, 23436.00
597.2090, 23447.00
598.3790, 23440.00
599.5490, 23493.42
600.7180, 23506.47
601.8870, 23623.00
603.0560, 23594.00
604.2250, 23693.00
605.3940, 23793.00
606.5620, 23720.00
607.7300, 23754.00
608.8990, 23755.00
610.0670, 23886.00
611.2350, 23896.00
612.4020, 23780.00
613.5700, 23869.00
614.7370, 24091.00
615.9050, 24371.00
617.0720, 24191.00
618.2390, 24088.00
619.4060, 24387.00
620.5720, 24483.00
621.7390, 24560.00
622.9050, 24460.00
624.0710, 24564.00
625.2370, 24435.00
626.4030, 24644.00
627.5690, 24816.00
628.7340, 25143.00
629.9000, 25105.00
631.0650, 25224.00
632.2300, 25330.12
633.3950, 25129.00
634.5600, 25445.00
635.7240, 25446.00
636.8890, 25484.00
638.0530, 25914.00
639.2170, 26068.00
640.3810, 26429.00
641.5450, 26550.00
642.7080, 26921.00
643.8720, 27379.00
645.0350, 27636.00
646.1980, 27704.00
647.3610, 27880.00
648.5240, 28655.00
649.6870, 28642.00
650.8490, 29282.00
652.0120, 29604.00
653.1740, 30352.00
654.3360, 31439.00
655.4980, 32202.00
656.6600, 33572.00
657.8210, 34785.00
658.9830, 36813.00
660.1440, 39349.00
661.3050, 42329.00
662.4660, 45639.00
663.6270, 49534.00
664.7870, 53201.00
665.9480, 55877.00
667.1080, 57495.00
668.2680, 58294.00
669.4280, 57581.00
670.5880, 55958.00
671.7480, 53422.00
672.9070, 50744.00
674.0670, 47480.00
675.2260, 44178.00
676.3850, 40828.00
677.5440, 37986.00
678.7030, 35316.00
679.8610, 33719.00
681.0200, 32233.00
682.1780, 31117.00
683.3360, 30312.00
684.4940, 29610.00
685.6520, 28950.00
686.8090, 28442.59
687.9670, 27906.00
689.1240, 27683.00
690.2810, 27468.00
691.4380, 27334.00
692.5950, 26995.00
693.7520, 26950.00
694.9080, 26569.00
696.0650, 26860.00
697.2210, 26684.00
698.3770, 26537.00
699.5330, 26573.00
700.6880, 26579.00
701.8440, 26258.00
702.9990, 26269.00
704.1550, 26270.00
705.3100, 26177.00
706.4650, 26353.00
707.6190, 26005.00
708.7740, 26184.00
709.9290, 26177.00
711.0830, 26052.00
712.2370, 26215.00
713.3910, 26192.00
714.5450, 26102.00
715.6980, 26289.00
716.8520, 26109.00
718.0050, 25936.00
719.1580, 26280.00
720.3110, 26225.00
721.4640, 26411.00
722.6170, 26326.00
723.7700, 26399.00
724.9220, 26269.00
726.0740, 26469.00
727.2260, 26322.00
728.3780, 26470.00
729.5300, 26392.00
730.6810, 26117.00
731.8330, 26570.00
732.9840, 26222.00
734.1350, 26547.00
735.2860, 26558.00
736.4370, 26402.00
737.5880, 26716.00
738.7380, 26665.00
739.8880, 26564.00
741.0390, 26782.00
742.1890, 26430.00
743.3380, 26483.00
744.4880, 26575.00
745.6380, 26467.00
746.7870, 26582.00
747.9360, 26679.00
749.0850, 26783.00
750.2340, 26924.00
751.3830, 27056.00
752.5310, 26733.00
753.6800, 26629.00
754.8280, 26805.00
755.9760, 26486.00
757.1240, 26656.00
758.2720, 26663.00
759.4190, 26828.00
760.5670, 26760.00
761.7140, 26945.00
762.8610, 26795.00
764.0080, 26808.00
765.1550, 27056.00
766.3020, 26918.00
767.4480, 26964.00
768.5950, 26864.00
769.7410, 26914.00
770.8870, 27049.00
772.0330, 26882.00
773.1780, 27021.00
774.3240, 27030.00
775.4690, 27117.00
776.6140, 27376.00
777.7590, 27195.00
778.9040, 27011.00
780.0490, 27207.00
781.1940, 27210.00
782.3380, 27118.00
783.4820, 27066.00
784.6260, 27185.00
785.7700, 26995.00
786.9140, 27105.00
788.0580, 27431.00
789.2010, 27417.00
790.3450, 27438.00
791.4880, 27591.00
792.6310, 27613.00
793.7730, 27390.00
794.9160, 27408.00
796.0590, 27202.00
797.2010, 27361.00
798.3430, 27332.00
799.4850, 27377.00
800.6270, 27733.00
801.7690, 27935.00
802.9100, 27822.00
804.0520, 27692.00
805.1930, 27703.00
806.3340, 27924.00
807.4750, 27801.00
808.6160, 27971.00
809.7560, 27813.00
810.8970, 27785.00
812.0370, 27856.00
813.1770, 27925.00
814.3170, 27922.00
815.4570, 28049.00
816.5960, 27998.00
817.7360, 27994.00
818.8750, 28184.00
820.0140, 28222.00
821.1530, 28188.00
822.2920, 28019.00
823.4310, 28217.00
824.5690, 28209.00
825.7070, 28272.00
826.8460, 28325.32
827.9840, 28389.00
829.1220, 28361.00
830.2590, 28354.00
831.3970, 28366.00
832.5340, 28578.00
833.6710, 28520.00
834.8080, 28634.00
835.9450, 28548.00
837.0820, 28470.00
838.2190, 28480.00
839.3550, 28375.00
840.4910, 28438.00
841.6270, 28474.49
842.7630, 28593.00
843.8990, 28614.00
845.0350, 28689.73
846.1700, 28747.52
847.3060, 28769.00
848.4410, 28847.00
849.5760, 28794.00
850.7100, 28833.00
851.8450, 28801.00
852.9800, 28988.00
854.1140, 28751.00
855.2480, 29053.00
856.3820, 29012.00
857.5160, 29258.00
858.6500, 29184.00
859.7830, 29206.00
860.9170, 29215.20
862.0500, 29088.00
863.1830, 29088.00
864.3160, 29035.00
865.4480, 28919.00
866.5810, 29249.00
867.7130, 29395.00
868.8460, 29417.00
869.9780, 29365.00
871.1100, 29532.00
872.2410, 29514.00
873.3730, 29520.00
874.5050, 29371.00
875.6360, 29433.00
876.7670, 29424.00
877.8980, 29312.00
879.0290, 29357.00
880.1590, 29506.00
881.2900, 29625.00
882.4200, 29832.00
883.5500, 29598.00
884.6800, 29889.00
885.8100, 29955.00
886.9400, 29568.00
888.0690, 29915.00
889.1990, 29573.00
890.3280, 29844.00
891.4570, 29819.00
892.5860, 29996.00
893.7140, 29983.00
894.8430, 30287.00
895.9710, 30250.00
897.1000, 30040.00
898.2280, 30540.00
899.3560, 30345.00
900.4830, 30163.00
901.6110, 30433.00
902.7380, 30345.00
903.8660, 30300.00
904.9930, 30631.00
906.1200, 30634.00
907.2460, 30765.00
908.3730, 30807.00
909.5000, 30954.25
910.6260, 31012.00
911.7520, 31242.00
912.8780, 31296.00
914.0040, 31366.00
915.1290, 31565.00
916.2550, 31521.00
917.3800, 31815.00
918.5050, 32283.00
919.6300, 32430.00
920.7550, 32825.00
921.8800, 33416.00
923.0040, 33782.00
924.1290, 34091.00
925.2530, 34307.00
926.3770, 34351.00
927.5010, 34507.00
928.6250, 34384.49
929.7480, 33982.00
930.8720, 33940.00
931.9950, 33581.00
933.1180, 33073.00
934.2410, 33193.00
935.3640, 32964.00
936.4860, 32610.00
937.6090, 32711.00
938.7310, 32483.00
939.8530, 32276.00
940.9750, 32497.00
942.0970, 32404.00
943.2180, 32403.00
944.3400, 32600.00
945.4610, 32474.00
946.5820, 32439.00
947.7030, 32330.00
948.8240, 32442.00
949.9450, 32327.00
951.0650, 32346.00
952.1860, 32182.00
953.3060, 32391.00
954.4260, 32181.00
955.5460, 32293.00
956.6650, 31868.00
957.7850, 31800.00
958.9040, 31888.00
960.0230, 32084.00
961.1420, 32137.00
962.2610, 31959.00
963.3800, 32233.00
964.4990, 32000.00
965.6170, 32105.00
966.7350, 32096.00
967.8530, 32020.00
968.9710, 32092.00
970.0890, 32166.00
971.2070, 31984.00
972.3240, 32013.00
973.4410, 32029.00
974.5580, 32148.00
975.6750, 32071.00
976.7920, 32346.00
977.9090, 32256.00
979.0250, 32590.00
980.1410, 32512.00
981.2580, 32410.00
982.3740, 32369.00
983.4890, 32565.00
984.6050, 32406.00
985.7200, 32499.00
986.8360, 32134.00
987.9510, 32362.00
989.0660, 32456.00
990.1810, 32778.00
991.2950, 32594.00
992.4100, 32673.00
993.5240, 32926.00
994.6390, 32781.00
995.7530, 32888.00
996.8660, 32892.17
997.9800, 32876.00
999.0940, 32898.00
1000.207, 32865.00
1001.320, 32949.00
1002.433, 33218.00
1003.546, 33221.00
1004.659, 33241.00
1005.772, 33470.00
1006.884, 33462.00
1007.996, 33551.00
1009.108, 33480.00
1010.220, 33580.00
1011.332, 33604.00
1012.444, 33730.00
1013.555, 34050.00
1014.666, 34034.00
1015.777, 34117.00
1016.888, 34073.00
1017.999, 34224.62
1019.110, 34432.00
1020.220, 34514.00
1021.331, 34723.00
1022.441, 34866.00
1023.551, 34685.00
1024.661, 34906.00
1025.770, 34754.00
1026.880, 35116.00
1027.989, 35193.00
1029.098, 35224.00
1030.207, 35322.00
1031.316, 35099.00
1032.425, 35612.00
1033.533, 35359.00
1034.642, 35611.00
1035.750, 35799.00
1036.858, 36228.00
1037.966, 36308.00
1039.073, 36929.00
1040.181, 37076.00
1041.288, 37693.00
1042.396, 38166.00
1043.503, 38999.00
1044.610, 40083.00
1045.716, 41039.00
1046.823, 41926.00
1047.929, 43057.00
1049.036, 44526.00
1050.142, 46041.00
1051.248, 47067.00
1052.353, 48164.00
1053.459, 49073.00
1054.564, 49413.00
1055.670, 49054.00
1056.775, 48281.00
1057.880, 47696.00
1058.985, 46444.00
1060.089, 45218.00
1061.194, 44086.00
1062.298, 42972.49
1063.402, 41712.00
1064.506, 40879.00
1065.610, 39953.00
1066.713, 38956.00
1067.817, 38740.00
1068.920, 37850.00
1070.023, 37200.00
1071.126, 36909.00
1072.229, 36395.00
1073.332, 36129.00
1074.435, 35832.00
1075.537, 35501.00
1076.639, 35274.00
1077.741, 35269.00
1078.843, 35212.00
1079.945, 34865.00
1081.046, 34932.00
1082.148, 34766.00
1083.249, 34888.00
1084.350, 35082.00
1085.451, 34921.00
1086.551, 34959.00
1087.652, 34957.00
1088.752, 34672.00
1089.853, 34772.00
1090.953, 34991.00
1092.053, 34585.00
1093.152, 34825.00
1094.252, 34859.00
1095.351, 34727.00
1096.451, 34817.00
1097.550, 34947.00
1098.649, 34919.00
1099.748, 34905.00
1100.846, 35171.00
1101.945, 34870.00
1103.043, 34940.00
1104.141, 34747.00
1105.239, 34719.00
1106.337, 34859.00
1107.434, 34820.00
1108.532, 34853.00
1109.629, 35000.00
1110.726, 35062.00
1111.823, 35077.00
1112.920, 35211.00
1114.017, 34998.00
1115.113, 35083.00
1116.210, 35138.00
1117.306, 34944.00
1118.402, 34902.00
1119.498, 35091.00
1120.593, 35093.00
1121.689, 35205.00
1122.784, 35566.00
1123.879, 35649.00
1124.974, 35654.14
1126.069, 35494.00
1127.164, 35557.00
1128.259, 35315.00
1129.353, 35299.00
1130.447, 35114.00
1131.541, 35179.00
1132.635, 35085.00
1133.729, 35290.00
1134.822, 35374.00
1135.916, 35336.00
1137.009, 35380.00
1138.102, 35401.00
1139.195, 35459.00
1140.288, 35513.00
1141.380, 35443.00
1142.473, 35442.00
1143.565, 35166.00
1144.657, 35205.00
1145.749, 35516.00
1146.841, 35611.00
1147.932, 35212.00
1149.024, 35518.00
1150.115, 35601.00
1151.206, 35520.00
1152.297, 35690.00
1153.388, 35745.00
1154.479, 35836.00
1155.569, 35654.00
1156.659, 35892.00
1157.750, 35621.00
1158.839, 35548.00
1159.929, 35826.00
1161.019, 35683.00
1162.108, 35793.00
1163.198, 35926.00
1164.287, 35959.00
1165.376, 36163.00
1166.465, 36077.00
1167.553, 35963.00
1168.642, 36003.00
1169.730, 35892.46
1170.818, 35961.00
1171.906, 35808.00
1172.994, 35787.00
1174.082, 35834.81
1175.170, 35948.00
1176.257, 36077.00
1177.344, 36111.00
1178.431, 36267.00
1179.518, 36168.00
1180.605, 36161.00
1181.691, 36755.00
1182.778, 36234.00
1183.864, 36403.00
1184.950, 36356.00
1186.036, 35934.00
1187.122, 36064.00
1188.207, 36299.00
1189.292, 36442.00
1190.378, 36559.00
1191.463, 36646.00
1192.548, 36655.00
1193.632, 36634.00
1194.717, 36708.00
1195.801, 36665.00
1196.886, 36740.00
1197.970, 36606.00
1199.054, 36648.00
1200.137, 36534.00
1201.221, 36761.00
1202.305, 36646.00
1203.388, 36875.00
1204.471, 36829.00
1205.554, 37314.00
1206.637, 36990.00
1207.719, 37094.00
1208.802, 36927.00
1209.884, 36875.00
1210.966, 36974.00
1212.048, 36915.00
1213.130, 37167.00
1214.212, 36973.00
1215.293, 36892.00
1216.374, 37106.00
1217.456, 37121.00
1218.536, 37345.00
1219.617, 36989.00
1220.698, 37367.00
1221.778, 37140.00
1222.859, 37383.00
1223.939, 37405.00
1225.019, 37228.00
1226.099, 37330.00
1227.178, 37297.00
1228.258, 37222.00
1229.337, 37420.00
1230.417, 37543.00
1231.496, 37611.00
1232.574, 37523.00
1233.653, 37698.00
1234.732, 37654.00
1235.810, 37700.00
1236.888, 37315.00
1237.966, 37587.00
1239.044, 37556.00
1240.122, 37475.00
1241.199, 37653.00
1242.277, 37685.00
1243.354, 37779.00
1244.431, 38085.00
1245.508, 37893.00
1246.585, 38035.00
1247.661, 37894.00
1248.738, 37737.00
1249.814, 37886.00
1250.890, 38030.00
1251.966, 37891.00
1253.042, 38026.00
1254.117, 38025.00
1255.193, 37907.00
1256.268, 38071.00
1257.343, 38083.00
1258.418, 38224.00
1259.493, 38255.00
1260.567, 38338.00
1261.642, 38073.00
1262.716, 38277.00
1263.790, 38202.00
1264.864, 38064.00
1265.938, 38090.00
1267.011, 38156.00
1268.085, 38216.00
1269.158, 38260.00
1270.231, 38339.24
1271.304, 38777.00
1272.377, 38468.00
1273.450, 38599.00
1274.522, 38628.00
1275.594, 38419.00
1276.666, 38472.00
1277.738, 38621.00
1278.810, 38340.00
1279.882, 38535.00
1280.953, 38513.00
1282.025, 38599.00
1283.096, 38775.00
1284.167, 38903.00
1285.238, 38940.00
1286.308, 39044.00
1287.379, 38934.00
1288.449, 38863.00
1289.519, 38876.54
1290.589, 38911.00
1291.659, 38795.00
1292.729, 39001.00
1293.798, 38924.00
1294.868, 38751.00
1295.937, 39092.00
1297.006, 39339.00
1298.075, 39101.00
1299.143, 39486.00
1300.212, 39280.00
1301.280, 39334.00
1302.348, 39324.00
1303.416, 39094.00
