##NAMES=Actinolite
##RRUFFID=R060041
##IDEAL CHEMISTRY=Ca_2_(Mg_4.5-2.5_Fe^2+^_0.5-2.5_)Si_8_O_22_(OH)_2_
##LOCALITY=Prince of Wales Island, Alaska, USA
##OWNER=RRUFF
##SOURCE=University of Arizona Mineral Museum
##DESCRIPTION=Green acicular crystals forming parallel groups in cylindrical or bladed forms
##STATUS=The identification of this mineral has been confirmed by X-ray diffraction and chemical analysis
##URL=rruff.info/R060041
##MEASURED CHEMISTRY=(Ca_0.97_Na_0.03_)_2_(Mg_0.65_Fe^2+^_0.29_Fe^3+^_0.04_Al_0.01_Mn_0.01_)_5_(Si_0.98_Al_0.02_)_8_O_22_(OH)_2_
95.94800, 9177.000
97.18200, 9366.866
98.41600, 9455.000
99.64900, 9836.000
100.8830, 9960.000
102.1160, 10169.00
103.3490, 10968.00
104.5820, 11772.00
105.8150, 13321.00
107.0470, 14973.00
108.2800, 16681.00
109.5120, 17643.00
110.7440, 17265.00
111.9760, 17930.00
113.2080, 19017.00
114.4400, 19912.00
115.6710, 20570.00
116.9030, 19841.00
118.1340, 18726.00
119.3650, 17102.00
120.5960, 15280.00
121.8270, 14197.00
123.0580, 13343.00
124.2880, 12415.00
125.5190, 11405.00
126.7490, 11061.00
127.9790, 10815.00
129.2090, 10825.00
130.4390, 10832.00
131.6680, 10734.00
132.8980, 10477.00
134.1270, 10592.00
135.3560, 10689.00
136.5850, 10857.00
137.8140, 11169.00
139.0430, 11426.00
140.2710, 11618.00
141.5000, 11637.00
142.7280, 11802.00
143.9560, 12112.00
145.1840, 12403.00
146.4120, 12625.00
147.6390, 12930.00
148.8670, 12986.00
150.0940, 12995.00
151.3210, 13124.00
152.5490, 13042.00
153.7750, 12731.00
155.0020, 12445.00
156.2290, 12254.00
157.4550, 11830.00
158.6810, 11841.00
159.9080, 11982.00
161.1340, 12209.00
162.3590, 12991.00
163.5850, 13768.00
164.8110, 15034.00
166.0360, 16179.00
167.2610, 17043.00
168.4860, 17827.00
169.7110, 18234.00
170.9360, 18865.00
172.1610, 19230.00
173.3850, 19198.00
174.6100, 18817.00
175.8340, 18064.00
177.0580, 17010.00
178.2820, 15844.00
179.5050, 14905.00
180.7290, 13882.00
181.9520, 13070.00
183.1760, 12499.00
184.3990, 12222.00
185.6220, 12114.00
186.8450, 12162.00
188.0670, 12141.00
189.2900, 12328.00
190.5120, 12347.00
191.7340, 12559.00
192.9560, 12716.00
194.1780, 12776.00
195.4000, 12846.00
196.6220, 12937.00
197.8430, 13049.00
199.0640, 13328.00
200.2860, 13382.00
201.5070, 13845.00
202.7270, 13921.00
203.9480, 13817.00
205.1690, 13375.00
206.3890, 13552.00
207.6090, 13989.00
208.8290, 14519.00
210.0490, 15195.00
211.2690, 15717.00
212.4890, 16240.00
213.7080, 16783.00
214.9280, 17140.00
216.1470, 17463.00
217.3660, 17405.00
218.5850, 17299.00
219.8030, 17196.00
221.0220, 16717.00
222.2400, 16195.00
223.4590, 15764.00
224.6770, 15069.00
225.8950, 14595.00
227.1120, 14093.00
228.3300, 13563.00
229.5480, 13305.00
230.7650, 12889.00
231.9820, 12707.00
233.1990, 12522.00
234.4160, 12304.00
235.6330, 12121.00
236.8490, 11948.00
238.0660, 11794.00
239.2820, 11849.00
240.4980, 11647.00
241.7140, 11690.00
242.9300, 11507.00
244.1460, 11673.00
245.3610, 11527.00
246.5770, 11354.00
247.7920, 11589.00
249.0070, 11398.00
250.2220, 11428.00
251.4370, 11400.00
252.6510, 11262.00
253.8660, 11343.00
255.0800, 11281.00
256.2940, 11243.00
257.5080, 11304.00
258.7220, 11551.00
259.9360, 11795.00
261.1490, 11564.00
262.3630, 11200.00
263.5760, 11232.00
264.7890, 11194.00
266.0020, 11306.00
267.2150, 11338.00
268.4270, 11265.00
269.6400, 11241.00
270.8520, 11287.00
272.0640, 11314.00
273.2760, 11553.00
274.4880, 11471.00
275.7000, 11607.00
276.9120, 11725.00
278.1230, 11723.00
279.3340, 11819.00
280.5450, 11966.00
281.7560, 12006.00
282.9670, 11986.00
284.1780, 12051.00
285.3880, 12150.00
286.5980, 12270.00
287.8090, 12381.00
289.0190, 12220.00
290.2290, 12391.00
291.4380, 12234.00
292.6480, 12295.00
293.8570, 12242.00
295.0670, 12147.00
296.2760, 12039.00
297.4850, 12173.00
298.6930, 11941.00
299.9020, 11959.00
301.1110, 11787.00
302.3190, 11935.00
303.5270, 11870.00
304.7350, 11821.00
305.9430, 11817.00
307.1510, 11778.00
308.3580, 11671.00
309.5660, 11717.00
310.7730, 11800.00
311.9800, 11926.00
313.1870, 11676.00
314.3940, 11908.00
315.6010, 11876.00
316.8070, 12166.00
318.0130, 12027.00
319.2200, 12119.00
320.4260, 12227.00
321.6310, 12443.00
322.8370, 12305.00
324.0430, 12493.00
325.2480, 12541.00
326.4540, 12800.00
327.6590, 12860.00
328.8640, 12904.00
330.0680, 12892.00
331.2730, 13149.00
332.4780, 13200.00
333.6820, 13357.00
334.8860, 13489.00
336.0900, 13496.00
337.2940, 13537.00
338.4980, 13741.00
339.7010, 13760.00
340.9050, 14011.00
342.1080, 14012.00
343.3110, 14191.00
344.5140, 14386.00
345.7170, 14497.00
346.9200, 14667.00
348.1220, 14903.00
349.3240, 15100.00
350.5270, 15387.00
351.7290, 15793.00
352.9310, 16222.00
354.1320, 16643.00
355.3340, 16988.00
356.5350, 17560.00
357.7370, 17931.00
358.9380, 18131.00
360.1390, 18489.00
361.3400, 18546.00
362.5400, 18622.00
363.7410, 18277.00
364.9410, 18067.00
366.1410, 17839.00
367.3410, 17435.00
368.5410, 17014.00
369.7410, 16749.00
370.9400, 16663.00
372.1400, 16492.00
373.3390, 16557.92
374.5380, 16708.00
375.7370, 16829.00
376.9360, 16960.00
378.1350, 17192.00
379.3330, 17491.00
380.5310, 17869.00
381.7300, 18103.00
382.9280, 18178.00
384.1260, 18034.00
385.3230, 18038.21
386.5210, 17868.89
387.7180, 17681.00
388.9160, 17402.00
390.1130, 17041.00
391.3100, 16610.00
392.5060, 16255.00
393.7030, 15939.20
394.9000, 15581.00
396.0960, 15398.00
397.2920, 15256.00
398.4880, 15109.00
399.6840, 14796.00
400.8800, 14862.00
402.0750, 14710.00
403.2710, 14780.00
404.4660, 14661.00
405.6610, 14613.00
406.8560, 14411.00
408.0510, 14261.00
409.2450, 14177.00
410.4400, 14047.00
411.6340, 13760.00
412.8280, 13631.00
414.0220, 13495.00
415.2160, 13323.00
416.4100, 13010.00
417.6030, 12985.00
418.7970, 12777.00
419.9900, 12733.00
421.1830, 12543.00
422.3760, 12645.00
423.5690, 12553.00
424.7610, 12555.00
425.9540, 12517.00
427.1460, 12527.00
428.3380, 12400.00
429.5300, 12503.00
430.7220, 12485.00
431.9140, 12355.00
433.1050, 12446.00
434.2970, 12398.00
435.4880, 12356.24
436.6790, 12319.00
437.8700, 12272.00
439.0610, 12185.00
440.2510, 12113.77
441.4420, 12126.25
442.6320, 12089.00
443.8220, 12158.00
445.0120, 12157.00
446.2020, 12164.00
447.3910, 12139.00
448.5810, 12275.00
449.7700, 12147.00
450.9600, 12177.00
452.1490, 12307.00
453.3370, 12226.00
454.5260, 12210.00
455.7150, 12183.00
456.9030, 12256.00
458.0910, 12253.00
459.2800, 12149.00
460.4670, 12176.00
461.6550, 12446.00
462.8430, 12300.00
464.0300, 12370.00
465.2180, 12218.00
466.4050, 12444.00
467.5920, 12272.00
468.7790, 12366.00
469.9650, 12265.00
471.1520, 12445.00
472.3380, 12414.00
473.5250, 12463.00
474.7110, 12900.00
475.8970, 12714.00
477.0820, 12687.00
478.2680, 12826.00
479.4540, 12678.00
480.6390, 12758.00
481.8240, 12769.00
483.0090, 12630.00
484.1940, 12562.00
485.3780, 12874.00
486.5630, 12758.00
487.7470, 12788.00
488.9320, 12754.00
490.1160, 12909.00
491.3000, 12805.00
492.4830, 12823.00
493.6670, 12931.00
494.8500, 12901.00
496.0340, 12875.00
497.2170, 13181.00
498.4000, 13181.00
499.5820, 13212.00
500.7650, 13208.00
501.9480, 13363.00
503.1300, 13316.00
504.3120, 13393.00
505.4940, 13375.00
506.6760, 13418.00
507.8580, 13443.62
509.0390, 13520.00
510.2210, 13465.00
511.4020, 13546.00
512.5830, 13513.00
513.7640, 13672.00
514.9450, 13515.00
516.1250, 13623.00
517.3060, 13578.00
518.4860, 13683.00
519.6660, 13668.00
520.8460, 13744.00
522.0260, 13809.00
523.2060, 13899.00
524.3850, 13986.00
525.5650, 14018.00
526.7440, 14028.00
527.9230, 13873.00
529.1020, 13834.00
530.2810, 13717.00
531.4590, 13851.00
532.6380, 13778.00
533.8160, 13855.00
534.9940, 13761.00
536.1720, 13627.00
537.3500, 13938.00
538.5270, 13692.00
539.7050, 13689.00
540.8820, 13810.00
542.0590, 13757.00
543.2360, 13713.00
544.4130, 13703.00
545.5900, 13608.00
546.7660, 13605.93
547.9430, 13568.74
549.1190, 13593.00
550.2950, 13553.00
551.4710, 13608.00
552.6470, 13675.00
553.8220, 13638.00
554.9980, 13767.00
556.1730, 13832.00
557.3480, 13801.00
558.5230, 13858.00
559.6980, 13839.00
560.8730, 13729.00
562.0470, 13842.00
563.2220, 13796.00
564.3960, 13927.00
565.5700, 13839.00
566.7440, 13942.00
567.9170, 13786.00
569.0910, 13959.00
570.2640, 13835.00
571.4380, 14010.00
572.6110, 13733.00
573.7840, 13716.00
574.9570, 13782.00
576.1290, 13821.00
577.3020, 13710.00
578.4740, 13668.00
579.6460, 13779.00
580.8180, 13797.00
581.9900, 13666.00
583.1620, 13608.00
584.3330, 13639.00
585.5040, 13454.00
586.6760, 13424.00
587.8470, 13320.00
589.0180, 13433.00
590.1880, 13481.00
591.3590, 13492.00
592.5290, 13502.00
593.7000, 13514.74
594.8700, 13516.46
596.0400, 13518.00
597.2090, 13515.00
598.3790, 13522.18
599.5490, 13513.00
600.7180, 13573.00
601.8870, 13579.00
603.0560, 13682.00
604.2250, 13641.00
605.3940, 13638.00
606.5620, 13811.00
607.7300, 13740.00
608.8990, 13808.00
610.0670, 13839.00
611.2350, 13932.00
612.4020, 13786.00
613.5700, 13950.00
614.7370, 13936.00
615.9050, 14057.00
617.0720, 14183.00
618.2390, 14147.00
619.4060, 14194.00
620.5720, 14176.00
621.7390, 14328.00
622.9050, 14282.00
624.0710, 14518.00
625.2370, 14440.00
626.4030, 14578.00
627.5690, 14684.19
628.7340, 14920.00
629.9000, 14911.00
631.0650, 15094.00
632.2300, 15251.00
633.3950, 15336.00
634.5600, 15724.00
635.7240, 15704.00
636.8890, 16001.00
638.0530, 16313.00
639.2170, 16547.00
640.3810, 16718.00
641.5450, 17191.00
642.7080, 17213.00
643.8720, 17658.00
645.0350, 18179.00
646.1980, 18414.00
647.3610, 18728.00
648.5240, 19124.00
649.6870, 19640.00
650.8490, 20330.00
652.0120, 20915.00
653.1740, 21980.00
654.3360, 23030.00
655.4980, 24593.00
656.6600, 26238.00
657.8210, 28927.00
658.9830, 31927.00
660.1440, 35794.00
661.3050, 40109.00
662.4660, 44266.00
663.6270, 49025.00
664.7870, 53489.00
665.9480, 54605.00
667.1080, 56274.00
668.2680, 55954.00
669.4280, 53800.00
670.5880, 50706.00
671.7480, 46515.00
672.9070, 41914.00
674.0670, 37009.00
675.2260, 32906.00
676.3850, 29518.00
677.5440, 26634.00
678.7030, 24439.00
679.8610, 22770.00
681.0200, 21440.00
682.1780, 20432.00
683.3360, 19511.00
684.4940, 18946.00
685.6520, 18501.00
686.8090, 18077.00
687.9670, 17689.42
689.1240, 17356.00
690.2810, 17052.00
691.4380, 16831.00
692.5950, 16580.87
693.7520, 16523.00
694.9080, 16257.00
696.0650, 16237.00
697.2210, 16103.00
698.3770, 15795.00
699.5330, 15993.00
700.6880, 15917.00
701.8440, 15659.00
702.9990, 15585.00
704.1550, 15476.00
705.3100, 15449.00
706.4650, 15411.99
707.6190, 15516.00
708.7740, 15385.00
709.9290, 15362.00
711.0830, 15329.00
712.2370, 15203.00
713.3910, 15646.00
714.5450, 15408.00
715.6980, 15435.00
716.8520, 15314.00
718.0050, 15234.00
719.1580, 15293.00
720.3110, 15258.00
721.4640, 15604.00
722.6170, 15680.00
723.7700, 15592.00
724.9220, 15650.00
726.0740, 15591.00
727.2260, 15793.00
728.3780, 15725.00
729.5300, 15815.00
730.6810, 16062.00
731.8330, 16272.00
732.9840, 16097.00
734.1350, 16300.00
735.2860, 16473.00
736.4370, 16716.00
737.5880, 16843.00
738.7380, 16937.00
739.8880, 16961.00
741.0390, 17050.00
742.1890, 17123.00
743.3380, 17211.00
744.4880, 17275.00
745.6380, 17050.00
746.7870, 16936.00
747.9360, 16984.00
749.0850, 16670.00
750.2340, 16500.00
751.3830, 16363.00
752.5310, 16168.00
753.6800, 15934.00
754.8280, 15887.00
755.9760, 15949.00
757.1240, 15790.00
758.2720, 16018.00
759.4190, 15673.00
760.5670, 15555.00
761.7140, 15614.00
762.8610, 15544.00
764.0080, 15487.00
765.1550, 15567.00
766.3020, 15551.00
767.4480, 15616.00
768.5950, 15515.00
769.7410, 15440.00
770.8870, 15467.00
772.0330, 15420.00
773.1780, 15446.94
774.3240, 15507.00
775.4690, 15505.00
776.6140, 15555.00
777.7590, 15566.00
778.9040, 15512.00
780.0490, 15519.00
781.1940, 15511.00
782.3380, 15607.00
783.4820, 15587.00
784.6260, 15526.00
785.7700, 15662.00
786.9140, 15552.00
788.0580, 15496.00
789.2010, 15526.00
790.3450, 15489.00
791.4880, 15564.00
792.6310, 15515.00
793.7730, 15609.00
794.9160, 15711.00
796.0590, 15449.00
797.2010, 15815.00
798.3430, 15610.00
799.4850, 15658.00
800.6270, 15566.00
801.7690, 15484.00
802.9100, 15614.00
804.0520, 15523.00
805.1930, 15750.00
806.3340, 15783.00
807.4750, 15643.00
808.6160, 15600.00
809.7560, 15603.00
810.8970, 15650.00
812.0370, 15817.00
813.1770, 15939.00
814.3170, 15939.00
815.4570, 15990.00
816.5960, 15830.00
817.7360, 15956.00
818.8750, 15885.00
820.0140, 16018.00
821.1530, 16064.00
822.2920, 15932.00
823.4310, 15922.00
824.5690, 15985.00
825.7070, 15978.00
826.8460, 16065.00
827.9840, 15803.00
829.1220, 16220.00
830.2590, 16152.00
831.3970, 15898.00
832.5340, 15927.00
833.6710, 16063.00
834.8080, 16168.00
835.9450, 16292.00
837.0820, 16180.00
838.2190, 16289.00
839.3550, 16111.00
840.4910, 16150.00
841.6270, 16338.00
842.7630, 16336.00
843.8990, 16354.00
845.0350, 16379.00
846.1700, 16444.00
847.3060, 16414.00
848.4410, 16304.00
849.5760, 16206.00
850.7100, 16340.00
851.8450, 16389.00
852.9800, 16469.00
854.1140, 16502.00
855.2480, 16529.00
856.3820, 16490.00
857.5160, 16571.00
858.6500, 16687.00
859.7830, 16750.00
860.9170, 16589.00
862.0500, 16534.00
863.1830, 16605.00
864.3160, 16678.00
865.4480, 16650.00
866.5810, 16727.37
867.7130, 16638.00
868.8460, 16787.00
869.9780, 16817.00
871.1100, 16797.00
872.2410, 16872.00
873.3730, 16892.00
874.5050, 17005.00
875.6360, 16877.00
876.7670, 17104.00
877.8980, 16944.00
879.0290, 16967.00
880.1590, 17099.00
881.2900, 17172.00
882.4200, 17177.55
883.5500, 17263.00
884.6800, 17185.00
885.8100, 17185.00
886.9400, 17187.00
888.0690, 17285.00
889.1990, 17242.00
890.3280, 17281.00
891.4570, 17298.00
892.5860, 17286.92
893.7140, 17366.00
894.8430, 17327.00
895.9710, 17279.00
897.1000, 17373.00
898.2280, 17412.00
899.3560, 17343.00
900.4830, 17619.00
901.6110, 17619.00
902.7380, 17520.00
903.8660, 17426.00
904.9930, 17639.00
906.1200, 17701.00
907.2460, 17718.00
908.3730, 17840.00
909.5000, 18074.00
910.6260, 17741.00
911.7520, 18000.00
912.8780, 18133.00
914.0040, 17905.00
915.1290, 18346.00
916.2550, 18292.00
917.3800, 18527.00
918.5050, 18702.00
919.6300, 19077.00
920.7550, 19253.00
921.8800, 19446.00
923.0040, 19636.00
924.1290, 19785.00
925.2530, 19999.00
926.3770, 20034.00
927.5010, 20169.00
928.6250, 20152.00
929.7480, 20056.00
930.8720, 19880.00
931.9950, 19441.00
933.1180, 19529.00
934.2410, 19176.00
935.3640, 18980.00
936.4860, 18983.00
937.6090, 19089.00
938.7310, 19152.00
939.8530, 19153.84
940.9750, 19177.48
942.0970, 19122.00
943.2180, 19087.00
944.3400, 18969.00
945.4610, 18800.00
946.5820, 18823.00
947.7030, 18852.00
948.8240, 18699.00
949.9450, 18731.00
951.0650, 18602.00
952.1860, 18521.00
953.3060, 18626.00
954.4260, 18588.00
955.5460, 18418.00
956.6650, 18672.00
957.7850, 18536.00
958.9040, 18508.00
960.0230, 18507.00
961.1420, 18445.00
962.2610, 18446.91
963.3800, 18417.00
964.4990, 18433.00
965.6170, 18415.00
966.7350, 18426.00
967.8530, 18404.00
968.9710, 18522.00
970.0890, 18318.00
971.2070, 18607.00
972.3240, 18518.00
973.4410, 18567.00
974.5580, 18667.00
975.6750, 18514.00
976.7920, 18799.00
977.9090, 18613.00
979.0250, 18612.00
980.1410, 18726.00
981.2580, 18697.00
982.3740, 18786.00
983.4890, 18716.00
984.6050, 18836.00
985.7200, 18808.00
986.8360, 19092.00
987.9510, 18901.00
989.0660, 18816.00
990.1810, 19015.00
991.2950, 18892.00
992.4100, 19054.00
993.5240, 19002.00
994.6390, 19159.00
995.7530, 19033.00
996.8660, 19206.00
997.9800, 19358.00
999.0940, 19306.00
1000.207, 19308.00
1001.320, 19397.00
1002.433, 19448.00
1003.546, 19587.00
1004.659, 19559.00
1005.772, 19862.00
1006.884, 19932.00
1007.996, 20050.00
1009.108, 20032.00
1010.220, 20313.00
1011.332, 20329.00
1012.444, 20367.00
1013.555, 20645.00
1014.666, 20961.00
1015.777, 21154.00
1016.888, 21327.00
1017.999, 21695.00
1019.110, 22342.00
1020.220, 22676.00
1021.331, 23438.00
1022.441, 23385.00
1023.551, 23970.00
1024.661, 23909.00
1025.770, 24249.00
1026.880, 24000.00
1027.989, 23762.00
1029.098, 23601.00
1030.207, 23120.00
1031.316, 22507.00
1032.425, 22144.00
1033.533, 21645.00
1034.642, 21553.00
1035.750, 21243.00
1036.858, 21296.00
1037.966, 21231.00
1039.073, 21436.00
1040.181, 21501.00
1041.288, 21508.00
1042.396, 21739.00
1043.503, 22077.00
1044.610, 22510.00
1045.716, 22913.00
1046.823, 23475.00
1047.929, 23964.00
1049.036, 24464.00
1050.142, 24928.00
1051.248, 25441.00
1052.353, 25772.00
1053.459, 25473.00
1054.564, 25548.00
1055.670, 25789.00
1056.775, 25743.00
1057.880, 25631.00
1058.985, 25864.00
1060.089, 26001.00
1061.194, 26581.00
1062.298, 26793.00
1063.402, 26702.00
1064.506, 26781.00
1065.610, 26288.00
1066.713, 25491.00
1067.817, 24660.00
1068.920, 24036.00
1070.023, 23464.00
1071.126, 22725.00
1072.229, 22408.00
1073.332, 22125.00
1074.435, 21613.00
1075.537, 21565.00
1076.639, 21219.00
1077.741, 21019.00
1078.843, 20867.00
1079.945, 20955.00
1081.046, 20852.00
1082.148, 20754.00
1083.249, 20732.00
1084.350, 20689.00
1085.451, 20635.00
1086.551, 20597.52
1087.652, 20535.00
1088.752, 20486.00
1089.853, 20387.00
1090.953, 20293.00
1092.053, 20402.00
1093.152, 20363.00
1094.252, 20426.00
1095.351, 20428.00
1096.451, 20351.00
1097.550, 20353.00
1098.649, 20386.00
1099.748, 20429.00
1100.846, 20409.60
1101.945, 20380.00
1103.043, 20406.00
1104.141, 20360.00
1105.239, 20399.00
1106.337, 20382.00
1107.434, 20504.00
1108.532, 20453.00
1109.629, 20373.00
1110.726, 20267.00
1111.823, 20282.00
1112.920, 20278.00
1114.017, 20409.00
1115.113, 20378.00
1116.210, 20255.00
1117.306, 20421.00
1118.402, 20457.00
1119.498, 20642.00
1120.593, 20651.00
1121.689, 20697.00
1122.784, 20664.00
1123.879, 20647.43
1124.974, 20379.00
1126.069, 20543.00
1127.164, 20497.00
1128.259, 20398.00
1129.353, 20612.00
1130.447, 20508.00
1131.541, 20392.00
1132.635, 20351.00
1133.729, 20303.20
1134.822, 20479.00
1135.916, 20254.00
1137.009, 20404.00
1138.102, 20354.00
1139.195, 20557.00
1140.288, 20331.00
1141.380, 20439.00
1142.473, 20403.00
1143.565, 20591.00
1144.657, 20389.00
1145.749, 20286.00
1146.841, 20476.00
1147.932, 20459.00
1149.024, 20541.00
1150.115, 20403.00
1151.206, 20328.00
1152.297, 20522.00
1153.388, 20515.00
1154.479, 20617.00
1155.569, 20538.00
1156.659, 20537.47
1157.750, 20484.00
1158.839, 20497.00
1159.929, 20510.00
1161.019, 20489.40
1162.108, 20515.00
1163.198, 20495.00
1164.287, 20430.00
1165.376, 20450.99
1166.465, 20662.00
1167.553, 20562.00
1168.642, 20582.00
1169.730, 20745.00
1170.818, 20682.00
1171.906, 20583.00
1172.994, 20794.00
1174.082, 20540.00
1175.170, 20580.00
1176.257, 20868.00
1177.344, 20776.00
1178.431, 20644.00
1179.518, 20876.00
1180.605, 20745.00
1181.691, 20715.00
1182.778, 20823.00
1183.864, 20910.00
1184.950, 20854.00
1186.036, 20963.38
1187.122, 20843.00
1188.207, 21031.00
1189.292, 21053.00
1190.378, 21005.00
1191.463, 20908.00
1192.548, 21005.00
1193.632, 20804.00
1194.717, 21088.00
1195.801, 21054.00
1196.886, 20969.00
1197.970, 21062.00
1199.054, 20959.00
1200.137, 21172.00
1201.221, 21206.00
1202.305, 21169.00
1203.388, 21145.00
1204.471, 21306.00
1205.554, 21332.00
1206.637, 21089.00
1207.719, 21259.00
1208.802, 21110.00
1209.884, 21271.00
1210.966, 21397.00
1212.048, 21318.00
1213.130, 21375.00
1214.212, 21332.00
1215.293, 21311.00
1216.374, 21362.00
1217.456, 21485.00
1218.536, 21427.00
1219.617, 21295.00
1220.698, 21478.00
1221.778, 21503.00
1222.859, 21686.00
1223.939, 21511.00
1225.019, 21445.00
1226.099, 21450.00
1227.178, 21631.00
1228.258, 21521.00
1229.337, 21665.00
1230.417, 21558.00
1231.496, 21717.00
1232.574, 21542.00
1233.653, 21726.00
1234.732, 21943.00
1235.810, 21669.00
1236.888, 21964.00
1237.966, 21771.00
1239.044, 21849.00
1240.122, 21752.00
1241.199, 21682.00
1242.277, 21713.73
1243.354, 21734.00
1244.431, 21705.00
1245.508, 21891.00
1246.585, 21885.00
1247.661, 22047.00
1248.738, 22027.00
1249.814, 22079.00
1250.890, 22142.00
1251.966, 22116.79
1253.042, 22215.00
1254.117, 22133.00
1255.193, 22003.00
1256.268, 22065.00
1257.343, 22011.12
1258.418, 22005.17
1259.493, 22060.00
1260.567, 22097.00
1261.642, 22182.00
1262.716, 22403.00
1263.790, 22325.00
1264.864, 22392.00
1265.938, 22307.00
1267.011, 22331.00
1268.085, 22360.71
1269.158, 22496.00
1270.231, 22435.00
1271.304, 22386.00
1272.377, 22430.00
1273.450, 22374.00
1274.522, 22448.00
