##NAMES=Actinolite
##RRUFFID=R060041
##IDEAL CHEMISTRY=Ca_2_(Mg_4.5-2.5_Fe^2+^_0.5-2.5_)Si_8_O_22_(OH)_2_
##LOCALITY=Prince of Wales Island, Alaska, USA
##OWNER=RRUFF
##SOURCE=University of Arizona Mineral Museum
##DESCRIPTION=Green acicular crystals forming parallel groups in cylindrical or bladed forms
##STATUS=The identification of this mineral has been confirmed by X-ray diffraction and chemical analysis
##URL=rruff.info/R060041
##MEASURED CHEMISTRY=(Ca_0.97_Na_0.03_)_2_(Mg_0.65_Fe^2+^_0.29_Fe^3+^_0.04_Al_0.01_Mn_0.01_)_5_(Si_0.98_Al_0.02_)_8_O_22_(OH)_2_
95.94800, 6089.000
97.18200, 6034.000
98.41600, 6355.000
99.64900, 6634.000
100.8830, 6887.000
102.1160, 6981.000
103.3490, 7424.000
104.5820, 7923.000
105.8150, 8670.000
107.0470, 9491.000
108.2800, 10329.00
109.5120, 11133.00
110.7440, 11084.00
111.9760, 11303.00
113.2080, 11748.00
114.4400, 12389.00
115.6710, 12811.00
116.9030, 12652.00
118.1340, 12303.00
119.3650, 11659.00
120.5960, 10994.00
121.8270, 10510.00
123.0580, 10123.00
124.2880, 9711.000
125.5190, 9402.887
126.7490, 9191.257
127.9790, 8985.000
129.2090, 8969.000
130.4390, 9065.000
131.6680, 9168.000
132.8980, 9227.000
134.1270, 9302.000
135.3560, 9277.000
136.5850, 9373.000
137.8140, 9685.000
139.0430, 10249.00
140.2710, 10947.00
141.5000, 12001.00
142.7280, 13343.00
143.9560, 14640.00
145.1840, 16068.00
146.4120, 17979.00
147.6390, 20582.00
148.8670, 22399.00
150.0940, 23539.00
151.3210, 23159.00
152.5490, 21947.00
153.7750, 19808.00
155.0020, 17669.00
156.2290, 15574.00
157.4550, 14011.00
158.6810, 12515.00
159.9080, 11596.00
161.1340, 11396.00
162.3590, 11456.00
163.5850, 12343.00
164.8110, 13260.00
166.0360, 14518.00
167.2610, 15685.00
168.4860, 17005.00
169.7110, 18770.00
170.9360, 20645.00
172.1610, 22302.00
173.3850, 22762.00
174.6100, 21909.00
175.8340, 20530.00
177.0580, 18593.00
178.2820, 16744.00
179.5050, 14790.00
180.7290, 13391.00
181.9520, 12019.00
183.1760, 11300.00
184.3990, 10638.00
185.6220, 10501.00
186.8450, 10414.00
188.0670, 10274.00
189.2900, 10159.00
190.5120, 10400.00
191.7340, 10481.00
192.9560, 10576.00
194.1780, 10649.00
195.4000, 10804.00
196.6220, 11138.00
197.8430, 11342.00
199.0640, 11595.00
200.2860, 12228.00
201.5070, 12707.00
202.7270, 13231.00
203.9480, 13626.00
205.1690, 14225.00
206.3890, 14996.00
207.6090, 16261.00
208.8290, 17410.00
210.0490, 18939.00
211.2690, 20642.00
212.4890, 22287.00
213.7080, 23773.00
214.9280, 25149.00
216.1470, 25982.00
217.3660, 26671.00
218.5850, 26006.00
219.8030, 25302.00
221.0220, 23808.00
222.2400, 22500.00
223.4590, 20516.00
224.6770, 18793.00
225.8950, 17379.00
227.1120, 15806.00
228.3300, 14704.00
229.5480, 13871.00
230.7650, 13064.00
231.9820, 12428.00
233.1990, 11989.00
234.4160, 11507.00
235.6330, 11202.00
236.8490, 10952.00
238.0660, 10678.00
239.2820, 10567.00
240.4980, 10561.00
241.7140, 10410.00
242.9300, 10477.00
244.1460, 10272.00
245.3610, 10130.00
246.5770, 9935.000
247.7920, 10036.00
249.0070, 10002.00
250.2220, 9874.000
251.4370, 9827.000
252.6510, 9638.000
253.8660, 9595.000
255.0800, 9605.000
256.2940, 9464.000
257.5080, 9528.000
258.7220, 9529.000
259.9360, 9422.997
261.1490, 9500.000
262.3630, 9233.000
263.5760, 9074.000
264.7890, 8919.000
266.0020, 8871.000
267.2150, 8923.000
268.4270, 8871.000
269.6400, 9008.000
270.8520, 8975.000
272.0640, 8875.000
273.2760, 8901.000
274.4880, 9011.000
275.7000, 9020.000
276.9120, 9098.000
278.1230, 9094.000
279.3340, 9162.000
280.5450, 9331.000
281.7560, 9396.000
282.9670, 9557.000
284.1780, 9527.000
285.3880, 9716.000
286.5980, 9742.000
287.8090, 9730.000
289.0190, 9860.000
290.2290, 9987.000
291.4380, 9844.000
292.6480, 9832.000
293.8570, 9939.000
295.0670, 9841.000
296.2760, 9953.000
297.4850, 9785.000
298.6930, 9859.000
299.9020, 9604.000
301.1110, 9466.000
302.3190, 9462.000
303.5270, 9521.000
304.7350, 9351.000
305.9430, 9402.000
307.1510, 9322.000
308.3580, 9312.000
309.5660, 9210.000
310.7730, 9389.000
311.9800, 9309.000
313.1870, 9363.000
314.3940, 9289.000
315.6010, 9423.000
316.8070, 9505.000
318.0130, 9438.000
319.2200, 9585.000
320.4260, 9743.000
321.6310, 9866.000
322.8370, 9989.000
324.0430, 10143.00
325.2480, 10358.00
326.4540, 10588.21
327.6590, 10922.00
328.8640, 11147.00
330.0680, 11363.00
331.2730, 11666.00
332.4780, 11885.00
333.6820, 12120.00
334.8860, 12130.00
336.0900, 12130.00
337.2940, 12253.00
338.4980, 12286.00
339.7010, 12180.00
340.9050, 12225.00
342.1080, 12146.00
343.3110, 12132.00
344.5140, 12045.00
345.7170, 12037.00
346.9200, 12009.56
348.1220, 11953.00
349.3240, 12011.00
350.5270, 12031.00
351.7290, 12102.00
352.9310, 12204.36
354.1320, 12355.00
355.3340, 12457.00
356.5350, 12686.00
357.7370, 12853.00
358.9380, 12982.00
360.1390, 13048.00
361.3400, 13123.00
362.5400, 13083.00
363.7410, 12932.00
364.9410, 13004.00
366.1410, 12523.00
367.3410, 12431.00
368.5410, 12206.00
369.7410, 11974.00
370.9400, 11997.00
372.1400, 11747.00
373.3390, 11846.00
374.5380, 11859.00
375.7370, 12015.00
376.9360, 12411.00
378.1350, 12721.00
379.3330, 13130.00
380.5310, 13354.00
381.7300, 13765.00
382.9280, 14092.00
384.1260, 14033.00
385.3230, 14187.00
386.5210, 14227.00
387.7180, 13978.00
388.9160, 13795.00
390.1130, 13484.00
391.3100, 13158.00
392.5060, 12716.00
393.7030, 12323.00
394.9000, 12047.00
396.0960, 12014.00
397.2920, 11895.00
398.4880, 11827.00
399.6840, 11803.70
400.8800, 11649.00
402.0750, 11729.00
403.2710, 11631.00
404.4660, 11517.00
405.6610, 11579.00
406.8560, 11305.00
408.0510, 11233.00
409.2450, 10895.00
410.4400, 10844.00
411.6340, 10544.00
412.8280, 10362.00
414.0220, 10370.00
415.2160, 10018.00
416.4100, 9957.000
417.6030, 9705.000
418.7970, 9650.000
419.9900, 9498.000
421.1830, 9358.000
422.3760, 9374.000
423.5690, 9471.000
424.7610, 9380.000
425.9540, 9651.000
427.1460, 9537.000
428.3380, 9697.000
429.5300, 9901.000
430.7220, 9873.000
431.9140, 10019.00
433.1050, 9859.000
434.2970, 9727.000
435.4880, 9662.000
436.6790, 9419.000
437.8700, 9107.000
439.0610, 9047.000
440.2510, 8838.000
441.4420, 8849.000
442.6320, 8625.000
443.8220, 8587.000
445.0120, 8651.000
446.2020, 8524.000
447.3910, 8559.098
448.5810, 8535.000
449.7700, 8549.000
450.9600, 8606.000
452.1490, 8607.000
453.3370, 8599.000
454.5260, 8703.000
455.7150, 8815.000
456.9030, 8824.000
458.0910, 8859.000
459.2800, 9028.000
460.4670, 9028.000
461.6550, 9177.000
462.8430, 9080.000
464.0300, 9120.000
465.2180, 9028.000
466.4050, 8788.000
467.5920, 8823.000
468.7790, 8915.000
469.9650, 8831.000
471.1520, 8988.000
472.3380, 8962.000
473.5250, 8864.000
474.7110, 8961.000
475.8970, 9012.000
477.0820, 9078.000
478.2680, 9017.000
479.4540, 9157.000
480.6390, 9177.000
481.8240, 9050.000
483.0090, 9263.000
484.1940, 9031.000
485.3780, 9186.000
486.5630, 9193.000
487.7470, 9110.000
488.9320, 9060.000
490.1160, 8928.000
491.3000, 9130.000
492.4830, 9159.000
493.6670, 9246.000
494.8500, 9116.000
496.0340, 9351.000
497.2170, 9336.000
498.4000, 9524.000
499.5820, 9470.000
500.7650, 9530.000
501.9480, 9630.000
503.1300, 9707.000
504.3120, 9722.000
505.4940, 9873.000
506.6760, 9852.000
507.8580, 10019.00
509.0390, 10020.00
510.2210, 10109.00
511.4020, 10164.00
512.5830, 10240.66
513.7640, 10327.06
514.9450, 10418.00
516.1250, 10545.00
517.3060, 10623.00
518.4860, 10825.00
519.6660, 10997.00
520.8460, 11069.00
522.0260, 11383.00
523.2060, 11493.00
524.3850, 11346.00
525.5650, 11427.00
526.7440, 11123.00
527.9230, 10862.00
529.1020, 10676.00
530.2810, 10445.00
531.4590, 10300.00
532.6380, 10191.00
533.8160, 10080.00
534.9940, 9939.000
536.1720, 9776.000
537.3500, 9827.000
538.5270, 9647.000
539.7050, 9796.000
540.8820, 9589.000
542.0590, 9610.000
543.2360, 9630.000
544.4130, 9544.000
545.5900, 9624.000
546.7660, 9549.000
547.9430, 9711.000
549.1190, 9571.000
550.2950, 9624.000
551.4710, 9605.000
552.6470, 9588.000
553.8220, 9512.000
554.9980, 9537.694
556.1730, 9600.000
557.3480, 9560.000
558.5230, 9613.000
559.6980, 9633.000
560.8730, 9626.000
562.0470, 9601.000
563.2220, 9573.000
564.3960, 9685.000
565.5700, 9663.000
566.7440, 9657.000
567.9170, 9768.000
569.0910, 9649.000
570.2640, 9591.000
571.4380, 9633.000
572.6110, 9685.000
573.7840, 9674.146
574.9570, 9564.000
576.1290, 9672.000
577.3020, 9563.000
578.4740, 9463.000
579.6460, 9584.000
580.8180, 9406.000
581.9900, 9491.000
583.1620, 9433.000
584.3330, 9492.000
585.5040, 9550.000
586.6760, 9480.000
587.8470, 9504.417
589.0180, 9586.000
590.1880, 9449.000
591.3590, 9439.000
592.5290, 9412.000
593.7000, 9548.000
594.8700, 9567.000
596.0400, 9635.000
597.2090, 9680.000
598.3790, 9568.000
599.5490, 9798.000
600.7180, 9544.000
601.8870, 9706.000
603.0560, 9802.000
604.2250, 9828.000
605.3940, 9910.000
606.5620, 9922.000
607.7300, 9971.000
608.8990, 9872.000
610.0670, 10074.00
611.2350, 10217.00
612.4020, 10134.00
613.5700, 10178.00
614.7370, 10249.00
615.9050, 10372.00
617.0720, 10442.44
618.2390, 10482.00
619.4060, 10662.00
620.5720, 10724.00
621.7390, 10878.48
622.9050, 10857.00
624.0710, 11064.00
625.2370, 11135.00
626.4030, 11199.00
627.5690, 11533.00
628.7340, 11848.00
629.9000, 11902.00
631.0650, 12122.00
632.2300, 12497.00
633.3950, 12611.00
634.5600, 13081.00
635.7240, 13482.00
636.8890, 13670.00
638.0530, 13946.00
639.2170, 14295.00
640.3810, 14622.00
641.5450, 15056.81
642.7080, 15672.00
643.8720, 15947.00
645.0350, 16453.00
646.1980, 16830.00
647.3610, 17121.00
648.5240, 17569.00
649.6870, 18359.00
650.8490, 19324.00
652.0120, 20143.00
653.1740, 21210.00
654.3360, 22593.00
655.4980, 24633.00
656.6600, 27305.00
657.8210, 30776.00
658.9830, 34411.00
660.1440, 39491.00
661.3050, 44954.00
662.4660, 50492.00
663.6270, 57403.00
664.7870, 62722.00
665.9480, 65535.00
667.1080, 67556.70
668.2680, 67639.10
669.4280, 65535.00
670.5880, 62812.00
671.7480, 56603.00
672.9070, 49405.00
674.0670, 42632.00
675.2260, 36625.00
676.3850, 31873.00
677.5440, 28197.00
678.7030, 25188.00
679.8610, 22603.00
681.0200, 21016.00
682.1780, 19713.00
683.3360, 18749.00
684.4940, 17564.00
685.6520, 17017.00
686.8090, 16046.00
687.9670, 15545.00
689.1240, 14788.00
690.2810, 14398.00
691.4380, 13939.00
692.5950, 13320.00
693.7520, 12981.00
694.9080, 12715.00
696.0650, 12435.00
697.2210, 12267.00
698.3770, 12114.00
699.5330, 11924.00
700.6880, 11860.00
701.8440, 11480.00
702.9990, 11504.00
704.1550, 11217.00
705.3100, 11295.00
706.4650, 11096.00
707.6190, 10998.00
708.7740, 10906.00
709.9290, 10865.11
711.0830, 11007.00
712.2370, 10842.00
713.3910, 10804.00
714.5450, 10730.00
715.6980, 10637.00
716.8520, 10720.00
718.0050, 10721.00
719.1580, 10708.00
720.3110, 10571.00
721.4640, 10621.00
722.6170, 10799.00
723.7700, 10691.00
724.9220, 10776.22
726.0740, 10578.00
727.2260, 10782.00
728.3780, 10720.00
729.5300, 10685.00
730.6810, 10826.00
731.8330, 10979.00
732.9840, 10983.00
734.1350, 11085.00
735.2860, 11283.00
736.4370, 11277.00
737.5880, 11200.00
738.7380, 11220.00
739.8880, 11143.00
741.0390, 11321.00
742.1890, 11365.00
743.3380, 11379.00
744.4880, 11298.00
745.6380, 11306.00
746.7870, 11265.00
747.9360, 11140.24
749.0850, 11171.00
750.2340, 10928.00
751.3830, 10819.00
752.5310, 10817.00
753.6800, 10653.00
754.8280, 10639.00
755.9760, 10525.00
757.1240, 10526.00
758.2720, 10393.00
759.4190, 10440.00
760.5670, 10465.00
761.7140, 10332.00
762.8610, 10325.00
764.0080, 10275.00
765.1550, 10406.00
766.3020, 10430.00
767.4480, 10426.00
768.5950, 10351.00
769.7410, 10272.00
770.8870, 10160.00
772.0330, 10363.00
773.1780, 10295.00
774.3240, 10334.00
775.4690, 10430.00
776.6140, 10358.00
777.7590, 10422.00
778.9040, 10381.00
780.0490, 10254.00
781.1940, 10206.00
782.3380, 10218.00
783.4820, 10230.00
784.6260, 10324.00
785.7700, 10247.00
786.9140, 10145.00
788.0580, 10149.00
789.2010, 10041.00
790.3450, 9952.000
791.4880, 10257.00
792.6310, 10207.00
793.7730, 10204.00
794.9160, 10140.00
796.0590, 10265.00
797.2010, 10316.00
798.3430, 10097.00
799.4850, 10286.00
800.6270, 10231.00
801.7690, 10160.00
802.9100, 10014.00
804.0520, 10156.00
805.1930, 10367.00
806.3340, 10287.00
807.4750, 10334.00
808.6160, 10391.00
809.7560, 10273.00
810.8970, 10153.00
812.0370, 10270.00
813.1770, 10363.00
814.3170, 10244.00
815.4570, 10411.00
816.5960, 10491.00
817.7360, 10360.00
818.8750, 10439.00
820.0140, 10490.00
821.1530, 10504.00
822.2920, 10473.00
823.4310, 10577.00
824.5690, 10535.00
825.7070, 10426.00
826.8460, 10420.00
827.9840, 10491.00
829.1220, 10514.00
830.2590, 10517.00
831.3970, 10491.00
832.5340, 10531.35
833.6710, 10598.00
834.8080, 10585.00
835.9450, 10635.00
837.0820, 10660.00
838.2190, 10555.00
839.3550, 10497.00
840.4910, 10636.00
841.6270, 10578.00
842.7630, 10619.00
843.8990, 10709.00
845.0350, 10658.00
846.1700, 10684.00
847.3060, 10686.00
848.4410, 10735.00
849.5760, 10705.71
850.7100, 10649.00
851.8450, 10649.00
852.9800, 10858.00
854.1140, 10830.00
855.2480, 10817.00
856.3820, 10837.00
857.5160, 10833.09
858.6500, 10849.00
859.7830, 10862.00
860.9170, 10883.00
862.0500, 10898.00
863.1830, 10924.49
864.3160, 10961.00
865.4480, 10968.00
866.5810, 10973.00
867.7130, 10967.66
868.8460, 11034.00
869.9780, 11057.00
871.1100, 11069.00
872.2410, 11220.00
873.3730, 11121.00
874.5050, 11216.00
875.6360, 11147.00
876.7670, 11345.00
877.8980, 11257.00
879.0290, 11242.00
880.1590, 11423.00
881.2900, 11389.00
882.4200, 11527.00
883.5500, 11468.00
884.6800, 11554.00
885.8100, 11521.00
886.9400, 11681.00
888.0690, 11627.00
889.1990, 11665.00
890.3280, 11834.00
891.4570, 11871.00
892.5860, 11873.00
893.7140, 12043.00
894.8430, 12080.00
895.9710, 12264.00
897.1000, 12154.00
898.2280, 12288.00
899.3560, 12380.00
900.4830, 12381.00
901.6110, 12551.00
902.7380, 12452.00
903.8660, 12613.00
904.9930, 12671.00
906.1200, 13051.00
907.2460, 12914.00
908.3730, 13139.00
909.5000, 13177.00
910.6260, 13335.00
911.7520, 13350.00
912.8780, 13748.00
914.0040, 13881.00
915.1290, 14335.00
916.2550, 14536.00
917.3800, 14750.00
918.5050, 15358.00
919.6300, 16057.00
920.7550, 16675.00
921.8800, 17305.00
923.0040, 17935.00
924.1290, 18674.00
925.2530, 19006.00
926.3770, 19143.00
927.5010, 19479.00
928.6250, 19237.00
929.7480, 18621.00
930.8720, 18069.00
931.9950, 17481.00
933.1180, 16902.00
934.2410, 16361.00
935.3640, 15998.58
936.4860, 15530.00
937.6090, 15475.00
938.7310, 15244.00
939.8530, 15230.00
940.9750, 14993.00
942.0970, 14974.00
943.2180, 14876.00
944.3400, 14751.00
945.4610, 14627.00
946.5820, 14458.00
947.7030, 14377.00
948.8240, 13908.00
949.9450, 13775.00
951.0650, 13777.00
952.1860, 13451.00
953.3060, 13515.00
954.4260, 13517.00
955.5460, 13512.00
956.6650, 13328.00
957.7850, 13376.00
958.9040, 13391.00
960.0230, 13322.00
961.1420, 13425.00
962.2610, 13221.00
963.3800, 13247.00
964.4990, 13150.00
965.6170, 13240.00
966.7350, 13193.00
967.8530, 13112.00
968.9710, 13259.00
970.0890, 13145.00
971.2070, 13138.00
972.3240, 13100.00
973.4410, 12959.00
974.5580, 13213.00
975.6750, 13065.00
976.7920, 13128.00
977.9090, 13045.00
979.0250, 13129.00
980.1410, 13045.00
981.2580, 13156.00
982.3740, 13367.00
983.4890, 13089.00
984.6050, 13063.00
985.7200, 13205.00
986.8360, 13296.00
987.9510, 13317.00
989.0660, 13286.00
990.1810, 13493.00
991.2950, 13379.00
992.4100, 13398.00
993.5240, 13575.00
994.6390, 13568.00
995.7530, 13635.00
996.8660, 13711.00
997.9800, 13907.00
999.0940, 13983.00
1000.207, 13950.00
1001.320, 14315.00
1002.433, 14285.00
1003.546, 14433.00
1004.659, 14673.00
1005.772, 14908.00
1006.884, 15177.00
1007.996, 15412.05
1009.108, 15771.00
1010.220, 15952.00
1011.332, 16225.00
1012.444, 16600.00
1013.555, 16682.00
1014.666, 16939.00
1015.777, 17186.00
1016.888, 17083.00
1017.999, 17403.00
1019.110, 17473.00
1020.220, 17941.00
1021.331, 17935.00
1022.441, 18148.00
1023.551, 18283.00
1024.661, 18220.00
1025.770, 18282.86
1026.880, 18479.00
1027.989, 18088.00
1029.098, 18086.00
1030.207, 17770.00
1031.316, 17713.00
1032.425, 17715.00
1033.533, 17497.00
1034.642, 17580.00
1035.750, 17803.00
1036.858, 18014.00
1037.966, 18511.01
1039.073, 19160.00
1040.181, 19851.00
1041.288, 20799.00
1042.396, 21912.00
1043.503, 23448.00
1044.610, 25010.00
1045.716, 26938.00
1046.823, 28816.00
1047.929, 30552.00
1049.036, 32165.00
1050.142, 33547.00
1051.248, 34642.00
1052.353, 34937.00
1053.459, 34332.00
1054.564, 33272.00
1055.670, 31662.00
1056.775, 30317.00
1057.880, 28592.00
1058.985, 26954.00
1060.089, 25983.00
1061.194, 25264.00
1062.298, 24662.00
1063.402, 24009.00
1064.506, 23082.00
1065.610, 22229.00
1066.713, 20781.00
1067.817, 20053.00
1068.920, 18840.00
1070.023, 17867.00
1071.126, 16989.00
1072.229, 16355.87
1073.332, 15815.44
1074.435, 15537.00
1075.537, 15143.00
1076.639, 15021.00
1077.741, 14874.00
1078.843, 14560.00
1079.945, 14479.00
1081.046, 14468.00
1082.148, 14238.00
1083.249, 14233.00
1084.350, 14080.00
1085.451, 13871.00
1086.551, 13983.00
1087.652, 13994.00
1088.752, 13956.00
1089.853, 13822.00
1090.953, 13678.00
1092.053, 13651.00
1093.152, 13597.00
1094.252, 13550.99
1095.351, 13515.00
1096.451, 13533.00
1097.550, 13483.00
1098.649, 13516.00
1099.748, 13294.00
1100.846, 13518.57
1101.945, 13553.60
1103.043, 13915.00
1104.141, 13728.00
1105.239, 13964.00
1106.337, 13799.00
1107.434, 13459.00
1108.532, 13334.00
1109.629, 13355.00
1110.726, 13539.00
1111.823, 13252.00
1112.920, 13198.00
1114.017, 13271.00
1115.113, 13239.00
1116.210, 13098.00
1117.306, 13288.00
1118.402, 13355.00
1119.498, 13246.00
1120.593, 13042.00
1121.689, 13313.00
1122.784, 13197.00
1123.879, 13099.00
1124.974, 13083.00
1126.069, 13090.00
1127.164, 13111.00
1128.259, 13307.00
1129.353, 13184.00
1130.447, 13298.00
1131.541, 13296.00
1132.635, 13136.00
1133.729, 13013.00
1134.822, 13127.00
1135.916, 13126.00
1137.009, 13143.00
1138.102, 13077.00
1139.195, 13088.67
1140.288, 13083.29
1141.380, 13088.00
1142.473, 13087.00
1143.565, 13145.00
1144.657, 13145.00
1145.749, 13161.00
1146.841, 13235.00
1147.932, 13237.00
1149.024, 13275.00
1150.115, 13303.00
1151.206, 13304.24
1152.297, 13298.37
1153.388, 13289.00
1154.479, 13261.00
1155.569, 13197.00
1156.659, 13195.00
1157.750, 13053.00
1158.839, 13186.00
1159.929, 13053.00
1161.019, 13053.00
1162.108, 13265.00
1163.198, 13311.00
1164.287, 13177.00
1165.376, 13159.00
1166.465, 13119.00
1167.553, 13320.00
1168.642, 13234.00
1169.730, 13290.00
1170.818, 13347.00
1171.906, 13326.00
1172.994, 13322.00
1174.082, 13246.00
1175.170, 13170.00
1176.257, 13278.00
1177.344, 13304.00
1178.431, 13305.00
1179.518, 13230.00
1180.605, 13340.00
1181.691, 13300.00
1182.778, 13303.00
1183.864, 13527.00
1184.950, 13281.00
1186.036, 13441.00
1187.122, 13293.00
1188.207, 13379.00
1189.292, 13366.00
1190.378, 13314.00
1191.463, 13332.87
1192.548, 13298.23
1193.632, 13313.00
1194.717, 13306.00
1195.801, 13360.00
1196.886, 13469.00
1197.970, 13410.00
1199.054, 13505.00
1200.137, 13416.00
1201.221, 13445.00
1202.305, 13463.00
1203.388, 13514.00
1204.471, 13445.00
1205.554, 13651.00
1206.637, 13606.00
1207.719, 13384.00
1208.802, 13446.00
1209.884, 13692.00
1210.966, 13621.00
1212.048, 13489.00
1213.130, 13515.00
1214.212, 13424.00
1215.293, 13697.00
1216.374, 13617.00
1217.456, 13738.00
1218.536, 13652.00
1219.617, 13711.00
1220.698, 13596.00
1221.778, 13695.00
1222.859, 13683.00
1223.939, 13679.00
1225.019, 13774.00
1226.099, 13660.00
1227.178, 13737.00
1228.258, 13749.00
1229.337, 13731.00
1230.417, 13693.00
1231.496, 13899.00
1232.574, 13628.00
1233.653, 13724.00
1234.732, 13949.00
1235.810, 14004.00
1236.888, 13895.00
1237.966, 14059.00
1239.044, 13834.00
1240.122, 13865.00
1241.199, 13846.00
1242.277, 14077.00
1243.354, 13778.00
1244.431, 14018.00
1245.508, 14107.00
1246.585, 13974.00
1247.661, 13941.00
1248.738, 14064.00
1249.814, 14157.00
1250.890, 13845.00
1251.966, 14226.00
1253.042, 14116.00
1254.117, 13866.00
1255.193, 14170.00
1256.268, 14146.00
1257.343, 14167.00
1258.418, 14198.00
1259.493, 14181.00
1260.567, 14122.00
1261.642, 14221.00
1262.716, 14324.00
1263.790, 14290.00
1264.864, 14273.00
1265.938, 14226.00
1267.011, 14144.00
1268.085, 14290.00
1269.158, 14400.00
1270.231, 14377.00
1271.304, 14219.00
1272.377, 14315.00
1273.450, 14328.00
1274.522, 14165.00
