##NAMES=Actinolite
##RRUFFID=R060045
##IDEAL CHEMISTRY=Ca_2_(Mg_4.5-2.5_Fe^2+^_0.5-2.5_)Si_8_O_22_(OH)_2_
##LOCALITY=Colorado, USA
##OWNER=RRUFF
##SOURCE=University of Arizona Mineral Museum
##DESCRIPTION=Green prismatic crystals in a radial arrangement
##STATUS=The identification of this mineral has been confirmed by X-ray diffraction and chemical analysis
##URL=rruff.info/R060045
##MEASURED CHEMISTRY=(Ca_1.99_Na_0.01_)_Σ=2_(Mg_4.20_Fe^2+^_0.59_Al_0.09_Fe^3+^_0.08_Mn_0.02_Ti_0.01_)_Σ=5_(Si_7.82_Al_0.18_)_Σ=8_O_22_(OH)_2_
##PIN_ID=M00311
##ORIENTATION=Laser parallel to c* (0 0 1). Fiducial mark perpendicular to laser is parallel to a [1 0 0]
134.1270, 10318.00
135.3560, 10645.00
136.5850, 10600.00
137.8140, 10903.00
139.0430, 11020.00
140.2710, 10963.00
141.5000, 11010.00
142.7280, 11079.00
143.9560, 11211.00
145.1840, 11637.00
146.4120, 12328.00
147.6390, 13035.00
148.8670, 14172.00
150.0940, 14655.00
151.3210, 14665.00
152.5490, 14841.00
153.7750, 14898.00
155.0020, 15056.00
156.2290, 15062.00
157.4550, 15147.00
158.6810, 14891.00
159.9080, 14632.00
161.1340, 14243.00
162.3590, 14135.00
163.5850, 14026.00
164.8110, 14323.00
166.0360, 14895.00
167.2610, 15663.00
168.4860, 16242.00
169.7110, 16560.00
170.9360, 16414.00
172.1610, 16420.00
173.3850, 16361.00
174.6100, 16349.00
175.8340, 16281.00
177.0580, 15991.00
178.2820, 15489.00
179.5050, 14969.00
180.7290, 14475.00
181.9520, 13826.00
183.1760, 13504.94
184.3990, 12956.00
185.6220, 12904.00
186.8450, 12693.00
188.0670, 12607.00
189.2900, 12878.00
190.5120, 12691.00
191.7340, 12867.00
192.9560, 12843.00
194.1780, 12860.00
195.4000, 13139.00
196.6220, 13456.00
197.8430, 13633.00
199.0640, 13976.76
200.2860, 14267.00
201.5070, 14597.00
202.7270, 15140.00
203.9480, 15479.00
205.1690, 15888.00
206.3890, 16722.00
207.6090, 17774.00
208.8290, 18994.00
210.0490, 20691.00
211.2690, 22454.00
212.4890, 24184.00
213.7080, 25626.00
214.9280, 27106.00
216.1470, 28515.20
217.3660, 29934.42
218.5850, 31181.00
219.8030, 32649.00
221.0220, 34036.00
222.2400, 35218.00
223.4590, 35752.00
224.6770, 35491.00
225.8950, 34861.00
227.1120, 34089.00
228.3300, 33233.00
229.5480, 32124.00
230.7650, 30576.00
231.9820, 29168.00
233.1990, 28304.00
234.4160, 25621.00
235.6330, 23887.00
236.8490, 22541.00
238.0660, 21710.00
239.2820, 21052.00
240.4980, 20498.00
241.7140, 20297.00
242.9300, 20242.00
244.1460, 19854.00
245.3610, 19571.00
246.5770, 19186.00
247.7920, 18878.00
249.0070, 18429.00
250.2220, 17993.00
251.4370, 17386.00
252.6510, 16810.00
253.8660, 16267.31
255.0800, 15773.00
256.2940, 15250.00
257.5080, 14999.00
258.7220, 14824.00
259.9360, 14713.00
261.1490, 14334.00
262.3630, 13855.00
263.5760, 13641.00
264.7890, 13384.00
266.0020, 13543.00
267.2150, 13353.00
268.4270, 13238.00
269.6400, 13126.00
270.8520, 13189.00
272.0640, 13133.00
273.2760, 12983.00
274.4880, 13084.00
275.7000, 12902.00
276.9120, 13057.00
278.1230, 12883.00
279.3340, 12971.00
280.5450, 12993.00
281.7560, 13199.00
282.9670, 13057.00
284.1780, 13116.00
285.3880, 13313.00
286.5980, 13258.00
287.8090, 13345.00
289.0190, 13564.00
290.2290, 13593.00
291.4380, 13684.00
292.6480, 13757.00
293.8570, 13830.89
295.0670, 13993.00
296.2760, 13979.00
297.4850, 14124.00
298.6930, 14153.00
299.9020, 14205.00
301.1110, 14116.00
302.3190, 14197.00
303.5270, 14210.00
304.7350, 14139.00
305.9430, 14202.00
307.1510, 14028.00
308.3580, 13890.00
309.5660, 13831.00
310.7730, 13684.00
311.9800, 13775.00
313.1870, 13651.00
314.3940, 13818.00
315.6010, 13712.00
316.8070, 13706.00
318.0130, 13642.00
319.2200, 13641.00
320.4260, 13499.00
321.6310, 13504.98
322.8370, 13559.00
324.0430, 13586.00
325.2480, 13632.00
326.4540, 13956.00
327.6590, 13816.00
328.8640, 14037.00
330.0680, 14016.00
331.2730, 14178.00
332.4780, 14336.00
333.6820, 14469.00
334.8860, 14678.00
336.0900, 14860.00
337.2940, 15240.00
338.4980, 15536.00
339.7010, 15816.00
340.9050, 16078.00
342.1080, 16381.00
343.3110, 16638.00
344.5140, 16827.18
345.7170, 17095.00
346.9200, 17128.00
348.1220, 17212.00
349.3240, 17265.00
350.5270, 17486.00
351.7290, 17479.00
352.9310, 17477.00
354.1320, 17586.00
355.3340, 17983.00
356.5350, 18401.00
357.7370, 19046.00
358.9380, 19822.00
360.1390, 20415.00
361.3400, 21189.00
362.5400, 21345.00
363.7410, 21608.00
364.9410, 21799.00
366.1410, 21490.00
367.3410, 21515.00
368.5410, 21339.00
369.7410, 20786.00
370.9400, 20418.00
372.1400, 19940.00
373.3390, 19584.00
374.5380, 19362.00
375.7370, 19346.73
376.9360, 19474.00
378.1350, 19791.00
379.3330, 20269.00
380.5310, 20967.00
381.7300, 22111.00
382.9280, 22770.00
384.1260, 23658.00
385.3230, 24251.00
386.5210, 24628.00
387.7180, 24444.00
388.9160, 24517.00
390.1130, 24409.00
391.3100, 23658.00
392.5060, 23121.00
393.7030, 22383.00
394.9000, 21382.00
396.0960, 20994.00
397.2920, 20440.00
398.4880, 19696.00
399.6840, 19976.00
400.8800, 19939.00
402.0750, 20246.00
403.2710, 20645.00
404.4660, 21031.00
405.6610, 21679.00
406.8560, 21824.00
408.0510, 22016.00
409.2450, 22247.00
410.4400, 22230.00
411.6340, 21996.00
412.8280, 21726.00
414.0220, 21038.00
415.2160, 20477.00
416.4100, 19909.00
417.6030, 19207.00
418.7970, 18728.00
419.9900, 18155.00
421.1830, 17757.00
422.3760, 17325.00
423.5690, 17316.00
424.7610, 17340.00
425.9540, 17660.00
427.1460, 17802.00
428.3380, 17904.00
429.5300, 18203.00
430.7220, 18072.00
431.9140, 18061.00
433.1050, 17857.00
434.2970, 17685.00
435.4880, 17418.00
436.6790, 17102.00
437.8700, 16534.00
439.0610, 16294.00
440.2510, 15841.00
441.4420, 15546.00
442.6320, 15189.00
443.8220, 15035.00
445.0120, 14987.00
446.2020, 14803.00
447.3910, 14702.00
448.5810, 14733.00
449.7700, 14518.00
450.9600, 14650.00
452.1490, 14699.00
453.3370, 14625.00
454.5260, 14688.00
455.7150, 14621.00
456.9030, 14590.00
458.0910, 14668.00
459.2800, 14478.00
460.4670, 14589.00
461.6550, 14463.00
462.8430, 14500.00
464.0300, 14428.00
465.2180, 14629.00
466.4050, 14517.00
467.5920, 14600.00
468.7790, 14541.00
469.9650, 14708.00
471.1520, 14652.00
472.3380, 14605.00
473.5250, 14791.00
474.7110, 14666.00
475.8970, 14706.00
477.0820, 14703.00
478.2680, 14841.00
479.4540, 14807.00
480.6390, 14909.00
481.8240, 14957.00
483.0090, 14831.00
484.1940, 14875.00
485.3780, 14699.00
486.5630, 14624.00
487.7470, 14772.00
488.9320, 14819.00
490.1160, 14968.00
491.3000, 14905.00
492.4830, 15010.00
493.6670, 15115.00
494.8500, 15080.00
496.0340, 15102.00
497.2170, 15426.00
498.4000, 15328.00
499.5820, 15628.00
500.7650, 15662.00
501.9480, 15895.00
503.1300, 16005.00
504.3120, 16449.00
505.4940, 16589.00
506.6760, 16788.00
507.8580, 17196.00
509.0390, 17466.06
510.2210, 17838.00
511.4020, 18211.00
512.5830, 18515.00
513.7640, 18866.00
514.9450, 18862.00
516.1250, 19142.00
517.3060, 19136.00
518.4860, 19582.00
519.6660, 19516.00
520.8460, 19652.00
522.0260, 19420.00
523.2060, 19489.00
524.3850, 19450.00
525.5650, 19066.00
526.7440, 18987.00
527.9230, 18760.00
529.1020, 18664.00
530.2810, 18289.00
531.4590, 17966.00
532.6380, 17545.00
533.8160, 17420.00
534.9940, 17101.89
536.1720, 16941.24
537.3500, 16759.00
538.5270, 16582.00
539.7050, 16462.04
540.8820, 16318.00
542.0590, 16282.00
543.2360, 16296.00
544.4130, 16334.00
545.5900, 16231.00
546.7660, 16264.00
547.9430, 16291.00
549.1190, 16246.00
550.2950, 16224.67
551.4710, 16054.00
552.6470, 16080.00
553.8220, 16035.00
554.9980, 15894.00
556.1730, 16046.00
557.3480, 16000.00
558.5230, 16120.00
559.6980, 15972.00
560.8730, 15912.00
562.0470, 16032.00
563.2220, 16012.00
564.3960, 16080.00
565.5700, 16184.00
566.7440, 16193.00
567.9170, 16203.87
569.0910, 16201.63
570.2640, 16152.00
571.4380, 16139.00
572.6110, 16106.00
573.7840, 16089.00
574.9570, 16107.00
576.1290, 16248.00
577.3020, 16035.00
578.4740, 16193.00
579.6460, 16025.00
580.8180, 15939.00
581.9900, 16000.00
583.1620, 15838.00
584.3330, 15816.00
585.5040, 15826.00
586.6760, 15826.00
587.8470, 15774.00
589.0180, 15653.00
590.1880, 15523.00
591.3590, 15556.00
592.5290, 15429.00
593.7000, 15401.00
594.8700, 15335.00
596.0400, 15522.00
597.2090, 15406.00
598.3790, 15430.00
599.5490, 15369.00
600.7180, 15578.00
601.8870, 15514.00
603.0560, 15495.00
604.2250, 15622.00
605.3940, 15524.00
606.5620, 15508.00
607.7300, 15666.00
608.8990, 15620.00
610.0670, 15607.00
611.2350, 15631.00
612.4020, 15650.00
613.5700, 15703.00
614.7370, 15876.00
615.9050, 15849.00
617.0720, 15823.00
618.2390, 15994.00
619.4060, 15902.00
620.5720, 16010.00
621.7390, 16096.00
622.9050, 15976.00
624.0710, 16167.00
625.2370, 16378.00
626.4030, 16225.00
627.5690, 16323.00
628.7340, 16551.00
629.9000, 16533.00
631.0650, 16644.00
632.2300, 16878.00
633.3950, 17047.00
634.5600, 17166.02
635.7240, 17347.00
636.8890, 17442.00
638.0530, 17611.00
639.2170, 17824.00
640.3810, 18219.00
641.5450, 18115.00
642.7080, 18512.00
643.8720, 18878.00
645.0350, 19393.00
646.1980, 19692.00
647.3610, 20160.00
648.5240, 20567.00
649.6870, 20898.00
650.8490, 21381.00
652.0120, 22046.00
653.1740, 22729.00
654.3360, 23734.00
655.4980, 24872.00
656.6600, 26136.00
657.8210, 27811.00
658.9830, 30296.00
660.1440, 33357.00
661.3050, 36904.00
662.4660, 41388.00
663.6270, 45903.00
664.7870, 50306.00
665.9480, 54336.00
667.1080, 57089.00
668.2680, 58133.00
669.4280, 58429.00
670.5880, 57606.00
671.7480, 54813.00
672.9070, 51522.00
674.0670, 47451.00
675.2260, 42992.00
676.3850, 38669.00
677.5440, 34644.00
678.7030, 31637.00
679.8610, 29046.00
681.0200, 26886.00
682.1780, 25535.00
683.3360, 24164.00
684.4940, 23445.00
685.6520, 22647.00
686.8090, 22046.00
687.9670, 21524.00
689.1240, 21334.00
690.2810, 20569.00
691.4380, 20415.00
692.5950, 19995.00
693.7520, 19581.00
694.9080, 19297.00
696.0650, 19202.00
697.2210, 18988.00
698.3770, 18800.00
699.5330, 18649.00
700.6880, 18378.00
701.8440, 18493.00
702.9990, 18162.00
704.1550, 18149.00
705.3100, 18039.00
706.4650, 17986.00
707.6190, 18018.00
708.7740, 17973.00
709.9290, 17870.00
711.0830, 17981.00
712.2370, 17761.00
713.3910, 17762.00
714.5450, 17777.00
715.6980, 17745.00
716.8520, 17719.00
718.0050, 17749.00
719.1580, 17826.00
720.3110, 17667.00
721.4640, 17851.00
722.6170, 17767.00
723.7700, 17684.00
724.9220, 17875.00
726.0740, 17749.00
727.2260, 17829.00
728.3780, 17905.00
729.5300, 18032.00
730.6810, 17953.00
731.8330, 18180.00
732.9840, 18108.00
734.1350, 18561.00
735.2860, 18553.00
736.4370, 18701.00
737.5880, 18864.00
738.7380, 19148.00
739.8880, 19197.00
741.0390, 19429.00
742.1890, 19509.00
743.3380, 19548.00
744.4880, 19554.00
745.6380, 19653.00
746.7870, 19600.00
747.9360, 19483.45
749.0850, 19470.00
750.2340, 19131.00
751.3830, 18984.00
752.5310, 18779.00
753.6800, 18664.00
754.8280, 18478.00
755.9760, 18524.00
757.1240, 18499.00
758.2720, 18263.00
759.4190, 18471.00
760.5670, 18110.00
761.7140, 18159.00
762.8610, 18063.00
764.0080, 18007.00
765.1550, 18016.00
766.3020, 17946.00
767.4480, 18212.00
768.5950, 17946.00
769.7410, 17861.00
770.8870, 18114.00
772.0330, 18127.00
773.1780, 17971.00
774.3240, 18166.00
775.4690, 18023.00
776.6140, 18078.00
777.7590, 18066.00
778.9040, 18053.00
780.0490, 18006.00
781.1940, 18075.00
782.3380, 17937.00
783.4820, 17957.00
784.6260, 17946.00
785.7700, 18116.00
786.9140, 18046.00
788.0580, 18065.00
789.2010, 18079.00
790.3450, 18110.00
791.4880, 18066.00
792.6310, 18013.00
793.7730, 18050.00
794.9160, 18044.00
796.0590, 18242.00
797.2010, 17980.00
798.3430, 18124.00
799.4850, 18264.00
800.6270, 18210.00
801.7690, 18301.90
802.9100, 18323.47
804.0520, 18340.00
805.1930, 18326.00
806.3340, 18370.00
807.4750, 18291.00
808.6160, 18249.00
809.7560, 18278.23
810.8970, 18387.00
812.0370, 18356.00
813.1770, 18473.00
814.3170, 18620.00
815.4570, 18411.00
816.5960, 18337.00
817.7360, 18516.00
818.8750, 18481.00
820.0140, 18567.00
821.1530, 18537.00
822.2920, 18527.00
823.4310, 18586.00
824.5690, 18493.00
825.7070, 18736.00
826.8460, 18707.00
827.9840, 18636.00
829.1220, 18810.00
830.2590, 18869.00
831.3970, 18807.00
832.5340, 18796.00
833.6710, 18801.00
834.8080, 18798.00
835.9450, 18978.00
837.0820, 18885.00
838.2190, 19085.00
839.3550, 19050.00
840.4910, 19228.00
841.6270, 19133.00
842.7630, 19116.00
843.8990, 19124.00
845.0350, 19154.00
846.1700, 19154.00
847.3060, 19222.00
848.4410, 19181.00
849.5760, 19172.00
850.7100, 19223.00
851.8450, 19199.90
852.9800, 19232.82
854.1140, 19244.00
855.2480, 19285.00
856.3820, 19370.00
857.5160, 19413.59
858.6500, 19409.00
859.7830, 19506.00
860.9170, 19479.00
862.0500, 19551.00
863.1830, 19656.00
864.3160, 19678.00
865.4480, 19619.00
866.5810, 19552.00
867.7130, 19625.00
868.8460, 19553.00
869.9780, 19678.00
871.1100, 19656.00
872.2410, 19571.00
873.3730, 19597.00
874.5050, 19813.00
875.6360, 19721.00
876.7670, 19869.00
877.8980, 19882.00
879.0290, 19800.58
880.1590, 19804.48
881.2900, 19782.00
882.4200, 19663.00
883.5500, 19955.00
884.6800, 19943.00
885.8100, 20016.00
886.9400, 19905.00
888.0690, 20196.00
889.1990, 20081.00
890.3280, 20282.00
891.4570, 20063.00
892.5860, 20315.00
893.7140, 20319.00
894.8430, 20331.00
895.9710, 20383.00
897.1000, 20395.00
898.2280, 20453.94
899.3560, 20495.60
900.4830, 20574.00
901.6110, 20606.00
902.7380, 20671.00
903.8660, 20752.08
904.9930, 20794.00
906.1200, 21026.00
907.2460, 21069.00
908.3730, 21216.00
909.5000, 21442.00
910.6260, 21358.00
911.7520, 21566.00
912.8780, 21529.00
914.0040, 21919.00
915.1290, 22251.00
916.2550, 22431.00
917.3800, 22892.00
918.5050, 22985.00
919.6300, 23575.00
920.7550, 24244.00
921.8800, 24704.00
923.0040, 25072.00
924.1290, 25572.00
925.2530, 25910.00
926.3770, 26093.00
927.5010, 26088.00
928.6250, 25998.00
929.7480, 25933.00
930.8720, 25171.00
931.9950, 24739.00
933.1180, 24315.00
934.2410, 23958.00
935.3640, 23660.60
936.4860, 23411.00
937.6090, 23265.00
938.7310, 23100.00
939.8530, 23150.00
940.9750, 23056.00
942.0970, 23294.00
943.2180, 23318.00
944.3400, 23477.00
945.4610, 23289.00
946.5820, 23014.00
947.7030, 23214.00
948.8240, 22691.00
949.9450, 22677.00
951.0650, 22682.00
952.1860, 22537.00
953.3060, 22160.00
954.4260, 22175.00
955.5460, 22144.00
956.6650, 22167.00
957.7850, 22163.00
958.9040, 22173.00
960.0230, 22014.00
961.1420, 21900.00
962.2610, 21921.53
963.3800, 21998.00
964.4990, 21976.00
965.6170, 21972.00
966.7350, 22095.00
967.8530, 22117.00
968.9710, 22080.00
970.0890, 22109.00
971.2070, 22204.00
972.3240, 22416.00
973.4410, 22406.95
974.5580, 22338.00
975.6750, 22479.00
976.7920, 22394.00
977.9090, 22389.00
979.0250, 22415.00
980.1410, 22316.00
981.2580, 22454.00
982.3740, 22407.00
983.4890, 22548.00
984.6050, 22438.00
985.7200, 22507.00
986.8360, 22640.00
987.9510, 22664.00
989.0660, 22905.00
990.1810, 22764.00
991.2950, 22757.00
992.4100, 22908.00
993.5240, 23273.00
994.6390, 23209.00
995.7530, 23420.00
996.8660, 23502.00
997.9800, 23440.00
999.0940, 23719.41
1000.207, 23973.00
1001.320, 24124.00
1002.433, 24387.00
1003.546, 24569.00
1004.659, 24556.00
1005.772, 25054.00
1006.884, 24991.00
1007.996, 25447.00
1009.108, 25983.00
1010.220, 26246.00
1011.332, 26028.00
1012.444, 26711.00
1013.555, 27089.00
1014.666, 27332.00
1015.777, 27985.00
1016.888, 28692.00
1017.999, 29400.00
1019.110, 30233.00
1020.220, 31267.00
1021.331, 32432.00
1022.441, 33585.00
1023.551, 34762.00
1024.661, 35780.00
1025.770, 35801.00
1026.880, 35850.00
1027.989, 35180.00
1029.098, 34460.00
1030.207, 33329.00
1031.316, 31861.00
1032.425, 30861.00
1033.533, 29620.00
1034.642, 28635.00
1035.750, 27966.00
1036.858, 27213.00
1037.966, 26886.00
1039.073, 26578.00
1040.181, 26487.00
1041.288, 26567.00
1042.396, 26746.00
1043.503, 26919.00
1044.610, 27145.00
1045.716, 27438.00
1046.823, 27970.00
1047.929, 28399.00
1049.036, 29132.00
1050.142, 29733.00
1051.248, 30236.00
1052.353, 30805.00
1053.459, 31232.00
1054.564, 31445.00
1055.670, 31520.00
1056.775, 31232.00
1057.880, 31317.00
1058.985, 30927.00
1060.089, 30589.00
1061.194, 30337.00
1062.298, 30293.00
1063.402, 30178.00
1064.506, 29939.00
1065.610, 29582.00
1066.713, 29179.00
1067.817, 28748.00
1068.920, 27918.00
1070.023, 27420.00
1071.126, 26561.00
1072.229, 26018.00
1073.332, 25677.00
1074.435, 25164.00
1075.537, 24991.00
1076.639, 24575.00
1077.741, 24374.00
1078.843, 24283.00
1079.945, 24162.00
1081.046, 24067.00
1082.148, 23862.00
1083.249, 23630.00
1084.350, 23820.00
1085.451, 23506.00
1086.551, 23769.00
1087.652, 23681.00
1088.752, 23498.00
1089.853, 23639.00
1090.953, 23883.00
1092.053, 23683.00
1093.152, 23697.00
1094.252, 23582.00
1095.351, 23619.00
1096.451, 23517.00
1097.550, 23584.00
1098.649, 23504.00
1099.748, 23508.00
1100.846, 23522.00
1101.945, 23576.00
1103.043, 23487.00
1104.141, 23427.00
1105.239, 23410.06
1106.337, 23513.00
1107.434, 23416.00
1108.532, 23439.00
1109.629, 23652.00
1110.726, 23605.00
1111.823, 23607.10
1112.920, 23418.00
1114.017, 23552.00
1115.113, 23559.00
1116.210, 23665.00
1117.306, 23486.00
1118.402, 23460.00
1119.498, 23631.00
1120.593, 23400.00
1121.689, 23589.00
1122.784, 23388.00
1123.879, 23650.00
1124.974, 23620.00
1126.069, 23701.00
1127.164, 23737.04
1128.259, 23649.00
1129.353, 23712.00
1130.447, 23598.00
1131.541, 23574.00
1132.635, 23639.00
1133.729, 23392.00
1134.822, 23600.00
1135.916, 23761.00
1137.009, 23470.00
1138.102, 23592.00
1139.195, 23430.00
1140.288, 23471.00
1141.380, 23448.00
1142.473, 23587.00
1143.565, 23541.00
1144.657, 23570.42
1145.749, 23566.00
1146.841, 23536.00
1147.932, 23533.00
1149.024, 23437.00
1150.115, 23446.00
1151.206, 23517.00
1152.297, 23344.00
1153.388, 23519.00
1154.479, 23403.00
1155.569, 23324.00
1156.659, 23430.00
1157.750, 23367.00
1158.839, 23525.00
1159.929, 23470.00
1161.019, 23623.00
1162.108, 23493.00
1163.198, 23452.00
1164.287, 23410.00
1165.376, 23431.00
1166.465, 23502.00
1167.553, 23614.00
1168.642, 23354.00
1169.730, 23654.00
1170.818, 23642.00
1171.906, 23853.00
1172.994, 23502.00
1174.082, 23678.00
1175.170, 23619.00
1176.257, 23569.00
1177.344, 23672.00
1178.431, 23598.00
1179.518, 23715.00
1180.605, 23712.00
1181.691, 23877.00
1182.778, 23892.00
1183.864, 23879.00
1184.950, 23876.00
1186.036, 23834.00
1187.122, 23774.00
1188.207, 23880.00
1189.292, 23966.00
1190.378, 23800.00
1191.463, 23832.00
1192.548, 24020.00
1193.632, 23888.00
1194.717, 24096.00
1195.801, 23770.00
1196.886, 24062.00
1197.970, 23970.00
1199.054, 24020.00
1200.137, 23963.00
1201.221, 24092.00
1202.305, 23890.00
1203.388, 24034.00
1204.471, 24042.00
1205.554, 24122.00
1206.637, 24026.00
1207.719, 24224.00
1208.802, 24084.00
1209.884, 24179.00
1210.966, 24423.00
1212.048, 24137.00
1213.130, 24349.00
1214.212, 24199.00
1215.293, 24165.00
1216.374, 24309.00
1217.456, 24366.00
1218.536, 24113.00
1219.617, 24505.00
1220.698, 24851.00
1221.778, 24144.00
1222.859, 24476.00
1223.939, 24366.00
1225.019, 24507.00
1226.099, 24395.00
1227.178, 24418.00
1228.258, 24503.00
1229.337, 24438.00
1230.417, 24567.00
1231.496, 24649.00
1232.574, 24479.00
1233.653, 24592.00
1234.732, 24618.00
1235.810, 24645.00
1236.888, 24678.00
1237.966, 24894.00
1239.044, 24650.00
1240.122, 24820.00
1241.199, 24954.00
1242.277, 24827.00
1243.354, 24690.00
1244.431, 24767.00
1245.508, 24923.00
1246.585, 24840.00
1247.661, 25122.00
1248.738, 25058.82
1249.814, 24979.00
1250.890, 25021.00
1251.966, 25032.00
1253.042, 24956.00
1254.117, 25019.00
1255.193, 25002.00
1256.268, 24887.00
1257.343, 25025.00
1258.418, 25012.00
1259.493, 24965.00
1260.567, 25125.00
1261.642, 25290.00
1262.716, 25218.00
1263.790, 25406.00
1264.864, 25235.00
1265.938, 25205.00
1267.011, 25238.00
1268.085, 25385.00
1269.158, 25290.00
1270.231, 25207.00
1271.304, 25352.00
1272.377, 25169.00
1273.450, 25567.00
1274.522, 25259.00
1275.594, 25497.00
1276.666, 25503.00
1277.738, 25461.00
1278.810, 25548.00
1279.882, 25392.00
1280.953, 25545.00
1282.025, 25632.00
1283.096, 25749.00
1284.167, 25590.00
1285.238, 25479.00
1286.308, 25560.00
1287.379, 25487.00
1288.449, 25724.00
1289.519, 25482.00
1290.589, 25757.00
1291.659, 25623.00
1292.729, 25568.00
1293.798, 25656.00
1294.868, 25838.00
1295.937, 25810.00
1297.006, 25752.00
1298.075, 25788.00
1299.143, 25708.00
1300.212, 25860.00
1301.280, 25864.00
1302.348, 25968.00
1303.416, 26006.92
