##NAMES=Actinolite
##RRUFFID=R060045
##IDEAL CHEMISTRY=Ca_2_(Mg_4.5-2.5_Fe^2+^_0.5-2.5_)Si_8_O_22_(OH)_2_
##LOCALITY=Colorado, USA
##OWNER=RRUFF
##SOURCE=University of Arizona Mineral Museum
##DESCRIPTION=Green prismatic crystals in a radial arrangement
##STATUS=The identification of this mineral has been confirmed by X-ray diffraction and chemical analysis
##URL=rruff.info/R060045
##MEASURED CHEMISTRY=(Ca_1.99_Na_0.01_)_Σ=2_(Mg_4.20_Fe^2+^_0.59_Al_0.09_Fe^3+^_0.08_Mn_0.02_Ti_0.01_)_Σ=5_(Si_7.82_Al_0.18_)_Σ=8_O_22_(OH)_2_
##PIN_ID=M00311
##ORIENTATION=Laser parallel to c* (0 0 1). Fiducial mark perpendicular to laser is parallel to a [1 0 0]
134.1270, 13519.00
135.3560, 13618.00
136.5850, 13592.00
137.8140, 13752.00
139.0430, 13942.00
140.2710, 14034.00
141.5000, 14036.00
142.7280, 14290.00
143.9560, 14428.00
145.1840, 14855.00
146.4120, 15581.00
147.6390, 16345.00
148.8670, 17308.00
150.0940, 17885.00
151.3210, 17877.00
152.5490, 18432.00
153.7750, 18309.00
155.0020, 18748.00
156.2290, 18757.00
157.4550, 18504.00
158.6810, 18433.00
159.9080, 18254.00
161.1340, 17669.00
162.3590, 17639.00
163.5850, 17692.00
164.8110, 18015.00
166.0360, 19060.00
167.2610, 20401.00
168.4860, 21559.00
169.7110, 22256.00
170.9360, 22384.00
172.1610, 22586.00
173.3850, 22956.00
174.6100, 22894.00
175.8340, 22702.00
177.0580, 22191.00
178.2820, 21253.00
179.5050, 20478.00
180.7290, 19575.00
181.9520, 18439.00
183.1760, 17217.00
184.3990, 16768.00
185.6220, 16387.00
186.8450, 16211.00
188.0670, 15992.00
189.2900, 16075.00
190.5120, 15785.00
191.7340, 15697.00
192.9560, 15968.00
194.1780, 15958.00
195.4000, 16144.00
196.6220, 16296.00
197.8430, 16248.00
199.0640, 16516.00
200.2860, 16723.00
201.5070, 17153.00
202.7270, 17510.00
203.9480, 17661.00
205.1690, 18041.00
206.3890, 18689.00
207.6090, 19558.67
208.8290, 20706.00
210.0490, 21960.00
211.2690, 23635.00
212.4890, 25284.00
213.7080, 26654.00
214.9280, 27701.00
216.1470, 28546.00
217.3660, 29067.00
218.5850, 29422.00
219.8030, 29449.50
221.0220, 29210.20
222.2400, 28773.00
223.4590, 27900.00
224.6770, 26932.00
225.8950, 25534.00
227.1120, 24291.00
228.3300, 23344.00
229.5480, 22277.00
230.7650, 21527.00
231.9820, 20595.00
233.1990, 20066.00
234.4160, 19361.00
235.6330, 18961.00
236.8490, 18714.00
238.0660, 18252.00
239.2820, 18080.00
240.4980, 17864.00
241.7140, 17893.00
242.9300, 17701.00
244.1460, 17696.00
245.3610, 17712.00
246.5770, 17729.00
247.7920, 17703.72
249.0070, 17659.09
250.2220, 17625.00
251.4370, 17482.00
252.6510, 17363.00
253.8660, 17181.00
255.0800, 17169.00
256.2940, 17023.00
257.5080, 16997.00
258.7220, 16848.00
259.9360, 16824.99
261.1490, 16732.96
262.3630, 16768.00
263.5760, 16586.00
264.7890, 16543.00
266.0020, 16497.00
267.2150, 16532.00
268.4270, 16546.00
269.6400, 16524.08
270.8520, 16469.53
272.0640, 16518.00
273.2760, 16410.00
274.4880, 16428.00
275.7000, 16470.09
276.9120, 16488.00
278.1230, 16618.00
279.3340, 16689.00
280.5450, 16843.00
281.7560, 16796.00
282.9670, 16901.00
284.1780, 16853.00
285.3880, 17057.00
286.5980, 16975.00
287.8090, 17021.00
289.0190, 17267.00
290.2290, 17340.00
291.4380, 17459.00
292.6480, 17503.00
293.8570, 17596.60
295.0670, 17640.72
296.2760, 17701.00
297.4850, 17710.00
298.6930, 17646.00
299.9020, 17659.84
301.1110, 17636.00
302.3190, 17629.00
303.5270, 17574.00
304.7350, 17467.00
305.9430, 17572.00
307.1510, 17382.00
308.3580, 17241.00
309.5660, 17375.00
310.7730, 17314.00
311.9800, 17475.00
313.1870, 17399.00
314.3940, 17328.00
315.6010, 17275.00
316.8070, 17424.00
318.0130, 17459.00
319.2200, 17778.00
320.4260, 17553.00
321.6310, 17753.00
322.8370, 17753.00
324.0430, 17583.00
325.2480, 17786.00
326.4540, 18051.00
327.6590, 17999.00
328.8640, 18035.00
330.0680, 17997.00
331.2730, 18179.00
332.4780, 18053.00
333.6820, 18186.00
334.8860, 18233.00
336.0900, 18257.00
337.2940, 18540.00
338.4980, 18777.00
339.7010, 18919.00
340.9050, 18987.00
342.1080, 19006.00
343.3110, 19152.60
344.5140, 19591.00
345.7170, 19450.00
346.9200, 19536.00
348.1220, 19832.00
349.3240, 19673.00
350.5270, 19789.00
351.7290, 19689.00
352.9310, 19639.00
354.1320, 20076.00
355.3340, 20105.00
356.5350, 20067.00
357.7370, 20405.00
358.9380, 20627.00
360.1390, 20995.00
361.3400, 21159.00
362.5400, 21233.00
363.7410, 21348.00
364.9410, 21355.00
366.1410, 21435.00
367.3410, 21601.00
368.5410, 21382.00
369.7410, 21302.38
370.9400, 20953.00
372.1400, 20810.00
373.3390, 20503.00
374.5380, 20157.00
375.7370, 20121.00
376.9360, 20155.00
378.1350, 20074.00
379.3330, 20215.00
380.5310, 20418.00
381.7300, 20729.00
382.9280, 20946.00
384.1260, 21191.00
385.3230, 21338.00
386.5210, 21430.68
387.7180, 21407.00
388.9160, 21406.00
390.1130, 21325.00
391.3100, 21050.00
392.5060, 20941.00
393.7030, 20749.00
394.9000, 20611.00
396.0960, 20247.00
397.2920, 19917.00
398.4880, 19886.00
399.6840, 19888.00
400.8800, 19753.00
402.0750, 19711.00
403.2710, 20046.00
404.4660, 19931.00
405.6610, 19889.00
406.8560, 20171.00
408.0510, 20207.00
409.2450, 20509.00
410.4400, 20313.00
411.6340, 20508.00
412.8280, 20212.00
414.0220, 20103.00
415.2160, 20101.00
416.4100, 19833.00
417.6030, 19576.00
418.7970, 19674.00
419.9900, 19501.00
421.1830, 19299.00
422.3760, 19418.00
423.5690, 19376.00
424.7610, 19263.00
425.9540, 19306.00
427.1460, 19539.00
428.3380, 19522.00
429.5300, 19617.00
430.7220, 19634.00
431.9140, 19614.00
433.1050, 19594.00
434.2970, 19543.00
435.4880, 19579.00
436.6790, 19568.00
437.8700, 19239.00
439.0610, 19278.00
440.2510, 19107.00
441.4420, 19015.14
442.6320, 19152.00
443.8220, 18932.00
445.0120, 19021.00
446.2020, 19086.00
447.3910, 19058.00
448.5810, 19190.00
449.7700, 19212.00
450.9600, 19034.00
452.1490, 19001.00
453.3370, 19075.00
454.5260, 19086.00
455.7150, 19180.00
456.9030, 19122.00
458.0910, 19140.00
459.2800, 19029.00
460.4670, 19328.00
461.6550, 19225.00
462.8430, 19204.00
464.0300, 19402.00
465.2180, 19286.00
466.4050, 19210.00
467.5920, 19232.00
468.7790, 19422.00
469.9650, 19338.00
471.1520, 19571.00
472.3380, 19286.00
473.5250, 19526.00
474.7110, 19349.00
475.8970, 19554.00
477.0820, 19741.00
478.2680, 19654.00
479.4540, 19489.00
480.6390, 19649.00
481.8240, 19759.00
483.0090, 19559.00
484.1940, 19583.00
485.3780, 19735.00
486.5630, 19732.00
487.7470, 19774.00
488.9320, 19573.00
490.1160, 19622.00
491.3000, 19807.00
492.4830, 19571.00
493.6670, 20017.00
494.8500, 19937.00
496.0340, 19987.00
497.2170, 20057.00
498.4000, 20174.00
499.5820, 20036.00
500.7650, 20258.00
501.9480, 20368.00
503.1300, 20202.00
504.3120, 20436.00
505.4940, 20652.00
506.6760, 20692.00
507.8580, 20948.00
509.0390, 20770.00
510.2210, 21171.00
511.4020, 21066.00
512.5830, 21345.00
513.7640, 21258.00
514.9450, 21202.00
516.1250, 21583.00
517.3060, 21588.00
518.4860, 21770.00
519.6660, 21719.00
520.8460, 21990.00
522.0260, 21838.00
523.2060, 22151.00
524.3850, 22164.00
525.5650, 22058.00
526.7440, 21743.00
527.9230, 21966.00
529.1020, 21724.00
530.2810, 21679.00
531.4590, 21687.00
532.6380, 21634.00
533.8160, 21325.00
534.9940, 21140.00
536.1720, 21342.00
537.3500, 21088.00
538.5270, 21127.00
539.7050, 20996.00
540.8820, 20998.00
542.0590, 20900.00
543.2360, 21021.00
544.4130, 20983.00
545.5900, 21174.00
546.7660, 21050.00
547.9430, 20917.00
549.1190, 21016.00
550.2950, 21191.00
551.4710, 20934.00
552.6470, 21107.00
553.8220, 21153.00
554.9980, 21062.00
556.1730, 21056.00
557.3480, 21066.26
558.5230, 21014.00
559.6980, 21071.00
560.8730, 21003.00
562.0470, 20971.00
563.2220, 21044.59
564.3960, 21013.02
565.5700, 21168.00
566.7440, 21143.00
567.9170, 21191.00
569.0910, 21453.00
570.2640, 21326.00
571.4380, 21448.00
572.6110, 21436.00
573.7840, 21393.00
574.9570, 21392.00
576.1290, 21410.67
577.3020, 21463.00
578.4740, 21476.00
579.6460, 21502.56
580.8180, 21539.00
581.9900, 21492.00
583.1620, 21568.00
584.3330, 21412.00
585.5040, 21519.00
586.6760, 21428.00
587.8470, 21515.00
589.0180, 21438.00
590.1880, 21496.00
591.3590, 21416.00
592.5290, 21512.00
593.7000, 21438.00
594.8700, 21749.00
596.0400, 21524.00
597.2090, 21592.00
598.3790, 21648.00
599.5490, 21578.53
600.7180, 21689.00
601.8870, 21684.00
603.0560, 21698.00
604.2250, 21736.75
605.3940, 21821.00
606.5620, 21777.00
607.7300, 21868.00
608.8990, 21926.00
610.0670, 22118.00
611.2350, 22008.00
612.4020, 21969.00
613.5700, 22099.00
614.7370, 22280.00
615.9050, 22146.00
617.0720, 22127.00
618.2390, 22268.00
619.4060, 22267.00
620.5720, 22359.00
621.7390, 22342.00
622.9050, 22461.00
624.0710, 22570.00
625.2370, 22571.00
626.4030, 22784.00
627.5690, 22693.00
628.7340, 22886.00
629.9000, 22952.00
631.0650, 23066.00
632.2300, 23020.00
633.3950, 23369.00
634.5600, 23407.00
635.7240, 23743.00
636.8890, 23666.00
638.0530, 23828.00
639.2170, 24184.00
640.3810, 24446.00
641.5450, 24611.00
642.7080, 25068.00
643.8720, 25131.00
645.0350, 25200.00
646.1980, 25731.00
647.3610, 25799.00
648.5240, 26286.00
649.6870, 26671.00
650.8490, 27216.00
652.0120, 27468.00
653.1740, 28116.00
654.3360, 28766.00
655.4980, 29309.00
656.6600, 30453.00
657.8210, 31611.00
658.9830, 33030.00
660.1440, 35434.00
661.3050, 37650.00
662.4660, 40948.00
663.6270, 44173.00
664.7870, 47834.00
665.9480, 50815.00
667.1080, 53155.00
668.2680, 53965.00
669.4280, 54081.00
670.5880, 53239.00
671.7480, 51397.00
672.9070, 49116.00
674.0670, 45829.00
675.2260, 42703.00
676.3850, 39521.00
677.5440, 36526.00
678.7030, 34390.00
679.8610, 32397.00
681.0200, 30929.00
682.1780, 29801.00
683.3360, 28938.00
684.4940, 28373.00
685.6520, 28068.00
686.8090, 27685.00
687.9670, 27052.00
689.1240, 26646.00
690.2810, 26223.00
691.4380, 25966.00
692.5950, 25662.52
693.7520, 25708.00
694.9080, 25191.00
696.0650, 25212.00
697.2210, 24984.00
698.3770, 24778.00
699.5330, 24711.00
700.6880, 24646.00
701.8440, 24687.00
702.9990, 24654.00
704.1550, 24714.00
705.3100, 24332.00
706.4650, 24524.00
707.6190, 24376.00
708.7740, 24403.00
709.9290, 24472.00
711.0830, 24422.50
712.2370, 24299.00
713.3910, 24401.00
714.5450, 24401.00
715.6980, 24280.00
716.8520, 24286.00
718.0050, 24376.00
719.1580, 24316.00
720.3110, 24269.00
721.4640, 24347.00
722.6170, 24325.40
723.7700, 24330.80
724.9220, 24385.00
726.0740, 24388.00
727.2260, 24405.00
728.3780, 24553.00
729.5300, 24427.00
730.6810, 24647.00
731.8330, 24621.00
732.9840, 24665.00
734.1350, 24638.00
735.2860, 24952.00
736.4370, 24736.00
737.5880, 24787.00
738.7380, 24999.00
739.8880, 24771.00
741.0390, 24986.00
742.1890, 25028.00
743.3380, 24865.00
744.4880, 25150.00
745.6380, 24886.00
746.7870, 25209.00
747.9360, 24820.00
749.0850, 24770.00
750.2340, 24933.00
751.3830, 24794.00
752.5310, 24817.00
753.6800, 24751.00
754.8280, 24922.00
755.9760, 24901.00
757.1240, 24930.00
758.2720, 24750.00
759.4190, 24803.00
760.5670, 24646.00
761.7140, 24902.00
762.8610, 24803.00
764.0080, 24663.00
765.1550, 24943.00
766.3020, 24867.00
767.4480, 25021.00
768.5950, 24916.00
769.7410, 24844.00
770.8870, 25005.00
772.0330, 24898.00
773.1780, 25129.00
774.3240, 24955.00
775.4690, 25073.00
776.6140, 25034.00
777.7590, 24969.00
778.9040, 24995.00
780.0490, 25087.00
781.1940, 24970.00
782.3380, 25219.00
783.4820, 25032.00
784.6260, 24974.00
785.7700, 25298.00
786.9140, 25139.00
788.0580, 25319.00
789.2010, 25155.00
790.3450, 25208.00
791.4880, 25376.00
792.6310, 25174.00
793.7730, 25343.00
794.9160, 25479.00
796.0590, 25446.00
797.2010, 25546.00
798.3430, 25458.00
799.4850, 25446.00
800.6270, 25489.00
801.7690, 25499.00
802.9100, 25465.00
804.0520, 25517.00
805.1930, 25335.00
806.3340, 25566.00
807.4750, 25641.00
808.6160, 25811.00
809.7560, 25637.00
810.8970, 25784.00
812.0370, 25979.00
813.1770, 25716.00
814.3170, 25854.00
815.4570, 25793.00
816.5960, 25922.00
817.7360, 25786.00
818.8750, 26088.00
820.0140, 25989.00
821.1530, 26087.00
822.2920, 25970.00
823.4310, 26164.00
824.5690, 26244.00
825.7070, 26249.00
826.8460, 26180.00
827.9840, 26097.00
829.1220, 26214.00
830.2590, 26304.00
831.3970, 26265.00
832.5340, 26134.00
833.6710, 26194.00
834.8080, 26140.00
835.9450, 26373.00
837.0820, 26350.00
838.2190, 26464.00
839.3550, 26447.00
840.4910, 26415.00
841.6270, 26452.00
842.7630, 26517.00
843.8990, 26527.00
845.0350, 26588.00
846.1700, 26529.00
847.3060, 26567.00
848.4410, 26771.00
849.5760, 26603.00
850.7100, 26681.00
851.8450, 26845.00
852.9800, 26824.00
854.1140, 26736.00
855.2480, 26929.00
856.3820, 26883.00
857.5160, 26831.00
858.6500, 26650.00
859.7830, 26809.00
860.9170, 26987.00
862.0500, 26849.00
863.1830, 27039.00
864.3160, 26904.00
865.4480, 26965.00
866.5810, 27306.00
867.7130, 27225.00
868.8460, 27117.00
869.9780, 26944.00
871.1100, 27101.00
872.2410, 26979.00
873.3730, 27106.00
874.5050, 27282.00
875.6360, 27226.00
876.7670, 27283.00
877.8980, 27208.00
879.0290, 27312.54
880.1590, 27452.00
881.2900, 27446.00
882.4200, 27476.00
883.5500, 27397.00
884.6800, 27623.00
885.8100, 27545.00
886.9400, 27575.00
888.0690, 27673.00
889.1990, 27884.00
890.3280, 27829.00
891.4570, 27685.00
892.5860, 27969.00
893.7140, 27912.00
894.8430, 28035.00
895.9710, 27979.00
897.1000, 28153.00
898.2280, 28134.00
899.3560, 27973.00
900.4830, 28205.00
901.6110, 28467.00
902.7380, 28349.00
903.8660, 28393.00
904.9930, 28602.00
906.1200, 28473.00
907.2460, 28519.00
908.3730, 28424.00
909.5000, 28723.00
910.6260, 28693.00
911.7520, 28800.00
912.8780, 29019.00
914.0040, 29175.00
915.1290, 29357.00
916.2550, 29531.00
917.3800, 29739.02
918.5050, 29888.00
919.6300, 30258.00
920.7550, 30471.00
921.8800, 30912.00
923.0040, 31175.00
924.1290, 31605.00
925.2530, 32087.00
926.3770, 32008.00
927.5010, 32160.00
928.6250, 32072.00
929.7480, 32025.00
930.8720, 31861.00
931.9950, 31548.00
933.1180, 31270.00
934.2410, 30875.00
935.3640, 30584.00
936.4860, 30486.00
937.6090, 30459.00
938.7310, 30176.00
939.8530, 30295.00
940.9750, 30620.00
942.0970, 30373.00
943.2180, 30395.00
944.3400, 30604.00
945.4610, 30316.00
946.5820, 30585.00
947.7030, 30643.00
948.8240, 30330.00
949.9450, 30412.00
951.0650, 30164.00
952.1860, 30134.00
953.3060, 29956.00
954.4260, 29845.00
955.5460, 29846.52
956.6650, 29778.64
957.7850, 29877.00
958.9040, 29797.00
960.0230, 29872.00
961.1420, 29920.00
962.2610, 29939.00
963.3800, 29904.00
964.4990, 29982.00
965.6170, 29923.00
966.7350, 29982.00
967.8530, 30025.27
968.9710, 29912.00
970.0890, 30072.00
971.2070, 30124.00
972.3240, 30015.00
973.4410, 30136.00
974.5580, 30333.00
975.6750, 30072.00
976.7920, 30238.00
977.9090, 30242.00
979.0250, 30173.00
980.1410, 30099.00
981.2580, 30106.50
982.3740, 30222.00
983.4890, 30099.00
984.6050, 30260.00
985.7200, 30293.00
986.8360, 30238.00
987.9510, 30369.13
989.0660, 30452.00
990.1810, 30446.00
991.2950, 30522.00
992.4100, 30433.00
993.5240, 30938.00
994.6390, 30390.00
995.7530, 30701.00
996.8660, 30863.00
997.9800, 30698.00
999.0940, 31030.00
1000.207, 30928.00
1001.320, 31003.00
1002.433, 31310.00
1003.546, 31414.00
1004.659, 31410.00
1005.772, 31462.00
1006.884, 31672.00
1007.996, 31799.00
1009.108, 31854.00
1010.220, 32154.00
1011.332, 32096.00
1012.444, 32581.00
1013.555, 32792.00
1014.666, 32850.00
1015.777, 33158.00
1016.888, 33090.00
1017.999, 33302.00
1019.110, 33915.00
1020.220, 33919.00
1021.331, 34190.00
1022.441, 34591.00
1023.551, 34701.00
1024.661, 34975.00
1025.770, 35265.00
1026.880, 35048.00
1027.989, 35248.00
1029.098, 35017.00
1030.207, 34778.00
1031.316, 34471.00
1032.425, 34433.00
1033.533, 33784.00
1034.642, 33932.00
1035.750, 33984.00
1036.858, 33819.00
1037.966, 34193.00
1039.073, 34272.00
1040.181, 34357.00
1041.288, 34842.00
1042.396, 35117.00
1043.503, 35792.00
1044.610, 35974.00
1045.716, 37004.00
1046.823, 37554.00
1047.929, 38831.00
1049.036, 40134.00
1050.142, 40951.00
1051.248, 41915.00
1052.353, 43013.00
1053.459, 43910.00
1054.564, 43878.00
1055.670, 44065.00
1056.775, 43855.00
1057.880, 43235.00
1058.985, 42662.00
1060.089, 41296.00
1061.194, 40769.00
1062.298, 39829.00
1063.402, 38946.00
1064.506, 38237.00
1065.610, 37612.00
1066.713, 36828.00
1067.817, 36300.00
1068.920, 35723.00
1070.023, 34982.00
1071.126, 34628.00
1072.229, 34081.00
1073.332, 33726.00
1074.435, 33450.00
1075.537, 33276.00
1076.639, 33122.00
1077.741, 32980.00
1078.843, 32818.00
1079.945, 32762.00
1081.046, 32544.00
1082.148, 32451.00
1083.249, 32387.00
1084.350, 32612.00
1085.451, 32585.00
1086.551, 32374.00
1087.652, 32648.00
1088.752, 32583.00
1089.853, 32463.00
1090.953, 32336.00
1092.053, 32420.00
1093.152, 32399.00
1094.252, 32718.00
1095.351, 32797.00
1096.451, 32768.00
1097.550, 32423.00
1098.649, 32675.00
1099.748, 32511.63
1100.846, 32607.00
1101.945, 32507.00
1103.043, 32412.00
1104.141, 32500.00
1105.239, 32525.00
1106.337, 32644.00
1107.434, 32661.00
1108.532, 32729.00
1109.629, 32406.00
1110.726, 32644.00
1111.823, 32564.08
1112.920, 32492.04
1114.017, 32628.00
1115.113, 32486.00
1116.210, 32520.00
1117.306, 32690.00
1118.402, 32678.00
1119.498, 32736.00
1120.593, 32951.00
1121.689, 32659.00
1122.784, 32733.00
1123.879, 32549.00
1124.974, 32817.00
1126.069, 32751.00
1127.164, 32691.00
1128.259, 32695.00
1129.353, 32819.00
1130.447, 32885.00
1131.541, 32662.00
1132.635, 32970.00
1133.729, 33123.00
1134.822, 32750.00
1135.916, 32994.00
1137.009, 33033.00
1138.102, 32841.00
1139.195, 32705.00
1140.288, 32941.00
1141.380, 33175.00
1142.473, 32798.00
1143.565, 33001.00
1144.657, 33043.00
1145.749, 33094.00
1146.841, 32824.00
1147.932, 33163.00
1149.024, 33095.00
1150.115, 33282.00
1151.206, 32966.00
1152.297, 32749.00
1153.388, 33166.00
1154.479, 32925.00
1155.569, 33283.00
1156.659, 33378.00
1157.750, 33312.00
1158.839, 33304.00
1159.929, 33321.00
1161.019, 33318.77
1162.108, 33381.00
1163.198, 33354.00
1164.287, 33357.00
1165.376, 33332.00
1166.465, 33445.00
1167.553, 33546.00
1168.642, 33187.00
1169.730, 33534.00
1170.818, 33435.00
1171.906, 33633.00
1172.994, 33735.00
1174.082, 33426.00
1175.170, 33403.00
1176.257, 33597.00
1177.344, 33493.00
1178.431, 33416.00
1179.518, 33825.00
1180.605, 33522.00
1181.691, 33742.00
1182.778, 33748.00
1183.864, 33923.00
1184.950, 33778.00
1186.036, 33802.00
1187.122, 33854.00
1188.207, 33768.73
1189.292, 33865.00
1190.378, 33753.00
1191.463, 33802.00
1192.548, 33906.00
1193.632, 33842.00
1194.717, 33899.00
1195.801, 34210.00
1196.886, 33984.00
1197.970, 34234.00
1199.054, 34008.00
1200.137, 33996.00
1201.221, 33908.00
1202.305, 34226.00
1203.388, 34082.00
1204.471, 34306.00
1205.554, 34289.00
1206.637, 34271.00
1207.719, 34169.00
1208.802, 34257.73
1209.884, 34298.00
1210.966, 34443.00
1212.048, 34324.00
1213.130, 34494.00
1214.212, 34613.00
1215.293, 34638.00
1216.374, 34310.00
1217.456, 34494.00
1218.536, 34652.00
1219.617, 34515.00
1220.698, 34830.00
1221.778, 34506.00
1222.859, 34773.00
1223.939, 34687.00
1225.019, 34806.00
1226.099, 34687.00
1227.178, 34974.00
1228.258, 34504.00
1229.337, 34935.00
1230.417, 34797.00
1231.496, 35090.00
1232.574, 34769.00
1233.653, 34913.00
1234.732, 35012.00
1235.810, 34950.00
1236.888, 35043.48
1237.966, 35052.00
1239.044, 35080.00
1240.122, 35058.00
1241.199, 35073.00
1242.277, 35088.48
1243.354, 35212.00
1244.431, 35158.00
1245.508, 35096.00
1246.585, 35199.00
1247.661, 35160.89
1248.738, 35291.00
1249.814, 35249.00
1250.890, 35357.00
1251.966, 35497.00
1253.042, 35318.00
1254.117, 35517.00
1255.193, 35467.00
1256.268, 35611.00
1257.343, 35526.00
1258.418, 35578.00
1259.493, 35600.00
1260.567, 35593.00
1261.642, 35592.95
1262.716, 35573.00
1263.790, 35564.62
1264.864, 35592.58
1265.938, 35623.00
1267.011, 35753.00
1268.085, 35702.00
1269.158, 35894.00
1270.231, 35809.00
1271.304, 35595.00
1272.377, 35554.00
1273.450, 35793.00
1274.522, 36090.00
1275.594, 36001.00
1276.666, 36194.00
1277.738, 36038.00
1278.810, 36250.00
1279.882, 36009.00
1280.953, 36116.00
1282.025, 36020.00
1283.096, 36284.00
1284.167, 36121.00
1285.238, 36107.00
1286.308, 36355.00
1287.379, 36262.00
1288.449, 36154.00
1289.519, 36301.00
1290.589, 36336.00
1291.659, 36373.00
1292.729, 36480.00
1293.798, 36355.00
1294.868, 36535.00
1295.937, 36455.00
1297.006, 36626.00
1298.075, 36525.00
1299.143, 36413.00
1300.212, 36515.00
1301.280, 36601.00
1302.348, 36719.00
1303.416, 36791.00
