##NAMES=Actinolite
##RRUFFID=R060045
##IDEAL CHEMISTRY=Ca_2_(Mg_4.5-2.5_Fe^2+^_0.5-2.5_)Si_8_O_22_(OH)_2_
##LOCALITY=Colorado, USA
##OWNER=RRUFF
##SOURCE=University of Arizona Mineral Museum
##DESCRIPTION=Green prismatic crystals in a radial arrangement
##STATUS=The identification of this mineral has been confirmed by X-ray diffraction and chemical analysis
##URL=rruff.info/R060045
##MEASURED CHEMISTRY=(Ca_1.99_Na_0.01_)_Σ=2_(Mg_4.20_Fe^2+^_0.59_Al_0.09_Fe^3+^_0.08_Mn_0.02_Ti_0.01_)_Σ=5_(Si_7.82_Al_0.18_)_Σ=8_O_22_(OH)_2_
##PIN_ID=M00155
##ORIENTATION=Laser parallel to b* (0 1 0). Fiducial mark perpendicular to laser is parallel to c [0 0 1]
137.8140, 12920.00
139.0430, 13080.00
140.2710, 13035.00
141.5000, 13168.00
142.7280, 12943.00
143.9560, 13116.00
145.1840, 13351.00
146.4120, 13439.00
147.6390, 13862.00
148.8670, 14224.00
150.0940, 14661.00
151.3210, 15446.00
152.5490, 16694.00
153.7750, 18970.00
155.0020, 21830.00
156.2290, 24301.00
157.4550, 24027.00
158.6810, 20840.00
159.9080, 18387.00
161.1340, 16519.00
162.3590, 15614.00
163.5850, 15184.00
164.8110, 15185.00
166.0360, 15095.00
167.2610, 15459.00
168.4860, 15857.00
169.7110, 16425.00
170.9360, 17414.00
172.1610, 19057.00
173.3850, 21393.00
174.6100, 24726.00
175.8340, 27543.00
177.0580, 27354.00
178.2820, 24211.00
179.5050, 20968.00
180.7290, 18387.00
181.9520, 16943.00
183.1760, 15867.00
184.3990, 15327.00
185.6220, 15073.00
186.8450, 14613.00
188.0670, 14346.00
189.2900, 14386.00
190.5120, 14264.00
191.7340, 14184.00
192.9560, 14186.00
194.1780, 14240.00
195.4000, 14244.00
196.6220, 14269.00
197.8430, 14286.00
199.0640, 14498.00
200.2860, 14554.00
201.5070, 14733.00
202.7270, 14795.00
203.9480, 14813.00
205.1690, 14966.00
206.3890, 15206.63
207.6090, 15412.00
208.8290, 15858.00
210.0490, 16327.00
211.2690, 16759.00
212.4890, 17883.00
213.7080, 18714.00
214.9280, 20109.00
216.1470, 21973.00
217.3660, 24226.00
218.5850, 26501.00
219.8030, 28502.00
221.0220, 29008.00
222.2400, 27996.00
223.4590, 25801.00
224.6770, 23134.00
225.8950, 21167.00
227.1120, 19619.00
228.3300, 18422.00
229.5480, 17479.00
230.7650, 16748.00
231.9820, 16000.00
233.1990, 15807.00
234.4160, 15577.00
235.6330, 15450.00
236.8490, 15257.60
238.0660, 15031.00
239.2820, 14976.00
240.4980, 14893.00
241.7140, 14849.00
242.9300, 14883.00
244.1460, 14755.00
245.3610, 14910.00
246.5770, 14992.00
247.7920, 14971.00
249.0070, 15068.00
250.2220, 15000.00
251.4370, 14995.00
252.6510, 14937.00
253.8660, 14951.00
255.0800, 14829.00
256.2940, 14882.00
257.5080, 14890.00
258.7220, 14916.00
259.9360, 14976.00
261.1490, 14816.00
262.3630, 14816.00
263.5760, 14754.00
264.7890, 14743.00
266.0020, 14753.56
267.2150, 14669.00
268.4270, 14779.00
269.6400, 14758.00
270.8520, 14745.00
272.0640, 14751.00
273.2760, 14564.00
274.4880, 14770.00
275.7000, 14765.00
276.9120, 14958.00
278.1230, 14878.00
279.3340, 15033.00
280.5450, 14971.00
281.7560, 15018.00
282.9670, 15000.00
284.1780, 15001.00
285.3880, 15228.00
286.5980, 15371.00
287.8090, 15456.00
289.0190, 15435.00
290.2290, 15515.00
291.4380, 15425.00
292.6480, 15615.00
293.8570, 15602.00
295.0670, 16007.00
296.2760, 16013.00
297.4850, 16251.00
298.6930, 16358.00
299.9020, 16247.00
301.1110, 16213.00
302.3190, 16157.00
303.5270, 15931.00
304.7350, 15964.00
305.9430, 15677.00
307.1510, 15586.00
308.3580, 15468.00
309.5660, 15592.00
310.7730, 15376.00
311.9800, 15547.00
313.1870, 15271.00
314.3940, 15470.00
315.6010, 15419.00
316.8070, 15464.00
318.0130, 15508.00
319.2200, 15520.00
320.4260, 15716.00
321.6310, 15715.00
322.8370, 15730.00
324.0430, 15971.00
325.2480, 16063.00
326.4540, 16028.00
327.6590, 16315.00
328.8640, 16230.00
330.0680, 16563.00
331.2730, 16603.00
332.4780, 16792.00
333.6820, 16844.00
334.8860, 17035.58
336.0900, 17198.00
337.2940, 17375.00
338.4980, 17483.00
339.7010, 17555.00
340.9050, 17589.00
342.1080, 17527.82
343.3110, 17426.00
344.5140, 17219.00
345.7170, 17055.00
346.9200, 16680.00
348.1220, 16857.00
349.3240, 16825.00
350.5270, 16923.00
351.7290, 16671.00
352.9310, 16747.00
354.1320, 16587.00
355.3340, 16604.00
356.5350, 16612.00
357.7370, 16496.00
358.9380, 16594.00
360.1390, 16620.00
361.3400, 16651.00
362.5400, 16833.00
363.7410, 17055.00
364.9410, 17314.00
366.1410, 17439.00
367.3410, 17420.00
368.5410, 17429.00
369.7410, 17247.00
370.9400, 17205.82
372.1400, 16926.00
373.3390, 16994.00
374.5380, 16852.00
375.7370, 16756.00
376.9360, 16810.00
378.1350, 16781.00
379.3330, 16919.00
380.5310, 17063.00
381.7300, 17080.00
382.9280, 17249.00
384.1260, 17585.00
385.3230, 18049.00
386.5210, 18727.00
387.7180, 19103.00
388.9160, 19594.00
390.1130, 19646.00
391.3100, 19923.00
392.5060, 19779.00
393.7030, 18999.00
394.9000, 18572.00
396.0960, 18205.00
397.2920, 17862.00
398.4880, 17616.00
399.6840, 17423.00
400.8800, 17202.00
402.0750, 17234.00
403.2710, 17309.00
404.4660, 17330.00
405.6610, 17334.00
406.8560, 17322.00
408.0510, 17427.00
409.2450, 17676.00
410.4400, 17764.00
411.6340, 17631.00
412.8280, 17884.00
414.0220, 17641.00
415.2160, 17552.00
416.4100, 17435.00
417.6030, 17388.00
418.7970, 17090.00
419.9900, 17016.00
421.1830, 16866.00
422.3760, 16903.00
423.5690, 16769.00
424.7610, 16835.00
425.9540, 16783.93
427.1460, 16783.00
428.3380, 16767.00
429.5300, 16765.00
430.7220, 16823.00
431.9140, 17041.00
433.1050, 17150.00
434.2970, 17233.00
435.4880, 17349.00
436.6790, 17083.00
437.8700, 16976.00
439.0610, 16928.00
440.2510, 16911.00
441.4420, 16938.00
442.6320, 16945.77
443.8220, 16921.25
445.0120, 16977.00
446.2020, 16863.00
447.3910, 16772.00
448.5810, 16713.00
449.7700, 16729.00
450.9600, 16744.00
452.1490, 16865.00
453.3370, 16761.00
454.5260, 16876.00
455.7150, 17027.00
456.9030, 17021.00
458.0910, 16928.00
459.2800, 16971.00
460.4670, 16910.00
461.6550, 16942.30
462.8430, 17062.00
464.0300, 17047.00
465.2180, 17053.00
466.4050, 17165.00
467.5920, 17036.00
468.7790, 17100.00
469.9650, 17207.00
471.1520, 17238.00
472.3380, 17198.00
473.5250, 17148.00
474.7110, 17173.46
475.8970, 17193.58
477.0820, 17191.00
478.2680, 17315.00
479.4540, 17343.92
480.6390, 17433.00
481.8240, 17555.00
483.0090, 17519.00
484.1940, 17403.00
485.3780, 17468.00
486.5630, 17413.00
487.7470, 17396.00
488.9320, 17412.00
490.1160, 17530.00
491.3000, 17614.00
492.4830, 17361.00
493.6670, 17501.00
494.8500, 17457.00
496.0340, 17423.00
497.2170, 17456.00
498.4000, 17556.00
499.5820, 17516.00
500.7650, 17774.00
501.9480, 17770.00
503.1300, 17797.00
504.3120, 17827.00
505.4940, 17719.00
506.6760, 17866.00
507.8580, 17764.00
509.0390, 17802.00
510.2210, 18040.00
511.4020, 17946.00
512.5830, 18059.00
513.7640, 17935.00
514.9450, 18101.00
516.1250, 18340.00
517.3060, 18091.00
518.4860, 18233.00
519.6660, 18109.00
520.8460, 18158.00
522.0260, 18253.00
523.2060, 18323.00
524.3850, 18302.00
525.5650, 18488.00
526.7440, 18618.00
527.9230, 18361.00
529.1020, 18634.00
530.2810, 18351.00
531.4590, 18470.00
532.6380, 18324.00
533.8160, 18527.00
534.9940, 18287.00
536.1720, 18268.00
537.3500, 18306.00
538.5270, 18280.00
539.7050, 18359.00
540.8820, 18302.00
542.0590, 18460.00
543.2360, 18512.00
544.4130, 18302.00
545.5900, 18303.00
546.7660, 18381.00
547.9430, 18285.00
549.1190, 18270.00
550.2950, 18410.00
551.4710, 18324.00
552.6470, 18605.00
553.8220, 18515.00
554.9980, 18558.00
556.1730, 18604.00
557.3480, 18459.00
558.5230, 18691.00
559.6980, 18633.00
560.8730, 18564.00
562.0470, 18616.00
563.2220, 18642.00
564.3960, 18486.00
565.5700, 18736.00
566.7440, 18620.00
567.9170, 18464.00
569.0910, 18622.00
570.2640, 18481.00
571.4380, 18797.00
572.6110, 18698.00
573.7840, 18862.00
574.9570, 18720.00
576.1290, 18819.00
577.3020, 18715.00
578.4740, 18824.00
579.6460, 18732.00
580.8180, 18846.00
581.9900, 18806.00
583.1620, 18958.00
584.3330, 18880.00
585.5040, 18951.00
586.6760, 18898.00
587.8470, 19013.00
589.0180, 18864.00
590.1880, 18958.00
591.3590, 18948.00
592.5290, 19049.00
593.7000, 18992.00
594.8700, 18995.00
596.0400, 18962.00
597.2090, 18939.00
598.3790, 19295.00
599.5490, 19194.00
600.7180, 19228.00
601.8870, 19276.00
603.0560, 19144.00
604.2250, 19156.00
605.3940, 19264.00
606.5620, 19208.00
607.7300, 19317.00
608.8990, 19432.00
610.0670, 19412.00
611.2350, 19481.00
612.4020, 19504.00
613.5700, 19586.00
614.7370, 19631.00
615.9050, 19714.00
617.0720, 19762.49
618.2390, 19958.00
619.4060, 19906.00
620.5720, 20003.00
621.7390, 20169.00
622.9050, 20131.00
624.0710, 20390.00
625.2370, 20451.00
626.4030, 20478.00
627.5690, 20482.00
628.7340, 20382.00
629.9000, 20586.00
631.0650, 20592.00
632.2300, 20355.00
633.3950, 20445.00
634.5600, 20713.00
635.7240, 20767.00
636.8890, 20980.00
638.0530, 21168.00
639.2170, 21283.00
640.3810, 21392.00
641.5450, 21737.00
642.7080, 22015.00
643.8720, 22302.00
645.0350, 22648.13
646.1980, 22973.00
647.3610, 23302.00
648.5240, 23636.00
649.6870, 23925.00
650.8490, 24427.00
652.0120, 24848.00
653.1740, 24773.00
654.3360, 24783.00
655.4980, 25341.00
656.6600, 25970.00
657.8210, 26078.00
658.9830, 27175.00
660.1440, 28365.00
661.3050, 29373.00
662.4660, 31435.00
663.6270, 33826.00
664.7870, 36753.00
665.9480, 40367.00
667.1080, 44612.00
668.2680, 49238.00
669.4280, 53798.00
670.5880, 56613.00
671.7480, 56513.00
672.9070, 54157.00
674.0670, 49405.00
675.2260, 44054.00
676.3850, 39084.00
677.5440, 34806.00
678.7030, 31680.00
679.8610, 29274.00
681.0200, 27674.00
682.1780, 26222.00
683.3360, 25220.00
684.4940, 24538.00
685.6520, 23888.00
686.8090, 23268.00
687.9670, 23119.00
689.1240, 22565.00
690.2810, 22497.00
691.4380, 22096.00
692.5950, 21793.00
693.7520, 21833.00
694.9080, 21782.00
696.0650, 21593.00
697.2210, 21574.00
698.3770, 21349.00
699.5330, 21198.00
700.6880, 21210.00
701.8440, 21147.00
702.9990, 21119.00
704.1550, 21116.00
705.3100, 21212.00
706.4650, 21219.00
707.6190, 21168.81
708.7740, 21121.00
709.9290, 21052.00
711.0830, 21086.00
712.2370, 21080.00
713.3910, 21072.00
714.5450, 21166.00
715.6980, 21124.53
716.8520, 21151.28
718.0050, 21102.00
719.1580, 21124.00
720.3110, 21104.00
721.4640, 21099.45
722.6170, 21245.00
723.7700, 21106.00
724.9220, 21107.00
726.0740, 21123.00
727.2260, 21309.00
728.3780, 21270.00
729.5300, 21258.00
730.6810, 21228.00
731.8330, 21329.00
732.9840, 21238.00
734.1350, 21511.00
735.2860, 21352.00
736.4370, 21288.00
737.5880, 21346.00
738.7380, 21539.00
739.8880, 21590.00
741.0390, 21618.81
742.1890, 21757.00
743.3380, 21635.00
744.4880, 21592.00
745.6380, 21629.00
746.7870, 21730.00
747.9360, 21973.00
749.0850, 21921.00
750.2340, 21859.00
751.3830, 21915.00
752.5310, 21714.00
753.6800, 21864.00
754.8280, 21685.00
755.9760, 21585.00
757.1240, 21764.00
758.2720, 21867.00
759.4190, 21692.00
760.5670, 21551.00
761.7140, 21659.00
762.8610, 21695.00
764.0080, 21793.00
765.1550, 21783.00
766.3020, 21646.00
767.4480, 21779.00
768.5950, 21832.00
769.7410, 21654.00
770.8870, 21642.00
772.0330, 22092.00
773.1780, 21776.00
774.3240, 21933.00
775.4690, 21754.00
776.6140, 21756.00
777.7590, 21918.00
778.9040, 21849.00
780.0490, 21817.00
781.1940, 21982.00
782.3380, 22037.00
783.4820, 21982.00
784.6260, 21997.00
785.7700, 22093.00
786.9140, 22030.00
788.0580, 22153.00
789.2010, 22023.00
790.3450, 22109.00
791.4880, 21905.00
792.6310, 22079.00
793.7730, 22181.00
794.9160, 22233.00
796.0590, 22313.00
797.2010, 22155.00
798.3430, 22300.00
799.4850, 22290.00
800.6270, 22423.00
801.7690, 22362.00
802.9100, 22297.00
804.0520, 22268.00
805.1930, 22428.00
806.3340, 22509.00
807.4750, 22254.00
808.6160, 22553.00
809.7560, 22564.00
810.8970, 22410.00
812.0370, 22536.00
813.1770, 22487.00
814.3170, 22505.00
815.4570, 22611.00
816.5960, 22581.00
817.7360, 22592.00
818.8750, 22641.00
820.0140, 22551.00
821.1530, 22713.00
822.2920, 22781.00
823.4310, 22867.00
824.5690, 22812.00
825.7070, 22910.00
826.8460, 22699.00
827.9840, 22720.00
829.1220, 22773.00
830.2590, 22869.00
831.3970, 22828.00
832.5340, 22946.00
833.6710, 22976.00
834.8080, 23110.00
835.9450, 23187.00
837.0820, 23132.00
838.2190, 23161.00
839.3550, 23112.00
840.4910, 23281.00
841.6270, 23269.44
842.7630, 23146.00
843.8990, 23345.00
845.0350, 23350.00
846.1700, 23341.00
847.3060, 23338.00
848.4410, 23471.00
849.5760, 23599.00
850.7100, 23371.00
851.8450, 23497.00
852.9800, 23603.00
854.1140, 23618.00
855.2480, 23735.00
856.3820, 23623.00
857.5160, 23959.00
858.6500, 24052.00
859.7830, 23891.00
860.9170, 23934.00
862.0500, 23940.00
863.1830, 23894.00
864.3160, 23714.00
865.4480, 23886.00
866.5810, 23755.00
867.7130, 24005.00
868.8460, 23940.00
869.9780, 23736.00
871.1100, 23859.00
872.2410, 23854.00
873.3730, 23936.00
874.5050, 23879.00
875.6360, 23728.00
876.7670, 24164.00
877.8980, 23726.00
879.0290, 24042.00
880.1590, 24048.00
881.2900, 23996.00
882.4200, 24043.00
883.5500, 23968.00
884.6800, 24105.00
885.8100, 24049.00
886.9400, 24122.00
888.0690, 24122.00
889.1990, 24176.63
890.3280, 24352.00
891.4570, 24329.00
892.5860, 24339.00
893.7140, 24444.00
894.8430, 24376.00
895.9710, 24387.00
897.1000, 24435.00
898.2280, 24518.00
899.3560, 24511.24
900.4830, 24509.00
901.6110, 24585.00
902.7380, 24548.00
903.8660, 24689.00
904.9930, 24734.00
906.1200, 24535.00
907.2460, 24862.00
908.3730, 25040.00
909.5000, 25148.00
910.6260, 24996.00
911.7520, 25157.00
912.8780, 25215.00
914.0040, 25237.00
915.1290, 25331.00
916.2550, 25423.00
917.3800, 25564.22
918.5050, 25795.00
919.6300, 25940.00
920.7550, 26211.00
921.8800, 26482.00
923.0040, 26982.00
924.1290, 27149.00
925.2530, 27816.00
926.3770, 28451.00
927.5010, 28629.00
928.6250, 29257.00
929.7480, 29170.00
930.8720, 28993.00
931.9950, 28714.00
933.1180, 28093.00
934.2410, 27748.00
935.3640, 27242.00
936.4860, 26922.85
937.6090, 26856.00
938.7310, 26420.00
939.8530, 26448.00
940.9750, 26360.00
942.0970, 26504.00
943.2180, 26509.00
944.3400, 26639.00
945.4610, 26601.70
946.5820, 26564.00
947.7030, 26518.00
948.8240, 26358.00
949.9450, 26310.00
951.0650, 26262.00
952.1860, 26199.00
953.3060, 26138.67
954.4260, 26141.00
955.5460, 26018.00
956.6650, 25974.00
957.7850, 25946.00
958.9040, 25880.03
960.0230, 25843.81
961.1420, 25812.85
962.2610, 25767.00
963.3800, 25745.00
964.4990, 25741.00
965.6170, 25694.00
966.7350, 25709.82
967.8530, 25921.00
968.9710, 25741.00
970.0890, 25877.00
971.2070, 25934.00
972.3240, 25812.00
973.4410, 25814.00
974.5580, 25830.00
975.6750, 25861.00
976.7920, 25931.00
977.9090, 25938.00
979.0250, 25803.00
980.1410, 25891.14
981.2580, 25920.00
982.3740, 25927.00
983.4890, 26009.00
984.6050, 26002.00
985.7200, 26110.00
986.8360, 26228.00
987.9510, 26225.00
989.0660, 26115.00
990.1810, 26188.00
991.2950, 26226.00
992.4100, 26374.00
993.5240, 26223.00
994.6390, 26377.00
995.7530, 26625.00
996.8660, 26327.00
997.9800, 26611.00
999.0940, 26666.00
1000.207, 26732.00
1001.320, 26950.00
1002.433, 26885.00
1003.546, 26906.00
1004.659, 27061.00
1005.772, 27038.92
1006.884, 26977.00
1007.996, 27119.00
1009.108, 27143.00
1010.220, 27135.00
1011.332, 27356.00
1012.444, 27268.00
1013.555, 27634.00
1014.666, 27328.00
1015.777, 27542.00
1016.888, 27561.00
1017.999, 27493.00
1019.110, 27550.00
1020.220, 27797.00
1021.331, 27735.00
1022.441, 27643.00
1023.551, 28086.00
1024.661, 28172.00
1025.770, 28139.00
1026.880, 28159.00
1027.989, 28428.00
1029.098, 28478.00
1030.207, 28514.00
1031.316, 28342.00
1032.425, 28332.00
1033.533, 28086.00
1034.642, 28114.00
1035.750, 28571.00
1036.858, 28477.00
1037.966, 28689.00
1039.073, 28934.00
1040.181, 28774.00
1041.288, 29225.00
1042.396, 29285.00
1043.503, 29870.00
1044.610, 30436.00
1045.716, 30709.00
1046.823, 31568.00
1047.929, 32252.00
1049.036, 33200.00
1050.142, 34432.00
1051.248, 35723.00
1052.353, 37019.00
1053.459, 38539.00
1054.564, 39765.00
1055.670, 41118.00
1056.775, 41728.00
1057.880, 41866.00
1058.985, 40989.00
1060.089, 39386.00
1061.194, 37608.00
1062.298, 36235.00
1063.402, 34783.00
1064.506, 33991.00
1065.610, 33051.00
1066.713, 32336.00
1067.817, 32092.00
1068.920, 31247.00
1070.023, 30853.00
1071.126, 30290.00
1072.229, 29750.00
1073.332, 29777.00
1074.435, 29275.00
1075.537, 29040.00
1076.639, 28810.00
1077.741, 28655.00
1078.843, 28536.00
1079.945, 28485.00
1081.046, 28541.00
1082.148, 28462.00
1083.249, 28597.00
1084.350, 28758.00
1085.451, 28878.00
1086.551, 28857.00
1087.652, 28627.00
1088.752, 28467.00
1089.853, 28220.00
1090.953, 28235.00
1092.053, 28198.00
1093.152, 28332.00
1094.252, 28216.00
1095.351, 28243.00
1096.451, 28268.00
1097.550, 28091.00
1098.649, 28102.00
1099.748, 28337.00
1100.846, 28176.00
1101.945, 28007.00
1103.043, 28304.00
1104.141, 28408.00
1105.239, 28417.00
1106.337, 28430.00
1107.434, 28261.00
1108.532, 28467.00
1109.629, 28289.00
1110.726, 28353.00
1111.823, 28181.00
1112.920, 28242.18
1114.017, 28327.00
1115.113, 28351.00
1116.210, 28353.00
1117.306, 28404.00
1118.402, 28317.00
1119.498, 28126.00
1120.593, 28419.00
1121.689, 28203.00
1122.784, 28578.00
1123.879, 28563.00
1124.974, 28424.00
1126.069, 28584.00
1127.164, 28589.00
1128.259, 28614.00
1129.353, 28600.94
1130.447, 28436.00
1131.541, 28503.00
1132.635, 28555.00
1133.729, 28561.00
1134.822, 28644.00
1135.916, 28654.58
1137.009, 28698.00
1138.102, 28629.00
1139.195, 28580.00
1140.288, 28402.00
1141.380, 28575.00
1142.473, 28768.00
1143.565, 28522.00
1144.657, 28786.00
1145.749, 28493.00
1146.841, 28802.00
1147.932, 28867.00
1149.024, 28683.00
1150.115, 28969.00
1151.206, 29011.00
1152.297, 28867.00
1153.388, 28791.00
1154.479, 28751.00
1155.569, 28983.00
1156.659, 29180.00
1157.750, 29037.00
1158.839, 29114.00
1159.929, 28993.00
1161.019, 28794.00
1162.108, 29243.00
1163.198, 29176.00
1164.287, 29291.00
1165.376, 29151.00
1166.465, 29173.00
1167.553, 29297.00
1168.642, 29295.00
1169.730, 29298.92
1170.818, 29508.00
1171.906, 29276.00
1172.994, 29124.00
1174.082, 29155.00
1175.170, 29320.00
1176.257, 29405.00
1177.344, 29351.00
1178.431, 29546.00
1179.518, 29401.00
1180.605, 29426.00
1181.691, 29486.00
1182.778, 29452.00
1183.864, 29560.00
1184.950, 29760.00
1186.036, 29664.00
1187.122, 29716.76
1188.207, 29733.00
1189.292, 29621.00
1190.378, 29533.00
1191.463, 29468.00
1192.548, 29455.75
1193.632, 29467.00
1194.717, 29522.00
1195.801, 29564.00
1196.886, 29682.00
1197.970, 29746.00
1199.054, 30067.00
1200.137, 29781.00
1201.221, 29952.00
1202.305, 29743.00
1203.388, 29913.00
1204.471, 29932.00
1205.554, 30026.00
1206.637, 29938.00
1207.719, 29879.00
1208.802, 29830.00
1209.884, 29880.00
1210.966, 29910.00
1212.048, 29932.00
1213.130, 30133.00
1214.212, 30140.00
1215.293, 30009.00
1216.374, 30258.00
1217.456, 30204.00
1218.536, 30238.00
1219.617, 30041.00
1220.698, 30223.00
1221.778, 30184.00
1222.859, 30217.00
1223.939, 30307.00
1225.019, 30465.00
1226.099, 30264.00
1227.178, 30577.00
1228.258, 30364.00
1229.337, 30360.00
1230.417, 30555.00
1231.496, 30290.00
1232.574, 30418.00
1233.653, 30692.00
1234.732, 31047.00
1235.810, 31017.52
1236.888, 31121.92
1237.966, 30936.00
1239.044, 31035.00
1240.122, 30781.00
1241.199, 30716.00
1242.277, 30887.00
1243.354, 30769.00
1244.431, 30725.00
1245.508, 30965.00
1246.585, 30857.00
1247.661, 31174.00
1248.738, 31124.00
1249.814, 30981.00
1250.890, 30911.00
1251.966, 30926.00
1253.042, 30910.71
1254.117, 31040.00
1255.193, 31041.00
1256.268, 31112.00
1257.343, 31255.00
1258.418, 31114.00
1259.493, 31287.00
1260.567, 31217.00
1261.642, 31281.00
1262.716, 31238.00
1263.790, 31311.00
1264.864, 31229.00
1265.938, 31282.00
1267.011, 31371.00
1268.085, 31419.00
1269.158, 31613.00
1270.231, 31454.00
1271.304, 31817.00
1272.377, 31861.00
1273.450, 31609.00
1274.522, 31650.00
1275.594, 31760.00
1276.666, 31620.00
1277.738, 31737.00
1278.810, 31825.00
1279.882, 31738.00
1280.953, 31695.00
1282.025, 31755.00
1283.096, 31904.00
1284.167, 31635.00
1285.238, 31804.00
1286.308, 31703.00
1287.379, 31809.00
1288.449, 31928.00
1289.519, 32042.00
1290.589, 31976.00
1291.659, 32109.00
1292.729, 31972.00
1293.798, 32018.00
1294.868, 32067.00
1295.937, 32270.00
1297.006, 32150.00
1298.075, 31989.00
1299.143, 32248.00
1300.212, 31872.00
1301.280, 32037.00
1302.348, 32004.00
1303.416, 32059.00
1304.484, 31999.00
1305.552, 32287.00
1306.620, 32321.00
