##NAMES=Actinolite
##RRUFFID=R050336
##IDEAL CHEMISTRY=Ca_2_(Mg_4.5-2.5_Fe^2+^_0.5-2.5_)Si_8_O_22_(OH)_2_
##LOCALITY=Kragerø, Norway
##OWNER=RRUFF
##SOURCE=California Institute of Technology
##DESCRIPTION=Dark green prismatic fragment
##STATUS=The identification of this mineral has been confirmed by X-ray diffraction and chemical analysis
##URL=rruff.info/R050336
##MEASURED CHEMISTRY=([box]_0.62_Na_0.34_K_0.04_)(Ca_1.60_Na_0.40_)_Σ=2_(Mg_3.90_Fe^2+^_0.70_Al_0.20_Ti_0.10_Fe^3+^_0.10_)_Σ=5_(Si_7.52_Al_0.48_)_Σ=8_O_22_((OH)_0.97_F_0.03_)_2_
##PIN_ID=M00343
##ORIENTATION=Laser parallel to -a* (-1 0 0). Fiducial mark perpendicular to laser is parallel to b [0 1 0]
144.8170, 11092.00
146.0460, 11356.00
147.2750, 11492.00
148.5030, 11480.00
149.7320, 11745.00
150.9600, 11980.10
152.1880, 12615.00
153.4160, 12659.00
154.6440, 12971.00
155.8720, 13395.00
157.0990, 13325.00
158.3270, 13539.00
159.5540, 13857.00
160.7810, 13845.00
162.0080, 13963.00
163.2350, 14123.00
164.4610, 14023.00
165.6880, 14056.00
166.9140, 14117.00
168.1400, 14319.00
169.3660, 14442.00
170.5920, 14756.00
171.8180, 14796.00
173.0430, 15129.00
174.2690, 15350.00
175.4940, 15526.00
176.7190, 15666.00
177.9440, 15667.00
179.1680, 15595.84
180.3930, 15554.00
181.6170, 15171.00
182.8420, 14871.00
184.0660, 14428.00
185.2900, 14287.00
186.5140, 14022.00
187.7370, 13760.00
188.9610, 13623.00
190.1840, 13491.00
191.4070, 13313.00
192.6300, 13249.00
193.8530, 13173.79
195.0760, 13137.98
196.2980, 13155.00
197.5210, 13158.56
198.7430, 13197.71
199.9650, 13242.16
201.1870, 13292.94
202.4090, 13295.90
203.6310, 13416.52
204.8520, 13524.07
206.0730, 13654.45
207.2950, 13964.00
208.5160, 14310.00
209.7360, 14626.00
210.9570, 15047.00
212.1780, 15559.00
213.3980, 16033.00
214.6180, 16632.00
215.8380, 17199.00
217.0580, 17899.00
218.2780, 18486.00
219.4980, 19043.00
220.7170, 19649.00
221.9360, 20155.00
223.1560, 20609.00
224.3750, 20850.00
225.5930, 21084.00
226.8120, 20932.00
228.0310, 21109.00
229.2490, 20829.00
230.4670, 20569.00
231.6850, 19905.00
232.9030, 19491.00
234.1210, 18628.00
235.3380, 18005.00
236.5560, 17077.00
237.7730, 16492.00
238.9900, 15895.00
240.2070, 15336.00
241.4240, 14953.00
242.6410, 14810.00
243.8570, 14332.00
245.0730, 14292.00
246.2900, 14135.00
247.5060, 14115.00
248.7210, 13916.00
249.9370, 13770.00
251.1530, 13349.00
252.3680, 13207.00
253.5830, 13089.00
254.7980, 12497.44
256.0130, 12393.57
257.2280, 12270.58
258.4430, 12129.53
259.6570, 11916.36
260.8720, 11796.34
262.0860, 11639.07
263.3000, 11480.26
264.5130, 11373.61
265.7270, 11170.95
266.9410, 11161.00
268.1540, 11109.00
269.3670, 11110.00
270.5800, 10948.00
271.7930, 10916.00
273.0060, 10882.00
274.2190, 10980.00
275.4310, 10898.00
276.6430, 10939.00
277.8550, 11000.00
279.0670, 11031.00
280.2790, 11038.00
281.4910, 11104.32
282.7020, 11241.00
283.9140, 11218.00
285.1250, 11401.00
286.3360, 11490.00
287.5470, 11561.00
288.7570, 11550.00
289.9680, 11620.00
291.1780, 11763.00
292.3880, 11745.00
293.5990, 11791.00
294.8080, 11894.00
296.0180, 11932.00
297.2280, 11880.58
298.4370, 11988.57
299.6470, 12060.11
300.8560, 12096.16
302.0650, 12042.61
303.2740, 12064.95
304.4820, 12032.56
305.6910, 11981.26
306.8990, 11964.67
308.1070, 11834.85
309.3150, 11835.00
310.5230, 11754.00
311.7310, 11678.00
312.9390, 11727.00
314.1460, 11825.00
315.3530, 11913.00
316.5600, 11779.00
317.7670, 11835.00
318.9740, 11782.00
320.1810, 12107.00
321.3870, 12139.00
322.5930, 12181.00
323.8000, 12265.00
325.0060, 12251.00
326.2110, 12415.00
327.4170, 12462.00
328.6230, 12515.00
329.8280, 12534.00
331.0330, 12594.95
332.2380, 12479.00
333.4430, 12629.00
334.6480, 12646.00
335.8530, 12513.00
337.0570, 12465.00
338.2610, 12547.00
339.4650, 12474.00
340.6690, 12338.00
341.8730, 12379.00
343.0770, 12258.00
344.2800, 12206.00
345.4840, 12182.00
346.6870, 12229.00
347.8900, 12356.00
349.0930, 12344.00
350.2950, 12408.00
351.4980, 12444.00
352.7000, 12451.00
353.9030, 12637.00
355.1050, 12729.00
356.3070, 12847.00
357.5080, 13115.00
358.7100, 13398.00
359.9110, 13606.00
361.1130, 14072.00
362.3140, 14425.00
363.5150, 14853.00
364.7160, 15165.16
365.9160, 15515.00
367.1170, 15705.00
368.3170, 15936.00
369.5170, 16084.00
370.7170, 16005.00
371.9170, 15855.00
373.1170, 15800.00
374.3170, 15853.00
375.5160, 15748.00
376.7150, 15577.00
377.9140, 15471.00
379.1130, 15639.00
380.3120, 15839.00
381.5110, 16225.00
382.7090, 16506.00
383.9070, 16871.00
385.1060, 17664.64
386.3040, 17825.00
387.5010, 18235.77
388.6990, 18526.03
389.8970, 18601.00
391.0940, 18804.00
392.2910, 18603.00
393.4880, 18498.00
394.6850, 17839.00
395.8820, 17369.00
397.0780, 16680.00
398.2750, 16048.00
399.4710, 15384.00
400.6670, 15327.00
401.8630, 14924.00
403.0590, 14793.00
404.2540, 14505.00
405.4500, 14666.00
406.6450, 14834.00
407.8400, 15066.00
409.0350, 15141.00
410.2300, 15391.00
411.4250, 15487.00
412.6190, 15671.00
413.8140, 15690.00
415.0080, 15799.00
416.2020, 15651.00
417.3960, 15644.00
418.5900, 15429.00
419.7830, 14950.00
420.9770, 14790.00
422.1700, 14488.00
423.3630, 14352.00
424.5560, 14145.00
425.7490, 13811.00
426.9410, 13867.00
428.1340, 13604.00
429.3260, 13538.00
430.5180, 13307.00
431.7100, 13419.00
432.9020, 13041.00
434.0940, 12978.00
435.2850, 12818.00
436.4770, 12645.00
437.6680, 12566.00
438.8590, 12309.00
440.0500, 12195.72
441.2410, 11894.00
442.4310, 11877.00
443.6220, 11740.00
444.8120, 11551.00
446.0020, 11452.00
447.1920, 11436.00
448.3820, 11254.00
449.5710, 11177.00
450.7610, 11321.00
451.9500, 11097.00
453.1390, 11040.00
454.3280, 11082.00
455.5170, 10931.00
456.7060, 11102.00
457.8940, 11044.00
459.0830, 10873.00
460.2710, 10867.00
461.4590, 10923.00
462.6470, 10694.00
463.8350, 10872.00
465.0220, 10764.00
466.2100, 10899.00
467.3970, 10682.00
468.5840, 10796.00
469.7710, 10655.00
470.9580, 10711.00
472.1440, 10567.00
473.3310, 10740.00
474.5170, 10734.00
475.7030, 10707.00
476.8890, 10783.00
478.0750, 10726.94
479.2610, 10789.26
480.4460, 10836.03
481.6320, 10868.30
482.8170, 10831.90
484.0020, 10892.32
485.1870, 10918.93
486.3710, 10947.53
487.5560, 11031.76
488.7400, 11023.64
489.9250, 11114.17
491.1090, 11170.27
492.2930, 11247.30
493.4760, 11290.22
494.6600, 11532.00
495.8440, 11480.00
497.0270, 11712.00
498.2100, 11832.00
499.3930, 11985.00
500.5760, 12243.00
501.7580, 12274.00
502.9410, 12543.00
504.1230, 12579.00
505.3060, 12771.00
506.4880, 13129.00
507.6690, 13303.00
508.8510, 13389.00
510.0330, 13564.00
511.2140, 13845.00
512.3950, 13984.00
513.5760, 14022.00
514.7570, 14275.00
515.9380, 14123.00
517.1190, 14275.00
518.2990, 14308.00
519.4800, 14193.00
520.6600, 14192.00
521.8400, 14217.62
523.0190, 14329.00
524.1990, 14307.00
525.3790, 14358.00
526.5580, 14440.00
527.7370, 14181.00
528.9160, 14325.00
530.0950, 14214.00
531.2740, 14213.00
532.4520, 14171.00
533.6310, 14198.00
534.8090, 14141.00
535.9870, 14091.00
537.1650, 14055.00
538.3430, 13991.07
539.5200, 14054.00
540.6980, 13851.00
541.8750, 13886.00
543.0520, 13773.00
544.2290, 13832.00
545.4060, 13748.00
546.5820, 13676.00
547.7590, 13712.00
548.9350, 13520.00
550.1110, 13556.00
551.2870, 13557.00
552.4630, 13565.00
553.6390, 13402.00
554.8140, 13567.00
555.9900, 13686.00
557.1650, 13559.00
558.3400, 13463.00
559.5150, 13630.00
560.6900, 13444.00
561.8640, 13389.00
563.0390, 13530.00
564.2130, 13496.00
565.3870, 13422.00
566.5610, 13390.00
567.7350, 13335.00
568.9080, 13288.00
570.0820, 13196.97
571.2550, 13032.00
572.4280, 12962.00
573.6010, 12721.00
574.7740, 12518.00
575.9470, 12396.00
577.1190, 12172.00
578.2920, 12077.00
579.4640, 11837.00
580.6360, 11607.00
581.8080, 11520.00
582.9790, 11065.00
584.1510, 11165.00
585.3220, 10807.00
586.4940, 10643.00
587.6650, 10406.00
588.8360, 10411.00
590.0060, 10317.00
591.1770, 10091.00
592.3470, 9871.000
593.5180, 9972.000
594.6880, 9873.000
595.8580, 9750.000
597.0280, 9658.000
598.1970, 9710.000
599.3670, 9607.000
600.5360, 9623.000
601.7050, 9593.000
602.8740, 9684.000
604.0430, 9670.000
605.2120, 9788.000
606.3800, 9501.000
607.5490, 9774.000
608.7170, 9680.000
609.8850, 9797.000
611.0530, 9840.000
612.2210, 9848.000
613.3880, 9855.000
614.5560, 9837.000
615.7230, 9949.000
616.8900, 9966.000
618.0570, 10115.00
619.2240, 10113.00
620.3900, 10086.00
621.5570, 10194.00
622.7230, 10261.00
623.8890, 10392.00
625.0550, 10349.00
626.2210, 10513.00
627.3870, 10620.00
628.5520, 10613.00
629.7180, 10746.00
630.8830, 10847.00
632.0480, 11086.00
633.2130, 11077.00
634.3770, 11183.00
635.5420, 11430.00
636.7060, 11549.00
637.8710, 11753.85
639.0350, 11977.00
640.1990, 12154.00
641.3620, 12411.37
642.5260, 12617.85
643.6890, 12926.00
644.8530, 13064.00
646.0160, 13340.00
647.1790, 13561.00
648.3410, 13942.00
649.5040, 14190.00
650.6670, 14866.00
651.8290, 15322.00
652.9910, 16023.00
654.1530, 16640.00
655.3150, 17388.00
656.4770, 18387.00
657.6380, 19552.00
658.7990, 20901.00
659.9610, 22464.00
661.1220, 24409.00
662.2830, 26617.00
663.4430, 29160.00
664.6040, 32031.00
665.7640, 35284.00
666.9240, 38174.00
668.0850, 40649.00
669.2440, 42954.00
670.4040, 44763.00
671.5640, 45282.00
672.7230, 44962.00
673.8830, 43201.00
675.0420, 40599.00
676.2010, 37661.00
677.3590, 34363.00
678.5180, 30835.00
679.6770, 28118.00
680.8350, 25447.00
681.9930, 23374.00
683.1510, 21664.00
684.3090, 20359.00
685.4670, 19343.00
686.6240, 18570.00
687.7810, 17868.00
688.9390, 17276.00
690.0960, 16900.00
691.2530, 16336.00
692.4090, 16258.00
693.5660, 16071.00
694.7220, 16036.00
695.8790, 15742.00
697.0350, 15672.00
698.1910, 15668.00
699.3460, 15789.00
700.5020, 15782.00
701.6570, 15774.00
702.8130, 15998.00
703.9680, 15947.00
705.1230, 16135.00
706.2780, 16297.00
707.4320, 16437.00
708.5870, 16635.00
709.7410, 16667.00
710.8950, 16881.00
712.0490, 17257.00
713.2030, 17351.00
714.3570, 17755.00
715.5100, 17706.00
716.6640, 18088.00
717.8170, 18433.00
718.9700, 18619.00
720.1230, 18704.00
721.2760, 19000.00
722.4280, 19097.00
723.5810, 19253.00
724.7330, 19491.00
725.8850, 19545.00
727.0370, 19726.00
728.1890, 19589.00
729.3400, 19620.00
730.4920, 19666.00
731.6430, 19847.00
732.7940, 19973.00
733.9450, 19819.16
735.0960, 19847.11
736.2460, 19824.47
737.3970, 19752.17
738.5470, 19576.21
739.6970, 19462.01
740.8470, 19278.95
741.9970, 19062.85
743.1470, 18867.30
744.2970, 18544.36
745.4460, 18391.00
746.5950, 18065.00
747.7440, 17855.00
748.8930, 17559.00
750.0420, 17211.00
751.1900, 16820.00
752.3390, 16611.00
753.4870, 16196.00
754.6350, 16064.00
755.7830, 15528.00
756.9310, 15404.00
758.0780, 15082.00
759.2260, 14813.00
760.3730, 14745.00
761.5200, 14512.00
762.6670, 14283.00
763.8140, 14222.00
764.9610, 13977.00
766.1070, 13835.00
767.2530, 13857.00
768.4000, 13671.00
769.5460, 13514.00
770.6910, 13388.00
771.8370, 13288.14
772.9830, 13298.24
774.1280, 13289.27
775.2730, 13262.21
776.4180, 13162.94
777.5630, 13156.92
778.7080, 13113.53
779.8520, 13068.64
780.9970, 13075.75
782.1410, 12987.01
783.2850, 12993.33
784.4290, 12961.69
785.5730, 12947.43
786.7160, 12895.59
787.8600, 12855.34
789.0030, 12852.73
790.1460, 12829.30
791.2890, 12773.13
792.4320, 12760.00
793.5750, 12669.97
794.7170, 12647.45
795.8590, 12654.05
797.0020, 12599.77
798.1440, 12587.36
799.2850, 12419.00
800.4270, 12530.00
801.5690, 12421.00
802.7100, 12304.00
803.8510, 12223.00
804.9920, 12070.00
806.1330, 12008.00
807.2740, 11934.00
808.4140, 11873.00
809.5550, 11825.11
810.6950, 11847.00
811.8350, 11755.00
812.9750, 11696.00
814.1150, 11697.00
815.2540, 11593.00
816.3940, 11495.00
817.5330, 11548.00
818.6720, 11486.00
819.8110, 11371.00
820.9500, 11275.00
822.0880, 11289.00
823.2270, 11289.00
824.3650, 11256.00
825.5030, 11177.00
826.6410, 11166.73
827.7790, 11137.44
828.9170, 11051.00
830.0540, 11063.00
831.1920, 10913.00
832.3290, 10760.00
833.4660, 10797.00
834.6030, 10802.00
835.7390, 10792.00
836.8760, 10750.00
838.0120, 10751.00
839.1480, 10687.00
840.2840, 10589.00
841.4200, 10564.00
842.5560, 10552.72
843.6920, 10469.00
844.8270, 10594.00
845.9620, 10619.00
847.0970, 10663.00
848.2320, 10521.00
849.3670, 10649.00
850.5020, 10482.00
851.6360, 10645.00
852.7700, 10600.00
853.9040, 10742.00
855.0380, 10656.00
856.1720, 10852.00
857.3060, 10807.00
858.4390, 10851.00
859.5730, 10767.00
860.7060, 10846.00
861.8390, 10837.00
862.9720, 10849.00
864.1040, 10790.00
865.2370, 11014.00
866.3690, 10938.00
867.5010, 11041.00
868.6330, 10980.00
869.7650, 10994.00
870.8970, 11022.00
872.0290, 11222.00
873.1600, 11152.00
874.2910, 11163.00
875.4220, 11128.00
876.5530, 11350.00
877.6840, 11381.00
878.8140, 11432.00
879.9450, 11465.00
881.0750, 11513.00
882.2050, 11492.00
883.3350, 11521.00
884.4650, 11569.54
885.5950, 11777.00
886.7240, 11706.00
887.8530, 11675.00
888.9820, 11802.00
890.1110, 12105.00
891.2400, 12038.00
892.3690, 12124.00
893.4970, 12068.00
894.6260, 12054.00
895.7540, 12113.00
896.8820, 12145.00
898.0100, 12214.00
899.1370, 12272.00
900.2650, 12233.00
901.3920, 12209.00
902.5200, 12301.00
903.6470, 12262.00
904.7730, 12412.00
905.9000, 12362.00
907.0270, 12581.00
908.1530, 12459.00
909.2790, 12522.00
910.4050, 12614.00
911.5310, 12627.00
912.6570, 12737.00
913.7830, 12796.14
914.9080, 12710.00
916.0330, 12936.00
917.1580, 12914.00
918.2830, 12956.00
919.4080, 13221.00
920.5330, 13419.00
921.6570, 13608.00
922.7820, 13702.00
923.9060, 13716.00
925.0300, 13928.00
926.1540, 13777.00
927.2770, 14004.00
928.4010, 13909.00
929.5240, 13819.00
930.6470, 13791.00
931.7700, 13633.00
932.8930, 13482.00
934.0160, 13271.00
935.1380, 13069.00
936.2610, 12873.00
937.3830, 12992.00
938.5050, 12967.00
939.6270, 12741.00
940.7490, 12881.00
941.8700, 12846.00
942.9910, 12649.00
944.1130, 12698.00
945.2340, 12553.00
946.3550, 12642.00
947.4750, 12506.00
948.5960, 12778.00
949.7160, 12599.00
950.8370, 12591.00
951.9570, 12547.00
953.0770, 12435.00
954.1970, 12591.00
955.3160, 12614.00
956.4360, 12510.00
957.5550, 12439.00
958.6740, 12345.00
959.7930, 12583.00
960.9120, 12479.00
962.0310, 12575.00
963.1490, 12637.00
964.2670, 12568.00
965.3860, 12701.00
966.5040, 12561.00
967.6210, 12620.00
968.7390, 12620.00
969.8570, 12625.00
970.9740, 12674.00
972.0910, 12583.00
973.2080, 12543.00
974.3250, 12600.00
975.4420, 12578.00
976.5580, 12502.00
977.6750, 12537.00
978.7910, 12531.00
979.9070, 12600.00
981.0230, 12558.00
982.1390, 12636.00
983.2540, 12639.00
984.3700, 12561.00
985.4850, 12504.00
986.6000, 12691.00
987.7150, 12738.00
988.8300, 12800.00
989.9450, 12770.00
991.0590, 12797.00
992.1730, 12967.00
993.2880, 13062.00
994.4010, 13014.00
995.5150, 13197.00
996.6290, 13221.00
997.7420, 13292.00
998.8560, 13366.00
999.9690, 13485.00
1001.082, 13614.00
1002.195, 13748.42
1003.307, 13931.00
1004.420, 14050.00
1005.532, 14153.00
1006.645, 14281.00
1007.757, 14365.28
1008.868, 14420.00
1009.980, 14468.00
1011.092, 14474.00
1012.203, 14371.00
1013.314, 14769.00
1014.425, 14760.00
1015.536, 14982.00
1016.647, 14951.00
1017.758, 14997.00
1018.868, 15158.00
1019.978, 15201.00
1021.088, 15278.00
1022.198, 15516.00
1023.308, 15567.00
1024.418, 15873.00
1025.527, 15926.00
1026.637, 16393.00
1027.746, 16267.00
1028.855, 16451.00
1029.963, 16228.00
1031.072, 16286.00
1032.181, 16220.00
1033.289, 15953.00
1034.397, 15923.00
1035.505, 15802.00
1036.613, 15625.00
1037.721, 15616.00
1038.828, 15355.00
1039.935, 15268.00
1041.043, 15249.00
1042.150, 15145.00
1043.257, 15103.32
1044.363, 15083.00
1045.470, 15012.00
1046.576, 15029.00
1047.682, 15022.12
1048.788, 15223.00
1049.894, 15158.00
1051.000, 15313.00
1052.106, 15450.00
1053.211, 15540.00
1054.316, 15629.00
1055.421, 15721.00
1056.526, 15911.00
1057.631, 16078.00
1058.736, 16083.00
1059.840, 16178.54
1060.944, 16177.00
1062.049, 16143.00
1063.153, 16064.00
1064.256, 15881.00
1065.360, 15756.00
1066.463, 15593.00
1067.567, 15180.00
1068.670, 15113.00
1069.773, 14769.00
1070.876, 14602.00
1071.978, 14328.00
1073.081, 14070.00
1074.183, 14090.00
1075.285, 13829.00
1076.387, 13786.00
1077.489, 13490.00
1078.591, 13558.00
1079.692, 13296.00
1080.794, 13367.00
1081.895, 13114.00
1082.996, 13013.00
1084.097, 12909.00
1085.198, 13090.00
1086.298, 12929.00
1087.399, 12735.00
1088.499, 12495.00
1089.599, 12506.00
1090.699, 12460.00
1091.799, 12353.00
1092.898, 12346.00
1093.998, 12288.00
1095.097, 12337.00
1096.196, 12214.00
1097.295, 12063.00
1098.394, 12201.00
1099.492, 11895.00
1100.591, 12089.00
1101.689, 12045.00
1102.787, 12029.00
1103.885, 11899.00
1104.983, 11887.00
1106.081, 11849.00
1107.178, 11846.00
1108.275, 11700.00
1109.373, 11666.00
1110.470, 11721.00
1111.566, 11574.00
1112.663, 11473.00
1113.760, 11624.00
1114.856, 11474.00
1115.952, 11586.00
1117.048, 11519.00
1118.144, 11506.00
1119.240, 11588.00
1120.335, 11469.00
1121.431, 11532.00
1122.526, 11387.00
1123.621, 11203.00
1124.716, 11297.00
1125.810, 11275.00
1126.905, 11346.00
1127.999, 11106.00
1129.094, 11149.93
1130.188, 11165.75
1131.282, 11162.47
1132.375, 11141.14
1133.469, 11047.56
1134.562, 11047.26
1135.656, 11009.57
1136.749, 10970.37
1137.842, 10983.20
1138.935, 10900.15
1140.027, 10912.18
1141.120, 10886.25
1142.212, 10877.70
1143.304, 10831.55
1144.396, 10754.07
1145.488, 10777.81
1146.579, 10782.46
1147.671, 10769.01
1148.762, 10683.36
1149.853, 10690.97
1150.944, 10661.21
1152.035, 10629.91
1153.126, 10650.64
1154.216, 10575.51
1155.307, 10595.42
1156.397, 10577.41
1157.487, 10576.75
1158.577, 10538.50
1159.667, 10511.86
1160.756, 10522.85
1161.846, 10513.00
1162.935, 10470.43
1164.024, 10470.90
1165.113, 10394.48
1166.201, 10531.00
1167.290, 10524.00
1168.378, 10483.00
1169.467, 10377.00
1170.555, 10553.00
1171.643, 10358.00
1172.730, 10422.00
1173.818, 10379.00
1174.905, 10402.00
1175.993, 10398.00
1177.080, 10357.00
1178.167, 10231.00
1179.254, 10369.00
1180.340, 10269.00
1181.427, 10446.00
1182.513, 10426.00
1183.599, 10392.00
1184.685, 10332.00
1185.771, 10494.00
1186.856, 10328.00
1187.942, 10500.00
1189.027, 10531.00
1190.112, 10420.00
1191.197, 10379.00
1192.282, 10398.00
1193.367, 10356.00
1194.451, 10338.00
1195.536, 10420.00
1196.620, 10286.00
1197.704, 10435.00
1198.788, 10554.00
1199.872, 10308.00
1200.955, 10359.00
1202.039, 10421.00
1203.122, 10395.00
1204.205, 10401.00
1205.288, 10460.00
1206.370, 10386.00
1207.453, 10432.00
1208.535, 10392.00
1209.618, 10345.00
1210.700, 10389.00
1211.782, 10358.00
1212.863, 10346.00
1213.945, 10421.00
1215.026, 10386.00
1216.108, 10382.00
1217.189, 10379.00
1218.270, 10357.00
1219.351, 10366.86
1220.431, 10416.44
1221.512, 10423.00
1222.592, 10466.00
1223.672, 10597.00
1224.752, 10459.00
1225.832, 10435.00
1226.911, 10592.00
1227.991, 10473.00
1229.070, 10488.00
1230.149, 10628.00
1231.228, 10554.00
1232.307, 10479.00
1233.386, 10504.00
1234.464, 10465.19
1235.543, 10427.00
1236.621, 10469.00
1237.699, 10500.00
1238.777, 10502.00
1239.855, 10552.00
1240.932, 10512.00
1242.009, 10486.00
1243.087, 10539.00
1244.164, 10524.00
1245.241, 10559.00
1246.317, 10541.00
1247.394, 10599.00
1248.470, 10509.00
1249.546, 10421.00
1250.623, 10422.00
1251.698, 10532.00
1252.774, 10549.00
1253.850, 10618.00
1254.925, 10652.00
1256.000, 10580.00
1257.076, 10649.00
1258.150, 10611.00
1259.225, 10624.85
1260.300, 10676.00
1261.374, 10641.00
1262.449, 10626.00
1263.523, 10605.00
1264.597, 10620.00
1265.670, 10596.00
1266.744, 10605.00
1267.818, 10573.00
1268.891, 10522.00
1269.964, 10627.00
1271.037, 10484.00
1272.110, 10684.00
1273.183, 10619.00
1274.255, 10567.00
1275.327, 10675.00
1276.400, 10643.00
1277.472, 10643.00
1278.543, 10699.00
1279.615, 10636.00
1280.687, 10674.00
1281.758, 10689.29
1282.829, 10567.00
1283.900, 10718.00
1284.971, 10661.00
1286.042, 10632.00
1287.112, 10661.00
1288.183, 10565.00
1289.253, 10748.00
1290.323, 10597.00
1291.393, 10677.00
1292.463, 10496.00
1293.532, 10433.00
1294.602, 10697.00
1295.671, 10668.00
1296.740, 10721.00
1297.809, 10698.00
1298.878, 10690.00
1299.946, 10730.00
1301.015, 10721.08
1302.083, 10609.00
1303.151, 10717.00
1304.219, 10726.00
1305.287, 10656.00
1306.354, 10766.00
1307.422, 10738.00
1308.489, 10827.00
1309.556, 10774.00
1310.623, 10757.11
1311.690, 10687.00
