##NAMES=Actinolite
##RRUFFID=R060045
##IDEAL CHEMISTRY=Ca_2_(Mg_4.5-2.5_Fe^2+^_0.5-2.5_)Si_8_O_22_(OH)_2_
##LOCALITY=Colorado, USA
##OWNER=RRUFF
##SOURCE=University of Arizona Mineral Museum
##DESCRIPTION=Green prismatic crystals in a radial arrangement
##STATUS=The identification of this mineral has been confirmed by X-ray diffraction and chemical analysis
##URL=rruff.info/R060045
##MEASURED CHEMISTRY=(Ca_1.99_Na_0.01_)_Σ=2_(Mg_4.20_Fe^2+^_0.59_Al_0.09_Fe^3+^_0.08_Mn_0.02_Ti_0.01_)_Σ=5_(Si_7.82_Al_0.18_)_Σ=8_O_22_(OH)_2_
##PIN_ID=M00340
##ORIENTATION=Laser parallel to -a* (-1 0 0). Fiducial mark perpendicular to laser is parallel to -b [0 -1 0]
134.1270, 17924.00
135.3560, 17978.00
136.5850, 17941.00
137.8140, 18106.00
139.0430, 18025.00
140.2710, 18218.00
141.5000, 18046.00
142.7280, 18008.00
143.9560, 18096.00
145.1840, 18143.00
146.4120, 18283.00
147.6390, 18653.00
148.8670, 18790.00
150.0940, 18970.00
151.3210, 19122.00
152.5490, 19388.00
153.7750, 19269.00
155.0020, 19537.00
156.2290, 19506.00
157.4550, 19227.00
158.6810, 19080.00
159.9080, 19244.00
161.1340, 19062.00
162.3590, 18921.00
163.5850, 19032.00
164.8110, 19658.00
166.0360, 20082.00
167.2610, 20358.00
168.4860, 21106.00
169.7110, 21392.00
170.9360, 21481.00
172.1610, 21414.00
173.3850, 21426.00
174.6100, 21236.00
175.8340, 21118.25
177.0580, 20730.00
178.2820, 20700.00
179.5050, 20243.00
180.7290, 19897.00
181.9520, 19976.00
183.1760, 19609.00
184.3990, 19493.00
185.6220, 19143.00
186.8450, 19093.00
188.0670, 19151.00
189.2900, 19014.00
190.5120, 19117.00
191.7340, 19092.00
192.9560, 19019.00
194.1780, 19160.00
195.4000, 19131.00
196.6220, 19382.00
197.8430, 19423.00
199.0640, 19406.00
200.2860, 19472.00
201.5070, 19817.00
202.7270, 20216.00
203.9480, 19989.00
205.1690, 20241.00
206.3890, 20034.00
207.6090, 20227.00
208.8290, 20530.00
210.0490, 21098.00
211.2690, 21625.00
212.4890, 22061.00
213.7080, 22265.00
214.9280, 22565.35
216.1470, 22974.00
217.3660, 22827.00
218.5850, 22936.00
219.8030, 22907.00
221.0220, 23087.00
222.2400, 23235.00
223.4590, 22995.00
224.6770, 22898.00
225.8950, 22602.00
227.1120, 22274.00
228.3300, 21957.00
229.5480, 21786.00
230.7650, 21463.00
231.9820, 21262.00
233.1990, 21084.00
234.4160, 21019.00
235.6330, 20927.00
236.8490, 20746.00
238.0660, 20649.00
239.2820, 20707.00
240.4980, 20567.00
241.7140, 20779.00
242.9300, 20507.00
244.1460, 20619.00
245.3610, 20519.00
246.5770, 20406.00
247.7920, 20581.00
249.0070, 20293.00
250.2220, 20415.00
251.4370, 20318.00
252.6510, 20194.00
253.8660, 20322.00
255.0800, 20256.00
256.2940, 20160.00
257.5080, 20154.00
258.7220, 20201.00
259.9360, 20153.92
261.1490, 20162.86
262.3630, 20153.00
263.5760, 20092.00
264.7890, 20096.00
266.0020, 19966.00
267.2150, 19945.00
268.4270, 20014.00
269.6400, 20189.00
270.8520, 20068.00
272.0640, 19999.00
273.2760, 20048.00
274.4880, 19938.00
275.7000, 20310.00
276.9120, 20296.00
278.1230, 20159.00
279.3340, 20459.00
280.5450, 20297.00
281.7560, 20526.00
282.9670, 20461.00
284.1780, 20449.00
285.3880, 20677.00
286.5980, 20389.00
287.8090, 20492.00
289.0190, 20641.00
290.2290, 20567.00
291.4380, 20817.00
292.6480, 20616.00
293.8570, 20801.00
295.0670, 21035.00
296.2760, 20851.00
297.4850, 20970.00
298.6930, 21016.00
299.9020, 20944.00
301.1110, 20993.00
302.3190, 20954.11
303.5270, 20924.00
304.7350, 20929.00
305.9430, 20841.00
307.1510, 20895.00
308.3580, 21063.00
309.5660, 21084.00
310.7730, 21081.00
311.9800, 21153.00
313.1870, 21082.00
314.3940, 21065.00
315.6010, 21171.00
316.8070, 21243.00
318.0130, 21198.00
319.2200, 21031.00
320.4260, 21264.00
321.6310, 21164.00
322.8370, 21330.00
324.0430, 21577.00
325.2480, 21589.00
326.4540, 21357.00
327.6590, 21393.00
328.8640, 21573.00
330.0680, 21522.00
331.2730, 21628.00
332.4780, 21795.00
333.6820, 21785.00
334.8860, 21810.00
336.0900, 22091.00
337.2940, 22003.00
338.4980, 22196.00
339.7010, 22388.00
340.9050, 22324.00
342.1080, 22396.00
343.3110, 22424.00
344.5140, 22503.00
345.7170, 22561.00
346.9200, 22473.00
348.1220, 22492.00
349.3240, 22653.00
350.5270, 22473.00
351.7290, 22479.00
352.9310, 22675.00
354.1320, 22817.00
355.3340, 22853.00
356.5350, 23189.00
357.7370, 23329.00
358.9380, 23989.00
360.1390, 24402.00
361.3400, 24614.00
362.5400, 24609.00
363.7410, 24684.00
364.9410, 24679.00
366.1410, 24630.00
367.3410, 24522.50
368.5410, 24246.00
369.7410, 24170.00
370.9400, 23915.00
372.1400, 23676.00
373.3390, 23865.00
374.5380, 23744.00
375.7370, 23505.00
376.9360, 23651.00
378.1350, 23662.00
379.3330, 24020.00
380.5310, 24333.00
381.7300, 24660.00
382.9280, 25289.00
384.1260, 25578.00
385.3230, 25769.00
386.5210, 25747.00
387.7180, 25709.00
388.9160, 25613.00
390.1130, 25373.00
391.3100, 25096.00
392.5060, 24975.00
393.7030, 24832.00
394.9000, 24527.00
396.0960, 24267.00
397.2920, 24001.00
398.4880, 23846.00
399.6840, 23746.00
400.8800, 23846.00
402.0750, 23905.00
403.2710, 23896.00
404.4660, 23807.00
405.6610, 24092.00
406.8560, 24024.00
408.0510, 24241.00
409.2450, 24232.00
410.4400, 24028.00
411.6340, 24095.00
412.8280, 23894.00
414.0220, 23860.00
415.2160, 23620.00
416.4100, 23751.00
417.6030, 23469.00
418.7970, 23364.00
419.9900, 23166.00
421.1830, 22998.00
422.3760, 23296.00
423.5690, 23094.00
424.7610, 23142.00
425.9540, 23153.00
427.1460, 23174.00
428.3380, 23182.00
429.5300, 23312.00
430.7220, 23242.00
431.9140, 23265.44
433.1050, 23206.00
434.2970, 23189.00
435.4880, 23270.00
436.6790, 23177.00
437.8700, 23301.00
439.0610, 23133.00
440.2510, 22884.00
441.4420, 23082.00
442.6320, 23177.00
443.8220, 23028.00
445.0120, 23155.00
446.2020, 23147.00
447.3910, 23075.00
448.5810, 23132.00
449.7700, 22999.00
450.9600, 23090.64
452.1490, 23311.00
453.3370, 23207.00
454.5260, 23299.00
455.7150, 23314.00
456.9030, 23386.00
458.0910, 23364.00
459.2800, 23587.00
460.4670, 23346.00
461.6550, 23367.00
462.8430, 23418.00
464.0300, 23723.00
465.2180, 23504.00
466.4050, 23590.00
467.5920, 23605.00
468.7790, 23447.00
469.9650, 23468.00
471.1520, 23674.00
472.3380, 23729.00
473.5250, 23796.00
474.7110, 23992.00
475.8970, 23753.00
477.0820, 23798.00
478.2680, 24228.00
479.4540, 24083.00
480.6390, 24040.00
481.8240, 24016.00
483.0090, 24141.00
484.1940, 24079.00
485.3780, 24181.00
486.5630, 24164.00
487.7470, 24354.00
488.9320, 24215.00
490.1160, 24168.00
491.3000, 24079.00
492.4830, 24281.00
493.6670, 24297.00
494.8500, 24564.00
496.0340, 24425.00
497.2170, 24325.00
498.4000, 24448.00
499.5820, 24573.00
500.7650, 24743.00
501.9480, 24741.00
503.1300, 25103.00
504.3120, 25302.00
505.4940, 25237.00
506.6760, 25262.00
507.8580, 25346.00
509.0390, 25284.00
510.2210, 25563.00
511.4020, 25634.00
512.5830, 25629.00
513.7640, 25494.00
514.9450, 25434.00
516.1250, 25471.60
517.3060, 25471.32
518.4860, 25561.00
519.6660, 25626.00
520.8460, 25676.00
522.0260, 25736.88
523.2060, 25740.00
524.3850, 25824.00
525.5650, 25817.00
526.7440, 25843.00
527.9230, 25660.00
529.1020, 25810.00
530.2810, 25702.00
531.4590, 25701.00
532.6380, 25770.00
533.8160, 25706.00
534.9940, 25745.76
536.1720, 25551.00
537.3500, 25699.00
538.5270, 25687.00
539.7050, 25518.00
540.8820, 25522.00
542.0590, 25519.00
543.2360, 25767.00
544.4130, 25498.00
545.5900, 25742.00
546.7660, 25822.00
547.9430, 25602.00
549.1190, 25774.00
550.2950, 25787.00
551.4710, 25697.00
552.6470, 25738.00
553.8220, 25700.00
554.9980, 25758.00
556.1730, 25804.00
557.3480, 25831.00
558.5230, 25861.88
559.6980, 25903.00
560.8730, 25902.00
562.0470, 25942.00
563.2220, 25973.00
564.3960, 26189.00
565.5700, 25982.00
566.7440, 26112.00
567.9170, 26292.00
569.0910, 25981.00
570.2640, 26267.00
571.4380, 26676.00
572.6110, 26364.00
573.7840, 26305.00
574.9570, 26395.00
576.1290, 26308.00
577.3020, 26362.00
578.4740, 26345.00
579.6460, 26360.29
580.8180, 26488.00
581.9900, 26432.00
583.1620, 26509.00
584.3330, 26569.00
585.5040, 26602.00
586.6760, 26432.00
587.8470, 26401.00
589.0180, 26414.00
590.1880, 26242.00
591.3590, 26589.00
592.5290, 26438.00
593.7000, 26561.00
594.8700, 26555.00
596.0400, 26547.00
597.2090, 26428.00
598.3790, 26421.00
599.5490, 26523.00
600.7180, 26681.00
601.8870, 26619.00
603.0560, 26619.00
604.2250, 26876.00
605.3940, 26678.00
606.5620, 26719.00
607.7300, 26676.00
608.8990, 26865.00
610.0670, 27115.00
611.2350, 27112.00
612.4020, 27063.00
613.5700, 27141.00
614.7370, 27508.00
615.9050, 27571.00
617.0720, 27716.00
618.2390, 27742.00
619.4060, 27817.00
620.5720, 27874.00
621.7390, 27785.00
622.9050, 28100.00
624.0710, 27768.00
625.2370, 27882.00
626.4030, 27670.00
627.5690, 27915.00
628.7340, 27827.00
629.9000, 27807.00
631.0650, 27924.00
632.2300, 28040.00
633.3950, 28025.00
634.5600, 28038.00
635.7240, 28287.00
636.8890, 28314.00
638.0530, 28485.00
639.2170, 28566.00
640.3810, 28704.00
641.5450, 28994.00
642.7080, 28989.00
643.8720, 29255.00
645.0350, 29589.00
646.1980, 29676.00
647.3610, 29727.00
648.5240, 29919.00
649.6870, 30103.00
650.8490, 30363.00
652.0120, 30321.00
653.1740, 30943.00
654.3360, 31082.00
655.4980, 31349.00
656.6600, 31870.00
657.8210, 32656.00
658.9830, 33839.00
660.1440, 34859.00
661.3050, 36424.00
662.4660, 38269.00
663.6270, 40582.00
664.7870, 42780.00
665.9480, 44904.00
667.1080, 45917.00
668.2680, 46448.00
669.4280, 46209.00
670.5880, 45387.00
671.7480, 43367.00
672.9070, 41882.00
674.0670, 40125.00
675.2260, 38370.00
676.3850, 36455.00
677.5440, 35279.00
678.7030, 33884.00
679.8610, 32875.00
681.0200, 32247.00
682.1780, 31681.00
683.3360, 31170.00
684.4940, 30661.00
685.6520, 30305.00
686.8090, 30314.00
687.9670, 30185.00
689.1240, 29905.00
690.2810, 29852.00
691.4380, 29595.00
692.5950, 29642.00
693.7520, 29624.00
694.9080, 29314.00
696.0650, 29439.00
697.2210, 29244.00
698.3770, 29379.00
699.5330, 28941.00
700.6880, 29249.00
701.8440, 29238.00
702.9990, 29103.00
704.1550, 29211.00
705.3100, 29192.00
706.4650, 29200.00
707.6190, 29204.00
708.7740, 29183.00
709.9290, 29417.00
711.0830, 29101.00
712.2370, 29411.00
713.3910, 29283.00
714.5450, 29550.00
715.6980, 29341.00
716.8520, 29381.00
718.0050, 29371.00
719.1580, 29813.00
720.3110, 29707.00
721.4640, 29627.00
722.6170, 29904.00
723.7700, 29772.00
724.9220, 29902.00
726.0740, 30121.00
727.2260, 29882.00
728.3780, 30180.00
729.5300, 30349.00
730.6810, 30427.00
731.8330, 31039.00
732.9840, 31062.00
734.1350, 31160.00
735.2860, 31136.00
736.4370, 31188.00
737.5880, 30965.00
738.7380, 31202.00
739.8880, 31134.00
741.0390, 31329.00
742.1890, 31155.00
743.3380, 31397.00
744.4880, 31147.00
745.6380, 31112.00
746.7870, 31102.00
747.9360, 31013.00
749.0850, 31019.00
750.2340, 30993.00
751.3830, 30855.00
752.5310, 30894.00
753.6800, 30808.00
754.8280, 30756.00
755.9760, 30784.00
757.1240, 30509.00
758.2720, 30655.00
759.4190, 30404.00
760.5670, 30651.00
761.7140, 30621.00
762.8610, 30595.00
764.0080, 30619.00
765.1550, 30623.00
766.3020, 30722.00
767.4480, 30921.00
768.5950, 30895.52
769.7410, 30911.00
770.8870, 30911.00
772.0330, 30852.00
773.1780, 30768.00
774.3240, 30808.00
775.4690, 30715.00
776.6140, 30731.20
777.7590, 31173.00
778.9040, 30858.00
780.0490, 30909.00
781.1940, 31225.00
782.3380, 30822.00
783.4820, 31144.00
784.6260, 31118.00
785.7700, 31167.00
786.9140, 31229.00
788.0580, 31078.00
789.2010, 31421.00
790.3450, 31180.00
791.4880, 31319.00
792.6310, 31516.00
793.7730, 31504.00
794.9160, 31502.00
796.0590, 31412.00
797.2010, 31557.00
798.3430, 31530.00
799.4850, 31631.00
800.6270, 31265.00
801.7690, 31671.00
802.9100, 31554.00
804.0520, 31737.00
805.1930, 31904.00
806.3340, 31665.00
807.4750, 31909.00
808.6160, 31907.00
809.7560, 31897.00
810.8970, 31984.00
812.0370, 32074.00
813.1770, 31896.00
814.3170, 32086.00
815.4570, 32015.00
816.5960, 32268.00
817.7360, 32360.00
818.8750, 32468.00
820.0140, 32519.00
821.1530, 32501.00
822.2920, 32381.00
823.4310, 32270.00
824.5690, 32324.00
825.7070, 32449.00
826.8460, 32530.00
827.9840, 32754.00
829.1220, 32669.00
830.2590, 32826.00
831.3970, 32669.00
832.5340, 32597.00
833.6710, 33047.00
834.8080, 32721.00
835.9450, 33170.00
837.0820, 32966.00
838.2190, 32926.00
839.3550, 33097.00
840.4910, 33029.00
841.6270, 32948.00
842.7630, 33499.00
843.8990, 33278.00
845.0350, 33450.00
846.1700, 33617.00
847.3060, 33203.00
848.4410, 33785.00
849.5760, 33654.00
850.7100, 33702.00
851.8450, 33878.00
852.9800, 34076.00
854.1140, 33995.00
855.2480, 33960.00
856.3820, 34140.00
857.5160, 34186.00
858.6500, 33998.00
859.7830, 34271.00
860.9170, 34014.00
862.0500, 34242.00
863.1830, 34250.00
864.3160, 34228.00
865.4480, 34256.00
866.5810, 34211.15
867.7130, 33985.00
868.8460, 34095.00
869.9780, 34148.00
871.1100, 34017.00
872.2410, 34299.00
873.3730, 34257.00
874.5050, 34022.00
875.6360, 34144.00
876.7670, 34161.00
877.8980, 34425.00
879.0290, 34253.00
880.1590, 34250.00
881.2900, 34348.00
882.4200, 34329.00
883.5500, 34281.00
884.6800, 34603.00
885.8100, 34583.00
886.9400, 34447.00
888.0690, 34639.00
889.1990, 34658.00
890.3280, 34747.00
891.4570, 34847.00
892.5860, 34867.00
893.7140, 34862.00
894.8430, 35085.00
895.9710, 35170.00
897.1000, 35109.01
898.2280, 34894.00
899.3560, 35037.00
900.4830, 34976.00
901.6110, 35095.00
902.7380, 34991.00
903.8660, 35154.00
904.9930, 35389.00
906.1200, 35370.00
907.2460, 35334.00
908.3730, 35217.00
909.5000, 35360.00
910.6260, 35328.49
911.7520, 35408.00
912.8780, 35448.00
914.0040, 35570.00
915.1290, 35684.00
916.2550, 35585.00
917.3800, 35348.00
918.5050, 35982.00
919.6300, 35746.00
920.7550, 36013.00
921.8800, 36061.00
923.0040, 36436.00
924.1290, 36548.00
925.2530, 36861.00
926.3770, 36843.00
927.5010, 36927.00
928.6250, 37011.00
929.7480, 37056.00
930.8720, 36635.00
931.9950, 36761.00
933.1180, 36544.00
934.2410, 36518.00
935.3640, 36420.00
936.4860, 36407.00
937.6090, 36517.00
938.7310, 36487.00
939.8530, 36576.00
940.9750, 36482.00
942.0970, 36544.86
943.2180, 36555.00
944.3400, 36564.00
945.4610, 36553.00
946.5820, 36465.00
947.7030, 36701.00
948.8240, 36550.00
949.9450, 36790.00
951.0650, 36560.00
952.1860, 36488.00
953.3060, 36664.00
954.4260, 36777.00
955.5460, 36530.00
956.6650, 36639.00
957.7850, 36692.00
958.9040, 36679.00
960.0230, 36800.00
961.1420, 36807.00
962.2610, 36770.53
963.3800, 36468.00
964.4990, 36667.00
965.6170, 36644.00
966.7350, 36604.00
967.8530, 36722.00
968.9710, 36659.00
970.0890, 36929.00
971.2070, 36827.00
972.3240, 36563.00
973.4410, 36903.00
974.5580, 36687.00
975.6750, 36844.00
976.7920, 36984.00
977.9090, 37016.00
979.0250, 37092.12
980.1410, 37135.59
981.2580, 37152.00
982.3740, 37197.00
983.4890, 37261.00
984.6050, 37318.28
985.7200, 37322.00
986.8360, 37291.00
987.9510, 37170.00
989.0660, 37228.00
990.1810, 37507.00
991.2950, 37351.00
992.4100, 37563.00
993.5240, 37716.00
994.6390, 37767.00
995.7530, 37922.00
996.8660, 38024.00
997.9800, 38352.00
999.0940, 38475.00
1000.207, 38328.00
1001.320, 38490.00
1002.433, 38341.00
1003.546, 38349.00
1004.659, 38209.00
1005.772, 38409.00
1006.884, 38473.00
1007.996, 38418.00
1009.108, 38463.00
1010.220, 38616.00
1011.332, 38674.00
1012.444, 38798.00
1013.555, 38886.00
1014.666, 39023.71
1015.777, 39488.00
1016.888, 39446.00
1017.999, 39689.00
1019.110, 40178.00
1020.220, 40213.00
1021.331, 40638.00
1022.441, 40930.00
1023.551, 41393.00
1024.661, 41336.00
1025.770, 41472.00
1026.880, 41356.00
1027.989, 41256.00
1029.098, 41312.00
1030.207, 40771.00
1031.316, 40529.00
1032.425, 40243.00
1033.533, 40009.00
1034.642, 39994.00
1035.750, 39566.00
1036.858, 39729.00
1037.966, 39408.00
1039.073, 39397.00
1040.181, 39356.00
1041.288, 39449.00
1042.396, 39638.00
1043.503, 39484.00
1044.610, 39566.00
1045.716, 40011.00
1046.823, 40127.00
1047.929, 40390.00
1049.036, 40369.00
1050.142, 40638.00
1051.248, 41147.00
1052.353, 41212.00
1053.459, 41195.00
1054.564, 41484.00
1055.670, 41430.00
1056.775, 41811.00
1057.880, 41687.00
1058.985, 41375.00
1060.089, 41684.00
1061.194, 41818.00
1062.298, 41821.00
1063.402, 41784.00
1064.506, 41841.00
1065.610, 41687.00
1066.713, 41689.00
1067.817, 41589.00
1068.920, 41206.00
1070.023, 40987.00
1071.126, 40927.00
1072.229, 40709.00
1073.332, 40787.00
1074.435, 40615.00
1075.537, 40725.00
1076.639, 40515.00
1077.741, 40560.00
1078.843, 40383.00
1079.945, 40424.00
1081.046, 40727.00
1082.148, 40588.00
1083.249, 40679.00
1084.350, 40496.00
1085.451, 40705.00
1086.551, 40517.00
1087.652, 40916.00
1088.752, 40809.00
1089.853, 40615.00
1090.953, 40499.00
1092.053, 40375.00
1093.152, 40473.00
1094.252, 40527.00
1095.351, 40416.00
1096.451, 40563.00
1097.550, 40531.00
1098.649, 40542.00
1099.748, 40533.00
1100.846, 40593.53
1101.945, 40625.54
1103.043, 40678.00
1104.141, 40796.00
1105.239, 40707.00
1106.337, 40904.00
1107.434, 40745.00
1108.532, 40775.00
1109.629, 40794.00
1110.726, 40954.00
1111.823, 40887.00
1112.920, 40966.00
1114.017, 41267.00
1115.113, 40843.00
1116.210, 41117.00
1117.306, 40929.00
1118.402, 41096.00
1119.498, 41147.00
1120.593, 41220.00
1121.689, 41120.00
1122.784, 41047.00
1123.879, 41315.00
1124.974, 40939.00
1126.069, 41010.00
1127.164, 41277.00
1128.259, 41102.00
1129.353, 41529.00
1130.447, 41384.00
1131.541, 41215.00
1132.635, 41466.00
1133.729, 41176.00
1134.822, 41368.00
1135.916, 41404.00
1137.009, 41273.00
1138.102, 41388.00
1139.195, 41326.00
1140.288, 41623.00
1141.380, 41584.00
1142.473, 41557.00
1143.565, 41365.00
1144.657, 41436.00
1145.749, 41620.00
1146.841, 41649.00
1147.932, 41822.00
1149.024, 41819.88
1150.115, 41710.00
1151.206, 41793.00
1152.297, 41908.00
1153.388, 41866.00
1154.479, 41901.00
1155.569, 42061.00
1156.659, 42095.00
1157.750, 42080.56
1158.839, 42119.00
1159.929, 41986.00
1161.019, 42018.00
1162.108, 41952.00
1163.198, 42204.00
1164.287, 42213.00
1165.376, 42229.00
1166.465, 42255.00
1167.553, 42463.00
1168.642, 42441.00
1169.730, 42369.00
1170.818, 42239.00
1171.906, 42674.00
1172.994, 42420.00
1174.082, 42603.00
1175.170, 42675.00
1176.257, 42459.00
1177.344, 42715.00
1178.431, 42483.00
1179.518, 42446.00
1180.605, 42778.00
1181.691, 42847.00
1182.778, 42640.00
1183.864, 42426.00
1184.950, 42877.00
1186.036, 42980.00
1187.122, 42591.00
1188.207, 42734.00
1189.292, 42908.00
1190.378, 43033.00
1191.463, 42972.00
1192.548, 42990.00
1193.632, 42803.00
1194.717, 43179.00
1195.801, 43021.00
1196.886, 43017.00
1197.970, 43237.00
1199.054, 43260.00
1200.137, 43308.00
1201.221, 43394.00
1202.305, 43398.00
1203.388, 43520.18
1204.471, 43687.00
1205.554, 43664.09
1206.637, 44106.00
1207.719, 44047.00
1208.802, 44094.59
1209.884, 44497.00
1210.966, 44049.00
1212.048, 43652.00
1213.130, 43641.00
1214.212, 43547.00
1215.293, 43916.00
1216.374, 43838.00
1217.456, 44088.00
1218.536, 43877.00
1219.617, 44107.00
1220.698, 43972.00
1221.778, 44165.00
1222.859, 44125.00
1223.939, 43865.00
1225.019, 44176.00
1226.099, 44121.00
1227.178, 44310.00
1228.258, 44074.00
1229.337, 44269.00
1230.417, 44414.00
1231.496, 44312.00
1232.574, 44431.00
1233.653, 44391.00
1234.732, 44723.00
1235.810, 44677.00
1236.888, 44575.00
1237.966, 44899.00
1239.044, 44641.00
1240.122, 44742.00
1241.199, 44691.00
1242.277, 44820.00
1243.354, 44893.00
1244.431, 44898.74
1245.508, 45068.00
1246.585, 45025.00
1247.661, 45026.00
1248.738, 45231.00
1249.814, 45205.00
1250.890, 44803.00
1251.966, 45143.00
1253.042, 44758.00
1254.117, 44670.00
1255.193, 44903.00
1256.268, 44954.00
1257.343, 44887.00
1258.418, 44998.00
1259.493, 45095.00
1260.567, 45536.00
1261.642, 45435.00
1262.716, 45507.00
1263.790, 45825.00
1264.864, 45713.00
1265.938, 45598.00
1267.011, 45924.00
1268.085, 45723.00
1269.158, 45646.00
1270.231, 46084.00
1271.304, 45867.00
1272.377, 45781.00
1273.450, 46159.00
1274.522, 45803.00
1275.594, 45997.00
1276.666, 46137.00
1277.738, 45840.00
1278.810, 46485.00
1279.882, 46265.00
1280.953, 46166.00
1282.025, 46005.00
1283.096, 46026.00
1284.167, 46145.00
1285.238, 46192.00
1286.308, 46172.00
1287.379, 46310.00
1288.449, 46333.00
1289.519, 46240.00
1290.589, 46307.00
1291.659, 46691.00
1292.729, 46431.00
1293.798, 46660.00
1294.868, 46499.00
1295.937, 46853.00
1297.006, 46748.00
1298.075, 46477.00
1299.143, 46947.00
1300.212, 46784.00
1301.280, 46711.00
1302.348, 46490.00
1303.416, 46741.00
