##NAMES=Actinolite
##RRUFFID=R060041
##IDEAL CHEMISTRY=Ca_2_(Mg_4.5-2.5_Fe^2+^_0.5-2.5_)Si_8_O_22_(OH)_2_
##LOCALITY=Prince of Wales Island, Alaska, USA
##OWNER=RRUFF
##SOURCE=University of Arizona Mineral Museum
##DESCRIPTION=Green acicular crystals forming parallel groups in cylindrical or bladed forms
##STATUS=The identification of this mineral has been confirmed by X-ray diffraction and chemical analysis
##URL=rruff.info/R060041
##MEASURED CHEMISTRY=(Ca_0.97_Na_0.03_)_2_(Mg_0.65_Fe^2+^_0.29_Fe^3+^_0.04_Al_0.01_Mn_0.01_)_5_(Si_0.98_Al_0.02_)_8_O_22_(OH)_2_
95.94800, 8714.000
97.18200, 8702.000
98.41600, 8964.000
99.64900, 9025.000
100.8830, 9182.000
102.1160, 9203.000
103.3490, 9347.000
104.5820, 9535.000
105.8150, 9643.000
107.0470, 10077.00
108.2800, 10378.00
109.5120, 10742.00
110.7440, 10774.00
111.9760, 10431.00
113.2080, 10503.00
114.4400, 10558.00
115.6710, 10667.00
116.9030, 10857.00
118.1340, 10761.00
119.3650, 10856.00
120.5960, 10610.00
121.8270, 10446.00
123.0580, 10623.00
124.2880, 10616.00
125.5190, 10600.00
126.7490, 10526.00
127.9790, 10447.00
129.2090, 10696.00
130.4390, 10676.00
131.6680, 10791.00
132.8980, 10825.00
134.1270, 11029.00
135.3560, 11143.00
136.5850, 11290.00
137.8140, 11448.00
139.0430, 11892.00
140.2710, 12252.00
141.5000, 12775.00
142.7280, 13494.00
143.9560, 14443.00
145.1840, 15729.00
146.4120, 16894.00
147.6390, 18339.00
148.8670, 19767.00
150.0940, 21467.00
151.3210, 22482.00
152.5490, 22488.00
153.7750, 21612.00
155.0020, 19755.00
156.2290, 18487.00
157.4550, 16905.00
158.6810, 15781.00
159.9080, 15128.00
161.1340, 14643.00
162.3590, 14586.00
163.5850, 14844.00
164.8110, 15591.00
166.0360, 16547.00
167.2610, 17719.00
168.4860, 19092.00
169.7110, 21006.00
170.9360, 22982.00
172.1610, 25095.00
173.3850, 26274.00
174.6100, 26121.00
175.8340, 24676.00
177.0580, 22640.00
178.2820, 20771.00
179.5050, 18945.00
180.7290, 17129.00
181.9520, 16081.00
183.1760, 15127.00
184.3990, 14475.00
185.6220, 14184.00
186.8450, 14011.00
188.0670, 13919.00
189.2900, 13935.00
190.5120, 13854.00
191.7340, 13793.00
192.9560, 13969.00
194.1780, 13985.00
195.4000, 14150.00
196.6220, 14411.00
197.8430, 14435.00
199.0640, 14567.00
200.2860, 15058.00
201.5070, 15417.00
202.7270, 15861.00
203.9480, 16501.00
205.1690, 16966.00
206.3890, 17422.00
207.6090, 18344.00
208.8290, 19441.00
210.0490, 21156.00
211.2690, 22567.00
212.4890, 24301.00
213.7080, 26117.00
214.9280, 27780.00
216.1470, 29282.00
217.3660, 30118.00
218.5850, 30500.00
219.8030, 30120.00
221.0220, 28798.00
222.2400, 27108.00
223.4590, 25189.00
224.6770, 23344.00
225.8950, 21653.00
227.1120, 19918.00
228.3300, 18725.00
229.5480, 17507.00
230.7650, 16543.00
231.9820, 15856.00
233.1990, 15285.00
234.4160, 14781.00
235.6330, 14432.37
236.8490, 14195.00
238.0660, 13991.00
239.2820, 13877.00
240.4980, 13824.00
241.7140, 13656.00
242.9300, 13501.00
244.1460, 13637.00
245.3610, 13572.00
246.5770, 13582.00
247.7920, 13663.00
249.0070, 13429.00
250.2220, 13528.00
251.4370, 13415.00
252.6510, 13492.00
253.8660, 13377.00
255.0800, 13499.00
256.2940, 13461.00
257.5080, 13243.00
258.7220, 13476.00
259.9360, 13688.00
261.1490, 13689.00
262.3630, 13579.00
263.5760, 13415.00
264.7890, 13403.00
266.0020, 13373.00
267.2150, 13415.00
268.4270, 13359.00
269.6400, 13397.00
270.8520, 13338.00
272.0640, 13465.00
273.2760, 13494.00
274.4880, 13694.00
275.7000, 13640.00
276.9120, 13632.00
278.1230, 13693.00
279.3340, 13846.00
280.5450, 13776.00
281.7560, 13991.00
282.9670, 14081.00
284.1780, 14252.00
285.3880, 14082.00
286.5980, 14375.00
287.8090, 14434.00
289.0190, 14338.00
290.2290, 14479.00
291.4380, 14597.00
292.6480, 14658.00
293.8570, 14624.00
295.0670, 14602.00
296.2760, 14595.00
297.4850, 14592.00
298.6930, 14489.00
299.9020, 14544.00
301.1110, 14248.00
302.3190, 14251.00
303.5270, 14194.00
304.7350, 13898.00
305.9430, 13882.00
307.1510, 13976.00
308.3580, 13942.00
309.5660, 13814.00
310.7730, 13867.00
311.9800, 13980.00
313.1870, 13879.00
314.3940, 14043.00
315.6010, 13975.00
316.8070, 14028.00
318.0130, 13872.00
319.2200, 14114.00
320.4260, 14050.00
321.6310, 14249.00
322.8370, 14236.00
324.0430, 14413.00
325.2480, 14334.00
326.4540, 14497.00
327.6590, 14367.00
328.8640, 14513.00
330.0680, 14513.00
331.2730, 14644.00
332.4780, 14718.00
333.6820, 14606.00
334.8860, 14669.00
336.0900, 14671.00
337.2940, 14709.00
338.4980, 14736.00
339.7010, 14831.90
340.9050, 14837.00
342.1080, 15025.00
343.3110, 15137.00
344.5140, 15171.00
345.7170, 15222.00
346.9200, 15208.00
348.1220, 15112.00
349.3240, 15228.00
350.5270, 15091.00
351.7290, 15370.00
352.9310, 15368.00
354.1320, 15130.00
355.3340, 15415.00
356.5350, 15386.00
357.7370, 15590.00
358.9380, 15418.00
360.1390, 15613.00
361.3400, 15730.00
362.5400, 15677.00
363.7410, 15687.00
364.9410, 15640.00
366.1410, 15724.00
367.3410, 15570.00
368.5410, 15481.00
369.7410, 15197.00
370.9400, 15347.00
372.1400, 15281.00
373.3390, 15228.00
374.5380, 15281.00
375.7370, 15355.00
376.9360, 15492.00
378.1350, 15549.09
379.3330, 15576.00
380.5310, 15702.00
381.7300, 15874.00
382.9280, 15920.00
384.1260, 16012.00
385.3230, 16074.00
386.5210, 16062.95
387.7180, 16156.00
388.9160, 16041.00
390.1130, 15902.00
391.3100, 15919.00
392.5060, 15694.00
393.7030, 15610.00
394.9000, 15417.00
396.0960, 15476.00
397.2920, 15206.00
398.4880, 15148.00
399.6840, 15163.00
400.8800, 15061.00
402.0750, 15254.00
403.2710, 15309.00
404.4660, 15136.00
405.6610, 15194.00
406.8560, 15023.00
408.0510, 15085.00
409.2450, 14838.00
410.4400, 15013.00
411.6340, 15093.00
412.8280, 14964.00
414.0220, 14963.00
415.2160, 14815.00
416.4100, 14966.00
417.6030, 14898.00
418.7970, 14863.00
419.9900, 14884.67
421.1830, 14588.00
422.3760, 14830.00
423.5690, 14713.00
424.7610, 14680.00
425.9540, 14930.00
427.1460, 14813.00
428.3380, 14599.00
429.5300, 14782.00
430.7220, 14892.00
431.9140, 14903.00
433.1050, 14946.00
434.2970, 14955.00
435.4880, 14919.48
436.6790, 14911.58
437.8700, 14842.00
439.0610, 14804.00
440.2510, 14803.00
441.4420, 14684.00
442.6320, 14862.00
443.8220, 14647.00
445.0120, 14989.00
446.2020, 14961.00
447.3910, 14868.00
448.5810, 14896.00
449.7700, 14806.00
450.9600, 14970.00
452.1490, 14969.00
453.3370, 14988.00
454.5260, 14934.00
455.7150, 15033.00
456.9030, 14964.00
458.0910, 15118.00
459.2800, 15004.00
460.4670, 15076.00
461.6550, 15128.00
462.8430, 14989.00
464.0300, 15148.00
465.2180, 15041.00
466.4050, 15074.00
467.5920, 15224.00
468.7790, 15238.00
469.9650, 15172.00
471.1520, 15306.00
472.3380, 15251.00
473.5250, 15215.00
474.7110, 15409.00
475.8970, 15343.00
477.0820, 15404.00
478.2680, 15313.00
479.4540, 15324.00
480.6390, 15275.00
481.8240, 15314.00
483.0090, 15410.00
484.1940, 15481.00
485.3780, 15493.64
486.5630, 15392.00
487.7470, 15478.00
488.9320, 15443.00
490.1160, 15347.00
491.3000, 15458.00
492.4830, 15472.00
493.6670, 15645.00
494.8500, 15442.00
496.0340, 15677.00
497.2170, 15761.00
498.4000, 15737.00
499.5820, 15910.00
500.7650, 15777.00
501.9480, 15866.00
503.1300, 15957.00
504.3120, 15951.00
505.4940, 15967.00
506.6760, 16000.00
507.8580, 15895.00
509.0390, 16092.00
510.2210, 16040.00
511.4020, 16206.00
512.5830, 16176.00
513.7640, 16323.00
514.9450, 16227.00
516.1250, 16176.00
517.3060, 16413.00
518.4860, 16528.00
519.6660, 16372.00
520.8460, 16600.00
522.0260, 16652.00
523.2060, 16860.00
524.3850, 16869.00
525.5650, 16757.00
526.7440, 16881.00
527.9230, 16830.00
529.1020, 16726.00
530.2810, 16780.00
531.4590, 16793.00
532.6380, 16743.10
533.8160, 16568.00
534.9940, 16694.00
536.1720, 16636.00
537.3500, 16613.00
538.5270, 16666.00
539.7050, 16588.00
540.8820, 16633.00
542.0590, 16753.00
543.2360, 16574.00
544.4130, 16585.00
545.5900, 16661.00
546.7660, 16758.00
547.9430, 16605.00
549.1190, 16812.00
550.2950, 16628.00
551.4710, 16557.00
552.6470, 16464.00
553.8220, 16622.00
554.9980, 16558.00
556.1730, 16630.00
557.3480, 16859.00
558.5230, 16750.00
559.6980, 16841.44
560.8730, 16767.00
562.0470, 16801.00
563.2220, 16795.00
564.3960, 16682.00
565.5700, 16713.00
566.7440, 16832.00
567.9170, 16733.00
569.0910, 16680.00
570.2640, 16882.00
571.4380, 16999.00
572.6110, 16928.00
573.7840, 16714.00
574.9570, 16932.00
576.1290, 16817.00
577.3020, 17003.00
578.4740, 16982.00
579.6460, 16880.00
580.8180, 16903.00
581.9900, 16906.00
583.1620, 16828.00
584.3330, 16889.00
585.5040, 16937.00
586.6760, 16739.00
587.8470, 16642.00
589.0180, 16904.00
590.1880, 16890.00
591.3590, 16959.00
592.5290, 16843.00
593.7000, 16934.00
594.8700, 17047.00
596.0400, 16992.00
597.2090, 17267.00
598.3790, 17049.00
599.5490, 17150.00
600.7180, 17079.00
601.8870, 17386.00
603.0560, 17292.00
604.2250, 17319.00
605.3940, 17465.00
606.5620, 17418.00
607.7300, 17464.00
608.8990, 17510.00
610.0670, 17524.00
611.2350, 17377.00
612.4020, 17780.00
613.5700, 17424.00
614.7370, 17778.00
615.9050, 17977.00
617.0720, 17829.00
618.2390, 18002.00
619.4060, 17898.00
620.5720, 18095.00
621.7390, 18166.00
622.9050, 18090.00
624.0710, 18257.00
625.2370, 18329.00
626.4030, 18403.00
627.5690, 18656.00
628.7340, 18747.00
629.9000, 18833.00
631.0650, 18916.00
632.2300, 19117.00
633.3950, 19117.00
634.5600, 19381.00
635.7240, 19657.00
636.8890, 19741.00
638.0530, 19930.00
639.2170, 20180.00
640.3810, 20396.00
641.5450, 20726.00
642.7080, 21164.00
643.8720, 21510.00
645.0350, 21851.00
646.1980, 22193.00
647.3610, 22520.00
648.5240, 22914.00
649.6870, 23694.00
650.8490, 24073.00
652.0120, 24706.00
653.1740, 25615.00
654.3360, 26681.00
655.4980, 28379.00
656.6600, 29581.00
657.8210, 31701.00
658.9830, 34303.00
660.1440, 37277.00
661.3050, 41108.00
662.4660, 45184.00
663.6270, 49819.00
664.7870, 54219.00
665.9480, 58171.00
667.1080, 61115.00
668.2680, 61946.00
669.4280, 60458.00
670.5880, 57712.00
671.7480, 53544.00
672.9070, 48361.00
674.0670, 43187.00
675.2260, 38691.00
676.3850, 34800.00
677.5440, 31538.00
678.7030, 29204.00
679.8610, 27394.00
681.0200, 25666.00
682.1780, 24466.00
683.3360, 23851.00
684.4940, 23070.00
685.6520, 22620.00
686.8090, 21933.00
687.9670, 21841.00
689.1240, 21194.00
690.2810, 20961.00
691.4380, 20442.00
692.5950, 20321.00
693.7520, 20237.00
694.9080, 20151.00
696.0650, 20089.00
697.2210, 19989.06
698.3770, 19547.00
699.5330, 19739.00
700.6880, 19612.00
701.8440, 19349.00
702.9990, 19602.00
704.1550, 19437.00
705.3100, 19358.00
706.4650, 19202.00
707.6190, 19202.00
708.7740, 19143.54
709.9290, 19316.00
711.0830, 19166.00
712.2370, 19229.00
713.3910, 19355.00
714.5450, 19303.00
715.6980, 19213.00
716.8520, 19251.00
718.0050, 19144.00
719.1580, 19156.00
720.3110, 19036.00
721.4640, 19063.03
722.6170, 19084.14
723.7700, 19098.00
724.9220, 19216.00
726.0740, 19232.00
727.2260, 19366.00
728.3780, 19215.00
729.5300, 19213.00
730.6810, 19319.00
731.8330, 19471.00
732.9840, 19223.00
734.1350, 19417.00
735.2860, 19420.00
736.4370, 19733.00
737.5880, 19541.00
738.7380, 19536.00
739.8880, 19624.00
741.0390, 19501.00
742.1890, 19531.00
743.3380, 19649.00
744.4880, 19552.00
745.6380, 19679.00
746.7870, 19738.00
747.9360, 19739.00
749.0850, 19741.00
750.2340, 19753.71
751.3830, 19634.00
752.5310, 19672.00
753.6800, 19649.00
754.8280, 19452.00
755.9760, 19384.00
757.1240, 19563.00
758.2720, 19418.00
759.4190, 19444.00
760.5670, 19518.00
761.7140, 19724.00
762.8610, 19768.00
764.0080, 19685.00
765.1550, 19663.00
766.3020, 19586.00
767.4480, 19731.00
768.5950, 19663.00
769.7410, 19869.00
770.8870, 19654.00
772.0330, 19862.00
773.1780, 19598.00
774.3240, 19685.00
775.4690, 19892.00
776.6140, 19803.00
777.7590, 19934.00
778.9040, 19899.00
780.0490, 19878.00
781.1940, 19927.00
782.3380, 19974.00
783.4820, 19826.00
784.6260, 20072.00
785.7700, 19830.00
786.9140, 19671.00
788.0580, 20097.00
789.2010, 19964.00
790.3450, 20034.00
791.4880, 20022.00
792.6310, 19999.00
793.7730, 20093.00
794.9160, 19990.00
796.0590, 19984.00
797.2010, 20160.00
798.3430, 19921.00
799.4850, 20016.00
800.6270, 19928.00
801.7690, 19898.00
802.9100, 19893.00
804.0520, 20294.00
805.1930, 20224.00
806.3340, 20209.00
807.4750, 20377.00
808.6160, 20019.00
809.7560, 20277.00
810.8970, 20063.00
812.0370, 20378.00
813.1770, 20304.00
814.3170, 20274.00
815.4570, 20413.00
816.5960, 20556.00
817.7360, 20503.00
818.8750, 20546.00
820.0140, 20637.00
821.1530, 20623.00
822.2920, 20383.00
823.4310, 20600.00
824.5690, 20449.00
825.7070, 20566.00
826.8460, 20457.00
827.9840, 20551.00
829.1220, 20673.00
830.2590, 20760.00
831.3970, 20742.00
832.5340, 20688.00
833.6710, 20640.00
834.8080, 20872.00
835.9450, 20635.00
837.0820, 20820.00
838.2190, 20657.00
839.3550, 20790.00
840.4910, 20853.00
841.6270, 20902.00
842.7630, 21019.00
843.8990, 21033.00
845.0350, 20910.00
846.1700, 20977.00
847.3060, 20977.00
848.4410, 21047.00
849.5760, 21055.13
850.7100, 21067.06
851.8450, 21047.00
852.9800, 21131.00
854.1140, 21061.00
855.2480, 21202.00
856.3820, 21023.00
857.5160, 21036.00
858.6500, 21322.00
859.7830, 21252.00
860.9170, 21224.00
862.0500, 21289.00
863.1830, 21398.00
864.3160, 21395.00
865.4480, 21489.48
866.5810, 21519.00
867.7130, 21614.00
868.8460, 21540.00
869.9780, 21575.00
871.1100, 21512.00
872.2410, 21402.00
873.3730, 21611.00
874.5050, 21504.00
875.6360, 21595.00
876.7670, 21936.00
877.8980, 21826.00
879.0290, 21795.00
880.1590, 21775.00
881.2900, 21908.00
882.4200, 21810.00
883.5500, 21845.00
884.6800, 21870.00
885.8100, 22098.00
886.9400, 22064.00
888.0690, 22158.00
889.1990, 22052.00
890.3280, 22157.00
891.4570, 22248.00
892.5860, 22177.00
893.7140, 22291.00
894.8430, 22331.00
895.9710, 22423.00
897.1000, 22421.00
898.2280, 22614.00
899.3560, 22731.00
900.4830, 22706.00
901.6110, 22724.00
902.7380, 22712.00
903.8660, 22620.00
904.9930, 23050.00
906.1200, 23034.00
907.2460, 22916.00
908.3730, 23300.00
909.5000, 23377.00
910.6260, 23534.00
911.7520, 23534.00
912.8780, 23808.00
914.0040, 23581.00
915.1290, 23873.00
916.2550, 24188.00
917.3800, 24591.00
918.5050, 24930.00
919.6300, 25257.00
920.7550, 25611.00
921.8800, 25937.00
923.0040, 26416.00
924.1290, 26690.00
925.2530, 27025.00
926.3770, 27354.00
927.5010, 27579.00
928.6250, 27425.00
929.7480, 26975.00
930.8720, 26834.00
931.9950, 26465.00
933.1180, 26033.00
934.2410, 25584.00
935.3640, 25320.00
936.4860, 25080.01
937.6090, 25006.00
938.7310, 24866.00
939.8530, 24961.00
940.9750, 25062.00
942.0970, 24883.00
943.2180, 24948.00
944.3400, 24864.00
945.4610, 24852.00
946.5820, 24897.00
947.7030, 24699.00
948.8240, 24525.00
949.9450, 24638.00
951.0650, 24612.00
952.1860, 24352.00
953.3060, 24375.00
954.4260, 24463.00
955.5460, 24454.00
956.6650, 24438.67
957.7850, 24162.00
958.9040, 24348.00
960.0230, 24305.00
961.1420, 24248.00
962.2610, 24334.00
963.3800, 24141.00
964.4990, 24267.00
965.6170, 24299.00
966.7350, 24443.00
967.8530, 24260.00
968.9710, 24290.00
970.0890, 24026.00
971.2070, 24398.00
972.3240, 24322.00
973.4410, 24295.00
974.5580, 24457.00
975.6750, 24311.00
976.7920, 24382.00
977.9090, 24470.00
979.0250, 24372.00
980.1410, 24405.00
981.2580, 24456.00
982.3740, 24378.00
983.4890, 24691.00
984.6050, 24496.00
985.7200, 24628.00
986.8360, 24755.00
987.9510, 24653.00
989.0660, 24506.00
990.1810, 24834.00
991.2950, 24653.00
992.4100, 24671.00
993.5240, 24874.00
994.6390, 24948.00
995.7530, 24915.00
996.8660, 24944.00
997.9800, 25026.00
999.0940, 25144.00
1000.207, 25180.00
1001.320, 25395.00
1002.433, 25175.00
1003.546, 25513.00
1004.659, 25362.00
1005.772, 25590.00
1006.884, 25783.00
1007.996, 25605.00
1009.108, 25827.00
1010.220, 26069.00
1011.332, 26034.00
1012.444, 26060.00
1013.555, 26228.02
1014.666, 26550.00
1015.777, 26526.00
1016.888, 26553.00
1017.999, 26801.00
1019.110, 26814.00
1020.220, 26956.00
1021.331, 27194.00
1022.441, 27272.00
1023.551, 27443.00
1024.661, 27232.00
1025.770, 27558.00
1026.880, 27861.00
1027.989, 27751.00
1029.098, 28080.00
1030.207, 28135.00
1031.316, 28185.00
1032.425, 28165.00
1033.533, 28486.00
1034.642, 28440.00
1035.750, 28711.00
1036.858, 29094.00
1037.966, 29563.00
1039.073, 30231.81
1040.181, 31167.00
1041.288, 31936.00
1042.396, 32806.00
1043.503, 34000.00
1044.610, 34957.00
1045.716, 36540.00
1046.823, 37836.00
1047.929, 39128.00
1049.036, 40461.00
1050.142, 41472.00
1051.248, 42375.00
1052.353, 42600.93
1053.459, 42858.00
1054.564, 42217.00
1055.670, 41264.00
1056.775, 40260.00
1057.880, 38810.00
1058.985, 37160.00
1060.089, 36096.00
1061.194, 35595.00
1062.298, 34903.00
1063.402, 34137.00
1064.506, 33743.00
1065.610, 32996.00
1066.713, 32073.00
1067.817, 30917.00
1068.920, 30646.00
1070.023, 29548.00
1071.126, 29256.00
1072.229, 28769.00
1073.332, 28153.00
1074.435, 27733.00
1075.537, 27438.00
1076.639, 27293.00
1077.741, 27190.00
1078.843, 27058.00
1079.945, 26995.54
1081.046, 26845.00
1082.148, 26849.00
1083.249, 26684.00
1084.350, 26519.00
1085.451, 26605.00
1086.551, 26468.00
1087.652, 26489.00
1088.752, 26439.00
1089.853, 26480.00
1090.953, 26305.00
1092.053, 26364.00
1093.152, 26506.00
1094.252, 26246.00
1095.351, 26414.00
1096.451, 26381.00
1097.550, 26272.00
1098.649, 26287.00
1099.748, 26408.00
1100.846, 26409.00
1101.945, 26289.00
1103.043, 26366.00
1104.141, 26289.00
1105.239, 26206.00
1106.337, 26437.00
1107.434, 26015.00
1108.532, 26578.00
1109.629, 26341.00
1110.726, 26316.00
1111.823, 26317.00
1112.920, 26358.00
1114.017, 26354.00
1115.113, 26280.00
1116.210, 26362.00
1117.306, 26336.00
1118.402, 26492.00
1119.498, 26484.00
1120.593, 26611.00
1121.689, 26587.00
1122.784, 26429.00
1123.879, 26331.00
1124.974, 26646.00
1126.069, 26414.00
1127.164, 26566.00
1128.259, 26483.00
1129.353, 26556.00
1130.447, 26592.00
1131.541, 26464.00
1132.635, 26674.00
1133.729, 26473.00
1134.822, 26576.00
1135.916, 26649.00
1137.009, 26787.00
1138.102, 26633.00
1139.195, 26636.00
1140.288, 26413.00
1141.380, 26631.00
1142.473, 26593.00
1143.565, 26819.00
1144.657, 26731.00
1145.749, 26754.00
1146.841, 26712.00
1147.932, 26963.00
1149.024, 26755.00
1150.115, 26825.00
1151.206, 26538.00
1152.297, 26728.00
1153.388, 26898.00
1154.479, 26816.00
1155.569, 26771.00
1156.659, 27087.00
1157.750, 26821.00
1158.839, 26874.00
1159.929, 26862.00
1161.019, 26957.00
1162.108, 27038.00
1163.198, 26747.00
1164.287, 26978.00
1165.376, 27093.00
1166.465, 26992.00
1167.553, 27266.00
1168.642, 27214.00
1169.730, 26918.00
1170.818, 27175.00
1171.906, 27159.00
1172.994, 27149.00
1174.082, 27142.00
1175.170, 27149.98
1176.257, 27261.00
1177.344, 27170.00
1178.431, 27366.00
1179.518, 27377.00
1180.605, 27378.00
1181.691, 27393.00
1182.778, 27359.00
1183.864, 27259.00
1184.950, 27225.00
1186.036, 27618.00
1187.122, 27319.00
1188.207, 27555.00
1189.292, 27308.00
1190.378, 27505.00
1191.463, 27491.00
1192.548, 27614.00
1193.632, 27400.00
1194.717, 27715.00
1195.801, 27433.00
1196.886, 27560.00
1197.970, 27538.00
1199.054, 27717.00
1200.137, 27713.00
1201.221, 27774.00
1202.305, 27855.00
1203.388, 27664.00
1204.471, 27697.00
1205.554, 27720.19
1206.637, 27985.00
1207.719, 27784.00
1208.802, 28035.00
1209.884, 28039.00
1210.966, 28128.00
1212.048, 28041.00
1213.130, 27885.00
1214.212, 27882.00
1215.293, 27882.00
1216.374, 28070.00
1217.456, 28176.00
1218.536, 28103.00
1219.617, 28257.00
1220.698, 28196.00
1221.778, 28210.00
1222.859, 28482.00
1223.939, 28350.00
1225.019, 28227.00
1226.099, 28123.00
1227.178, 28347.00
1228.258, 28298.00
1229.337, 28380.00
1230.417, 28446.00
1231.496, 28157.00
1232.574, 28477.00
1233.653, 28400.00
1234.732, 28570.00
1235.810, 28797.00
1236.888, 28368.00
1237.966, 28370.00
1239.044, 28660.00
1240.122, 28239.00
1241.199, 28593.00
1242.277, 28634.00
1243.354, 28698.00
1244.431, 28651.00
1245.508, 28677.00
1246.585, 28730.84
1247.661, 28645.00
1248.738, 28855.00
1249.814, 28847.00
1250.890, 28927.00
1251.966, 29174.00
1253.042, 28866.00
1254.117, 29158.00
1255.193, 29143.00
1256.268, 28928.00
1257.343, 29314.00
1258.418, 29293.00
1259.493, 29090.00
1260.567, 28932.00
1261.642, 29231.00
1262.716, 29052.00
1263.790, 29352.00
1264.864, 29225.00
1265.938, 29272.00
1267.011, 29153.00
1268.085, 29094.00
1269.158, 29501.00
1270.231, 29236.00
1271.304, 29404.00
1272.377, 29362.00
1273.450, 29352.00
1274.522, 29358.00
