##NAMES=Actinolite
##RRUFFID=R060041
##IDEAL CHEMISTRY=Ca_2_(Mg_4.5-2.5_Fe^2+^_0.5-2.5_)Si_8_O_22_(OH)_2_
##LOCALITY=Prince of Wales Island, Alaska, USA
##OWNER=RRUFF
##SOURCE=University of Arizona Mineral Museum
##DESCRIPTION=Green acicular crystals forming parallel groups in cylindrical or bladed forms
##STATUS=The identification of this mineral has been confirmed by X-ray diffraction and chemical analysis
##URL=rruff.info/R060041
##MEASURED CHEMISTRY=(Ca_0.97_Na_0.03_)_2_(Mg_0.65_Fe^2+^_0.29_Fe^3+^_0.04_Al_0.01_Mn_0.01_)_5_(Si_0.98_Al_0.02_)_8_O_22_(OH)_2_
95.94800, 11901.00
97.18200, 11975.46
98.41600, 11942.00
99.64900, 12258.00
100.8830, 12447.00
102.1160, 12525.00
103.3490, 12548.00
104.5820, 13041.00
105.8150, 13600.00
107.0470, 14379.00
108.2800, 14962.00
109.5120, 15780.00
110.7440, 15826.00
111.9760, 15078.00
113.2080, 14708.00
114.4400, 14956.00
115.6710, 15452.00
116.9030, 15340.00
118.1340, 15325.00
119.3650, 15055.00
120.5960, 14997.95
121.8270, 14924.25
123.0580, 14691.00
124.2880, 14804.00
125.5190, 14546.00
126.7490, 14447.00
127.9790, 14744.00
129.2090, 15109.00
130.4390, 15155.00
131.6680, 15343.00
132.8980, 15306.00
134.1270, 15404.00
135.3560, 15516.00
136.5850, 15543.00
137.8140, 15824.00
139.0430, 16136.00
140.2710, 16524.00
141.5000, 17056.00
142.7280, 17680.00
143.9560, 18685.00
145.1840, 20136.00
146.4120, 21264.00
147.6390, 22609.00
148.8670, 23752.00
150.0940, 24449.00
151.3210, 24511.45
152.5490, 24734.00
153.7750, 23479.00
155.0020, 22208.00
156.2290, 20713.00
157.4550, 19384.00
158.6810, 18556.00
159.9080, 17817.00
161.1340, 17333.00
162.3590, 17531.00
163.5850, 17948.00
164.8110, 18318.00
166.0360, 19267.00
167.2610, 20352.00
168.4860, 21315.00
169.7110, 23049.00
170.9360, 24499.00
172.1610, 25903.00
173.3850, 26262.00
174.6100, 26033.00
175.8340, 24825.00
177.0580, 23683.00
178.2820, 22269.00
179.5050, 20690.00
180.7290, 19329.00
181.9520, 18434.00
183.1760, 17766.00
184.3990, 17237.00
185.6220, 17220.00
186.8450, 17180.00
188.0670, 17213.00
189.2900, 17260.00
190.5120, 17312.00
191.7340, 17363.00
192.9560, 17706.00
194.1780, 17656.00
195.4000, 17972.00
196.6220, 17940.00
197.8430, 18333.00
199.0640, 18493.00
200.2860, 19161.00
201.5070, 19532.00
202.7270, 20082.00
203.9480, 20253.00
205.1690, 20743.00
206.3890, 20950.00
207.6090, 21675.00
208.8290, 22570.00
210.0490, 23782.00
211.2690, 25109.00
212.4890, 26664.00
213.7080, 27991.00
214.9280, 29513.00
216.1470, 30628.00
217.3660, 31252.00
218.5850, 31538.00
219.8030, 31581.00
221.0220, 30228.00
222.2400, 29171.00
223.4590, 27679.00
224.6770, 26578.00
225.8950, 24951.00
227.1120, 23814.00
228.3300, 22670.00
229.5480, 21675.00
230.7650, 20580.00
231.9820, 20151.00
233.1990, 19452.00
234.4160, 19256.00
235.6330, 18862.00
236.8490, 18442.00
238.0660, 18235.00
239.2820, 17952.00
240.4980, 17853.00
241.7140, 17752.00
242.9300, 17742.00
244.1460, 17803.00
245.3610, 17611.00
246.5770, 17533.00
247.7920, 17376.00
249.0070, 17445.00
250.2220, 17323.00
251.4370, 17389.00
252.6510, 17366.00
253.8660, 17089.00
255.0800, 16981.00
256.2940, 16811.00
257.5080, 17051.00
258.7220, 17032.00
259.9360, 17395.00
261.1490, 17201.16
262.3630, 17738.00
263.5760, 16850.00
264.7890, 16669.00
266.0020, 16429.00
267.2150, 16559.00
268.4270, 16610.00
269.6400, 16593.00
270.8520, 16740.00
272.0640, 16572.00
273.2760, 16525.00
274.4880, 16661.00
275.7000, 16703.00
276.9120, 16742.00
278.1230, 16761.00
279.3340, 16804.94
280.5450, 16866.00
281.7560, 16905.00
282.9670, 17043.00
284.1780, 17161.00
285.3880, 17201.63
286.5980, 17223.00
287.8090, 17353.00
289.0190, 17349.00
290.2290, 17513.00
291.4380, 17569.00
292.6480, 17541.00
293.8570, 17627.00
295.0670, 17507.00
296.2760, 17501.00
297.4850, 17587.00
298.6930, 17268.00
299.9020, 17088.00
301.1110, 17419.00
302.3190, 17355.00
303.5270, 17149.00
304.7350, 17342.00
305.9430, 17146.00
307.1510, 17350.00
308.3580, 16965.00
309.5660, 17114.00
310.7730, 17158.00
311.9800, 17288.00
313.1870, 17320.00
314.3940, 17257.00
315.6010, 17343.00
316.8070, 17133.00
318.0130, 17189.00
319.2200, 17395.00
320.4260, 17565.00
321.6310, 17410.00
322.8370, 17772.00
324.0430, 17821.00
325.2480, 17876.00
326.4540, 18070.00
327.6590, 17996.00
328.8640, 18285.00
330.0680, 18366.00
331.2730, 18517.00
332.4780, 18679.00
333.6820, 18649.00
334.8860, 19040.00
336.0900, 18877.00
337.2940, 19039.00
338.4980, 19053.00
339.7010, 19265.00
340.9050, 19419.00
342.1080, 19554.00
343.3110, 19506.00
344.5140, 19805.00
345.7170, 19749.00
346.9200, 19807.00
348.1220, 20055.00
349.3240, 20161.00
350.5270, 20180.00
351.7290, 20344.00
352.9310, 20332.00
354.1320, 20527.00
355.3340, 20653.00
356.5350, 20917.00
357.7370, 20998.47
358.9380, 21104.64
360.1390, 21177.00
361.3400, 21192.00
362.5400, 21211.00
363.7410, 21161.00
364.9410, 21126.00
366.1410, 20918.00
367.3410, 20644.00
368.5410, 20553.00
369.7410, 20251.00
370.9400, 20172.17
372.1400, 20172.00
373.3390, 19970.00
374.5380, 19839.00
375.7370, 19706.00
376.9360, 19996.00
378.1350, 20144.00
379.3330, 20308.00
380.5310, 20408.00
381.7300, 20546.18
382.9280, 20496.00
384.1260, 20724.00
385.3230, 20800.00
386.5210, 20767.00
387.7180, 20418.00
388.9160, 20576.00
390.1130, 20210.00
391.3100, 20166.00
392.5060, 19835.00
393.7030, 19808.00
394.9000, 19681.00
396.0960, 19294.00
397.2920, 19207.00
398.4880, 19270.00
399.6840, 19196.00
400.8800, 19119.00
402.0750, 19113.00
403.2710, 19057.04
404.4660, 19036.00
405.6610, 18991.00
406.8560, 19040.00
408.0510, 18992.00
409.2450, 18686.00
410.4400, 18793.00
411.6340, 18688.00
412.8280, 18686.00
414.0220, 18801.00
415.2160, 18645.00
416.4100, 18612.44
417.6030, 18314.00
418.7970, 18417.00
419.9900, 18273.00
421.1830, 18236.00
422.3760, 18128.00
423.5690, 18260.00
424.7610, 18254.00
425.9540, 18382.00
427.1460, 18505.00
428.3380, 18587.00
429.5300, 18518.00
430.7220, 18739.00
431.9140, 18740.00
433.1050, 18752.00
434.2970, 18515.00
435.4880, 18612.00
436.6790, 18496.00
437.8700, 18110.00
439.0610, 18101.00
440.2510, 18086.00
441.4420, 17983.00
442.6320, 17876.00
443.8220, 18049.00
445.0120, 17771.00
446.2020, 17984.00
447.3910, 17764.00
448.5810, 17906.00
449.7700, 17940.00
450.9600, 17909.00
452.1490, 18007.00
453.3370, 17991.00
454.5260, 18009.64
455.7150, 18025.00
456.9030, 18031.00
458.0910, 17968.00
459.2800, 17978.00
460.4670, 18071.00
461.6550, 18036.00
462.8430, 18191.00
464.0300, 18140.00
465.2180, 17986.00
466.4050, 18128.00
467.5920, 18264.00
468.7790, 18127.00
469.9650, 18136.00
471.1520, 18259.00
472.3380, 18238.00
473.5250, 18288.00
474.7110, 18462.00
475.8970, 18468.00
477.0820, 18442.00
478.2680, 18326.00
479.4540, 18495.00
480.6390, 18493.00
481.8240, 18509.00
483.0090, 18505.00
484.1940, 18647.00
485.3780, 18579.00
486.5630, 18753.00
487.7470, 18692.00
488.9320, 18737.00
490.1160, 18632.00
491.3000, 18771.00
492.4830, 18929.00
493.6670, 18629.00
494.8500, 18896.00
496.0340, 18909.00
497.2170, 19035.00
498.4000, 19219.00
499.5820, 19269.00
500.7650, 19379.00
501.9480, 19298.00
503.1300, 19358.00
504.3120, 19410.00
505.4940, 19522.00
506.6760, 19769.00
507.8580, 19742.00
509.0390, 19913.00
510.2210, 19881.00
511.4020, 20068.00
512.5830, 20115.00
513.7640, 20129.00
514.9450, 20531.00
516.1250, 20350.00
517.3060, 20610.00
518.4860, 20859.00
519.6660, 21087.00
520.8460, 21257.91
522.0260, 21276.00
523.2060, 21429.00
524.3850, 21552.00
525.5650, 21361.00
526.7440, 21340.00
527.9230, 21120.00
529.1020, 21060.00
530.2810, 21034.00
531.4590, 20655.00
532.6380, 20490.00
533.8160, 20452.00
534.9940, 20218.00
536.1720, 20128.00
537.3500, 20058.00
538.5270, 20210.00
539.7050, 20133.00
540.8820, 20209.00
542.0590, 19824.00
543.2360, 19859.00
544.4130, 19909.00
545.5900, 19815.00
546.7660, 19862.00
547.9430, 19956.00
549.1190, 20033.00
550.2950, 19994.00
551.4710, 19917.00
552.6470, 19839.00
553.8220, 19782.00
554.9980, 19848.00
556.1730, 19821.00
557.3480, 19853.00
558.5230, 19872.00
559.6980, 19856.00
560.8730, 19766.00
562.0470, 20030.00
563.2220, 20139.00
564.3960, 20128.67
565.5700, 20128.07
566.7440, 20134.00
567.9170, 20028.00
569.0910, 19965.00
570.2640, 20177.00
571.4380, 20054.00
572.6110, 20028.47
573.7840, 20052.25
574.9570, 19922.00
576.1290, 19998.00
577.3020, 20107.00
578.4740, 20118.00
579.6460, 19991.00
580.8180, 20054.00
581.9900, 19967.00
583.1620, 19902.00
584.3330, 20012.00
585.5040, 20032.00
586.6760, 19806.00
587.8470, 19683.00
589.0180, 19755.43
590.1880, 20083.00
591.3590, 19905.00
592.5290, 20125.00
593.7000, 20249.00
594.8700, 20208.24
596.0400, 20247.00
597.2090, 20254.00
598.3790, 20198.00
599.5490, 20212.00
600.7180, 20342.00
601.8870, 20168.00
603.0560, 20308.00
604.2250, 20533.00
605.3940, 20487.00
606.5620, 20540.00
607.7300, 20526.00
608.8990, 20545.00
610.0670, 20674.00
611.2350, 20819.00
612.4020, 20656.00
613.5700, 20596.00
614.7370, 20772.75
615.9050, 21052.00
617.0720, 20923.00
618.2390, 21148.00
619.4060, 20886.00
620.5720, 20995.00
621.7390, 21258.00
622.9050, 21466.00
624.0710, 21590.00
625.2370, 21582.00
626.4030, 21774.00
627.5690, 22066.00
628.7340, 22353.00
629.9000, 22333.00
631.0650, 22639.79
632.2300, 22712.00
633.3950, 22963.00
634.5600, 23267.00
635.7240, 23299.00
636.8890, 23510.00
638.0530, 23890.00
639.2170, 24112.00
640.3810, 24387.30
641.5450, 24723.95
642.7080, 24925.00
643.8720, 25350.00
645.0350, 25671.00
646.1980, 25962.00
647.3610, 26151.00
648.5240, 26531.00
649.6870, 26956.00
650.8490, 27731.00
652.0120, 28405.00
653.1740, 29047.00
654.3360, 30268.00
655.4980, 31563.00
656.6600, 33257.00
657.8210, 35489.00
658.9830, 37689.00
660.1440, 40727.00
661.3050, 44423.00
662.4660, 47825.00
663.6270, 52189.00
664.7870, 56283.00
665.9480, 58739.00
667.1080, 60826.00
668.2680, 61599.00
669.4280, 60501.00
670.5880, 57511.00
671.7480, 53780.00
672.9070, 49440.00
674.0670, 45043.00
675.2260, 41088.00
676.3850, 37897.00
677.5440, 35366.00
678.7030, 33280.00
679.8610, 31772.00
681.0200, 30400.00
682.1780, 29297.00
683.3360, 28493.00
684.4940, 27608.00
685.6520, 27306.00
686.8090, 26895.00
687.9670, 26088.00
689.1240, 25772.00
690.2810, 25426.00
691.4380, 25055.00
692.5950, 24568.00
693.7520, 24344.00
694.9080, 24035.00
696.0650, 24201.00
697.2210, 23870.00
698.3770, 23527.00
699.5330, 23637.00
700.6880, 23412.00
701.8440, 23210.00
702.9990, 22891.00
704.1550, 22854.00
705.3100, 22940.00
706.4650, 23173.00
707.6190, 22896.00
708.7740, 22989.00
709.9290, 22839.00
711.0830, 22692.00
712.2370, 22980.00
713.3910, 23008.00
714.5450, 22706.00
715.6980, 22771.00
716.8520, 22743.00
718.0050, 22845.00
719.1580, 22793.00
720.3110, 22822.00
721.4640, 22845.13
722.6170, 22863.00
723.7700, 22847.00
724.9220, 22946.00
726.0740, 22910.00
727.2260, 22948.00
728.3780, 23079.00
729.5300, 23116.00
730.6810, 23181.00
731.8330, 23329.00
732.9840, 23141.00
734.1350, 23455.00
735.2860, 23290.00
736.4370, 23586.00
737.5880, 23446.00
738.7380, 23550.00
739.8880, 23283.00
741.0390, 23575.00
742.1890, 23428.00
743.3380, 23550.00
744.4880, 23697.00
745.6380, 23316.00
746.7870, 23526.00
747.9360, 23647.00
749.0850, 23406.00
750.2340, 23414.00
751.3830, 23179.00
752.5310, 23499.00
753.6800, 23317.00
754.8280, 23269.00
755.9760, 23369.00
757.1240, 23151.00
758.2720, 23237.00
759.4190, 23380.00
760.5670, 23397.00
761.7140, 23379.00
762.8610, 23445.60
764.0080, 23363.00
765.1550, 23479.00
766.3020, 23374.00
767.4480, 23375.00
768.5950, 23522.00
769.7410, 23410.00
770.8870, 23331.00
772.0330, 23518.00
773.1780, 23403.00
774.3240, 23270.00
775.4690, 23464.00
776.6140, 23333.00
777.7590, 23554.00
778.9040, 23599.00
780.0490, 23548.00
781.1940, 23510.00
782.3380, 23513.39
783.4820, 23415.00
784.6260, 23449.00
785.7700, 23511.00
786.9140, 23420.00
788.0580, 23480.00
789.2010, 23468.00
790.3450, 23517.00
791.4880, 23409.00
792.6310, 23680.00
793.7730, 23441.00
794.9160, 23488.00
796.0590, 23642.00
797.2010, 23635.00
798.3430, 23719.00
799.4850, 23667.00
800.6270, 23411.00
801.7690, 23311.00
802.9100, 23451.00
804.0520, 23598.00
805.1930, 23842.00
806.3340, 23746.00
807.4750, 23906.00
808.6160, 23747.00
809.7560, 23775.00
810.8970, 23866.00
812.0370, 23964.00
813.1770, 23923.00
814.3170, 24033.00
815.4570, 24143.00
816.5960, 24025.00
817.7360, 23983.00
818.8750, 24019.00
820.0140, 24053.00
821.1530, 24152.00
822.2920, 24091.00
823.4310, 24208.00
824.5690, 24072.00
825.7070, 24357.00
826.8460, 24379.00
827.9840, 24351.00
829.1220, 24289.00
830.2590, 24362.00
831.3970, 24433.00
832.5340, 24199.00
833.6710, 24369.00
834.8080, 24489.00
835.9450, 24639.00
837.0820, 24529.00
838.2190, 24698.00
839.3550, 24638.00
840.4910, 24507.00
841.6270, 24693.00
842.7630, 24608.00
843.8990, 24856.00
845.0350, 24841.00
846.1700, 24799.00
847.3060, 25072.00
848.4410, 25106.00
849.5760, 24364.00
850.7100, 24847.00
851.8450, 24754.00
852.9800, 25091.00
854.1140, 25057.00
855.2480, 24917.00
856.3820, 24854.00
857.5160, 25166.00
858.6500, 25124.00
859.7830, 25435.00
860.9170, 25318.00
862.0500, 25407.69
863.1830, 25544.00
864.3160, 25451.00
865.4480, 25311.00
866.5810, 25322.00
867.7130, 25442.00
868.8460, 25604.00
869.9780, 25653.00
871.1100, 25510.00
872.2410, 25710.00
873.3730, 25563.00
874.5050, 25645.00
875.6360, 25855.00
876.7670, 25856.00
877.8980, 25776.00
879.0290, 25932.00
880.1590, 25939.00
881.2900, 25871.00
882.4200, 25923.00
883.5500, 25997.00
884.6800, 26005.00
885.8100, 26309.00
886.9400, 26383.00
888.0690, 26382.00
889.1990, 26463.00
890.3280, 26461.00
891.4570, 26569.00
892.5860, 26632.00
893.7140, 26718.00
894.8430, 26798.00
895.9710, 27249.00
897.1000, 27084.00
898.2280, 27153.00
899.3560, 27334.00
900.4830, 27110.00
901.6110, 27217.00
902.7380, 27214.00
903.8660, 27453.00
904.9930, 27530.00
906.1200, 27556.00
907.2460, 27786.00
908.3730, 27932.00
909.5000, 27833.00
910.6260, 27931.00
911.7520, 28244.00
912.8780, 28524.00
914.0040, 28684.00
915.1290, 28947.00
916.2550, 28998.00
917.3800, 29259.00
918.5050, 29707.00
919.6300, 30269.00
920.7550, 30256.00
921.8800, 30788.00
923.0040, 31118.00
924.1290, 31702.00
925.2530, 31738.00
926.3770, 31960.00
927.5010, 32384.00
928.6250, 32012.00
929.7480, 31901.00
930.8720, 31372.00
931.9950, 30827.00
933.1180, 30827.00
934.2410, 30332.00
935.3640, 29920.00
936.4860, 29798.00
937.6090, 29809.00
938.7310, 29609.00
939.8530, 29857.00
940.9750, 29795.00
942.0970, 29575.00
943.2180, 29577.00
944.3400, 29471.00
945.4610, 29814.00
946.5820, 29679.00
947.7030, 29632.00
948.8240, 29425.00
949.9450, 29431.00
951.0650, 29354.00
952.1860, 29258.00
953.3060, 29059.00
954.4260, 29302.00
955.5460, 29087.00
956.6650, 29137.00
957.7850, 29143.00
958.9040, 29393.00
960.0230, 29160.00
961.1420, 29239.00
962.2610, 29028.00
963.3800, 29292.00
964.4990, 29527.00
965.6170, 29171.00
966.7350, 29118.00
967.8530, 29168.00
968.9710, 29455.00
970.0890, 29199.00
971.2070, 29311.00
972.3240, 29198.00
973.4410, 29295.00
974.5580, 29373.00
975.6750, 29493.00
976.7920, 29368.00
977.9090, 29473.00
979.0250, 29397.00
980.1410, 29558.00
981.2580, 29508.00
982.3740, 29579.00
983.4890, 29734.00
984.6050, 29732.08
985.7200, 29838.00
986.8360, 29843.00
987.9510, 29823.00
989.0660, 29851.00
990.1810, 29935.00
991.2950, 30084.00
992.4100, 30134.00
993.5240, 30260.27
994.6390, 30331.00
995.7530, 30368.00
996.8660, 30470.00
997.9800, 30427.00
999.0940, 30739.00
1000.207, 31022.00
1001.320, 30854.00
1002.433, 31145.00
1003.546, 31264.00
1004.659, 31311.00
1005.772, 31722.00
1006.884, 31930.00
1007.996, 32075.00
1009.108, 32492.00
1010.220, 32635.00
1011.332, 32903.00
1012.444, 33120.00
1013.555, 33604.00
1014.666, 33823.00
1015.777, 33840.00
1016.888, 33726.00
1017.999, 34357.00
1019.110, 34459.00
1020.220, 34618.00
1021.331, 34913.00
1022.441, 34686.00
1023.551, 35143.00
1024.661, 35236.00
1025.770, 35511.00
1026.880, 35327.00
1027.989, 35261.00
1029.098, 35017.00
1030.207, 35011.00
1031.316, 34700.00
1032.425, 34625.00
1033.533, 34250.00
1034.642, 34364.00
1035.750, 34604.00
1036.858, 35181.00
1037.966, 35413.00
1039.073, 36165.00
1040.181, 36554.00
1041.288, 37447.00
1042.396, 38480.00
1043.503, 39298.78
1044.610, 41110.00
1045.716, 41448.00
1046.823, 42666.00
1047.929, 43951.00
1049.036, 44710.00
1050.142, 45956.00
1051.248, 46386.00
1052.353, 46780.00
1053.459, 46392.00
1054.564, 45459.00
1055.670, 44924.00
1056.775, 43573.00
1057.880, 42674.00
1058.985, 41804.00
1060.089, 40903.00
1061.194, 40370.00
1062.298, 39692.87
1063.402, 39363.00
1064.506, 38579.00
1065.610, 37944.00
1066.713, 37232.00
1067.817, 36351.00
1068.920, 35586.00
1070.023, 35113.00
1071.126, 34244.00
1072.229, 34008.00
1073.332, 33385.00
1074.435, 33004.00
1075.537, 32728.00
1076.639, 32452.82
1077.741, 32384.00
1078.843, 32243.00
1079.945, 32219.00
1081.046, 32284.00
1082.148, 32236.00
1083.249, 31824.00
1084.350, 31816.00
1085.451, 31942.00
1086.551, 31758.00
1087.652, 31877.00
1088.752, 31919.00
1089.853, 31620.00
1090.953, 31954.00
1092.053, 31660.00
1093.152, 31930.00
1094.252, 31593.00
1095.351, 31754.00
1096.451, 31641.00
1097.550, 31955.00
1098.649, 31832.00
1099.748, 31599.00
1100.846, 31656.00
1101.945, 31582.00
1103.043, 31747.00
1104.141, 31820.00
1105.239, 31641.00
1106.337, 31736.00
1107.434, 31633.00
1108.532, 31528.00
1109.629, 31695.00
1110.726, 31655.00
1111.823, 31823.00
1112.920, 31752.00
1114.017, 31869.00
1115.113, 31544.00
1116.210, 31435.00
1117.306, 31552.00
1118.402, 31942.00
1119.498, 31923.00
1120.593, 32197.00
1121.689, 32089.00
1122.784, 31915.00
1123.879, 31869.00
1124.974, 32000.00
1126.069, 32131.00
1127.164, 32108.00
1128.259, 31885.00
1129.353, 32018.00
1130.447, 32087.00
1131.541, 31842.00
1132.635, 31997.00
1133.729, 31850.00
1134.822, 31865.00
1135.916, 32049.00
1137.009, 32143.00
1138.102, 32094.00
1139.195, 32131.00
1140.288, 32302.00
1141.380, 32216.00
1142.473, 32209.00
1143.565, 32292.00
1144.657, 32127.00
1145.749, 31956.00
1146.841, 32112.00
1147.932, 32321.00
1149.024, 32336.00
1150.115, 32188.00
1151.206, 32112.00
1152.297, 32343.00
1153.388, 32385.00
1154.479, 32485.00
1155.569, 32452.00
1156.659, 32512.00
1157.750, 32220.00
1158.839, 32492.00
1159.929, 32302.00
1161.019, 32600.00
1162.108, 32368.00
1163.198, 32426.00
1164.287, 32716.00
1165.376, 32685.00
1166.465, 32713.00
1167.553, 32568.00
1168.642, 32727.00
1169.730, 32669.00
1170.818, 32679.00
1171.906, 32613.00
1172.994, 32715.00
1174.082, 32842.00
1175.170, 32969.00
1176.257, 33103.00
1177.344, 32879.00
1178.431, 32946.00
1179.518, 33096.00
1180.605, 33200.00
1181.691, 32953.00
1182.778, 33022.00
1183.864, 33155.00
1184.950, 33143.00
1186.036, 33274.24
1187.122, 33282.00
1188.207, 33395.00
1189.292, 33420.00
1190.378, 33442.87
1191.463, 33434.00
1192.548, 33483.00
1193.632, 33445.29
1194.717, 33487.00
1195.801, 33385.00
1196.886, 33298.00
1197.970, 33166.00
1199.054, 33435.00
1200.137, 33612.00
1201.221, 33644.00
1202.305, 33987.00
1203.388, 33640.00
1204.471, 33595.00
1205.554, 33715.00
1206.637, 33776.00
1207.719, 33953.00
1208.802, 33841.00
1209.884, 33875.00
1210.966, 34085.00
1212.048, 33967.00
1213.130, 33933.00
1214.212, 34127.00
1215.293, 34348.00
1216.374, 34420.00
1217.456, 34166.00
1218.536, 34378.00
1219.617, 34256.00
1220.698, 34240.00
1221.778, 34340.00
1222.859, 34353.00
1223.939, 34408.00
1225.019, 34553.00
1226.099, 34265.00
1227.178, 34517.00
1228.258, 34628.00
1229.337, 34522.00
1230.417, 34727.00
1231.496, 34573.00
1232.574, 34390.00
1233.653, 34721.00
1234.732, 34685.00
1235.810, 34997.00
1236.888, 34745.00
1237.966, 34771.00
1239.044, 34736.00
1240.122, 34767.80
1241.199, 34761.00
1242.277, 35027.00
1243.354, 34987.00
1244.431, 35220.00
1245.508, 35059.00
1246.585, 35122.00
1247.661, 35152.00
1248.738, 35147.00
1249.814, 35172.30
1250.890, 35330.00
1251.966, 35186.00
1253.042, 35271.00
1254.117, 35311.00
1255.193, 35551.00
1256.268, 35388.00
1257.343, 35638.00
1258.418, 35725.00
1259.493, 35202.00
1260.567, 35546.00
1261.642, 35341.00
1262.716, 35677.00
1263.790, 35625.00
1264.864, 35886.00
1265.938, 35777.00
1267.011, 35882.00
1268.085, 36101.00
1269.158, 35846.00
1270.231, 35998.00
1271.304, 35963.00
1272.377, 36390.00
1273.450, 35937.00
1274.522, 36346.00
