##NAMES=Actinolite
##RRUFFID=R050336
##IDEAL CHEMISTRY=Ca_2_(Mg_4.5-2.5_Fe^2+^_0.5-2.5_)Si_8_O_22_(OH)_2_
##LOCALITY=Kragerø, Norway
##OWNER=RRUFF
##SOURCE=California Institute of Technology
##DESCRIPTION=Dark green prismatic fragment
##STATUS=The identification of this mineral has been confirmed by X-ray diffraction and chemical analysis
##URL=rruff.info/R050336
##MEASURED CHEMISTRY=([box]_0.62_Na_0.34_K_0.04_)(Ca_1.60_Na_0.40_)_Σ=2_(Mg_3.90_Fe^2+^_0.70_Al_0.20_Ti_0.10_Fe^3+^_0.10_)_Σ=5_(Si_7.52_Al_0.48_)_Σ=8_O_22_((OH)_0.97_F_0.03_)_2_
##PIN_ID=M00348
##ORIENTATION=Laser parallel to (1 0 1). Fiducial mark perpendicular to laser is parallel to b [0 1 0]
62.34500, 259.0000
63.58900, 240.0000
64.83300, 213.0000
66.07600, 213.0000
67.32000, 279.0000
68.56300, 261.0000
69.80600, 257.0000
71.04900, 360.0000
72.29100, 382.0000
73.53400, 464.0000
74.77600, 522.0000
76.01800, 655.0000
77.26000, 662.0000
78.50200, 764.0000
79.74300, 903.0000
80.98500, 1195.000
82.22600, 1825.000
83.46700, 1708.107
84.70800, 3167.000
85.94900, 1882.000
87.18900, 2168.000
88.42900, 2619.000
89.67000, 3835.000
90.91000, 3836.000
92.14900, 4041.000
93.38900, 4233.000
94.62900, 4383.000
95.86800, 4587.000
97.10700, 4771.000
98.34600, 5103.000
99.58500, 5442.000
100.8230, 5723.000
102.0620, 6029.000
103.3000, 6690.000
104.5380, 7488.000
105.7760, 8392.000
107.0140, 8929.000
108.2510, 8955.000
109.4890, 9207.000
110.7260, 9672.000
111.9630, 10150.00
113.2000, 10639.00
114.4360, 11603.00
115.6730, 12071.00
116.9090, 11852.00
118.1450, 11592.00
119.3810, 11048.00
120.6170, 10911.00
121.8530, 10755.00
123.0880, 10321.00
124.3230, 10192.71
125.5590, 9616.624
126.7930, 9621.677
128.0280, 9554.816
129.2630, 9062.753
130.4970, 9229.707
131.7310, 9320.744
132.9650, 9339.942
134.1990, 9473.573
135.4330, 9431.000
136.6670, 9652.000
137.9000, 9892.000
139.1330, 10003.00
140.3660, 10071.00
141.5990, 10033.00
142.8320, 10037.00
144.0640, 10093.00
145.2960, 10443.00
146.5290, 10678.00
147.7610, 10893.00
148.9920, 11014.00
150.2240, 11501.00
151.4550, 11798.19
152.6870, 12588.20
153.9180, 13301.79
155.1490, 13943.55
156.3800, 14298.30
157.6100, 15226.00
158.8400, 17393.00
160.0710, 18611.00
161.3010, 18954.00
162.5310, 18553.00
163.7600, 18829.00
164.9900, 19155.00
166.2190, 19486.00
167.4480, 19787.00
168.6770, 20343.00
169.9060, 21321.00
171.1350, 22290.00
172.3630, 23447.00
173.5920, 24658.00
174.8200, 25983.00
176.0480, 27288.00
177.2760, 28374.00
178.5030, 29603.00
179.7310, 29960.00
180.9580, 29914.00
182.1850, 29272.00
183.4120, 28224.00
184.6390, 26746.00
185.8650, 25131.00
187.0920, 24105.00
188.3180, 22119.00
189.5440, 20689.00
190.7700, 19748.00
191.9960, 19059.00
193.2210, 18331.00
194.4470, 17917.00
195.6720, 17618.00
196.8970, 17489.00
198.1220, 17405.00
199.3460, 17598.00
200.5710, 17694.00
201.7950, 18008.75
203.0190, 18339.00
204.2430, 18873.00
205.4670, 19702.00
206.6910, 20366.43
207.9140, 21586.31
209.1370, 22910.00
210.3610, 24361.00
211.5840, 26517.00
212.8060, 28321.00
214.0290, 30445.00
215.2510, 33227.00
216.4740, 35648.00
217.6960, 38542.00
218.9180, 41290.00
220.1390, 43489.00
221.3610, 45401.00
222.5820, 47113.00
223.8030, 47656.00
225.0240, 47687.00
226.2450, 46557.00
227.4660, 44585.00
228.6870, 41659.00
229.9070, 37926.00
231.1270, 35378.00
232.3470, 31378.00
233.5670, 28732.00
234.7870, 26020.00
236.0060, 23658.00
237.2250, 21631.00
238.4440, 19925.00
239.6630, 18466.00
240.8820, 17298.00
242.1010, 16758.00
243.3190, 15202.00
244.5380, 15088.00
245.7560, 14061.00
246.9740, 13705.00
248.1910, 13367.00
249.4090, 12875.00
250.6260, 12827.00
251.8440, 12541.00
253.0610, 12385.00
254.2780, 12211.00
255.4940, 12012.81
256.7110, 11848.23
257.9270, 11687.00
259.1430, 11473.00
260.3600, 11323.00
261.5750, 11098.00
262.7910, 10908.00
264.0070, 10795.00
265.2220, 10835.00
266.4370, 10657.00
267.6520, 10436.00
268.8670, 10472.00
270.0820, 10456.37
271.2960, 10438.99
272.5100, 10645.62
273.7250, 10780.51
274.9390, 10893.77
276.1520, 10846.61
277.3660, 10916.49
278.5790, 10980.19
279.7930, 10829.00
281.0060, 10841.00
282.2190, 11019.00
283.4320, 11225.00
284.6440, 11594.00
285.8570, 11842.58
287.0690, 12025.00
288.2810, 12284.59
289.4930, 12383.08
290.7050, 12493.31
291.9160, 12548.00
293.1270, 12578.00
294.3390, 12604.00
295.5500, 12579.00
296.7610, 12512.00
297.9710, 12431.00
299.1820, 12465.00
300.3920, 12655.00
301.6020, 12590.00
302.8120, 12594.00
304.0220, 12623.26
305.2320, 12570.00
306.4410, 12497.00
307.6510, 12316.00
308.8600, 12047.00
310.0690, 12106.00
311.2780, 11806.03
312.4860, 12066.06
313.6950, 12250.24
314.9030, 12362.52
316.1110, 12187.78
317.3190, 12383.65
318.5270, 12300.00
319.7350, 12682.00
320.9420, 12714.00
322.1490, 12997.00
323.3570, 13291.00
324.5630, 13536.00
325.7700, 13938.00
326.9770, 14228.00
328.1830, 14570.00
329.3900, 14991.00
330.5960, 15190.00
331.8020, 15489.00
333.0070, 15743.00
334.2130, 15891.00
335.4180, 16046.48
336.6230, 16156.27
337.8290, 16256.00
339.0330, 16248.00
340.2380, 16413.00
341.4430, 16353.04
342.6470, 16545.00
343.8510, 16601.00
345.0550, 16654.00
346.2590, 16707.79
347.4630, 16705.00
348.6660, 16768.00
349.8700, 16874.00
351.0730, 17011.00
352.2760, 17043.00
353.4790, 17129.00
354.6810, 17443.00
355.8840, 17591.00
357.0860, 18045.00
358.2880, 18508.00
359.4900, 19051.00
360.6920, 20003.00
361.8940, 20858.00
363.0950, 22449.00
364.2960, 23310.17
365.4980, 24247.00
366.6990, 25368.00
367.8990, 26257.00
369.1000, 26955.00
370.3000, 27185.80
371.5010, 27301.00
372.7010, 26826.00
373.9010, 25963.00
375.1010, 24942.00
376.3000, 23695.00
377.5000, 22634.00
378.6990, 21268.00
379.8980, 20186.00
381.0970, 19257.00
382.2960, 18469.00
383.4940, 17913.00
384.6920, 17614.00
385.8910, 17204.00
387.0890, 16756.00
388.2870, 16728.00
389.4840, 16568.00
390.6820, 16367.00
391.8790, 16191.00
393.0770, 15954.00
394.2740, 15774.00
395.4700, 15488.00
396.6670, 14632.00
397.8640, 14211.00
399.0600, 13364.00
400.2560, 12643.00
401.4520, 12190.69
402.6480, 11810.00
403.8440, 11277.00
405.0390, 10966.00
406.2350, 10700.00
407.4300, 10624.00
408.6250, 10476.00
409.8200, 10397.56
411.0140, 10352.15
412.2090, 10283.13
413.4030, 10105.35
414.5970, 10213.54
415.7910, 10245.82
416.9850, 10206.25
418.1790, 9879.684
419.3720, 9923.776
420.5660, 9819.292
421.7590, 9708.773
422.9520, 9805.030
424.1440, 9520.313
425.3370, 9613.292
426.5300, 9555.480
427.7220, 9562.000
428.9140, 9597.000
430.1060, 9423.000
431.2980, 9479.000
432.4890, 9541.000
433.6810, 9614.000
434.8720, 9421.000
436.0630, 9401.000
437.2540, 9401.000
438.4450, 9306.000
439.6350, 9223.000
440.8260, 8867.000
442.0160, 9086.000
443.2060, 9157.000
444.3960, 8795.000
445.5860, 8723.000
446.7750, 8618.181
447.9650, 8463.000
449.1540, 8394.000
450.3430, 8369.000
451.5320, 8252.000
452.7210, 8152.000
453.9090, 8134.565
455.0980, 8058.325
456.2860, 8102.000
457.4740, 8001.000
458.6620, 8034.000
459.8500, 8047.000
461.0370, 8083.000
462.2250, 8032.229
463.4120, 7962.000
464.5990, 7935.000
465.7860, 7851.000
466.9720, 7836.000
468.1590, 7799.000
469.3450, 7749.783
470.5320, 7793.000
471.7180, 7685.000
472.9030, 7687.000
474.0890, 7685.000
475.2750, 7569.000
476.4600, 7537.000
477.6450, 7650.000
478.8300, 7535.000
480.0150, 7554.776
481.2000, 7543.456
482.3840, 7507.000
483.5690, 7503.000
484.7530, 7499.000
485.9370, 7498.000
487.1210, 7521.000
488.3040, 7443.000
489.4880, 7559.000
490.6710, 7521.000
491.8540, 7643.000
493.0370, 7867.000
494.2200, 8259.000
495.4030, 8582.315
496.5850, 8605.296
497.7680, 8815.941
498.9500, 8640.000
500.1320, 8969.000
501.3140, 9058.474
502.4950, 9197.984
503.6770, 9799.000
504.8580, 10015.00
506.0390, 10372.00
507.2200, 10789.00
508.4010, 11115.00
509.5820, 11434.00
510.7620, 11778.00
511.9420, 11914.00
513.1230, 12192.00
514.3030, 12450.01
515.4820, 12660.00
516.6620, 12870.00
517.8420, 12865.00
519.0210, 12853.00
520.2000, 12689.00
521.3790, 12863.00
522.5580, 12649.00
523.7360, 12774.00
524.9150, 12745.00
526.0930, 12748.05
527.2710, 12854.49
528.4490, 12850.00
529.6270, 12948.00
530.8050, 13035.00
531.9820, 12922.00
533.1590, 12853.12
534.3360, 12671.70
535.5130, 12501.00
536.6900, 12216.00
537.8670, 11988.00
539.0430, 11725.85
540.2200, 11672.35
541.3960, 11576.79
542.5720, 11441.33
543.7470, 11146.54
544.9230, 11057.52
546.0980, 10886.11
547.2740, 10711.20
548.4490, 10651.29
549.6240, 10500.00
550.7990, 10579.12
551.9730, 10441.85
553.1480, 10379.33
554.3220, 10347.00
555.4960, 10227.00
556.6700, 10255.00
557.8440, 10269.00
559.0170, 10245.00
560.1910, 10217.00
561.3640, 10200.00
562.5370, 10179.67
563.7100, 10186.38
564.8830, 10155.00
566.0550, 10174.00
567.2280, 10183.00
568.4000, 10098.00
569.5720, 10206.00
570.7440, 10119.09
571.9160, 10000.00
573.0870, 9956.000
574.2590, 9817.000
575.4300, 9580.000
576.6010, 9473.000
577.7720, 9394.000
578.9430, 9154.000
580.1140, 9079.000
581.2840, 8717.000
582.4540, 8648.000
583.6240, 8465.000
584.7940, 8282.166
585.9640, 8190.000
587.1340, 7982.000
588.3030, 7849.000
589.4720, 7664.000
590.6410, 7784.111
591.8100, 7701.000
592.9790, 7661.527
594.1480, 7362.000
595.3160, 7557.000
596.4840, 7323.000
597.6520, 7172.000
598.8200, 7292.000
599.9880, 7295.000
601.1560, 7361.000
602.3230, 7302.000
603.4900, 7402.000
604.6570, 7389.000
605.8240, 7450.000
606.9910, 7537.000
608.1580, 7620.000
609.3240, 7596.000
610.4900, 7626.000
611.6570, 7856.000
612.8230, 7845.000
613.9880, 8036.000
615.1540, 8202.000
616.3190, 8303.000
617.4850, 8368.000
618.6500, 8477.000
619.8150, 8582.000
620.9790, 8963.000
622.1440, 8946.000
623.3080, 9131.000
624.4730, 9422.000
625.6370, 9929.000
626.8010, 10170.25
627.9640, 10407.05
629.1280, 10834.00
630.2910, 10825.00
631.4550, 11048.00
632.6180, 11401.00
633.7810, 11830.00
634.9440, 12267.00
636.1060, 12781.00
637.2690, 13372.00
638.4310, 14030.00
639.5930, 14539.00
640.7550, 15243.00
641.9170, 16062.00
643.0780, 16881.11
644.2400, 17866.00
645.4010, 18874.00
646.5620, 20089.00
647.7230, 21345.00
648.8840, 22321.00
650.0450, 23583.00
651.2050, 24815.00
652.3650, 26190.00
653.5250, 27738.00
654.6850, 29179.00
655.8450, 30791.00
657.0050, 32266.00
658.1640, 34230.00
659.3230, 36168.00
660.4830, 39723.00
661.6420, 43499.00
662.8000, 46742.00
663.9590, 51336.00
665.1170, 58992.00
666.2760, 63583.00
667.4340, 70412.00
668.5920, 77356.00
669.7500, 84329.00
670.9070, 90410.00
672.0650, 95908.00
673.2220, 97868.00
674.3790, 99219.00
675.5360, 95153.00
676.6930, 89283.00
677.8500, 80776.00
679.0060, 71352.00
680.1620, 61928.00
681.3190, 53750.00
682.4750, 46748.00
683.6300, 40531.00
684.7860, 36067.00
685.9420, 32101.00
687.0970, 28761.68
688.2520, 26567.00
689.4070, 24267.00
690.5620, 22362.00
691.7170, 20934.00
692.8710, 19829.00
694.0250, 18690.00
695.1800, 18189.00
696.3340, 17473.00
697.4870, 16536.00
698.6410, 15750.00
699.7950, 15257.00
700.9480, 14822.00
702.1010, 14587.00
703.2540, 14401.00
704.4070, 13971.00
705.5600, 13794.00
706.7120, 13513.00
707.8640, 13608.00
709.0170, 13324.00
710.1690, 13422.00
711.3210, 13278.00
712.4720, 13359.00
713.6240, 13407.00
714.7750, 13201.59
715.9260, 13448.44
717.0770, 13619.36
718.2280, 13718.45
719.3790, 13530.53
720.5290, 13713.15
721.6800, 13747.31
722.8300, 13775.32
723.9800, 13990.00
725.1300, 14065.00
726.2800, 14255.00
727.4290, 14371.00
728.5790, 14410.00
729.7280, 14589.00
730.8770, 14628.00
732.0260, 14681.00
733.1750, 14497.38
734.3230, 14654.41
735.4720, 14735.51
736.6200, 14744.78
737.7680, 14467.05
738.9160, 14559.93
740.0640, 14504.28
741.2110, 14442.55
742.3590, 14587.59
743.5060, 14202.00
744.6530, 14129.00
745.8000, 13657.00
746.9470, 13414.00
748.0930, 13200.00
749.2400, 12730.00
750.3860, 12713.00
751.5320, 12226.03
752.6780, 12160.01
753.8240, 12018.07
754.9690, 11804.50
756.1150, 11303.71
757.2600, 11173.73
758.4050, 10895.23
759.5500, 10610.65
760.6950, 10532.83
761.8400, 10073.99
762.9840, 10146.00
764.1280, 9933.000
765.2730, 9864.000
766.4170, 9925.000
767.5600, 9777.000
768.7040, 9695.000
769.8470, 9655.392
770.9910, 9596.496
772.1340, 9607.000
773.2770, 9479.000
774.4200, 9498.374
775.5620, 9435.000
776.7050, 9511.000
777.8470, 9551.000
778.9890, 9621.000
780.1310, 9539.000
781.2730, 9385.731
782.4150, 9559.062
783.5570, 9656.474
784.6980, 9682.046
785.8390, 9420.612
786.9800, 9529.787
788.1210, 9490.439
789.2620, 9445.001
790.4020, 9606.338
791.5430, 9386.648
792.6830, 9544.706
793.8230, 9551.974
794.9630, 9628.255
796.1020, 9555.095
797.2420, 9326.146
798.3810, 9446.681
799.5210, 9491.247
800.6600, 9464.022
801.7990, 9149.788
802.9370, 9206.211
804.0760, 9114.065
805.2140, 9015.874
806.3530, 9124.409
807.4910, 8851.967
808.6290, 8816.620
809.7660, 8958.631
810.9040, 9024.694
812.0420, 9018.918
813.1790, 8726.161
814.3160, 8804.017
815.4530, 8733.347
816.5900, 8656.586
817.7260, 8786.630
818.8630, 8535.619
819.9990, 8662.382
821.1350, 8638.356
822.2710, 8683.344
823.4070, 8578.890
824.5430, 8520.592
825.6780, 8611.813
826.8130, 8620.260
827.9490, 8498.604
829.0840, 8548.004
830.2180, 8291.854
831.3530, 8303.826
832.4880, 8344.000
833.6220, 8204.000
834.7560, 8176.000
835.8900, 8141.000
837.0240, 8009.000
838.1580, 7912.000
839.2910, 7880.000
840.4250, 7892.000
841.5580, 7796.000
842.6910, 7788.000
843.8240, 7787.000
844.9560, 7776.000
846.0890, 7739.000
847.2210, 7822.861
848.3540, 7742.599
849.4860, 7950.000
850.6180, 7777.829
851.7490, 7979.135
852.8810, 8104.545
854.0120, 8158.094
855.1440, 7924.659
856.2750, 8061.811
857.4060, 8050.438
858.5360, 8032.951
859.6670, 8222.264
860.7980, 8030.549
861.9280, 8120.000
863.0580, 8158.000
864.1880, 8213.999
865.3180, 8269.161
866.4470, 8344.000
867.5770, 8454.000
868.7060, 8471.000
869.8350, 8572.000
870.9640, 8712.000
872.0930, 8690.000
873.2220, 8904.000
874.3500, 8999.000
875.4790, 9026.000
876.6070, 9071.000
877.7350, 9221.000
878.8630, 9348.000
879.9900, 9475.000
881.1180, 9425.217
882.2450, 9718.795
883.3730, 9936.558
884.5000, 10082.38
885.6260, 9941.077
886.7530, 10170.50
887.8800, 10251.39
889.0060, 10326.09
890.1320, 10607.00
891.2580, 10663.00
892.3840, 10772.00
893.5100, 10848.00
894.6360, 10939.00
895.7610, 11000.00
896.8860, 11012.67
898.0120, 11250.49
899.1360, 11412.27
900.2610, 11502.27
901.3860, 11305.26
902.5100, 11478.80
903.6350, 11503.88
904.7590, 11656.90
905.8830, 11652.87
907.0070, 11811.00
908.1300, 11755.00
909.2540, 11786.00
910.3770, 11905.00
911.5000, 11903.00
912.6230, 12007.00
913.7460, 11959.00
914.8690, 12108.00
915.9910, 12288.00
917.1140, 12410.00
918.2360, 12717.00
919.3580, 12875.84
920.4800, 13331.00
921.6020, 13315.00
922.7230, 13488.00
923.8440, 13734.00
924.9660, 13795.00
926.0870, 14175.00
927.2080, 14409.00
928.3280, 14517.00
929.4490, 14478.00
930.5700, 14398.00
931.6900, 14316.00
932.8100, 14220.00
933.9300, 14156.00
935.0500, 13997.00
936.1690, 13892.67
937.2890, 13803.14
938.4080, 13757.39
939.5270, 13563.65
940.6460, 13741.25
941.7650, 13842.93
942.8840, 13872.77
944.0020, 13615.60
945.1200, 13729.04
946.2390, 13693.96
947.3570, 13652.79
948.4750, 13618.71
949.5920, 13521.70
950.7100, 13415.00
951.8270, 13282.00
952.9440, 13107.00
954.0610, 12911.00
955.1780, 12820.00
956.2950, 12556.00
957.4120, 12471.00
958.5280, 12288.42
959.6440, 12139.00
960.7600, 12035.00
961.8760, 11899.00
962.9920, 11933.00
964.1080, 11837.00
965.2230, 11804.00
966.3380, 11595.00
967.4540, 11424.41
968.5690, 11556.46
969.6830, 11612.63
970.7980, 11596.92
971.9120, 11294.25
973.0270, 11362.14
974.1410, 11281.55
975.2550, 11194.87
976.3690, 11314.97
977.4820, 11054.07
978.5960, 11170.89
979.7090, 11136.95
980.8230, 11171.99
981.9360, 11095.00
983.0490, 11136.00
984.1610, 11122.00
985.2740, 11094.00
986.3860, 11212.00
987.4980, 11178.00
988.6110, 11030.00
989.7220, 11156.00
990.8340, 11107.00
991.9460, 11281.00
993.0570, 11205.00
994.1690, 11481.00
995.2800, 11549.00
996.3910, 11548.00
997.5010, 11836.00
998.6120, 11855.00
999.7230, 12345.00
1000.833, 12378.28
1001.943, 12613.00
1003.053, 12716.00
1004.163, 12962.00
1005.273, 13352.00
1006.382, 13380.00
1007.492, 14047.00
1008.601, 14173.39
1009.710, 14254.00
1010.819, 14632.00
1011.927, 14818.00
1013.036, 14933.00
1014.144, 14968.00
1015.253, 15354.00
1016.361, 15518.00
1017.469, 15816.00
1018.576, 15849.00
1019.684, 16059.00
1020.791, 16303.00
1021.899, 16352.00
1023.006, 16659.05
1024.113, 17028.00
1025.220, 17258.00
1026.326, 17497.00
1027.433, 17989.00
1028.539, 17966.00
1029.645, 18398.00
1030.751, 18855.25
1031.857, 19023.15
1032.963, 19132.64
1034.068, 19186.85
1035.174, 19020.30
1036.279, 19015.00
1037.384, 18891.08
1038.489, 19117.10
1039.594, 19355.79
1040.698, 19610.05
1041.803, 19903.68
1042.907, 20175.31
1044.011, 20592.53
1045.115, 21076.00
1046.219, 21580.00
1047.323, 22556.00
1048.426, 23338.00
1049.529, 24202.00
1050.632, 25057.00
1051.735, 26037.00
1052.838, 27050.54
1053.941, 28025.86
1055.043, 29083.00
1056.146, 29881.00
1057.248, 30614.00
1058.350, 31083.00
1059.452, 31435.00
1060.554, 31514.00
1061.655, 30864.00
1062.757, 30134.00
1063.858, 29205.00
1064.959, 28157.00
1066.060, 26703.00
1067.161, 25211.00
1068.261, 23944.00
1069.362, 22104.00
1070.462, 20833.00
1071.562, 19507.00
1072.662, 18322.00
1073.762, 17297.00
1074.862, 16416.00
1075.961, 15333.59
1077.061, 14934.58
1078.160, 14477.65
1079.259, 13965.47
1080.358, 13232.53
1081.456, 12785.16
1082.555, 12223.07
1083.653, 12083.00
1084.751, 11792.00
1085.850, 11444.00
1086.947, 11181.40
1088.045, 10923.00
1089.143, 10643.00
1090.240, 10274.00
1091.338, 9977.000
1092.435, 9871.000
1093.532, 9785.000
1094.628, 9350.000
1095.725, 9288.000
1096.822, 9378.000
1097.918, 9040.000
1099.014, 8779.738
1100.110, 8834.961
1101.206, 8831.776
1102.302, 8773.338
1103.397, 8494.195
1104.493, 8500.059
1105.588, 8391.751
1106.683, 8278.758
1107.778, 8324.823
1108.873, 8077.781
1109.967, 8121.393
1111.062, 8048.943
1112.156, 8029.648
1113.250, 7895.399
1114.344, 7840.000
1115.438, 7753.000
1116.531, 7653.787
1117.625, 7558.000
1118.718, 7484.000
1119.811, 7445.000
1120.904, 7387.000
1121.997, 7339.000
1123.090, 7166.000
1124.183, 7052.000
1125.275, 6993.000
1126.367, 6884.821
1127.459, 6832.541
1128.551, 6775.000
1129.643, 6759.000
1130.735, 6762.000
1131.826, 6792.000
1132.917, 6627.000
1134.008, 6516.000
1135.099, 6437.000
1136.190, 6473.000
1137.281, 6275.733
1138.371, 6375.586
1139.462, 6417.005
1140.552, 6403.198
1141.642, 6168.616
1142.732, 6219.114
1143.821, 6155.398
1144.911, 6086.966
1146.000, 6177.624
1147.090, 5975.153
1148.179, 6063.287
1149.268, 6035.429
1150.356, 6060.688
1151.445, 5970.963
1152.533, 5916.773
1153.622, 5977.545
1154.710, 5974.676
1155.798, 5871.748
1156.886, 5900.381
1157.973, 5693.985
1159.061, 5693.828
1160.148, 5680.000
1161.235, 5676.000
1162.322, 5584.000
1163.409, 5636.258
1164.496, 5595.834
1165.583, 5672.000
1166.669, 5600.000
1167.755, 5529.000
1168.841, 5577.000
1169.927, 5514.000
1171.013, 5508.000
1172.099, 5520.000
1173.184, 5544.000
1174.269, 5501.000
1175.355, 5460.000
1176.440, 5454.000
1177.524, 5506.000
1178.609, 5548.000
1179.694, 5536.897
1180.778, 5548.368
1181.862, 5518.796
1182.946, 5512.274
1184.030, 5479.000
1185.114, 5448.000
1186.197, 5437.000
1187.281, 5380.000
1188.364, 5410.000
1189.447, 5419.000
1190.530, 5356.000
1191.613, 5367.000
1192.696, 5354.000
1193.778, 5443.000
1194.860, 5389.000
1195.943, 5382.000
1197.025, 5345.000
1198.107, 5349.000
1199.188, 5422.000
1200.270, 5451.000
1201.351, 5442.688
1202.432, 5302.338
1203.514, 5433.135
1204.594, 5505.537
1205.675, 5522.675
1206.756, 5319.040
1207.836, 5400.491
1208.917, 5367.690
1209.997, 5330.208
1211.077, 5451.783
1212.157, 5280.261
1213.236, 5399.316
1214.316, 5402.377
1215.395, 5458.527
1216.474, 5399.722
1217.553, 5376.423
1218.632, 5468.116
1219.711, 5496.137
1220.790, 5424.099
1221.868, 5483.626
1222.946, 5308.093
1224.024, 5338.829
1225.102, 5458.559
1226.180, 5392.304
1227.258, 5453.933
1228.335, 5466.858
1229.413, 5407.000
1230.490, 5377.000
1231.567, 5342.000
1232.644, 5372.000
1233.720, 5355.000
1234.797, 5382.000
1235.873, 5387.000
1236.950, 5393.396
1238.026, 5348.000
1239.102, 5437.000
