##NAMES=Actinolite
##RRUFFID=R060045
##IDEAL CHEMISTRY=Ca_2_(Mg_4.5-2.5_Fe^2+^_0.5-2.5_)Si_8_O_22_(OH)_2_
##LOCALITY=Colorado, USA
##OWNER=RRUFF
##SOURCE=University of Arizona Mineral Museum
##DESCRIPTION=Green prismatic crystals in a radial arrangement
##STATUS=The identification of this mineral has been confirmed by X-ray diffraction and chemical analysis
##URL=rruff.info/R060045
##MEASURED CHEMISTRY=(Ca_1.99_Na_0.01_)_Σ=2_(Mg_4.20_Fe^2+^_0.59_Al_0.09_Fe^3+^_0.08_Mn_0.02_Ti_0.01_)_Σ=5_(Si_7.82_Al_0.18_)_Σ=8_O_22_(OH)_2_
##PIN_ID=M00155
##ORIENTATION=Laser parallel to b* (0 1 0). Fiducial mark perpendicular to laser is parallel to c [0 0 1]
137.8140, 13147.00
139.0430, 13198.00
140.2710, 13082.00
141.5000, 13218.00
142.7280, 13316.00
143.9560, 13337.00
145.1840, 13639.00
146.4120, 14037.00
147.6390, 14383.00
148.8670, 14901.00
150.0940, 15728.00
151.3210, 17280.00
152.5490, 19714.00
153.7750, 23435.00
155.0020, 27651.00
156.2290, 30108.00
157.4550, 27871.00
158.6810, 23215.00
159.9080, 19868.00
161.1340, 17632.00
162.3590, 16677.00
163.5850, 16107.00
164.8110, 15830.00
166.0360, 16138.00
167.2610, 16361.00
168.4860, 17090.00
169.7110, 18066.00
170.9360, 19692.00
172.1610, 22206.00
173.3850, 26226.00
174.6100, 30861.00
175.8340, 33695.00
177.0580, 31774.00
178.2820, 26821.00
179.5050, 22565.00
180.7290, 19747.00
181.9520, 17899.00
183.1760, 16799.00
184.3990, 15908.00
185.6220, 15517.00
186.8450, 15190.00
188.0670, 15362.00
189.2900, 14893.00
190.5120, 15008.00
191.7340, 14826.00
192.9560, 14802.00
194.1780, 14787.00
195.4000, 14724.00
196.6220, 14997.00
197.8430, 15042.00
199.0640, 15075.00
200.2860, 15218.00
201.5070, 15285.00
202.7270, 15548.00
203.9480, 15641.00
205.1690, 15835.00
206.3890, 15759.00
207.6090, 16304.00
208.8290, 16961.00
210.0490, 17360.00
211.2690, 18964.00
212.4890, 19500.00
213.7080, 21189.00
214.9280, 22963.00
216.1470, 25561.00
217.3660, 28881.00
218.5850, 32065.00
219.8030, 34023.00
221.0220, 34073.00
222.2400, 31848.00
223.4590, 28588.00
224.6770, 25573.00
225.8950, 22609.00
227.1120, 20757.00
228.3300, 19188.00
229.5480, 18205.00
230.7650, 17269.00
231.9820, 16676.00
233.1990, 16387.00
234.4160, 15908.00
235.6330, 15681.00
236.8490, 15587.00
238.0660, 15416.00
239.2820, 15389.00
240.4980, 15363.00
241.7140, 15336.00
242.9300, 15304.00
244.1460, 15484.00
245.3610, 15572.00
246.5770, 15606.00
247.7920, 15640.86
249.0070, 15661.00
250.2220, 15590.00
251.4370, 15521.00
252.6510, 15479.10
253.8660, 15534.00
255.0800, 15370.00
256.2940, 15423.00
257.5080, 15236.00
258.7220, 15537.00
259.9360, 15540.00
261.1490, 15519.00
262.3630, 15413.00
263.5760, 15304.00
264.7890, 15155.00
266.0020, 15131.12
267.2150, 15101.34
268.4270, 15111.00
269.6400, 15122.00
270.8520, 15196.00
272.0640, 15177.00
273.2760, 15183.00
274.4880, 15136.00
275.7000, 15389.00
276.9120, 15454.00
278.1230, 15372.00
279.3340, 15471.00
280.5450, 15484.00
281.7560, 15630.00
282.9670, 15706.00
284.1780, 15790.00
285.3880, 15858.00
286.5980, 15947.00
287.8090, 15996.00
289.0190, 16082.00
290.2290, 16229.00
291.4380, 16327.00
292.6480, 16479.66
293.8570, 16612.07
295.0670, 16787.00
296.2760, 16949.00
297.4850, 17095.00
298.6930, 17383.00
299.9020, 17309.00
301.1110, 17238.00
302.3190, 17014.00
303.5270, 16780.00
304.7350, 16656.00
305.9430, 16379.00
307.1510, 16146.00
308.3580, 16151.00
309.5660, 16195.00
310.7730, 16125.00
311.9800, 16024.00
313.1870, 16143.00
314.3940, 15970.00
315.6010, 16026.00
316.8070, 16080.00
318.0130, 16137.00
319.2200, 16154.15
320.4260, 16177.00
321.6310, 16196.00
322.8370, 16304.00
324.0430, 16367.14
325.2480, 16595.00
326.4540, 16696.00
327.6590, 16888.00
328.8640, 17109.00
330.0680, 17131.00
331.2730, 17339.00
332.4780, 17257.00
333.6820, 17375.00
334.8860, 17443.00
336.0900, 17630.00
337.2940, 17778.00
338.4980, 17724.00
339.7010, 17934.00
340.9050, 17826.00
342.1080, 17552.00
343.3110, 17444.00
344.5140, 17394.00
345.7170, 17371.00
346.9200, 17206.00
348.1220, 17245.00
349.3240, 17302.00
350.5270, 17248.00
351.7290, 17339.00
352.9310, 17065.00
354.1320, 17071.00
355.3340, 17058.00
356.5350, 16922.00
357.7370, 16962.00
358.9380, 16865.00
360.1390, 17108.00
361.3400, 17046.00
362.5400, 17136.00
363.7410, 17259.00
364.9410, 17360.00
366.1410, 17385.00
367.3410, 17394.00
368.5410, 17314.00
369.7410, 17441.00
370.9400, 17348.00
372.1400, 17257.00
373.3390, 17390.00
374.5380, 17339.00
375.7370, 17271.00
376.9360, 17360.00
378.1350, 17479.00
379.3330, 17552.00
380.5310, 17512.00
381.7300, 17787.00
382.9280, 17943.00
384.1260, 18394.00
385.3230, 19060.00
386.5210, 19606.00
387.7180, 20223.00
388.9160, 20676.00
390.1130, 21041.00
391.3100, 20954.00
392.5060, 20467.00
393.7030, 19891.00
394.9000, 19296.00
396.0960, 18853.00
397.2920, 18511.00
398.4880, 18448.00
399.6840, 18003.00
400.8800, 18124.00
402.0750, 18159.00
403.2710, 17752.00
404.4660, 17965.00
405.6610, 18179.00
406.8560, 18096.00
408.0510, 18177.00
409.2450, 18473.00
410.4400, 18368.00
411.6340, 18409.00
412.8280, 18410.00
414.0220, 18467.00
415.2160, 18240.00
416.4100, 18119.00
417.6030, 17776.00
418.7970, 17833.00
419.9900, 17559.00
421.1830, 17716.00
422.3760, 17418.00
423.5690, 17238.00
424.7610, 17372.00
425.9540, 17373.00
427.1460, 17238.00
428.3380, 17260.00
429.5300, 17437.00
430.7220, 17663.00
431.9140, 17580.00
433.1050, 17694.00
434.2970, 17532.00
435.4880, 17561.63
436.6790, 17713.00
437.8700, 17557.00
439.0610, 17460.00
440.2510, 17516.00
441.4420, 17406.00
442.6320, 17337.00
443.8220, 17413.00
445.0120, 17340.00
446.2020, 17418.00
447.3910, 17316.00
448.5810, 17468.00
449.7700, 17322.00
450.9600, 17514.00
452.1490, 17456.00
453.3370, 17370.00
454.5260, 17349.00
455.7150, 17388.53
456.9030, 17478.00
458.0910, 17543.00
459.2800, 17559.00
460.4670, 17662.00
461.6550, 17598.00
462.8430, 17570.00
464.0300, 17510.00
465.2180, 17557.00
466.4050, 17679.00
467.5920, 17699.00
468.7790, 17735.02
469.9650, 17772.00
471.1520, 17757.00
472.3380, 17794.00
473.5250, 17801.00
474.7110, 17847.00
475.8970, 17828.00
477.0820, 17877.00
478.2680, 17951.00
479.4540, 17888.00
480.6390, 18081.00
481.8240, 18009.00
483.0090, 18120.00
484.1940, 18100.00
485.3780, 17941.00
486.5630, 18001.00
487.7470, 17999.00
488.9320, 18182.00
490.1160, 18272.00
491.3000, 18157.00
492.4830, 18014.00
493.6670, 18144.00
494.8500, 18001.00
496.0340, 17972.00
497.2170, 18333.00
498.4000, 18150.00
499.5820, 18174.00
500.7650, 18375.00
501.9480, 18296.00
503.1300, 18181.00
504.3120, 18221.00
505.4940, 18262.00
506.6760, 18470.00
507.8580, 18363.00
509.0390, 18524.00
510.2210, 18470.00
511.4020, 18578.00
512.5830, 18721.00
513.7640, 18793.00
514.9450, 18788.00
516.1250, 18837.00
517.3060, 18636.00
518.4860, 18689.00
519.6660, 18745.00
520.8460, 18875.00
522.0260, 18854.00
523.2060, 19029.00
524.3850, 18939.00
525.5650, 19146.00
526.7440, 19207.00
527.9230, 19222.00
529.1020, 19256.25
530.2810, 19016.00
531.4590, 19149.00
532.6380, 19116.00
533.8160, 18982.00
534.9940, 19072.00
536.1720, 19055.00
537.3500, 19014.00
538.5270, 18963.00
539.7050, 18910.00
540.8820, 19071.00
542.0590, 19008.00
543.2360, 19083.00
544.4130, 18924.00
545.5900, 19112.00
546.7660, 19014.00
547.9430, 19041.00
549.1190, 19136.00
550.2950, 19156.00
551.4710, 19077.00
552.6470, 19074.00
553.8220, 19215.00
554.9980, 19378.00
556.1730, 19205.00
557.3480, 19119.00
558.5230, 19389.00
559.6980, 19187.00
560.8730, 19311.00
562.0470, 19128.00
563.2220, 19385.00
564.3960, 19421.00
565.5700, 19213.00
566.7440, 19419.00
567.9170, 19536.00
569.0910, 19439.00
570.2640, 19225.00
571.4380, 19357.00
572.6110, 19401.00
573.7840, 19397.00
574.9570, 19455.00
576.1290, 19510.48
577.3020, 19472.00
578.4740, 19634.00
579.6460, 19649.00
580.8180, 19671.00
581.9900, 19763.00
583.1620, 19513.00
584.3330, 19666.00
585.5040, 19683.00
586.6760, 19518.00
587.8470, 19570.00
589.0180, 19683.00
590.1880, 19705.00
591.3590, 19773.10
592.5290, 19773.00
593.7000, 19870.00
594.8700, 19733.00
596.0400, 19763.00
597.2090, 19845.00
598.3790, 19692.00
599.5490, 19916.00
600.7180, 19972.00
601.8870, 19883.00
603.0560, 20028.00
604.2250, 19963.00
605.3940, 19932.00
606.5620, 19978.00
607.7300, 20032.00
608.8990, 20092.45
610.0670, 20181.00
611.2350, 20236.00
612.4020, 20246.00
613.5700, 20229.00
614.7370, 20492.00
615.9050, 20527.00
617.0720, 20678.00
618.2390, 20856.00
619.4060, 20698.00
620.5720, 20835.00
621.7390, 20836.00
622.9050, 21071.00
624.0710, 21187.00
625.2370, 21180.00
626.4030, 21209.00
627.5690, 21180.00
628.7340, 21097.00
629.9000, 21157.00
631.0650, 21526.00
632.2300, 21316.00
633.3950, 21396.00
634.5600, 21606.00
635.7240, 21552.00
636.8890, 21846.00
638.0530, 21969.00
639.2170, 22095.00
640.3810, 22364.00
641.5450, 22538.02
642.7080, 22896.00
643.8720, 23070.00
645.0350, 23341.00
646.1980, 23747.00
647.3610, 24082.00
648.5240, 24447.00
649.6870, 24500.00
650.8490, 25313.00
652.0120, 25354.00
653.1740, 25694.00
654.3360, 26384.00
655.4980, 26807.00
656.6600, 27541.00
657.8210, 28325.00
658.9830, 29277.00
660.1440, 31226.00
661.3050, 33079.00
662.4660, 35532.00
663.6270, 38668.00
664.7870, 42968.00
665.9480, 48185.00
667.1080, 54287.00
668.2680, 60482.00
669.4280, 65535.00
670.5880, 65535.00
671.7480, 65535.00
672.9070, 64170.00
674.0670, 56949.00
675.2260, 50078.00
676.3850, 43681.00
677.5440, 38554.00
678.7030, 34809.00
679.8610, 31872.00
681.0200, 29875.00
682.1780, 28387.00
683.3360, 27007.00
684.4940, 26237.00
685.6520, 25271.00
686.8090, 24967.00
687.9670, 24213.00
689.1240, 24227.00
690.2810, 23730.00
691.4380, 23256.00
692.5950, 23246.00
693.7520, 23002.00
694.9080, 22742.00
696.0650, 22647.00
697.2210, 22788.00
698.3770, 22377.00
699.5330, 22311.00
700.6880, 22223.00
701.8440, 22004.00
702.9990, 22032.00
704.1550, 22142.00
705.3100, 21789.00
706.4650, 21975.00
707.6190, 21782.00
708.7740, 21817.00
709.9290, 21901.00
711.0830, 21784.00
712.2370, 21888.00
713.3910, 21956.00
714.5450, 21888.00
715.6980, 22006.00
716.8520, 21824.00
718.0050, 21868.00
719.1580, 21888.00
720.3110, 21849.00
721.4640, 21959.00
722.6170, 21933.00
723.7700, 22033.00
724.9220, 21942.00
726.0740, 22084.00
727.2260, 21999.00
728.3780, 22055.00
729.5300, 21866.00
730.6810, 22027.00
731.8330, 22080.00
732.9840, 22025.00
734.1350, 22135.00
735.2860, 22143.00
736.4370, 22341.00
737.5880, 22096.00
738.7380, 22362.00
739.8880, 22260.00
741.0390, 22378.00
742.1890, 22268.00
743.3380, 22486.00
744.4880, 22393.00
745.6380, 22569.00
746.7870, 22528.00
747.9360, 22698.00
749.0850, 22664.00
750.2340, 22506.00
751.3830, 22503.00
752.5310, 22452.37
753.6800, 22463.00
754.8280, 22438.00
755.9760, 22476.00
757.1240, 22533.00
758.2720, 22488.00
759.4190, 22454.00
760.5670, 22437.74
761.7140, 22485.45
762.8610, 22337.00
764.0080, 22530.00
765.1550, 22466.00
766.3020, 22280.00
767.4480, 22428.00
768.5950, 22540.00
769.7410, 22573.00
770.8870, 22848.00
772.0330, 22557.00
773.1780, 22537.00
774.3240, 22686.00
775.4690, 22524.00
776.6140, 22464.00
777.7590, 22755.00
778.9040, 22592.00
780.0490, 22708.00
781.1940, 22612.00
782.3380, 22772.00
783.4820, 22842.00
784.6260, 22759.00
785.7700, 22740.00
786.9140, 22789.00
788.0580, 22658.00
789.2010, 22828.00
790.3450, 22893.00
791.4880, 22833.00
792.6310, 22880.00
793.7730, 22901.00
794.9160, 22949.00
796.0590, 22874.00
797.2010, 23080.00
798.3430, 22951.00
799.4850, 23026.00
800.6270, 23095.00
801.7690, 23051.00
802.9100, 22991.00
804.0520, 23103.00
805.1930, 23120.00
806.3340, 23229.00
807.4750, 23285.00
808.6160, 23279.01
809.7560, 23249.00
810.8970, 23244.00
812.0370, 23276.05
813.1770, 23168.00
814.3170, 23384.00
815.4570, 23463.00
816.5960, 23575.00
817.7360, 23558.00
818.8750, 23257.00
820.0140, 23523.00
821.1530, 23389.00
822.2920, 23322.00
823.4310, 23620.00
824.5690, 23497.00
825.7070, 23317.00
826.8460, 23700.00
827.9840, 23488.00
829.1220, 23499.00
830.2590, 23679.00
831.3970, 23490.00
832.5340, 23493.00
833.6710, 23827.00
834.8080, 23727.00
835.9450, 23821.00
837.0820, 23982.00
838.2190, 24007.00
839.3550, 24030.00
840.4910, 24081.21
841.6270, 23991.00
842.7630, 24131.00
843.8990, 24089.00
845.0350, 24180.00
846.1700, 24173.00
847.3060, 24261.00
848.4410, 24363.00
849.5760, 24288.00
850.7100, 24089.00
851.8450, 24415.00
852.9800, 24319.00
854.1140, 24381.00
855.2480, 24554.00
856.3820, 24466.00
857.5160, 24665.00
858.6500, 24831.00
859.7830, 24788.00
860.9170, 24884.00
862.0500, 24659.00
863.1830, 24684.00
864.3160, 24479.00
865.4480, 24499.00
866.5810, 24486.00
867.7130, 24449.00
868.8460, 24835.00
869.9780, 24561.00
871.1100, 24768.00
872.2410, 24615.00
873.3730, 24666.00
874.5050, 24897.00
875.6360, 24712.00
876.7670, 24566.00
877.8980, 24788.00
879.0290, 24734.00
880.1590, 24594.00
881.2900, 24740.00
882.4200, 24710.00
883.5500, 24843.00
884.6800, 24869.00
885.8100, 24782.00
886.9400, 24801.00
888.0690, 24943.00
889.1990, 24936.00
890.3280, 24986.00
891.4570, 25155.00
892.5860, 25310.00
893.7140, 24973.00
894.8430, 25150.00
895.9710, 25283.00
897.1000, 25036.00
898.2280, 25292.00
899.3560, 25244.00
900.4830, 25492.00
901.6110, 25424.00
902.7380, 25653.00
903.8660, 25590.00
904.9930, 25586.00
906.1200, 25664.00
907.2460, 25732.00
908.3730, 25912.00
909.5000, 25868.00
910.6260, 26082.00
911.7520, 26200.00
912.8780, 26105.00
914.0040, 26198.00
915.1290, 26459.00
916.2550, 26632.00
917.3800, 26804.00
918.5050, 27110.00
919.6300, 27258.00
920.7550, 27547.00
921.8800, 28128.00
923.0040, 28677.00
924.1290, 29227.00
925.2530, 29655.00
926.3770, 30456.00
927.5010, 31113.00
928.6250, 31510.00
929.7480, 31533.00
930.8720, 31363.00
931.9950, 30840.00
933.1180, 29984.00
934.2410, 29426.00
935.3640, 28764.00
936.4860, 28313.00
937.6090, 27873.00
938.7310, 27754.00
939.8530, 27504.00
940.9750, 27433.00
942.0970, 27270.00
943.2180, 27196.00
944.3400, 27289.00
945.4610, 27475.00
946.5820, 27475.00
947.7030, 27324.00
948.8240, 27176.00
949.9450, 27280.00
951.0650, 26941.00
952.1860, 26803.00
953.3060, 26955.00
954.4260, 26819.00
955.5460, 26577.00
956.6650, 26952.00
957.7850, 26722.00
958.9040, 26534.00
960.0230, 26666.00
961.1420, 26781.00
962.2610, 26680.00
963.3800, 26709.00
964.4990, 26526.00
965.6170, 26644.00
966.7350, 26706.00
967.8530, 26564.00
968.9710, 26670.00
970.0890, 26684.00
971.2070, 26738.00
972.3240, 26644.00
973.4410, 26559.00
974.5580, 26467.00
975.6750, 26809.00
976.7920, 26590.00
977.9090, 26736.00
979.0250, 26698.00
980.1410, 26691.00
981.2580, 26971.00
982.3740, 26750.00
983.4890, 26703.00
984.6050, 26872.00
985.7200, 26931.00
986.8360, 27153.00
987.9510, 26757.00
989.0660, 27036.00
990.1810, 26839.00
991.2950, 27017.00
992.4100, 27090.00
993.5240, 26998.00
994.6390, 27204.00
995.7530, 27215.00
996.8660, 27305.00
997.9800, 27331.00
999.0940, 27661.00
1000.207, 27598.00
1001.320, 27792.00
1002.433, 27829.00
1003.546, 27796.00
1004.659, 27645.00
1005.772, 27767.00
1006.884, 27788.00
1007.996, 27922.00
1009.108, 27953.00
1010.220, 27973.00
1011.332, 28196.00
1012.444, 28054.00
1013.555, 28225.00
1014.666, 28018.00
1015.777, 28655.00
1016.888, 28282.00
1017.999, 28518.00
1019.110, 28666.00
1020.220, 28631.00
1021.331, 28696.00
1022.441, 28617.00
1023.551, 28724.00
1024.661, 28618.00
1025.770, 28894.00
1026.880, 29063.00
1027.989, 29297.00
1029.098, 29071.00
1030.207, 29248.00
1031.316, 29185.00
1032.425, 29230.00
1033.533, 29156.00
1034.642, 29319.00
1035.750, 29472.00
1036.858, 29482.00
1037.966, 29660.00
1039.073, 30086.00
1040.181, 30223.00
1041.288, 30563.00
1042.396, 31252.00
1043.503, 31704.00
1044.610, 32118.00
1045.716, 33093.00
1046.823, 33893.00
1047.929, 35019.00
1049.036, 36376.00
1050.142, 37829.00
1051.248, 39700.00
1052.353, 41255.00
1053.459, 43236.00
1054.564, 45201.00
1055.670, 46612.00
1056.775, 47446.00
1057.880, 47028.00
1058.985, 45322.00
1060.089, 43221.00
1061.194, 41144.00
1062.298, 39330.00
1063.402, 37807.52
1064.506, 36270.00
1065.610, 35278.00
1066.713, 34414.00
1067.817, 33542.00
1068.920, 32889.00
1070.023, 32052.00
1071.126, 31459.00
1072.229, 30979.00
1073.332, 30516.59
1074.435, 30149.00
1075.537, 29998.00
1076.639, 29814.00
1077.741, 29838.00
1078.843, 29529.00
1079.945, 29542.00
1081.046, 29531.00
1082.148, 29429.00
1083.249, 29497.00
1084.350, 29534.00
1085.451, 29664.00
1086.551, 29703.00
1087.652, 29573.00
1088.752, 29507.33
1089.853, 29174.00
1090.953, 29192.00
1092.053, 28928.00
1093.152, 28823.00
1094.252, 29004.00
1095.351, 28880.00
1096.451, 29037.00
1097.550, 29002.00
1098.649, 28946.00
1099.748, 29028.00
1100.846, 29003.22
1101.945, 29044.00
1103.043, 29031.00
1104.141, 28927.00
1105.239, 28890.04
1106.337, 28927.32
1107.434, 28919.00
1108.532, 29039.00
1109.629, 29143.00
1110.726, 29230.00
1111.823, 29279.00
1112.920, 29310.02
1114.017, 29202.00
1115.113, 29335.00
1116.210, 29234.00
1117.306, 29273.00
1118.402, 29154.00
1119.498, 29165.00
1120.593, 29319.00
1121.689, 29241.00
1122.784, 29434.00
1123.879, 29189.00
1124.974, 29188.00
1126.069, 29330.00
1127.164, 29142.00
1128.259, 29314.00
1129.353, 29313.00
1130.447, 29318.00
1131.541, 29437.00
1132.635, 29427.00
1133.729, 29395.00
1134.822, 29637.00
1135.916, 29376.00
1137.009, 29624.00
1138.102, 29451.00
1139.195, 29336.00
1140.288, 29437.00
1141.380, 29591.00
1142.473, 29553.00
1143.565, 29574.00
1144.657, 29442.00
1145.749, 29482.00
1146.841, 29549.00
1147.932, 29344.00
1149.024, 29542.00
1150.115, 29538.00
1151.206, 29426.00
1152.297, 29429.00
1153.388, 29723.00
1154.479, 29841.00
1155.569, 29584.00
1156.659, 29707.00
1157.750, 29636.00
1158.839, 29891.00
1159.929, 29693.00
1161.019, 29848.00
1162.108, 29664.00
1163.198, 29975.00
1164.287, 29909.00
1165.376, 29878.00
1166.465, 29880.00
1167.553, 29932.00
1168.642, 29846.00
1169.730, 29886.00
1170.818, 29877.00
1171.906, 30024.00
1172.994, 30155.00
1174.082, 30096.00
1175.170, 30047.00
1176.257, 29933.00
1177.344, 30194.00
1178.431, 30020.00
1179.518, 30336.00
1180.605, 30269.00
1181.691, 30126.00
1182.778, 30104.00
1183.864, 30120.80
1184.950, 30280.00
1186.036, 30226.00
1187.122, 30342.00
1188.207, 30383.00
1189.292, 30301.00
1190.378, 30432.00
1191.463, 30410.00
1192.548, 30487.00
1193.632, 30436.00
1194.717, 30628.00
1195.801, 30492.00
1196.886, 30463.00
1197.970, 30419.00
1199.054, 30580.00
1200.137, 30556.00
1201.221, 30587.00
1202.305, 30570.00
1203.388, 30292.00
1204.471, 30575.00
1205.554, 30508.00
1206.637, 30720.00
1207.719, 30765.00
1208.802, 30678.00
1209.884, 30711.00
1210.966, 30707.00
1212.048, 30758.00
1213.130, 30573.00
1214.212, 30531.00
1215.293, 31075.00
1216.374, 30860.00
1217.456, 30671.00
1218.536, 31055.00
1219.617, 30891.00
1220.698, 31130.00
1221.778, 31095.00
1222.859, 31046.00
1223.939, 31225.00
1225.019, 31340.00
1226.099, 31104.00
1227.178, 31115.00
1228.258, 31194.00
1229.337, 31150.00
1230.417, 31319.00
1231.496, 31138.00
1232.574, 31290.00
1233.653, 31515.00
1234.732, 31352.00
1235.810, 31381.00
1236.888, 31455.00
1237.966, 31348.00
1239.044, 31487.00
1240.122, 31441.00
1241.199, 31458.00
1242.277, 31420.00
1243.354, 31460.00
1244.431, 31636.00
1245.508, 31634.00
1246.585, 31745.00
1247.661, 31603.00
1248.738, 31786.00
1249.814, 31713.00
1250.890, 31844.00
1251.966, 31705.00
1253.042, 31604.00
1254.117, 31866.00
1255.193, 31882.00
1256.268, 32025.00
1257.343, 31912.00
1258.418, 32008.00
1259.493, 32042.00
1260.567, 31807.00
1261.642, 32020.00
1262.716, 32017.00
1263.790, 32190.00
1264.864, 32154.00
1265.938, 32354.00
1267.011, 32322.24
1268.085, 32223.00
1269.158, 32285.00
1270.231, 32311.00
1271.304, 32274.00
1272.377, 32388.00
1273.450, 32532.00
1274.522, 32165.00
1275.594, 32509.00
1276.666, 32812.00
1277.738, 32149.00
1278.810, 32579.00
1279.882, 32367.00
1280.953, 32261.00
1282.025, 32593.00
1283.096, 32647.00
1284.167, 32573.00
1285.238, 32596.00
1286.308, 32661.61
1287.379, 32731.00
1288.449, 32712.00
1289.519, 32666.00
1290.589, 32721.18
1291.659, 32625.00
1292.729, 32810.00
1293.798, 32693.00
1294.868, 32808.00
1295.937, 32783.00
1297.006, 32794.00
1298.075, 32765.00
1299.143, 32766.00
1300.212, 32947.00
1301.280, 33029.00
1302.348, 32842.00
1303.416, 33124.00
1304.484, 32959.00
1305.552, 32914.00
1306.620, 33125.00
