##NAMES=Actinolite
##RRUFFID=R060045
##IDEAL CHEMISTRY=Ca_2_(Mg_4.5-2.5_Fe^2+^_0.5-2.5_)Si_8_O_22_(OH)_2_
##LOCALITY=Colorado, USA
##OWNER=RRUFF
##SOURCE=University of Arizona Mineral Museum
##DESCRIPTION=Green prismatic crystals in a radial arrangement
##STATUS=The identification of this mineral has been confirmed by X-ray diffraction and chemical analysis
##URL=rruff.info/R060045
##MEASURED CHEMISTRY=(Ca_1.99_Na_0.01_)_Σ=2_(Mg_4.20_Fe^2+^_0.59_Al_0.09_Fe^3+^_0.08_Mn_0.02_Ti_0.01_)_Σ=5_(Si_7.82_Al_0.18_)_Σ=8_O_22_(OH)_2_
##PIN_ID=M00340
##ORIENTATION=Laser parallel to -a* (-1 0 0). Fiducial mark perpendicular to laser is parallel to -b [0 -1 0]
134.1270, 14740.00
135.3560, 14829.00
136.5850, 14836.00
137.8140, 14941.00
139.0430, 15164.00
140.2710, 15215.00
141.5000, 15125.00
142.7280, 14930.00
143.9560, 15318.00
145.1840, 15598.00
146.4120, 16299.00
147.6390, 17284.00
148.8670, 18039.00
150.0940, 18637.00
151.3210, 18519.00
152.5490, 18097.00
153.7750, 17691.00
155.0020, 17407.00
156.2290, 17044.00
157.4550, 16839.00
158.6810, 16594.00
159.9080, 16582.12
161.1340, 16861.00
162.3590, 16784.00
163.5850, 16927.00
164.8110, 17252.00
166.0360, 17937.00
167.2610, 18648.00
168.4860, 19551.00
169.7110, 19784.00
170.9360, 19440.00
172.1610, 18985.00
173.3850, 18388.00
174.6100, 18189.00
175.8340, 17837.00
177.0580, 17585.00
178.2820, 17279.00
179.5050, 17241.00
180.7290, 16955.00
181.9520, 16869.00
183.1760, 16548.00
184.3990, 16416.00
185.6220, 16215.00
186.8450, 16183.00
188.0670, 16290.00
189.2900, 16346.00
190.5120, 16437.00
191.7340, 16347.00
192.9560, 16718.00
194.1780, 16733.00
195.4000, 16797.00
196.6220, 17083.00
197.8430, 17281.00
199.0640, 17383.00
200.2860, 17721.00
201.5070, 17945.00
202.7270, 18336.00
203.9480, 18773.00
205.1690, 19010.00
206.3890, 19655.00
207.6090, 20490.00
208.8290, 21481.00
210.0490, 22822.00
211.2690, 24250.00
212.4890, 25613.00
213.7080, 26548.00
214.9280, 26937.00
216.1470, 27001.00
217.3660, 27117.00
218.5850, 27766.00
219.8030, 28513.00
221.0220, 29517.00
222.2400, 30543.00
223.4590, 30704.00
224.6770, 30533.00
225.8950, 29542.00
227.1120, 28340.00
228.3300, 27140.00
229.5480, 25905.00
230.7650, 25049.00
231.9820, 24093.00
233.1990, 23350.00
234.4160, 22625.00
235.6330, 22367.00
236.8490, 22201.00
238.0660, 21851.00
239.2820, 21706.00
240.4980, 21880.00
241.7140, 21671.00
242.9300, 21261.00
244.1460, 21241.00
245.3610, 20855.00
246.5770, 20664.00
247.7920, 20256.00
249.0070, 20002.59
250.2220, 19706.00
251.4370, 19460.00
252.6510, 19178.00
253.8660, 18929.00
255.0800, 18663.00
256.2940, 18574.00
257.5080, 18419.00
258.7220, 18366.00
259.9360, 18221.00
261.1490, 18029.00
262.3630, 17662.00
263.5760, 17758.00
264.7890, 17515.00
266.0020, 17533.00
267.2150, 17383.00
268.4270, 17554.00
269.6400, 17356.00
270.8520, 17243.00
272.0640, 17355.00
273.2760, 17162.00
274.4880, 17302.00
275.7000, 17231.00
276.9120, 17322.00
278.1230, 17409.00
279.3340, 17421.00
280.5450, 17477.00
281.7560, 17512.00
282.9670, 17561.19
284.1780, 17547.00
285.3880, 17649.00
286.5980, 17640.00
287.8090, 17630.00
289.0190, 17735.00
290.2290, 17771.00
291.4380, 17900.00
292.6480, 17991.00
293.8570, 18174.00
295.0670, 18341.00
296.2760, 18350.00
297.4850, 18375.00
298.6930, 18275.00
299.9020, 18189.00
301.1110, 18204.00
302.3190, 18377.00
303.5270, 18157.00
304.7350, 18292.00
305.9430, 18278.00
307.1510, 18095.00
308.3580, 17980.00
309.5660, 18143.00
310.7730, 18109.00
311.9800, 18171.00
313.1870, 18061.00
314.3940, 17943.00
315.6010, 17957.00
316.8070, 17983.00
318.0130, 18112.00
319.2200, 18032.00
320.4260, 18081.00
321.6310, 18048.00
322.8370, 18114.00
324.0430, 18022.00
325.2480, 18084.00
326.4540, 18193.00
327.6590, 18320.00
328.8640, 18511.00
330.0680, 18571.00
331.2730, 18362.00
332.4780, 18708.00
333.6820, 18694.00
334.8860, 18914.00
336.0900, 19337.00
337.2940, 19025.00
338.4980, 19390.00
339.7010, 19724.00
340.9050, 19920.00
342.1080, 20057.00
343.3110, 20151.00
344.5140, 20237.00
345.7170, 20271.00
346.9200, 20157.00
348.1220, 20216.00
349.3240, 20341.00
350.5270, 20380.00
351.7290, 20468.00
352.9310, 20438.00
354.1320, 20682.00
355.3340, 20889.00
356.5350, 21418.00
357.7370, 22018.00
358.9380, 22579.00
360.1390, 23195.00
361.3400, 23511.00
362.5400, 23686.00
363.7410, 23603.00
364.9410, 23492.00
366.1410, 23165.00
367.3410, 22922.00
368.5410, 22705.00
369.7410, 22245.00
370.9400, 22226.00
372.1400, 21999.00
373.3390, 21987.00
374.5380, 21867.00
375.7370, 22049.00
376.9360, 22023.00
378.1350, 22634.00
379.3330, 23063.00
380.5310, 23786.00
381.7300, 24379.00
382.9280, 25432.00
384.1260, 26039.00
385.3230, 26139.00
386.5210, 26204.00
387.7180, 25921.00
388.9160, 25290.00
390.1130, 24692.00
391.3100, 24226.00
392.5060, 23747.00
393.7030, 23227.00
394.9000, 22943.00
396.0960, 22561.00
397.2920, 22554.00
398.4880, 22325.00
399.6840, 22644.00
400.8800, 22569.00
402.0750, 23008.00
403.2710, 23263.00
404.4660, 23561.00
405.6610, 23981.00
406.8560, 24045.00
408.0510, 24382.00
409.2450, 23968.00
410.4400, 23880.00
411.6340, 23788.00
412.8280, 23255.00
414.0220, 22841.00
415.2160, 22372.00
416.4100, 22143.00
417.6030, 21590.00
418.7970, 21418.00
419.9900, 21328.00
421.1830, 21059.00
422.3760, 21024.00
423.5690, 20884.00
424.7610, 20930.00
425.9540, 21406.00
427.1460, 21821.00
428.3380, 21678.00
429.5300, 21948.00
430.7220, 21670.00
431.9140, 21389.00
433.1050, 21325.00
434.2970, 21163.00
435.4880, 20887.00
436.6790, 20526.00
437.8700, 20491.00
439.0610, 20216.00
440.2510, 20259.00
441.4420, 20030.00
442.6320, 19953.00
443.8220, 19702.00
445.0120, 19943.00
446.2020, 19702.00
447.3910, 19787.00
448.5810, 19776.00
449.7700, 19679.00
450.9600, 19808.00
452.1490, 19871.00
453.3370, 19795.00
454.5260, 19625.00
455.7150, 19831.00
456.9030, 19727.00
458.0910, 19975.00
459.2800, 19795.00
460.4670, 19874.00
461.6550, 19982.00
462.8430, 20078.00
464.0300, 20048.00
465.2180, 19901.00
466.4050, 19879.00
467.5920, 19995.00
468.7790, 20117.00
469.9650, 20076.00
471.1520, 20080.00
472.3380, 20134.00
473.5250, 20081.00
474.7110, 20302.00
475.8970, 20076.00
477.0820, 20287.00
478.2680, 20370.00
479.4540, 20124.00
480.6390, 20473.00
481.8240, 20243.00
483.0090, 20082.00
484.1940, 20350.00
485.3780, 20269.00
486.5630, 20230.00
487.7470, 20254.00
488.9320, 20319.00
490.1160, 20275.00
491.3000, 20559.00
492.4830, 20364.00
493.6670, 20454.00
494.8500, 20651.00
496.0340, 20548.00
497.2170, 20777.00
498.4000, 20794.00
499.5820, 20753.00
500.7650, 20834.00
501.9480, 21117.00
503.1300, 21219.00
504.3120, 21424.00
505.4940, 21614.00
506.6760, 21700.00
507.8580, 21862.00
509.0390, 22219.00
510.2210, 22437.00
511.4020, 22541.00
512.5830, 22877.00
513.7640, 22869.00
514.9450, 23019.00
516.1250, 23184.72
517.3060, 23070.00
518.4860, 23421.00
519.6660, 23507.00
520.8460, 23564.00
522.0260, 23582.00
523.2060, 23373.00
524.3850, 23502.00
525.5650, 23124.00
526.7440, 23198.00
527.9230, 22772.00
529.1020, 22751.00
530.2810, 22553.00
531.4590, 22457.00
532.6380, 22454.00
533.8160, 22263.00
534.9940, 22190.68
536.1720, 21991.00
537.3500, 21966.00
538.5270, 21918.00
539.7050, 21843.00
540.8820, 21818.00
542.0590, 21703.00
543.2360, 21683.00
544.4130, 21567.00
545.5900, 21654.00
546.7660, 21584.00
547.9430, 21594.00
549.1190, 21586.00
550.2950, 21643.00
551.4710, 21745.00
552.6470, 21573.00
553.8220, 21632.00
554.9980, 21705.00
556.1730, 21836.00
557.3480, 21584.00
558.5230, 21793.00
559.6980, 21737.00
560.8730, 21815.00
562.0470, 21802.00
563.2220, 21889.00
564.3960, 21914.00
565.5700, 22022.00
566.7440, 21974.00
567.9170, 21762.00
569.0910, 22021.00
570.2640, 21943.00
571.4380, 22099.00
572.6110, 22088.00
573.7840, 22078.00
574.9570, 22162.00
576.1290, 22030.00
577.3020, 22136.00
578.4740, 22184.00
579.6460, 22229.00
580.8180, 22094.00
581.9900, 22253.00
583.1620, 22112.00
584.3330, 22028.00
585.5040, 22279.00
586.6760, 22250.00
587.8470, 22085.00
589.0180, 22006.00
590.1880, 22005.00
591.3590, 22121.00
592.5290, 22163.00
593.7000, 22163.00
594.8700, 22145.00
596.0400, 22162.31
597.2090, 22174.33
598.3790, 22198.00
599.5490, 22195.00
600.7180, 22294.00
601.8870, 22257.00
603.0560, 22123.00
604.2250, 22316.00
605.3940, 22267.00
606.5620, 22336.00
607.7300, 22482.00
608.8990, 22623.00
610.0670, 22618.00
611.2350, 22775.00
612.4020, 22873.00
613.5700, 22865.00
614.7370, 22907.00
615.9050, 23116.00
617.0720, 23268.00
618.2390, 23504.00
619.4060, 23492.00
620.5720, 23568.00
621.7390, 23700.00
622.9050, 23490.00
624.0710, 23607.00
625.2370, 23515.00
626.4030, 23259.00
627.5690, 23354.00
628.7340, 23411.00
629.9000, 23242.00
631.0650, 23478.00
632.2300, 23605.00
633.3950, 23739.00
634.5600, 23933.00
635.7240, 24023.00
636.8890, 24291.00
638.0530, 24464.00
639.2170, 24636.00
640.3810, 24988.00
641.5450, 25007.00
642.7080, 25022.00
643.8720, 25591.00
645.0350, 25853.00
646.1980, 25714.00
647.3610, 26198.00
648.5240, 26483.00
649.6870, 26451.00
650.8490, 26948.00
652.0120, 27139.00
653.1740, 27739.00
654.3360, 28241.00
655.4980, 29175.00
656.6600, 30084.00
657.8210, 31571.00
658.9830, 33069.00
660.1440, 35716.00
661.3050, 38244.00
662.4660, 41495.00
663.6270, 45433.00
664.7870, 48616.00
665.9480, 51329.00
667.1080, 52437.00
668.2680, 51903.00
669.4280, 50462.00
670.5880, 48050.00
671.7480, 45375.00
672.9070, 43121.00
674.0670, 40180.00
675.2260, 37621.00
676.3850, 35330.00
677.5440, 33394.64
678.7030, 31892.00
679.8610, 30427.00
681.0200, 29522.00
682.1780, 28725.00
683.3360, 27898.00
684.4940, 27339.00
685.6520, 27081.00
686.8090, 26638.00
687.9670, 26229.00
689.1240, 26030.00
690.2810, 25754.00
691.4380, 25331.00
692.5950, 25320.00
693.7520, 25275.00
694.9080, 25365.00
696.0650, 25122.00
697.2210, 24985.00
698.3770, 25028.00
699.5330, 24765.00
700.6880, 24648.00
701.8440, 24596.00
702.9990, 24495.79
704.1550, 24552.00
705.3100, 24422.00
706.4650, 24566.00
707.6190, 24494.00
708.7740, 24545.00
709.9290, 24500.00
711.0830, 24499.03
712.2370, 24637.00
713.3910, 24551.00
714.5450, 24607.00
715.6980, 24758.00
716.8520, 24526.00
718.0050, 24651.00
719.1580, 24569.00
720.3110, 24622.00
721.4640, 24798.00
722.6170, 24677.00
723.7700, 24792.00
724.9220, 24789.00
726.0740, 24931.00
727.2260, 24998.00
728.3780, 24979.00
729.5300, 24911.00
730.6810, 25108.00
731.8330, 25134.00
732.9840, 25193.00
734.1350, 25417.00
735.2860, 25223.00
736.4370, 25344.00
737.5880, 25495.00
738.7380, 25601.00
739.8880, 25749.71
741.0390, 25846.00
742.1890, 26015.00
743.3380, 26079.00
744.4880, 26166.00
745.6380, 26164.57
746.7870, 26112.29
747.9360, 26035.00
749.0850, 25978.00
750.2340, 25907.14
751.3830, 25833.00
752.5310, 25742.00
753.6800, 25644.00
754.8280, 25509.00
755.9760, 25469.00
757.1240, 25574.00
758.2720, 25728.00
759.4190, 25426.00
760.5670, 25571.00
761.7140, 25451.00
762.8610, 25489.00
764.0080, 25746.00
765.1550, 25690.00
766.3020, 25696.00
767.4480, 25487.00
768.5950, 25522.00
769.7410, 25616.00
770.8870, 25603.00
772.0330, 25570.00
773.1780, 25766.00
774.3240, 25848.00
775.4690, 25668.00
776.6140, 25818.00
777.7590, 25790.00
778.9040, 25676.00
780.0490, 25879.00
781.1940, 25702.00
782.3380, 25816.00
783.4820, 25889.00
784.6260, 25899.00
785.7700, 25673.00
786.9140, 25887.00
788.0580, 25830.00
789.2010, 25891.00
790.3450, 25962.00
791.4880, 26195.00
792.6310, 26024.00
793.7730, 26180.00
794.9160, 25975.00
796.0590, 26096.00
797.2010, 25952.00
798.3430, 26037.00
799.4850, 26150.00
800.6270, 26118.00
801.7690, 26284.00
802.9100, 26363.00
804.0520, 26343.00
805.1930, 26280.00
806.3340, 26367.00
807.4750, 26250.00
808.6160, 26231.00
809.7560, 26299.00
810.8970, 26493.00
812.0370, 26508.00
813.1770, 26659.00
814.3170, 26734.00
815.4570, 26728.03
816.5960, 26789.50
817.7360, 26752.00
818.8750, 26729.00
820.0140, 26828.00
821.1530, 26657.00
822.2920, 27057.00
823.4310, 26656.00
824.5690, 26808.00
825.7070, 26566.00
826.8460, 26987.00
827.9840, 26861.00
829.1220, 27162.00
830.2590, 27100.00
831.3970, 27010.00
832.5340, 27191.00
833.6710, 27110.00
834.8080, 27227.00
835.9450, 27258.00
837.0820, 27434.00
838.2190, 27487.00
839.3550, 27478.00
840.4910, 27502.00
841.6270, 27625.00
842.7630, 27779.00
843.8990, 27742.00
845.0350, 27689.00
846.1700, 27901.00
847.3060, 27790.00
848.4410, 27904.00
849.5760, 28045.00
850.7100, 27894.00
851.8450, 28114.00
852.9800, 28282.00
854.1140, 28078.00
855.2480, 28192.00
856.3820, 28472.00
857.5160, 28344.00
858.6500, 28215.00
859.7830, 28631.00
860.9170, 28439.00
862.0500, 28370.00
863.1830, 28238.00
864.3160, 28343.00
865.4480, 28301.00
866.5810, 28314.00
867.7130, 28159.00
868.8460, 28265.00
869.9780, 28150.00
871.1100, 28451.00
872.2410, 28492.00
873.3730, 28390.00
874.5050, 28272.00
875.6360, 28287.00
876.7670, 28478.00
877.8980, 28486.00
879.0290, 28524.00
880.1590, 28408.00
881.2900, 28556.00
882.4200, 28424.00
883.5500, 28631.00
884.6800, 28811.00
885.8100, 28651.00
886.9400, 28793.02
888.0690, 28836.60
889.1990, 28863.00
890.3280, 28907.00
891.4570, 29085.00
892.5860, 28990.00
893.7140, 29126.00
894.8430, 29008.00
895.9710, 29125.00
897.1000, 29102.00
898.2280, 29266.00
899.3560, 29255.00
900.4830, 29322.00
901.6110, 29302.00
902.7380, 29447.00
903.8660, 29392.00
904.9930, 29500.08
906.1200, 29506.00
907.2460, 29610.00
908.3730, 29637.00
909.5000, 29561.00
910.6260, 29757.00
911.7520, 29808.03
912.8780, 29954.00
914.0040, 30159.00
915.1290, 30156.00
916.2550, 30500.00
917.3800, 30683.00
918.5050, 31049.00
919.6300, 31250.00
920.7550, 31699.00
921.8800, 31952.00
923.0040, 32471.00
924.1290, 32913.00
925.2530, 32821.00
926.3770, 33157.00
927.5010, 32948.00
928.6250, 32963.00
929.7480, 32597.00
930.8720, 32201.00
931.9950, 32192.00
933.1180, 32079.00
934.2410, 31481.00
935.3640, 31060.00
936.4860, 31148.00
937.6090, 31092.00
938.7310, 31060.00
939.8530, 31212.00
940.9750, 31106.00
942.0970, 31037.00
943.2180, 31170.00
944.3400, 30985.00
945.4610, 30857.00
946.5820, 31203.00
947.7030, 30926.00
948.8240, 30773.00
949.9450, 30802.00
951.0650, 30697.00
952.1860, 30718.00
953.3060, 30481.00
954.4260, 30742.00
955.5460, 30687.00
956.6650, 30651.00
957.7850, 30456.00
958.9040, 30587.00
960.0230, 30478.00
961.1420, 30484.00
962.2610, 30683.00
963.3800, 30633.00
964.4990, 30626.00
965.6170, 30625.00
966.7350, 30595.00
967.8530, 30582.00
968.9710, 30644.00
970.0890, 30603.43
971.2070, 30556.00
972.3240, 30583.00
973.4410, 30708.00
974.5580, 30711.00
975.6750, 30752.00
976.7920, 30892.00
977.9090, 30932.00
979.0250, 30852.00
980.1410, 31202.00
981.2580, 31078.00
982.3740, 31025.00
983.4890, 31129.00
984.6050, 31053.00
985.7200, 31239.00
986.8360, 31118.00
987.9510, 31142.00
989.0660, 31212.00
990.1810, 31494.00
991.2950, 31509.00
992.4100, 31606.00
993.5240, 31568.00
994.6390, 31987.00
995.7530, 31990.00
996.8660, 32396.00
997.9800, 32583.00
999.0940, 32632.00
1000.207, 32701.00
1001.320, 32747.00
1002.433, 32710.00
1003.546, 32615.00
1004.659, 32806.00
1005.772, 32900.00
1006.884, 32950.00
1007.996, 33138.07
1009.108, 33251.00
1010.220, 33466.00
1011.332, 33595.00
1012.444, 33811.00
1013.555, 34014.00
1014.666, 34255.00
1015.777, 34450.00
1016.888, 34884.00
1017.999, 35343.26
1019.110, 36438.00
1020.220, 36589.00
1021.331, 37497.00
1022.441, 38393.00
1023.551, 39048.00
1024.661, 39242.00
1025.770, 39584.00
1026.880, 39181.00
1027.989, 38796.00
1029.098, 38126.00
1030.207, 37291.00
1031.316, 36650.00
1032.425, 36063.00
1033.533, 35301.00
1034.642, 35047.00
1035.750, 34465.00
1036.858, 34245.00
1037.966, 34004.00
1039.073, 34097.00
1040.181, 34226.00
1041.288, 34180.00
1042.396, 34174.00
1043.503, 34250.00
1044.610, 34600.00
1045.716, 35049.00
1046.823, 35661.00
1047.929, 35836.00
1049.036, 36303.00
1050.142, 36607.00
1051.248, 37169.00
1052.353, 37489.00
1053.459, 37812.00
1054.564, 38032.00
1055.670, 38173.00
1056.775, 37581.00
1057.880, 37640.00
1058.985, 37301.00
1060.089, 37491.00
1061.194, 37140.00
1062.298, 37184.00
1063.402, 37015.00
1064.506, 36876.00
1065.610, 36389.00
1066.713, 35857.00
1067.817, 35741.00
1068.920, 35509.00
1070.023, 34859.00
1071.126, 34761.00
1072.229, 34345.00
1073.332, 34037.00
1074.435, 33857.00
1075.537, 33799.00
1076.639, 33741.00
1077.741, 33667.00
1078.843, 33517.00
1079.945, 33422.00
1081.046, 33599.00
1082.148, 33384.00
1083.249, 33445.00
1084.350, 33288.00
1085.451, 33460.00
1086.551, 33409.00
1087.652, 33493.00
1088.752, 33330.00
1089.853, 33361.00
1090.953, 33276.00
1092.053, 33245.06
1093.152, 33185.00
1094.252, 33221.00
1095.351, 33271.00
1096.451, 33286.00
1097.550, 33424.00
1098.649, 33061.00
1099.748, 33286.00
1100.846, 33460.00
1101.945, 33646.00
1103.043, 33363.00
1104.141, 33454.00
1105.239, 33427.00
1106.337, 33387.00
1107.434, 33405.00
1108.532, 33378.00
1109.629, 33429.00
1110.726, 33518.00
1111.823, 33464.00
1112.920, 33643.00
1114.017, 33361.00
1115.113, 33495.00
1116.210, 33750.00
1117.306, 33565.00
1118.402, 33477.00
1119.498, 33394.00
1120.593, 33779.00
1121.689, 33517.00
1122.784, 33465.00
1123.879, 33920.00
1124.974, 33632.00
1126.069, 33580.00
1127.164, 33676.00
1128.259, 33630.00
1129.353, 33754.00
1130.447, 33675.00
1131.541, 33624.00
1132.635, 33699.00
1133.729, 33535.00
1134.822, 33663.00
1135.916, 33793.00
1137.009, 33476.00
1138.102, 33918.00
1139.195, 33834.00
1140.288, 33882.00
1141.380, 33693.00
1142.473, 33749.18
1143.565, 33977.00
1144.657, 33733.00
1145.749, 33897.00
1146.841, 33809.00
1147.932, 33759.00
1149.024, 33772.00
1150.115, 33938.00
1151.206, 33763.00
1152.297, 34015.00
1153.388, 33790.00
1154.479, 33993.00
1155.569, 34141.00
1156.659, 34232.00
1157.750, 34211.00
1158.839, 33979.00
1159.929, 33958.00
1161.019, 34037.00
1162.108, 34208.00
1163.198, 34176.00
1164.287, 34420.00
1165.376, 34337.00
1166.465, 34419.00
1167.553, 34403.00
1168.642, 34344.00
1169.730, 34427.00
1170.818, 34477.00
1171.906, 34168.00
1172.994, 34538.00
1174.082, 34398.00
1175.170, 34648.00
1176.257, 34316.00
1177.344, 34345.00
1178.431, 34413.00
1179.518, 34654.00
1180.605, 34555.00
1181.691, 34602.00
1182.778, 34617.00
1183.864, 34570.00
1184.950, 34813.00
1186.036, 34705.00
1187.122, 34405.00
1188.207, 34564.00
1189.292, 34868.00
1190.378, 34569.00
1191.463, 34882.00
1192.548, 35075.00
1193.632, 34993.00
1194.717, 34804.00
1195.801, 34904.00
1196.886, 34938.00
1197.970, 35119.00
1199.054, 35047.44
1200.137, 34952.00
1201.221, 34930.00
1202.305, 34988.00
1203.388, 34912.00
1204.471, 35197.00
1205.554, 35045.00
1206.637, 35195.00
1207.719, 34957.00
1208.802, 35133.00
1209.884, 35098.00
1210.966, 35355.00
1212.048, 35323.00
1213.130, 35067.00
1214.212, 35312.00
1215.293, 35320.00
1216.374, 35317.00
1217.456, 35425.00
1218.536, 35368.00
1219.617, 35589.00
1220.698, 35779.00
1221.778, 35446.00
1222.859, 35173.00
1223.939, 35572.00
1225.019, 35741.00
1226.099, 35662.00
1227.178, 35589.00
1228.258, 35613.00
1229.337, 35607.37
1230.417, 35603.41
1231.496, 35758.00
1232.574, 35679.00
1233.653, 35892.00
1234.732, 36049.00
1235.810, 36159.42
1236.888, 36211.00
1237.966, 36333.00
1239.044, 36318.70
1240.122, 36351.55
1241.199, 36261.00
1242.277, 36282.00
1243.354, 36202.00
1244.431, 36035.00
1245.508, 36147.00
1246.585, 36392.00
1247.661, 36436.00
1248.738, 36328.00
1249.814, 36325.00
1250.890, 36224.00
1251.966, 36409.00
1253.042, 36298.00
1254.117, 36348.09
1255.193, 36303.00
1256.268, 36387.00
1257.343, 36262.00
1258.418, 36272.00
1259.493, 36552.00
1260.567, 36395.00
1261.642, 36561.00
1262.716, 36931.00
1263.790, 36839.00
1264.864, 36741.00
1265.938, 36769.00
1267.011, 36978.00
1268.085, 36882.00
1269.158, 36919.00
1270.231, 37193.00
1271.304, 37055.00
1272.377, 36982.00
1273.450, 37118.00
1274.522, 37172.00
1275.594, 37201.00
1276.666, 37185.00
1277.738, 37165.93
1278.810, 37270.00
1279.882, 37065.00
1280.953, 36979.00
1282.025, 36924.00
1283.096, 37201.00
1284.167, 37214.00
1285.238, 37277.00
1286.308, 37199.00
1287.379, 37229.00
1288.449, 37357.00
1289.519, 37382.00
1290.589, 37485.00
1291.659, 37407.00
1292.729, 37561.00
1293.798, 37523.00
1294.868, 37686.00
1295.937, 37613.00
1297.006, 37379.00
1298.075, 37753.00
1299.143, 37493.00
1300.212, 37300.00
1301.280, 37480.00
1302.348, 37449.00
1303.416, 37710.00
