##NAMES=Actinolite
##RRUFFID=R060041
##IDEAL CHEMISTRY=Ca_2_(Mg_4.5-2.5_Fe^2+^_0.5-2.5_)Si_8_O_22_(OH)_2_
##LOCALITY=Prince of Wales Island, Alaska, USA
##OWNER=RRUFF
##SOURCE=University of Arizona Mineral Museum
##DESCRIPTION=Green acicular crystals forming parallel groups in cylindrical or bladed forms
##STATUS=The identification of this mineral has been confirmed by X-ray diffraction and chemical analysis
##URL=rruff.info/R060041
##MEASURED CHEMISTRY=(Ca_0.97_Na_0.03_)_2_(Mg_0.65_Fe^2+^_0.29_Fe^3+^_0.04_Al_0.01_Mn_0.01_)_5_(Si_0.98_Al_0.02_)_8_O_22_(OH)_2_
95.94800, 11370.00
97.18200, 11534.22
98.41600, 11707.00
99.64900, 11851.00
100.8830, 11892.00
102.1160, 11941.00
103.3490, 12220.00
104.5820, 12573.00
105.8150, 13000.00
107.0470, 13617.00
108.2800, 14087.00
109.5120, 14847.00
110.7440, 14674.00
111.9760, 13833.00
113.2080, 13525.00
114.4400, 13773.00
115.6710, 14098.00
116.9030, 14033.00
118.1340, 13999.00
119.3650, 13589.00
120.5960, 13450.00
121.8270, 13601.00
123.0580, 13710.00
124.2880, 13642.00
125.5190, 13754.00
126.7490, 13624.00
127.9790, 13807.00
129.2090, 14116.00
130.4390, 14038.00
131.6680, 14268.00
132.8980, 14236.00
134.1270, 14222.00
135.3560, 14227.00
136.5850, 14419.00
137.8140, 14831.00
139.0430, 15095.00
140.2710, 15565.00
141.5000, 15737.00
142.7280, 15997.00
143.9560, 16679.00
145.1840, 17347.00
146.4120, 17941.00
147.6390, 18450.00
148.8670, 18622.00
150.0940, 18804.00
151.3210, 18838.00
152.5490, 18593.73
153.7750, 19049.00
155.0020, 17729.00
156.2290, 17102.00
157.4550, 16292.00
158.6810, 16038.00
159.9080, 15893.00
161.1340, 15535.00
162.3590, 15748.00
163.5850, 16144.00
164.8110, 16496.00
166.0360, 16972.00
167.2610, 17445.00
168.4860, 18016.00
169.7110, 18277.00
170.9360, 18789.00
172.1610, 19122.00
173.3850, 19043.00
174.6100, 18738.00
175.8340, 18314.00
177.0580, 18015.00
178.2820, 17366.00
179.5050, 16842.00
180.7290, 16495.00
181.9520, 16116.00
183.1760, 15783.00
184.3990, 15710.00
185.6220, 15693.00
186.8450, 15656.00
188.0670, 15935.00
189.2900, 16095.00
190.5120, 16235.00
191.7340, 16336.00
192.9560, 16742.00
194.1780, 16992.00
195.4000, 17093.00
196.6220, 17561.00
197.8430, 17741.00
199.0640, 18028.00
200.2860, 18622.00
201.5070, 18916.00
202.7270, 19564.00
203.9480, 20193.00
205.1690, 20203.00
206.3890, 20780.00
207.6090, 21571.00
208.8290, 22494.00
210.0490, 23427.00
211.2690, 25074.00
212.4890, 26314.00
213.7080, 27486.00
214.9280, 28611.00
216.1470, 29421.00
217.3660, 30129.00
218.5850, 30492.00
219.8030, 30423.00
221.0220, 30582.00
222.2400, 30131.00
223.4590, 29408.00
224.6770, 28771.00
225.8950, 27953.00
227.1120, 26743.00
228.3300, 25920.00
229.5480, 24976.00
230.7650, 24024.00
231.9820, 23214.00
233.1990, 22267.00
234.4160, 21710.00
235.6330, 21189.00
236.8490, 20902.00
238.0660, 20456.00
239.2820, 20294.00
240.4980, 19986.00
241.7140, 19851.00
242.9300, 19476.00
244.1460, 19348.00
245.3610, 18973.00
246.5770, 18508.00
247.7920, 18299.00
249.0070, 18016.00
250.2220, 17860.00
251.4370, 17629.19
252.6510, 17435.22
253.8660, 17197.00
255.0800, 17043.00
256.2940, 16770.00
257.5080, 16515.00
258.7220, 16654.00
259.9360, 17008.00
261.1490, 16972.00
262.3630, 16468.00
263.5760, 16266.00
264.7890, 16020.00
266.0020, 16157.00
267.2150, 16252.00
268.4270, 15990.00
269.6400, 15980.00
270.8520, 15980.00
272.0640, 15903.00
273.2760, 15997.00
274.4880, 15904.00
275.7000, 15954.00
276.9120, 16087.00
278.1230, 16091.00
279.3340, 15995.00
280.5450, 16131.00
281.7560, 16041.00
282.9670, 16164.00
284.1780, 16386.00
285.3880, 16185.00
286.5980, 16442.00
287.8090, 16326.00
289.0190, 16524.00
290.2290, 16456.00
291.4380, 16491.00
292.6480, 16449.00
293.8570, 16639.00
295.0670, 16685.00
296.2760, 16597.00
297.4850, 16646.00
298.6930, 16599.82
299.9020, 16668.00
301.1110, 16555.00
302.3190, 16593.00
303.5270, 16630.00
304.7350, 16774.00
305.9430, 16582.00
307.1510, 16748.00
308.3580, 16626.00
309.5660, 16534.00
310.7730, 16713.00
311.9800, 16499.00
313.1870, 16696.00
314.3940, 16580.00
315.6010, 16554.00
316.8070, 16476.00
318.0130, 16563.00
319.2200, 16587.00
320.4260, 16621.00
321.6310, 16700.12
322.8370, 16800.00
324.0430, 16800.00
325.2480, 16903.00
326.4540, 16875.00
327.6590, 16987.01
328.8640, 17138.00
330.0680, 17277.00
331.2730, 17353.00
332.4780, 17693.00
333.6820, 17839.00
334.8860, 18200.00
336.0900, 18253.00
337.2940, 18569.00
338.4980, 18775.00
339.7010, 18837.00
340.9050, 18981.00
342.1080, 19333.00
343.3110, 19317.00
344.5140, 19444.00
345.7170, 19698.00
346.9200, 19702.50
348.1220, 19971.00
349.3240, 19877.00
350.5270, 19997.00
351.7290, 20102.64
352.9310, 20182.00
354.1320, 20559.00
355.3340, 20845.00
356.5350, 21205.00
357.7370, 21524.00
358.9380, 21671.00
360.1390, 22017.00
361.3400, 22092.00
362.5400, 22375.00
363.7410, 22390.00
364.9410, 22251.00
366.1410, 22186.00
367.3410, 21933.00
368.5410, 21676.00
369.7410, 21707.00
370.9400, 21384.00
372.1400, 21473.00
373.3390, 21657.00
374.5380, 21797.00
375.7370, 21961.00
376.9360, 22269.00
378.1350, 22562.00
379.3330, 23051.00
380.5310, 23303.00
381.7300, 23577.00
382.9280, 23739.00
384.1260, 24129.00
385.3230, 23834.00
386.5210, 23980.00
387.7180, 23752.00
388.9160, 23282.00
390.1130, 22893.00
391.3100, 22483.00
392.5060, 22168.00
393.7030, 21871.59
394.9000, 21574.00
396.0960, 21429.00
397.2920, 21208.00
398.4880, 21129.00
399.6840, 21071.00
400.8800, 21315.00
402.0750, 20924.00
403.2710, 21256.00
404.4660, 21280.00
405.6610, 20998.00
406.8560, 20969.00
408.0510, 20863.00
409.2450, 20691.00
410.4400, 20558.00
411.6340, 20145.00
412.8280, 19965.00
414.0220, 19792.00
415.2160, 19419.00
416.4100, 19359.00
417.6030, 19213.00
418.7970, 18918.00
419.9900, 18762.00
421.1830, 18840.00
422.3760, 18758.00
423.5690, 18860.00
424.7610, 19224.00
425.9540, 19384.00
427.1460, 19460.00
428.3380, 19831.00
429.5300, 19849.00
430.7220, 20127.00
431.9140, 20227.00
433.1050, 19885.00
434.2970, 19718.00
435.4880, 19365.00
436.6790, 18917.00
437.8700, 18728.00
439.0610, 18325.00
440.2510, 17937.00
441.4420, 17880.00
442.6320, 17801.00
443.8220, 17708.00
445.0120, 17527.00
446.2020, 17661.00
447.3910, 17451.00
448.5810, 17559.00
449.7700, 17560.00
450.9600, 17406.00
452.1490, 17551.00
453.3370, 17492.00
454.5260, 17579.00
455.7150, 17530.00
456.9030, 17427.00
458.0910, 17528.00
459.2800, 17561.00
460.4670, 17570.00
461.6550, 17369.00
462.8430, 17451.00
464.0300, 17426.00
465.2180, 17356.00
466.4050, 17397.00
467.5920, 17696.00
468.7790, 17596.00
469.9650, 17709.00
471.1520, 17612.00
472.3380, 17787.00
473.5250, 17656.00
474.7110, 17772.00
475.8970, 17784.00
477.0820, 17969.00
478.2680, 17826.00
479.4540, 17763.00
480.6390, 18066.00
481.8240, 18084.00
483.0090, 18161.00
484.1940, 18066.00
485.3780, 18213.00
486.5630, 18107.00
487.7470, 18051.00
488.9320, 18313.00
490.1160, 18480.00
491.3000, 18445.00
492.4830, 18457.00
493.6670, 18490.00
494.8500, 18540.99
496.0340, 18759.00
497.2170, 18754.00
498.4000, 18992.83
499.5820, 19229.00
500.7650, 19378.00
501.9480, 19426.00
503.1300, 19597.00
504.3120, 19753.00
505.4940, 19908.02
506.6760, 20066.00
507.8580, 20287.00
509.0390, 20524.00
510.2210, 20722.00
511.4020, 20712.00
512.5830, 20699.00
513.7640, 20831.00
514.9450, 21295.00
516.1250, 21202.00
517.3060, 21554.00
518.4860, 21707.00
519.6660, 21833.00
520.8460, 21903.00
522.0260, 21834.00
523.2060, 21908.00
524.3850, 21676.00
525.5650, 21694.00
526.7440, 21491.00
527.9230, 21244.00
529.1020, 20910.00
530.2810, 20720.00
531.4590, 20560.00
532.6380, 20244.00
533.8160, 20082.00
534.9940, 19867.00
536.1720, 19752.00
537.3500, 19872.00
538.5270, 19669.00
539.7050, 19592.00
540.8820, 19660.00
542.0590, 19450.00
543.2360, 19656.00
544.4130, 19522.00
545.5900, 19532.00
546.7660, 19469.00
547.9430, 19318.00
549.1190, 19555.00
550.2950, 19256.00
551.4710, 19456.00
552.6470, 19258.00
553.8220, 19442.00
554.9980, 19508.00
556.1730, 19577.00
557.3480, 19535.00
558.5230, 19529.08
559.6980, 19524.78
560.8730, 19440.00
562.0470, 19488.00
563.2220, 19499.00
564.3960, 19504.00
565.5700, 19573.00
566.7440, 19710.00
567.9170, 19532.00
569.0910, 19505.00
570.2640, 19725.00
571.4380, 19840.00
572.6110, 19580.00
573.7840, 19520.00
574.9570, 19580.00
576.1290, 19574.00
577.3020, 19565.00
578.4740, 19627.00
579.6460, 19476.00
580.8180, 19484.00
581.9900, 19478.00
583.1620, 19299.00
584.3330, 19332.00
585.5040, 19277.00
586.6760, 18955.00
587.8470, 19060.00
589.0180, 19146.00
590.1880, 19114.00
591.3590, 19262.00
592.5290, 19334.00
593.7000, 19046.00
594.8700, 19411.00
596.0400, 19388.00
597.2090, 19190.00
598.3790, 19253.00
599.5490, 19359.00
600.7180, 19401.00
601.8870, 19432.00
603.0560, 19437.00
604.2250, 19400.00
605.3940, 19365.00
606.5620, 19533.00
607.7300, 19656.00
608.8990, 19552.00
610.0670, 19605.00
611.2350, 19511.00
612.4020, 19408.00
613.5700, 19639.00
614.7370, 19569.16
615.9050, 19865.00
617.0720, 19770.00
618.2390, 19883.00
619.4060, 20183.00
620.5720, 20036.00
621.7390, 19988.00
622.9050, 20120.00
624.0710, 20265.00
625.2370, 20249.00
626.4030, 20416.00
627.5690, 20544.00
628.7340, 20782.00
629.9000, 20878.00
631.0650, 20926.00
632.2300, 21040.00
633.3950, 21187.00
634.5600, 21430.00
635.7240, 21642.00
636.8890, 21998.00
638.0530, 21996.00
639.2170, 22341.00
640.3810, 22485.00
641.5450, 22741.00
642.7080, 23003.00
643.8720, 23291.00
645.0350, 23277.00
646.1980, 23711.00
647.3610, 23677.00
648.5240, 24143.00
649.6870, 24595.00
650.8490, 25265.00
652.0120, 25807.00
653.1740, 26465.00
654.3360, 27387.00
655.4980, 28464.00
656.6600, 30142.00
657.8210, 32030.00
658.9830, 34198.00
660.1440, 37156.00
661.3050, 40478.00
662.4660, 43941.00
663.6270, 47574.00
664.7870, 51190.00
665.9480, 53141.00
667.1080, 55130.00
668.2680, 55326.00
669.4280, 54472.00
670.5880, 51804.00
671.7480, 48596.00
672.9070, 45183.00
674.0670, 41530.00
675.2260, 38343.00
676.3850, 35092.00
677.5440, 32653.00
678.7030, 30861.00
679.8610, 29414.00
681.0200, 28276.00
682.1780, 27455.00
683.3360, 26729.00
684.4940, 26184.00
685.6520, 25539.00
686.8090, 25290.00
687.9670, 24792.00
689.1240, 24539.00
690.2810, 24218.00
691.4380, 23611.00
692.5950, 23338.00
693.7520, 23178.00
694.9080, 22862.00
696.0650, 22761.08
697.2210, 22623.00
698.3770, 22668.00
699.5330, 22398.00
700.6880, 22625.00
701.8440, 22073.00
702.9990, 22285.00
704.1550, 22281.00
705.3100, 22264.00
706.4650, 22220.00
707.6190, 22152.13
708.7740, 21926.00
709.9290, 22018.00
711.0830, 21879.00
712.2370, 21900.00
713.3910, 22063.00
714.5450, 21851.00
715.6980, 21929.00
716.8520, 22061.00
718.0050, 21854.00
719.1580, 21978.00
720.3110, 21952.00
721.4640, 22170.00
722.6170, 22226.00
723.7700, 22221.00
724.9220, 22220.00
726.0740, 22134.00
727.2260, 22317.00
728.3780, 22449.00
729.5300, 22467.00
730.6810, 22659.00
731.8330, 22968.00
732.9840, 22986.00
734.1350, 23162.00
735.2860, 23433.00
736.4370, 23375.00
737.5880, 23347.00
738.7380, 23379.00
739.8880, 23344.00
741.0390, 23527.00
742.1890, 23523.00
743.3380, 23429.00
744.4880, 23334.00
745.6380, 23347.00
746.7870, 23127.00
747.9360, 23047.17
749.0850, 22941.00
750.2340, 22861.00
751.3830, 22618.00
752.5310, 22725.00
753.6800, 22708.00
754.8280, 22406.00
755.9760, 22405.00
757.1240, 22527.00
758.2720, 22380.00
759.4190, 22409.00
760.5670, 22389.00
761.7140, 22576.00
762.8610, 22364.00
764.0080, 22503.00
765.1550, 22677.00
766.3020, 22624.00
767.4480, 22495.00
768.5950, 22479.00
769.7410, 22392.00
770.8870, 22405.31
772.0330, 22387.24
773.1780, 22396.40
774.3240, 22423.00
775.4690, 22476.00
776.6140, 22557.00
777.7590, 22641.00
778.9040, 22347.00
780.0490, 22596.00
781.1940, 22366.00
782.3380, 22541.00
783.4820, 22351.00
784.6260, 22552.00
785.7700, 22500.00
786.9140, 22558.00
788.0580, 22729.00
789.2010, 22786.00
790.3450, 22778.85
791.4880, 22730.62
792.6310, 22712.00
793.7730, 22501.00
794.9160, 22456.00
796.0590, 22384.00
797.2010, 22596.00
798.3430, 22618.00
799.4850, 22693.00
800.6270, 22588.00
801.7690, 22682.49
802.9100, 22746.00
804.0520, 22830.00
805.1930, 22819.00
806.3340, 22998.00
807.4750, 22937.00
808.6160, 22902.00
809.7560, 22708.00
810.8970, 22801.00
812.0370, 22933.00
813.1770, 22886.00
814.3170, 23143.00
815.4570, 22876.00
816.5960, 23281.00
817.7360, 23124.00
818.8750, 22904.00
820.0140, 23140.00
821.1530, 23178.00
822.2920, 23128.00
823.4310, 23053.00
824.5690, 23334.00
825.7070, 23242.00
826.8460, 23239.00
827.9840, 23095.00
829.1220, 23095.39
830.2590, 23065.65
831.3970, 23119.00
832.5340, 23107.00
833.6710, 23263.00
834.8080, 23424.00
835.9450, 23505.00
837.0820, 23477.00
838.2190, 23711.00
839.3550, 23386.00
840.4910, 23371.00
841.6270, 23688.00
842.7630, 23438.00
843.8990, 23610.00
845.0350, 23697.00
846.1700, 23644.00
847.3060, 23780.00
848.4410, 23393.00
849.5760, 23255.00
850.7100, 23261.00
851.8450, 23872.00
852.9800, 23801.00
854.1140, 24075.00
855.2480, 23790.00
856.3820, 24010.00
857.5160, 23898.00
858.6500, 23802.00
859.7830, 24065.00
860.9170, 24006.00
862.0500, 23895.00
863.1830, 24242.00
864.3160, 24071.00
865.4480, 24138.00
866.5810, 24359.00
867.7130, 24315.00
868.8460, 24495.00
869.9780, 24358.00
871.1100, 24295.00
872.2410, 24226.00
873.3730, 24317.00
874.5050, 24261.00
875.6360, 24610.00
876.7670, 24475.00
877.8980, 24686.00
879.0290, 24585.00
880.1590, 24830.00
881.2900, 24773.00
882.4200, 24520.00
883.5500, 24790.00
884.6800, 24786.00
885.8100, 25038.00
886.9400, 25009.00
888.0690, 24781.00
889.1990, 25096.00
890.3280, 24911.00
891.4570, 25168.00
892.5860, 25336.00
893.7140, 25342.00
894.8430, 25567.00
895.9710, 25587.00
897.1000, 25504.00
898.2280, 25706.00
899.3560, 25712.00
900.4830, 25958.00
901.6110, 25933.00
902.7380, 25798.00
903.8660, 25887.00
904.9930, 26014.00
906.1200, 26078.00
907.2460, 26151.00
908.3730, 26445.00
909.5000, 26474.00
910.6260, 26624.00
911.7520, 26639.00
912.8780, 26693.00
914.0040, 27013.00
915.1290, 27191.00
916.2550, 27454.00
917.3800, 27684.00
918.5050, 27896.00
919.6300, 28243.99
920.7550, 28729.00
921.8800, 28973.00
923.0040, 29320.00
924.1290, 29767.00
925.2530, 29908.00
926.3770, 29903.00
927.5010, 30027.00
928.6250, 29950.00
929.7480, 29672.00
930.8720, 29242.00
931.9950, 28884.00
933.1180, 28579.00
934.2410, 28339.91
935.3640, 28195.00
936.4860, 28056.96
937.6090, 27984.60
938.7310, 28019.00
939.8530, 28012.00
940.9750, 28089.00
942.0970, 28257.00
943.2180, 28186.00
944.3400, 28250.44
945.4610, 27966.00
946.5820, 28091.00
947.7030, 28074.00
948.8240, 27681.00
949.9450, 27715.00
951.0650, 27908.00
952.1860, 27522.00
953.3060, 27677.00
954.4260, 27646.00
955.5460, 27472.00
956.6650, 27729.00
957.7850, 27489.00
958.9040, 27415.00
960.0230, 27447.00
961.1420, 27605.00
962.2610, 27498.00
963.3800, 27561.00
964.4990, 27292.00
965.6170, 27382.00
966.7350, 27555.00
967.8530, 27533.00
968.9710, 27665.00
970.0890, 27905.00
971.2070, 27643.00
972.3240, 27588.00
973.4410, 27815.00
974.5580, 27850.00
975.6750, 27903.00
976.7920, 27868.00
977.9090, 27981.00
979.0250, 27897.00
980.1410, 28089.00
981.2580, 28103.00
982.3740, 28000.00
983.4890, 27965.00
984.6050, 27918.00
985.7200, 27993.46
986.8360, 28319.00
987.9510, 28302.00
989.0660, 28507.00
990.1810, 28869.00
991.2950, 28681.00
992.4100, 28479.00
993.5240, 28762.00
994.6390, 28858.00
995.7530, 28984.00
996.8660, 29212.00
997.9800, 29136.00
999.0940, 29364.00
1000.207, 29441.00
1001.320, 29565.00
1002.433, 29756.00
1003.546, 29957.77
1004.659, 30211.38
1005.772, 30492.00
1006.884, 30812.00
1007.996, 31149.19
1009.108, 31507.00
1010.220, 31927.00
1011.332, 32215.00
1012.444, 32665.00
1013.555, 33032.00
1014.666, 33564.00
1015.777, 34245.00
1016.888, 34594.00
1017.999, 35490.00
1019.110, 36061.00
1020.220, 37213.00
1021.331, 37625.00
1022.441, 38274.00
1023.551, 39231.00
1024.661, 39151.00
1025.770, 39104.00
1026.880, 38909.00
1027.989, 38180.00
1029.098, 37139.00
1030.207, 36475.00
1031.316, 35336.00
1032.425, 34476.00
1033.533, 33565.00
1034.642, 32963.00
1035.750, 32546.00
1036.858, 32704.00
1037.966, 32553.00
1039.073, 32799.00
1040.181, 33071.00
1041.288, 33324.00
1042.396, 33372.00
1043.503, 34005.00
1044.610, 34646.00
1045.716, 35428.00
1046.823, 36226.00
1047.929, 36861.00
1049.036, 37322.00
1050.142, 38023.00
1051.248, 38397.00
1052.353, 38988.00
1053.459, 38894.00
1054.564, 38431.00
1055.670, 38327.00
1056.775, 38203.00
1057.880, 37941.00
1058.985, 37829.83
1060.089, 37365.00
1061.194, 37483.00
1062.298, 37408.00
1063.402, 37216.00
1064.506, 36717.00
1065.610, 35980.00
1066.713, 35439.00
1067.817, 34357.00
1068.920, 33918.00
1070.023, 33240.00
1071.126, 32647.00
1072.229, 32067.00
1073.332, 31616.00
1074.435, 31266.51
1075.537, 31101.00
1076.639, 30754.00
1077.741, 30817.00
1078.843, 30640.00
1079.945, 30601.00
1081.046, 30596.00
1082.148, 30471.00
1083.249, 30348.00
1084.350, 30417.00
1085.451, 30373.00
1086.551, 30332.00
1087.652, 30192.00
1088.752, 30223.00
1089.853, 29852.00
1090.953, 29901.00
1092.053, 29810.00
1093.152, 30087.00
1094.252, 30246.00
1095.351, 30199.00
1096.451, 30335.00
1097.550, 30095.00
1098.649, 30222.00
1099.748, 29898.00
1100.846, 29587.00
1101.945, 30152.00
1103.043, 30196.00
1104.141, 30151.00
1105.239, 30003.00
1106.337, 29924.00
1107.434, 30276.00
1108.532, 30149.00
1109.629, 30132.00
1110.726, 29982.00
1111.823, 30016.00
1112.920, 30116.00
1114.017, 30191.00
1115.113, 29934.00
1116.210, 30015.00
1117.306, 30096.00
1118.402, 30234.00
1119.498, 30339.88
1120.593, 30456.00
1121.689, 30602.00
1122.784, 30542.00
1123.879, 30661.00
1124.974, 30397.00
1126.069, 30259.00
1127.164, 30478.00
1128.259, 30276.00
1129.353, 30430.00
1130.447, 30581.00
1131.541, 30366.00
1132.635, 30330.00
1133.729, 30272.00
1134.822, 30659.00
1135.916, 30445.00
1137.009, 30562.00
1138.102, 30292.00
1139.195, 30315.00
1140.288, 30427.00
1141.380, 30469.00
1142.473, 30537.00
1143.565, 30522.00
1144.657, 30350.00
1145.749, 30366.00
1146.841, 30539.00
1147.932, 30706.00
1149.024, 30595.00
1150.115, 30566.00
1151.206, 30433.00
1152.297, 30648.00
1153.388, 30694.00
1154.479, 30628.00
1155.569, 30797.00
1156.659, 30672.00
1157.750, 30471.00
1158.839, 30742.00
1159.929, 30544.00
1161.019, 31081.00
1162.108, 31031.00
1163.198, 30854.00
1164.287, 30804.00
1165.376, 30829.00
1166.465, 30979.00
1167.553, 31208.00
1168.642, 31062.00
1169.730, 31003.00
1170.818, 30854.00
1171.906, 31279.00
1172.994, 31130.00
1174.082, 31171.00
1175.170, 31161.00
1176.257, 31220.00
1177.344, 31226.57
1178.431, 31273.00
1179.518, 31259.00
1180.605, 31313.00
1181.691, 31328.00
1182.778, 31377.00
1183.864, 31518.00
1184.950, 31540.00
1186.036, 31525.00
1187.122, 31707.00
1188.207, 31615.00
1189.292, 31779.00
1190.378, 31668.00
1191.463, 31580.00
1192.548, 31705.00
1193.632, 31501.00
1194.717, 31574.00
1195.801, 31764.00
1196.886, 31727.00
1197.970, 31651.00
1199.054, 31822.00
1200.137, 31660.00
1201.221, 32087.00
1202.305, 32045.00
1203.388, 31758.00
1204.471, 32006.00
1205.554, 32014.00
1206.637, 32238.00
1207.719, 31906.00
1208.802, 31804.00
1209.884, 32049.00
1210.966, 32186.00
1212.048, 32372.00
1213.130, 32111.00
1214.212, 31995.00
1215.293, 32357.00
1216.374, 32794.00
1217.456, 32492.00
1218.536, 32475.00
1219.617, 32427.00
1220.698, 32237.00
1221.778, 32597.00
1222.859, 32728.00
1223.939, 32510.00
1225.019, 32757.00
1226.099, 32355.00
1227.178, 32656.00
1228.258, 32712.00
1229.337, 32708.00
1230.417, 32766.00
1231.496, 32675.00
1232.574, 32510.00
1233.653, 32692.00
1234.732, 32843.00
1235.810, 33092.00
1236.888, 33073.00
1237.966, 33185.31
1239.044, 33213.15
1240.122, 33230.00
1241.199, 33177.00
1242.277, 33166.00
1243.354, 33100.00
1244.431, 33229.00
1245.508, 33477.00
1246.585, 33487.00
1247.661, 33233.00
1248.738, 33462.74
1249.814, 33431.00
1250.890, 33497.00
1251.966, 33476.00
1253.042, 33213.00
1254.117, 33647.00
1255.193, 33545.00
1256.268, 33436.00
1257.343, 33687.00
1258.418, 33849.00
1259.493, 33396.00
1260.567, 33591.00
1261.642, 33716.00
1262.716, 33851.00
1263.790, 33669.00
1264.864, 33962.00
1265.938, 33897.00
1267.011, 34207.00
1268.085, 34045.00
1269.158, 34164.00
1270.231, 33956.00
1271.304, 34424.00
1272.377, 33846.00
1273.450, 34208.00
1274.522, 34278.00
