##NAMES=Actinolite
##RRUFFID=R050336
##IDEAL CHEMISTRY=Ca_2_(Mg_4.5-2.5_Fe^2+^_0.5-2.5_)Si_8_O_22_(OH)_2_
##LOCALITY=Kragerø, Norway
##OWNER=RRUFF
##SOURCE=California Institute of Technology
##DESCRIPTION=Dark green prismatic fragment
##STATUS=The identification of this mineral has been confirmed by X-ray diffraction and chemical analysis
##URL=rruff.info/R050336
##MEASURED CHEMISTRY=([box]_0.62_Na_0.34_K_0.04_)(Ca_1.60_Na_0.40_)_Σ=2_(Mg_3.90_Fe^2+^_0.70_Al_0.20_Ti_0.10_Fe^3+^_0.10_)_Σ=5_(Si_7.52_Al_0.48_)_Σ=8_O_22_((OH)_0.97_F_0.03_)_2_
##PIN_ID=M00348
##ORIENTATION=Laser parallel to (1 0 1). Fiducial mark perpendicular to laser is parallel to b [0 1 0]
62.34500, 339.0000
63.58900, 316.0000
64.83300, 320.0000
66.07600, 350.0000
67.32000, 345.0000
68.56300, 370.0000
69.80600, 363.0000
71.04900, 439.0000
72.29100, 504.0000
73.53400, 561.0000
74.77600, 679.0000
76.01800, 828.0000
77.26000, 830.0000
78.50200, 871.0000
79.74300, 942.0000
80.98500, 1219.000
82.22600, 1491.000
83.46700, 1629.000
84.70800, 1701.000
85.94900, 1794.000
87.18900, 2104.000
88.42900, 2466.000
89.67000, 2955.000
90.91000, 3551.000
92.14900, 3984.000
93.38900, 4130.000
94.62900, 4369.626
95.86800, 4423.000
97.10700, 4567.000
98.34600, 4972.000
99.58500, 5289.000
100.8230, 5649.000
102.0620, 5793.000
103.3000, 6467.000
104.5380, 7404.000
105.7760, 8524.000
107.0140, 9152.000
108.2510, 9382.000
109.4890, 9628.000
110.7260, 10254.00
111.9630, 10814.00
113.2000, 11349.00
114.4360, 12302.00
115.6730, 12865.00
116.9090, 12859.00
118.1450, 12430.00
119.3810, 12204.00
120.6170, 11889.00
121.8530, 11336.00
123.0880, 10682.00
124.3230, 9829.000
125.5590, 9220.000
126.7930, 8937.000
128.0280, 8677.000
129.2630, 8730.000
130.4970, 8539.000
131.7310, 8505.000
132.9650, 8467.000
134.1990, 8266.948
135.4330, 8435.708
136.6670, 8567.091
137.9000, 8663.035
139.1330, 8617.674
140.3660, 8754.780
141.5990, 8818.762
142.8320, 8897.000
144.0640, 9133.000
145.2960, 9216.000
146.5290, 9496.000
147.7610, 9752.000
148.9920, 10115.00
150.2240, 10594.70
151.4550, 11090.00
152.6870, 11728.00
153.9180, 12428.00
155.1490, 13124.00
156.3800, 13633.00
157.6100, 14464.00
158.8400, 14923.00
160.0710, 15730.00
161.3010, 16183.00
162.5310, 16336.00
163.7600, 16241.00
164.9900, 16112.00
166.2190, 15369.85
167.4480, 15305.17
168.6770, 15203.10
169.9060, 15065.66
171.1350, 14786.92
172.3630, 15040.00
173.5920, 15303.00
174.8200, 15797.00
176.0480, 16032.00
177.2760, 16371.00
178.5030, 16569.00
179.7310, 16787.00
180.9580, 16618.00
182.1850, 16218.00
183.4120, 15731.00
184.6390, 15014.00
185.8650, 14588.00
187.0920, 14020.00
188.3180, 13250.00
189.5440, 12813.00
190.7700, 12448.90
191.9960, 12114.00
193.2210, 11915.00
194.4470, 11750.00
195.6720, 11598.63
196.8970, 11579.57
198.1220, 11490.00
199.3460, 11561.00
200.5710, 11662.00
201.7950, 11853.69
203.0190, 12129.00
204.2430, 12408.00
205.4670, 12834.00
206.6910, 13148.00
207.9140, 13774.00
209.1370, 14375.00
210.3610, 15296.00
211.5840, 16179.00
212.8060, 17200.00
214.0290, 18516.00
215.2510, 19914.00
216.4740, 21073.00
217.6960, 22704.00
218.9180, 23825.00
220.1390, 25157.00
221.3610, 26287.00
222.5820, 27234.00
223.8030, 27979.00
225.0240, 28184.79
226.2450, 28326.00
227.4660, 27805.00
228.6870, 27158.00
229.9070, 26204.00
231.1270, 24937.00
232.3470, 23874.00
233.5670, 22608.00
234.7870, 21260.00
236.0060, 19989.00
237.2250, 18538.00
238.4440, 17392.00
239.6630, 16257.00
240.8820, 15319.00
242.1010, 14513.00
243.3190, 13975.00
244.5380, 13543.00
245.7560, 13215.00
246.9740, 12992.00
248.1910, 12403.34
249.4090, 12294.03
250.6260, 12147.49
251.8440, 11965.43
253.0610, 11642.21
254.2780, 11501.47
255.4940, 11287.76
256.7110, 11070.89
257.9270, 10955.98
259.1430, 10653.48
260.3600, 10536.80
261.5750, 10346.20
262.7910, 10189.42
264.0070, 9959.060
265.2220, 9758.000
266.4370, 9354.407
267.6520, 9305.576
268.8670, 9219.367
270.0820, 9097.789
271.2960, 8835.016
272.5100, 8754.707
273.7250, 8601.167
274.9390, 8586.000
276.1520, 8377.469
277.3660, 8430.453
278.5790, 8334.000
279.7930, 8480.000
281.0060, 8498.000
282.2190, 8614.000
283.4320, 8628.000
284.6440, 8700.000
285.8570, 8845.000
287.0690, 8876.000
288.2810, 9090.000
289.4930, 9003.000
290.7050, 9181.000
291.9160, 9177.000
293.1270, 9148.000
294.3390, 9375.000
295.5500, 9337.000
296.7610, 9693.000
297.9710, 9689.000
299.1820, 9701.000
300.3920, 10102.00
301.6020, 9994.926
302.8120, 9999.000
304.0220, 10014.00
305.2320, 9992.000
306.4410, 9922.000
307.6510, 9915.000
308.8600, 9785.000
310.0690, 9771.615
311.2780, 9846.000
312.4860, 9700.000
313.6950, 9749.000
314.9030, 9733.000
316.1110, 9739.681
317.3190, 9852.000
318.5270, 9850.000
319.7350, 9931.365
320.9420, 10045.00
322.1490, 10073.00
323.3570, 10170.07
324.5630, 10186.00
325.7700, 10367.00
326.9770, 10417.00
328.1830, 10618.00
329.3900, 10746.00
330.5960, 10911.00
331.8020, 11015.84
333.0070, 11140.00
334.2130, 11269.77
335.4180, 11373.03
336.6230, 11501.00
337.8290, 11589.00
339.0330, 11683.00
340.2380, 11784.79
341.4430, 11986.00
342.6470, 12055.00
343.8510, 12209.00
345.0550, 12436.00
346.2590, 12796.00
347.4630, 12866.00
348.6660, 13129.00
349.8700, 13198.00
351.0730, 13447.00
352.2760, 13460.00
353.4790, 13618.00
354.6810, 13702.00
355.8840, 13759.00
357.0860, 13978.00
358.2880, 14016.00
359.4900, 14472.00
360.6920, 14842.00
361.8940, 15063.00
363.0950, 15584.00
364.2960, 16270.00
365.4980, 16657.00
366.6990, 17154.00
367.8990, 17473.00
369.1000, 17938.00
370.3000, 18147.00
371.5010, 18229.00
372.7010, 18158.00
373.9010, 17837.00
375.1010, 17432.00
376.3000, 17146.00
377.5000, 16556.00
378.6990, 15962.00
379.8980, 15579.00
381.0970, 15192.00
382.2960, 14992.00
383.4940, 14873.00
384.6920, 14877.00
385.8910, 14908.74
387.0890, 15114.99
388.2870, 15283.86
389.4840, 15417.26
390.6820, 15409.46
391.8790, 15570.00
393.0770, 15683.00
394.2740, 15364.00
395.4700, 15007.00
396.6670, 14478.00
397.8640, 13805.00
399.0600, 13481.00
400.2560, 12780.00
401.4520, 12800.00
402.6480, 11853.00
403.8440, 11642.00
405.0390, 11644.00
406.2350, 11367.00
407.4300, 11419.00
408.6250, 11482.00
409.8200, 11708.00
411.0140, 11888.00
412.2090, 11996.00
413.4030, 12089.00
414.5970, 12270.12
415.7910, 12521.00
416.9850, 12447.00
418.1790, 12413.00
419.3720, 12175.00
420.5660, 12104.00
421.7590, 11879.00
422.9520, 11624.00
424.1440, 11254.00
425.3370, 11055.00
426.5300, 10790.00
427.7220, 10532.00
428.9140, 10482.00
430.1060, 10319.00
431.2980, 10244.00
432.4890, 10085.00
433.6810, 10056.00
434.8720, 9877.982
436.0630, 9676.000
437.2540, 9540.000
438.4450, 9346.000
439.6350, 9137.000
440.8260, 8964.000
442.0160, 8764.000
443.2060, 8689.000
444.3960, 8523.000
445.5860, 8335.000
446.7750, 8339.000
447.9650, 8127.846
449.1540, 7835.000
450.3430, 7873.000
451.5320, 7772.000
452.7210, 7747.000
453.9090, 7683.000
455.0980, 7589.950
456.2860, 7642.741
457.4740, 7658.155
458.6620, 7638.200
459.8500, 7476.938
461.0370, 7498.173
462.2250, 7446.256
463.4120, 7541.000
464.5990, 7483.371
465.7860, 7453.615
466.9720, 7529.000
468.1590, 7362.138
469.3450, 7433.143
470.5320, 7466.757
471.7180, 7465.013
472.9030, 7321.975
474.0890, 7361.393
475.2750, 7327.686
476.4600, 7290.992
477.6450, 7356.103
478.8300, 7233.617
480.0150, 7405.000
481.2000, 7342.000
482.3840, 7462.000
483.5690, 7479.000
484.7530, 7410.000
485.9370, 7483.000
487.1210, 7469.057
488.3040, 7566.000
489.4880, 7527.000
490.6710, 7489.000
491.8540, 7565.000
493.0370, 7828.000
494.2200, 7735.000
495.4030, 8046.000
496.5850, 8141.000
497.7680, 8463.000
498.9500, 8450.000
500.1320, 8766.303
501.3140, 9281.000
502.4950, 9335.000
503.6770, 9775.000
504.8580, 10147.00
506.0390, 10452.00
507.2200, 10788.00
508.4010, 11126.00
509.5820, 11599.00
510.7620, 12176.00
511.9420, 12354.00
513.1230, 12635.00
514.3030, 12918.00
515.4820, 12986.00
516.6620, 13060.00
517.8420, 12941.00
519.0210, 13026.00
520.2000, 12954.00
521.3790, 12730.00
522.5580, 12709.75
523.7360, 12744.00
524.9150, 12391.00
526.0930, 12390.00
527.2710, 12082.00
528.4490, 12038.00
529.6270, 11980.00
530.8050, 11772.00
531.9820, 11573.00
533.1590, 11398.00
534.3360, 11265.00
535.5130, 10863.00
536.6900, 10834.00
537.8670, 10518.57
539.0430, 10467.00
540.2200, 10026.00
541.3960, 9974.000
542.5720, 9787.000
543.7470, 9624.000
544.9230, 9625.000
546.0980, 9491.000
547.2740, 9417.830
548.4490, 9296.000
549.6240, 9235.000
550.7990, 9128.000
551.9730, 8976.000
553.1480, 8983.000
554.3220, 8900.000
555.4960, 8787.000
556.6700, 8658.000
557.8440, 8623.000
559.0170, 8607.000
560.1910, 8634.000
561.3640, 8578.145
562.5370, 8530.000
563.7100, 8500.000
564.8830, 8473.000
566.0550, 8433.104
567.2280, 8404.458
568.4000, 8376.079
569.5720, 8325.000
570.7440, 8318.000
571.9160, 8250.000
573.0870, 8209.000
574.2590, 8070.000
575.4300, 8199.000
576.6010, 8020.000
577.7720, 7999.000
578.9430, 7771.000
580.1140, 7671.000
581.2840, 7471.000
582.4540, 7495.000
583.6240, 7312.000
584.7940, 7142.000
585.9640, 7018.000
587.1340, 6825.000
588.3030, 6783.000
589.4720, 6587.656
590.6410, 6520.000
591.8100, 6276.000
592.9790, 6186.000
594.1480, 6066.000
595.3160, 5984.000
596.4840, 5946.118
597.6520, 5977.000
598.8200, 5911.000
599.9880, 5881.000
601.1560, 5888.000
602.3230, 5796.000
603.4900, 5850.000
604.6570, 5813.000
605.8240, 5937.000
606.9910, 5993.000
608.1580, 5984.000
609.3240, 6091.000
610.4900, 6149.000
611.6570, 6127.000
612.8230, 6074.000
613.9880, 6240.000
615.1540, 6289.000
616.3190, 6328.000
617.4850, 6396.000
618.6500, 6699.000
619.8150, 6563.000
620.9790, 6575.000
622.1440, 6984.000
623.3080, 7075.000
624.4730, 6972.000
625.6370, 6977.000
626.8010, 7303.000
627.9640, 7332.279
629.1280, 7582.000
630.2910, 7493.000
631.4550, 7725.292
632.6180, 7928.976
633.7810, 8067.000
634.9440, 8467.000
636.1060, 8625.000
637.2690, 8982.000
638.4310, 9288.000
639.5930, 9644.000
640.7550, 10028.91
641.9170, 10444.00
643.0780, 10839.00
644.2400, 11330.00
645.4010, 11780.00
646.5620, 12335.00
647.7230, 13096.00
648.8840, 13551.00
650.0450, 14399.00
651.2050, 15176.00
652.3650, 15670.00
653.5250, 16409.00
654.6850, 17141.00
655.8450, 18273.00
657.0050, 19013.00
658.1640, 20224.00
659.3230, 21643.00
660.4830, 23297.00
661.6420, 25409.00
662.8000, 27976.00
663.9590, 30829.00
665.1170, 34005.00
666.2760, 37700.00
667.4340, 41760.00
668.5920, 45862.00
669.7500, 49855.00
670.9070, 53392.00
672.0650, 56453.00
673.2220, 57222.71
674.3790, 57759.00
675.5360, 55789.00
676.6930, 52540.00
677.8500, 48080.00
679.0060, 43060.00
680.1620, 37879.00
681.3190, 33461.00
682.4750, 29669.00
683.6300, 26085.00
684.7860, 23801.00
685.9420, 21674.00
687.0970, 20065.00
688.2520, 18474.00
689.4070, 17048.00
690.5620, 16003.00
691.7170, 15324.00
692.8710, 14542.00
694.0250, 13583.00
695.1800, 12960.00
696.3340, 12436.48
697.4870, 11976.77
698.6410, 11674.00
699.7950, 11399.00
700.9480, 11122.00
702.1010, 10840.00
703.2540, 10634.00
704.4070, 10478.00
705.5600, 10497.00
706.7120, 10489.00
707.8640, 10593.00
709.0170, 10435.00
710.1690, 10596.00
711.3210, 10537.00
712.4720, 10561.00
713.6240, 10839.00
714.7750, 10794.00
715.9260, 10780.87
717.0770, 11008.46
718.2280, 11198.67
719.3790, 11353.51
720.5290, 11366.92
721.6800, 11562.92
722.8300, 11685.68
723.9800, 11805.43
725.1300, 12027.00
726.2800, 12060.97
727.4290, 12280.79
728.5790, 12426.49
729.7280, 12666.00
730.8770, 12797.00
732.0260, 12923.00
733.1750, 13110.00
734.3230, 13222.57
735.4720, 13312.52
736.6200, 13431.00
737.7680, 13383.00
738.9160, 13354.00
740.0640, 13230.00
741.2110, 13202.00
742.3590, 13058.00
743.5060, 12967.00
744.6530, 12778.00
745.8000, 12500.00
746.9470, 12366.00
748.0930, 12092.00
749.2400, 11733.00
750.3860, 11537.00
751.5320, 11294.00
752.6780, 10967.00
753.8240, 10744.00
754.9690, 10437.00
756.1150, 10187.00
757.2600, 9816.000
758.4050, 9663.000
759.5500, 9310.000
760.6950, 9114.000
761.8400, 9046.000
762.9840, 8936.000
764.1280, 8756.000
765.2730, 8740.154
766.4170, 8508.971
767.5600, 8411.674
768.7040, 8175.000
769.8470, 8147.000
770.9910, 8137.000
772.1340, 8016.000
773.2770, 7993.000
774.4200, 8019.000
775.5620, 7856.980
776.7050, 7927.203
777.8470, 7960.061
778.9890, 7957.547
780.1310, 7813.729
781.2730, 7852.378
782.4150, 7817.903
783.5570, 7780.428
784.6980, 7844.772
785.8390, 7721.520
786.9800, 7836.057
788.1210, 7982.000
789.2620, 7921.000
790.4020, 7883.000
791.5430, 7986.000
792.6830, 8024.000
793.8230, 8056.000
794.9630, 8045.270
796.1020, 7817.542
797.2420, 7859.554
798.3810, 7864.228
799.5210, 7833.492
800.6600, 7661.489
801.7990, 7671.952
802.9370, 7609.329
804.0760, 7543.670
805.2140, 7579.854
806.3530, 7428.400
807.4910, 7462.969
808.6290, 7435.000
809.7660, 7387.000
810.9040, 7363.000
812.0420, 7203.000
813.1790, 7202.000
814.3160, 7185.018
815.4530, 7120.550
816.5900, 7168.000
817.7260, 7083.000
818.8630, 6967.000
819.9990, 6969.000
821.1350, 7008.000
822.2710, 6872.000
823.4070, 6846.000
824.5430, 6886.000
825.6780, 6805.000
826.8130, 6833.000
827.9490, 6725.000
829.0840, 6682.000
830.2180, 6686.000
831.3530, 6702.000
832.4880, 6577.000
833.6220, 6439.000
834.7560, 6512.000
835.8900, 6507.000
837.0240, 6445.000
838.1580, 6220.000
839.2910, 6322.000
840.4250, 6288.000
841.5580, 6375.000
842.6910, 6315.000
843.8240, 6215.000
844.9560, 6264.431
846.0890, 6227.185
847.2210, 6272.000
848.3540, 6269.000
849.4860, 6291.000
850.6180, 6348.000
851.7490, 6294.000
852.8810, 6272.000
854.0120, 6300.413
855.1440, 6255.000
856.2750, 6325.000
857.4060, 6323.000
858.5360, 6328.000
859.6670, 6342.000
860.7980, 6378.774
861.9280, 6420.000
863.0580, 6464.000
864.1880, 6493.320
865.3180, 6518.000
866.4470, 6503.000
867.5770, 6540.000
868.7060, 6579.000
869.8350, 6563.000
870.9640, 6670.000
872.0930, 6635.000
873.2220, 6778.000
874.3500, 6855.000
875.4790, 6880.000
876.6070, 7039.000
877.7350, 7082.000
878.8630, 7165.000
879.9900, 7155.000
881.1180, 7249.000
882.2450, 7328.000
883.3730, 7308.000
884.5000, 7557.000
885.6260, 7532.000
886.7530, 7634.000
887.8800, 7816.000
889.0060, 8002.000
890.1320, 8024.000
891.2580, 8209.000
892.3840, 8353.000
893.5100, 8490.000
894.6360, 8625.000
895.7610, 8659.000
896.8860, 8792.000
898.0120, 8963.000
899.1360, 9019.000
900.2610, 9176.000
901.3860, 9239.000
902.5100, 9311.000
903.6350, 9475.000
904.7590, 9416.000
905.8830, 9444.000
907.0070, 9518.000
908.1300, 9655.000
909.2540, 9553.000
910.3770, 9688.000
911.5000, 9752.000
912.6230, 9763.000
913.7460, 10012.00
914.8690, 10026.00
915.9910, 10198.00
917.1140, 10290.00
918.2360, 10478.00
919.3580, 10608.00
920.4800, 10843.00
921.6020, 11059.00
922.7230, 11184.00
923.8440, 11453.00
924.9660, 11583.76
926.0870, 11715.69
927.2080, 11889.00
928.3280, 11904.00
929.4490, 12037.00
930.5700, 12059.00
931.6900, 11952.00
932.8100, 11772.00
933.9300, 11501.00
935.0500, 11498.00
936.1690, 11198.00
937.2890, 11080.00
938.4080, 11060.91
939.5270, 10952.92
940.6460, 10934.49
941.7650, 10949.00
942.8840, 10914.00
944.0020, 10942.00
945.1200, 10970.00
946.2390, 10944.00
947.3570, 11072.00
948.4750, 10935.00
949.5920, 10996.00
950.7100, 11029.00
951.8270, 10899.00
952.9440, 10866.00
954.0610, 10883.00
955.1780, 10830.38
956.2950, 10933.00
957.4120, 10812.00
958.5280, 10859.00
959.6440, 10833.00
960.7600, 10793.00
961.8760, 11000.00
962.9920, 10979.00
964.1080, 10900.00
965.2230, 10879.00
966.3380, 10847.00
967.4540, 10964.00
968.5690, 10955.85
969.6830, 11012.00
970.7980, 11037.00
971.9120, 10848.00
973.0270, 10844.00
974.1410, 10836.00
975.2550, 10737.00
976.3690, 10773.00
977.4820, 10745.00
978.5960, 10711.00
979.7090, 10554.00
980.8230, 10483.00
981.9360, 10463.79
983.0490, 10532.06
984.1610, 10562.97
985.2740, 10558.50
986.3860, 10412.73
987.4980, 10449.43
988.6110, 10413.00
989.7220, 10373.59
990.8340, 10435.97
991.9460, 10372.00
993.0570, 10422.00
994.1690, 10585.00
995.2800, 10569.00
996.3910, 10874.00
997.5010, 11043.00
998.6120, 11147.00
999.7230, 11241.00
1000.833, 11403.00
1001.943, 11597.00
1003.053, 11815.00
1004.163, 11993.00
1005.273, 12269.00
1006.382, 12354.00
1007.492, 12533.00
1008.601, 12859.00
1009.710, 13075.00
1010.819, 13306.00
1011.927, 13479.00
1013.036, 13726.00
1014.144, 13653.67
1015.253, 13859.57
1016.361, 14027.99
1017.469, 14161.03
1018.576, 14152.65
1019.684, 14326.86
1020.791, 14427.83
1021.899, 14525.91
1023.006, 14725.68
1024.113, 14737.87
1025.220, 15158.00
1026.326, 15416.00
1027.433, 15391.00
1028.539, 15677.57
1029.645, 15980.00
1030.751, 15941.00
1031.857, 15960.00
1032.963, 15945.00
1034.068, 15801.00
1035.174, 15687.00
1036.279, 15519.00
1037.384, 15445.00
1038.489, 15389.55
1039.594, 15241.00
1040.698, 15391.00
1041.803, 15279.00
1042.907, 15380.00
1044.011, 15532.00
1045.115, 15614.00
1046.219, 15862.00
1047.323, 16331.00
1048.426, 16468.00
1049.529, 16628.00
1050.632, 17365.00
1051.735, 17680.00
1052.838, 18326.00
1053.941, 18697.00
1055.043, 19023.00
1056.146, 19405.00
1057.248, 19630.00
1058.350, 19902.00
1059.452, 19963.00
1060.554, 19760.00
1061.655, 19685.00
1062.757, 19253.00
1063.858, 18954.00
1064.959, 18217.00
1066.060, 17529.00
1067.161, 17317.90
1068.261, 16446.54
1069.362, 15608.43
1070.462, 14807.33
1071.562, 13936.39
1072.662, 13319.38
1073.762, 12700.71
1074.862, 12150.46
1075.961, 11773.91
1077.061, 11280.79
1078.160, 11022.00
1079.259, 10730.00
1080.358, 10466.83
1081.456, 10287.00
1082.555, 9980.000
1083.653, 9803.000
1084.751, 9503.000
1085.850, 9447.000
1086.947, 9258.000
1088.045, 8998.000
1089.143, 8914.000
1090.240, 8718.000
1091.338, 8572.000
1092.435, 8468.000
1093.532, 8331.000
1094.628, 8235.000
1095.725, 8127.000
1096.822, 8057.000
1097.918, 7879.000
1099.014, 7907.000
1100.110, 7748.815
1101.206, 7585.000
1102.302, 7555.000
1103.397, 7505.000
1104.493, 7493.000
1105.588, 7447.856
1106.683, 7405.000
1107.778, 7349.000
1108.873, 7313.000
1109.967, 7211.000
1111.062, 7156.000
1112.156, 7140.000
1113.250, 7071.000
1114.344, 7046.000
1115.438, 6978.232
1116.531, 6926.590
1117.625, 6823.000
1118.718, 6726.975
1119.811, 6754.073
1120.904, 6743.792
1121.997, 6698.148
1123.090, 6511.191
1124.183, 6506.701
1125.275, 6429.139
1126.367, 6348.583
1127.459, 6369.827
1128.551, 6203.473
1129.643, 6223.107
1130.735, 6168.495
1131.826, 6147.912
1132.917, 6053.758
1134.008, 6099.000
1135.099, 6033.000
1136.190, 6000.000
1137.281, 5848.000
1138.371, 5809.097
1139.462, 5865.436
1140.552, 5884.425
1141.642, 5868.045
1142.732, 5710.355
1143.821, 5735.163
1144.911, 5686.819
1146.000, 5635.503
1147.090, 5685.966
1148.179, 5548.858
1149.268, 5597.732
1150.356, 5572.392
1151.445, 5581.004
1152.533, 5516.065
1153.622, 5473.826
1154.710, 5505.213
1155.798, 5495.847
1156.886, 5418.190
1157.973, 5274.738
1159.061, 5313.741
1160.148, 5279.633
1161.235, 5242.525
1162.322, 5307.223
1163.409, 5184.323
1164.496, 5247.408
1165.583, 5236.250
1166.669, 5259.085
1167.755, 5208.343
1168.841, 5180.327
1169.927, 5155.673
1171.013, 5230.877
1172.099, 5268.701
1173.184, 5271.166
1174.269, 5132.324
1175.355, 5175.941
1176.440, 5146.442
1177.524, 5113.953
1178.609, 5183.261
1179.694, 5064.972
1180.778, 5132.675
1181.862, 5126.135
1182.946, 5153.575
1184.030, 5107.438
1185.114, 5084.027
1186.197, 5072.650
1187.281, 5049.000
1188.364, 5038.000
1189.447, 5057.000
1190.530, 5081.000
1191.613, 5070.008
1192.696, 5021.000
1193.778, 5052.000
1194.860, 5049.000
1195.943, 5014.000
1197.025, 5090.000
1198.107, 5075.000
1199.188, 5103.000
1200.270, 4978.000
1201.351, 5036.000
1202.432, 4964.000
1203.514, 4943.000
1204.594, 5067.000
1205.675, 4975.000
1206.756, 5076.000
1207.836, 4986.000
1208.917, 5053.000
1209.997, 5070.000
1211.077, 5169.000
1212.157, 5070.000
1213.236, 5022.000
1214.316, 5088.000
1215.395, 5090.000
1216.474, 5075.000
1217.553, 5003.000
1218.632, 5105.000
1219.711, 5116.000
1220.790, 5059.000
1221.868, 4982.000
1222.946, 5046.000
1224.024, 5097.000
1225.102, 4991.000
1226.180, 5072.000
1227.258, 5150.000
1228.335, 5062.000
1229.413, 5142.000
1230.490, 5089.000
1231.567, 5007.000
1232.644, 5154.000
1233.720, 5118.000
1234.797, 5137.000
1235.873, 5127.557
1236.950, 5062.039
1238.026, 5081.000
1239.102, 5080.000
