##NAMES=Aenigmatite
##RRUFFID=R061088
##IDEAL CHEMISTRY=Na_4_(Fe^2+^_10_Ti^4+^_2_)O_4_[Si_12_O_36_]
##LOCALITY=Naujakasik, Greenland
##OWNER=RRUFF
##SOURCE=Michael Scott
##DESCRIPTION=Black prismatic crystals
##STATUS=The identification of this mineral has been confirmed by X-ray diffraction and chemical analysis
##URL=rruff.info/R061088
##MEASURED CHEMISTRY=(Na_1.72_Ca_0.28_)_Σ=2_(Fe^2+^_4.90_Mn_0.08_Mg_0.02_)_Σ=5_(Ti_0.85_Al_0.14_Fe^3+^_0.01_)_Σ=1_(Si_5.87_Al_0.13_)_Σ=6_O_20_
##PIN_ID=L01498
##ORIENTATION=Laser parallel to -c* (0 0 -1). Fiducial mark perpendicular to laser is parallel to a [1 0 0]
149.7320, 10326.00
150.9600, 10317.00
152.1880, 10427.00
153.4160, 10214.00
154.6440, 10405.00
155.8720, 10261.00
157.0990, 10140.00
158.3270, 10125.00
159.5540, 10119.25
160.7810, 10141.00
162.0080, 10221.00
163.2350, 10217.00
164.4610, 10242.00
165.6880, 10041.00
166.9140, 10123.00
168.1400, 9909.000
169.3660, 9890.000
170.5920, 9776.000
171.8180, 9559.000
173.0430, 9362.000
174.2690, 9422.000
175.4940, 9293.660
176.7190, 9278.000
177.9440, 9220.000
179.1680, 9214.000
180.3930, 9097.000
181.6170, 9032.000
182.8420, 9207.000
184.0660, 9062.000
185.2900, 9272.000
186.5140, 9300.000
187.7370, 9327.000
188.9610, 9298.000
190.1840, 9368.000
191.4070, 9435.000
192.6300, 9405.000
193.8530, 9330.000
195.0760, 9553.000
196.2980, 9346.000
197.5210, 9425.000
198.7430, 9524.000
199.9650, 9658.000
201.1870, 9626.000
202.4090, 9507.000
203.6310, 9352.000
204.8520, 9112.000
206.0730, 8934.000
207.2950, 8730.000
208.5160, 8885.000
209.7360, 8769.000
210.9570, 8768.000
212.1780, 8965.000
213.3980, 9059.000
214.6180, 8955.000
215.8380, 8793.000
217.0580, 8853.000
218.2780, 8747.000
219.4980, 8664.000
220.7170, 8506.000
221.9360, 8594.000
223.1560, 8618.000
224.3750, 8456.000
225.5930, 8466.000
226.8120, 8562.000
228.0310, 8535.000
229.2490, 8454.000
230.4670, 8644.000
231.6850, 8459.000
232.9030, 8388.000
234.1210, 8450.000
235.3380, 8507.000
236.5560, 8611.000
237.7730, 8531.000
238.9900, 8603.209
240.2070, 8527.000
241.4240, 8607.000
242.6410, 8534.000
243.8570, 8469.000
245.0730, 8612.000
246.2900, 8415.000
247.5060, 8457.000
248.7210, 8422.000
249.9370, 8366.335
251.1530, 8435.396
252.3680, 8474.138
253.5830, 8484.191
254.7980, 8379.630
256.0130, 8423.070
257.2280, 8407.198
258.4430, 8388.895
259.6570, 8453.165
260.8720, 8365.274
262.0860, 8428.236
263.3000, 8430.980
264.5130, 8461.284
265.7270, 8431.910
266.9410, 8420.969
268.1540, 8469.725
269.3670, 8485.426
270.5800, 8414.000
271.7930, 8489.000
273.0060, 8577.000
274.2190, 8514.735
275.4310, 8541.000
276.6430, 8500.000
277.8550, 8531.000
279.0670, 8705.000
280.2790, 8603.000
281.4910, 8740.000
282.7020, 8738.667
283.9140, 8735.000
285.1250, 8707.000
286.3360, 8714.822
287.5470, 8704.000
288.7570, 8752.000
289.9680, 8771.000
291.1780, 8873.000
292.3880, 8885.000
293.5990, 8920.000
294.8080, 8997.000
296.0180, 9029.000
297.2280, 9038.000
298.4370, 9170.000
299.6470, 9019.000
300.8560, 9245.000
302.0650, 9242.000
303.2740, 9164.000
304.4820, 9252.000
305.6910, 9238.000
306.8990, 9366.000
308.1070, 9351.000
309.3150, 9259.000
310.5230, 9182.000
311.7310, 9293.000
312.9390, 9165.000
314.1460, 9209.000
315.3530, 9045.000
316.5600, 8990.000
317.7670, 9029.000
318.9740, 8841.000
320.1810, 8966.000
321.3870, 8768.000
322.5930, 8733.000
323.8000, 8486.000
325.0060, 8576.000
326.2110, 8442.000
327.4170, 8277.000
328.6230, 8316.000
329.8280, 8296.000
331.0330, 8082.000
332.2380, 8034.000
333.4430, 7958.000
334.6480, 7921.000
335.8530, 7982.000
337.0570, 7909.000
338.2610, 7839.000
339.4650, 7719.000
340.6690, 7814.000
341.8730, 7722.000
343.0770, 7801.000
344.2800, 7711.000
345.4840, 7799.000
346.6870, 7723.000
347.8900, 7732.602
349.0930, 7743.000
350.2950, 7749.000
351.4980, 7801.000
352.7000, 7856.000
353.9030, 7874.000
355.1050, 7848.000
356.3070, 7819.000
357.5080, 7868.000
358.7100, 7928.000
359.9110, 7908.817
361.1130, 8034.000
362.3140, 7875.000
363.5150, 7984.000
364.7160, 7894.000
365.9160, 7947.000
367.1170, 7943.000
368.3170, 7835.000
369.5170, 7797.000
370.7170, 7839.000
371.9170, 7813.000
373.1170, 7802.464
374.3170, 7878.000
375.5160, 7778.000
376.7150, 7839.000
377.9140, 7848.000
379.1130, 7788.000
380.3120, 7765.000
381.5110, 7770.000
382.7090, 7826.000
383.9070, 7895.000
385.1060, 7963.000
386.3040, 7903.000
387.5010, 7889.000
388.6990, 7964.000
389.8970, 7884.000
391.0940, 7985.000
392.2910, 7979.000
393.4880, 7875.000
394.6850, 7911.000
395.8820, 7929.000
397.0780, 8081.000
398.2750, 8073.000
399.4710, 8023.000
400.6670, 8087.000
401.8630, 8091.000
403.0590, 8150.000
404.2540, 8057.000
405.4500, 8086.440
406.6450, 8160.000
407.8400, 8074.000
409.0350, 8104.000
410.2300, 8127.000
411.4250, 8128.000
412.6190, 8159.464
413.8140, 8182.317
415.0080, 8178.000
416.2020, 8242.000
417.3960, 8200.000
418.5900, 8225.000
419.7830, 8294.000
420.9770, 8234.000
422.1700, 8350.000
423.3630, 8323.556
424.5560, 8338.771
425.7490, 8358.000
426.9410, 8343.000
428.1340, 8367.284
429.3260, 8415.000
430.5180, 8375.000
431.7100, 8375.000
432.9020, 8336.000
434.0940, 8348.000
435.2850, 8368.739
436.4770, 8458.000
437.6680, 8454.000
438.8590, 8419.000
440.0500, 8492.000
441.2410, 8355.000
442.4310, 8418.000
443.6220, 8341.000
444.8120, 8290.000
446.0020, 8314.000
447.1920, 8161.000
448.3820, 8223.000
449.5710, 8008.000
450.7610, 8073.000
451.9500, 8032.000
453.1390, 8119.000
454.3280, 8069.000
455.5170, 7979.000
456.7060, 7986.000
457.8940, 7934.000
459.0830, 7913.000
460.2710, 7962.000
461.4590, 7904.000
462.6470, 7966.000
463.8350, 7890.000
465.0220, 7909.000
466.2100, 7857.000
467.3970, 7769.000
468.5840, 7889.000
469.7710, 7895.000
470.9580, 7836.000
472.1440, 7880.000
473.3310, 7917.000
474.5170, 7922.000
475.7030, 7811.000
476.8890, 7809.000
478.0750, 7977.000
479.2610, 7838.000
480.4460, 7954.000
481.6320, 7868.000
482.8170, 8049.000
484.0020, 7962.000
485.1870, 8099.000
486.3710, 7976.000
487.5560, 8173.000
488.7400, 8087.000
489.9250, 7967.000
491.1090, 8023.000
492.2930, 8079.000
493.4760, 7972.000
494.6600, 8041.000
495.8440, 8087.000
497.0270, 7997.000
498.2100, 8063.000
499.3930, 8157.000
500.5760, 7950.000
501.7580, 8077.000
502.9410, 8008.000
504.1230, 8037.000
505.3060, 7965.000
506.4880, 7920.000
507.6690, 8120.000
508.8510, 8015.378
510.0330, 8152.000
511.2140, 8043.000
512.3950, 8143.000
513.5760, 8279.000
514.7570, 8201.000
515.9380, 8153.000
517.1190, 8301.000
518.2990, 8301.000
519.4800, 8317.000
520.6600, 8400.000
521.8400, 8491.000
523.0190, 8524.000
524.1990, 8573.000
525.3790, 8615.000
526.5580, 8655.000
527.7370, 8608.000
528.9160, 8739.000
530.0950, 8725.000
531.2740, 8820.000
532.4520, 8791.000
533.6310, 8689.000
534.8090, 8787.000
535.9870, 8764.000
537.1650, 8730.000
538.3430, 8706.000
539.5200, 8653.000
540.6980, 8622.000
541.8750, 8718.000
543.0520, 8478.000
544.2290, 8618.000
545.4060, 8454.000
546.5820, 8622.000
547.7590, 8479.000
548.9350, 8587.000
550.1110, 8559.000
551.2870, 8523.000
552.4630, 8601.000
553.6390, 8526.000
554.8140, 8520.000
555.9900, 8540.000
557.1650, 8544.000
558.3400, 8546.000
559.5150, 8604.000
560.6900, 8493.000
561.8640, 8617.000
563.0390, 8595.000
564.2130, 8461.000
565.3870, 8450.000
566.5610, 8523.000
567.7350, 8536.000
568.9080, 8445.000
570.0820, 8440.000
571.2550, 8438.000
572.4280, 8481.000
573.6010, 8351.000
574.7740, 8246.000
575.9470, 8336.000
577.1190, 8432.000
578.2920, 8232.000
579.4640, 8227.000
580.6360, 8239.000
581.8080, 8334.000
582.9790, 8363.000
584.1510, 8240.000
585.3220, 8152.000
586.4940, 8206.000
587.6650, 8327.000
588.8360, 8285.000
590.0060, 8235.000
591.1770, 8243.000
592.3470, 8193.000
593.5180, 8335.000
594.6880, 8393.000
595.8580, 8324.000
597.0280, 8430.000
598.1970, 8345.000
599.3670, 8537.000
600.5360, 8537.000
601.7050, 8544.000
602.8740, 8616.000
604.0430, 8620.000
605.2120, 8627.000
606.3800, 8748.000
607.5490, 8731.000
608.7170, 8780.000
609.8850, 8813.000
611.0530, 8811.464
612.2210, 8737.531
613.3880, 8794.885
614.5560, 8828.259
615.7230, 8751.688
616.8900, 8827.807
618.0570, 8849.301
619.2240, 8873.050
620.3900, 8984.021
621.5570, 8947.557
622.7230, 9066.582
623.8890, 9130.067
625.0550, 9225.796
626.2210, 9240.000
627.3870, 9294.000
628.5520, 9498.000
629.7180, 9666.000
630.8830, 9595.000
632.0480, 10098.00
633.2130, 10130.00
634.3770, 10093.00
635.5420, 10286.00
636.7060, 10506.00
637.8710, 10834.00
639.0350, 11149.00
640.1990, 11188.00
641.3620, 11275.00
642.5260, 11611.00
643.6890, 11754.00
644.8530, 11963.00
646.0160, 12096.00
647.1790, 12038.00
648.3410, 12219.00
649.5040, 12180.00
650.6670, 12222.00
651.8290, 12165.00
652.9910, 12300.00
654.1530, 12325.00
655.3150, 12373.00
656.4770, 12236.00
657.6380, 12271.00
658.7990, 12169.00
659.9610, 12261.00
661.1220, 12213.00
662.2830, 12175.00
663.4430, 12216.00
664.6040, 12111.00
665.7640, 12257.00
666.9240, 12247.00
668.0850, 12279.00
669.2440, 12159.00
670.4040, 12187.00
671.5640, 12145.00
672.7230, 12171.00
673.8830, 12298.00
675.0420, 12219.00
676.2010, 12170.00
677.3590, 12105.00
678.5180, 12008.00
679.6770, 12106.00
680.8350, 12007.00
681.9930, 11888.00
683.1510, 11780.00
684.3090, 11838.00
685.4670, 11648.00
686.6240, 11680.00
687.7810, 11478.00
688.9390, 11556.00
690.0960, 11273.00
691.2530, 11111.00
692.4090, 11114.00
693.5660, 11072.00
694.7220, 10831.00
695.8790, 10612.00
697.0350, 10311.00
698.1910, 10274.00
699.3460, 10183.00
700.5020, 10015.00
701.6570, 9954.000
702.8130, 9774.000
703.9680, 9742.000
705.1230, 9716.000
706.2780, 9649.000
707.4320, 9588.198
708.5870, 9569.000
709.7410, 9434.000
710.8950, 9375.000
712.0490, 9305.000
713.2030, 9241.000
714.3570, 9371.000
715.5100, 9258.727
716.6640, 9311.000
717.8170, 9103.000
718.9700, 9122.000
720.1230, 8907.000
721.2760, 8901.000
722.4280, 8927.000
723.5810, 8862.000
724.7330, 8865.678
725.8850, 8830.000
727.0370, 8815.000
728.1890, 8769.000
729.3400, 8728.000
730.4920, 8629.000
731.6430, 8694.000
732.7940, 8691.000
733.9450, 8652.000
735.0960, 8716.000
736.2460, 8661.000
737.3970, 8559.000
738.5470, 8422.000
739.6970, 8487.000
740.8470, 8403.000
741.9970, 8370.000
743.1470, 8311.000
744.2970, 8292.000
745.4460, 8271.361
746.5950, 8229.000
747.7440, 8240.000
748.8930, 8213.000
750.0420, 8170.000
751.1900, 8151.000
752.3390, 8091.000
753.4870, 8082.133
754.6350, 8018.000
755.7830, 8055.000
756.9310, 8046.000
758.0780, 8038.000
759.2260, 8036.000
760.3730, 8074.000
761.5200, 7994.000
762.6670, 7927.000
763.8140, 8043.000
764.9610, 8056.000
766.1070, 8002.000
767.2530, 8061.000
768.4000, 7983.000
769.5460, 7970.000
770.6910, 7894.000
771.8370, 8040.000
772.9830, 8059.000
774.1280, 8063.000
775.2730, 8037.000
776.4180, 8016.000
777.5630, 8080.000
778.7080, 8019.000
779.8520, 7937.000
780.9970, 7893.000
782.1410, 7958.000
783.2850, 8030.000
784.4290, 8028.000
785.5730, 8102.000
786.7160, 8042.000
787.8600, 7992.000
789.0030, 8119.000
790.1460, 8084.000
791.2890, 8052.000
792.4320, 8090.000
793.5750, 8016.951
794.7170, 8027.000
795.8590, 7956.000
797.0020, 8001.000
798.1440, 8068.000
799.2850, 8136.000
800.4270, 8119.000
801.5690, 8147.000
802.7100, 8081.000
803.8510, 7999.000
804.9920, 8110.000
806.1330, 8005.000
807.2740, 8205.000
808.4140, 8157.000
809.5550, 8209.000
810.6950, 8139.000
811.8350, 8144.000
812.9750, 8277.000
814.1150, 8287.000
815.2540, 8356.000
816.3940, 8200.000
817.5330, 8199.000
818.6720, 8253.000
819.8110, 8259.000
820.9500, 8277.927
822.0880, 8317.000
823.2270, 8505.000
824.3650, 8422.000
825.5030, 8510.691
826.6410, 8529.000
827.7790, 8531.000
828.9170, 8515.000
830.0540, 8456.000
831.1920, 8430.000
832.3290, 8494.000
833.4660, 8457.000
834.6030, 8545.000
835.7390, 8574.145
836.8760, 8522.000
838.0120, 8652.000
839.1480, 8595.000
840.2840, 8577.000
841.4200, 8526.000
842.5560, 8612.000
843.6920, 8630.000
844.8270, 8735.000
845.9620, 8708.000
847.0970, 8747.000
848.2320, 8710.000
849.3670, 8912.000
850.5020, 8822.000
851.6360, 8892.000
852.7700, 8849.000
853.9040, 8877.000
855.0380, 9025.000
856.1720, 9106.000
857.3060, 9001.000
858.4390, 9125.000
859.5730, 8979.000
860.7060, 9105.000
861.8390, 8983.000
862.9720, 9005.000
864.1040, 9096.000
865.2370, 9157.000
866.3690, 9087.000
867.5010, 9210.000
868.6330, 9152.000
869.7650, 9238.000
870.8970, 9298.000
872.0290, 9190.000
873.1600, 9165.000
874.2910, 9333.000
875.4220, 9278.673
876.5530, 9511.000
877.6840, 9374.000
878.8140, 9439.000
879.9450, 9517.000
881.0750, 9651.000
882.2050, 9748.000
883.3350, 9763.181
884.4650, 9695.000
885.5950, 9747.000
886.7240, 9843.000
887.8530, 9786.000
888.9820, 9930.000
890.1110, 9844.000
891.2400, 9952.000
892.3690, 9939.000
893.4970, 9719.000
894.6260, 9811.000
895.7540, 9726.000
896.8820, 9810.000
898.0100, 9686.000
899.1370, 9668.000
900.2650, 9575.000
901.3920, 9533.000
902.5200, 9506.000
903.6470, 9524.000
904.7730, 9501.000
905.9000, 9528.000
907.0270, 9680.000
908.1530, 9542.000
909.2790, 9496.000
910.4050, 9657.000
911.5310, 9501.000
912.6570, 9506.000
913.7830, 9378.000
914.9080, 9373.000
916.0330, 9350.000
917.1580, 9423.000
918.2830, 9461.000
919.4080, 9349.000
920.5330, 9377.000
921.6570, 9530.000
922.7820, 9324.000
923.9060, 9346.000
925.0300, 9405.000
926.1540, 9320.000
927.2770, 9328.000
928.4010, 9282.000
929.5240, 9304.977
930.6470, 9274.000
931.7700, 9366.000
932.8930, 9349.000
934.0160, 9352.000
935.1380, 9331.000
936.2610, 9353.000
937.3830, 9199.000
938.5050, 9263.000
939.6270, 9305.000
940.7490, 9233.000
941.8700, 9308.000
942.9910, 9244.000
944.1130, 9339.000
945.2340, 9347.735
946.3550, 9373.000
947.4750, 9418.000
948.5960, 9387.000
949.7160, 9437.000
950.8370, 9512.000
951.9570, 9446.000
953.0770, 9371.000
954.1970, 9582.000
955.3160, 9514.000
956.4360, 9500.000
957.5550, 9642.000
958.6740, 9748.000
959.7930, 9867.000
960.9120, 9983.000
962.0310, 9872.000
963.1490, 10024.00
964.2670, 9991.000
965.3860, 10108.00
966.5040, 10051.00
967.6210, 9875.000
968.7390, 9646.000
969.8570, 9666.000
970.9740, 9477.000
972.0910, 9557.000
973.2080, 9728.000
974.3250, 9672.000
975.4420, 9604.000
976.5580, 9611.000
977.6750, 9687.000
978.7910, 9751.000
979.9070, 9771.000
981.0230, 9812.000
982.1390, 9825.000
983.2540, 9961.000
984.3700, 9802.000
985.4850, 9905.000
986.6000, 9775.000
987.7150, 9779.000
988.8300, 9838.000
989.9450, 9786.000
991.0590, 9764.118
992.1730, 9793.000
993.2880, 9652.000
994.4010, 9607.000
995.5150, 9546.625
996.6290, 9621.000
997.7420, 9536.000
998.8560, 9537.000
999.9690, 9621.000
1001.082, 9420.000
1002.195, 9511.000
1003.307, 9461.000
1004.420, 9377.000
1005.532, 9434.000
1006.645, 9495.000
1007.757, 9385.000
1008.868, 9379.000
1009.980, 9443.000
1011.092, 9455.000
1012.203, 9451.000
1013.314, 9431.000
1014.425, 9445.804
1015.536, 9440.000
1016.647, 9488.000
1017.758, 9529.000
1018.868, 9618.000
1019.978, 9450.000
1021.088, 9447.000
1022.198, 9492.000
1023.308, 9370.000
1024.418, 9518.000
1025.527, 9305.000
1026.637, 9416.000
1027.746, 9474.000
1028.855, 9525.000
1029.963, 9391.000
1031.072, 9417.000
1032.181, 9433.000
1033.289, 9368.000
1034.397, 9464.000
1035.505, 9378.000
1036.613, 9288.000
1037.721, 9283.000
1038.828, 9261.000
1039.935, 9274.000
1041.043, 9272.000
1042.150, 9159.000
1043.257, 9106.000
1044.363, 9073.906
1045.470, 9040.150
1046.576, 8994.000
1047.682, 9018.000
1048.788, 8969.000
1049.894, 8922.000
1051.000, 8839.000
1052.106, 8834.000
1053.211, 8840.482
1054.316, 8890.737
1055.421, 8875.000
1056.526, 8961.000
1057.631, 8908.000
1058.736, 8707.000
1059.840, 8742.000
1060.944, 8782.000
1062.049, 8808.000
1063.153, 8538.000
1064.256, 8599.000
1065.360, 8563.000
1066.463, 8623.000
1067.567, 8582.000
1068.670, 8557.000
1069.773, 8569.311
1070.876, 8489.000
1071.978, 8527.000
1073.081, 8525.000
1074.183, 8390.380
1075.285, 8458.854
1076.387, 8497.012
1077.489, 8506.480
1078.591, 8401.334
1079.692, 8444.189
1080.794, 8427.731
1081.895, 8408.843
1082.996, 8472.528
1084.097, 8384.053
1085.198, 8446.429
1086.298, 8448.589
1087.399, 8478.308
1088.499, 8448.349
1089.599, 8436.822
1090.699, 8484.994
1091.799, 8500.110
1092.898, 8463.281
1093.998, 8494.753
1095.097, 8474.112
1096.196, 8420.718
1097.295, 8457.000
1098.394, 8480.000
1099.492, 8483.153
1100.591, 8464.000
1101.689, 8487.000
1102.787, 8398.000
1103.885, 8344.000
1104.983, 8468.000
1106.081, 8431.000
1107.178, 8503.000
1108.275, 8410.000
1109.373, 8399.000
1110.470, 8501.000
1111.566, 8365.000
1112.663, 8339.000
1113.760, 8388.000
1114.856, 8393.000
1115.952, 8444.000
1117.048, 8408.000
1118.144, 8481.000
1119.240, 8392.000
1120.335, 8413.000
1121.431, 8334.000
1122.526, 8512.000
1123.621, 8437.436
1124.716, 8299.000
1125.810, 8428.000
1126.905, 8363.000
1127.999, 8386.000
1129.094, 8355.000
1130.188, 8433.000
1131.282, 8374.000
1132.375, 8428.000
1133.469, 8334.000
1134.562, 8480.000
1135.656, 8492.000
1136.749, 8436.000
1137.842, 8443.000
1138.935, 8409.000
1140.027, 8422.000
1141.120, 8435.165
1142.212, 8439.000
1143.304, 8486.000
1144.396, 8481.000
1145.488, 8515.000
1146.579, 8415.000
1147.671, 8445.000
1148.762, 8544.000
1149.853, 8465.000
1150.944, 8500.000
1152.035, 8513.000
1153.126, 8492.000
1154.216, 8598.000
1155.307, 8420.000
1156.397, 8444.000
1157.487, 8371.000
1158.577, 8503.000
1159.667, 8602.000
1160.756, 8544.000
1161.846, 8487.000
1162.935, 8524.000
1164.024, 8421.000
1165.113, 8491.000
1166.201, 8517.000
1167.290, 8467.000
1168.378, 8563.000
1169.467, 8581.000
1170.555, 8429.000
1171.643, 8435.000
1172.730, 8504.000
1173.818, 8555.000
1174.905, 8516.000
1175.993, 8595.000
1177.080, 8627.000
1178.167, 8534.000
1179.254, 8639.000
1180.340, 8588.000
1181.427, 8637.551
1182.513, 8656.477
1183.599, 8704.000
1184.685, 8661.000
1185.771, 8611.000
1186.856, 8562.000
1187.942, 8566.000
1189.027, 8695.000
1190.112, 8729.000
1191.197, 8597.000
1192.282, 8674.000
1193.367, 8590.000
1194.451, 8623.000
1195.536, 8696.000
1196.620, 8591.000
1197.704, 8768.000
1198.788, 8657.000
1199.872, 8748.000
1200.955, 8716.000
1202.039, 8646.000
1203.122, 8724.000
1204.205, 8645.000
1205.288, 8661.000
1206.370, 8661.000
1207.453, 8579.000
1208.535, 8714.000
1209.618, 8749.000
1210.700, 8658.000
1211.782, 8665.000
1212.863, 8788.000
1213.945, 8752.000
1215.026, 8741.000
1216.108, 8828.000
1217.189, 8886.000
1218.270, 8767.000
1219.351, 8792.000
1220.431, 8833.000
1221.512, 8670.000
1222.592, 8842.000
1223.672, 8655.000
1224.752, 8881.000
1225.832, 8796.000
1226.911, 8806.000
1227.991, 8729.000
1229.070, 8832.000
1230.149, 8710.000
1231.228, 8847.000
1232.307, 8715.000
1233.386, 8827.000
1234.464, 8719.000
1235.543, 8818.000
1236.621, 8577.000
1237.699, 8744.000
1238.777, 8633.000
1239.855, 8736.000
1240.932, 8755.000
1242.009, 8728.000
1243.087, 8784.000
1244.164, 8744.000
1245.241, 8705.000
1246.317, 8640.000
1247.394, 8755.000
1248.470, 8688.000
1249.546, 8783.000
1250.623, 8637.000
1251.698, 8727.000
1252.774, 8797.000
1253.850, 8800.000
1254.925, 8822.000
1256.000, 8762.000
1257.076, 8838.000
1258.150, 8809.000
1259.225, 8772.000
1260.300, 8881.000
1261.374, 8755.000
1262.449, 8843.000
1263.523, 8908.000
1264.597, 8896.000
1265.670, 8912.155
1266.744, 8791.000
1267.818, 8871.000
1268.891, 8816.000
1269.964, 8817.000
1271.037, 8936.000
1272.110, 9014.000
1273.183, 8826.000
1274.255, 8845.000
1275.327, 8920.000
1276.400, 8952.000
1277.472, 8941.000
1278.543, 9061.000
1279.615, 8920.000
1280.687, 9058.000
1281.758, 9024.000
1282.829, 9103.000
1283.900, 9107.000
1284.971, 9023.000
1286.042, 9104.000
1287.112, 9127.000
1288.183, 9186.000
1289.253, 9189.706
1290.323, 9172.000
1291.393, 9168.000
1292.463, 9199.000
1293.532, 9165.000
1294.602, 9322.000
1295.671, 9246.000
1296.740, 9259.000
1297.809, 9394.000
1298.878, 9297.000
1299.946, 9333.000
1301.015, 9300.000
1302.083, 9265.201
1303.151, 9328.000
1304.219, 9258.000
1305.287, 9294.000
1306.354, 9387.000
1307.422, 9440.000
1308.489, 9462.000
1309.556, 9497.000
1310.623, 9462.000
1311.690, 9407.000
1312.757, 9408.000
1313.823, 9273.000
1314.890, 9331.000
1315.956, 9309.297
1317.022, 9288.517
1318.088, 9339.000
1319.153, 9331.000
