##NAMES=Aenigmatite
##RRUFFID=R061088
##IDEAL CHEMISTRY=Na_4_(Fe^2+^_10_Ti^4+^_2_)O_4_[Si_12_O_36_]
##LOCALITY=Naujakasik, Greenland
##OWNER=RRUFF
##SOURCE=Michael Scott
##DESCRIPTION=Black prismatic crystals
##STATUS=The identification of this mineral has been confirmed by X-ray diffraction and chemical analysis
##URL=rruff.info/R061088
##MEASURED CHEMISTRY=(Na_1.72_Ca_0.28_)_Σ=2_(Fe^2+^_4.90_Mn_0.08_Mg_0.02_)_Σ=5_(Ti_0.85_Al_0.14_Fe^3+^_0.01_)_Σ=1_(Si_5.87_Al_0.13_)_Σ=6_O_20_
##PIN_ID=L01708
##ORIENTATION=Laser parallel to -a* (-1 0 0). Fiducial mark perpendicular to laser is parallel to b [0 1 0]
136.4710, 32359.00
137.7020, 32844.00
138.9320, 32613.06
140.1630, 33284.00
141.3930, 32812.00
142.6240, 32344.00
143.8540, 32634.00
145.0840, 32665.00
146.3140, 33203.00
147.5440, 33367.00
148.7730, 32761.00
150.0020, 32551.00
151.2320, 32405.00
152.4610, 32641.00
153.6900, 32289.00
154.9180, 33027.00
156.1470, 32817.00
157.3750, 32766.00
158.6040, 32269.00
159.8320, 32312.00
161.0600, 32782.00
162.2870, 32903.00
163.5150, 33417.00
164.7420, 33082.00
165.9700, 33252.00
167.1970, 33496.00
168.4240, 34232.00
169.6510, 33219.00
170.8770, 33150.00
172.1040, 32218.00
173.3300, 31657.00
174.5560, 30974.00
175.7820, 30557.83
177.0080, 30236.00
178.2340, 29873.00
179.4590, 29596.08
180.6850, 29374.00
181.9100, 29112.05
183.1350, 28862.89
184.3600, 28677.00
185.5850, 28453.00
186.8090, 28670.00
188.0340, 28841.00
189.2580, 28673.00
190.4820, 28744.00
191.7060, 29001.00
192.9300, 29388.00
194.1530, 29692.00
195.3770, 29846.33
196.6000, 30041.00
197.8230, 29938.00
199.0460, 29907.00
200.2690, 29546.00
201.4910, 29742.00
202.7140, 29386.00
203.9360, 28987.00
205.1580, 28752.00
206.3800, 28226.00
207.6020, 27816.00
208.8240, 27581.00
210.0450, 27762.00
211.2670, 27442.00
212.4880, 27602.00
213.7090, 27738.00
214.9300, 27606.00
216.1510, 27567.00
217.3710, 27718.00
218.5920, 27503.00
219.8120, 27901.00
221.0320, 27620.00
222.2520, 27717.00
223.4720, 27595.00
224.6910, 27681.00
225.9110, 27638.51
227.1300, 27592.31
228.3490, 27541.00
229.5680, 27498.00
230.7870, 27529.46
232.0050, 27554.61
233.2240, 27617.00
234.4420, 27641.00
235.6600, 27685.00
236.8780, 27637.00
238.0960, 27601.00
239.3140, 27715.00
240.5310, 27839.00
241.7490, 27924.00
242.9660, 27823.00
244.1830, 27811.00
245.4000, 27875.00
246.6160, 28058.00
247.8330, 27828.00
249.0490, 28110.00
250.2660, 28118.00
251.4820, 28416.00
252.6980, 28562.00
253.9130, 29075.00
255.1290, 29348.00
256.3440, 29103.82
257.5600, 29073.60
258.7750, 28794.78
259.9900, 28384.00
261.2040, 28270.00
262.4190, 28205.00
263.6330, 28403.00
264.8480, 28222.00
266.0620, 28175.00
267.2760, 28178.00
268.4900, 28032.00
269.7030, 28046.00
270.9170, 28189.00
272.1300, 28537.00
273.3430, 28486.15
274.5560, 28500.00
275.7690, 28744.00
276.9820, 28730.00
278.1940, 29220.00
279.4070, 29439.00
280.6190, 29608.00
281.8310, 29635.00
283.0430, 29757.51
284.2550, 29821.07
285.4660, 29849.00
286.6770, 29878.00
287.8890, 29915.00
289.1000, 29823.00
290.3110, 29555.00
291.5210, 29546.00
292.7320, 29539.00
293.9420, 29531.00
295.1530, 29899.00
296.3630, 29882.00
297.5730, 29988.00
298.7830, 30037.00
299.9920, 30013.00
301.2020, 30211.00
302.4110, 30392.00
303.6200, 30533.00
304.8290, 30605.00
306.0380, 30663.00
307.2470, 30745.00
308.4550, 30800.86
309.6630, 30760.00
310.8720, 30745.57
312.0800, 30817.81
313.2880, 30841.40
314.4950, 30818.98
315.7030, 30777.05
316.9100, 30679.71
318.1170, 30503.73
319.3240, 30367.37
320.5310, 30195.97
321.7380, 30044.22
322.9450, 29857.49
324.1510, 29754.95
325.3570, 29548.85
326.5630, 29437.52
327.7690, 29264.38
328.9750, 29244.00
330.1810, 29003.00
331.3860, 29015.00
332.5910, 28559.00
333.7960, 28496.00
335.0010, 28337.00
336.2060, 28037.27
337.4110, 27947.58
338.6150, 27835.12
339.8200, 27700.88
341.0240, 27480.21
342.2280, 27371.29
343.4320, 27217.59
344.6350, 27062.17
345.8390, 27415.00
347.0420, 27040.00
348.2450, 27285.00
349.4480, 27217.00
350.6510, 27344.00
351.8540, 27649.00
353.0560, 27726.00
354.2590, 27999.00
355.4610, 28702.00
356.6630, 29295.00
357.8650, 29482.00
359.0670, 29346.00
360.2680, 29478.00
361.4700, 29239.00
362.6710, 29609.00
363.8720, 29332.00
365.0730, 29383.65
366.2740, 29336.39
367.4740, 29266.31
368.6750, 29053.00
369.8750, 28984.00
371.0750, 28809.00
372.2750, 28649.00
373.4750, 28555.00
374.6740, 28419.00
375.8740, 28244.00
377.0730, 28099.00
378.2720, 28092.00
379.4710, 27980.00
380.6700, 27956.00
381.8690, 27739.00
383.0670, 27608.00
384.2660, 27651.00
385.4640, 27492.00
386.6620, 27598.00
387.8600, 27599.00
389.0570, 27364.00
390.2550, 27154.00
391.4520, 27012.85
392.6490, 27142.15
393.8460, 27232.53
395.0430, 27286.08
396.2400, 27192.48
397.4370, 27288.89
398.6330, 27309.12
399.8290, 27326.23
401.0250, 27449.35
402.2210, 27377.12
403.4170, 27498.56
404.6130, 27542.69
405.8080, 27622.17
407.0030, 27625.03
408.1980, 27651.56
409.3930, 27666.12
410.5880, 27805.23
411.7830, 27905.43
412.9770, 27968.75
414.1720, 27884.98
415.3660, 27991.16
416.5600, 28021.21
417.7530, 28048.08
418.9470, 28181.01
420.1410, 28118.60
421.3340, 28249.80
422.5270, 28446.00
423.7200, 28805.00
424.9130, 28922.00
426.1060, 29262.00
427.2980, 29351.00
428.4900, 29576.00
429.6830, 29616.00
430.8750, 29546.00
432.0670, 29699.00
433.2580, 29731.00
434.4500, 29583.00
435.6410, 29880.00
436.8320, 29755.47
438.0240, 30041.00
439.2140, 29758.00
440.4050, 29789.00
441.5960, 29872.00
442.7860, 29910.00
443.9760, 29863.90
445.1670, 29888.00
446.3560, 29726.77
447.5460, 29650.69
448.7360, 29551.71
449.9250, 29431.18
451.1150, 29223.99
452.3040, 29128.67
453.4930, 29030.00
454.6810, 29000.00
455.8700, 28737.00
457.0590, 28694.00
458.2470, 28641.10
459.4350, 28721.51
460.6230, 28753.27
461.8110, 28738.99
462.9980, 28540.81
464.1860, 28580.11
465.3730, 28524.25
466.5600, 28464.49
467.7470, 28537.24
468.9340, 28601.00
470.1210, 28505.68
471.3080, 28577.40
472.4940, 28626.22
473.6800, 28653.37
474.8660, 28762.49
476.0520, 28863.12
477.2380, 28976.00
478.4230, 29091.00
479.6090, 29223.00
480.7940, 29255.00
481.9790, 29417.86
483.1640, 29581.00
484.3490, 29628.00
485.5330, 29823.00
486.7180, 29803.00
487.9020, 29876.00
489.0860, 30061.00
490.2700, 29793.00
491.4540, 29906.00
492.6370, 29737.00
493.8210, 29846.00
495.0040, 29705.00
496.1870, 29785.00
497.3700, 29659.55
498.5530, 29573.02
499.7360, 29445.00
500.9180, 29406.00
502.1000, 29382.00
503.2830, 29419.00
504.4650, 29492.00
505.6460, 29521.00
506.8280, 29458.41
508.0100, 29006.00
509.1910, 29281.00
510.3720, 29277.00
511.5530, 29175.00
512.7340, 29573.00
513.9150, 29355.00
515.0950, 29345.00
516.2760, 29813.00
517.4560, 29720.00
518.6360, 30055.00
519.8160, 30338.00
520.9950, 30233.00
522.1750, 30663.00
523.3540, 30962.00
524.5340, 31071.00
525.7130, 31085.78
526.8920, 31370.16
528.0700, 31605.73
529.2490, 31795.41
530.4270, 32051.80
531.6060, 32044.27
532.7840, 32468.00
533.9620, 32580.00
535.1390, 32702.73
536.3170, 32598.83
537.4940, 32519.71
538.6720, 32466.21
539.8490, 32385.89
541.0260, 32055.30
542.2030, 31976.00
543.3790, 31797.00
544.5560, 31679.00
545.7320, 31688.00
546.9080, 31579.00
548.0840, 31607.00
549.2600, 31767.00
550.4360, 31577.00
551.6110, 31582.00
552.7860, 31457.00
553.9620, 31326.00
555.1370, 31374.00
556.3110, 31543.00
557.4860, 31459.84
558.6610, 31601.00
559.8350, 31468.00
561.0090, 31586.00
562.1830, 31597.00
563.3570, 31309.00
564.5310, 31249.00
565.7040, 31137.42
566.8780, 31025.11
568.0510, 30976.00
569.2240, 30915.00
570.3970, 30940.00
571.5700, 30922.00
572.7420, 30639.00
573.9150, 30788.00
575.0870, 30801.00
576.2590, 30352.00
577.4310, 30520.00
578.6030, 30351.07
579.7740, 30450.00
580.9460, 30217.00
582.1170, 30108.00
583.2880, 30003.00
584.4590, 29918.00
585.6300, 30110.00
586.8010, 30013.00
587.9710, 30340.00
589.1410, 30235.00
590.3110, 30487.00
591.4810, 30413.00
592.6510, 30591.00
593.8210, 30935.00
594.9900, 31260.00
596.1600, 31564.00
597.3290, 31957.00
598.4980, 32197.00
599.6670, 32711.00
600.8350, 33411.00
602.0040, 34065.00
603.1720, 34087.00
604.3400, 34782.22
605.5080, 35178.00
606.6760, 35521.00
607.8440, 35884.00
609.0120, 36154.04
610.1790, 36472.00
611.3460, 36605.00
612.5130, 36641.00
613.6800, 36740.70
614.8470, 36514.78
616.0130, 36642.00
617.1800, 36503.00
618.3460, 36616.00
619.5120, 36370.17
620.6780, 36583.00
621.8440, 36578.33
623.0090, 36407.00
624.1750, 36781.00
625.3400, 36798.00
626.5050, 37003.00
627.6700, 37329.00
628.8350, 37698.00
629.9990, 38326.25
631.1640, 38905.64
632.3280, 39926.00
633.4920, 40541.00
634.6560, 41662.00
635.8200, 42948.00
636.9840, 44160.00
638.1470, 45500.00
639.3100, 47119.00
640.4730, 48908.00
641.6360, 50573.00
642.7990, 52353.00
643.9620, 53769.59
645.1240, 55165.02
646.2870, 56011.00
647.4490, 56854.02
648.6110, 57344.00
649.7730, 57689.00
650.9340, 57370.00
652.0960, 57091.00
653.2570, 56424.00
654.4180, 55446.00
655.5790, 55016.00
656.7400, 53963.00
657.9010, 53094.00
659.0620, 52226.00
660.2220, 51158.00
661.3820, 50185.00
662.5420, 49246.00
663.7020, 48654.00
664.8620, 47729.00
666.0210, 46880.00
667.1810, 46512.00
668.3400, 45752.00
669.4990, 45301.27
670.6580, 45148.64
671.8170, 44975.70
672.9750, 44786.09
674.1340, 44395.57
675.2920, 44366.37
676.4500, 44254.73
677.6080, 44129.57
678.7660, 44185.91
679.9230, 44193.66
681.0810, 44155.32
682.2380, 43933.11
683.3950, 43948.39
684.5520, 43868.50
685.7090, 44011.00
686.8660, 43874.00
688.0220, 43821.35
689.1780, 43793.00
690.3340, 43523.60
691.4900, 43415.00
692.6460, 43085.00
693.8020, 42394.00
694.9570, 41670.00
696.1130, 41007.00
697.2680, 40560.00
698.4230, 39044.00
699.5780, 38188.00
700.7320, 37403.00
701.8870, 36838.00
703.0410, 36266.00
704.1950, 35769.00
705.3490, 35162.00
706.5030, 34718.00
707.6570, 34266.02
708.8110, 33813.78
709.9640, 33492.34
711.1170, 33187.62
712.2700, 32903.12
713.4230, 32681.75
714.5760, 32405.12
715.7280, 32309.95
716.8810, 32067.00
718.0330, 31928.00
719.1850, 31482.00
720.3370, 31324.00
721.4890, 31146.77
722.6400, 31217.52
723.7920, 31232.61
724.9430, 31195.14
726.0940, 30947.47
727.2450, 30971.23
728.3960, 30886.21
729.5460, 30796.78
730.6970, 30858.74
731.8470, 30641.69
732.9970, 30701.29
734.1470, 30650.47
735.2970, 30650.18
736.4460, 30625.30
737.5960, 30462.50
738.7450, 30461.51
739.8940, 30407.90
741.0430, 30144.09
742.1920, 30151.71
743.3410, 30050.55
744.4890, 29944.99
745.6370, 29990.88
746.7850, 29757.70
747.9330, 30024.00
749.0810, 29832.00
750.2290, 29834.00
751.3760, 29911.00
752.5240, 29719.00
753.6710, 29955.00
754.8180, 29871.00
755.9650, 29852.00
757.1110, 29607.00
758.2580, 29605.52
759.4040, 29745.15
760.5510, 29829.20
761.6970, 29860.61
762.8420, 29681.81
763.9880, 29684.50
765.1340, 29798.26
766.2790, 29858.01
767.4240, 29866.72
768.5690, 29666.80
769.7140, 29739.88
770.8590, 29705.76
772.0030, 29668.76
773.1480, 29784.77
774.2920, 29623.28
775.4360, 29740.03
776.5800, 29747.91
777.7240, 29807.91
778.8670, 29760.02
780.0110, 29747.51
781.1540, 29846.05
782.2970, 29885.54
783.4400, 29831.32
784.5830, 29903.94
785.7250, 29754.30
786.8680, 29802.64
788.0100, 29779.00
789.1520, 29683.84
790.2940, 29839.88
791.4360, 29931.04
792.5780, 29960.82
793.7190, 29745.35
794.8600, 29846.56
796.0010, 29820.86
797.1420, 29789.96
798.2830, 29935.73
799.4240, 29755.94
800.5640, 29898.91
801.7050, 29913.04
802.8450, 29986.13
803.9850, 29931.53
805.1250, 29916.37
806.2640, 30028.94
807.4040, 30070.79
808.5430, 30001.48
809.6820, 30078.31
810.8210, 29894.04
811.9600, 30006.95
813.0990, 29939.00
814.2370, 29981.00
815.3760, 30028.00
816.5140, 30046.00
817.6520, 30124.00
818.7900, 30153.00
819.9270, 30270.00
821.0650, 30234.00
822.2020, 30379.00
823.3390, 30314.38
824.4760, 30509.85
825.6130, 30640.45
826.7500, 30709.67
827.8870, 30533.65
829.0230, 30674.26
830.1590, 30687.96
831.2950, 30696.46
832.4310, 30881.65
833.5670, 30741.26
834.7030, 30923.64
835.8380, 30977.13
836.9730, 31089.60
838.1080, 31174.46
839.2430, 31098.58
840.3780, 31298.00
841.5130, 31326.00
842.6470, 31359.00
843.7810, 31154.00
844.9150, 31711.00
846.0490, 31741.00
847.1830, 31569.00
848.3170, 31720.00
849.4500, 31779.00
850.5830, 31852.00
851.7160, 32179.00
852.8490, 32447.00
853.9820, 32519.34
855.1150, 32385.00
856.2470, 32763.00
857.3800, 32870.00
858.5120, 33073.00
859.6440, 32831.00
860.7760, 33264.00
861.9070, 33150.00
863.0390, 33475.00
864.1700, 33255.00
865.3010, 33541.00
866.4320, 33592.00
867.5630, 33902.00
868.6940, 33918.00
869.8240, 34077.00
870.9540, 34321.00
872.0850, 34250.00
873.2150, 34723.00
874.3450, 34754.00
875.4740, 34955.00
876.6040, 35254.00
877.7330, 35508.00
878.8620, 35759.00
879.9910, 36317.00
881.1200, 36395.00
882.2490, 36691.00
883.3770, 37028.00
884.5060, 37671.00
885.6340, 37864.00
886.7620, 38391.00
887.8900, 38626.00
889.0180, 39163.00
890.1450, 39309.00
891.2730, 39634.29
892.4000, 39892.00
893.5270, 39864.00
894.6540, 39623.00
895.7810, 39098.00
896.9070, 38762.20
898.0340, 38574.64
899.1600, 38322.52
900.2860, 38009.00
901.4120, 37450.26
902.5380, 37163.00
903.6630, 36659.00
904.7890, 36340.00
905.9140, 35935.00
907.0390, 35513.89
908.1640, 35453.72
909.2890, 35328.68
910.4130, 35142.45
911.5380, 34710.79
912.6620, 34595.99
913.7860, 34354.28
914.9100, 34244.73
916.0340, 34427.00
917.1580, 34186.00
918.2810, 34267.00
919.4040, 34338.00
920.5280, 34183.70
921.6510, 33932.00
922.7730, 33979.00
923.8960, 33889.00
925.0180, 33692.00
926.1410, 33815.00
927.2630, 33539.00
928.3850, 33678.00
929.5070, 33857.00
930.6280, 33433.00
931.7500, 33279.00
932.8710, 33208.00
933.9920, 33121.00
935.1130, 33153.00
936.2340, 33116.44
937.3550, 33136.59
938.4760, 33150.00
939.5960, 33229.00
940.7160, 33287.00
941.8360, 33392.00
942.9560, 33194.00
944.0760, 33311.25
945.1950, 33177.00
946.3150, 33233.00
947.4340, 33466.00
948.5530, 33181.34
949.6720, 33515.70
950.7900, 33627.00
951.9090, 33891.00
953.0270, 33927.00
954.1460, 33984.00
955.2640, 34332.00
956.3820, 34327.06
957.4990, 34659.00
958.6170, 34550.00
959.7340, 34541.00
960.8520, 34684.00
961.9690, 34249.00
963.0860, 34165.00
964.2020, 34301.00
965.3190, 34249.00
966.4350, 34280.24
967.5520, 34618.00
968.6680, 34308.00
969.7840, 34032.00
970.8990, 33987.00
972.0150, 34206.00
973.1310, 34109.00
974.2460, 34047.00
975.3610, 34106.00
976.4760, 34148.00
977.5910, 34132.00
978.7050, 34079.00
979.8200, 34258.00
980.9340, 34414.00
982.0480, 35034.00
983.1620, 34743.00
984.2760, 34992.02
985.3900, 35000.84
986.5030, 34977.00
987.6160, 34970.00
988.7300, 34844.00
989.8430, 35001.00
990.9550, 35116.00
992.0680, 34975.00
993.1810, 34805.00
994.2930, 34638.00
995.4050, 34593.00
996.5170, 34745.00
997.6290, 34329.00
998.7410, 33645.00
999.8520, 33615.00
1000.964, 33543.00
1002.075, 33184.00
1003.186, 33229.00
1004.297, 33361.00
1005.407, 33037.00
1006.518, 33234.00
1007.628, 33263.00
1008.738, 33173.00
1009.848, 33067.00
1010.958, 33032.00
1012.068, 33099.00
1013.178, 33155.00
1014.287, 33178.86
1015.396, 33350.00
1016.505, 33295.00
1017.614, 33465.00
1018.723, 33575.00
1019.831, 33514.00
1020.940, 33687.00
1022.048, 33562.00
1023.156, 33655.00
1024.264, 33725.12
1025.372, 33934.00
1026.479, 33866.00
1027.587, 33647.00
1028.694, 33668.00
1029.801, 34034.00
1030.908, 34179.00
1032.015, 33928.00
1033.121, 33818.00
1034.228, 33940.00
1035.334, 33856.00
1036.440, 33913.23
1037.546, 34360.00
1038.652, 34308.00
1039.758, 34181.00
1040.863, 34182.46
1041.968, 34051.91
1043.074, 33826.00
1044.178, 33877.00
1045.283, 33751.00
1046.388, 33752.00
1047.492, 33726.00
1048.597, 33499.61
1049.701, 33203.00
1050.805, 33080.00
1051.909, 32918.00
1053.012, 32769.00
1054.116, 32782.00
1055.219, 32672.00
1056.322, 32603.00
1057.425, 32654.00
1058.528, 32453.95
1059.631, 32512.02
1060.733, 32521.49
1061.836, 32484.87
1062.938, 32264.37
1064.040, 32281.38
1065.142, 32203.21
1066.243, 32121.17
1067.345, 32171.61
1068.446, 32109.00
1069.547, 32320.00
1070.648, 32082.00
1071.749, 32095.99
1072.850, 32244.00
1073.951, 31947.00
1075.051, 31999.00
1076.151, 32060.00
1077.251, 31854.00
1078.351, 31851.00
1079.451, 31895.00
1080.550, 32079.00
1081.650, 32016.86
1082.749, 31954.00
1083.848, 31865.00
1084.947, 31806.05
1086.046, 31831.00
1087.144, 31754.00
1088.243, 31789.00
1089.341, 31953.00
1090.439, 31928.33
1091.537, 31945.43
1092.635, 32054.00
1093.732, 31863.00
1094.830, 31948.00
1095.927, 31861.00
1097.024, 31848.07
1098.121, 31950.28
1099.218, 31810.00
1100.314, 32116.00
1101.411, 32028.00
1102.507, 32038.00
1103.603, 32005.00
1104.699, 32049.00
1105.795, 31997.00
1106.890, 32045.00
1107.986, 32136.00
1109.081, 31920.00
1110.176, 32022.00
1111.271, 32045.00
1112.366, 31938.00
1113.461, 31908.00
1114.555, 31934.17
1115.649, 32065.00
1116.744, 31904.00
1117.838, 32068.00
1118.931, 31879.00
1120.025, 31782.00
1121.119, 32034.00
1122.212, 31760.39
1123.305, 31874.76
1124.398, 31940.48
1125.491, 31960.16
1126.584, 31795.92
1127.676, 31869.17
1128.768, 31847.25
1129.861, 31821.42
1130.953, 31928.10
1132.044, 31790.60
1133.136, 31895.19
1134.228, 31903.13
1135.319, 31955.31
1136.410, 31911.71
1137.501, 31897.70
1138.592, 31979.48
1139.683, 32008.22
1140.773, 31953.59
1141.864, 32008.58
1142.954, 31867.73
1144.044, 31958.21
1145.134, 31868.00
1146.224, 32022.00
1147.313, 31962.00
1148.402, 32091.00
1149.492, 32183.00
1150.581, 32067.00
1151.670, 32128.00
1152.758, 31945.00
1153.847, 32247.00
1154.935, 32280.00
1156.024, 32078.00
1157.112, 32194.63
1158.200, 32108.00
1159.287, 32141.00
1160.375, 32259.00
1161.462, 32343.00
1162.550, 32243.00
1163.637, 32464.00
1164.724, 32400.72
1165.810, 32369.00
1166.897, 32397.00
1167.983, 32418.00
1169.070, 32415.00
1170.156, 32513.00
1171.242, 32482.00
1172.327, 32381.99
1173.413, 32596.82
1174.499, 32733.81
1175.584, 32797.10
1176.669, 32566.11
1177.754, 32715.12
1178.839, 32711.85
1179.923, 32702.30
1181.008, 32904.80
1182.092, 32716.57
1183.176, 32915.68
1184.260, 32960.17
1185.344, 33075.42
1186.428, 33037.44
1187.511, 33046.76
1188.595, 33209.38
1189.678, 33287.11
1190.761, 33231.46
1191.843, 33351.14
1192.926, 33079.00
1194.009, 33164.50
1195.091, 33592.00
1196.173, 33189.00
1197.255, 33247.00
1198.337, 33340.00
1199.419, 33180.00
1200.500, 33628.00
1201.582, 33287.00
1202.663, 33285.00
1203.744, 33566.00
1204.825, 33650.00
1205.905, 33496.00
1206.986, 33764.00
1208.066, 33548.00
1209.146, 33455.00
1210.226, 33730.00
1211.306, 33694.00
1212.386, 33563.00
1213.466, 33655.00
1214.545, 33607.00
1215.624, 33801.00
1216.703, 33468.00
1217.782, 33622.00
1218.861, 33493.85
1219.939, 33611.50
1221.018, 33680.51
1222.096, 33703.47
1223.174, 33542.50
1224.252, 33619.04
1225.330, 33600.39
1226.407, 33577.84
1227.485, 33687.80
1228.562, 33553.57
1229.639, 33661.43
1230.716, 33672.65
1231.793, 33712.00
1232.869, 33613.00
1233.946, 33508.00
1235.022, 33568.83
1236.098, 33557.80
1237.174, 33678.00
1238.250, 33711.00
1239.325, 33716.00
1240.401, 33858.00
1241.476, 33667.00
1242.551, 33597.00
1243.626, 33596.00
1244.701, 33781.30
1245.776, 33838.66
1246.850, 33877.47
1247.924, 33898.74
1248.999, 33849.95
1250.073, 33891.63
1251.146, 33897.04
1252.220, 33900.97
1253.293, 33955.37
1254.367, 33916.76
1255.440, 33970.36
1256.513, 33987.14
1257.586, 34079.73
1258.658, 34130.13
1259.731, 34279.86
1260.803, 34308.00
1261.875, 34338.28
1262.947, 34503.00
1264.019, 34236.06
1265.091, 34321.00
1266.162, 34350.00
1267.234, 34589.00
1268.305, 34454.41
1269.376, 34598.00
1270.447, 34348.00
1271.517, 34628.19
1272.588, 34791.00
1273.658, 34762.00
1274.729, 34986.00
1275.799, 34939.00
1276.868, 34889.00
1277.938, 34927.00
1279.008, 34997.00
1280.077, 35201.00
1281.146, 35472.00
1282.215, 35420.93
1283.284, 35556.00
1284.353, 35364.00
1285.421, 35800.00
1286.490, 35747.00
1287.558, 35783.00
1288.626, 35991.00
1289.694, 36089.00
1290.762, 35889.00
1291.829, 36009.00
1292.897, 36065.00
1293.964, 35974.00
1295.031, 36122.99
1296.098, 36328.00
1297.165, 36344.00
1298.231, 36472.34
1299.298, 36471.71
1300.364, 36590.70
1301.430, 36661.04
1302.496, 36685.35
1303.562, 36525.72
1304.627, 36603.60
1305.693, 36497.16
1306.758, 36638.48
