##NAMES=Akermanite
##RRUFFID=R061100
##IDEAL CHEMISTRY=Ca_2_MgSi_2_O_7_
##LOCALITY=Lago de Vico, Viterbo, Italy
##OWNER=Michael Scott
##SOURCE=Michael Scott
##DESCRIPTION=Colorless to white short prismatic crystals
##STATUS=The identification of this mineral has been confirmed by X-ray diffraction and chemical analysis
##URL=rruff.info/R061100
##MEASURED CHEMISTRY=(Ca_1.80_Na_0.20_)_Σ=2_(Mg_0.58_Al_0.38_Fe_0.04_)_Σ=1_(Si_1.82_Al_0.18_)_Σ=2_O_7_
##PIN_ID=M00347
##ORIENTATION=Laser parallel to c* (0 0 1). Fiducial mark perpendicular to laser is parallel to a [1 0 0]
206.6970, 19885.00
207.9250, 19742.00
209.1530, 19570.00
210.3800, 19910.00
211.6080, 19694.00
212.8350, 19833.00
214.0620, 20254.00
215.2880, 20343.00
216.5150, 20555.00
217.7410, 20521.00
218.9680, 20743.00
220.1940, 20972.00
221.4190, 21085.00
222.6450, 21277.00
223.8700, 21331.00
225.0960, 21411.00
226.3210, 21639.00
227.5450, 21584.00
228.7700, 21704.00
229.9940, 21984.00
231.2190, 21578.00
232.4430, 21761.00
233.6660, 21688.00
234.8900, 21523.00
236.1140, 21658.00
237.3370, 21475.00
238.5600, 21097.00
239.7830, 21375.00
241.0050, 21259.00
242.2280, 21367.00
243.4500, 21076.00
244.6720, 20967.00
245.8940, 20999.00
247.1160, 20793.00
248.3370, 20688.00
249.5580, 20902.00
250.7790, 20636.00
252.0000, 20682.00
253.2210, 20706.00
254.4410, 20491.00
255.6620, 20695.00
256.8820, 20645.00
258.1020, 20953.00
259.3210, 20880.74
260.5410, 20825.62
261.7600, 20783.00
262.9790, 20642.00
264.1980, 20491.00
265.4170, 20528.00
266.6360, 20428.00
267.8540, 20430.00
269.0720, 20627.00
270.2900, 20530.00
271.5080, 20574.00
272.7260, 20308.00
273.9430, 20408.00
275.1600, 20519.00
276.3770, 20649.00
277.5940, 20561.26
278.8100, 20550.00
280.0270, 20454.00
281.2430, 20526.00
282.4590, 20695.00
283.6750, 20350.00
284.8910, 20649.00
286.1060, 20477.00
287.3210, 20492.00
288.5360, 20789.00
289.7510, 20637.00
290.9660, 21066.00
292.1800, 20869.00
293.3950, 20789.00
294.6090, 21206.00
295.8230, 21101.00
297.0360, 21431.00
298.2500, 21557.00
299.4630, 21521.00
300.6760, 21668.00
301.8890, 21800.00
303.1020, 21791.00
304.3150, 22269.00
305.5270, 22139.00
306.7390, 22508.00
307.9510, 22588.00
309.1630, 22361.00
310.3750, 22430.00
311.5860, 22577.00
312.7970, 22557.00
314.0080, 22591.00
315.2190, 22466.00
316.4300, 22353.00
317.6400, 22281.00
318.8510, 22319.00
320.0610, 22026.61
321.2710, 21938.66
322.4800, 21560.00
323.6900, 21575.00
324.8990, 21505.00
326.1080, 21366.00
327.3170, 21529.00
328.5260, 20989.00
329.7340, 21154.00
330.9430, 21273.00
332.1510, 20900.00
333.3590, 21012.00
334.5670, 21015.00
335.7740, 20790.00
336.9820, 20880.00
338.1890, 20841.00
339.3960, 20751.00
340.6030, 20889.00
341.8100, 20661.00
343.0160, 20882.00
344.2220, 20909.00
345.4280, 20719.00
346.6340, 20762.00
347.8400, 20816.00
349.0460, 20913.00
350.2510, 20937.00
351.4560, 20763.00
352.6610, 20918.00
353.8660, 20963.00
355.0700, 20718.00
356.2750, 20882.00
357.4790, 20828.00
358.6830, 20808.00
359.8870, 20886.00
361.0910, 20605.00
362.2940, 20808.00
363.4970, 20872.00
364.7000, 20701.00
365.9030, 20740.00
367.1060, 20801.00
368.3080, 20688.00
369.5110, 20839.00
370.7130, 20620.00
371.9150, 20827.00
373.1170, 20772.00
374.3180, 20628.00
375.5200, 20600.00
376.7210, 20575.00
377.9220, 20670.00
379.1230, 20884.00
380.3230, 20928.00
381.5240, 20839.58
382.7240, 20866.40
383.9240, 20646.00
385.1240, 20688.00
386.3240, 20835.00
387.5230, 20730.00
388.7230, 20832.00
389.9220, 20712.00
391.1210, 20851.00
392.3200, 20970.00
393.5180, 20920.00
394.7170, 20767.00
395.9150, 21037.00
397.1130, 20764.00
398.3110, 20988.00
399.5080, 20881.00
400.7060, 20773.00
401.9030, 20930.00
403.1000, 20938.00
404.2970, 20930.00
405.4940, 21109.00
406.6910, 20958.00
407.8870, 20967.00
409.0830, 21246.00
410.2790, 20848.00
411.4750, 21264.00
412.6710, 20927.00
413.8660, 20830.00
415.0610, 21342.00
416.2560, 21046.00
417.4510, 21313.00
418.6460, 21328.00
419.8410, 21104.00
421.0350, 21398.00
422.2290, 21320.00
423.4230, 21247.00
424.6170, 21491.00
425.8100, 21409.00
427.0040, 21442.00
428.1970, 21740.00
429.3900, 21652.00
430.5830, 21614.00
431.7760, 21808.00
432.9680, 21714.00
434.1610, 21905.00
435.3530, 21841.00
436.5450, 21847.00
437.7360, 22317.00
438.9280, 22067.00
440.1190, 22206.00
441.3110, 22096.00
442.5020, 21998.00
443.6930, 22306.00
444.8830, 22363.00
446.0740, 22321.00
447.2640, 22494.00
448.4540, 22496.00
449.6440, 22622.00
450.8340, 22891.00
452.0240, 22573.00
453.2130, 22893.00
454.4020, 22953.00
455.5910, 22672.00
456.7800, 22971.00
457.9690, 22960.00
459.1570, 22853.00
460.3460, 23287.00
461.5340, 22958.00
462.7220, 23125.00
463.9090, 23258.00
465.0970, 23133.00
466.2840, 23252.00
467.4720, 23520.00
468.6590, 23463.00
469.8460, 23586.00
471.0320, 23529.00
472.2190, 23453.00
473.4050, 23793.00
474.5910, 23842.00
475.7770, 23934.00
476.9630, 23896.00
478.1490, 24129.00
479.3340, 24267.00
480.5190, 24402.00
481.7040, 24441.00
482.8890, 24512.70
484.0740, 24552.11
485.2580, 24596.00
486.4430, 24556.00
487.6270, 24654.00
488.8110, 24587.00
489.9950, 24695.00
491.1780, 24523.00
492.3620, 24379.00
493.5450, 24514.00
494.7280, 24161.00
495.9110, 24207.00
497.0940, 24267.00
498.2760, 23996.00
499.4590, 24262.00
500.6410, 23930.00
501.8230, 24378.00
503.0050, 24717.00
504.1860, 23873.00
505.3680, 24027.00
506.5490, 24009.00
507.7300, 23711.00
508.9110, 23872.00
510.0920, 24016.00
511.2730, 23666.00
512.4530, 24012.00
513.6330, 23606.00
514.8130, 23920.00
515.9930, 24110.00
517.1730, 23809.00
518.3520, 23924.59
519.5320, 24262.00
520.7110, 23693.00
521.8900, 24042.00
523.0690, 23970.00
524.2470, 23907.00
525.4260, 24099.00
526.6040, 24048.00
527.7820, 24070.00
528.9600, 24275.00
530.1380, 23726.00
531.3150, 23974.00
532.4930, 23932.00
533.6700, 23725.00
534.8470, 23939.00
536.0240, 23806.00
537.2000, 23797.00
538.3770, 23948.00
539.5530, 23931.00
540.7290, 23802.00
541.9050, 23983.00
543.0810, 23757.00
544.2570, 23781.00
545.4320, 23912.00
546.6080, 23673.00
547.7830, 23891.00
548.9580, 23781.00
550.1320, 23533.00
551.3070, 23740.00
552.4810, 23831.00
553.6550, 23733.00
554.8300, 24200.00
556.0030, 23932.00
557.1770, 23762.00
558.3510, 24141.00
559.5240, 23870.00
560.6970, 24036.00
561.8700, 23968.00
563.0430, 23926.00
564.2160, 24120.00
565.3880, 24065.00
566.5600, 24193.00
567.7320, 24320.00
568.9040, 24087.00
570.0760, 24375.00
571.2480, 24465.00
572.4190, 24313.00
573.5900, 24340.00
574.7610, 24444.00
575.9320, 24176.00
577.1030, 24560.00
578.2740, 24542.00
579.4440, 24438.00
580.6140, 24703.00
581.7840, 24618.00
582.9540, 24683.00
584.1240, 24614.00
585.2930, 24934.00
586.4630, 25001.00
587.6320, 25221.00
588.8010, 25335.84
589.9700, 25445.00
591.1380, 25524.00
592.3070, 25713.00
593.4750, 25819.00
594.6430, 26126.00
595.8110, 26061.00
596.9790, 26486.00
598.1460, 26683.00
599.3140, 26848.00
600.4810, 27414.00
601.6480, 27447.00
602.8150, 27715.00
603.9820, 28310.00
605.1480, 28500.00
606.3150, 29167.00
607.4810, 29516.00
608.6470, 29712.00
609.8130, 30791.00
610.9790, 30682.00
612.1440, 30794.00
613.3100, 31568.00
614.4750, 31687.00
615.6400, 32291.00
616.8050, 32569.00
617.9690, 33028.00
619.1340, 33792.00
620.2980, 33957.00
621.4620, 34274.00
622.6260, 34718.00
623.7900, 34949.00
624.9540, 34769.00
626.1170, 35122.00
627.2810, 35028.00
628.4440, 34972.00
629.6070, 35079.00
630.7690, 34268.00
631.9320, 33743.00
633.0950, 33762.00
634.2570, 33183.00
635.4190, 32770.00
636.5810, 32664.00
637.7430, 32109.00
638.9040, 31904.00
640.0660, 31770.00
641.2270, 31221.00
642.3880, 31605.00
643.5490, 31357.00
644.7100, 31120.00
645.8700, 31729.00
647.0310, 31854.00
648.1910, 32192.00
649.3510, 33253.00
650.5110, 33901.00
651.6710, 35242.00
652.8300, 36470.00
653.9900, 37772.00
655.1490, 39188.00
656.3080, 40739.00
657.4670, 41826.00
658.6250, 43460.00
659.7840, 44153.00
660.9420, 44998.00
662.1010, 45634.00
663.2590, 45958.00
664.4170, 45984.00
665.5740, 45738.00
666.7320, 45033.00
667.8890, 44567.00
669.0460, 43534.00
670.2030, 42744.00
671.3600, 41112.00
672.5170, 39807.00
673.6740, 38507.00
674.8300, 37451.00
675.9860, 36056.00
677.1420, 35225.00
678.2980, 34224.00
679.4540, 33174.00
680.6090, 32476.00
681.7650, 31922.00
682.9200, 30917.00
684.0750, 30616.00
685.2300, 30213.00
686.3840, 29469.00
687.5390, 29837.00
688.6930, 29874.00
689.8470, 28627.00
691.0010, 28787.00
692.1550, 28298.00
693.3090, 28047.00
694.4620, 28130.00
695.6160, 27592.00
696.7690, 27508.00
697.9220, 27641.00
699.0750, 27426.00
700.2280, 27301.00
701.3800, 27447.00
702.5320, 27095.00
703.6850, 27312.00
704.8370, 27272.00
705.9880, 26968.00
707.1400, 27292.00
708.2920, 27296.00
709.4430, 26810.00
710.5940, 27094.00
711.7450, 27036.00
712.8960, 26830.00
714.0470, 27073.00
715.1970, 26802.00
716.3480, 26807.00
717.4980, 27145.00
718.6480, 27175.00
719.7980, 26936.00
720.9470, 26863.00
722.0970, 26970.00
723.2460, 26806.00
724.3960, 26806.00
725.5450, 26735.00
726.6940, 27110.00
727.8420, 26641.00
728.9910, 26731.00
730.1390, 27058.00
731.2870, 26634.00
732.4350, 26567.00
733.5830, 26936.00
734.7310, 26829.00
735.8790, 26781.00
737.0260, 26975.00
738.1730, 26911.58
739.3200, 26907.00
740.4670, 26944.00
741.6140, 26919.00
742.7610, 26811.00
743.9070, 26977.00
745.0530, 26896.00
746.1990, 26947.00
747.3450, 26741.00
748.4910, 26995.00
749.6370, 27109.00
750.7820, 26932.00
751.9270, 27097.00
753.0720, 27292.00
754.2170, 26863.00
755.3620, 26985.00
756.5070, 27411.00
757.6510, 27090.00
758.7950, 27400.00
759.9400, 27434.00
761.0840, 27131.00
762.2270, 27350.00
763.3710, 27197.00
764.5140, 27180.00
765.6580, 27343.00
766.8010, 27291.00
767.9440, 27058.00
769.0870, 27424.00
770.2290, 27274.00
771.3720, 27339.00
772.5140, 27399.00
773.6560, 27183.00
774.7990, 27350.00
775.9400, 27731.00
777.0820, 27293.00
778.2240, 27585.00
779.3650, 27540.00
780.5060, 27290.00
781.6470, 27440.00
782.7880, 27753.00
783.9290, 27332.00
785.0690, 27563.00
786.2100, 27573.00
787.3500, 27195.00
788.4900, 27661.00
789.6300, 27531.00
790.7700, 27517.00
791.9090, 27786.00
793.0490, 27606.00
794.1880, 27694.00
795.3270, 27961.00
796.4660, 27829.00
797.6050, 27966.00
798.7440, 28099.00
799.8820, 27938.00
801.0200, 28064.00
802.1590, 28237.00
803.2970, 27832.00
804.4340, 28065.00
805.5720, 28207.00
806.7100, 27947.00
807.8470, 28241.00
808.9840, 28401.00
810.1210, 28279.00
811.2580, 28308.00
812.3950, 28160.00
813.5310, 28260.00
814.6680, 28584.00
815.8040, 28562.00
816.9400, 28599.00
818.0760, 28653.00
819.2120, 28308.00
820.3470, 28249.00
821.4830, 28914.00
822.6180, 28568.00
823.7530, 28732.00
824.8880, 28780.00
826.0230, 28748.00
827.1580, 28920.00
828.2920, 28818.00
829.4270, 28518.00
830.5610, 29044.00
831.6950, 28870.00
832.8290, 28780.00
833.9620, 29064.00
835.0960, 29205.00
836.2290, 29195.00
837.3620, 29312.00
838.4950, 29332.00
839.6280, 29230.00
840.7610, 29582.00
841.8940, 29343.00
843.0260, 29535.00
844.1580, 29702.00
845.2910, 29557.00
846.4230, 29519.00
847.5540, 30094.00
848.6860, 30074.00
849.8170, 30040.00
850.9490, 30258.00
852.0800, 30007.00
853.2110, 30450.00
854.3420, 30698.00
855.4730, 30652.00
856.6030, 30983.00
857.7340, 31113.00
858.8640, 31255.00
859.9940, 31646.00
861.1240, 31386.00
862.2540, 31674.00
863.3830, 32046.00
864.5130, 32053.00
865.6420, 31865.00
866.7710, 32056.00
867.9000, 31875.00
869.0290, 31890.00
870.1570, 31923.00
871.2860, 31668.00
872.4140, 31552.00
873.5430, 32164.00
874.6710, 31597.00
875.7980, 31675.00
876.9260, 31855.00
878.0540, 31544.00
879.1810, 32248.00
880.3080, 32248.00
881.4360, 32070.00
882.5630, 32812.00
883.6890, 32833.00
884.8160, 33288.00
885.9420, 34042.00
887.0690, 34151.00
888.1950, 34485.00
889.3210, 34997.00
890.4470, 35386.00
891.5730, 35323.00
892.6980, 35938.00
893.8240, 35875.00
894.9490, 36103.00
896.0740, 36558.00
897.1990, 36489.00
898.3240, 37023.00
899.4480, 37588.00
900.5730, 37927.00
901.6970, 38849.00
902.8210, 40219.00
903.9450, 40882.00
905.0690, 41916.00
906.1930, 43566.00
907.3160, 44754.00
908.4400, 46588.00
909.5630, 48565.00
910.6860, 49208.00
911.8090, 50278.00
912.9320, 51139.00
914.0550, 51571.00
915.1770, 52156.00
916.2990, 52078.00
917.4210, 52039.00
918.5440, 52056.00
919.6650, 51601.00
920.7870, 51341.00
921.9090, 51177.00
923.0300, 50614.00
924.1510, 49962.00
925.2720, 49476.00
926.3930, 48320.00
927.5140, 47422.00
928.6350, 46394.00
929.7550, 44919.00
930.8760, 44165.00
931.9960, 43201.00
933.1160, 41618.00
934.2360, 41045.00
935.3550, 40267.00
936.4750, 39225.00
937.5940, 39009.00
938.7140, 38509.00
939.8330, 37923.00
940.9520, 37553.00
942.0710, 36989.00
943.1890, 36653.00
944.3080, 36474.00
945.4260, 36019.00
946.5440, 35547.00
947.6620, 35876.00
948.7800, 35743.00
949.8980, 35552.00
951.0160, 35350.00
952.1330, 35176.00
953.2500, 35081.58
954.3680, 35105.00
955.4850, 34962.00
956.6010, 34942.00
957.7180, 34948.00
958.8350, 34704.00
959.9510, 34573.00
961.0670, 34691.00
962.1830, 34518.00
963.2990, 34471.00
964.4150, 34387.25
965.5310, 34187.00
966.6460, 34132.00
967.7620, 34131.00
968.8770, 33993.00
969.9920, 33956.81
971.1070, 34061.00
972.2210, 33851.00
973.3360, 33842.00
974.4500, 33882.00
975.5650, 33741.00
976.6790, 33915.00
977.7930, 33635.00
978.9070, 33422.00
980.0200, 33770.00
981.1340, 33868.00
982.2470, 33637.00
983.3610, 33880.00
984.4740, 33719.00
985.5870, 33605.00
986.6990, 34131.00
987.8120, 33984.00
988.9250, 33939.00
990.0370, 34059.00
991.1490, 33784.00
992.2610, 33609.00
993.3730, 33959.00
994.4850, 34401.00
995.5960, 33911.00
996.7080, 33951.00
997.8190, 33646.00
998.9300, 33980.00
1000.041, 33964.00
1001.152, 34044.00
1002.263, 33960.00
1003.373, 34206.00
1004.484, 34004.00
1005.594, 34069.00
1006.704, 34142.00
1007.814, 33876.00
1008.924, 33828.00
1010.034, 34235.00
1011.143, 34007.00
1012.253, 33940.00
1013.362, 34010.00
1014.471, 33880.00
1015.580, 33871.00
1016.689, 33970.00
1017.797, 33892.00
1018.906, 33908.00
1020.014, 34102.00
1021.122, 33745.00
1022.230, 34114.00
1023.338, 34153.00
1024.446, 33569.00
1025.554, 34026.00
1026.661, 34146.00
1027.768, 34049.00
1028.875, 34138.00
1029.983, 34136.00
1031.089, 34060.00
1032.196, 34356.00
1033.303, 34217.00
1034.409, 34005.00
1035.515, 34276.00
1036.622, 34225.00
1037.728, 33818.00
1038.833, 34386.00
1039.939, 34296.00
1041.045, 34196.00
1042.150, 34335.00
1043.255, 34261.00
1044.360, 34258.00
1045.465, 34442.00
1046.570, 34136.00
1047.675, 34445.00
1048.779, 34536.00
1049.884, 34270.00
1050.988, 34258.00
1052.092, 34640.00
1053.196, 34174.00
1054.300, 34394.00
1055.404, 34458.00
1056.507, 34299.00
1057.610, 34338.00
1058.714, 34994.00
1059.817, 34747.27
1060.920, 34432.00
1062.022, 34814.00
1063.125, 34419.00
1064.228, 34512.00
1065.330, 34626.00
1066.432, 34626.00
1067.534, 34636.56
1068.636, 35011.00
1069.738, 34676.00
1070.840, 34785.00
1071.941, 35063.00
1073.042, 34592.00
1074.144, 34773.00
1075.245, 34920.00
1076.346, 34723.00
1077.446, 34838.00
1078.547, 35361.00
1079.647, 34690.00
1080.748, 35098.00
1081.848, 34781.00
1082.948, 34796.00
1084.048, 35198.00
1085.148, 35167.00
1086.247, 34911.00
1087.347, 35307.00
1088.446, 35186.00
1089.545, 35060.00
1090.644, 35026.00
1091.743, 35331.00
1092.842, 35018.00
1093.940, 35333.00
1095.039, 35219.00
1096.137, 34885.00
1097.235, 35081.45
1098.333, 35694.00
1099.431, 35077.00
1100.529, 35341.00
1101.627, 35302.00
1102.724, 35175.00
1103.822, 35245.00
1104.919, 35238.18
1106.016, 35274.00
1107.113, 35321.00
1108.209, 35276.00
1109.306, 35264.00
1110.402, 35286.00
1111.499, 35332.00
1112.595, 35354.45
1113.691, 35449.16
1114.787, 35494.00
1115.883, 35637.00
1116.978, 35831.00
1118.074, 35906.00
1119.169, 35762.00
1120.264, 36046.00
1121.359, 36241.00
1122.454, 35912.00
1123.549, 36115.00
1124.644, 36005.00
1125.738, 35747.00
1126.832, 36101.00
1127.927, 35742.00
1129.021, 35643.00
1130.115, 35921.00
1131.208, 35776.00
1132.302, 35701.00
1133.396, 36109.00
1134.489, 36021.00
1135.582, 35820.00
1136.675, 36206.00
1137.768, 35799.00
1138.861, 35854.00
1139.954, 36253.00
1141.046, 35946.00
1142.138, 35882.00
1143.231, 36097.00
1144.323, 35877.00
1145.415, 36161.00
1146.507, 36404.00
1147.598, 36181.00
1148.690, 36062.00
1149.781, 36290.00
1150.872, 36011.00
1151.964, 36117.00
1153.054, 36231.00
1154.145, 36142.00
1155.236, 36349.00
1156.327, 36718.00
1157.417, 36418.00
1158.507, 36594.00
1159.597, 36874.00
1160.687, 36364.00
1161.777, 36265.00
1162.867, 36942.00
1163.956, 36530.00
1165.046, 36417.00
1166.135, 36842.00
1167.224, 36635.00
1168.313, 36750.00
1169.402, 36764.00
1170.491, 36654.00
1171.580, 36558.00
1172.668, 36958.00
1173.756, 36817.00
1174.845, 37133.00
1175.933, 37179.00
1177.020, 36864.00
1178.108, 36941.00
1179.196, 37169.00
1180.283, 37050.00
1181.371, 37168.00
1182.458, 37246.00
1183.545, 36915.00
1184.632, 36970.00
1185.719, 37027.00
1186.805, 37090.00
1187.892, 37223.00
1188.978, 37414.00
1190.065, 37076.00
1191.151, 37424.00
1192.237, 37572.00
1193.323, 37177.00
1194.408, 37299.00
1195.494, 37627.00
1196.579, 37234.00
1197.664, 37389.00
1198.750, 37671.00
1199.835, 37417.00
1200.919, 37472.00
1202.004, 37835.00
1203.089, 37730.00
1204.173, 37569.00
1205.258, 37964.00
1206.342, 37698.00
1207.426, 38230.00
1208.510, 38217.00
1209.594, 37855.00
1210.677, 37688.00
1211.761, 38007.00
1212.844, 37958.00
1213.927, 37851.00
1215.010, 38350.00
1216.093, 37843.00
1217.176, 37853.00
1218.259, 38219.00
1219.341, 38130.00
1220.424, 38142.00
1221.506, 38447.00
1222.588, 38159.00
1223.670, 37991.00
1224.752, 38213.00
1225.834, 38208.00
1226.915, 38147.00
1227.997, 38820.00
1229.078, 38346.00
1230.159, 38111.00
1231.240, 38623.00
1232.321, 38301.00
1233.402, 38329.00
1234.483, 38645.00
1235.563, 38644.00
1236.644, 38570.00
1237.724, 38795.00
1238.804, 38378.00
1239.884, 38375.00
1240.964, 38749.00
1242.044, 38819.00
1243.123, 38591.00
1244.203, 38885.00
1245.282, 38810.00
1246.361, 38604.00
1247.440, 39030.00
1248.519, 38730.00
1249.598, 38680.00
1250.676, 38955.00
1251.755, 38704.00
1252.833, 39031.00
1253.911, 39247.00
1254.989, 39105.00
1256.067, 38932.00
1257.145, 38982.00
1258.223, 38936.00
1259.300, 39044.00
1260.378, 39359.00
1261.455, 39342.00
1262.532, 39045.00
1263.609, 39630.00
1264.686, 39383.00
1265.763, 39374.00
1266.840, 39662.00
1267.916, 39359.00
1268.992, 39251.00
1270.069, 39703.00
1271.145, 39567.00
1272.221, 39267.00
1273.296, 39557.00
1274.372, 39777.00
1275.448, 39837.00
1276.523, 39819.00
1277.598, 39990.00
1278.673, 39834.35
1279.749, 39748.00
1280.823, 39564.00
1281.898, 39531.00
1282.973, 39378.00
1284.047, 39479.00
1285.122, 39263.00
1286.196, 39887.00
1287.270, 39786.00
1288.344, 40101.00
1289.418, 40058.00
1290.491, 39989.00
1291.565, 40074.00
1292.638, 40229.00
1293.712, 40457.00
1294.785, 40064.00
1295.858, 40371.00
1296.931, 40211.00
1298.003, 40242.00
1299.076, 40358.00
1300.149, 40514.00
1301.221, 40304.00
1302.293, 40374.00
1303.365, 40479.00
1304.437, 40109.00
1305.509, 40568.00
1306.581, 40601.00
1307.652, 40451.00
1308.724, 41086.00
1309.795, 40767.00
1310.866, 40714.00
1311.937, 40768.00
1313.008, 40703.07
1314.079, 41010.00
1315.150, 40686.00
1316.220, 41008.00
1317.291, 40720.00
1318.361, 40695.00
1319.431, 41194.00
1320.501, 40926.00
1321.571, 41256.00
1322.641, 41286.00
1323.710, 40920.00
1324.780, 41147.00
1325.849, 41085.00
1326.918, 40956.00
1327.987, 41145.00
1329.056, 41399.00
1330.125, 41472.00
1331.194, 41505.48
1332.263, 41525.00
1333.331, 41470.00
1334.399, 41343.00
1335.467, 41412.00
1336.535, 41332.00
1337.603, 41374.38
1338.671, 41489.00
1339.739, 41454.00
1340.806, 41474.00
1341.874, 41471.00
1342.941, 41958.00
1344.008, 41478.00
1345.075, 41647.00
1346.142, 41899.00
1347.209, 41673.00
1348.275, 41528.00
1349.342, 41881.00
1350.408, 41644.00
1351.475, 41892.00
1352.541, 41885.00
1353.607, 41682.00
1354.673, 41901.00
1355.738, 42214.00
1356.804, 41652.00
1357.869, 42161.00
1358.935, 42060.00
1360.000, 42032.00
1361.065, 42142.00
1362.130, 42106.63
1363.195, 42254.00
1364.259, 42106.00
1365.324, 42266.00
1366.388, 42107.00
1367.453, 42182.00
1368.517, 42463.00
1369.581, 42234.00
1370.645, 42121.00
