##NAMES=Akermanite
##RRUFFID=R061100
##IDEAL CHEMISTRY=Ca_2_MgSi_2_O_7_
##LOCALITY=Lago de Vico, Viterbo, Italy
##OWNER=Michael Scott
##SOURCE=Michael Scott
##DESCRIPTION=Colorless to white short prismatic crystals
##STATUS=The identification of this mineral has been confirmed by X-ray diffraction and chemical analysis
##URL=rruff.info/R061100
##MEASURED CHEMISTRY=(Ca_1.80_Na_0.20_)_Σ=2_(Mg_0.58_Al_0.38_Fe_0.04_)_Σ=1_(Si_1.82_Al_0.18_)_Σ=2_O_7_
##PIN_ID=M00238
##ORIENTATION=Laser parallel to a* (1 0 0). Fiducial mark perpendicular to laser is parallel to -c [0 0 -1]
206.6970, 19452.00
207.9250, 19243.00
209.1530, 19686.00
210.3800, 19808.00
211.6080, 19682.00
212.8350, 20200.00
214.0620, 20265.00
215.2880, 20360.00
216.5150, 20677.00
217.7410, 20814.00
218.9680, 21162.00
220.1940, 21218.00
221.4190, 21371.00
222.6450, 21771.00
223.8700, 21919.00
225.0960, 22019.00
226.3210, 22290.00
227.5450, 22236.00
228.7700, 22064.00
229.9940, 22184.00
231.2190, 22158.00
232.4430, 21732.00
233.6660, 21824.00
234.8900, 21698.00
236.1140, 21741.00
237.3370, 21363.00
238.5600, 21316.00
239.7830, 21091.00
241.0050, 20971.00
242.2280, 20858.00
243.4500, 20842.00
244.6720, 20691.00
245.8940, 20653.00
247.1160, 20415.00
248.3370, 20373.00
249.5580, 20302.00
250.7790, 20225.00
252.0000, 20315.00
253.2210, 20062.00
254.4410, 20241.00
255.6620, 20110.00
256.8820, 20119.00
258.1020, 19988.00
259.3210, 20377.00
260.5410, 20425.00
261.7600, 20105.00
262.9790, 19929.00
264.1980, 19856.00
265.4170, 19954.00
266.6360, 19897.00
267.8540, 19772.00
269.0720, 19863.00
270.2900, 19882.00
271.5080, 19845.00
272.7260, 19689.00
273.9430, 19700.00
275.1600, 19796.00
276.3770, 19692.00
277.5940, 19797.00
278.8100, 19809.00
280.0270, 19831.00
281.2430, 19875.00
282.4590, 19703.00
283.6750, 19699.00
284.8910, 19738.00
286.1060, 19701.57
287.3210, 19790.00
288.5360, 19784.00
289.7510, 19871.00
290.9660, 19959.00
292.1800, 19910.00
293.3950, 20002.00
294.6090, 19986.00
295.8230, 20150.00
297.0360, 20323.00
298.2500, 20350.00
299.4630, 20215.00
300.6760, 20289.00
301.8890, 20474.00
303.1020, 20302.00
304.3150, 20510.00
305.5270, 20514.00
306.7390, 20513.00
307.9510, 20533.00
309.1630, 20555.62
310.3750, 20783.00
311.5860, 20629.00
312.7970, 20614.00
314.0080, 20668.00
315.2190, 20481.00
316.4300, 20342.00
317.6400, 20395.00
318.8510, 20442.00
320.0610, 20483.00
321.2710, 20477.63
322.4800, 20393.00
323.6900, 20403.00
324.8990, 20265.00
326.1080, 20127.00
327.3170, 20095.00
328.5260, 20077.00
329.7340, 19934.00
330.9430, 19905.00
332.1510, 19971.00
333.3590, 19951.00
334.5670, 19850.00
335.7740, 19871.07
336.9820, 19923.00
338.1890, 19793.00
339.3960, 19922.00
340.6030, 19868.00
341.8100, 20024.00
343.0160, 19921.00
344.2220, 20043.00
345.4280, 19972.00
346.6340, 20042.00
347.8400, 19743.00
349.0460, 20016.00
350.2510, 19921.00
351.4560, 20060.00
352.6610, 19878.00
353.8660, 20032.00
355.0700, 20093.00
356.2750, 20089.00
357.4790, 20046.00
358.6830, 20023.00
359.8870, 19923.00
361.0910, 20002.00
362.2940, 19945.00
363.4970, 19859.00
364.7000, 20217.00
365.9030, 20063.00
367.1060, 20119.00
368.3080, 20038.00
369.5110, 20084.00
370.7130, 20088.00
371.9150, 19926.00
373.1170, 20096.00
374.3180, 20177.00
375.5200, 20126.00
376.7210, 20328.00
377.9220, 20197.00
379.1230, 20108.00
380.3230, 20072.00
381.5240, 20329.00
382.7240, 20146.00
383.9240, 20107.00
385.1240, 20207.00
386.3240, 20093.00
387.5230, 20237.00
388.7230, 20400.00
389.9220, 20237.00
391.1210, 20282.00
392.3200, 20291.00
393.5180, 20419.00
394.7170, 20356.00
395.9150, 20217.00
397.1130, 20547.00
398.3110, 20564.00
399.5080, 20137.00
400.7060, 20511.00
401.9030, 20471.00
403.1000, 20433.89
404.2970, 20490.00
405.4940, 20510.00
406.6910, 20447.00
407.8870, 20535.00
409.0830, 20513.00
410.2790, 20676.00
411.4750, 20578.00
412.6710, 20649.00
413.8660, 20809.00
415.0610, 20760.00
416.2560, 20804.00
417.4510, 20842.00
418.6460, 21041.00
419.8410, 20900.00
421.0350, 21217.00
422.2290, 21008.00
423.4230, 21167.00
424.6170, 21044.00
425.8100, 21372.00
427.0040, 21325.00
428.1970, 21439.00
429.3900, 21455.00
430.5830, 21714.00
431.7760, 21728.52
432.9680, 21879.00
434.1610, 21882.00
435.3530, 21933.00
436.5450, 22030.00
437.7360, 22228.00
438.9280, 22321.00
440.1190, 22234.00
441.3110, 22447.00
442.5020, 22437.00
443.6930, 22596.00
444.8830, 22521.00
446.0740, 22859.00
447.2640, 22872.00
448.4540, 22848.00
449.6440, 23296.00
450.8340, 23177.00
452.0240, 23536.00
453.2130, 23491.00
454.4020, 23756.00
455.5910, 23548.00
456.7800, 23568.00
457.9690, 23532.00
459.1570, 23457.89
460.3460, 23493.00
461.5340, 23459.00
462.7220, 23576.00
463.9090, 23723.00
465.0970, 23591.00
466.2840, 23817.00
467.4720, 23632.00
468.6590, 23806.00
469.8460, 24044.00
471.0320, 24171.00
472.2190, 24246.00
473.4050, 24488.00
474.5910, 24603.00
475.7770, 24786.00
476.9630, 24909.00
478.1490, 25127.00
479.3340, 25350.00
480.5190, 25383.00
481.7040, 25353.00
482.8890, 25527.00
484.0740, 25397.00
485.2580, 25321.00
486.4430, 25456.00
487.6270, 25252.00
488.8110, 25222.00
489.9950, 25209.00
491.1780, 24912.00
492.3620, 24611.00
493.5450, 24856.00
494.7280, 24638.00
495.9110, 24545.00
497.0940, 24466.00
498.2760, 24253.00
499.4590, 24389.00
500.6410, 24130.00
501.8230, 24238.00
503.0050, 23972.00
504.1860, 23951.00
505.3680, 24000.00
506.5490, 24197.00
507.7300, 24125.81
508.9110, 23938.00
510.0920, 24146.00
511.2730, 24053.00
512.4530, 24134.67
513.6330, 23947.00
514.8130, 24130.00
515.9930, 23994.00
517.1730, 24078.00
518.3520, 24142.00
519.5320, 23991.00
520.7110, 23854.00
521.8900, 24110.00
523.0690, 24312.00
524.2470, 23911.00
525.4260, 23963.00
526.6040, 23885.00
527.7820, 24015.00
528.9600, 23975.00
530.1380, 23862.00
531.3150, 23874.00
532.4930, 23713.00
533.6700, 23586.00
534.8470, 23573.00
536.0240, 23796.00
537.2000, 23657.00
538.3770, 23824.00
539.5530, 23847.00
540.7290, 23760.00
541.9050, 23839.00
543.0810, 23815.00
544.2570, 23712.00
545.4320, 23680.00
546.6080, 23864.00
547.7830, 23722.00
548.9580, 23552.00
550.1320, 23535.00
551.3070, 23768.00
552.4810, 23711.00
553.6550, 23596.00
554.8300, 23846.00
556.0030, 23708.00
557.1770, 23869.00
558.3510, 23749.00
559.5240, 23732.00
560.6970, 23807.00
561.8700, 23756.00
563.0430, 23931.00
564.2160, 23883.00
565.3880, 24078.00
566.5600, 23971.00
567.7320, 23934.00
568.9040, 24091.00
570.0760, 23978.00
571.2480, 24128.00
572.4190, 24209.00
573.5900, 24226.00
574.7610, 24251.00
575.9320, 24316.00
577.1030, 24529.00
578.2740, 24547.00
579.4440, 24614.00
580.6140, 24534.00
581.7840, 24683.00
582.9540, 24927.00
584.1240, 24959.00
585.2930, 25105.00
586.4630, 25460.00
587.6320, 25490.00
588.8010, 25515.00
589.9700, 25816.00
591.1380, 25883.00
592.3070, 26235.00
593.4750, 26707.00
594.6430, 26864.00
595.8110, 27381.00
596.9790, 27705.57
598.1460, 28014.00
599.3140, 28473.00
600.4810, 28915.00
601.6480, 29346.00
602.8150, 29867.00
603.9820, 30381.47
605.1480, 30938.90
606.3150, 31486.00
607.4810, 32137.00
608.6470, 32687.00
609.8130, 33323.00
610.9790, 33819.00
612.1440, 34436.00
613.3100, 35192.87
614.4750, 35903.00
615.6400, 36742.00
616.8050, 37246.00
617.9690, 37939.00
619.1340, 38441.00
620.2980, 39322.00
621.4620, 39752.00
622.6260, 40085.00
623.7900, 40330.00
624.9540, 40359.00
626.1170, 40482.00
627.2810, 39963.00
628.4440, 39642.00
629.6070, 39208.00
630.7690, 38772.00
631.9320, 38022.00
633.0950, 37520.00
634.2570, 36924.00
635.4190, 36319.00
636.5810, 35936.00
637.7430, 35537.00
638.9040, 34809.00
640.0660, 34488.00
641.2270, 34537.00
642.3880, 34402.00
643.5490, 34595.00
644.7100, 34812.00
645.8700, 35235.00
647.0310, 36173.00
648.1910, 37454.00
649.3510, 38625.00
650.5110, 40354.00
651.6710, 42449.00
652.8300, 44406.00
653.9900, 46552.00
655.1490, 48740.00
656.3080, 50515.00
657.4670, 52651.00
658.6250, 53935.00
659.7840, 54824.00
660.9420, 55523.00
662.1010, 55635.73
663.2590, 55417.00
664.4170, 54883.00
665.5740, 54178.00
666.7320, 52949.00
667.8890, 51466.00
669.0460, 49758.00
670.2030, 48066.00
671.3600, 46177.00
672.5170, 44251.00
673.6740, 42438.00
674.8300, 40786.00
675.9860, 39280.00
677.1420, 38075.00
678.2980, 36264.00
679.4540, 35496.00
680.6090, 34271.00
681.7650, 33400.00
682.9200, 32634.00
684.0750, 31905.00
685.2300, 31168.00
686.3840, 30459.00
687.5390, 30097.00
688.6930, 29627.00
689.8470, 29478.00
691.0010, 29022.00
692.1550, 28603.00
693.3090, 28508.00
694.4620, 28105.00
695.6160, 28195.00
696.7690, 28223.00
697.9220, 27994.00
699.0750, 27643.00
700.2280, 27648.00
701.3800, 27735.00
702.5320, 27410.00
703.6850, 27480.00
704.8370, 27285.00
705.9880, 27327.00
707.1400, 27222.00
708.2920, 27276.00
709.4430, 27071.00
710.5940, 27015.00
711.7450, 26884.00
712.8960, 26884.00
714.0470, 26846.00
715.1970, 26714.00
716.3480, 26674.00
717.4980, 26827.00
718.6480, 26588.00
719.7980, 26897.00
720.9470, 26703.00
722.0970, 26901.00
723.2460, 26610.00
724.3960, 26543.00
725.5450, 26680.00
726.6940, 26461.00
727.8420, 26349.00
728.9910, 26740.00
730.1390, 26491.00
731.2870, 26380.00
732.4350, 26724.00
733.5830, 26438.00
734.7310, 26634.00
735.8790, 26432.00
737.0260, 26569.00
738.1730, 26381.00
739.3200, 26472.00
740.4670, 26401.00
741.6140, 26428.00
742.7610, 26460.00
743.9070, 26500.00
745.0530, 26627.00
746.1990, 26632.00
747.3450, 26548.00
748.4910, 26472.00
749.6370, 26665.00
750.7820, 26603.00
751.9270, 26707.00
753.0720, 26688.00
754.2170, 26467.00
755.3620, 26427.00
756.5070, 26640.00
757.6510, 26510.00
758.7950, 26704.00
759.9400, 26409.00
761.0840, 26548.00
762.2270, 26713.00
763.3710, 26799.00
764.5140, 26681.00
765.6580, 26844.00
766.8010, 26650.00
767.9440, 26538.00
769.0870, 26636.00
770.2290, 26664.00
771.3720, 26625.00
772.5140, 26619.00
773.6560, 26558.00
774.7990, 26813.00
775.9400, 26865.00
777.0820, 26819.00
778.2240, 26805.00
779.3650, 26888.00
780.5060, 26822.00
781.6470, 26778.00
782.7880, 26832.00
783.9290, 26633.00
785.0690, 26958.00
786.2100, 26810.00
787.3500, 26907.00
788.4900, 26847.00
789.6300, 26923.00
790.7700, 26889.00
791.9090, 26812.00
793.0490, 27010.00
794.1880, 27200.00
795.3270, 26944.00
796.4660, 27197.00
797.6050, 27260.00
798.7440, 27421.00
799.8820, 27501.79
801.0200, 27511.18
802.1590, 27559.00
803.2970, 27528.00
804.4340, 27432.00
805.5720, 27498.00
806.7100, 27496.94
807.8470, 27471.00
808.9840, 27566.00
810.1210, 27669.00
811.2580, 27645.00
812.3950, 27550.00
813.5310, 27655.00
814.6680, 27664.00
815.8040, 27832.00
816.9400, 27906.00
818.0760, 27705.00
819.2120, 27807.00
820.3470, 27843.00
821.4830, 27866.00
822.6180, 28094.00
823.7530, 27848.00
824.8880, 28146.00
826.0230, 28124.00
827.1580, 27973.00
828.2920, 28239.00
829.4270, 28228.00
830.5610, 28169.00
831.6950, 28410.00
832.8290, 28588.00
833.9620, 28624.00
835.0960, 28563.00
836.2290, 28631.00
837.3620, 28674.00
838.4950, 28827.00
839.6280, 28782.00
840.7610, 28843.00
841.8940, 28948.00
843.0260, 29224.00
844.1580, 29163.00
845.2910, 29362.00
846.4230, 29754.00
847.5540, 29693.00
848.6860, 29784.00
849.8170, 29821.00
850.9490, 30013.00
852.0800, 30264.00
853.2110, 30314.00
854.3420, 30714.00
855.4730, 30894.00
856.6030, 31149.00
857.7340, 31382.00
858.8640, 31536.00
859.9940, 31746.00
861.1240, 31776.00
862.2540, 32025.00
863.3830, 32020.00
864.5130, 32262.00
865.6420, 32424.00
866.7710, 32430.00
867.9000, 32008.00
869.0290, 32023.00
870.1570, 31639.00
871.2860, 31685.00
872.4140, 31644.00
873.5430, 31434.00
874.6710, 31555.00
875.7980, 31723.00
876.9260, 31744.00
878.0540, 31922.00
879.1810, 32198.00
880.3080, 32485.00
881.4360, 32905.17
882.5630, 33464.00
883.6890, 33898.00
884.8160, 34487.00
885.9420, 35084.00
887.0690, 35601.00
888.1950, 36174.00
889.3210, 36588.00
890.4470, 36848.00
891.5730, 36957.00
892.6980, 37433.00
893.8240, 37674.00
894.9490, 38029.00
896.0740, 38355.00
897.1990, 38859.00
898.3240, 39576.00
899.4480, 40536.00
900.5730, 41666.00
901.6970, 42957.00
902.8210, 44201.00
903.9450, 46047.00
905.0690, 47824.00
906.1930, 49170.00
907.3160, 51413.00
908.4400, 53528.00
909.5630, 55168.00
910.6860, 56655.00
911.8090, 58179.00
912.9320, 58845.00
914.0550, 59144.00
915.1770, 59712.00
916.2990, 59423.00
917.4210, 59410.00
918.5440, 58987.00
919.6650, 58901.00
920.7870, 58107.00
921.9090, 57776.00
923.0300, 56993.00
924.1510, 55870.00
925.2720, 54953.00
926.3930, 53394.00
927.5140, 51745.00
928.6350, 50134.00
929.7550, 48611.00
930.8760, 47077.21
931.9960, 45496.00
933.1160, 44258.00
934.2360, 42879.00
935.3550, 41774.00
936.4750, 40714.00
937.5940, 39934.00
938.7140, 39199.00
939.8330, 38631.00
940.9520, 37820.00
942.0710, 37518.00
943.1890, 36738.00
944.3080, 36465.00
945.4260, 36310.00
946.5440, 35826.00
947.6620, 35579.00
948.7800, 35650.00
949.8980, 35351.00
951.0160, 35158.00
952.1330, 35054.00
953.2500, 34849.00
954.3680, 34898.00
955.4850, 34733.00
956.6010, 34802.00
957.7180, 34569.00
958.8350, 34571.00
959.9510, 34502.00
961.0670, 34269.00
962.1830, 34271.00
963.2990, 34049.00
964.4150, 33904.00
965.5310, 33670.00
966.6460, 33583.00
967.7620, 33347.00
968.8770, 33261.00
969.9920, 33395.00
971.1070, 33167.00
972.2210, 33187.00
973.3360, 33280.00
974.4500, 32734.00
975.5650, 32943.00
976.6790, 32783.00
977.7930, 32746.00
978.9070, 32822.00
980.0200, 32553.00
981.1340, 32770.00
982.2470, 32773.00
983.3610, 32753.00
984.4740, 32711.00
985.5870, 32801.00
986.6990, 32739.00
987.8120, 32929.00
988.9250, 32606.00
990.0370, 32749.00
991.1490, 32644.00
992.2610, 32946.00
993.3730, 32917.00
994.4850, 32903.00
995.5960, 32739.00
996.7080, 32630.00
997.8190, 32691.00
998.9300, 32759.00
1000.041, 32669.00
1001.152, 33073.00
1002.263, 32865.00
1003.373, 33005.00
1004.484, 32595.00
1005.594, 32938.00
1006.704, 32710.00
1007.814, 32680.00
1008.924, 32648.00
1010.034, 32593.00
1011.143, 32804.00
1012.253, 32661.00
1013.362, 32696.00
1014.471, 32748.00
1015.580, 32660.00
1016.689, 32691.00
1017.797, 32581.00
1018.906, 32613.00
1020.014, 32697.00
1021.122, 32654.00
1022.230, 32556.00
1023.338, 32596.00
1024.446, 32466.43
1025.554, 32352.00
1026.661, 32395.00
1027.768, 32518.00
1028.875, 32780.00
1029.983, 32560.00
1031.089, 32471.00
1032.196, 32454.00
1033.303, 32269.00
1034.409, 32369.97
1035.515, 32458.00
1036.622, 32515.00
1037.728, 32532.00
1038.833, 32577.00
1039.939, 32418.00
1041.045, 32593.00
1042.150, 32460.00
1043.255, 32444.00
1044.360, 32605.00
1045.465, 32650.00
1046.570, 32355.00
1047.675, 32312.00
1048.779, 32483.00
1049.884, 32405.00
1050.988, 32473.00
1052.092, 32529.00
1053.196, 32693.00
1054.300, 32641.00
1055.404, 32613.00
1056.507, 32479.00
1057.610, 32526.00
1058.714, 32729.00
1059.817, 32423.00
1060.920, 32439.00
1062.022, 32518.00
1063.125, 32326.00
1064.228, 32526.00
1065.330, 32468.00
1066.432, 32703.00
1067.534, 32805.00
1068.636, 32529.00
1069.738, 32653.00
1070.840, 32738.00
1071.941, 32488.00
1073.042, 32857.00
1074.144, 32844.00
1075.245, 32568.00
1076.346, 32698.00
1077.446, 32949.00
1078.547, 32853.00
1079.647, 32758.00
1080.748, 32959.00
1081.848, 32894.00
1082.948, 32834.00
1084.048, 32876.00
1085.148, 32775.00
1086.247, 32776.00
1087.347, 32867.00
1088.446, 32880.00
1089.545, 32881.00
1090.644, 32771.00
1091.743, 32737.00
1092.842, 32972.00
1093.940, 32799.00
1095.039, 33075.00
1096.137, 32798.00
1097.235, 33041.00
1098.333, 33061.00
1099.431, 32839.00
1100.529, 32886.00
1101.627, 32964.00
1102.724, 33127.00
1103.822, 32935.00
1104.919, 33135.00
1106.016, 33158.00
1107.113, 33032.00
1108.209, 33161.00
1109.306, 33140.00
1110.402, 32978.00
1111.499, 33477.00
1112.595, 33283.00
1113.691, 33581.00
1114.787, 33188.00
1115.883, 33266.00
1116.978, 33132.00
1118.074, 33167.00
1119.169, 33360.00
1120.264, 33256.00
1121.359, 33506.00
1122.454, 33366.00
1123.549, 33283.00
1124.644, 33396.00
1125.738, 33199.00
1126.832, 33360.00
1127.927, 33382.00
1129.021, 33315.00
1130.115, 33634.00
1131.208, 33761.00
1132.302, 33777.00
1133.396, 33363.00
1134.489, 33672.00
1135.582, 33572.00
1136.675, 33489.00
1137.768, 33640.00
1138.861, 33751.00
1139.954, 33517.00
1141.046, 33647.00
1142.138, 33744.00
1143.231, 33728.00
1144.323, 33647.00
1145.415, 33790.00
1146.507, 33805.00
1147.598, 33953.00
1148.690, 33764.00
1149.781, 34081.00
1150.872, 34089.00
1151.964, 33881.00
1153.054, 33912.00
1154.145, 34010.00
1155.236, 34015.00
1156.327, 34229.00
1157.417, 34177.00
1158.507, 34216.00
1159.597, 34075.00
1160.687, 34007.00
1161.777, 34165.00
1162.867, 34283.00
1163.956, 34223.00
1165.046, 34290.00
1166.135, 34329.26
1167.224, 34338.00
1168.313, 34373.00
1169.402, 34408.00
1170.491, 34354.00
1171.580, 34155.00
1172.668, 34282.00
1173.756, 34336.00
1174.845, 34547.00
1175.933, 34571.40
1177.020, 34627.00
1178.108, 34691.00
1179.196, 34606.00
1180.283, 34677.00
1181.371, 34826.00
1182.458, 34625.00
1183.545, 34392.00
1184.632, 34775.00
1185.719, 34435.00
1186.805, 34666.00
1187.892, 34906.00
1188.978, 34827.00
1190.065, 34870.00
1191.151, 34764.00
1192.237, 35109.00
1193.323, 34889.00
1194.408, 34640.00
1195.494, 34936.00
1196.579, 35121.00
1197.664, 34833.00
1198.750, 34986.00
1199.835, 35045.00
1200.919, 34782.00
1202.004, 35302.00
1203.089, 34989.00
1204.173, 35031.00
1205.258, 35231.00
1206.342, 35424.00
1207.426, 35415.66
1208.510, 35451.00
1209.594, 35417.00
1210.677, 35235.00
1211.761, 35156.00
1212.844, 35280.00
1213.927, 35298.00
1215.010, 35699.00
1216.093, 35531.00
1217.176, 35038.00
1218.259, 35529.00
1219.341, 35416.00
1220.424, 35394.00
1221.506, 35513.00
1222.588, 35273.00
1223.670, 35424.00
1224.752, 35372.00
1225.834, 35551.00
1226.915, 35402.00
1227.997, 35586.00
1229.078, 35575.00
1230.159, 35537.00
1231.240, 35613.00
1232.321, 35806.00
1233.402, 35919.00
1234.483, 35872.00
1235.563, 35623.00
1236.644, 35842.00
1237.724, 35434.00
1238.804, 35665.00
1239.884, 36010.00
1240.964, 35687.00
1242.044, 36100.00
1243.123, 35696.00
1244.203, 35928.00
1245.282, 35767.00
1246.361, 36029.00
1247.440, 36197.00
1248.519, 36061.00
1249.598, 36058.00
1250.676, 36046.00
1251.755, 36157.00
1252.833, 36033.00
1253.911, 36352.00
1254.989, 36251.00
1256.067, 36225.00
1257.145, 36098.00
1258.223, 36281.00
1259.300, 36218.00
1260.378, 36355.00
1261.455, 36415.00
1262.532, 36451.16
1263.609, 36267.00
1264.686, 36536.00
1265.763, 36522.00
1266.840, 36476.00
1267.916, 36660.00
1268.992, 36618.00
1270.069, 36662.00
1271.145, 36618.00
1272.221, 36690.75
1273.296, 36763.00
1274.372, 36737.00
1275.448, 36743.00
1276.523, 36549.00
1277.598, 36676.00
1278.673, 36605.00
1279.749, 36954.00
1280.823, 36615.00
1281.898, 36842.00
1282.973, 36732.00
1284.047, 36980.00
1285.122, 36933.00
1286.196, 37041.00
1287.270, 37023.00
1288.344, 36814.00
1289.418, 37005.00
1290.491, 36938.00
1291.565, 37110.00
1292.638, 37259.00
1293.712, 37382.00
1294.785, 37284.00
1295.858, 37025.00
1296.931, 37090.00
1298.003, 37377.00
1299.076, 37146.00
1300.149, 37521.00
1301.221, 37392.00
1302.293, 37460.00
1303.365, 37404.00
1304.437, 37388.00
1305.509, 37418.00
1306.581, 37422.48
1307.652, 37452.81
1308.724, 37505.00
1309.795, 37488.00
1310.866, 37541.00
1311.937, 37480.00
1313.008, 37410.00
1314.079, 37756.00
1315.150, 37580.00
1316.220, 37778.00
1317.291, 37711.00
1318.361, 37769.00
1319.431, 37891.00
1320.501, 37817.00
1321.571, 38139.00
1322.641, 38035.00
1323.710, 38108.00
1324.780, 37816.00
1325.849, 38118.00
1326.918, 38164.00
1327.987, 38217.00
1329.056, 38070.00
1330.125, 38163.00
1331.194, 38247.00
1332.263, 38093.00
1333.331, 38179.00
1334.399, 38413.00
1335.467, 38221.00
1336.535, 38278.00
1337.603, 38301.00
1338.671, 38222.00
1339.739, 38276.00
1340.806, 38406.00
1341.874, 38221.00
1342.941, 38479.00
1344.008, 38522.00
1345.075, 38477.00
1346.142, 38625.00
1347.209, 38430.00
1348.275, 38589.00
1349.342, 38669.00
1350.408, 38648.00
1351.475, 38737.50
1352.541, 38707.66
1353.607, 38752.00
1354.673, 38712.00
1355.738, 38629.00
1356.804, 38737.00
1357.869, 38815.00
1358.935, 38898.00
1360.000, 38655.00
1361.065, 38659.00
1362.130, 38756.00
1363.195, 38997.00
1364.259, 38892.00
1365.324, 39014.00
1366.388, 39073.00
1367.453, 38723.00
1368.517, 38915.00
1369.581, 39022.00
1370.645, 38795.00
