##NAMES=Akermanite
##RRUFFID=R061100
##IDEAL CHEMISTRY=Ca_2_MgSi_2_O_7_
##LOCALITY=Lago de Vico, Viterbo, Italy
##OWNER=Michael Scott
##SOURCE=Michael Scott
##DESCRIPTION=Colorless to white short prismatic crystals
##STATUS=The identification of this mineral has been confirmed by X-ray diffraction and chemical analysis
##URL=rruff.info/R061100
##MEASURED CHEMISTRY=(Ca_1.80_Na_0.20_)_Σ=2_(Mg_0.58_Al_0.38_Fe_0.04_)_Σ=1_(Si_1.82_Al_0.18_)_Σ=2_O_7_
##PIN_ID=M00238
##ORIENTATION=Laser parallel to a* (1 0 0). Fiducial mark perpendicular to laser is parallel to -c [0 0 -1]
206.6970, 19993.00
207.9250, 19946.00
209.1530, 19908.00
210.3800, 20016.00
211.6080, 20230.00
212.8350, 20514.00
214.0620, 20513.00
215.2880, 20599.00
216.5150, 20847.00
217.7410, 20979.00
218.9680, 21033.00
220.1940, 21273.00
221.4190, 21352.00
222.6450, 21750.00
223.8700, 21876.00
225.0960, 21954.00
226.3210, 22054.00
227.5450, 22028.00
228.7700, 22296.00
229.9940, 22241.00
231.2190, 22352.00
232.4430, 22914.00
233.6660, 22758.00
234.8900, 22942.00
236.1140, 22796.00
237.3370, 22708.00
238.5600, 22341.00
239.7830, 22074.00
241.0050, 21784.00
242.2280, 21903.00
243.4500, 21633.00
244.6720, 21583.00
245.8940, 21413.00
247.1160, 21083.00
248.3370, 21129.00
249.5580, 20870.00
250.7790, 20958.00
252.0000, 20969.00
253.2210, 20721.00
254.4410, 20630.00
255.6620, 20585.00
256.8820, 20505.00
258.1020, 20756.00
259.3210, 20596.00
260.5410, 20751.00
261.7600, 20687.00
262.9790, 20237.00
264.1980, 20246.00
265.4170, 20215.00
266.6360, 20511.00
267.8540, 20165.00
269.0720, 20379.00
270.2900, 20373.00
271.5080, 20344.00
272.7260, 20342.00
273.9430, 20362.00
275.1600, 20415.00
276.3770, 20371.00
277.5940, 20568.00
278.8100, 20682.00
280.0270, 20659.00
281.2430, 20757.00
282.4590, 20905.00
283.6750, 21107.00
284.8910, 21305.00
286.1060, 21487.00
287.3210, 21712.00
288.5360, 21751.00
289.7510, 22000.00
290.9660, 22702.00
292.1800, 22758.00
293.3950, 23220.00
294.6090, 23519.00
295.8230, 23922.00
297.0360, 24319.00
298.2500, 24880.00
299.4630, 25257.00
300.6760, 25759.00
301.8890, 26452.00
303.1020, 26704.00
304.3150, 27445.00
305.5270, 27889.00
306.7390, 28347.00
307.9510, 28703.00
309.1630, 29088.00
310.3750, 29161.00
311.5860, 29203.00
312.7970, 29013.00
314.0080, 28830.57
315.2190, 28235.00
316.4300, 28056.00
317.6400, 27513.00
318.8510, 26762.00
320.0610, 26358.00
321.2710, 25758.00
322.4800, 25254.00
323.6900, 24843.00
324.8990, 24248.00
326.1080, 23868.00
327.3170, 23310.00
328.5260, 22926.00
329.7340, 22538.58
330.9430, 22147.72
332.1510, 21839.00
333.3590, 21511.00
334.5670, 21211.00
335.7740, 20966.75
336.9820, 20727.00
338.1890, 20667.00
339.3960, 20496.00
340.6030, 20464.00
341.8100, 20306.49
343.0160, 20153.00
344.2220, 20075.00
345.4280, 19970.00
346.6340, 19967.00
347.8400, 19693.00
349.0460, 19667.00
350.2510, 19797.00
351.4560, 19474.00
352.6610, 19666.00
353.8660, 19729.00
355.0700, 19505.00
356.2750, 19635.00
357.4790, 19600.00
358.6830, 19568.00
359.8870, 19620.00
361.0910, 19710.00
362.2940, 19508.00
363.4970, 19462.00
364.7000, 19521.00
365.9030, 19583.00
367.1060, 19340.00
368.3080, 19449.00
369.5110, 19416.00
370.7130, 19067.00
371.9150, 19163.00
373.1170, 19069.00
374.3180, 19114.00
375.5200, 19107.00
376.7210, 18831.00
377.9220, 18669.00
379.1230, 18726.00
380.3230, 18822.00
381.5240, 18793.00
382.7240, 18672.00
383.9240, 18732.00
385.1240, 18602.00
386.3240, 18696.00
387.5230, 18740.00
388.7230, 18659.00
389.9220, 18641.00
391.1210, 18697.00
392.3200, 18665.00
393.5180, 18632.00
394.7170, 18657.00
395.9150, 18712.00
397.1130, 18716.00
398.3110, 18719.00
399.5080, 18660.00
400.7060, 18779.00
401.9030, 18676.00
403.1000, 18781.00
404.2970, 18581.00
405.4940, 18649.00
406.6910, 18821.00
407.8870, 18791.00
409.0830, 18711.00
410.2790, 18664.00
411.4750, 18733.00
412.6710, 18784.00
413.8660, 18736.00
415.0610, 18800.00
416.2560, 18752.00
417.4510, 18751.41
418.6460, 18685.00
419.8410, 18780.00
421.0350, 18985.00
422.2290, 19134.00
423.4230, 19059.00
424.6170, 19010.00
425.8100, 18984.00
427.0040, 19038.00
428.1970, 19104.00
429.3900, 19202.00
430.5830, 19228.00
431.7760, 19299.00
432.9680, 19379.00
434.1610, 19531.00
435.3530, 19671.00
436.5450, 19389.00
437.7360, 19672.00
438.9280, 19613.00
440.1190, 19786.00
441.3110, 19690.00
442.5020, 19658.00
443.6930, 19794.00
444.8830, 19770.00
446.0740, 20011.00
447.2640, 20046.00
448.4540, 20231.00
449.6440, 20071.00
450.8340, 20245.00
452.0240, 20301.00
453.2130, 20577.00
454.4020, 20419.00
455.5910, 20620.00
456.7800, 20479.00
457.9690, 20771.00
459.1570, 20497.00
460.3460, 20521.00
461.5340, 20595.00
462.7220, 20702.00
463.9090, 20647.00
465.0970, 20753.00
466.2840, 20767.00
467.4720, 20901.00
468.6590, 20813.00
469.8460, 20888.00
471.0320, 20916.00
472.2190, 21203.00
473.4050, 21131.00
474.5910, 21044.00
475.7770, 21302.00
476.9630, 21232.00
478.1490, 21294.00
479.3340, 21446.00
480.5190, 21512.00
481.7040, 21347.00
482.8890, 21562.00
484.0740, 21378.00
485.2580, 21707.00
486.4430, 21769.00
487.6270, 21378.00
488.8110, 21457.00
489.9950, 21462.00
491.1780, 21372.00
492.3620, 21529.00
493.5450, 21348.00
494.7280, 21125.00
495.9110, 21354.00
497.0940, 21258.00
498.2760, 21203.00
499.4590, 21128.00
500.6410, 21215.00
501.8230, 21117.00
503.0050, 21121.00
504.1860, 21095.00
505.3680, 20995.00
506.5490, 21168.00
507.7300, 21254.00
508.9110, 21136.00
510.0920, 21166.00
511.2730, 21124.00
512.4530, 21202.73
513.6330, 21318.00
514.8130, 21377.00
515.9930, 21479.00
517.1730, 21478.00
518.3520, 21613.00
519.5320, 21615.59
520.7110, 21549.00
521.8900, 21659.00
523.0690, 21679.00
524.2470, 21712.18
525.4260, 21816.00
526.6040, 21705.00
527.7820, 21614.00
528.9600, 21642.00
530.1380, 21661.00
531.3150, 21491.00
532.4930, 21477.00
533.6700, 21182.00
534.8470, 21270.00
536.0240, 21193.00
537.2000, 21107.00
538.3770, 21099.00
539.5530, 21055.18
540.7290, 21125.00
541.9050, 21052.00
543.0810, 21076.29
544.2570, 21125.00
545.4320, 21039.00
546.6080, 21039.00
547.7830, 21002.00
548.9580, 21415.00
550.1320, 21431.00
551.3070, 20955.00
552.4810, 21462.00
553.6550, 21192.22
554.8300, 21424.00
556.0030, 21063.00
557.1770, 21259.00
558.3510, 21126.00
559.5240, 21357.00
560.6970, 21418.00
561.8700, 21447.00
563.0430, 21293.00
564.2160, 21324.00
565.3880, 21314.00
566.5600, 21362.00
567.7320, 21458.00
568.9040, 21416.00
570.0760, 21657.00
571.2480, 21631.00
572.4190, 21727.00
573.5900, 21738.00
574.7610, 21686.00
575.9320, 21669.00
577.1030, 21946.00
578.2740, 21977.00
579.4440, 22146.00
580.6140, 22193.00
581.7840, 22334.00
582.9540, 22528.00
584.1240, 22574.00
585.2930, 22518.00
586.4630, 22742.00
587.6320, 22784.00
588.8010, 23061.00
589.9700, 23211.00
591.1380, 23507.00
592.3070, 23581.00
593.4750, 23774.00
594.6430, 23936.00
595.8110, 24507.00
596.9790, 24827.00
598.1460, 25155.00
599.3140, 25500.00
600.4810, 25842.00
601.6480, 26426.00
602.8150, 26865.00
603.9820, 27459.00
605.1480, 27619.00
606.3150, 28345.00
607.4810, 28729.00
608.6470, 29245.00
609.8130, 29796.00
610.9790, 30424.00
612.1440, 31121.00
613.3100, 31466.00
614.4750, 31996.00
615.6400, 32604.00
616.8050, 32907.00
617.9690, 33364.00
619.1340, 33974.00
620.2980, 34420.00
621.4620, 34784.00
622.6260, 35042.00
623.7900, 35080.00
624.9540, 35154.00
626.1170, 35235.00
627.2810, 34742.00
628.4440, 34721.00
629.6070, 34180.00
630.7690, 33913.00
631.9320, 33343.00
633.0950, 32766.00
634.2570, 32242.00
635.4190, 31749.00
636.5810, 31163.00
637.7430, 30885.00
638.9040, 30567.00
640.0660, 30194.00
641.2270, 30131.00
642.3880, 30198.00
643.5490, 29896.00
644.7100, 30064.00
645.8700, 30249.00
647.0310, 30724.00
648.1910, 31540.00
649.3510, 32518.00
650.5110, 33668.00
651.6710, 35415.00
652.8300, 36812.00
653.9900, 38576.00
655.1490, 40399.00
656.3080, 41621.00
657.4670, 43283.00
658.6250, 44924.00
659.7840, 45643.00
660.9420, 46414.00
662.1010, 46874.00
663.2590, 46952.00
664.4170, 46606.00
665.5740, 46258.00
666.7320, 44849.00
667.8890, 44359.00
669.0460, 42881.00
670.2030, 41469.00
671.3600, 40274.00
672.5170, 38628.00
673.6740, 37197.00
674.8300, 35855.00
675.9860, 34491.00
677.1420, 33398.00
678.2980, 32184.00
679.4540, 31039.00
680.6090, 30118.00
681.7650, 29516.00
682.9200, 28732.00
684.0750, 28050.00
685.2300, 27413.00
686.3840, 27014.00
687.5390, 26371.00
688.6930, 26139.00
689.8470, 25699.00
691.0010, 25473.00
692.1550, 25231.00
693.3090, 25049.00
694.4620, 24971.00
695.6160, 24850.00
696.7690, 24710.00
697.9220, 24623.00
699.0750, 24501.96
700.2280, 24272.00
701.3800, 24254.00
702.5320, 24170.00
703.6850, 23968.00
704.8370, 24130.00
705.9880, 23846.00
707.1400, 23841.00
708.2920, 23792.00
709.4430, 23914.00
710.5940, 23746.00
711.7450, 23850.00
712.8960, 23652.00
714.0470, 23739.00
715.1970, 23605.00
716.3480, 23731.00
717.4980, 23667.00
718.6480, 23479.00
719.7980, 23642.00
720.9470, 23538.00
722.0970, 23637.00
723.2460, 23572.00
724.3960, 23544.00
725.5450, 23690.00
726.6940, 23700.00
727.8420, 23474.00
728.9910, 23592.00
730.1390, 23608.00
731.2870, 23706.00
732.4350, 23590.00
733.5830, 23582.00
734.7310, 23501.00
735.8790, 23607.00
737.0260, 23575.00
738.1730, 23408.00
739.3200, 23757.00
740.4670, 23483.00
741.6140, 23742.00
742.7610, 23683.00
743.9070, 23554.00
745.0530, 23532.00
746.1990, 23607.00
747.3450, 23711.00
748.4910, 23673.00
749.6370, 23794.00
750.7820, 23701.00
751.9270, 23604.00
753.0720, 23881.00
754.2170, 23595.00
755.3620, 23654.00
756.5070, 23797.00
757.6510, 23624.00
758.7950, 23659.00
759.9400, 23707.00
761.0840, 23761.00
762.2270, 23760.00
763.3710, 23754.00
764.5140, 23848.00
765.6580, 23680.00
766.8010, 23783.00
767.9440, 23580.00
769.0870, 23830.00
770.2290, 23781.00
771.3720, 23685.00
772.5140, 23770.00
773.6560, 23571.00
774.7990, 23796.00
775.9400, 23544.00
777.0820, 23770.00
778.2240, 24061.00
779.3650, 23729.00
780.5060, 23688.00
781.6470, 23778.00
782.7880, 23702.00
783.9290, 23622.00
785.0690, 23851.00
786.2100, 23811.74
787.3500, 24068.00
788.4900, 24000.00
789.6300, 23981.00
790.7700, 24132.00
791.9090, 24218.00
793.0490, 24138.00
794.1880, 24225.00
795.3270, 24224.00
796.4660, 24352.00
797.6050, 24485.00
798.7440, 24682.00
799.8820, 24731.59
801.0200, 24642.00
802.1590, 24828.00
803.2970, 24728.00
804.4340, 24693.00
805.5720, 25003.00
806.7100, 24797.00
807.8470, 24909.00
808.9840, 24768.00
810.1210, 24980.00
811.2580, 25166.00
812.3950, 25187.00
813.5310, 25236.96
814.6680, 25091.00
815.8040, 25223.00
816.9400, 25098.00
818.0760, 25212.00
819.2120, 25242.00
820.3470, 25283.00
821.4830, 25305.00
822.6180, 25254.00
823.7530, 25244.00
824.8880, 25480.00
826.0230, 25120.00
827.1580, 25327.00
828.2920, 25529.00
829.4270, 25503.00
830.5610, 25407.00
831.6950, 25723.00
832.8290, 25736.00
833.9620, 25765.00
835.0960, 25852.00
836.2290, 25712.00
837.3620, 25848.00
838.4950, 25851.00
839.6280, 26109.00
840.7610, 26208.00
841.8940, 26300.00
843.0260, 26445.00
844.1580, 26441.00
845.2910, 26506.00
846.4230, 26576.00
847.5540, 26690.15
848.6860, 26750.00
849.8170, 27063.00
850.9490, 27092.00
852.0800, 27445.00
853.2110, 27442.00
854.3420, 27620.00
855.4730, 27685.00
856.6030, 27882.77
857.7340, 28054.00
858.8640, 28271.00
859.9940, 28580.00
861.1240, 28676.00
862.2540, 28855.00
863.3830, 28998.00
864.5130, 28888.00
865.6420, 28882.00
866.7710, 29234.00
867.9000, 29062.00
869.0290, 28824.00
870.1570, 29136.00
871.2860, 28785.00
872.4140, 28613.00
873.5430, 28595.00
874.6710, 28461.00
875.7980, 28459.00
876.9260, 28567.00
878.0540, 28467.00
879.1810, 28716.00
880.3080, 28932.00
881.4360, 29296.00
882.5630, 29487.00
883.6890, 29974.00
884.8160, 30477.00
885.9420, 31206.00
887.0690, 31717.00
888.1950, 32047.00
889.3210, 32537.00
890.4470, 32812.00
891.5730, 33084.00
892.6980, 33245.00
893.8240, 33485.00
894.9490, 33783.00
896.0740, 34313.00
897.1990, 34379.00
898.3240, 35050.00
899.4480, 35555.00
900.5730, 36520.00
901.6970, 37251.00
902.8210, 38706.00
903.9450, 39996.00
905.0690, 41215.00
906.1930, 43009.00
907.3160, 44967.00
908.4400, 46815.00
909.5630, 48458.00
910.6860, 50133.00
911.8090, 51185.00
912.9320, 52182.00
914.0550, 53039.00
915.1770, 53377.00
916.2990, 53383.00
917.4210, 53348.00
918.5440, 53083.00
919.6650, 52691.00
920.7870, 52349.00
921.9090, 52200.00
923.0300, 51398.00
924.1510, 50592.00
925.2720, 49699.00
926.3930, 48332.00
927.5140, 47181.00
928.6350, 45549.00
929.7550, 44149.00
930.8760, 42603.00
931.9960, 41206.00
933.1160, 40035.00
934.2360, 39195.00
935.3550, 37867.00
936.4750, 36999.00
937.5940, 36510.00
938.7140, 35653.00
939.8330, 34873.00
940.9520, 34609.00
942.0710, 33890.00
943.1890, 33630.00
944.3080, 33453.00
945.4260, 33207.00
946.5440, 32958.00
947.6620, 32992.00
948.7800, 32720.00
949.8980, 32598.00
951.0160, 32814.00
952.1330, 32788.00
953.2500, 32973.00
954.3680, 33111.00
955.4850, 32907.00
956.6010, 32854.00
957.7180, 32978.00
958.8350, 32884.00
959.9510, 33041.00
961.0670, 32910.00
962.1830, 33047.00
963.2990, 32861.57
964.4150, 32457.00
965.5310, 32417.00
966.6460, 32302.00
967.7620, 31944.00
968.8770, 31942.00
969.9920, 31676.00
971.1070, 31252.00
972.2210, 31189.00
973.3360, 31598.00
974.4500, 31385.00
975.5650, 31220.00
976.6790, 31177.00
977.7930, 31137.00
978.9070, 31035.00
980.0200, 31284.00
981.1340, 31270.00
982.2470, 31278.00
983.3610, 31285.00
984.4740, 31352.00
985.5870, 31589.00
986.6990, 31814.00
987.8120, 31739.00
988.9250, 31785.00
990.0370, 32220.00
991.1490, 32324.00
992.2610, 32721.00
993.3730, 32978.00
994.4850, 32955.00
995.5960, 33098.00
996.7080, 33486.00
997.8190, 33503.00
998.9300, 33779.00
1000.041, 33778.00
1001.152, 33952.00
1002.263, 33860.00
1003.373, 33698.00
1004.484, 33404.00
1005.594, 33193.00
1006.704, 33202.00
1007.814, 32570.00
1008.924, 32828.00
1010.034, 32421.00
1011.143, 32157.00
1012.253, 31801.00
1013.362, 31471.00
1014.471, 31433.00
1015.580, 31377.00
1016.689, 31105.00
1017.797, 31052.00
1018.906, 30814.00
1020.014, 30771.00
1021.122, 30528.00
1022.230, 30656.00
1023.338, 30292.00
1024.446, 30279.00
1025.554, 30358.00
1026.661, 30045.00
1027.768, 30107.00
1028.875, 29758.00
1029.983, 29836.00
1031.089, 29814.25
1032.196, 29717.00
1033.303, 29882.00
1034.409, 29761.00
1035.515, 29752.00
1036.622, 29787.00
1037.728, 29735.00
1038.833, 29706.00
1039.939, 29619.21
1041.045, 29438.00
1042.150, 29385.00
1043.255, 29420.00
1044.360, 29292.00
1045.465, 29332.00
1046.570, 29361.00
1047.675, 29181.00
1048.779, 29289.00
1049.884, 29130.00
1050.988, 29135.00
1052.092, 29166.00
1053.196, 28964.00
1054.300, 28946.00
1055.404, 28895.01
1056.507, 28959.00
1057.610, 28821.00
1058.714, 29123.00
1059.817, 29134.00
1060.920, 29254.00
1062.022, 29048.00
1063.125, 28933.00
1064.228, 28796.00
1065.330, 28846.00
1066.432, 29094.00
1067.534, 29019.00
1068.636, 29128.00
1069.738, 28909.00
1070.840, 29017.00
1071.941, 29199.00
1073.042, 28882.00
1074.144, 28920.00
1075.245, 28747.00
1076.346, 29049.00
1077.446, 28974.00
1078.547, 29231.00
1079.647, 29170.00
1080.748, 29000.00
1081.848, 29234.00
1082.948, 29226.00
1084.048, 29266.00
1085.148, 29211.21
1086.247, 29152.00
1087.347, 28946.00
1088.446, 29121.00
1089.545, 28975.00
1090.644, 29100.00
1091.743, 28983.00
1092.842, 28899.00
1093.940, 28888.00
1095.039, 28915.00
1096.137, 28796.00
1097.235, 28861.00
1098.333, 29012.00
1099.431, 28813.00
1100.529, 28868.00
1101.627, 28661.00
1102.724, 28972.00
1103.822, 28886.00
1104.919, 28961.00
1106.016, 28589.00
1107.113, 28796.00
1108.209, 28721.00
1109.306, 28742.00
1110.402, 28848.00
1111.499, 28867.00
1112.595, 28937.00
1113.691, 28842.00
1114.787, 28890.00
1115.883, 28964.00
1116.978, 28898.18
1118.074, 28982.00
1119.169, 28933.00
1120.264, 28908.00
1121.359, 29098.00
1122.454, 29041.00
1123.549, 28996.00
1124.644, 28954.00
1125.738, 28942.00
1126.832, 29039.00
1127.927, 29083.00
1129.021, 29206.00
1130.115, 28972.00
1131.208, 29057.00
1132.302, 29164.00
1133.396, 29144.00
1134.489, 29244.00
1135.582, 29211.00
1136.675, 29411.00
1137.768, 29304.00
1138.861, 29248.00
1139.954, 29191.00
1141.046, 29043.00
1142.138, 29211.00
1143.231, 29290.00
1144.323, 29444.00
1145.415, 29283.00
1146.507, 29323.00
1147.598, 29347.00
1148.690, 29452.00
1149.781, 29475.00
1150.872, 29491.82
1151.964, 29455.00
1153.054, 29470.00
1154.145, 29420.00
1155.236, 29348.00
1156.327, 29572.00
1157.417, 29649.00
1158.507, 29542.00
1159.597, 29596.00
1160.687, 29641.00
1161.777, 29637.00
1162.867, 29482.00
1163.956, 29587.00
1165.046, 29656.00
1166.135, 29707.00
1167.224, 29964.00
1168.313, 29661.00
1169.402, 29776.00
1170.491, 29682.00
1171.580, 29839.00
1172.668, 29859.00
1173.756, 29843.00
1174.845, 29946.00
1175.933, 29889.00
1177.020, 29907.79
1178.108, 29861.00
1179.196, 29908.00
1180.283, 29892.00
1181.371, 29941.00
1182.458, 30152.00
1183.545, 30017.00
1184.632, 30038.00
1185.719, 29979.00
1186.805, 29754.00
1187.892, 30054.00
1188.978, 30278.00
1190.065, 30333.00
1191.151, 30221.00
1192.237, 30473.00
1193.323, 30177.00
1194.408, 30127.00
1195.494, 30363.00
1196.579, 30428.00
1197.664, 30262.00
1198.750, 30276.00
1199.835, 30418.00
1200.919, 30155.00
1202.004, 30573.00
1203.089, 30455.00
1204.173, 30299.00
1205.258, 30700.00
1206.342, 30737.00
1207.426, 30331.00
1208.510, 30675.00
1209.594, 30473.79
1210.677, 30528.00
1211.761, 30357.00
1212.844, 30425.37
1213.927, 30635.00
1215.010, 30573.00
1216.093, 30625.00
1217.176, 30705.00
1218.259, 30662.00
1219.341, 30573.00
1220.424, 30782.00
1221.506, 30808.00
1222.588, 30745.00
1223.670, 30867.00
1224.752, 30772.00
1225.834, 30587.00
1226.915, 30641.00
1227.997, 30756.00
1229.078, 30859.00
1230.159, 30824.00
1231.240, 31046.00
1232.321, 31021.00
1233.402, 30845.00
1234.483, 30909.00
1235.563, 31041.00
1236.644, 30941.00
1237.724, 30949.00
1238.804, 30921.00
1239.884, 31180.00
1240.964, 30942.00
1242.044, 31137.00
1243.123, 31025.00
1244.203, 31281.00
1245.282, 31120.00
1246.361, 31143.00
1247.440, 31071.00
1248.519, 30922.00
1249.598, 31167.00
1250.676, 31204.00
1251.755, 31076.00
1252.833, 31283.00
1253.911, 31267.00
1254.989, 31438.00
1256.067, 31323.00
1257.145, 31399.00
1258.223, 31559.00
1259.300, 31489.00
1260.378, 31375.00
1261.455, 31475.00
1262.532, 31380.00
1263.609, 31474.00
1264.686, 31439.00
1265.763, 31518.00
1266.840, 31553.00
1267.916, 31395.00
1268.992, 31485.00
1270.069, 31455.00
1271.145, 31664.00
1272.221, 31424.00
1273.296, 31771.00
1274.372, 31471.00
1275.448, 31686.00
1276.523, 31717.00
1277.598, 31697.00
1278.673, 31702.00
1279.749, 31688.02
1280.823, 31722.24
1281.898, 31678.00
1282.973, 31784.00
1284.047, 31858.00
1285.122, 31856.00
1286.196, 31788.00
1287.270, 32085.00
1288.344, 32199.00
1289.418, 31963.00
1290.491, 31939.00
1291.565, 32261.00
1292.638, 31939.00
1293.712, 32137.00
1294.785, 32068.00
1295.858, 32172.00
1296.931, 32349.00
1298.003, 32281.00
1299.076, 32120.00
1300.149, 32293.00
1301.221, 32325.00
1302.293, 32472.00
1303.365, 32139.00
1304.437, 32181.00
1305.509, 32190.00
1306.581, 32404.00
1307.652, 32364.00
1308.724, 32307.00
1309.795, 32534.00
1310.866, 32608.00
1311.937, 32540.00
1313.008, 32547.00
1314.079, 32715.00
1315.150, 32720.00
1316.220, 32333.00
1317.291, 32402.00
1318.361, 32670.00
1319.431, 32884.00
1320.501, 32457.00
1321.571, 32755.00
1322.641, 32685.00
1323.710, 32828.00
1324.780, 32839.00
1325.849, 32633.00
1326.918, 32734.00
1327.987, 32815.00
1329.056, 32946.00
1330.125, 32806.00
1331.194, 32741.00
1332.263, 32693.00
1333.331, 32730.94
1334.399, 32779.00
1335.467, 32882.00
1336.535, 33130.00
1337.603, 33190.64
1338.671, 33260.27
1339.739, 33162.00
1340.806, 33272.00
1341.874, 33069.00
1342.941, 32969.00
1344.008, 32945.00
1345.075, 32841.00
1346.142, 33144.00
1347.209, 33107.00
1348.275, 33149.00
1349.342, 32931.00
1350.408, 32914.00
1351.475, 33370.00
1352.541, 33330.00
1353.607, 33440.00
1354.673, 33243.00
1355.738, 33264.00
1356.804, 33377.00
1357.869, 33371.00
1358.935, 33249.00
1360.000, 33140.00
1361.065, 33295.00
1362.130, 33141.00
1363.195, 33428.00
1364.259, 33328.00
1365.324, 33573.00
1366.388, 33591.00
1367.453, 33284.00
1368.517, 33505.00
1369.581, 33315.00
1370.645, 33473.00
