##NAMES=Akermanite
##RRUFFID=R061100
##IDEAL CHEMISTRY=Ca_2_MgSi_2_O_7_
##LOCALITY=Lago de Vico, Viterbo, Italy
##OWNER=Michael Scott
##SOURCE=Michael Scott
##DESCRIPTION=Colorless to white short prismatic crystals
##STATUS=The identification of this mineral has been confirmed by X-ray diffraction and chemical analysis
##URL=rruff.info/R061100
##MEASURED CHEMISTRY=(Ca_1.80_Na_0.20_)_Σ=2_(Mg_0.58_Al_0.38_Fe_0.04_)_Σ=1_(Si_1.82_Al_0.18_)_Σ=2_O_7_
##PIN_ID=M00347
##ORIENTATION=Laser parallel to c* (0 0 1). Fiducial mark perpendicular to laser is parallel to a [1 0 0]
206.6970, 14130.00
207.9250, 14171.00
209.1530, 14337.00
210.3800, 14364.00
211.6080, 14652.00
212.8350, 14632.00
214.0620, 14820.00
215.2880, 14991.00
216.5150, 14934.00
217.7410, 15282.00
218.9680, 15471.00
220.1940, 15715.00
221.4190, 16064.00
222.6450, 16327.00
223.8700, 16567.00
225.0960, 16714.00
226.3210, 16785.00
227.5450, 16946.00
228.7700, 16973.00
229.9940, 17111.00
231.2190, 16860.00
232.4430, 16983.00
233.6660, 16778.00
234.8900, 16827.00
236.1140, 16563.00
237.3370, 16437.00
238.5600, 16311.00
239.7830, 16354.00
241.0050, 16174.00
242.2280, 16113.00
243.4500, 15712.00
244.6720, 15661.00
245.8940, 15619.00
247.1160, 15535.00
248.3370, 15450.00
249.5580, 15531.00
250.7790, 15302.00
252.0000, 15138.00
253.2210, 15218.00
254.4410, 15122.00
255.6620, 15252.00
256.8820, 15272.00
258.1020, 15386.00
259.3210, 15305.30
260.5410, 15218.64
261.7600, 15131.00
262.9790, 14943.00
264.1980, 14883.00
265.4170, 14817.00
266.6360, 14827.00
267.8540, 14767.00
269.0720, 14765.00
270.2900, 14648.00
271.5080, 14700.00
272.7260, 14566.00
273.9430, 14700.00
275.1600, 14753.00
276.3770, 14641.00
277.5940, 14715.00
278.8100, 14696.00
280.0270, 14691.00
281.2430, 14681.00
282.4590, 14583.00
283.6750, 14651.00
284.8910, 14706.00
286.1060, 14713.00
287.3210, 14853.00
288.5360, 14900.00
289.7510, 14863.00
290.9660, 15086.00
292.1800, 15055.00
293.3950, 15087.00
294.6090, 15355.00
295.8230, 15291.00
297.0360, 15501.00
298.2500, 15641.00
299.4630, 15691.00
300.6760, 15847.00
301.8890, 15897.00
303.1020, 16282.00
304.3150, 16346.00
305.5270, 16540.00
306.7390, 16554.00
307.9510, 16798.00
309.1630, 16695.00
310.3750, 16847.00
311.5860, 16892.00
312.7970, 16832.00
314.0080, 16817.00
315.2190, 16704.00
316.4300, 16611.00
317.6400, 16448.00
318.8510, 16521.00
320.0610, 16067.00
321.2710, 16046.00
322.4800, 15706.00
323.6900, 15560.00
324.8990, 15319.00
326.1080, 15166.72
327.3170, 15114.00
328.5260, 14889.00
329.7340, 14936.00
330.9430, 14746.00
332.1510, 14854.00
333.3590, 14792.00
334.5670, 14676.00
335.7740, 14466.00
336.9820, 14543.00
338.1890, 14512.00
339.3960, 14275.00
340.6030, 14236.00
341.8100, 14295.00
343.0160, 14474.00
344.2220, 14446.00
345.4280, 14389.00
346.6340, 14261.00
347.8400, 14228.00
349.0460, 14260.00
350.2510, 14258.00
351.4560, 14142.00
352.6610, 14227.29
353.8660, 14191.59
355.0700, 14278.00
356.2750, 14255.00
357.4790, 14200.00
358.6830, 14315.00
359.8870, 14117.00
361.0910, 14200.00
362.2940, 14032.00
363.4970, 14134.00
364.7000, 14048.00
365.9030, 14014.00
367.1060, 13876.00
368.3080, 13806.00
369.5110, 13909.00
370.7130, 13819.00
371.9150, 13809.00
373.1170, 13714.00
374.3180, 13835.00
375.5200, 13861.00
376.7210, 13813.00
377.9220, 13935.00
379.1230, 13722.00
380.3230, 13783.00
381.5240, 13689.00
382.7240, 13828.00
383.9240, 13684.00
385.1240, 13739.00
386.3240, 13781.00
387.5230, 13822.00
388.7230, 13767.00
389.9220, 13699.00
391.1210, 13832.00
392.3200, 13814.00
393.5180, 13868.00
394.7170, 13882.00
395.9150, 13738.00
397.1130, 13799.00
398.3110, 13888.00
399.5080, 13681.00
400.7060, 13790.00
401.9030, 13870.00
403.1000, 13835.00
404.2970, 13803.00
405.4940, 13777.00
406.6910, 13916.00
407.8870, 14032.00
409.0830, 13831.00
410.2790, 13919.00
411.4750, 13839.00
412.6710, 13889.00
413.8660, 14070.00
415.0610, 14090.00
416.2560, 13975.00
417.4510, 14015.00
418.6460, 13995.12
419.8410, 14064.00
421.0350, 14016.00
422.2290, 14165.00
423.4230, 14213.00
424.6170, 14065.00
425.8100, 14288.00
427.0040, 14437.00
428.1970, 14384.00
429.3900, 14332.00
430.5830, 14497.00
431.7760, 14593.00
432.9680, 14544.00
434.1610, 14625.00
435.3530, 14641.00
436.5450, 14760.00
437.7360, 14941.00
438.9280, 14897.00
440.1190, 14780.00
441.3110, 15014.00
442.5020, 15006.00
443.6930, 15158.00
444.8830, 15094.00
446.0740, 15210.00
447.2640, 15243.00
448.4540, 15421.00
449.6440, 15433.00
450.8340, 15617.00
452.0240, 15642.18
453.2130, 15677.00
454.4020, 15693.00
455.5910, 15768.00
456.7800, 15755.00
457.9690, 15676.00
459.1570, 15698.00
460.3460, 15914.00
461.5340, 15842.00
462.7220, 15675.00
463.9090, 15925.00
465.0970, 15977.00
466.2840, 16213.00
467.4720, 16138.00
468.6590, 16376.00
469.8460, 16495.00
471.0320, 16405.00
472.2190, 16642.00
473.4050, 16861.00
474.5910, 16872.00
475.7770, 16939.00
476.9630, 17214.00
478.1490, 17509.00
479.3340, 17531.00
480.5190, 17749.00
481.7040, 17633.00
482.8890, 17930.00
484.0740, 17979.00
485.2580, 18029.00
486.4430, 17767.00
487.6270, 17832.00
488.8110, 17721.00
489.9950, 17789.00
491.1780, 17482.00
492.3620, 17497.00
493.5450, 17478.00
494.7280, 17208.00
495.9110, 17191.00
497.0940, 17135.00
498.2760, 17012.00
499.4590, 16865.00
500.6410, 16992.00
501.8230, 16820.00
503.0050, 16796.00
504.1860, 16579.00
505.3680, 16731.00
506.5490, 16568.00
507.7300, 16699.00
508.9110, 16618.00
510.0920, 16447.00
511.2730, 16571.00
512.4530, 16639.00
513.6330, 16520.00
514.8130, 16515.00
515.9930, 16580.00
517.1730, 16676.00
518.3520, 16679.00
519.5320, 16685.00
520.7110, 16715.00
521.8900, 17029.00
523.0690, 16719.00
524.2470, 16838.00
525.4260, 16737.00
526.6040, 16494.00
527.7820, 16439.00
528.9600, 16475.00
530.1380, 16450.00
531.3150, 16376.39
532.4930, 16366.00
533.6700, 16206.00
534.8470, 16288.00
536.0240, 16193.00
537.2000, 16208.00
538.3770, 16237.00
539.5530, 16216.00
540.7290, 16037.00
541.9050, 16302.00
543.0810, 16283.00
544.2570, 16004.00
545.4320, 16140.00
546.6080, 16030.00
547.7830, 15900.00
548.9580, 16183.00
550.1320, 16053.00
551.3070, 16134.00
552.4810, 16104.00
553.6550, 16060.00
554.8300, 16210.00
556.0030, 16169.00
557.1770, 16081.00
558.3510, 16131.00
559.5240, 16271.00
560.6970, 16280.00
561.8700, 16326.40
563.0430, 16520.00
564.2160, 16306.00
565.3880, 16343.00
566.5600, 16222.00
567.7320, 16444.00
568.9040, 16456.00
570.0760, 16266.00
571.2480, 16437.00
572.4190, 16360.00
573.5900, 16527.00
574.7610, 16524.00
575.9320, 16578.00
577.1030, 16732.00
578.2740, 16872.00
579.4440, 16950.00
580.6140, 17026.00
581.7840, 17093.40
582.9540, 17179.20
584.1240, 17184.00
585.2930, 17335.00
586.4630, 17392.00
587.6320, 17445.00
588.8010, 17591.42
589.9700, 17717.00
591.1380, 17863.00
592.3070, 18257.00
593.4750, 18462.00
594.6430, 18739.00
595.8110, 19049.00
596.9790, 19232.00
598.1460, 19571.00
599.3140, 20020.00
600.4810, 20495.00
601.6480, 20885.00
602.8150, 21384.00
603.9820, 21611.00
605.1480, 22408.00
606.3150, 22822.00
607.4810, 23308.00
608.6470, 24064.00
609.8130, 24721.00
610.9790, 25128.00
612.1440, 25743.00
613.3100, 26109.00
614.4750, 26652.00
615.6400, 27459.00
616.8050, 28009.00
617.9690, 28442.00
619.1340, 29146.00
620.2980, 29650.00
621.4620, 30113.00
622.6260, 30628.00
623.7900, 31118.00
624.9540, 31196.00
626.1170, 31303.00
627.2810, 31174.00
628.4440, 30890.00
629.6070, 30390.00
630.7690, 29993.00
631.9320, 29650.00
633.0950, 29007.00
634.2570, 28638.00
635.4190, 27890.00
636.5810, 27380.00
637.7430, 26934.00
638.9040, 26571.00
640.0660, 26154.00
641.2270, 25805.00
642.3880, 25665.00
643.5490, 25420.00
644.7100, 25461.00
645.8700, 25840.00
647.0310, 26275.00
648.1910, 27005.00
649.3510, 27878.00
650.5110, 29186.00
651.6710, 31073.00
652.8300, 32514.00
653.9900, 34320.00
655.1490, 36774.00
656.3080, 38715.00
657.4670, 40510.00
658.6250, 42386.00
659.7840, 44086.00
660.9420, 45163.00
662.1010, 46211.00
663.2590, 46489.20
664.4170, 46571.00
665.5740, 46012.00
666.7320, 45113.00
667.8890, 43957.00
669.0460, 42585.00
670.2030, 41063.00
671.3600, 39172.00
672.5170, 37312.00
673.6740, 35530.00
674.8300, 33717.00
675.9860, 32279.00
677.1420, 30711.00
678.2980, 29212.00
679.4540, 28019.00
680.6090, 26864.00
681.7650, 26198.00
682.9200, 25105.00
684.0750, 24368.00
685.2300, 23390.00
686.3840, 22800.00
687.5390, 22338.00
688.6930, 21876.00
689.8470, 21341.00
691.0010, 21069.00
692.1550, 20712.00
693.3090, 20358.00
694.4620, 20167.00
695.6160, 19791.00
696.7690, 19769.00
697.9220, 19500.00
699.0750, 19441.00
700.2280, 19532.00
701.3800, 19390.00
702.5320, 19331.09
703.6850, 18947.00
704.8370, 19059.00
705.9880, 18839.00
707.1400, 18600.00
708.2920, 18653.00
709.4430, 18536.00
710.5940, 18750.00
711.7450, 18509.00
712.8960, 18507.00
714.0470, 18499.00
715.1970, 18342.00
716.3480, 18439.00
717.4980, 18193.00
718.6480, 18204.00
719.7980, 18272.00
720.9470, 18333.00
722.0970, 18332.00
723.2460, 18185.00
724.3960, 18233.00
725.5450, 18127.00
726.6940, 18167.00
727.8420, 17996.00
728.9910, 18043.41
730.1390, 18218.00
731.2870, 18030.00
732.4350, 18020.00
733.5830, 17901.00
734.7310, 18148.00
735.8790, 17994.00
737.0260, 18306.00
738.1730, 17995.00
739.3200, 18038.00
740.4670, 17949.00
741.6140, 18163.00
742.7610, 18040.00
743.9070, 18199.00
745.0530, 18001.00
746.1990, 18062.00
747.3450, 18002.00
748.4910, 17979.00
749.6370, 18028.00
750.7820, 18060.00
751.9270, 18055.00
753.0720, 18081.00
754.2170, 18127.00
755.3620, 18109.00
756.5070, 18106.00
757.6510, 18154.00
758.7950, 18285.00
759.9400, 18097.00
761.0840, 18231.00
762.2270, 18269.00
763.3710, 18209.00
764.5140, 18293.00
765.6580, 18315.00
766.8010, 18177.00
767.9440, 18286.00
769.0870, 18320.00
770.2290, 18231.00
771.3720, 18291.00
772.5140, 18239.38
773.6560, 18111.00
774.7990, 18215.00
775.9400, 18149.00
777.0820, 18222.00
778.2240, 18196.00
779.3650, 18183.00
780.5060, 18237.00
781.6470, 18092.00
782.7880, 18256.00
783.9290, 18283.00
785.0690, 18374.00
786.2100, 18315.00
787.3500, 18354.00
788.4900, 18574.00
789.6300, 18348.00
790.7700, 18337.00
791.9090, 18609.00
793.0490, 18420.00
794.1880, 18658.00
795.3270, 18471.00
796.4660, 18339.00
797.6050, 18753.00
798.7440, 18637.00
799.8820, 18533.00
801.0200, 18651.00
802.1590, 18669.00
803.2970, 18708.00
804.4340, 18812.00
805.5720, 18821.00
806.7100, 18842.00
807.8470, 18970.00
808.9840, 19020.48
810.1210, 18973.54
811.2580, 19026.31
812.3950, 19027.38
813.5310, 19000.00
814.6680, 19047.00
815.8040, 19020.00
816.9400, 19019.00
818.0760, 19033.00
819.2120, 19027.00
820.3470, 19135.00
821.4830, 19076.00
822.6180, 19033.00
823.7530, 19230.00
824.8880, 19143.00
826.0230, 19225.00
827.1580, 19171.00
828.2920, 19350.00
829.4270, 19466.00
830.5610, 19483.00
831.6950, 19501.00
832.8290, 19684.00
833.9620, 19471.00
835.0960, 19702.00
836.2290, 19703.00
837.3620, 19771.90
838.4950, 19887.68
839.6280, 19968.00
840.7610, 20087.00
841.8940, 20129.00
843.0260, 20315.00
844.1580, 20366.00
845.2910, 20479.00
846.4230, 20642.00
847.5540, 20622.00
848.6860, 21055.00
849.8170, 21394.00
850.9490, 21096.00
852.0800, 21067.00
853.2110, 21466.00
854.3420, 21465.00
855.4730, 21632.00
856.6030, 22088.00
857.7340, 22258.00
858.8640, 22475.00
859.9940, 22480.00
861.1240, 22505.00
862.2540, 22888.00
863.3830, 22863.00
864.5130, 23225.00
865.6420, 23146.00
866.7710, 23204.00
867.9000, 23148.00
869.0290, 22939.00
870.1570, 22973.00
871.2860, 22751.00
872.4140, 22813.00
873.5430, 22635.00
874.6710, 22691.00
875.7980, 22590.00
876.9260, 22669.97
878.0540, 22705.00
879.1810, 23009.00
880.3080, 23198.00
881.4360, 23660.00
882.5630, 24016.00
883.6890, 24200.00
884.8160, 24779.00
885.9420, 25398.00
887.0690, 25957.00
888.1950, 26375.00
889.3210, 26900.00
890.4470, 27553.00
891.5730, 27769.00
892.6980, 28277.00
893.8240, 28385.00
894.9490, 28662.00
896.0740, 29119.00
897.1990, 29099.00
898.3240, 29820.00
899.4480, 30506.00
900.5730, 31303.00
901.6970, 32236.00
902.8210, 33788.00
903.9450, 34916.00
905.0690, 36674.00
906.1930, 38325.00
907.3160, 40527.00
908.4400, 42602.00
909.5630, 44742.00
910.6860, 46426.00
911.8090, 47980.00
912.9320, 49720.00
914.0550, 50257.00
915.1770, 50985.00
916.2990, 50888.00
917.4210, 50684.00
918.5440, 50644.00
919.6650, 50290.00
920.7870, 49832.00
921.9090, 49298.00
923.0300, 48863.00
924.1510, 47970.00
925.2720, 46732.00
926.3930, 45678.00
927.5140, 44042.00
928.6350, 42307.00
929.7550, 40853.00
930.8760, 39161.00
931.9960, 37750.00
933.1160, 36292.00
934.2360, 34898.00
935.3550, 33677.00
936.4750, 32687.00
937.5940, 31685.00
938.7140, 30904.00
939.8330, 30359.00
940.9520, 29384.00
942.0710, 28754.00
943.1890, 28254.00
944.3080, 28047.00
945.4260, 27318.00
946.5440, 27065.00
947.6620, 27033.00
948.7800, 26575.00
949.8980, 26538.00
951.0160, 26165.00
952.1330, 26004.36
953.2500, 25810.00
954.3680, 25763.00
955.4850, 25817.00
956.6010, 25884.00
957.7180, 25596.00
958.8350, 25367.00
959.9510, 25607.00
961.0670, 25312.00
962.1830, 25035.00
963.2990, 24783.00
964.4150, 24946.00
965.5310, 24573.00
966.6460, 24492.00
967.7620, 24565.00
968.8770, 24147.00
969.9920, 23931.00
971.1070, 23917.00
972.2210, 23723.00
973.3360, 23886.00
974.4500, 23707.00
975.5650, 23603.00
976.6790, 23588.00
977.7930, 23521.00
978.9070, 23417.00
980.0200, 23389.00
981.1340, 23618.00
982.2470, 23145.00
983.3610, 23572.00
984.4740, 23286.00
985.5870, 23328.00
986.6990, 23252.00
987.8120, 23342.00
988.9250, 23196.00
990.0370, 23421.00
991.1490, 23140.00
992.2610, 23131.00
993.3730, 23217.00
994.4850, 23098.00
995.5960, 23221.00
996.7080, 23107.00
997.8190, 23300.00
998.9300, 23154.00
1000.041, 23031.00
1001.152, 23284.00
1002.263, 23027.00
1003.373, 23238.00
1004.484, 22941.00
1005.594, 23088.00
1006.704, 23262.00
1007.814, 22989.00
1008.924, 23111.00
1010.034, 23222.00
1011.143, 22958.00
1012.253, 23169.00
1013.362, 22880.00
1014.471, 22876.00
1015.580, 22896.00
1016.689, 22957.00
1017.797, 23037.00
1018.906, 22843.00
1020.014, 22897.00
1021.122, 22935.00
1022.230, 23027.00
1023.338, 23064.00
1024.446, 23076.57
1025.554, 23157.00
1026.661, 23040.00
1027.768, 23009.00
1028.875, 22909.00
1029.983, 22932.00
1031.089, 22925.95
1032.196, 23138.00
1033.303, 22955.00
1034.409, 23016.00
1035.515, 22974.00
1036.622, 22738.00
1037.728, 22879.00
1038.833, 22915.00
1039.939, 23021.00
1041.045, 22848.00
1042.150, 23084.00
1043.255, 22790.00
1044.360, 22810.00
1045.465, 22890.00
1046.570, 23014.00
1047.675, 22871.00
1048.779, 22762.00
1049.884, 22920.00
1050.988, 22713.00
1052.092, 22955.00
1053.196, 22949.00
1054.300, 22877.00
1055.404, 22882.00
1056.507, 22948.00
1057.610, 22802.00
1058.714, 22863.00
1059.817, 23008.00
1060.920, 22888.00
1062.022, 22850.00
1063.125, 22890.00
1064.228, 22664.00
1065.330, 23001.00
1066.432, 22985.00
1067.534, 22984.00
1068.636, 22813.00
1069.738, 23000.00
1070.840, 23006.00
1071.941, 23033.00
1073.042, 23058.00
1074.144, 23076.75
1075.245, 23103.31
1076.346, 23112.00
1077.446, 23155.00
1078.547, 23147.00
1079.647, 23179.00
1080.748, 23204.61
1081.848, 23368.00
1082.948, 23313.00
1084.048, 23249.00
1085.148, 23409.00
1086.247, 23420.00
1087.347, 23158.00
1088.446, 23256.00
1089.545, 23351.00
1090.644, 23248.00
1091.743, 23359.00
1092.842, 23290.00
1093.940, 23385.00
1095.039, 23196.00
1096.137, 23333.00
1097.235, 23413.00
1098.333, 23280.00
1099.431, 23096.00
1100.529, 23080.89
1101.627, 23044.75
1102.724, 23053.00
1103.822, 23022.00
1104.919, 23339.00
1106.016, 23183.00
1107.113, 23401.00
1108.209, 23259.00
1109.306, 23390.00
1110.402, 23411.00
1111.499, 23204.00
1112.595, 23299.00
1113.691, 23409.00
1114.787, 23383.00
1115.883, 23484.00
1116.978, 23480.00
1118.074, 23398.00
1119.169, 23726.00
1120.264, 23451.00
1121.359, 23412.00
1122.454, 23566.00
1123.549, 23717.00
1124.644, 23625.00
1125.738, 23224.00
1126.832, 23659.00
1127.927, 23474.00
1129.021, 23665.00
1130.115, 23611.00
1131.208, 23702.00
1132.302, 23419.00
1133.396, 23543.00
1134.489, 23678.00
1135.582, 23711.00
1136.675, 23801.00
1137.768, 23578.00
1138.861, 23384.00
1139.954, 23526.00
1141.046, 23882.00
1142.138, 23645.00
1143.231, 23620.00
1144.323, 23741.00
1145.415, 23604.00
1146.507, 23757.00
1147.598, 23874.00
1148.690, 23743.00
1149.781, 23573.00
1150.872, 23694.00
1151.964, 23510.00
1153.054, 23657.00
1154.145, 23773.00
1155.236, 23757.00
1156.327, 23987.00
1157.417, 23892.00
1158.507, 23955.00
1159.597, 23964.00
1160.687, 23860.00
1161.777, 24184.00
1162.867, 23835.00
1163.956, 24121.00
1165.046, 23888.00
1166.135, 23925.00
1167.224, 24154.00
1168.313, 24156.00
1169.402, 24069.00
1170.491, 23989.00
1171.580, 24055.00
1172.668, 24208.00
1173.756, 24180.00
1174.845, 24108.00
1175.933, 24097.00
1177.020, 24103.64
1178.108, 24076.15
1179.196, 24198.00
1180.283, 24160.00
1181.371, 24299.00
1182.458, 24544.00
1183.545, 24403.00
1184.632, 24233.00
1185.719, 24394.00
1186.805, 24385.00
1187.892, 24211.00
1188.978, 24499.00
1190.065, 24535.00
1191.151, 24536.00
1192.237, 24471.00
1193.323, 24324.00
1194.408, 24496.00
1195.494, 24734.00
1196.579, 24542.00
1197.664, 24540.00
1198.750, 24535.00
1199.835, 24576.00
1200.919, 24526.00
1202.004, 24713.00
1203.089, 24462.00
1204.173, 24652.00
1205.258, 24755.00
1206.342, 24510.00
1207.426, 24788.00
1208.510, 24927.00
1209.594, 25051.00
1210.677, 24690.00
1211.761, 24835.00
1212.844, 24853.00
1213.927, 24793.00
1215.010, 24882.84
1216.093, 24891.69
1217.176, 24937.00
1218.259, 24986.00
1219.341, 25012.00
1220.424, 25058.00
1221.506, 24975.00
1222.588, 25007.00
1223.670, 24999.38
1224.752, 24932.00
1225.834, 25044.00
1226.915, 25040.00
1227.997, 25151.00
1229.078, 25110.00
1230.159, 25112.00
1231.240, 25133.00
1232.321, 24962.00
1233.402, 25233.00
1234.483, 25119.00
1235.563, 25269.00
1236.644, 25242.00
1237.724, 25353.00
1238.804, 25525.00
1239.884, 25495.00
1240.964, 25297.00
1242.044, 25527.00
1243.123, 25279.00
1244.203, 25252.00
1245.282, 25300.00
1246.361, 25355.00
1247.440, 25341.21
1248.519, 25411.00
1249.598, 25408.00
1250.676, 25405.00
1251.755, 25555.00
1252.833, 25278.00
1253.911, 25516.00
1254.989, 25593.00
1256.067, 25410.00
1257.145, 25729.00
1258.223, 25720.00
1259.300, 25372.00
1260.378, 25627.00
1261.455, 25579.00
1262.532, 25611.00
1263.609, 25447.00
1264.686, 25745.00
1265.763, 25774.00
1266.840, 25725.00
1267.916, 25799.00
1268.992, 25584.00
1270.069, 25551.00
1271.145, 25906.00
1272.221, 25914.00
1273.296, 25776.00
1274.372, 25941.00
1275.448, 25738.00
1276.523, 26082.00
1277.598, 26012.00
1278.673, 25938.00
1279.749, 25863.00
1280.823, 25985.00
1281.898, 25980.00
1282.973, 26068.00
1284.047, 26129.00
1285.122, 25993.00
1286.196, 26035.00
1287.270, 26110.00
1288.344, 26214.00
1289.418, 26205.21
1290.491, 26274.00
1291.565, 26211.00
1292.638, 26246.00
1293.712, 26254.00
1294.785, 26248.30
1295.858, 26203.00
1296.931, 26287.00
1298.003, 26293.00
1299.076, 26344.00
1300.149, 26255.00
1301.221, 26345.00
1302.293, 26387.00
1303.365, 26337.00
1304.437, 26469.00
1305.509, 26354.00
1306.581, 26405.00
1307.652, 26529.00
1308.724, 26312.00
1309.795, 26657.00
1310.866, 26760.00
1311.937, 26674.00
1313.008, 26951.00
1314.079, 26906.90
1315.150, 26764.00
1316.220, 26914.00
1317.291, 26835.00
1318.361, 26705.00
1319.431, 26808.00
1320.501, 26766.00
1321.571, 26923.00
1322.641, 26781.00
1323.710, 26939.00
1324.780, 26785.00
1325.849, 27019.00
1326.918, 26741.00
1327.987, 26968.00
1329.056, 27034.00
1330.125, 26830.00
1331.194, 27012.00
1332.263, 27045.00
1333.331, 27068.00
1334.399, 27175.00
1335.467, 27005.00
1336.535, 27246.00
1337.603, 27246.00
1338.671, 27106.00
1339.739, 27077.00
1340.806, 27047.00
1341.874, 27050.01
1342.941, 27051.35
1344.008, 27146.00
1345.075, 27138.00
1346.142, 27200.00
1347.209, 27359.00
1348.275, 27155.00
1349.342, 27364.00
1350.408, 27434.00
1351.475, 27393.00
1352.541, 27413.00
1353.607, 27595.00
1354.673, 27499.00
1355.738, 27536.00
1356.804, 27593.00
1357.869, 27423.00
1358.935, 27441.00
1360.000, 27574.00
1361.065, 27275.00
1362.130, 27371.00
1363.195, 27485.00
1364.259, 27607.00
1365.324, 27664.00
1366.388, 27717.00
1367.453, 27650.00
1368.517, 27770.00
1369.581, 27700.00
1370.645, 27676.00
