##NAMES=Akermanite
##RRUFFID=R061100
##IDEAL CHEMISTRY=Ca_2_MgSi_2_O_7_
##LOCALITY=Lago de Vico, Viterbo, Italy
##OWNER=Michael Scott
##SOURCE=Michael Scott
##DESCRIPTION=Colorless to white short prismatic crystals
##STATUS=The identification of this mineral has been confirmed by X-ray diffraction and chemical analysis
##URL=rruff.info/R061100
##MEASURED CHEMISTRY=(Ca_1.80_Na_0.20_)_Σ=2_(Mg_0.58_Al_0.38_Fe_0.04_)_Σ=1_(Si_1.82_Al_0.18_)_Σ=2_O_7_
##PIN_ID=M00238
##ORIENTATION=Laser parallel to a* (1 0 0). Fiducial mark perpendicular to laser is parallel to -c [0 0 -1]
196.8660, 15537.00
198.0960, 15731.00
199.3250, 15598.00
200.5540, 15598.00
201.7830, 15778.00
203.0120, 15726.00
204.2400, 15675.00
205.4690, 15830.00
206.6970, 16015.00
207.9250, 15936.00
209.1530, 15965.00
210.3800, 16073.00
211.6080, 16163.00
212.8350, 16273.00
214.0620, 16246.00
215.2880, 16397.00
216.5150, 16323.00
217.7410, 16433.00
218.9680, 16655.00
220.1940, 16883.00
221.4190, 16912.00
222.6450, 17017.00
223.8700, 17043.00
225.0960, 17151.07
226.3210, 17352.00
227.5450, 17364.00
228.7700, 17450.00
229.9940, 17563.00
231.2190, 17371.00
232.4430, 17569.00
233.6660, 17441.00
234.8900, 17407.00
236.1140, 17603.00
237.3370, 17605.00
238.5600, 17388.00
239.7830, 17625.00
241.0050, 17363.00
242.2280, 17120.00
243.4500, 17216.00
244.6720, 17205.00
245.8940, 17218.00
247.1160, 17292.00
248.3370, 17179.03
249.5580, 16977.00
250.7790, 16968.00
252.0000, 17039.00
253.2210, 16917.00
254.4410, 17016.00
255.6620, 17059.00
256.8820, 17013.00
258.1020, 16919.00
259.3210, 17042.00
260.5410, 16930.00
261.7600, 16902.00
262.9790, 16877.00
264.1980, 16756.00
265.4170, 16918.00
266.6360, 16873.00
267.8540, 16913.00
269.0720, 16781.00
270.2900, 16817.00
271.5080, 16928.00
272.7260, 16846.00
273.9430, 16839.00
275.1600, 16860.00
276.3770, 16797.00
277.5940, 17024.00
278.8100, 16963.00
280.0270, 16916.00
281.2430, 16994.00
282.4590, 16882.00
283.6750, 16957.00
284.8910, 16981.00
286.1060, 17133.00
287.3210, 17006.00
288.5360, 16977.00
289.7510, 17184.00
290.9660, 17317.00
292.1800, 17317.00
293.3950, 17332.00
294.6090, 17468.34
295.8230, 17498.48
297.0360, 17667.00
298.2500, 17616.00
299.4630, 17635.00
300.6760, 17589.00
301.8890, 17831.00
303.1020, 17966.00
304.3150, 18191.00
305.5270, 18282.09
306.7390, 18396.80
307.9510, 18398.00
309.1630, 18494.00
310.3750, 18445.00
311.5860, 18343.00
312.7970, 18326.00
314.0080, 18339.00
315.2190, 18486.00
316.4300, 18429.00
317.6400, 18337.00
318.8510, 18229.00
320.0610, 18090.00
321.2710, 18048.00
322.4800, 18168.00
323.6900, 17961.00
324.8990, 17715.00
326.1080, 17949.00
327.3170, 17693.00
328.5260, 17832.00
329.7340, 17646.00
330.9430, 17679.00
332.1510, 17584.00
333.3590, 17541.00
334.5670, 17797.00
335.7740, 17248.00
336.9820, 17630.00
338.1890, 17419.00
339.3960, 17517.00
340.6030, 17454.00
341.8100, 17405.00
343.0160, 17488.00
344.2220, 17420.94
345.4280, 17542.00
346.6340, 17414.00
347.8400, 17464.00
349.0460, 17519.00
350.2510, 17359.00
351.4560, 17304.00
352.6610, 17486.00
353.8660, 17442.00
355.0700, 17371.00
356.2750, 17422.00
357.4790, 17553.00
358.6830, 17445.00
359.8870, 17613.00
361.0910, 17423.00
362.2940, 17553.00
363.4970, 17584.00
364.7000, 17398.00
365.9030, 17698.00
367.1060, 17515.00
368.3080, 17705.00
369.5110, 17518.00
370.7130, 17528.00
371.9150, 17681.00
373.1170, 17586.00
374.3180, 17598.00
375.5200, 17567.00
376.7210, 17613.00
377.9220, 17683.00
379.1230, 17561.00
380.3230, 17661.00
381.5240, 17689.00
382.7240, 17651.00
383.9240, 17739.00
385.1240, 17537.00
386.3240, 17865.00
387.5230, 17564.00
388.7230, 17788.00
389.9220, 17760.00
391.1210, 17762.00
392.3200, 17707.00
393.5180, 17740.04
394.7170, 17824.00
395.9150, 17799.00
397.1130, 17897.00
398.3110, 17948.00
399.5080, 17910.00
400.7060, 17949.00
401.9030, 17832.00
403.1000, 18022.00
404.2970, 17917.00
405.4940, 18083.00
406.6910, 17945.00
407.8870, 18046.00
409.0830, 17901.00
410.2790, 18095.00
411.4750, 18237.00
412.6710, 17972.00
413.8660, 18031.00
415.0610, 18143.00
416.2560, 18017.00
417.4510, 18239.00
418.6460, 18148.00
419.8410, 18310.00
421.0350, 18212.00
422.2290, 18170.00
423.4230, 18233.00
424.6170, 18285.00
425.8100, 18328.00
427.0040, 18207.00
428.1970, 18332.00
429.3900, 18156.00
430.5830, 18284.00
431.7760, 18448.00
432.9680, 18254.00
434.1610, 18488.00
435.3530, 18472.00
436.5450, 18824.00
437.7360, 18545.00
438.9280, 18572.00
440.1190, 18666.00
441.3110, 18688.00
442.5020, 18703.16
443.6930, 18667.00
444.8830, 18711.00
446.0740, 18760.00
447.2640, 18781.00
448.4540, 18807.00
449.6440, 18775.00
450.8340, 18966.00
452.0240, 18819.00
453.2130, 18860.00
454.4020, 19159.00
455.5910, 18938.00
456.7800, 19280.00
457.9690, 19346.00
459.1570, 19063.00
460.3460, 19173.00
461.5340, 19231.00
462.7220, 19541.00
463.9090, 19387.00
465.0970, 19606.00
466.2840, 19674.00
467.4720, 19762.00
468.6590, 19813.00
469.8460, 19893.35
471.0320, 19989.00
472.2190, 20047.59
473.4050, 20090.00
474.5910, 20185.00
475.7770, 20285.00
476.9630, 20484.00
478.1490, 20566.00
479.3340, 20657.00
480.5190, 20697.96
481.7040, 20659.00
482.8890, 20735.00
484.0740, 20742.00
485.2580, 20840.00
486.4430, 20742.00
487.6270, 20603.00
488.8110, 20646.00
489.9950, 20374.00
491.1780, 20371.00
492.3620, 20482.00
493.5450, 20471.00
494.7280, 20284.00
495.9110, 20241.00
497.0940, 20340.00
498.2760, 20159.00
499.4590, 20250.00
500.6410, 20187.00
501.8230, 20203.00
503.0050, 19933.00
504.1860, 20067.00
505.3680, 19906.00
506.5490, 20154.00
507.7300, 20048.00
508.9110, 20087.00
510.0920, 20127.00
511.2730, 19905.00
512.4530, 20125.00
513.6330, 20111.00
514.8130, 20251.00
515.9930, 20254.00
517.1730, 20138.00
518.3520, 20364.00
519.5320, 20379.00
520.7110, 20325.00
521.8900, 20418.00
523.0690, 20198.00
524.2470, 20318.00
525.4260, 20478.00
526.6040, 20272.00
527.7820, 20196.00
528.9600, 20258.00
530.1380, 20213.00
531.3150, 20263.00
532.4930, 20334.00
533.6700, 20318.90
534.8470, 20355.16
536.0240, 20357.00
537.2000, 20365.00
538.3770, 20396.00
539.5530, 20394.00
540.7290, 20379.00
541.9050, 20312.00
543.0810, 20335.00
544.2570, 20549.00
545.4320, 20527.00
546.6080, 20482.00
547.7830, 20622.00
548.9580, 20586.00
550.1320, 20529.00
551.3070, 20403.00
552.4810, 20583.00
553.6550, 20525.00
554.8300, 20788.00
556.0030, 20755.00
557.1770, 20792.00
558.3510, 20975.00
559.5240, 20928.00
560.6970, 20932.00
561.8700, 20931.00
563.0430, 20977.45
564.2160, 21016.00
565.3880, 21145.00
566.5600, 21192.00
567.7320, 21346.00
568.9040, 21312.00
570.0760, 21541.00
571.2480, 21473.00
572.4190, 21582.00
573.5900, 21565.00
574.7610, 21548.00
575.9320, 21732.00
577.1030, 21708.00
578.2740, 21856.00
579.4440, 21995.00
580.6140, 22291.00
581.7840, 22301.00
582.9540, 22358.00
584.1240, 22556.00
585.2930, 22614.00
586.4630, 23059.00
587.6320, 22883.00
588.8010, 23261.00
589.9700, 23292.00
591.1380, 23605.00
592.3070, 23966.00
593.4750, 24356.00
594.6430, 24639.00
595.8110, 25101.00
596.9790, 25453.00
598.1460, 26063.00
599.3140, 26367.00
600.4810, 27041.00
601.6480, 27497.00
602.8150, 28303.00
603.9820, 28849.00
605.1480, 29784.00
606.3150, 30314.00
607.4810, 31242.00
608.6470, 32051.00
609.8130, 32704.00
610.9790, 33404.00
612.1440, 34153.00
613.3100, 34744.52
614.4750, 35447.00
615.6400, 35986.00
616.8050, 36801.00
617.9690, 37478.00
619.1340, 38255.00
620.2980, 38674.00
621.4620, 39277.00
622.6260, 39621.00
623.7900, 39681.00
624.9540, 39988.00
626.1170, 39819.00
627.2810, 39488.00
628.4440, 39172.00
629.6070, 38378.00
630.7690, 37963.00
631.9320, 37077.00
633.0950, 36312.00
634.2570, 35693.00
635.4190, 35146.00
636.5810, 34395.00
637.7430, 33535.00
638.9040, 33313.00
640.0660, 32723.00
641.2270, 32514.00
642.3880, 32313.00
643.5490, 32105.00
644.7100, 32179.00
645.8700, 32512.00
647.0310, 33063.00
648.1910, 33791.00
649.3510, 34813.00
650.5110, 36218.00
651.6710, 37862.00
652.8300, 39947.00
653.9900, 42146.00
655.1490, 44414.00
656.3080, 46585.00
657.4670, 48616.00
658.6250, 50523.00
659.7840, 51922.00
660.9420, 53274.00
662.1010, 53866.00
663.2590, 54168.00
664.4170, 54103.00
665.5740, 53657.00
666.7320, 52186.00
667.8890, 51386.00
669.0460, 49855.00
670.2030, 47887.00
671.3600, 45989.00
672.5170, 44044.00
673.6740, 42162.00
674.8300, 40226.00
675.9860, 38512.00
677.1420, 36756.00
678.2980, 35593.00
679.4540, 34081.00
680.6090, 33101.00
681.7650, 31767.00
682.9200, 30721.00
684.0750, 29949.00
685.2300, 29152.00
686.3840, 28343.00
687.5390, 28047.00
688.6930, 27445.00
689.8470, 27004.00
691.0010, 26438.00
692.1550, 26215.00
693.3090, 25981.00
694.4620, 25809.00
695.6160, 25525.00
696.7690, 25284.00
697.9220, 25082.00
699.0750, 25064.00
700.2280, 25107.00
701.3800, 24859.00
702.5320, 24518.00
703.6850, 24559.00
704.8370, 24494.00
705.9880, 24453.00
707.1400, 24277.00
708.2920, 24289.00
709.4430, 24198.00
710.5940, 24180.00
711.7450, 24096.00
712.8960, 24084.11
714.0470, 24034.00
715.1970, 24070.00
716.3480, 24051.00
717.4980, 24061.00
718.6480, 24036.00
719.7980, 24071.19
720.9470, 23972.00
722.0970, 24085.00
723.2460, 24012.00
724.3960, 23889.00
725.5450, 23831.00
726.6940, 23949.00
727.8420, 23976.00
728.9910, 23847.00
730.1390, 23785.00
731.2870, 24067.00
732.4350, 24024.00
733.5830, 24110.00
734.7310, 24089.00
735.8790, 24118.00
737.0260, 24080.00
738.1730, 23958.00
739.3200, 24153.00
740.4670, 24219.00
741.6140, 23997.00
742.7610, 24098.00
743.9070, 24106.00
745.0530, 23997.00
746.1990, 23986.00
747.3450, 24029.00
748.4910, 24032.00
749.6370, 23986.00
750.7820, 24059.00
751.9270, 24034.00
753.0720, 24052.00
754.2170, 24154.00
755.3620, 24182.00
756.5070, 24200.00
757.6510, 24240.00
758.7950, 24262.76
759.9400, 24317.00
761.0840, 24299.00
762.2270, 24339.00
763.3710, 24315.00
764.5140, 24282.83
765.6580, 24189.00
766.8010, 24193.00
767.9440, 24204.00
769.0870, 24167.00
770.2290, 24276.00
771.3720, 24108.00
772.5140, 23937.00
773.6560, 24008.00
774.7990, 24078.00
775.9400, 24170.00
777.0820, 24062.00
778.2240, 24190.00
779.3650, 24033.00
780.5060, 24034.00
781.6470, 24144.00
782.7880, 24131.00
783.9290, 24372.00
785.0690, 24144.00
786.2100, 24344.00
787.3500, 24119.00
788.4900, 24434.00
789.6300, 24472.00
790.7700, 24552.00
791.9090, 24491.00
793.0490, 24363.00
794.1880, 24762.00
795.3270, 24599.00
796.4660, 24809.00
797.6050, 24824.00
798.7440, 24829.00
799.8820, 24978.00
801.0200, 24821.00
802.1590, 24977.00
803.2970, 25015.00
804.4340, 25228.00
805.5720, 25388.00
806.7100, 25376.00
807.8470, 25268.00
808.9840, 25439.00
810.1210, 25479.00
811.2580, 25690.00
812.3950, 25769.51
813.5310, 25728.00
814.6680, 25897.00
815.8040, 25885.00
816.9400, 25766.00
818.0760, 25801.00
819.2120, 25943.00
820.3470, 25989.00
821.4830, 26026.00
822.6180, 26056.92
823.7530, 26125.25
824.8880, 26081.00
826.0230, 26186.00
827.1580, 26286.00
828.2920, 26162.00
829.4270, 26148.00
830.5610, 26358.00
831.6950, 26454.00
832.8290, 26436.00
833.9620, 26407.00
835.0960, 26621.00
836.2290, 26646.00
837.3620, 26715.00
838.4950, 26691.00
839.6280, 27026.00
840.7610, 26927.00
841.8940, 26769.00
843.0260, 27428.00
844.1580, 27146.00
845.2910, 27285.00
846.4230, 27473.00
847.5540, 27419.00
848.6860, 27477.00
849.8170, 27869.00
850.9490, 27952.00
852.0800, 27973.00
853.2110, 27884.00
854.3420, 28266.00
855.4730, 28169.00
856.6030, 28708.00
857.7340, 28790.00
858.8640, 28872.00
859.9940, 29279.00
861.1240, 29307.00
862.2540, 29501.00
863.3830, 29679.00
864.5130, 29782.00
865.6420, 29880.00
866.7710, 29898.00
867.9000, 29862.00
869.0290, 29586.00
870.1570, 29703.00
871.2860, 29139.00
872.4140, 29475.00
873.5430, 29132.00
874.6710, 29090.00
875.7980, 29124.00
876.9260, 29384.00
878.0540, 29326.00
879.1810, 29462.00
880.3080, 29920.00
881.4360, 30250.00
882.5630, 30905.00
883.6890, 31222.00
884.8160, 31760.00
885.9420, 32651.00
887.0690, 33531.00
888.1950, 33953.00
889.3210, 34414.00
890.4470, 34701.00
891.5730, 35265.00
892.6980, 35634.00
893.8240, 35374.00
894.9490, 35956.00
896.0740, 36218.00
897.1990, 36586.00
898.3240, 37092.00
899.4480, 37886.00
900.5730, 38667.00
901.6970, 39867.00
902.8210, 41326.00
903.9450, 42746.00
905.0690, 44323.00
906.1930, 46063.00
907.3160, 48682.00
908.4400, 50974.00
909.5630, 53217.00
910.6860, 55088.00
911.8090, 57219.00
912.9320, 58320.00
914.0550, 59260.00
915.1770, 59746.00
916.2990, 59856.00
917.4210, 59983.00
918.5440, 59855.52
919.6650, 59510.60
920.7870, 59083.00
921.9090, 58428.00
923.0300, 57540.00
924.1510, 56759.00
925.2720, 55709.00
926.3930, 54147.00
927.5140, 52182.00
928.6350, 50766.00
929.7550, 49048.00
930.8760, 47292.00
931.9960, 45451.00
933.1160, 43882.00
934.2360, 42489.00
935.3550, 41056.00
936.4750, 40110.00
937.5940, 39087.00
938.7140, 38250.00
939.8330, 37408.00
940.9520, 36642.00
942.0710, 36096.89
943.1890, 35696.00
944.3080, 35221.00
945.4260, 34945.00
946.5440, 34709.00
947.6620, 34305.00
948.7800, 34447.00
949.8980, 34445.00
951.0160, 34432.00
952.1330, 34346.00
953.2500, 34570.00
954.3680, 34633.00
955.4850, 34529.00
956.6010, 34664.00
957.7180, 34526.00
958.8350, 34603.00
959.9510, 34725.00
961.0670, 34622.00
962.1830, 34600.25
963.2990, 34453.00
964.4150, 34333.00
965.5310, 34160.00
966.6460, 34034.20
967.7620, 33881.04
968.8770, 33750.00
969.9920, 33610.00
971.1070, 33538.58
972.2210, 33375.00
973.3360, 33441.00
974.4500, 33438.00
975.5650, 33441.10
976.6790, 33266.00
977.7930, 33458.00
978.9070, 33388.00
980.0200, 33360.00
981.1340, 33492.00
982.2470, 33670.00
983.3610, 33879.00
984.4740, 34169.00
985.5870, 34366.00
986.6990, 34693.43
987.8120, 34936.00
988.9250, 35337.00
990.0370, 35733.00
991.1490, 36048.00
992.2610, 36340.00
993.3730, 36827.00
994.4850, 37247.00
995.5960, 37560.00
996.7080, 37890.70
997.8190, 38384.00
998.9300, 38395.00
1000.041, 38483.00
1001.152, 38698.00
1002.263, 38517.00
1003.373, 38516.00
1004.484, 38209.00
1005.594, 37919.00
1006.704, 37408.00
1007.814, 36913.00
1008.924, 36766.00
1010.034, 36249.00
1011.143, 35854.00
1012.253, 35778.00
1013.362, 35225.00
1014.471, 34853.00
1015.580, 34729.00
1016.689, 34423.00
1017.797, 34116.00
1018.906, 33513.00
1020.014, 33606.00
1021.122, 33097.00
1022.230, 33213.00
1023.338, 33115.00
1024.446, 32731.00
1025.554, 32578.00
1026.661, 32624.00
1027.768, 32407.00
1028.875, 32026.00
1029.983, 31966.00
1031.089, 31877.00
1032.196, 31849.00
1033.303, 31673.00
1034.409, 31660.98
1035.515, 31570.40
1036.622, 31555.00
1037.728, 31412.00
1038.833, 31314.00
1039.939, 31186.00
1041.045, 30995.00
1042.150, 31120.00
1043.255, 31099.00
1044.360, 30704.00
1045.465, 30838.00
1046.570, 30732.00
1047.675, 30741.00
1048.779, 30711.00
1049.884, 30801.00
1050.988, 30546.00
1052.092, 30743.00
1053.196, 30345.00
1054.300, 30372.00
1055.404, 30516.00
1056.507, 30441.00
1057.610, 30223.00
1058.714, 30515.00
1059.817, 30431.00
1060.920, 30275.00
1062.022, 30324.00
1063.125, 30125.00
1064.228, 30428.00
1065.330, 30423.00
1066.432, 30297.00
1067.534, 30213.00
1068.636, 30311.00
1069.738, 29979.00
1070.840, 30245.00
1071.941, 30239.00
1073.042, 30228.00
1074.144, 29962.00
1075.245, 30359.00
1076.346, 30168.00
1077.446, 30429.00
1078.547, 30429.00
1079.647, 30432.00
1080.748, 30421.00
1081.848, 30334.00
1082.948, 30198.00
1084.048, 30353.00
1085.148, 30392.00
1086.247, 30264.00
1087.347, 30395.00
1088.446, 30350.00
1089.545, 30172.00
1090.644, 29991.00
1091.743, 30125.00
1092.842, 30200.00
1093.940, 29827.00
1095.039, 30091.00
1096.137, 30068.00
1097.235, 29919.00
1098.333, 29877.00
1099.431, 29826.28
1100.529, 29872.00
1101.627, 29748.00
1102.724, 29785.00
1103.822, 29759.00
1104.919, 29895.00
1106.016, 29696.00
1107.113, 29857.00
1108.209, 29802.00
1109.306, 29798.00
1110.402, 29908.00
1111.499, 29927.00
1112.595, 29757.00
1113.691, 29761.00
1114.787, 29984.00
1115.883, 30035.00
1116.978, 30198.00
1118.074, 30266.00
1119.169, 30347.32
1120.264, 30599.00
1121.359, 30432.00
1122.454, 30573.00
1123.549, 30489.00
1124.644, 30448.00
1125.738, 30257.00
1126.832, 30312.00
1127.927, 30202.00
1129.021, 30164.00
1130.115, 30443.00
1131.208, 30342.00
1132.302, 29947.00
1133.396, 29926.00
1134.489, 30178.00
1135.582, 30031.00
1136.675, 30041.00
1137.768, 30240.00
1138.861, 30168.00
1139.954, 30112.00
1141.046, 30106.00
1142.138, 30052.00
1143.231, 30362.00
1144.323, 30443.00
1145.415, 30301.00
1146.507, 30519.00
1147.598, 30459.00
1148.690, 30328.00
1149.781, 30268.00
1150.872, 30399.00
1151.964, 30461.00
1153.054, 30631.00
1154.145, 30733.00
1155.236, 30573.00
1156.327, 30864.00
1157.417, 30600.00
1158.507, 30601.00
1159.597, 30579.00
1160.687, 30772.00
1161.777, 30554.00
1162.867, 30683.00
1163.956, 30717.00
1165.046, 30833.00
1166.135, 30655.00
1167.224, 30579.00
1168.313, 31046.00
1169.402, 30900.00
1170.491, 30992.00
1171.580, 30876.00
1172.668, 30709.00
1173.756, 30829.00
1174.845, 30866.00
1175.933, 30778.00
1177.020, 30924.00
1178.108, 30886.00
1179.196, 30976.00
1180.283, 31046.00
1181.371, 31173.00
1182.458, 31239.00
1183.545, 31199.00
1184.632, 31098.00
1185.719, 31173.58
1186.805, 31219.00
1187.892, 31183.00
1188.978, 31328.00
1190.065, 31224.00
1191.151, 31164.00
1192.237, 31317.00
1193.323, 31338.00
1194.408, 31399.00
1195.494, 31335.00
1196.579, 31560.00
1197.664, 31359.00
1198.750, 31356.00
1199.835, 31501.00
1200.919, 31426.00
1202.004, 31514.00
1203.089, 31401.00
1204.173, 31433.00
1205.258, 31596.00
1206.342, 31453.00
1207.426, 31322.00
1208.510, 31584.00
1209.594, 31549.00
1210.677, 31531.00
1211.761, 31653.00
1212.844, 31611.00
1213.927, 31773.00
1215.010, 31778.60
1216.093, 31646.00
1217.176, 31797.00
1218.259, 31977.00
1219.341, 31899.00
1220.424, 31701.00
1221.506, 31674.00
1222.588, 31925.00
1223.670, 31900.00
1224.752, 31940.00
1225.834, 32013.00
1226.915, 31879.00
1227.997, 31909.00
1229.078, 32109.00
1230.159, 32052.00
1231.240, 32003.00
1232.321, 32028.00
1233.402, 31945.00
1234.483, 32223.00
1235.563, 32163.00
1236.644, 32106.00
1237.724, 32262.00
1238.804, 32111.00
1239.884, 32294.00
1240.964, 32242.00
1242.044, 32330.00
1243.123, 32196.00
1244.203, 32212.30
1245.282, 32164.00
1246.361, 32178.00
1247.440, 32359.00
1248.519, 32407.00
1249.598, 32490.00
1250.676, 32603.00
1251.755, 32397.00
1252.833, 32712.00
1253.911, 32495.00
1254.989, 32619.00
1256.067, 32622.00
1257.145, 32345.00
1258.223, 32640.00
1259.300, 32578.00
1260.378, 32559.00
1261.455, 32390.00
1262.532, 32587.00
1263.609, 32541.00
1264.686, 32633.00
1265.763, 32745.00
1266.840, 32797.36
1267.916, 32866.00
1268.992, 32960.00
1270.069, 32882.00
1271.145, 32865.00
1272.221, 32679.00
1273.296, 32622.00
1274.372, 32823.00
1275.448, 32688.00
1276.523, 33005.00
1277.598, 33045.00
1278.673, 32907.00
1279.749, 32926.00
1280.823, 32927.00
1281.898, 32821.00
1282.973, 32734.00
1284.047, 32990.00
1285.122, 33028.00
1286.196, 33117.00
1287.270, 33241.00
1288.344, 33185.00
1289.418, 33191.00
1290.491, 33143.00
1291.565, 33185.00
1292.638, 33322.00
1293.712, 33055.00
1294.785, 33235.00
1295.858, 33172.00
1296.931, 33451.00
1298.003, 33349.00
1299.076, 33534.00
1300.149, 33364.00
1301.221, 33554.00
1302.293, 33544.00
1303.365, 33601.00
1304.437, 33537.00
1305.509, 33510.00
1306.581, 33469.00
1307.652, 33785.00
1308.724, 33550.00
1309.795, 33590.00
1310.866, 33884.00
1311.937, 33772.00
1313.008, 33633.00
1314.079, 33525.00
1315.150, 33654.00
1316.220, 33920.00
1317.291, 33983.00
1318.361, 34093.00
1319.431, 33962.00
1320.501, 34152.00
1321.571, 34200.00
1322.641, 33768.00
1323.710, 33993.00
1324.780, 34028.00
1325.849, 33911.00
1326.918, 34209.00
1327.987, 34156.00
1329.056, 33993.00
1330.125, 34125.00
1331.194, 34252.00
1332.263, 34210.00
1333.331, 34032.00
1334.399, 33978.00
1335.467, 33943.00
1336.535, 34338.00
1337.603, 34252.00
1338.671, 34297.00
1339.739, 34487.00
1340.806, 34518.72
1341.874, 34570.51
1342.941, 34731.00
1344.008, 34572.00
1345.075, 34563.00
1346.142, 34461.00
1347.209, 34584.00
1348.275, 34626.00
1349.342, 34485.00
1350.408, 34549.00
1351.475, 34538.00
1352.541, 34741.00
1353.607, 34771.00
1354.673, 34663.00
1355.738, 34500.00
1356.804, 34754.00
1357.869, 34721.00
1358.935, 34586.00
1360.000, 34896.00
1361.065, 34619.00
1362.130, 34698.00
