##NAMES=Akermanite
##RRUFFID=R061100
##IDEAL CHEMISTRY=Ca_2_MgSi_2_O_7_
##LOCALITY=Lago de Vico, Viterbo, Italy
##OWNER=Michael Scott
##SOURCE=Michael Scott
##DESCRIPTION=Colorless to white short prismatic crystals
##STATUS=The identification of this mineral has been confirmed by X-ray diffraction and chemical analysis
##URL=rruff.info/R061100
##MEASURED CHEMISTRY=(Ca_1.80_Na_0.20_)_Σ=2_(Mg_0.58_Al_0.38_Fe_0.04_)_Σ=1_(Si_1.82_Al_0.18_)_Σ=2_O_7_
##PIN_ID=M00347
##ORIENTATION=Laser parallel to c* (0 0 1). Fiducial mark perpendicular to laser is parallel to a [1 0 0]
206.6970, 19608.00
207.9250, 19438.00
209.1530, 19380.00
210.3800, 19600.00
211.6080, 19595.00
212.8350, 19977.00
214.0620, 19894.00
215.2880, 19872.00
216.5150, 20158.00
217.7410, 20224.00
218.9680, 20182.00
220.1940, 20472.00
221.4190, 20621.00
222.6450, 20571.00
223.8700, 20836.00
225.0960, 20767.00
226.3210, 21164.00
227.5450, 21101.00
228.7700, 20928.00
229.9940, 21082.00
231.2190, 20961.00
232.4430, 20867.00
233.6660, 20886.00
234.8900, 20792.00
236.1140, 20633.00
237.3370, 20582.23
238.5600, 20475.00
239.7830, 20366.00
241.0050, 20257.00
242.2280, 20144.00
243.4500, 19969.00
244.6720, 19789.00
245.8940, 19896.00
247.1160, 19663.00
248.3370, 19727.00
249.5580, 19576.00
250.7790, 19731.00
252.0000, 19609.00
253.2210, 19546.00
254.4410, 19296.00
255.6620, 19530.00
256.8820, 19323.00
258.1020, 19408.00
259.3210, 19487.94
260.5410, 19402.42
261.7600, 19579.00
262.9790, 19320.00
264.1980, 19201.00
265.4170, 19024.00
266.6360, 19136.00
267.8540, 19233.00
269.0720, 19264.00
270.2900, 19014.00
271.5080, 19328.00
272.7260, 19209.00
273.9430, 19105.00
275.1600, 19241.00
276.3770, 19217.00
277.5940, 19099.00
278.8100, 19352.00
280.0270, 19329.00
281.2430, 19102.00
282.4590, 19123.00
283.6750, 19167.00
284.8910, 19212.00
286.1060, 19251.00
287.3210, 19227.00
288.5360, 19292.00
289.7510, 19286.63
290.9660, 19330.33
292.1800, 19322.00
293.3950, 19412.00
294.6090, 19474.00
295.8230, 19500.00
297.0360, 19603.00
298.2500, 19700.00
299.4630, 19789.04
300.6760, 19833.00
301.8890, 19975.00
303.1020, 19956.00
304.3150, 19962.00
305.5270, 20036.96
306.7390, 20079.00
307.9510, 20117.00
309.1630, 20140.00
310.3750, 20168.00
311.5860, 20068.00
312.7970, 20056.00
314.0080, 19981.00
315.2190, 20029.00
316.4300, 19922.00
317.6400, 20142.00
318.8510, 20012.00
320.0610, 19840.00
321.2710, 19820.00
322.4800, 19509.00
323.6900, 19701.00
324.8990, 19560.00
326.1080, 19623.00
327.3170, 19733.00
328.5260, 19445.00
329.7340, 19635.00
330.9430, 19714.00
332.1510, 19531.00
333.3590, 19494.00
334.5670, 19514.00
335.7740, 19472.00
336.9820, 19380.00
338.1890, 19395.00
339.3960, 19409.00
340.6030, 19483.00
341.8100, 19467.00
343.0160, 19649.00
344.2220, 19599.88
345.4280, 19390.00
346.6340, 19574.00
347.8400, 19474.00
349.0460, 19441.00
350.2510, 19419.00
351.4560, 19448.00
352.6610, 19510.41
353.8660, 19490.00
355.0700, 19751.00
356.2750, 19884.00
357.4790, 20113.00
358.6830, 20462.00
359.8870, 19779.00
361.0910, 19482.00
362.2940, 19568.00
363.4970, 19673.00
364.7000, 19537.00
365.9030, 19517.00
367.1060, 19575.00
368.3080, 19561.00
369.5110, 19664.00
370.7130, 19545.00
371.9150, 19408.00
373.1170, 19602.00
374.3180, 19420.00
375.5200, 19366.00
376.7210, 19644.00
377.9220, 19556.00
379.1230, 19725.00
380.3230, 19618.00
381.5240, 19599.00
382.7240, 19560.00
383.9240, 19550.52
385.1240, 19690.00
386.3240, 19580.00
387.5230, 19744.00
388.7230, 19776.00
389.9220, 19817.00
391.1210, 19752.00
392.3200, 19754.00
393.5180, 19871.00
394.7170, 19884.00
395.9150, 19913.00
397.1130, 19977.00
398.3110, 19813.00
399.5080, 19760.00
400.7060, 19816.53
401.9030, 19991.00
403.1000, 19935.00
404.2970, 19951.00
405.4940, 20049.00
406.6910, 19892.00
407.8870, 20004.00
409.0830, 20138.00
410.2790, 19909.00
411.4750, 20192.00
412.6710, 20057.00
413.8660, 20245.00
415.0610, 20267.00
416.2560, 20332.00
417.4510, 20437.00
418.6460, 20361.00
419.8410, 20429.00
421.0350, 20654.00
422.2290, 20562.00
423.4230, 20638.00
424.6170, 20997.00
425.8100, 20703.00
427.0040, 20922.00
428.1970, 21021.00
429.3900, 20997.00
430.5830, 21322.00
431.7760, 21384.00
432.9680, 21571.00
434.1610, 21703.00
435.3530, 21959.00
436.5450, 21763.00
437.7360, 22250.00
438.9280, 22042.00
440.1190, 22202.00
441.3110, 22275.00
442.5020, 22515.00
443.6930, 22641.00
444.8830, 22737.00
446.0740, 23051.00
447.2640, 23125.00
448.4540, 23321.00
449.6440, 23520.00
450.8340, 23592.00
452.0240, 23851.00
453.2130, 23932.05
454.4020, 24344.00
455.5910, 24144.00
456.7800, 24233.00
457.9690, 24324.00
459.1570, 23740.00
460.3460, 23765.00
461.5340, 23764.00
462.7220, 23360.00
463.9090, 23293.00
465.0970, 23357.00
466.2840, 23288.00
467.4720, 23286.00
468.6590, 23167.00
469.8460, 23231.00
471.0320, 23223.54
472.2190, 23278.00
473.4050, 23324.00
474.5910, 23468.00
475.7770, 23591.00
476.9630, 23684.00
478.1490, 23765.00
479.3340, 23946.00
480.5190, 23817.00
481.7040, 24096.00
482.8890, 24236.00
484.0740, 24067.00
485.2580, 24222.00
486.4430, 24169.00
487.6270, 24034.00
488.8110, 24153.00
489.9950, 23987.00
491.1780, 23740.00
492.3620, 23397.00
493.5450, 23581.00
494.7280, 23655.00
495.9110, 23630.00
497.0940, 23321.00
498.2760, 23073.00
499.4590, 23227.00
500.6410, 23147.00
501.8230, 23096.00
503.0050, 23076.00
504.1860, 23000.42
505.3680, 23031.00
506.5490, 22929.00
507.7300, 22791.00
508.9110, 22842.00
510.0920, 22722.00
511.2730, 23023.00
512.4530, 23041.00
513.6330, 22913.00
514.8130, 22833.00
515.9930, 22905.00
517.1730, 22953.00
518.3520, 22957.00
519.5320, 23111.00
520.7110, 23061.00
521.8900, 23028.00
523.0690, 23161.00
524.2470, 23140.00
525.4260, 23069.00
526.6040, 23112.00
527.7820, 23039.00
528.9600, 22970.00
530.1380, 22798.00
531.3150, 23059.00
532.4930, 23050.00
533.6700, 22935.00
534.8470, 22887.00
536.0240, 22729.00
537.2000, 22886.00
538.3770, 22932.00
539.5530, 22780.00
540.7290, 22957.00
541.9050, 23006.00
543.0810, 22914.00
544.2570, 22882.00
545.4320, 22979.00
546.6080, 22923.00
547.7830, 23158.00
548.9580, 22964.00
550.1320, 22938.00
551.3070, 23099.00
552.4810, 22831.00
553.6550, 23050.00
554.8300, 22952.00
556.0030, 23039.00
557.1770, 22923.00
558.3510, 23076.00
559.5240, 23037.00
560.6970, 23028.00
561.8700, 23168.00
563.0430, 23165.00
564.2160, 23214.00
565.3880, 23341.00
566.5600, 23075.00
567.7320, 23342.00
568.9040, 23178.00
570.0760, 23292.00
571.2480, 23269.00
572.4190, 23369.00
573.5900, 23361.00
574.7610, 23441.00
575.9320, 23484.03
577.1030, 23517.51
578.2740, 23557.00
579.4440, 23633.00
580.6140, 23631.00
581.7840, 23747.00
582.9540, 23920.00
584.1240, 23859.00
585.2930, 24021.00
586.4630, 24007.00
587.6320, 24136.50
588.8010, 24304.00
589.9700, 24425.00
591.1380, 24577.00
592.3070, 24764.00
593.4750, 25178.00
594.6430, 25135.00
595.8110, 25551.00
596.9790, 25680.00
598.1460, 25825.00
599.3140, 26225.00
600.4810, 26683.00
601.6480, 26893.00
602.8150, 27381.00
603.9820, 28017.00
605.1480, 28052.00
606.3150, 28738.00
607.4810, 29065.00
608.6470, 29675.00
609.8130, 29758.00
610.9790, 30579.00
612.1440, 31083.00
613.3100, 31607.00
614.4750, 32260.00
615.6400, 32474.00
616.8050, 32894.00
617.9690, 33238.00
619.1340, 33981.00
620.2980, 34320.00
621.4620, 34896.00
622.6260, 35403.00
623.7900, 35666.00
624.9540, 35960.00
626.1170, 35900.00
627.2810, 36060.00
628.4440, 35558.00
629.6070, 35293.00
630.7690, 34776.00
631.9320, 34646.00
633.0950, 34043.00
634.2570, 33855.00
635.4190, 33229.00
636.5810, 32656.00
637.7430, 32286.00
638.9040, 31843.00
640.0660, 31793.00
641.2270, 31711.00
642.3880, 31182.00
643.5490, 31075.00
644.7100, 31338.00
645.8700, 31616.00
647.0310, 31724.00
648.1910, 32506.00
649.3510, 32978.00
650.5110, 34197.00
651.6710, 35649.00
652.8300, 37174.00
653.9900, 38587.00
655.1490, 40445.00
656.3080, 42143.00
657.4670, 43581.00
658.6250, 45372.00
659.7840, 46525.00
660.9420, 47562.00
662.1010, 48435.00
663.2590, 48584.00
664.4170, 48695.00
665.5740, 48399.00
666.7320, 47599.00
667.8890, 46799.00
669.0460, 45432.00
670.2030, 44287.00
671.3600, 42817.00
672.5170, 41240.00
673.6740, 39641.00
674.8300, 38508.00
675.9860, 37011.00
677.1420, 35845.00
678.2980, 34913.00
679.4540, 33517.00
680.6090, 32766.00
681.7650, 31722.00
682.9200, 31094.00
684.0750, 30351.00
685.2300, 29805.00
686.3840, 29221.00
687.5390, 28722.00
688.6930, 28246.00
689.8470, 28300.00
691.0010, 27811.00
692.1550, 27522.00
693.3090, 27390.00
694.4620, 27031.00
695.6160, 26958.00
696.7690, 26706.00
697.9220, 26754.00
699.0750, 26931.00
700.2280, 26517.00
701.3800, 26259.00
702.5320, 26481.00
703.6850, 26330.00
704.8370, 26104.00
705.9880, 26146.00
707.1400, 26156.00
708.2920, 26185.00
709.4430, 26111.00
710.5940, 26017.00
711.7450, 26083.00
712.8960, 25780.00
714.0470, 25951.00
715.1970, 25719.00
716.3480, 25867.00
717.4980, 25740.00
718.6480, 25713.00
719.7980, 25798.00
720.9470, 25812.00
722.0970, 25806.00
723.2460, 25741.00
724.3960, 25693.00
725.5450, 25747.00
726.6940, 25666.79
727.8420, 25547.00
728.9910, 25605.00
730.1390, 25632.00
731.2870, 25649.55
732.4350, 25662.00
733.5830, 25613.00
734.7310, 25693.00
735.8790, 25631.00
737.0260, 25774.00
738.1730, 25612.00
739.3200, 25733.00
740.4670, 25817.00
741.6140, 25790.00
742.7610, 25733.00
743.9070, 25736.00
745.0530, 25810.00
746.1990, 25593.00
747.3450, 25903.00
748.4910, 25756.00
749.6370, 25690.00
750.7820, 25805.00
751.9270, 25738.00
753.0720, 25780.00
754.2170, 25829.00
755.3620, 25869.00
756.5070, 25875.27
757.6510, 25991.00
758.7950, 25876.00
759.9400, 25977.00
761.0840, 25988.00
762.2270, 26081.00
763.3710, 26357.00
764.5140, 25925.00
765.6580, 25954.00
766.8010, 26161.00
767.9440, 26051.00
769.0870, 26219.00
770.2290, 26290.00
771.3720, 26041.00
772.5140, 26366.00
773.6560, 26093.00
774.7990, 26049.00
775.9400, 26171.00
777.0820, 26057.23
778.2240, 26266.00
779.3650, 26174.00
780.5060, 26113.00
781.6470, 26350.00
782.7880, 26407.00
783.9290, 26520.00
785.0690, 26335.00
786.2100, 26214.00
787.3500, 26251.00
788.4900, 26710.00
789.6300, 26467.00
790.7700, 26471.00
791.9090, 26516.00
793.0490, 26385.00
794.1880, 26280.00
795.3270, 26716.00
796.4660, 26554.00
797.6050, 26737.00
798.7440, 26577.00
799.8820, 26680.00
801.0200, 26847.00
802.1590, 26538.00
803.2970, 26744.00
804.4340, 26870.00
805.5720, 26839.00
806.7100, 27159.00
807.8470, 26980.00
808.9840, 26813.00
810.1210, 27224.00
811.2580, 26907.00
812.3950, 27194.00
813.5310, 27017.00
814.6680, 27258.00
815.8040, 27214.00
816.9400, 27320.00
818.0760, 27167.00
819.2120, 27166.00
820.3470, 27302.00
821.4830, 27466.00
822.6180, 27365.00
823.7530, 27222.00
824.8880, 27369.00
826.0230, 27397.00
827.1580, 27416.00
828.2920, 27380.00
829.4270, 27458.00
830.5610, 27615.00
831.6950, 27590.00
832.8290, 27502.00
833.9620, 27744.00
835.0960, 27717.00
836.2290, 27985.00
837.3620, 28014.00
838.4950, 27847.00
839.6280, 28074.00
840.7610, 28231.00
841.8940, 28297.00
843.0260, 28284.00
844.1580, 28436.00
845.2910, 28413.00
846.4230, 28528.79
847.5540, 28749.00
848.6860, 28722.00
849.8170, 28944.00
850.9490, 29030.00
852.0800, 29186.00
853.2110, 29271.00
854.3420, 29353.00
855.4730, 29634.00
856.6030, 29826.00
857.7340, 30023.00
858.8640, 30094.00
859.9940, 30301.00
861.1240, 30326.00
862.2540, 30731.00
863.3830, 30819.00
864.5130, 30834.00
865.6420, 31135.00
866.7710, 31171.00
867.9000, 31066.00
869.0290, 30911.00
870.1570, 30853.00
871.2860, 30714.00
872.4140, 30782.00
873.5430, 30695.00
874.6710, 30528.00
875.7980, 30620.00
876.9260, 30729.00
878.0540, 30616.00
879.1810, 30813.00
880.3080, 31194.00
881.4360, 31244.00
882.5630, 31500.00
883.6890, 32025.00
884.8160, 32639.00
885.9420, 33047.00
887.0690, 33400.00
888.1950, 33793.00
889.3210, 34162.00
890.4470, 34477.00
891.5730, 34728.11
892.6980, 35060.00
893.8240, 35171.00
894.9490, 35473.00
896.0740, 35759.00
897.1990, 36045.00
898.3240, 36596.00
899.4480, 37140.00
900.5730, 37827.00
901.6970, 38583.00
902.8210, 39754.00
903.9450, 40991.00
905.0690, 42079.00
906.1930, 43594.00
907.3160, 45115.00
908.4400, 47026.00
909.5630, 48833.00
910.6860, 49652.00
911.8090, 51471.00
912.9320, 52419.00
914.0550, 53352.00
915.1770, 53685.00
916.2990, 53818.00
917.4210, 53665.00
918.5440, 53515.00
919.6650, 53307.44
920.7870, 52832.00
921.9090, 52601.00
923.0300, 51890.00
924.1510, 51312.00
925.2720, 50608.00
926.3930, 49189.00
927.5140, 48801.00
928.6350, 47010.00
929.7550, 45473.00
930.8760, 44322.00
931.9960, 43437.00
933.1160, 41621.00
934.2360, 40603.00
935.3550, 39992.00
936.4750, 38940.00
937.5940, 38287.00
938.7140, 37798.00
939.8330, 36727.00
940.9520, 36577.00
942.0710, 35988.00
943.1890, 35490.00
944.3080, 35255.00
945.4260, 35039.00
946.5440, 34812.00
947.6620, 34561.00
948.7800, 34264.00
949.8980, 34179.00
951.0160, 34025.00
952.1330, 33892.00
953.2500, 33903.00
954.3680, 33879.00
955.4850, 33645.00
956.6010, 33677.00
957.7180, 33605.00
958.8350, 33376.00
959.9510, 33273.00
961.0670, 33171.00
962.1830, 33247.00
963.2990, 33129.00
964.4150, 33177.00
965.5310, 33087.56
966.6460, 32924.00
967.7620, 32919.00
968.8770, 32627.00
969.9920, 32546.00
971.1070, 32473.00
972.2210, 32353.00
973.3360, 32121.00
974.4500, 32298.00
975.5650, 32113.00
976.6790, 32288.00
977.7930, 32316.00
978.9070, 31992.00
980.0200, 32388.00
981.1340, 31952.00
982.2470, 32108.00
983.3610, 32225.00
984.4740, 32189.00
985.5870, 32140.00
986.6990, 32188.63
987.8120, 32079.00
988.9250, 32132.00
990.0370, 32287.00
991.1490, 32135.00
992.2610, 32479.00
993.3730, 32265.00
994.4850, 32393.00
995.5960, 32387.00
996.7080, 32332.00
997.8190, 32207.00
998.9300, 32158.00
1000.041, 32121.33
1001.152, 32042.00
1002.263, 32143.00
1003.373, 32231.00
1004.484, 32386.00
1005.594, 32009.00
1006.704, 32328.00
1007.814, 32322.00
1008.924, 32086.00
1010.034, 32174.00
1011.143, 32130.00
1012.253, 32370.00
1013.362, 32212.00
1014.471, 32163.00
1015.580, 32360.00
1016.689, 32239.00
1017.797, 32378.00
1018.906, 32428.23
1020.014, 32434.00
1021.122, 32497.00
1022.230, 32458.00
1023.338, 32365.00
1024.446, 32404.00
1025.554, 32110.00
1026.661, 32542.00
1027.768, 32174.00
1028.875, 32533.00
1029.983, 32335.00
1031.089, 32547.00
1032.196, 32397.00
1033.303, 32513.00
1034.409, 32358.00
1035.515, 32599.00
1036.622, 32433.00
1037.728, 32454.00
1038.833, 32470.00
1039.939, 32405.64
1041.045, 32374.00
1042.150, 32414.00
1043.255, 32400.36
1044.360, 32431.43
1045.465, 32440.00
1046.570, 32572.00
1047.675, 32574.00
1048.779, 32797.00
1049.884, 32621.00
1050.988, 32431.00
1052.092, 32549.00
1053.196, 32438.00
1054.300, 32486.38
1055.404, 32555.00
1056.507, 32650.00
1057.610, 32578.00
1058.714, 32753.00
1059.817, 32840.00
1060.920, 32668.00
1062.022, 32657.00
1063.125, 32558.00
1064.228, 32705.00
1065.330, 32984.00
1066.432, 32734.00
1067.534, 32741.00
1068.636, 33071.00
1069.738, 32902.00
1070.840, 32756.00
1071.941, 32892.00
1073.042, 32762.00
1074.144, 33054.00
1075.245, 32594.00
1076.346, 32827.00
1077.446, 32996.00
1078.547, 33074.00
1079.647, 33210.49
1080.748, 33242.24
1081.848, 33331.00
1082.948, 33196.00
1084.048, 33165.00
1085.148, 32965.00
1086.247, 33049.00
1087.347, 33116.00
1088.446, 33252.00
1089.545, 33341.00
1090.644, 33161.00
1091.743, 33213.00
1092.842, 33147.00
1093.940, 33282.00
1095.039, 33457.00
1096.137, 33305.00
1097.235, 33440.00
1098.333, 33180.00
1099.431, 33085.00
1100.529, 33207.00
1101.627, 33168.00
1102.724, 33219.00
1103.822, 33365.00
1104.919, 33425.00
1106.016, 33404.00
1107.113, 33597.00
1108.209, 33540.00
1109.306, 33402.00
1110.402, 33444.00
1111.499, 33392.51
1112.595, 33289.00
1113.691, 33420.00
1114.787, 33472.00
1115.883, 33553.00
1116.978, 33731.00
1118.074, 33758.00
1119.169, 33835.00
1120.264, 33864.00
1121.359, 33795.00
1122.454, 33660.00
1123.549, 33793.00
1124.644, 33707.00
1125.738, 33665.00
1126.832, 33774.29
1127.927, 33821.00
1129.021, 33865.00
1130.115, 33829.00
1131.208, 33728.00
1132.302, 33633.00
1133.396, 33754.00
1134.489, 33716.00
1135.582, 34040.00
1136.675, 34074.00
1137.768, 33951.00
1138.861, 33724.00
1139.954, 33860.00
1141.046, 34057.00
1142.138, 34244.00
1143.231, 34040.00
1144.323, 34229.00
1145.415, 34143.00
1146.507, 34035.00
1147.598, 34099.00
1148.690, 34063.00
1149.781, 34053.00
1150.872, 33992.00
1151.964, 34208.00
1153.054, 34372.00
1154.145, 34220.00
1155.236, 34226.00
1156.327, 34236.73
1157.417, 34409.00
1158.507, 34221.00
1159.597, 34443.00
1160.687, 34488.00
1161.777, 34424.00
1162.867, 34611.00
1163.956, 34444.00
1165.046, 34624.00
1166.135, 34657.00
1167.224, 34397.00
1168.313, 34664.00
1169.402, 34683.00
1170.491, 34485.00
1171.580, 34776.00
1172.668, 35023.00
1173.756, 34859.00
1174.845, 34704.00
1175.933, 34877.00
1177.020, 34968.00
1178.108, 34684.00
1179.196, 34770.00
1180.283, 34890.00
1181.371, 34945.00
1182.458, 34988.00
1183.545, 35228.00
1184.632, 35114.00
1185.719, 35332.00
1186.805, 35047.00
1187.892, 35125.00
1188.978, 35401.00
1190.065, 35198.00
1191.151, 35083.00
1192.237, 35399.00
1193.323, 35372.00
1194.408, 35221.00
1195.494, 35473.00
1196.579, 35323.00
1197.664, 35200.00
1198.750, 35335.00
1199.835, 35279.00
1200.919, 35384.00
1202.004, 35287.00
1203.089, 35312.00
1204.173, 35536.00
1205.258, 35671.00
1206.342, 35600.00
1207.426, 35499.00
1208.510, 35656.00
1209.594, 35510.00
1210.677, 35731.00
1211.761, 35684.58
1212.844, 35739.34
1213.927, 35722.00
1215.010, 35764.00
1216.093, 35862.00
1217.176, 35686.00
1218.259, 36069.00
1219.341, 35846.00
1220.424, 35958.00
1221.506, 36105.00
1222.588, 35923.00
1223.670, 36069.00
1224.752, 35938.00
1225.834, 36134.00
1226.915, 36174.00
1227.997, 35947.00
1229.078, 36081.00
1230.159, 36220.00
1231.240, 36175.00
1232.321, 36417.00
1233.402, 36269.00
1234.483, 36096.00
1235.563, 36419.00
1236.644, 36523.00
1237.724, 36358.00
1238.804, 36221.00
1239.884, 36374.00
1240.964, 36271.16
1242.044, 36799.00
1243.123, 36391.00
1244.203, 36423.00
1245.282, 36663.00
1246.361, 36437.00
1247.440, 36411.00
1248.519, 36531.00
1249.598, 36733.00
1250.676, 36810.00
1251.755, 36816.00
1252.833, 36837.00
1253.911, 36747.00
1254.989, 36898.00
1256.067, 36890.00
1257.145, 36996.00
1258.223, 36656.00
1259.300, 36791.00
1260.378, 36808.00
1261.455, 36761.00
1262.532, 36884.00
1263.609, 37064.00
1264.686, 36877.00
1265.763, 36870.00
1266.840, 37344.00
1267.916, 37343.00
1268.992, 37217.00
1270.069, 37248.00
1271.145, 37117.00
1272.221, 37405.00
1273.296, 37278.00
1274.372, 37412.00
1275.448, 37481.00
1276.523, 37625.00
1277.598, 37424.00
1278.673, 37358.00
1279.749, 37457.00
1280.823, 37259.00
1281.898, 37334.00
1282.973, 37337.00
1284.047, 37084.00
1285.122, 37368.00
1286.196, 37328.00
1287.270, 37476.00
1288.344, 37722.00
1289.418, 37775.00
1290.491, 37778.00
1291.565, 37750.00
1292.638, 37759.00
1293.712, 37664.00
1294.785, 37843.00
1295.858, 37983.00
1296.931, 37835.00
1298.003, 37793.00
1299.076, 37857.00
1300.149, 37832.00
1301.221, 38027.00
1302.293, 38097.00
1303.365, 38232.00
1304.437, 38242.00
1305.509, 38135.00
1306.581, 38293.00
1307.652, 38155.00
1308.724, 38158.00
1309.795, 38313.00
1310.866, 38361.00
1311.937, 38315.00
1313.008, 38476.00
1314.079, 38445.00
1315.150, 38380.00
1316.220, 38414.00
1317.291, 38509.00
1318.361, 38545.00
1319.431, 38645.48
1320.501, 38673.00
1321.571, 38799.00
1322.641, 38572.00
1323.710, 38523.00
1324.780, 38610.00
1325.849, 38748.00
1326.918, 38673.00
1327.987, 38688.00
1329.056, 38941.00
1330.125, 39030.00
1331.194, 38616.00
1332.263, 39055.00
1333.331, 38731.00
1334.399, 39095.00
1335.467, 39207.00
1336.535, 38879.00
1337.603, 39204.00
1338.671, 38980.00
1339.739, 39183.00
1340.806, 38897.00
1341.874, 39293.00
1342.941, 39136.00
1344.008, 39207.00
1345.075, 39267.00
1346.142, 39089.00
1347.209, 39113.00
1348.275, 39116.08
1349.342, 39066.01
1350.408, 39210.00
1351.475, 39169.00
1352.541, 39320.00
1353.607, 39328.27
1354.673, 39573.00
1355.738, 39435.00
1356.804, 39418.00
1357.869, 39594.00
1358.935, 39374.00
1360.000, 39400.00
1361.065, 39686.00
1362.130, 39591.00
1363.195, 39882.00
1364.259, 39652.00
1365.324, 39836.00
1366.388, 39574.00
1367.453, 39727.00
1368.517, 39887.00
1369.581, 39696.00
1370.645, 40067.00
