##NAMES=Akermanite
##RRUFFID=R061100
##IDEAL CHEMISTRY=Ca_2_MgSi_2_O_7_
##LOCALITY=Lago de Vico, Viterbo, Italy
##OWNER=Michael Scott
##SOURCE=Michael Scott
##DESCRIPTION=Colorless to white short prismatic crystals
##STATUS=The identification of this mineral has been confirmed by X-ray diffraction and chemical analysis
##URL=rruff.info/R061100
##MEASURED CHEMISTRY=(Ca_1.80_Na_0.20_)_Σ=2_(Mg_0.58_Al_0.38_Fe_0.04_)_Σ=1_(Si_1.82_Al_0.18_)_Σ=2_O_7_
##PIN_ID=M00347
##ORIENTATION=Laser parallel to c* (0 0 1). Fiducial mark perpendicular to laser is parallel to a [1 0 0]
209.1530, 17339.00
210.3800, 17340.00
211.6080, 17441.00
212.8350, 17433.00
214.0620, 17707.00
215.2880, 17670.00
216.5150, 18093.00
217.7410, 18134.00
218.9680, 18329.00
220.1940, 18418.00
221.4190, 18424.00
222.6450, 18611.00
223.8700, 18864.00
225.0960, 18908.00
226.3210, 19143.00
227.5450, 19087.00
228.7700, 19085.00
229.9940, 19249.00
231.2190, 19064.00
232.4430, 19031.00
233.6660, 19023.00
234.8900, 18781.00
236.1140, 18842.00
237.3370, 18833.00
238.5600, 18621.22
239.7830, 18580.02
241.0050, 18264.00
242.2280, 18358.00
243.4500, 18170.00
244.6720, 18195.00
245.8940, 17959.00
247.1160, 17939.00
248.3370, 18049.00
249.5580, 17856.00
250.7790, 17664.00
252.0000, 17713.00
253.2210, 17659.00
254.4410, 17670.00
255.6620, 17797.00
256.8820, 17698.00
258.1020, 17769.00
259.3210, 17832.67
260.5410, 17706.14
261.7600, 17930.00
262.9790, 17559.00
264.1980, 17471.00
265.4170, 17501.00
266.6360, 17592.00
267.8540, 17493.00
269.0720, 17211.00
270.2900, 17423.00
271.5080, 17299.00
272.7260, 17369.00
273.9430, 17320.00
275.1600, 17281.00
276.3770, 17683.00
277.5940, 17320.00
278.8100, 17485.00
280.0270, 17292.00
281.2430, 17483.00
282.4590, 17531.00
283.6750, 17546.00
284.8910, 17636.00
286.1060, 17667.00
287.3210, 17635.00
288.5360, 17758.00
289.7510, 17737.00
290.9660, 17831.00
292.1800, 17938.00
293.3950, 17809.00
294.6090, 17934.00
295.8230, 18030.00
297.0360, 18046.00
298.2500, 18345.00
299.4630, 18505.00
300.6760, 18613.00
301.8890, 18767.00
303.1020, 18914.00
304.3150, 18909.00
305.5270, 19138.00
306.7390, 19303.00
307.9510, 19269.00
309.1630, 19501.00
310.3750, 19318.00
311.5860, 19541.00
312.7970, 19323.00
314.0080, 19441.00
315.2190, 19195.00
316.4300, 19177.00
317.6400, 19175.00
318.8510, 18869.00
320.0610, 18832.00
321.2710, 18705.00
322.4800, 18536.00
323.6900, 18550.00
324.8990, 18035.26
326.1080, 18113.25
327.3170, 18120.10
328.5260, 18059.61
329.7340, 17730.22
330.9430, 17748.09
332.1510, 17626.83
333.3590, 17499.87
334.5670, 17635.00
335.7740, 17455.00
336.9820, 17607.00
338.1890, 17527.00
339.3960, 17653.00
340.6030, 17576.00
341.8100, 17678.00
343.0160, 17606.07
344.2220, 17592.00
345.4280, 17450.00
346.6340, 17328.00
347.8400, 17223.00
349.0460, 17407.00
350.2510, 17421.00
351.4560, 17536.00
352.6610, 17398.00
353.8660, 17355.00
355.0700, 17476.00
356.2750, 17364.00
357.4790, 17378.00
358.6830, 17482.00
359.8870, 17540.00
361.0910, 17368.00
362.2940, 17402.00
363.4970, 17353.00
364.7000, 17373.00
365.9030, 17438.00
367.1060, 17383.00
368.3080, 17373.18
369.5110, 17394.00
370.7130, 17303.00
371.9150, 17241.00
373.1170, 17263.00
374.3180, 17228.53
375.5200, 17334.00
376.7210, 17241.00
377.9220, 17262.00
379.1230, 17254.00
380.3230, 17200.00
381.5240, 17202.00
382.7240, 17192.00
383.9240, 17146.00
385.1240, 17345.00
386.3240, 17260.00
387.5230, 17234.00
388.7230, 17478.00
389.9220, 17191.00
391.1210, 17308.00
392.3200, 17402.00
393.5180, 17451.00
394.7170, 17461.00
395.9150, 17304.00
397.1130, 17392.00
398.3110, 17464.00
399.5080, 17280.00
400.7060, 17513.00
401.9030, 17460.00
403.1000, 17460.00
404.2970, 17295.00
405.4940, 17356.54
406.6910, 17539.00
407.8870, 17433.00
409.0830, 17544.00
410.2790, 17642.00
411.4750, 17599.00
412.6710, 17605.00
413.8660, 17878.00
415.0610, 17653.00
416.2560, 17652.00
417.4510, 17826.00
418.6460, 17769.00
419.8410, 17746.00
421.0350, 17835.00
422.2290, 17984.00
423.4230, 17851.00
424.6170, 18137.00
425.8100, 18123.00
427.0040, 18229.00
428.1970, 18232.00
429.3900, 18168.00
430.5830, 18335.00
431.7760, 18577.00
432.9680, 18466.00
434.1610, 18705.00
435.3530, 18773.00
436.5450, 18715.00
437.7360, 18767.00
438.9280, 18795.42
440.1190, 19108.00
441.3110, 18923.00
442.5020, 19104.00
443.6930, 19290.00
444.8830, 19142.00
446.0740, 19431.00
447.2640, 19494.00
448.4540, 19760.00
449.6440, 19859.00
450.8340, 19822.00
452.0240, 20044.00
453.2130, 20167.00
454.4020, 20278.00
455.5910, 20246.00
456.7800, 20287.00
457.9690, 20071.00
459.1570, 20091.00
460.3460, 20127.00
461.5340, 20003.00
462.7220, 20003.00
463.9090, 20048.00
465.0970, 19938.00
466.2840, 19877.00
467.4720, 20042.00
468.6590, 20111.00
469.8460, 20074.00
471.0320, 20056.00
472.2190, 20093.00
473.4050, 20329.00
474.5910, 20278.00
475.7770, 20566.00
476.9630, 20498.00
478.1490, 20851.00
479.3340, 20858.00
480.5190, 21110.00
481.7040, 20976.00
482.8890, 21126.00
484.0740, 20919.00
485.2580, 21219.00
486.4430, 21078.00
487.6270, 21189.00
488.8110, 21110.00
489.9950, 20926.00
491.1780, 20791.00
492.3620, 20853.00
493.5450, 20711.00
494.7280, 20751.00
495.9110, 20560.00
497.0940, 20459.00
498.2760, 20268.00
499.4590, 20193.00
500.6410, 20209.00
501.8230, 20171.00
503.0050, 20173.32
504.1860, 20132.00
505.3680, 20161.00
506.5490, 20130.00
507.7300, 20047.00
508.9110, 19980.00
510.0920, 20044.00
511.2730, 20047.00
512.4530, 20151.00
513.6330, 20103.00
514.8130, 20039.00
515.9930, 20248.00
517.1730, 20084.00
518.3520, 20075.00
519.5320, 20265.00
520.7110, 20316.00
521.8900, 20365.00
523.0690, 20331.00
524.2470, 20164.00
525.4260, 20124.00
526.6040, 20307.00
527.7820, 20106.00
528.9600, 20081.00
530.1380, 20207.00
531.3150, 20073.16
532.4930, 20002.00
533.6700, 20005.00
534.8470, 20119.00
536.0240, 20093.00
537.2000, 20057.23
538.3770, 19911.00
539.5530, 19901.00
540.7290, 19973.00
541.9050, 19870.00
543.0810, 20033.00
544.2570, 19846.00
545.4320, 19866.00
546.6080, 20094.00
547.7830, 20090.00
548.9580, 19949.00
550.1320, 20043.00
551.3070, 19842.00
552.4810, 19969.00
553.6550, 20000.00
554.8300, 19921.00
556.0030, 20146.00
557.1770, 20182.00
558.3510, 20219.00
559.5240, 20063.00
560.6970, 19935.00
561.8700, 20118.00
563.0430, 20114.00
564.2160, 20067.00
565.3880, 20141.00
566.5600, 20229.00
567.7320, 20127.00
568.9040, 20350.00
570.0760, 20090.00
571.2480, 20356.00
572.4190, 20351.00
573.5900, 20397.00
574.7610, 20483.00
575.9320, 20439.00
577.1030, 20581.00
578.2740, 20514.00
579.4440, 20610.00
580.6140, 20654.00
581.7840, 20683.00
582.9540, 20814.00
584.1240, 20881.00
585.2930, 21105.00
586.4630, 21016.00
587.6320, 21226.00
588.8010, 21445.00
589.9700, 21473.00
591.1380, 21613.00
592.3070, 21817.00
593.4750, 21982.00
594.6430, 22176.53
595.8110, 22444.00
596.9790, 22605.00
598.1460, 22845.00
599.3140, 23122.54
600.4810, 23870.00
601.6480, 23924.00
602.8150, 24373.00
603.9820, 25112.00
605.1480, 25136.00
606.3150, 25402.00
607.4810, 26118.00
608.6470, 26431.00
609.8130, 26893.00
610.9790, 27402.00
612.1440, 27695.00
613.3100, 28325.00
614.4750, 28688.00
615.6400, 29321.00
616.8050, 29844.00
617.9690, 29980.00
619.1340, 30607.00
620.2980, 30995.00
621.4620, 31588.00
622.6260, 32037.00
623.7900, 32144.00
624.9540, 32343.00
626.1170, 32347.00
627.2810, 32182.00
628.4440, 32078.00
629.6070, 31911.00
630.7690, 31336.00
631.9320, 30919.00
633.0950, 30610.00
634.2570, 30137.00
635.4190, 29544.00
636.5810, 29140.00
637.7430, 28847.00
638.9040, 28473.00
640.0660, 28303.00
641.2270, 28103.00
642.3880, 27920.00
643.5490, 27857.00
644.7100, 28005.00
645.8700, 28227.00
647.0310, 28456.00
648.1910, 29256.00
649.3510, 29986.00
650.5110, 30916.00
651.6710, 32329.00
652.8300, 33711.00
653.9900, 35350.00
655.1490, 36873.00
656.3080, 38512.00
657.4670, 40020.00
658.6250, 41357.00
659.7840, 42566.00
660.9420, 43362.00
662.1010, 44023.69
663.2590, 44558.00
664.4170, 44487.00
665.5740, 44128.00
666.7320, 43588.00
667.8890, 42552.00
669.0460, 41499.00
670.2030, 40118.00
671.3600, 38761.00
672.5170, 37269.00
673.6740, 35726.00
674.8300, 34471.00
675.9860, 33183.00
677.1420, 31919.00
678.2980, 30938.00
679.4540, 29899.00
680.6090, 29023.00
681.7650, 28326.00
682.9200, 27631.00
684.0750, 26954.50
685.2300, 26382.00
686.3840, 25804.00
687.5390, 25315.00
688.6930, 24914.00
689.8470, 24726.00
691.0010, 24358.00
692.1550, 24004.00
693.3090, 23996.00
694.4620, 23841.00
695.6160, 23385.00
696.7690, 23727.00
697.9220, 23255.00
699.0750, 23356.00
700.2280, 23272.00
701.3800, 23001.00
702.5320, 22887.00
703.6850, 22804.00
704.8370, 22695.00
705.9880, 22801.00
707.1400, 22635.00
708.2920, 22833.00
709.4430, 22630.00
710.5940, 22592.00
711.7450, 22721.00
712.8960, 22742.00
714.0470, 22656.98
715.1970, 22701.00
716.3480, 22455.00
717.4980, 22426.00
718.6480, 22311.00
719.7980, 22440.00
720.9470, 22452.00
722.0970, 22356.00
723.2460, 22443.00
724.3960, 22484.00
725.5450, 22512.00
726.6940, 22576.00
727.8420, 22213.00
728.9910, 22191.00
730.1390, 22153.00
731.2870, 22151.00
732.4350, 22191.00
733.5830, 22324.00
734.7310, 22278.00
735.8790, 22330.00
737.0260, 22405.00
738.1730, 22234.00
739.3200, 22266.00
740.4670, 22378.00
741.6140, 22452.00
742.7610, 22461.00
743.9070, 22421.00
745.0530, 22418.00
746.1990, 22368.00
747.3450, 22409.00
748.4910, 22242.00
749.6370, 22457.00
750.7820, 22456.00
751.9270, 22336.00
753.0720, 22482.00
754.2170, 22484.00
755.3620, 22592.00
756.5070, 22408.00
757.6510, 22538.00
758.7950, 22485.00
759.9400, 22684.00
761.0840, 22499.00
762.2270, 22620.00
763.3710, 22609.00
764.5140, 22402.00
765.6580, 22764.00
766.8010, 22777.00
767.9440, 22669.00
769.0870, 22785.00
770.2290, 22862.00
771.3720, 22630.00
772.5140, 22776.00
773.6560, 22588.00
774.7990, 22602.00
775.9400, 22776.00
777.0820, 22534.00
778.2240, 22728.00
779.3650, 22978.00
780.5060, 22721.00
781.6470, 22724.00
782.7880, 22784.00
783.9290, 22692.00
785.0690, 22813.00
786.2100, 22852.00
787.3500, 22825.00
788.4900, 22853.00
789.6300, 22908.00
790.7700, 22752.00
791.9090, 22927.00
793.0490, 22863.00
794.1880, 22937.00
795.3270, 23066.00
796.4660, 22877.00
797.6050, 23209.00
798.7440, 23172.00
799.8820, 23204.00
801.0200, 23237.00
802.1590, 23260.00
803.2970, 23195.00
804.4340, 23225.00
805.5720, 23420.00
806.7100, 23380.00
807.8470, 23259.00
808.9840, 23626.00
810.1210, 23550.00
811.2580, 23523.00
812.3950, 23669.00
813.5310, 23554.00
814.6680, 23510.00
815.8040, 23759.00
816.9400, 23715.00
818.0760, 23751.00
819.2120, 23624.00
820.3470, 23619.00
821.4830, 23778.00
822.6180, 23834.00
823.7530, 23916.00
824.8880, 23932.00
826.0230, 23958.81
827.1580, 24059.00
828.2920, 23956.00
829.4270, 24137.00
830.5610, 24127.00
831.6950, 24034.00
832.8290, 24030.00
833.9620, 24088.00
835.0960, 24079.00
836.2290, 24173.00
837.3620, 24244.92
838.4950, 24327.72
839.6280, 24466.00
840.7610, 24428.00
841.8940, 24581.00
843.0260, 24647.25
844.1580, 24842.00
845.2910, 24834.00
846.4230, 24981.00
847.5540, 25087.65
848.6860, 25069.52
849.8170, 25168.00
850.9490, 25196.00
852.0800, 25302.00
853.2110, 25655.00
854.3420, 25771.00
855.4730, 26087.00
856.6030, 25914.00
857.7340, 26434.00
858.8640, 26426.00
859.9940, 26729.00
861.1240, 26861.00
862.2540, 26990.00
863.3830, 27011.00
864.5130, 27449.00
865.6420, 27246.00
866.7710, 27234.00
867.9000, 27202.00
869.0290, 26900.00
870.1570, 26932.00
871.2860, 26945.00
872.4140, 26644.00
873.5430, 26890.00
874.6710, 26831.00
875.7980, 26872.00
876.9260, 26589.00
878.0540, 26829.00
879.1810, 27007.00
880.3080, 27490.00
881.4360, 27617.00
882.5630, 27891.00
883.6890, 28215.00
884.8160, 28533.00
885.9420, 29268.00
887.0690, 29678.00
888.1950, 30057.00
889.3210, 30380.00
890.4470, 30741.28
891.5730, 31025.20
892.6980, 31306.00
893.8240, 31599.00
894.9490, 31683.00
896.0740, 32007.00
897.1990, 32386.00
898.3240, 32702.00
899.4480, 33263.00
900.5730, 33989.00
901.6970, 34486.00
902.8210, 35918.00
903.9450, 36982.00
905.0690, 38029.00
906.1930, 39847.00
907.3160, 41364.00
908.4400, 42976.00
909.5630, 44439.00
910.6860, 45946.00
911.8090, 47221.00
912.9320, 48676.00
914.0550, 48610.00
915.1770, 49344.00
916.2990, 49575.00
917.4210, 48977.00
918.5440, 49034.00
919.6650, 49164.00
920.7870, 48796.00
921.9090, 48307.00
923.0300, 47777.00
924.1510, 46748.00
925.2720, 46205.00
926.3930, 44832.00
927.5140, 44177.00
928.6350, 42902.00
929.7550, 41325.00
930.8760, 40127.00
931.9960, 39251.00
933.1160, 37879.00
934.2360, 36519.00
935.3550, 35831.00
936.4750, 35143.00
937.5940, 34040.00
938.7140, 33551.00
939.8330, 32990.00
940.9520, 32440.00
942.0710, 32056.09
943.1890, 31612.00
944.3080, 31319.00
945.4260, 31097.00
946.5440, 30797.00
947.6620, 30716.00
948.7800, 30508.00
949.8980, 30197.00
951.0160, 30077.00
952.1330, 30023.00
953.2500, 30070.00
954.3680, 29960.00
955.4850, 29970.00
956.6010, 29884.40
957.7180, 29695.00
958.8350, 29660.00
959.9510, 29421.00
961.0670, 29203.00
962.1830, 29359.00
963.2990, 29075.00
964.4150, 28985.00
965.5310, 28932.00
966.6460, 28819.00
967.7620, 28833.00
968.8770, 28624.00
969.9920, 28580.00
971.1070, 28631.00
972.2210, 28380.00
973.3360, 28636.00
974.4500, 28331.00
975.5650, 28062.00
976.6790, 28375.00
977.7930, 28239.00
978.9070, 28169.00
980.0200, 28100.00
981.1340, 28160.00
982.2470, 28099.00
983.3610, 28178.00
984.4740, 28237.00
985.5870, 27923.00
986.6990, 28150.00
987.8120, 28257.00
988.9250, 28007.00
990.0370, 28323.00
991.1490, 28341.00
992.2610, 28209.00
993.3730, 28148.00
994.4850, 28179.00
995.5960, 28147.00
996.7080, 28166.00
997.8190, 28140.00
998.9300, 28391.00
1000.041, 28283.00
1001.152, 28081.00
1002.263, 28385.00
1003.373, 28191.00
1004.484, 28343.00
1005.594, 28132.00
1006.704, 28431.00
1007.814, 28144.00
1008.924, 28073.00
1010.034, 28239.00
1011.143, 27985.00
1012.253, 28044.00
1013.362, 28213.66
1014.471, 28322.72
1015.580, 28395.00
1016.689, 28675.00
1017.797, 28308.00
1018.906, 28069.00
1020.014, 28294.00
1021.122, 28026.00
1022.230, 28031.00
1023.338, 27985.00
1024.446, 28093.00
1025.554, 28487.00
1026.661, 28175.00
1027.768, 28336.00
1028.875, 28097.00
1029.983, 28192.00
1031.089, 28178.00
1032.196, 28206.00
1033.303, 28242.58
1034.409, 28143.00
1035.515, 28350.00
1036.622, 28341.00
1037.728, 28527.00
1038.833, 28486.11
1039.939, 28583.00
1041.045, 28409.00
1042.150, 28483.00
1043.255, 28481.00
1044.360, 28189.00
1045.465, 28490.00
1046.570, 28225.00
1047.675, 28248.00
1048.779, 28329.00
1049.884, 28472.00
1050.988, 28048.00
1052.092, 28342.00
1053.196, 28241.00
1054.300, 28373.00
1055.404, 28399.00
1056.507, 28323.00
1057.610, 28418.13
1058.714, 28610.00
1059.817, 28455.00
1060.920, 28493.00
1062.022, 28459.00
1063.125, 28400.00
1064.228, 28472.00
1065.330, 28382.00
1066.432, 28493.00
1067.534, 28446.00
1068.636, 28543.00
1069.738, 28524.00
1070.840, 28443.00
1071.941, 28666.00
1073.042, 28547.00
1074.144, 29272.00
1075.245, 28899.00
1076.346, 28908.00
1077.446, 28560.00
1078.547, 28836.00
1079.647, 28626.00
1080.748, 28641.00
1081.848, 28670.00
1082.948, 28725.00
1084.048, 28661.00
1085.148, 28960.00
1086.247, 28853.00
1087.347, 28815.00
1088.446, 28994.00
1089.545, 28702.00
1090.644, 28967.00
1091.743, 29065.00
1092.842, 28815.00
1093.940, 28993.00
1095.039, 28969.00
1096.137, 28817.00
1097.235, 28924.00
1098.333, 28706.00
1099.431, 28854.00
1100.529, 28977.00
1101.627, 28743.00
1102.724, 28904.00
1103.822, 29057.00
1104.919, 29139.00
1106.016, 29099.00
1107.113, 29011.00
1108.209, 29272.00
1109.306, 28934.00
1110.402, 28985.00
1111.499, 29235.00
1112.595, 28935.00
1113.691, 28996.00
1114.787, 29167.00
1115.883, 29008.00
1116.978, 29085.00
1118.074, 29199.00
1119.169, 29168.00
1120.264, 29386.00
1121.359, 29205.00
1122.454, 29332.00
1123.549, 29403.00
1124.644, 29350.00
1125.738, 29474.00
1126.832, 29511.00
1127.927, 29475.00
1129.021, 29187.00
1130.115, 29330.00
1131.208, 29036.00
1132.302, 29424.00
1133.396, 29547.00
1134.489, 29510.00
1135.582, 29472.00
1136.675, 29408.00
1137.768, 29486.00
1138.861, 29303.00
1139.954, 29419.00
1141.046, 29550.00
1142.138, 29494.00
1143.231, 29566.00
1144.323, 29550.00
1145.415, 29536.00
1146.507, 29479.00
1147.598, 29458.00
1148.690, 29467.00
1149.781, 29613.00
1150.872, 29793.00
1151.964, 29664.00
1153.054, 29810.00
1154.145, 29571.00
1155.236, 29714.00
1156.327, 30030.00
1157.417, 29781.00
1158.507, 30035.00
1159.597, 29811.00
1160.687, 29933.00
1161.777, 30121.00
1162.867, 29971.00
1163.956, 29732.00
1165.046, 30139.00
1166.135, 29797.00
1167.224, 29946.00
1168.313, 30081.00
1169.402, 30079.00
1170.491, 30298.00
1171.580, 30151.00
1172.668, 30213.00
1173.756, 30203.00
1174.845, 30066.00
1175.933, 30342.00
1177.020, 30178.00
1178.108, 30194.00
1179.196, 30174.00
1180.283, 30389.00
1181.371, 30464.00
1182.458, 30457.00
1183.545, 30250.00
1184.632, 30431.00
1185.719, 30197.00
1186.805, 30450.00
1187.892, 30460.00
1188.978, 30602.00
1190.065, 30618.00
1191.151, 30482.00
1192.237, 30741.00
1193.323, 30454.00
1194.408, 30578.00
1195.494, 30534.00
1196.579, 30631.00
1197.664, 30533.00
1198.750, 30919.00
1199.835, 30714.00
1200.919, 30698.00
1202.004, 30913.00
1203.089, 30744.00
1204.173, 30816.00
1205.258, 30948.00
1206.342, 30795.00
1207.426, 30892.00
1208.510, 30750.00
1209.594, 30961.00
1210.677, 31054.00
1211.761, 31059.00
1212.844, 31116.00
1213.927, 31007.14
1215.010, 31091.10
1216.093, 30822.00
1217.176, 31103.00
1218.259, 31220.00
1219.341, 31072.00
1220.424, 31183.00
1221.506, 31224.00
1222.588, 31355.00
1223.670, 31116.00
1224.752, 31317.00
1225.834, 31255.00
1226.915, 31336.00
1227.997, 31320.00
1229.078, 31242.00
1230.159, 31483.00
1231.240, 31570.00
1232.321, 31202.00
1233.402, 31372.00
1234.483, 31517.00
1235.563, 31447.00
1236.644, 31561.00
1237.724, 31702.00
1238.804, 31498.00
1239.884, 31642.00
1240.964, 31553.00
1242.044, 31624.00
1243.123, 31716.00
1244.203, 31665.00
1245.282, 31612.00
1246.361, 31806.00
1247.440, 31652.00
1248.519, 31773.00
1249.598, 31661.00
1250.676, 31874.00
1251.755, 31906.00
1252.833, 31902.00
1253.911, 31833.00
1254.989, 32285.00
1256.067, 31914.00
1257.145, 32116.00
1258.223, 32149.00
1259.300, 31887.00
1260.378, 32189.00
1261.455, 32089.00
1262.532, 32067.00
1263.609, 32401.00
1264.686, 32298.00
1265.763, 32112.00
1266.840, 32415.00
1267.916, 32255.00
1268.992, 32311.00
1270.069, 32286.00
1271.145, 32248.00
1272.221, 32494.00
1273.296, 32264.00
1274.372, 32488.00
1275.448, 32536.00
1276.523, 32330.00
1277.598, 32593.00
1278.673, 32513.00
1279.749, 32616.00
1280.823, 32477.00
1281.898, 32494.60
1282.973, 32324.00
1284.047, 32458.00
1285.122, 32526.00
1286.196, 32530.00
1287.270, 32718.00
1288.344, 32712.00
1289.418, 32569.00
1290.491, 32828.00
1291.565, 32711.00
1292.638, 32676.00
1293.712, 32942.00
1294.785, 32737.00
1295.858, 32957.00
1296.931, 32948.00
1298.003, 33092.00
1299.076, 33104.00
1300.149, 33167.00
1301.221, 33003.00
1302.293, 32976.00
1303.365, 33001.00
1304.437, 33067.00
1305.509, 32959.00
1306.581, 33223.00
1307.652, 33190.00
1308.724, 33143.00
1309.795, 33335.00
1310.866, 33435.00
1311.937, 33328.00
1313.008, 33203.00
1314.079, 33374.00
1315.150, 33511.00
1316.220, 33208.00
1317.291, 33671.00
1318.361, 33382.00
1319.431, 33532.00
1320.501, 33587.00
1321.571, 33770.00
1322.641, 33500.00
1323.710, 33519.00
1324.780, 33504.00
1325.849, 33470.45
1326.918, 33811.00
1327.987, 33610.00
1329.056, 33701.00
1330.125, 33887.00
1331.194, 33795.00
1332.263, 33727.00
1333.331, 33775.00
1334.399, 34013.00
1335.467, 33677.00
1336.535, 34104.00
1337.603, 33995.00
1338.671, 33943.00
1339.739, 34076.00
1340.806, 33749.00
1341.874, 33922.00
1342.941, 34108.00
1344.008, 34173.00
1345.075, 34433.00
1346.142, 34142.00
1347.209, 34177.00
1348.275, 34287.00
1349.342, 34441.00
1350.408, 34426.11
1351.475, 34273.00
1352.541, 34412.00
1353.607, 34395.00
1354.673, 34310.00
1355.738, 34594.00
1356.804, 34306.00
1357.869, 34394.00
1358.935, 34468.00
1360.000, 34561.00
1361.065, 34433.00
1362.130, 34441.00
1363.195, 34420.00
1364.259, 34503.00
1365.324, 34474.00
1366.388, 34528.00
1367.453, 34628.00
1368.517, 34723.00
1369.581, 34603.00
1370.645, 34561.00
1371.709, 34873.00
1372.772, 34565.00
