##NAMES=Akermanite
##RRUFFID=R061100
##IDEAL CHEMISTRY=Ca_2_MgSi_2_O_7_
##LOCALITY=Lago de Vico, Viterbo, Italy
##OWNER=Michael Scott
##SOURCE=Michael Scott
##DESCRIPTION=Colorless to white short prismatic crystals
##STATUS=The identification of this mineral has been confirmed by X-ray diffraction and chemical analysis
##URL=rruff.info/R061100
##MEASURED CHEMISTRY=(Ca_1.80_Na_0.20_)_Σ=2_(Mg_0.58_Al_0.38_Fe_0.04_)_Σ=1_(Si_1.82_Al_0.18_)_Σ=2_O_7_
##PIN_ID=M00238
##ORIENTATION=Laser parallel to a* (1 0 0). Fiducial mark perpendicular to laser is parallel to -c [0 0 -1]
206.6970, 17966.00
207.9250, 17877.00
209.1530, 17998.00
210.3800, 18200.00
211.6080, 18229.00
212.8350, 18333.00
214.0620, 18460.00
215.2880, 18714.00
216.5150, 18822.00
217.7410, 18731.00
218.9680, 18877.00
220.1940, 19400.00
221.4190, 19333.00
222.6450, 19525.00
223.8700, 19582.00
225.0960, 19626.00
226.3210, 19813.00
227.5450, 19828.00
228.7700, 20031.00
229.9940, 19935.00
231.2190, 20065.00
232.4430, 20003.00
233.6660, 19926.00
234.8900, 19821.00
236.1140, 19769.99
237.3370, 19721.00
238.5600, 19641.00
239.7830, 19585.28
241.0050, 19515.29
242.2280, 19453.00
243.4500, 19350.00
244.6720, 19220.00
245.8940, 19208.00
247.1160, 19137.27
248.3370, 18900.00
249.5580, 19020.00
250.7790, 18926.00
252.0000, 18733.00
253.2210, 18831.00
254.4410, 18781.00
255.6620, 18748.00
256.8820, 18663.00
258.1020, 18700.00
259.3210, 18826.00
260.5410, 18967.00
261.7600, 18621.00
262.9790, 18810.00
264.1980, 18686.00
265.4170, 18643.00
266.6360, 18671.00
267.8540, 18600.00
269.0720, 18655.00
270.2900, 18620.00
271.5080, 18734.00
272.7260, 18652.00
273.9430, 18584.00
275.1600, 18590.00
276.3770, 18755.00
277.5940, 18716.00
278.8100, 18750.00
280.0270, 18867.00
281.2430, 18892.00
282.4590, 18989.00
283.6750, 18888.00
284.8910, 19116.00
286.1060, 19021.00
287.3210, 19126.00
288.5360, 19356.00
289.7510, 19439.00
290.9660, 19591.00
292.1800, 19618.00
293.3950, 19904.00
294.6090, 20038.70
295.8230, 20239.00
297.0360, 20419.00
298.2500, 20785.00
299.4630, 20936.00
300.6760, 21040.00
301.8890, 21668.00
303.1020, 21794.00
304.3150, 22162.00
305.5270, 22336.00
306.7390, 22392.00
307.9510, 22512.00
309.1630, 22767.00
310.3750, 22676.00
311.5860, 22716.00
312.7970, 22691.00
314.0080, 22525.00
315.2190, 22587.00
316.4300, 22099.00
317.6400, 21938.00
318.8510, 21991.00
320.0610, 21394.00
321.2710, 21184.00
322.4800, 20924.00
323.6900, 20781.00
324.8990, 20628.00
326.1080, 20382.00
327.3170, 20224.67
328.5260, 20085.00
329.7340, 19854.00
330.9430, 19674.00
332.1510, 19534.00
333.3590, 19267.00
334.5670, 19275.00
335.7740, 19156.00
336.9820, 18998.00
338.1890, 19170.00
339.3960, 19059.00
340.6030, 18962.00
341.8100, 18904.00
343.0160, 18740.00
344.2220, 18693.10
345.4280, 18738.00
346.6340, 18615.00
347.8400, 18640.00
349.0460, 18749.00
350.2510, 18657.00
351.4560, 18679.00
352.6610, 18581.00
353.8660, 18719.00
355.0700, 18811.00
356.2750, 18667.00
357.4790, 18868.00
358.6830, 18643.00
359.8870, 18575.00
361.0910, 18625.00
362.2940, 18730.00
363.4970, 18730.00
364.7000, 18772.00
365.9030, 18833.00
367.1060, 18517.00
368.3080, 18735.00
369.5110, 18493.00
370.7130, 18560.00
371.9150, 18568.00
373.1170, 18403.00
374.3180, 18579.00
375.5200, 18697.00
376.7210, 18639.00
377.9220, 18475.00
379.1230, 18524.00
380.3230, 18251.00
381.5240, 18342.00
382.7240, 18320.00
383.9240, 18537.00
385.1240, 18564.00
386.3240, 18466.00
387.5230, 18497.00
388.7230, 18563.00
389.9220, 18511.00
391.1210, 18572.38
392.3200, 18642.00
393.5180, 18611.00
394.7170, 18573.00
395.9150, 18546.00
397.1130, 18536.00
398.3110, 18558.00
399.5080, 18542.00
400.7060, 18566.32
401.9030, 18602.00
403.1000, 18604.00
404.2970, 18615.00
405.4940, 18622.74
406.6910, 18653.00
407.8870, 18674.00
409.0830, 18694.87
410.2790, 18774.00
411.4750, 18719.00
412.6710, 18803.00
413.8660, 18770.00
415.0610, 18869.00
416.2560, 18793.00
417.4510, 18806.00
418.6460, 18857.00
419.8410, 18926.00
421.0350, 18933.25
422.2290, 19005.05
423.4230, 18981.00
424.6170, 19097.00
425.8100, 19141.00
427.0040, 19146.00
428.1970, 19283.00
429.3900, 19127.00
430.5830, 19347.00
431.7760, 19285.00
432.9680, 19264.00
434.1610, 19351.00
435.3530, 19437.00
436.5450, 19451.00
437.7360, 19570.00
438.9280, 19732.00
440.1190, 19869.00
441.3110, 19810.00
442.5020, 19923.00
443.6930, 19787.00
444.8830, 20080.00
446.0740, 20039.00
447.2640, 20043.00
448.4540, 20091.00
449.6440, 20386.00
450.8340, 20344.00
452.0240, 20455.00
453.2130, 20373.00
454.4020, 20632.00
455.5910, 20592.00
456.7800, 20503.00
457.9690, 20604.00
459.1570, 20432.00
460.3460, 20720.00
461.5340, 20615.00
462.7220, 20670.00
463.9090, 20597.00
465.0970, 20783.00
466.2840, 20860.00
467.4720, 20693.00
468.6590, 20737.00
469.8460, 21023.00
471.0320, 21169.00
472.2190, 21246.00
473.4050, 21066.00
474.5910, 21122.00
475.7770, 21295.00
476.9630, 21335.00
478.1490, 21338.00
479.3340, 21455.36
480.5190, 21582.00
481.7040, 21597.00
482.8890, 21725.00
484.0740, 21808.00
485.2580, 21736.00
486.4430, 21862.00
487.6270, 21612.00
488.8110, 21536.00
489.9950, 21373.00
491.1780, 21441.00
492.3620, 21389.00
493.5450, 21299.00
494.7280, 21382.00
495.9110, 21297.00
497.0940, 21227.00
498.2760, 21092.00
499.4590, 21045.00
500.6410, 21024.00
501.8230, 20984.65
503.0050, 21018.99
504.1860, 20983.00
505.3680, 21124.00
506.5490, 21129.00
507.7300, 21218.00
508.9110, 21183.00
510.0920, 21159.00
511.2730, 21133.00
512.4530, 21136.00
513.6330, 21101.00
514.8130, 21416.00
515.9930, 21257.00
517.1730, 21434.00
518.3520, 21267.00
519.5320, 21177.00
520.7110, 21520.00
521.8900, 21345.00
523.0690, 21381.00
524.2470, 21514.19
525.4260, 21582.00
526.6040, 21595.00
527.7820, 21435.00
528.9600, 21296.00
530.1380, 21356.00
531.3150, 21226.90
532.4930, 21243.73
533.6700, 21208.00
534.8470, 21194.00
536.0240, 21349.00
537.2000, 21197.00
538.3770, 21143.00
539.5530, 21236.00
540.7290, 21121.00
541.9050, 21294.00
543.0810, 21246.00
544.2570, 21352.00
545.4320, 21126.00
546.6080, 21196.00
547.7830, 21144.00
548.9580, 21311.00
550.1320, 21210.00
551.3070, 21232.00
552.4810, 21271.00
553.6550, 21334.00
554.8300, 21381.00
556.0030, 21379.00
557.1770, 21482.00
558.3510, 21357.00
559.5240, 21270.00
560.6970, 21394.00
561.8700, 21497.00
563.0430, 21603.00
564.2160, 21605.13
565.3880, 21578.00
566.5600, 21591.00
567.7320, 21617.00
568.9040, 21654.00
570.0760, 21844.00
571.2480, 21827.00
572.4190, 21835.00
573.5900, 22007.00
574.7610, 21913.00
575.9320, 21974.00
577.1030, 22043.93
578.2740, 22381.00
579.4440, 22218.00
580.6140, 22414.00
581.7840, 22631.00
582.9540, 22691.00
584.1240, 22721.00
585.2930, 22833.00
586.4630, 22922.00
587.6320, 23250.00
588.8010, 23366.00
589.9700, 23608.00
591.1380, 23632.00
592.3070, 23892.00
593.4750, 24218.00
594.6430, 24274.00
595.8110, 24721.00
596.9790, 24834.00
598.1460, 25413.00
599.3140, 25775.00
600.4810, 26131.00
601.6480, 26582.00
602.8150, 27064.79
603.9820, 27681.00
605.1480, 28100.00
606.3150, 28728.00
607.4810, 29192.00
608.6470, 29845.00
609.8130, 30440.00
610.9790, 30777.00
612.1440, 31313.00
613.3100, 32221.00
614.4750, 32580.00
615.6400, 32794.00
616.8050, 33675.00
617.9690, 34112.00
619.1340, 34485.00
620.2980, 34995.00
621.4620, 35503.00
622.6260, 35842.00
623.7900, 35948.00
624.9540, 36009.00
626.1170, 35904.00
627.2810, 35527.00
628.4440, 35344.00
629.6070, 34873.00
630.7690, 34245.00
631.9320, 33823.00
633.0950, 33383.00
634.2570, 32757.00
635.4190, 32157.00
636.5810, 31633.00
637.7430, 31325.00
638.9040, 30984.00
640.0660, 30707.00
641.2270, 30310.00
642.3880, 30421.00
643.5490, 30467.00
644.7100, 30314.00
645.8700, 31033.00
647.0310, 31152.00
648.1910, 32265.00
649.3510, 33242.00
650.5110, 34652.00
651.6710, 35943.00
652.8300, 37545.00
653.9900, 39195.00
655.1490, 41235.00
656.3080, 42808.00
657.4670, 44245.00
658.6250, 45717.00
659.7840, 46669.00
660.9420, 47267.00
662.1010, 47749.00
663.2590, 47698.00
664.4170, 47427.00
665.5740, 47000.00
666.7320, 46031.00
667.8890, 44915.00
669.0460, 43680.00
670.2030, 42115.00
671.3600, 40523.00
672.5170, 38996.00
673.6740, 37569.00
674.8300, 36355.00
675.9860, 34725.00
677.1420, 33858.00
678.2980, 32332.00
679.4540, 31451.00
680.6090, 30693.00
681.7650, 29874.00
682.9200, 29162.00
684.0750, 28421.00
685.2300, 27974.00
686.3840, 27430.00
687.5390, 27034.00
688.6930, 26630.00
689.8470, 26515.00
691.0010, 26199.00
692.1550, 25854.00
693.3090, 25509.00
694.4620, 25339.39
695.6160, 25241.00
696.7690, 25093.00
697.9220, 24961.00
699.0750, 24850.87
700.2280, 24767.02
701.3800, 24641.00
702.5320, 24641.00
703.6850, 24593.00
704.8370, 24537.00
705.9880, 24480.00
707.1400, 24419.00
708.2920, 24438.00
709.4430, 24454.00
710.5940, 24402.62
711.7450, 24444.11
712.8960, 24307.00
714.0470, 24413.00
715.1970, 24321.00
716.3480, 24149.00
717.4980, 24212.00
718.6480, 24342.00
719.7980, 24010.00
720.9470, 24301.00
722.0970, 24354.00
723.2460, 24171.00
724.3960, 23981.00
725.5450, 24083.00
726.6940, 23978.12
727.8420, 23961.00
728.9910, 24042.00
730.1390, 24114.00
731.2870, 24238.00
732.4350, 24108.00
733.5830, 24124.00
734.7310, 24137.00
735.8790, 24201.00
737.0260, 23970.00
738.1730, 23955.00
739.3200, 23985.00
740.4670, 24237.00
741.6140, 24209.00
742.7610, 24376.00
743.9070, 24546.00
745.0530, 24001.00
746.1990, 24187.00
747.3450, 24128.00
748.4910, 24441.00
749.6370, 24188.00
750.7820, 24077.00
751.9270, 24307.00
753.0720, 24382.00
754.2170, 24360.00
755.3620, 24233.00
756.5070, 24414.00
757.6510, 24389.00
758.7950, 24291.00
759.9400, 24552.00
761.0840, 24435.00
762.2270, 24351.00
763.3710, 24244.00
764.5140, 24265.00
765.6580, 24269.00
766.8010, 24618.00
767.9440, 24242.00
769.0870, 24435.00
770.2290, 24307.00
771.3720, 24287.00
772.5140, 24449.00
773.6560, 24243.00
774.7990, 24354.00
775.9400, 24350.00
777.0820, 24447.00
778.2240, 24403.00
779.3650, 24391.00
780.5060, 24373.00
781.6470, 24408.00
782.7880, 24274.00
783.9290, 24615.00
785.0690, 24578.00
786.2100, 24725.00
787.3500, 24634.00
788.4900, 24497.00
789.6300, 24537.00
790.7700, 24666.00
791.9090, 24644.00
793.0490, 24704.00
794.1880, 24709.00
795.3270, 24905.00
796.4660, 24948.00
797.6050, 25015.00
798.7440, 24978.00
799.8820, 25017.00
801.0200, 25118.00
802.1590, 25265.00
803.2970, 25268.00
804.4340, 25420.00
805.5720, 25463.00
806.7100, 25359.00
807.8470, 25442.00
808.9840, 25529.00
810.1210, 25671.00
811.2580, 25758.00
812.3950, 25582.00
813.5310, 25563.00
814.6680, 25716.00
815.8040, 25647.00
816.9400, 25771.00
818.0760, 25711.00
819.2120, 25814.00
820.3470, 25659.00
821.4830, 26009.00
822.6180, 25786.00
823.7530, 25780.00
824.8880, 26144.00
826.0230, 25969.00
827.1580, 25960.00
828.2920, 26013.00
829.4270, 26012.00
830.5610, 26119.00
831.6950, 26175.00
832.8290, 26284.00
833.9620, 26290.00
835.0960, 26359.00
836.2290, 26642.00
837.3620, 26500.00
838.4950, 26653.00
839.6280, 26591.00
840.7610, 26785.00
841.8940, 26905.00
843.0260, 26861.00
844.1580, 27007.00
845.2910, 27047.22
846.4230, 27261.00
847.5540, 27260.00
848.6860, 27302.00
849.8170, 27577.00
850.9490, 27420.00
852.0800, 27860.00
853.2110, 27842.00
854.3420, 27849.00
855.4730, 28162.00
856.6030, 28437.00
857.7340, 28514.00
858.8640, 28638.00
859.9940, 29028.00
861.1240, 29038.00
862.2540, 29166.00
863.3830, 29247.00
864.5130, 29367.00
865.6420, 29480.00
866.7710, 29318.00
867.9000, 29263.00
869.0290, 29111.00
870.1570, 29062.00
871.2860, 28981.49
872.4140, 28859.00
873.5430, 28823.00
874.6710, 28798.00
875.7980, 28664.00
876.9260, 28721.00
878.0540, 29013.00
879.1810, 29119.00
880.3080, 29474.00
881.4360, 29686.00
882.5630, 30256.00
883.6890, 30711.00
884.8160, 31125.00
885.9420, 31621.00
887.0690, 32055.52
888.1950, 32807.00
889.3210, 33024.00
890.4470, 33246.00
891.5730, 33841.00
892.6980, 34009.00
893.8240, 33976.00
894.9490, 34055.00
896.0740, 34607.00
897.1990, 34915.00
898.3240, 35434.00
899.4480, 36012.00
900.5730, 36753.00
901.6970, 38022.00
902.8210, 38996.00
903.9450, 40559.00
905.0690, 41713.00
906.1930, 43766.00
907.3160, 45206.00
908.4400, 47060.00
909.5630, 49134.00
910.6860, 50233.00
911.8090, 51497.00
912.9320, 52572.00
914.0550, 52848.00
915.1770, 53608.00
916.2990, 53471.00
917.4210, 53048.00
918.5440, 53193.00
919.6650, 52624.00
920.7870, 52672.00
921.9090, 52423.00
923.0300, 51501.00
924.1510, 50810.00
925.2720, 49575.00
926.3930, 48365.00
927.5140, 47188.00
928.6350, 45807.00
929.7550, 44346.00
930.8760, 42962.00
931.9960, 41586.00
933.1160, 40374.59
934.2360, 39284.00
935.3550, 38188.00
936.4750, 37355.00
937.5940, 36579.00
938.7140, 36007.00
939.8330, 35485.00
940.9520, 34813.00
942.0710, 34369.00
943.1890, 33857.00
944.3080, 33702.00
945.4260, 33524.00
946.5440, 33365.00
947.6620, 33153.00
948.7800, 32929.00
949.8980, 33064.00
951.0160, 32906.00
952.1330, 32951.00
953.2500, 32970.00
954.3680, 32801.00
955.4850, 32949.00
956.6010, 33013.00
957.7180, 33052.00
958.8350, 33108.00
959.9510, 32885.00
961.0670, 32835.00
962.1830, 32998.00
963.2990, 32628.00
964.4150, 32584.00
965.5310, 32537.00
966.6460, 32290.00
967.7620, 32222.00
968.8770, 32381.00
969.9920, 32179.00
971.1070, 31649.00
972.2210, 31833.00
973.3360, 31663.00
974.4500, 31817.00
975.5650, 31574.00
976.6790, 31629.00
977.7930, 31823.00
978.9070, 31381.00
980.0200, 31608.00
981.1340, 31849.00
982.2470, 31611.00
983.3610, 32079.00
984.4740, 31950.00
985.5870, 31998.00
986.6990, 32283.00
987.8120, 32190.00
988.9250, 32722.00
990.0370, 32994.00
991.1490, 33009.00
992.2610, 33151.00
993.3730, 33467.00
994.4850, 33615.00
995.5960, 33881.00
996.7080, 33900.00
997.8190, 34065.00
998.9300, 34147.00
1000.041, 34542.00
1001.152, 34033.00
1002.263, 34333.00
1003.373, 34360.00
1004.484, 34130.00
1005.594, 34204.00
1006.704, 33820.00
1007.814, 33391.00
1008.924, 33192.00
1010.034, 33038.00
1011.143, 32750.00
1012.253, 32563.00
1013.362, 32165.00
1014.471, 32368.00
1015.580, 32223.00
1016.689, 32041.00
1017.797, 31644.00
1018.906, 31901.00
1020.014, 31735.00
1021.122, 31372.00
1022.230, 31338.00
1023.338, 31406.00
1024.446, 31186.00
1025.554, 31032.00
1026.661, 31044.00
1027.768, 30907.00
1028.875, 30879.00
1029.983, 30834.00
1031.089, 30892.00
1032.196, 31012.00
1033.303, 30613.00
1034.409, 30441.00
1035.515, 30680.00
1036.622, 30519.00
1037.728, 30818.00
1038.833, 30470.00
1039.939, 30399.00
1041.045, 30309.00
1042.150, 30351.00
1043.255, 30173.00
1044.360, 30439.00
1045.465, 30406.00
1046.570, 30205.00
1047.675, 30167.00
1048.779, 30326.00
1049.884, 30266.00
1050.988, 30238.00
1052.092, 30122.00
1053.196, 30091.00
1054.300, 30244.00
1055.404, 30157.00
1056.507, 30036.00
1057.610, 29789.00
1058.714, 30012.00
1059.817, 29969.00
1060.920, 29929.00
1062.022, 30143.00
1063.125, 30201.00
1064.228, 30069.00
1065.330, 30131.00
1066.432, 30207.00
1067.534, 30079.00
1068.636, 30134.00
1069.738, 30097.74
1070.840, 30090.28
1071.941, 30061.00
1073.042, 30123.00
1074.144, 30140.00
1075.245, 30176.00
1076.346, 30409.00
1077.446, 29940.00
1078.547, 30399.00
1079.647, 30131.00
1080.748, 30421.00
1081.848, 30418.00
1082.948, 30234.00
1084.048, 30375.00
1085.148, 30099.00
1086.247, 30295.00
1087.347, 30505.00
1088.446, 30218.00
1089.545, 30303.00
1090.644, 30482.00
1091.743, 30063.00
1092.842, 30039.00
1093.940, 30077.00
1095.039, 30206.00
1096.137, 30247.00
1097.235, 30151.00
1098.333, 30214.30
1099.431, 30152.19
1100.529, 30171.00
1101.627, 30096.00
1102.724, 30036.00
1103.822, 30077.00
1104.919, 29940.00
1106.016, 30054.00
1107.113, 30045.86
1108.209, 30185.00
1109.306, 30187.00
1110.402, 30180.00
1111.499, 30370.00
1112.595, 30277.00
1113.691, 30213.00
1114.787, 30311.00
1115.883, 30172.00
1116.978, 30452.00
1118.074, 30420.00
1119.169, 30547.00
1120.264, 30372.00
1121.359, 30501.00
1122.454, 30560.00
1123.549, 30571.00
1124.644, 30504.00
1125.738, 30332.00
1126.832, 30584.00
1127.927, 30386.00
1129.021, 30454.00
1130.115, 30229.00
1131.208, 30487.00
1132.302, 30471.00
1133.396, 30484.00
1134.489, 30640.00
1135.582, 30728.00
1136.675, 30640.00
1137.768, 30630.00
1138.861, 30514.00
1139.954, 30709.00
1141.046, 30517.00
1142.138, 30678.00
1143.231, 30572.00
1144.323, 30630.00
1145.415, 30665.00
1146.507, 30709.08
1147.598, 30827.00
1148.690, 30841.00
1149.781, 30971.00
1150.872, 30944.00
1151.964, 30781.00
1153.054, 31024.00
1154.145, 31096.00
1155.236, 31138.00
1156.327, 30959.00
1157.417, 30989.00
1158.507, 31028.00
1159.597, 31121.00
1160.687, 31163.00
1161.777, 31218.00
1162.867, 31149.00
1163.956, 31165.00
1165.046, 31239.00
1166.135, 31248.00
1167.224, 31095.00
1168.313, 31301.00
1169.402, 31151.00
1170.491, 31373.00
1171.580, 31127.00
1172.668, 31108.00
1173.756, 31379.00
1174.845, 31409.00
1175.933, 31761.00
1177.020, 31407.00
1178.108, 31476.00
1179.196, 31181.00
1180.283, 31414.00
1181.371, 31863.00
1182.458, 31594.00
1183.545, 31588.00
1184.632, 31825.00
1185.719, 31751.00
1186.805, 31765.92
1187.892, 31823.00
1188.978, 31630.00
1190.065, 31780.00
1191.151, 31640.00
1192.237, 31640.00
1193.323, 31521.00
1194.408, 31755.00
1195.494, 31819.00
1196.579, 31794.00
1197.664, 31699.00
1198.750, 31933.00
1199.835, 32011.00
1200.919, 31734.00
1202.004, 32035.00
1203.089, 31836.00
1204.173, 31955.00
1205.258, 32150.00
1206.342, 31963.00
1207.426, 32181.00
1208.510, 32409.00
1209.594, 32302.00
1210.677, 32141.00
1211.761, 32025.00
1212.844, 32235.00
1213.927, 32238.00
1215.010, 32258.00
1216.093, 32242.00
1217.176, 32214.02
1218.259, 32206.00
1219.341, 32158.00
1220.424, 32155.00
1221.506, 32188.84
1222.588, 32135.00
1223.670, 32395.00
1224.752, 32549.00
1225.834, 32602.00
1226.915, 32256.00
1227.997, 32657.00
1229.078, 32553.00
1230.159, 32466.00
1231.240, 32748.00
1232.321, 32407.00
1233.402, 32580.00
1234.483, 32652.00
1235.563, 32601.00
1236.644, 32882.00
1237.724, 32699.00
1238.804, 32836.48
1239.884, 32917.79
1240.964, 32871.00
1242.044, 33030.00
1243.123, 32880.00
1244.203, 32820.00
1245.282, 32928.00
1246.361, 33029.00
1247.440, 32693.00
1248.519, 32751.00
1249.598, 32761.00
1250.676, 32921.00
1251.755, 32930.74
1252.833, 32931.00
1253.911, 33014.00
1254.989, 33062.00
1256.067, 33071.00
1257.145, 33087.00
1258.223, 33228.00
1259.300, 33206.00
1260.378, 33023.00
1261.455, 33304.00
1262.532, 33439.00
1263.609, 33220.00
1264.686, 33084.00
1265.763, 33144.00
1266.840, 33396.00
1267.916, 33174.00
1268.992, 33532.00
1270.069, 33343.00
1271.145, 33218.00
1272.221, 33223.00
1273.296, 33591.00
1274.372, 33530.00
1275.448, 33450.00
1276.523, 33644.00
1277.598, 33362.00
1278.673, 33307.00
1279.749, 33515.00
1280.823, 33553.00
1281.898, 33551.00
1282.973, 33498.00
1284.047, 33596.00
1285.122, 33757.00
1286.196, 33703.00
1287.270, 33767.00
1288.344, 33541.00
1289.418, 33794.00
1290.491, 33868.00
1291.565, 33573.00
1292.638, 33824.00
1293.712, 34013.00
1294.785, 34013.00
1295.858, 33970.00
1296.931, 34061.00
1298.003, 33770.00
1299.076, 34173.00
1300.149, 33833.00
1301.221, 33935.00
1302.293, 34022.00
1303.365, 33923.00
1304.437, 34031.00
1305.509, 34178.00
1306.581, 33892.00
1307.652, 34343.00
1308.724, 34435.00
1309.795, 34168.00
1310.866, 34352.00
1311.937, 34213.00
1313.008, 34702.00
1314.079, 34354.00
1315.150, 34510.00
1316.220, 34411.00
1317.291, 34348.00
1318.361, 34545.00
1319.431, 34627.00
1320.501, 34481.00
1321.571, 34628.00
1322.641, 34416.00
1323.710, 34552.00
1324.780, 34641.00
1325.849, 34548.00
1326.918, 34805.00
1327.987, 34733.64
1329.056, 34690.00
1330.125, 34740.00
1331.194, 34720.00
1332.263, 34734.00
1333.331, 34965.00
1334.399, 34719.00
1335.467, 34827.00
1336.535, 34890.00
1337.603, 35151.00
1338.671, 34993.00
1339.739, 34990.00
1340.806, 35004.00
1341.874, 34924.00
1342.941, 34935.00
1344.008, 34969.00
1345.075, 35051.00
1346.142, 34802.00
1347.209, 35145.00
1348.275, 35082.00
1349.342, 35325.00
1350.408, 35304.00
1351.475, 35266.00
1352.541, 35393.00
1353.607, 35246.00
1354.673, 35342.00
1355.738, 35267.00
1356.804, 35212.00
1357.869, 35301.00
1358.935, 35305.00
1360.000, 35396.00
1361.065, 35500.00
1362.130, 35341.00
1363.195, 35544.00
1364.259, 35538.00
1365.324, 35464.00
1366.388, 35606.00
1367.453, 35365.00
1368.517, 35379.00
1369.581, 35626.00
1370.645, 35436.00
