##NAMES=Albite
##RRUFFID=R050402
##IDEAL CHEMISTRY=NaAlSi_3_O_8_
##LOCALITY=Urbano mine, Golconda District, Brazil
##OWNER=RRUFF
##SOURCE=Bob Downs
##DESCRIPTION=Colorless tabular single crystals associated with fluorapatite R050401
##STATUS=The identification of this mineral has been confirmed by X-ray diffraction and chemical analysis
##URL=rruff.info/R050402
##MEASURED CHEMISTRY=Na_1.00_Al_1.00_Si_3.00_O_8_
##PIN_ID=M00145
##ORIENTATION=Laser parallel to (0 1 1). Fiducial mark perpendicular to laser is parallel to -a [-1 0 0]
93.48000, 9439.000
94.71400, 9407.000
95.94800, 9517.000
97.18200, 9516.000
98.41600, 9746.000
99.64900, 9949.000
100.8830, 10119.00
102.1160, 10484.00
103.3490, 10770.00
104.5820, 11313.00
105.8150, 12106.00
107.0470, 13260.00
108.2800, 14977.00
109.5120, 15757.00
110.7440, 16166.00
111.9760, 16504.00
113.2080, 16223.00
114.4400, 15463.00
115.6710, 14309.00
116.9030, 13376.00
118.1340, 12443.00
119.3650, 11703.00
120.5960, 11198.00
121.8270, 10886.00
123.0580, 10876.00
124.2880, 10697.00
125.5190, 10593.00
126.7490, 10569.00
127.9790, 10611.40
129.2090, 10659.61
130.4390, 10885.00
131.6680, 10981.00
132.8980, 11207.20
134.1270, 11601.00
135.3560, 11882.00
136.5850, 12251.00
137.8140, 12891.00
139.0430, 13527.00
140.2710, 14517.00
141.5000, 15477.00
142.7280, 16613.00
143.9560, 17606.00
145.1840, 17838.00
146.4120, 17680.00
147.6390, 17663.00
148.8670, 17825.00
150.0940, 18287.00
151.3210, 18956.00
152.5490, 19788.00
153.7750, 20895.00
155.0020, 22568.00
156.2290, 24798.00
157.4550, 27041.00
158.6810, 29828.00
159.9080, 32171.00
161.1340, 33091.00
162.3590, 32339.00
163.5850, 30996.00
164.8110, 29726.00
166.0360, 28557.00
167.2610, 27976.00
168.4860, 27838.00
169.7110, 27577.00
170.9360, 27250.00
172.1610, 26525.00
173.3850, 26266.00
174.6100, 26452.00
175.8340, 26682.00
177.0580, 27626.00
178.2820, 28911.00
179.5050, 30399.00
180.7290, 31350.00
181.9520, 32477.00
183.1760, 33375.00
184.3990, 33067.00
185.6220, 32320.00
186.8450, 30586.00
188.0670, 28739.00
189.2900, 26413.00
190.5120, 24292.00
191.7340, 22388.00
192.9560, 20891.00
194.1780, 19893.00
195.4000, 19180.00
196.6220, 18706.96
197.8430, 18613.00
199.0640, 18841.00
200.2860, 19437.00
201.5070, 20430.00
202.7270, 21449.00
203.9480, 22909.00
205.1690, 24587.00
206.3890, 26056.00
207.6090, 26616.00
208.8290, 25933.00
210.0490, 23884.00
211.2690, 21808.00
212.4890, 19491.00
213.7080, 17612.00
214.9280, 15948.00
216.1470, 14829.00
217.3660, 13934.00
218.5850, 13308.00
219.8030, 12847.00
221.0220, 12467.00
222.2400, 12198.00
223.4590, 12052.00
224.6770, 11928.00
225.8950, 11860.00
227.1120, 11681.00
228.3300, 11616.00
229.5480, 11558.32
230.7650, 11533.00
231.9820, 11517.00
233.1990, 11552.00
234.4160, 11608.00
235.6330, 11512.00
236.8490, 11668.00
238.0660, 11576.00
239.2820, 11734.00
240.4980, 11874.00
241.7140, 12015.00
242.9300, 12377.00
244.1460, 12424.00
245.3610, 12861.00
246.5770, 13379.00
247.7920, 14177.00
249.0070, 14598.00
250.2220, 15145.00
251.4370, 15257.00
252.6510, 14909.00
253.8660, 14294.00
255.0800, 13826.00
256.2940, 13331.00
257.5080, 13229.00
258.7220, 13032.70
259.9360, 13231.00
261.1490, 13058.00
262.3630, 13210.00
263.5760, 13386.00
264.7890, 13753.00
266.0020, 13986.00
267.2150, 14300.00
268.4270, 14541.69
269.6400, 14981.00
270.8520, 14929.00
272.0640, 15073.00
273.2760, 15112.00
274.4880, 15567.00
275.7000, 16008.00
276.9120, 16829.00
278.1230, 18031.00
279.3340, 19329.00
280.5450, 21279.00
281.7560, 23928.00
282.9670, 27172.00
284.1780, 31203.00
285.3880, 36089.00
286.5980, 41079.00
287.8090, 46120.00
289.0190, 48535.00
290.2290, 47821.00
291.4380, 44638.00
292.6480, 39664.00
293.8570, 34304.00
295.0670, 29465.00
296.2760, 25262.00
297.4850, 21945.00
298.6930, 19700.00
299.9020, 17902.00
301.1110, 16728.00
302.3190, 15717.00
303.5270, 15067.00
304.7350, 14571.00
305.9430, 14396.00
307.1510, 14113.00
308.3580, 13901.00
309.5660, 13798.00
310.7730, 13685.00
311.9800, 13636.00
313.1870, 13470.00
314.3940, 13372.00
315.6010, 13455.00
316.8070, 13593.00
318.0130, 13721.00
319.2200, 13966.00
320.4260, 14339.00
321.6310, 15115.00
322.8370, 16109.00
324.0430, 17575.00
325.2480, 19076.00
326.4540, 20576.00
327.6590, 21266.00
328.8640, 20700.00
330.0680, 19306.00
331.2730, 18054.00
332.4780, 16583.00
333.6820, 15360.00
334.8860, 14532.00
336.0900, 13903.00
337.2940, 13493.00
338.4980, 13275.00
339.7010, 13087.00
340.9050, 12788.00
342.1080, 12945.00
343.3110, 12846.00
344.5140, 12832.00
345.7170, 12800.00
346.9200, 12721.23
348.1220, 12768.00
349.3240, 12600.00
350.5270, 12542.00
351.7290, 12502.00
352.9310, 12482.00
354.1320, 12418.00
355.3340, 12230.00
356.5350, 12219.00
357.7370, 12181.00
358.9380, 12293.00
360.1390, 12269.00
361.3400, 12263.93
362.5400, 12226.00
363.7410, 12229.00
364.9410, 12205.00
366.1410, 12199.00
367.3410, 12127.00
368.5410, 12194.00
369.7410, 12024.00
370.9400, 12088.00
372.1400, 12093.00
373.3390, 12021.00
374.5380, 12186.00
375.7370, 12157.00
376.9360, 12178.00
378.1350, 12244.00
379.3330, 12158.00
380.5310, 12321.00
381.7300, 12276.00
382.9280, 12249.00
384.1260, 12243.00
385.3230, 12399.00
386.5210, 12342.00
387.7180, 12238.00
388.9160, 12517.00
390.1130, 12611.00
391.3100, 12689.00
392.5060, 12886.00
393.7030, 12986.00
394.9000, 13306.00
396.0960, 13603.00
397.2920, 13718.00
398.4880, 14090.00
399.6840, 14224.00
400.8800, 14337.00
402.0750, 14708.00
403.2710, 15134.00
404.4660, 15902.00
405.6610, 16529.00
406.8560, 16693.00
408.0510, 15997.00
409.2450, 15311.00
410.4400, 14424.00
411.6340, 14334.00
412.8280, 13921.00
414.0220, 14005.00
415.2160, 13906.00
416.4100, 13662.00
417.6030, 13404.00
418.7970, 13332.00
419.9900, 13165.00
421.1830, 12977.00
422.3760, 12947.00
423.5690, 12751.00
424.7610, 12792.00
425.9540, 12730.00
427.1460, 12698.00
428.3380, 12835.00
429.5300, 12888.00
430.7220, 12823.00
431.9140, 12728.00
433.1050, 13007.00
434.2970, 12936.00
435.4880, 13035.00
436.6790, 13083.00
437.8700, 13129.00
439.0610, 13105.00
440.2510, 13178.78
441.4420, 13230.08
442.6320, 13302.00
443.8220, 13410.00
445.0120, 13523.00
446.2020, 13686.00
447.3910, 13913.94
448.5810, 14112.00
449.7700, 14499.00
450.9600, 14839.00
452.1490, 15266.00
453.3370, 15669.00
454.5260, 15983.00
455.7150, 16151.00
456.9030, 16058.00
458.0910, 16086.00
459.2800, 15798.00
460.4670, 15621.00
461.6550, 15891.00
462.8430, 15740.00
464.0300, 16409.00
465.2180, 16512.00
466.4050, 17468.00
467.5920, 18276.00
468.7790, 19584.00
469.9650, 20998.00
471.1520, 23405.00
472.3380, 26077.00
473.5250, 29671.00
474.7110, 34211.00
475.8970, 37397.00
477.0820, 38096.74
478.2680, 39344.00
479.4540, 36839.00
480.6390, 33371.00
481.8240, 29634.00
483.0090, 26308.00
484.1940, 23892.00
485.3780, 21866.00
486.5630, 20824.00
487.7470, 20009.00
488.9320, 19068.00
490.1160, 18892.00
491.3000, 19100.00
492.4830, 19611.00
493.6670, 20228.00
494.8500, 21465.00
496.0340, 23064.00
497.2170, 25346.00
498.4000, 28249.00
499.5820, 32213.00
500.7650, 37164.00
501.9480, 43395.00
503.1300, 50553.00
504.3120, 57559.00
505.4940, 62424.00
506.6760, 63313.00
507.8580, 59913.00
509.0390, 53686.00
510.2210, 46015.00
511.4020, 39339.00
512.5830, 33728.00
513.7640, 29224.00
514.9450, 25840.00
516.1250, 23586.00
517.3060, 21754.00
518.4860, 20593.00
519.6660, 19667.00
520.8460, 18625.00
522.0260, 18206.00
523.2060, 17589.00
524.3850, 17432.00
525.5650, 16924.00
526.7440, 16760.00
527.9230, 16621.00
529.1020, 16261.00
530.2810, 16008.00
531.4590, 15747.00
532.6380, 15611.42
533.8160, 15449.08
534.9940, 15441.00
536.1720, 15320.00
537.3500, 15244.00
538.5270, 15360.00
539.7050, 15013.00
540.8820, 15101.00
542.0590, 15202.00
543.2360, 15115.00
544.4130, 15022.00
545.5900, 14967.00
546.7660, 14986.00
547.9430, 14823.00
549.1190, 14837.72
550.2950, 14961.00
551.4710, 14841.00
552.6470, 14840.00
553.8220, 14973.00
554.9980, 14864.00
556.1730, 14911.00
557.3480, 14879.00
558.5230, 14847.00
559.6980, 14949.00
560.8730, 14966.00
562.0470, 15058.00
563.2220, 14851.00
564.3960, 14894.00
565.5700, 15016.00
566.7440, 15002.00
567.9170, 15217.00
569.0910, 15288.00
570.2640, 15488.00
571.4380, 15577.00
572.6110, 15779.00
573.7840, 15820.00
574.9570, 16144.00
576.1290, 16247.00
577.3020, 16529.00
578.4740, 16501.00
579.6460, 16521.00
580.8180, 16217.00
581.9900, 16043.00
583.1620, 15823.00
584.3330, 15620.73
585.5040, 15369.00
586.6760, 15316.00
587.8470, 15184.00
589.0180, 15152.00
590.1880, 15307.00
591.3590, 15233.00
592.5290, 15305.00
593.7000, 15154.00
594.8700, 15286.00
596.0400, 15133.00
597.2090, 15073.00
598.3790, 15040.00
599.5490, 14989.80
600.7180, 15017.72
601.8870, 15058.00
603.0560, 15059.00
604.2250, 15095.76
605.3940, 15234.00
606.5620, 15201.00
607.7300, 15286.00
608.8990, 15458.00
610.0670, 15190.00
611.2350, 15211.00
612.4020, 15350.00
613.5700, 15441.00
614.7370, 15480.00
615.9050, 15512.00
617.0720, 15620.81
618.2390, 15679.00
619.4060, 15821.00
620.5720, 16048.00
621.7390, 16169.14
622.9050, 16246.00
624.0710, 16411.00
625.2370, 16397.00
626.4030, 16569.00
627.5690, 16838.00
628.7340, 16864.00
629.9000, 17153.00
631.0650, 17173.00
632.2300, 17078.00
633.3950, 17046.00
634.5600, 16990.41
635.7240, 16943.00
636.8890, 16918.00
638.0530, 16867.00
639.2170, 16958.00
640.3810, 17217.00
641.5450, 17287.00
642.7080, 17367.00
643.8720, 17549.00
645.0350, 17607.00
646.1980, 17597.60
647.3610, 17576.72
648.5240, 17419.00
649.6870, 17301.00
650.8490, 17018.00
652.0120, 16883.96
653.1740, 16844.00
654.3360, 16495.57
655.4980, 16399.00
656.6600, 16168.00
657.8210, 15999.00
658.9830, 15939.00
660.1440, 15877.00
661.3050, 15878.00
662.4660, 15768.00
663.6270, 15815.11
664.7870, 15711.80
665.9480, 15891.00
667.1080, 15667.00
668.2680, 15705.00
669.4280, 15945.00
670.5880, 15671.00
671.7480, 15915.00
672.9070, 15747.00
674.0670, 15778.00
675.2260, 15788.00
676.3850, 15776.00
677.5440, 15627.00
678.7030, 15674.69
679.8610, 15874.00
681.0200, 15697.00
682.1780, 15779.00
683.3360, 15857.00
684.4940, 15738.00
685.6520, 15913.00
686.8090, 15918.00
687.9670, 15844.00
689.1240, 15886.00
690.2810, 15708.00
691.4380, 15677.00
692.5950, 15714.00
693.7520, 15914.00
694.9080, 15753.00
696.0650, 15934.00
697.2210, 15867.00
698.3770, 15809.00
699.5330, 16048.00
700.6880, 15950.00
701.8440, 15907.00
702.9990, 16100.00
704.1550, 16003.00
705.3100, 16015.00
706.4650, 16102.00
707.6190, 16229.00
708.7740, 16100.00
709.9290, 16088.00
711.0830, 16211.00
712.2370, 16175.00
713.3910, 16208.00
714.5450, 16424.00
715.6980, 16398.00
716.8520, 16530.00
718.0050, 16507.00
719.1580, 16470.00
720.3110, 16662.00
721.4640, 16593.00
722.6170, 16467.00
723.7700, 16517.00
724.9220, 16647.00
726.0740, 16569.00
727.2260, 16705.00
728.3780, 16484.00
729.5300, 16709.00
730.6810, 16655.00
731.8330, 16673.00
732.9840, 16566.00
734.1350, 16653.00
735.2860, 16628.00
736.4370, 16567.00
737.5880, 16744.00
738.7380, 16741.02
739.8880, 16815.00
741.0390, 16867.00
742.1890, 16968.00
743.3380, 16958.00
744.4880, 16986.00
745.6380, 17017.00
746.7870, 17087.04
747.9360, 17240.00
749.0850, 17225.00
750.2340, 17414.00
751.3830, 17405.00
752.5310, 17565.00
753.6800, 17874.00
754.8280, 18097.00
755.9760, 18530.00
757.1240, 19064.00
758.2720, 19508.00
759.4190, 20213.00
760.5670, 20774.00
761.7140, 21064.00
762.8610, 21160.00
764.0080, 20899.00
765.1550, 20442.00
766.3020, 19912.00
767.4480, 19429.00
768.5950, 18950.00
769.7410, 18977.00
770.8870, 18595.00
772.0330, 18932.00
773.1780, 18697.00
774.3240, 18551.00
775.4690, 18612.00
776.6140, 18454.00
777.7590, 18342.67
778.9040, 17993.00
780.0490, 18057.00
781.1940, 17898.00
782.3380, 17764.00
783.4820, 17818.00
784.6260, 17701.00
785.7700, 17675.00
786.9140, 17804.00
788.0580, 17703.00
789.2010, 17699.00
790.3450, 17608.00
791.4880, 17711.00
792.6310, 17978.00
793.7730, 17857.00
794.9160, 18078.00
796.0590, 18040.00
797.2010, 18182.00
798.3430, 18182.00
799.4850, 18108.00
800.6270, 18266.00
801.7690, 18526.00
802.9100, 18722.00
804.0520, 18758.00
805.1930, 19130.00
806.3340, 19608.00
807.4750, 19821.00
808.6160, 20597.00
809.7560, 21437.00
810.8970, 22425.00
812.0370, 23307.00
813.1770, 23831.00
814.3170, 24232.00
815.4570, 23743.00
816.5960, 23216.00
817.7360, 22046.00
818.8750, 21349.00
820.0140, 20485.00
821.1530, 20015.00
822.2920, 19455.00
823.4310, 19097.00
824.5690, 18920.00
825.7070, 18747.00
826.8460, 18801.00
827.9840, 18658.00
829.1220, 18699.00
830.2590, 18610.00
831.3970, 18448.00
832.5340, 18472.00
833.6710, 18567.00
834.8080, 18458.00
835.9450, 18558.00
837.0820, 18545.00
838.2190, 18590.00
839.3550, 18516.00
840.4910, 18569.00
841.6270, 18569.00
842.7630, 18492.00
843.8990, 18431.00
845.0350, 18443.00
846.1700, 18430.00
847.3060, 18550.00
848.4410, 18538.46
849.5760, 18587.00
850.7100, 18601.00
851.8450, 18516.00
852.9800, 18545.00
854.1140, 18490.00
855.2480, 18544.00
856.3820, 18766.00
857.5160, 18677.00
858.6500, 18826.00
859.7830, 18810.00
860.9170, 18767.00
862.0500, 18924.00
863.1830, 18627.00
864.3160, 18817.00
865.4480, 18688.00
866.5810, 18732.00
867.7130, 18729.00
868.8460, 18663.00
869.9780, 18931.00
871.1100, 18883.00
872.2410, 18662.00
873.3730, 18827.00
874.5050, 18755.00
875.6360, 18795.00
876.7670, 18816.00
877.8980, 18652.00
879.0290, 18710.00
880.1590, 18829.00
881.2900, 18714.00
882.4200, 18825.69
883.5500, 18943.00
884.6800, 18884.00
885.8100, 18877.00
886.9400, 18836.00
888.0690, 18866.00
889.1990, 18969.00
890.3280, 18716.00
891.4570, 18983.00
892.5860, 18870.00
893.7140, 18847.00
894.8430, 19061.00
895.9710, 19207.00
897.1000, 19171.00
898.2280, 19014.00
899.3560, 19124.00
900.4830, 19185.00
901.6110, 19160.00
902.7380, 19141.00
903.8660, 19190.00
904.9930, 19272.00
906.1200, 19227.00
907.2460, 19295.00
908.3730, 19159.00
909.5000, 19156.00
910.6260, 19154.00
911.7520, 19268.00
912.8780, 19413.00
914.0040, 19152.00
915.1290, 19392.00
916.2550, 19334.00
917.3800, 19388.00
918.5050, 19366.00
919.6300, 19363.00
920.7550, 19418.00
921.8800, 19361.00
923.0040, 19358.00
924.1290, 19351.00
925.2530, 19430.00
926.3770, 19432.00
927.5010, 19482.23
928.6250, 19546.00
929.7480, 19581.00
930.8720, 19645.00
931.9950, 19707.00
933.1180, 19556.00
934.2410, 19495.00
935.3640, 19542.00
936.4860, 19603.00
937.6090, 19666.00
938.7310, 19872.00
939.8530, 19684.00
940.9750, 19642.00
942.0970, 19836.00
943.2180, 19831.00
944.3400, 19815.00
945.4610, 19823.00
946.5820, 19978.00
947.7030, 19940.00
948.8240, 19723.00
949.9450, 20045.00
951.0650, 19961.00
952.1860, 20009.00
953.3060, 20117.00
954.4260, 20015.00
955.5460, 20087.00
956.6650, 20062.00
957.7850, 20124.00
958.9040, 20096.00
960.0230, 20307.00
961.1420, 20224.00
962.2610, 20407.00
963.3800, 20512.00
964.4990, 20644.00
965.6170, 20546.00
966.7350, 20721.00
967.8530, 20592.00
968.9710, 20859.00
970.0890, 20937.00
971.2070, 21028.00
972.3240, 21345.00
973.4410, 21508.00
974.5580, 21699.72
975.6750, 21876.00
976.7920, 22049.00
977.9090, 22127.00
979.0250, 22208.00
980.1410, 22047.00
981.2580, 21709.00
982.3740, 21659.00
983.4890, 21300.00
984.6050, 21218.00
985.7200, 21089.00
986.8360, 21022.00
987.9510, 20822.00
989.0660, 20930.00
990.1810, 21005.00
991.2950, 20764.00
992.4100, 21056.00
993.5240, 20940.00
994.6390, 21100.00
995.7530, 21121.00
996.8660, 21318.00
997.9800, 21233.00
999.0940, 21365.00
1000.207, 21708.00
1001.320, 21717.00
1002.433, 21733.00
1003.546, 21740.00
1004.659, 21794.00
1005.772, 21766.00
1006.884, 21788.00
1007.996, 21572.00
1009.108, 21856.00
1010.220, 21741.00
1011.332, 21523.00
1012.444, 21721.00
1013.555, 21825.00
1014.666, 21830.00
1015.777, 21849.00
1016.888, 21651.00
1017.999, 21689.00
1019.110, 21824.00
1020.220, 22122.00
1021.331, 22118.00
1022.441, 22284.00
1023.551, 22361.00
1024.661, 22669.00
1025.770, 22749.00
1026.880, 23043.00
1027.989, 23344.00
1029.098, 23748.00
1030.207, 24032.00
1031.316, 24018.00
1032.425, 24190.00
1033.533, 23967.00
1034.642, 23520.00
1035.750, 23238.00
1036.858, 23050.00
1037.966, 22882.00
1039.073, 22671.00
1040.181, 22479.00
1041.288, 22204.00
1042.396, 22197.00
1043.503, 21942.00
1044.610, 22046.00
1045.716, 22131.00
1046.823, 21920.00
1047.929, 21789.00
1049.036, 21752.00
1050.142, 21741.00
1051.248, 21685.90
1052.353, 21846.00
1053.459, 21694.00
1054.564, 21882.00
1055.670, 21991.00
1056.775, 21736.00
1057.880, 21728.00
1058.985, 21776.00
1060.089, 21872.00
1061.194, 21764.00
1062.298, 21864.00
1063.402, 21918.00
1064.506, 21886.00
1065.610, 21988.00
1066.713, 21967.00
1067.817, 22136.00
1068.920, 21997.00
1070.023, 21911.00
1071.126, 22252.00
1072.229, 22380.00
1073.332, 22274.00
1074.435, 22281.00
1075.537, 22331.00
1076.639, 22485.00
1077.741, 22541.00
1078.843, 22632.00
1079.945, 22789.00
1081.046, 22734.00
1082.148, 22914.00
1083.249, 23135.00
1084.350, 23057.00
1085.451, 23483.00
1086.551, 23614.00
1087.652, 23764.00
1088.752, 24070.00
1089.853, 24494.00
1090.953, 25102.00
1092.053, 25745.00
1093.152, 26331.00
1094.252, 26989.00
1095.351, 27664.00
1096.451, 27912.00
1097.550, 28528.00
1098.649, 28558.00
1099.748, 28609.00
1100.846, 28358.00
1101.945, 27698.00
1103.043, 27477.00
1104.141, 26947.00
1105.239, 26439.00
1106.337, 26091.00
1107.434, 25958.00
1108.532, 25796.00
1109.629, 25660.00
1110.726, 25625.00
1111.823, 25441.00
1112.920, 25495.00
1114.017, 25328.00
1115.113, 25323.00
1116.210, 25173.00
1117.306, 24799.00
1118.402, 24672.00
1119.498, 24519.00
1120.593, 24356.00
1121.689, 24133.09
1122.784, 23932.00
1123.879, 23622.00
1124.974, 23419.00
1126.069, 23118.00
1127.164, 23091.91
1128.259, 23274.00
1129.353, 23089.00
1130.447, 23160.00
1131.541, 23177.00
1132.635, 23116.00
1133.729, 23069.35
1134.822, 22973.00
1135.916, 22916.00
1137.009, 22863.00
1138.102, 22897.00
1139.195, 22990.00
1140.288, 22874.00
1141.380, 22920.00
1142.473, 22919.00
1143.565, 22746.00
1144.657, 22894.00
1145.749, 23154.00
1146.841, 23027.00
1147.932, 23158.00
1149.024, 23204.00
1150.115, 23164.00
1151.206, 23271.00
1152.297, 23209.00
1153.388, 23213.00
1154.479, 23062.00
1155.569, 22981.00
1156.659, 23312.00
1157.750, 22959.00
1158.839, 22979.00
1159.929, 23137.00
1161.019, 22993.00
1162.108, 22963.00
1163.198, 22788.00
1164.287, 23052.00
1165.376, 23164.00
1166.465, 23197.00
1167.553, 23211.00
1168.642, 23312.00
1169.730, 23361.00
1170.818, 23173.00
1171.906, 23162.00
1172.994, 23179.00
1174.082, 23180.00
1175.170, 23176.00
1176.257, 23257.00
1177.344, 23216.00
1178.431, 23210.00
1179.518, 23148.00
1180.605, 23209.00
1181.691, 23387.00
1182.778, 23227.00
1183.864, 23253.00
1184.950, 23355.00
1186.036, 23259.99
1187.122, 23528.00
1188.207, 23307.00
1189.292, 23303.00
1190.378, 23515.00
1191.463, 23418.00
1192.548, 23507.00
1193.632, 23342.00
1194.717, 23395.00
1195.801, 23436.00
1196.886, 23536.00
1197.970, 23512.00
1199.054, 23472.00
1200.137, 23658.00
1201.221, 23423.00
1202.305, 23569.00
1203.388, 23578.00
1204.471, 23639.00
1205.554, 23603.00
1206.637, 23657.00
1207.719, 23642.00
1208.802, 23671.00
1209.884, 23692.00
1210.966, 23779.00
1212.048, 23809.00
1213.130, 23682.00
1214.212, 23822.00
1215.293, 23795.00
1216.374, 23705.00
1217.456, 23740.00
1218.536, 23970.00
1219.617, 23737.00
1220.698, 23950.00
1221.778, 23807.00
1222.859, 23988.00
1223.939, 23785.00
1225.019, 23953.00
1226.099, 23786.00
1227.178, 23910.00
1228.258, 23770.00
1229.337, 24059.00
1230.417, 23941.00
1231.496, 23907.00
1232.574, 24337.00
1233.653, 24153.00
1234.732, 24291.00
1235.810, 24236.00
1236.888, 24213.03
1237.966, 24004.00
1239.044, 24202.00
1240.122, 24258.00
1241.199, 24266.00
1242.277, 24391.00
1243.354, 24143.00
1244.431, 24269.00
1245.508, 24540.00
1246.585, 24314.00
1247.661, 24407.00
1248.738, 24279.00
1249.814, 24324.00
1250.890, 24229.00
1251.966, 24350.00
1253.042, 24574.00
1254.117, 24514.00
1255.193, 24359.00
1256.268, 24685.00
1257.343, 24463.00
1258.418, 24329.00
1259.493, 24435.00
1260.567, 24417.00
1261.642, 24484.00
1262.716, 24782.00
1263.790, 24614.00
1264.864, 24815.00
1265.938, 24874.00
1267.011, 24719.00
1268.085, 24736.00
1269.158, 24641.00
1270.231, 24648.68
1271.304, 24618.66
1272.377, 24746.00
1273.450, 24601.00
1274.522, 24748.00
