##NAMES=Albite
##RRUFFID=R050253
##IDEAL CHEMISTRY=NaAlSi_3_O_8_
##LOCALITY=Madawaska/Faraday mine, Bancroft, Ontario, Canada
##OWNER=RRUFF
##SOURCE=Marcus Origlieri
##DESCRIPTION=Colorless to brown prismatic single crystals
##STATUS=The identification of this mineral has been confirmed by X-ray diffraction and chemical analysis
##URL=rruff.info/R050253
##MEASURED CHEMISTRY=(Na_0.99_Ca_0.01_)Al_1.00_(Si_0.99_Al_0.01_)_3_O_8_
##PIN_ID=L01398
##ORIENTATION=Laser parallel to a* (1 0 0). Fiducial mark perpendicular to laser is parallel to b [0 1 0]
87.30800, 8040.000
88.54200, 8046.000
89.77700, 7854.000
91.01200, 8008.000
92.24600, 8128.000
93.48000, 7981.000
94.71400, 7854.000
95.94800, 8006.000
97.18200, 7924.000
98.41600, 7988.000
99.64900, 8428.000
100.8830, 8753.000
102.1160, 8958.000
103.3490, 9478.000
104.5820, 9892.000
105.8150, 10590.00
107.0470, 11412.00
108.2800, 12357.00
109.5120, 13222.00
110.7440, 13383.50
111.9760, 13560.00
113.2080, 13302.00
114.4400, 12926.00
115.6710, 12356.97
116.9030, 12098.00
118.1340, 11260.00
119.3650, 10639.00
120.5960, 10017.00
121.8270, 9654.000
123.0580, 9443.000
124.2880, 9231.508
125.5190, 9257.000
126.7490, 9183.000
127.9790, 9289.000
129.2090, 9387.000
130.4390, 9433.000
131.6680, 9520.000
132.8980, 9659.000
134.1270, 9768.000
135.3560, 9857.000
136.5850, 10286.00
137.8140, 10454.00
139.0430, 10856.00
140.2710, 11325.00
141.5000, 11660.00
142.7280, 12198.00
143.9560, 12581.00
145.1840, 12985.00
146.4120, 13462.00
147.6390, 13988.00
148.8670, 14456.00
150.0940, 14966.00
151.3210, 15389.00
152.5490, 16108.00
153.7750, 16871.00
155.0020, 17750.00
156.2290, 18513.00
157.4550, 19294.00
158.6810, 20350.00
159.9080, 21347.00
161.1340, 21582.00
162.3590, 21737.00
163.5850, 21361.00
164.8110, 20907.00
166.0360, 20059.00
167.2610, 19598.00
168.4860, 19069.00
169.7110, 18613.00
170.9360, 18239.00
172.1610, 17942.00
173.3850, 17830.00
174.6100, 17902.00
175.8340, 17595.00
177.0580, 17927.00
178.2820, 18442.00
179.5050, 19085.00
180.7290, 19394.00
181.9520, 19712.00
183.1760, 20087.00
184.3990, 20250.00
185.6220, 19791.00
186.8450, 19549.00
188.0670, 18598.00
189.2900, 18035.00
190.5120, 17386.00
191.7340, 16683.00
192.9560, 16065.00
194.1780, 15637.00
195.4000, 15398.02
196.6220, 15283.74
197.8430, 15376.00
199.0640, 15599.00
200.2860, 15963.00
201.5070, 16570.00
202.7270, 17210.00
203.9480, 17549.00
205.1690, 18044.00
206.3890, 18396.00
207.6090, 18358.00
208.8290, 17958.00
210.0490, 17415.00
211.2690, 16408.00
212.4890, 15711.00
213.7080, 14476.00
214.9280, 13537.00
216.1470, 12853.00
217.3660, 12058.00
218.5850, 11514.00
219.8030, 11353.00
221.0220, 10929.00
222.2400, 10924.00
223.4590, 10766.00
224.6770, 10655.00
225.8950, 10562.00
227.1120, 10517.00
228.3300, 10434.00
229.5480, 10381.75
230.7650, 10318.00
231.9820, 10309.00
233.1990, 10255.00
234.4160, 10282.00
235.6330, 10363.50
236.8490, 10551.00
238.0660, 10585.00
239.2820, 10855.49
240.4980, 10967.15
241.7140, 11359.00
242.9300, 11546.00
244.1460, 11902.00
245.3610, 12490.00
246.5770, 12907.00
247.7920, 13420.00
249.0070, 13721.00
250.2220, 14099.00
251.4370, 13996.00
252.6510, 13758.00
253.8660, 13376.00
255.0800, 13288.00
256.2940, 12885.00
257.5080, 12443.00
258.7220, 12581.00
259.9360, 12723.00
261.1490, 13056.00
262.3630, 13218.00
263.5760, 13306.00
264.7890, 13735.00
266.0020, 14226.00
267.2150, 14716.00
268.4270, 14984.00
269.6400, 15011.00
270.8520, 15089.00
272.0640, 14737.00
273.2760, 14810.00
274.4880, 14794.00
275.7000, 14835.00
276.9120, 15074.00
278.1230, 15905.00
279.3340, 16923.00
280.5450, 18706.00
281.7560, 20134.00
282.9670, 22775.00
284.1780, 24919.00
285.3880, 27573.00
286.5980, 29946.00
287.8090, 32317.00
289.0190, 33374.00
290.2290, 33696.00
291.4380, 32394.00
292.6480, 30331.00
293.8570, 27394.00
295.0670, 24594.00
296.2760, 21977.00
297.4850, 19540.00
298.6930, 17544.00
299.9020, 16018.00
301.1110, 15119.00
302.3190, 14439.00
303.5270, 13765.00
304.7350, 13295.00
305.9430, 13030.00
307.1510, 12833.00
308.3580, 12504.00
309.5660, 12223.00
310.7730, 12277.00
311.9800, 12339.00
313.1870, 12289.00
314.3940, 12198.00
315.6010, 11976.00
316.8070, 12054.00
318.0130, 12151.00
319.2200, 12527.00
320.4260, 12971.00
321.6310, 13445.00
322.8370, 13938.00
324.0430, 14490.00
325.2480, 14963.00
326.4540, 15431.00
327.6590, 15577.00
328.8640, 15465.00
330.0680, 15233.00
331.2730, 14619.00
332.4780, 13926.00
333.6820, 13172.00
334.8860, 12638.00
336.0900, 12242.00
337.2940, 11967.00
338.4980, 11622.00
339.7010, 11588.00
340.9050, 11328.00
342.1080, 11390.00
343.3110, 11417.00
344.5140, 11372.00
345.7170, 11284.00
346.9200, 11166.00
348.1220, 11343.00
349.3240, 11246.00
350.5270, 11301.00
351.7290, 11151.00
352.9310, 11132.00
354.1320, 11085.00
355.3340, 11076.00
356.5350, 11211.00
357.7370, 11046.00
358.9380, 11125.00
360.1390, 11010.00
361.3400, 11028.00
362.5400, 11074.00
363.7410, 11044.00
364.9410, 11047.00
366.1410, 11054.00
367.3410, 11110.00
368.5410, 11056.00
369.7410, 11017.00
370.9400, 11254.00
372.1400, 11179.00
373.3390, 11115.00
374.5380, 11139.00
375.7370, 11076.00
376.9360, 11217.00
378.1350, 11272.00
379.3330, 11119.00
380.5310, 11269.00
381.7300, 11142.00
382.9280, 11348.00
384.1260, 11320.00
385.3230, 11340.00
386.5210, 11509.00
387.7180, 11520.00
388.9160, 11615.00
390.1130, 11739.00
391.3100, 11977.00
392.5060, 11975.00
393.7030, 12135.00
394.9000, 12276.00
396.0960, 12653.00
397.2920, 12782.00
398.4880, 13191.00
399.6840, 13577.00
400.8800, 13824.00
402.0750, 14284.00
403.2710, 14585.00
404.4660, 15151.00
405.6610, 15655.00
406.8560, 15757.00
408.0510, 15820.00
409.2450, 15611.00
410.4400, 15459.00
411.6340, 15084.00
412.8280, 15104.00
414.0220, 14800.00
415.2160, 14627.00
416.4100, 14140.00
417.6030, 13914.00
418.7970, 13458.00
419.9900, 13124.00
421.1830, 12831.00
422.3760, 12578.00
423.5690, 12376.00
424.7610, 12235.00
425.9540, 12115.12
427.1460, 12071.00
428.3380, 12022.00
429.5300, 11983.00
430.7220, 12039.00
431.9140, 12087.00
433.1050, 12044.00
434.2970, 11933.00
435.4880, 11901.00
436.6790, 12066.00
437.8700, 11988.00
439.0610, 12176.00
440.2510, 12282.00
441.4420, 12267.00
442.6320, 12334.00
443.8220, 12399.00
445.0120, 12436.27
446.2020, 12502.67
447.3910, 12568.00
448.5810, 12681.00
449.7700, 12776.00
450.9600, 13012.00
452.1490, 13255.00
453.3370, 13578.00
454.5260, 13545.00
455.7150, 13778.00
456.9030, 13808.00
458.0910, 13900.00
459.2800, 14116.00
460.4670, 14419.00
461.6550, 14483.00
462.8430, 14826.00
464.0300, 15423.00
465.2180, 16082.00
466.4050, 16906.00
467.5920, 18411.00
468.7790, 20201.00
469.9650, 22694.00
471.1520, 25450.00
472.3380, 28849.00
473.5250, 32257.00
474.7110, 35794.00
475.8970, 39222.00
477.0820, 41212.00
478.2680, 41508.00
479.4540, 39525.00
480.6390, 36416.00
481.8240, 33069.00
483.0090, 29528.00
484.1940, 26244.00
485.3780, 23541.00
486.5630, 21369.00
487.7470, 19950.00
488.9320, 19007.00
490.1160, 18681.00
491.3000, 18528.00
492.4830, 18777.00
493.6670, 19390.00
494.8500, 20516.00
496.0340, 22219.00
497.2170, 24667.00
498.4000, 27844.00
499.5820, 31625.00
500.7650, 36660.00
501.9480, 41339.00
503.1300, 46496.00
504.3120, 51649.00
505.4940, 54699.00
506.6760, 55372.00
507.8580, 53138.00
509.0390, 49123.00
510.2210, 44036.00
511.4020, 38539.00
512.5830, 33330.00
513.7640, 28824.00
514.9450, 25550.00
516.1250, 22751.00
517.3060, 20680.00
518.4860, 19371.00
519.6660, 18227.00
520.8460, 17418.00
522.0260, 16883.00
523.2060, 16404.00
524.3850, 15889.00
525.5650, 15531.00
526.7440, 15327.00
527.9230, 15332.00
529.1020, 14946.00
530.2810, 14667.00
531.4590, 14731.00
532.6380, 14457.00
533.8160, 14447.00
534.9940, 14323.00
536.1720, 14088.00
537.3500, 14216.00
538.5270, 14037.00
539.7050, 13877.00
540.8820, 13939.00
542.0590, 13938.00
543.2360, 13946.00
544.4130, 13903.00
545.5900, 13885.21
546.7660, 13779.00
547.9430, 13828.00
549.1190, 13767.00
550.2950, 13772.00
551.4710, 13756.00
552.6470, 13714.00
553.8220, 13691.00
554.9980, 13722.00
556.1730, 13595.00
557.3480, 13723.00
558.5230, 13747.00
559.6980, 13672.00
560.8730, 13711.00
562.0470, 13768.00
563.2220, 13808.00
564.3960, 13818.00
565.5700, 13803.00
566.7440, 13879.00
567.9170, 13938.00
569.0910, 13959.00
570.2640, 14025.00
571.4380, 14192.00
572.6110, 14244.00
573.7840, 14594.00
574.9570, 14456.00
576.1290, 14662.00
577.3020, 14642.00
578.4740, 14611.00
579.6460, 14515.00
580.8180, 14576.00
581.9900, 14480.00
583.1620, 14346.00
584.3330, 14144.00
585.5040, 14095.00
586.6760, 14026.00
587.8470, 13764.00
589.0180, 13799.00
590.1880, 13731.00
591.3590, 13690.00
592.5290, 13774.00
593.7000, 13864.00
594.8700, 13714.00
596.0400, 13698.00
597.2090, 13796.00
598.3790, 13735.00
599.5490, 13801.00
600.7180, 13937.00
601.8870, 13847.00
603.0560, 13985.00
604.2250, 14025.00
605.3940, 13976.00
606.5620, 14166.00
607.7300, 14126.00
608.8990, 14112.00
610.0670, 14286.00
611.2350, 14328.00
612.4020, 14156.00
613.5700, 14218.00
614.7370, 14226.00
615.9050, 14290.00
617.0720, 14178.00
618.2390, 14317.00
619.4060, 14205.00
620.5720, 14275.00
621.7390, 14283.00
622.9050, 14380.00
624.0710, 14479.00
625.2370, 14512.22
626.4030, 14726.00
627.5690, 14658.00
628.7340, 14689.00
629.9000, 14834.00
631.0650, 15076.00
632.2300, 14976.00
633.3950, 14959.00
634.5600, 15025.00
635.7240, 14900.00
636.8890, 14931.00
638.0530, 15138.00
639.2170, 15188.00
640.3810, 15150.00
641.5450, 15281.00
642.7080, 15242.00
643.8720, 15394.00
645.0350, 15455.00
646.1980, 15684.00
647.3610, 15628.41
648.5240, 15599.64
649.6870, 15450.00
650.8490, 15321.00
652.0120, 15007.00
653.1740, 14728.00
654.3360, 14785.00
655.4980, 14720.00
656.6600, 14535.00
657.8210, 14528.00
658.9830, 14474.00
660.1440, 14584.00
661.3050, 14624.00
662.4660, 14547.00
663.6270, 14402.00
664.7870, 14613.00
665.9480, 14671.00
667.1080, 14525.00
668.2680, 14699.00
669.4280, 14489.00
670.5880, 14494.00
671.7480, 14495.00
672.9070, 14521.00
674.0670, 14422.00
675.2260, 14539.00
676.3850, 14597.00
677.5440, 14430.00
678.7030, 14414.00
679.8610, 14449.00
681.0200, 14611.00
682.1780, 14365.00
683.3360, 14512.00
684.4940, 14427.00
685.6520, 14448.00
686.8090, 14372.00
687.9670, 14342.32
689.1240, 14414.00
690.2810, 14314.00
691.4380, 14406.00
692.5950, 14499.00
693.7520, 14548.00
694.9080, 14464.00
696.0650, 14423.00
697.2210, 14338.00
698.3770, 14506.00
699.5330, 14479.00
700.6880, 14521.00
701.8440, 14462.00
702.9990, 14651.00
704.1550, 14534.00
705.3100, 14535.00
706.4650, 14496.00
707.6190, 14673.00
708.7740, 14620.00
709.9290, 14824.00
711.0830, 14727.00
712.2370, 14772.00
713.3910, 14852.00
714.5450, 14884.00
715.6980, 14959.00
716.8520, 14838.00
718.0050, 15010.00
719.1580, 15015.00
720.3110, 15073.00
721.4640, 14926.00
722.6170, 14959.00
723.7700, 14848.00
724.9220, 14990.00
726.0740, 14990.00
727.2260, 14798.00
728.3780, 14727.00
729.5300, 14960.00
730.6810, 14757.00
731.8330, 15099.00
732.9840, 14950.00
734.1350, 15048.00
735.2860, 15009.00
736.4370, 14987.00
737.5880, 14947.00
738.7380, 15044.00
739.8880, 15006.00
741.0390, 15023.00
742.1890, 15130.00
743.3380, 15067.00
744.4880, 15053.00
745.6380, 15258.00
746.7870, 15272.00
747.9360, 15395.00
749.0850, 15620.00
750.2340, 15598.00
751.3830, 15815.00
752.5310, 16015.00
753.6800, 16138.00
754.8280, 16448.00
755.9760, 16871.00
757.1240, 17333.00
758.2720, 17864.00
759.4190, 18512.00
760.5670, 19007.00
761.7140, 19486.00
762.8610, 19643.00
764.0080, 19521.00
765.1550, 18974.00
766.3020, 18686.00
767.4480, 18235.00
768.5950, 17791.00
769.7410, 17306.00
770.8870, 17172.00
772.0330, 16681.00
773.1780, 16736.00
774.3240, 16665.00
775.4690, 16688.00
776.6140, 16842.25
777.7590, 16856.98
778.9040, 17112.00
780.0490, 17090.00
781.1940, 17034.00
782.3380, 17236.00
783.4820, 16957.00
784.6260, 16779.00
785.7700, 16747.00
786.9140, 16301.24
788.0580, 15955.00
789.2010, 15678.00
790.3450, 15684.00
791.4880, 15750.00
792.6310, 15614.00
793.7730, 15751.00
794.9160, 15773.00
796.0590, 15841.00
797.2010, 15832.00
798.3430, 15879.00
799.4850, 15903.84
800.6270, 15959.52
801.7690, 15989.00
802.9100, 16092.00
804.0520, 16220.00
805.1930, 16287.00
806.3340, 16526.94
807.4750, 16818.00
808.6160, 17069.00
809.7560, 17493.00
810.8970, 17913.00
812.0370, 18367.00
813.1770, 18666.00
814.3170, 18712.00
815.4570, 18836.00
816.5960, 18576.00
817.7360, 18225.00
818.8750, 17907.00
820.0140, 17555.00
821.1530, 17233.45
822.2920, 16851.00
823.4310, 16673.00
824.5690, 16546.00
825.7070, 16468.00
826.8460, 16499.00
827.9840, 16288.00
829.1220, 16296.00
830.2590, 16162.00
831.3970, 16221.00
832.5340, 15936.00
833.6710, 16164.00
834.8080, 16065.00
835.9450, 16195.00
837.0820, 16105.00
838.2190, 16214.00
839.3550, 16124.00
840.4910, 16265.00
841.6270, 16267.00
842.7630, 16086.00
843.8990, 16256.00
845.0350, 16092.00
846.1700, 16147.00
847.3060, 16111.00
848.4410, 16188.00
849.5760, 16127.00
850.7100, 16215.00
851.8450, 16137.00
852.9800, 16162.00
854.1140, 16269.00
855.2480, 16259.00
856.3820, 16287.00
857.5160, 16148.00
858.6500, 16171.00
859.7830, 16310.00
860.9170, 16161.00
862.0500, 16219.00
863.1830, 16219.00
864.3160, 16238.00
865.4480, 16214.00
866.5810, 16376.00
867.7130, 16694.00
868.8460, 16484.09
869.9780, 16501.75
871.1100, 16329.00
872.2410, 16214.00
873.3730, 16394.00
874.5050, 16364.00
875.6360, 16355.00
876.7670, 16583.00
877.8980, 16464.00
879.0290, 16495.00
880.1590, 16363.00
881.2900, 16448.00
882.4200, 16420.93
883.5500, 16494.00
884.6800, 16473.00
885.8100, 16552.00
886.9400, 16643.00
888.0690, 16573.00
889.1990, 16589.00
890.3280, 16680.00
891.4570, 16480.00
892.5860, 16620.75
893.7140, 16621.98
894.8430, 16746.00
895.9710, 16678.00
897.1000, 16722.00
898.2280, 16630.00
899.3560, 16701.00
900.4830, 16789.00
901.6110, 16760.00
902.7380, 16805.07
903.8660, 16781.00
904.9930, 16786.00
906.1200, 16800.00
907.2460, 16742.00
908.3730, 16944.00
909.5000, 17038.00
910.6260, 17000.00
911.7520, 16811.00
912.8780, 16933.00
914.0040, 17029.00
915.1290, 16804.00
916.2550, 16931.00
917.3800, 16967.00
918.5050, 16989.00
919.6300, 17018.00
920.7550, 16999.00
921.8800, 17043.55
923.0040, 17043.00
924.1290, 17102.00
925.2530, 17190.00
926.3770, 17216.00
927.5010, 17345.00
928.6250, 17303.95
929.7480, 17306.66
930.8720, 17208.00
931.9950, 17224.00
933.1180, 17112.00
934.2410, 17067.00
935.3640, 17247.00
936.4860, 17327.00
937.6090, 17422.00
938.7310, 17428.00
939.8530, 17464.92
940.9750, 17435.00
942.0970, 17472.00
943.2180, 17501.00
944.3400, 17515.00
945.4610, 17381.00
946.5820, 17519.00
947.7030, 17569.00
948.8240, 17588.00
949.9450, 17782.00
951.0650, 17879.00
952.1860, 17772.00
953.3060, 17738.00
954.4260, 17800.00
955.5460, 17934.00
956.6650, 17678.00
957.7850, 17886.00
958.9040, 17732.00
960.0230, 17944.00
961.1420, 17977.00
962.2610, 18185.00
963.3800, 18041.00
964.4990, 17948.00
965.6170, 18030.00
966.7350, 17923.00
967.8530, 18290.00
968.9710, 18436.00
970.0890, 18380.00
971.2070, 18452.00
972.3240, 18539.00
973.4410, 18756.00
974.5580, 18788.00
975.6750, 19086.00
976.7920, 19209.00
977.9090, 19364.00
979.0250, 19093.00
980.1410, 19040.00
981.2580, 19140.00
982.3740, 18731.00
983.4890, 18736.00
984.6050, 18648.00
985.7200, 18718.00
986.8360, 18400.00
987.9510, 18532.00
989.0660, 18506.00
990.1810, 18564.00
991.2950, 18664.00
992.4100, 18443.00
993.5240, 18563.00
994.6390, 18587.00
995.7530, 18538.00
996.8660, 18749.00
997.9800, 18743.00
999.0940, 18833.00
1000.207, 19036.00
1001.320, 19292.00
1002.433, 19352.00
1003.546, 19535.00
1004.659, 20022.00
1005.772, 20133.00
1006.884, 20569.00
1007.996, 20674.00
1009.108, 20673.00
1010.220, 20697.00
1011.332, 20604.00
1012.444, 20541.41
1013.555, 20392.00
1014.666, 20317.00
1015.777, 20233.00
1016.888, 20107.00
1017.999, 20151.00
1019.110, 19921.00
1020.220, 19673.00
1021.331, 19632.00
1022.441, 19670.00
1023.551, 19714.00
1024.661, 19842.52
1025.770, 19948.00
1026.880, 20183.00
1027.989, 20416.00
1029.098, 20599.00
1030.207, 20870.00
1031.316, 21015.00
1032.425, 21239.00
1033.533, 20898.00
1034.642, 20574.00
1035.750, 20591.00
1036.858, 20225.00
1037.966, 20151.00
1039.073, 19990.00
1040.181, 19895.00
1041.288, 19734.00
1042.396, 19724.00
1043.503, 19649.00
1044.610, 19674.00
1045.716, 19745.00
1046.823, 19666.00
1047.929, 19491.00
1049.036, 19687.00
1050.142, 19541.00
1051.248, 19540.64
1052.353, 19705.00
1053.459, 19538.00
1054.564, 19387.00
1055.670, 19490.00
1056.775, 19430.00
1057.880, 19294.00
1058.985, 19374.00
1060.089, 19340.00
1061.194, 19449.00
1062.298, 19564.00
1063.402, 19551.00
1064.506, 19536.00
1065.610, 19606.00
1066.713, 19632.00
1067.817, 19516.00
1068.920, 19744.00
1070.023, 19626.00
1071.126, 19637.00
1072.229, 19852.00
1073.332, 19833.00
1074.435, 19947.00
1075.537, 19972.00
1076.639, 19952.00
1077.741, 20129.00
1078.843, 20265.00
1079.945, 20315.00
1081.046, 20416.00
1082.148, 20565.90
1083.249, 20754.72
1084.350, 20922.00
1085.451, 21225.00
1086.551, 21524.00
1087.652, 21765.00
1088.752, 22188.00
1089.853, 22609.00
1090.953, 23163.00
1092.053, 23847.00
1093.152, 24662.00
1094.252, 25407.00
1095.351, 26414.00
1096.451, 27342.00
1097.550, 27890.00
1098.649, 28431.00
1099.748, 28438.00
1100.846, 28322.00
1101.945, 27673.00
1103.043, 27174.00
1104.141, 26531.00
1105.239, 25995.56
1106.337, 25310.00
1107.434, 25019.00
1108.532, 24624.00
1109.629, 24384.00
1110.726, 24422.00
1111.823, 24241.00
1112.920, 24196.00
1114.017, 24155.00
1115.113, 24036.32
1116.210, 24155.00
1117.306, 23860.00
1118.402, 23791.00
1119.498, 23674.00
1120.593, 23255.00
1121.689, 22834.00
1122.784, 22508.00
1123.879, 22247.69
1124.974, 22183.00
1126.069, 21851.00
1127.164, 21714.00
1128.259, 21552.00
1129.353, 21323.79
1130.447, 21133.00
1131.541, 21026.00
1132.635, 20849.00
1133.729, 20851.00
1134.822, 20733.00
1135.916, 20530.00
1137.009, 20421.00
1138.102, 20612.00
1139.195, 20581.00
1140.288, 20695.00
1141.380, 20752.00
1142.473, 20569.00
1143.565, 20625.00
1144.657, 20651.00
1145.749, 20686.00
1146.841, 20592.00
1147.932, 20668.00
1149.024, 20728.00
1150.115, 20690.00
1151.206, 20771.47
1152.297, 20655.00
1153.388, 20840.00
1154.479, 20793.00
1155.569, 20784.00
1156.659, 20616.00
1157.750, 20551.00
1158.839, 20449.00
1159.929, 20393.63
1161.019, 20725.00
1162.108, 20451.00
1163.198, 20465.00
1164.287, 20764.00
1165.376, 20729.00
1166.465, 20685.00
1167.553, 20664.00
1168.642, 20676.00
1169.730, 20829.00
1170.818, 20609.00
1171.906, 20582.00
1172.994, 20733.00
1174.082, 20476.00
1175.170, 20693.00
1176.257, 20739.00
1177.344, 20576.00
1178.431, 20716.79
1179.518, 20647.64
1180.605, 20807.00
1181.691, 20621.00
1182.778, 20763.00
1183.864, 20768.00
1184.950, 20684.00
1186.036, 20759.00
1187.122, 20976.00
1188.207, 20890.00
1189.292, 20981.00
1190.378, 20956.00
1191.463, 21020.00
1192.548, 20927.00
1193.632, 21031.00
1194.717, 20879.00
1195.801, 21015.00
1196.886, 20876.00
1197.970, 21025.00
1199.054, 21029.00
1200.137, 20994.00
1201.221, 20925.00
1202.305, 21054.00
1203.388, 20994.00
1204.471, 21020.00
1205.554, 21167.00
1206.637, 21158.00
1207.719, 21200.73
1208.802, 21236.35
1209.884, 21211.00
1210.966, 21234.00
1212.048, 21210.00
1213.130, 21165.00
1214.212, 21231.00
1215.293, 21299.00
1216.374, 21168.00
1217.456, 21096.00
1218.536, 21405.00
1219.617, 21265.00
1220.698, 21397.00
1221.778, 21439.00
1222.859, 21295.00
1223.939, 21458.00
1225.019, 21495.00
1226.099, 21375.00
1227.178, 21481.00
1228.258, 21613.00
1229.337, 21720.00
1230.417, 21707.00
1231.496, 21533.00
1232.574, 21770.00
1233.653, 21492.00
1234.732, 21699.00
1235.810, 21539.00
1236.888, 21666.00
1237.966, 21799.00
1239.044, 21696.00
1240.122, 21703.00
1241.199, 21779.00
1242.277, 21839.00
1243.354, 21777.00
1244.431, 21922.00
1245.508, 21704.00
1246.585, 21770.00
1247.661, 21842.00
1248.738, 21915.00
1249.814, 21892.00
1250.890, 21964.00
1251.966, 22008.00
1253.042, 22144.00
1254.117, 22130.00
1255.193, 22247.00
1256.268, 22089.00
1257.343, 22126.00
1258.418, 22288.00
1259.493, 22266.00
1260.567, 22072.00
1261.642, 22337.00
1262.716, 22182.00
1263.790, 22153.00
1264.864, 22351.00
1265.938, 22194.00
1267.011, 22406.00
1268.085, 22412.00
