##NAMES=Albite
##RRUFFID=R040068
##IDEAL CHEMISTRY=NaAlSi_3_O_8_
##LOCALITY=Harding Pegmatite, Dixon, New Mexico, USA
##OWNER=RRUFF
##SOURCE=University of Arizona Mineral Museum
##DESCRIPTION=Tan colored crystal fragment
##STATUS=The identification of this mineral has been confirmed by X-ray diffraction and chemical analysis
##URL=rruff.info/R040068
##MEASURED CHEMISTRY=(Na_0.99_Ca_0.01_)Al_1.00_(Si_0.99_Al_0.01_)_3_O_8_
##PIN_ID=L00690
##ORIENTATION=Laser parallel to (0 1 1). Fiducial mark perpendicular to laser is parallel to a [1 0 0]
97.74200, 12362.00
98.98500, 12417.00
100.2270, 12650.00
101.4690, 12631.00
102.7110, 12692.00
103.9530, 13035.00
105.1950, 13029.00
106.4360, 13216.00
107.6780, 13784.00
108.9190, 14128.00
110.1600, 14464.00
111.4000, 14877.00
112.6410, 15667.00
113.8810, 16327.00
115.1210, 16802.00
116.3610, 16821.00
117.6010, 16656.00
118.8410, 16438.00
120.0800, 15952.00
121.3190, 15012.00
122.5580, 14453.00
123.7970, 14268.00
125.0360, 13992.00
126.2740, 14029.00
127.5130, 13796.00
128.7510, 13807.00
129.9890, 14003.00
131.2270, 14013.00
132.4640, 14014.00
133.7010, 13964.00
134.9390, 13970.00
136.1760, 14226.00
137.4120, 14279.00
138.6490, 14654.00
139.8860, 14711.00
141.1220, 14945.00
142.3580, 15199.00
143.5940, 15739.00
144.8300, 16123.00
146.0650, 16365.00
147.3000, 16805.00
148.5360, 17013.00
149.7710, 17416.00
151.0050, 17336.00
152.2400, 17641.00
153.4750, 17476.00
154.7090, 17840.00
155.9430, 17715.00
157.1770, 17776.00
158.4100, 18112.00
159.6440, 18697.00
160.8770, 19337.00
162.1100, 19929.00
163.3430, 20032.00
164.5760, 19791.00
165.8090, 19743.00
167.0410, 18990.00
168.2730, 18614.00
169.5050, 18150.00
170.7370, 18019.00
171.9690, 17754.00
173.2000, 17795.00
174.4320, 17769.00
175.6630, 17717.00
176.8940, 17851.00
178.1250, 18006.00
179.3550, 18278.00
180.5860, 18831.00
181.8160, 19109.00
183.0460, 19615.00
184.2760, 20235.00
185.5050, 20618.00
186.7350, 20719.00
187.9640, 20735.00
189.1930, 20276.00
190.4220, 19837.00
191.6510, 19367.00
192.8790, 18646.00
194.1080, 18183.00
195.3360, 17640.00
196.5640, 17596.00
197.7920, 17383.00
199.0190, 17120.00
200.2470, 16998.00
201.4740, 16964.00
202.7010, 17123.00
203.9280, 17429.00
205.1550, 17677.00
206.3820, 18276.00
207.6080, 18628.00
208.8340, 19035.00
210.0600, 19414.00
211.2860, 19177.00
212.5120, 18835.00
213.7370, 18233.00
214.9620, 17599.00
216.1870, 17121.00
217.4120, 16813.00
218.6370, 16397.00
219.8620, 16214.00
221.0860, 16106.00
222.3100, 15978.00
223.5340, 15951.00
224.7580, 15799.00
225.9820, 15813.00
227.2050, 15710.00
228.4280, 15817.00
229.6510, 15780.00
230.8740, 15802.00
232.0970, 15786.00
233.3190, 15854.00
234.5420, 16012.00
235.7640, 15928.00
236.9860, 16074.00
238.2080, 15985.00
239.4290, 15963.00
240.6510, 16159.00
241.8720, 16150.00
243.0930, 16302.66
244.3140, 16346.00
245.5350, 16629.00
246.7550, 16923.00
247.9760, 17181.00
249.1960, 17765.00
250.4160, 18078.00
251.6360, 18591.00
252.8550, 18628.00
254.0750, 18563.00
255.2940, 18436.00
256.5130, 17777.00
257.7320, 17596.00
258.9510, 17013.00
260.1690, 16983.00
261.3880, 16842.00
262.6060, 16748.00
263.8240, 16932.00
265.0420, 17267.00
266.2600, 17332.00
267.4770, 17660.00
268.6940, 17928.00
269.9110, 18116.00
271.1280, 18272.00
272.3450, 18365.00
273.5620, 18323.00
274.7780, 17947.00
275.9940, 17986.00
277.2100, 17828.00
278.4260, 17905.00
279.6420, 18162.00
280.8570, 18261.00
282.0720, 18668.00
283.2880, 19225.00
284.5020, 20029.00
285.7170, 20987.00
286.9320, 22475.00
288.1460, 24277.00
289.3600, 26062.00
290.5740, 27750.00
291.7880, 28187.00
293.0020, 28127.00
294.2150, 27339.00
295.4290, 25562.00
296.6420, 23711.00
297.8550, 21932.00
299.0680, 20647.00
300.2800, 19788.00
301.4930, 19188.00
302.7050, 18688.00
303.9170, 18315.00
305.1290, 17990.00
306.3410, 18101.00
307.5520, 17898.00
308.7630, 17950.00
309.9750, 17747.00
311.1850, 17634.00
312.3960, 17948.00
313.6070, 17636.00
314.8170, 17758.00
316.0280, 17785.00
317.2380, 17697.00
318.4480, 17555.00
319.6570, 17699.00
320.8670, 17761.00
322.0760, 17811.00
323.2850, 18114.00
324.4940, 18263.00
325.7030, 18855.00
326.9120, 19365.00
328.1200, 19706.00
329.3290, 20165.00
330.5370, 20363.00
331.7450, 19964.00
332.9520, 19757.00
334.1600, 19259.00
335.3670, 18655.00
336.5750, 18413.00
337.7820, 18174.00
338.9880, 18200.00
340.1950, 18093.00
341.4020, 17981.00
342.6080, 18052.00
343.8140, 17997.00
345.0200, 17900.00
346.2260, 17998.00
347.4310, 18033.00
348.6370, 17982.00
349.8420, 17863.00
351.0470, 18129.00
352.2520, 18029.00
353.4570, 17948.00
354.6610, 18032.32
355.8660, 17993.22
357.0700, 18027.00
358.2740, 18017.00
359.4780, 18034.00
360.6810, 17951.00
361.8850, 18135.00
363.0880, 18050.00
364.2910, 18094.00
365.4940, 18200.00
366.6970, 18226.00
367.8990, 18114.00
369.1020, 18141.00
370.3040, 18090.82
371.5060, 18096.00
372.7080, 18076.00
373.9090, 18147.00
375.1110, 18275.00
376.3120, 18211.00
377.5130, 18353.00
378.7140, 18331.00
379.9150, 18375.00
381.1160, 18203.00
382.3160, 18309.00
383.5160, 18346.00
384.7170, 18307.99
385.9160, 18498.00
387.1160, 18357.00
388.3160, 18454.00
389.5150, 18544.00
390.7140, 18674.00
391.9130, 18710.00
393.1120, 18893.00
394.3110, 18866.00
395.5090, 18906.00
396.7080, 18970.00
397.9060, 19083.00
399.1040, 19183.68
400.3010, 19328.00
401.4990, 19454.00
402.6960, 19506.21
403.8940, 19737.91
405.0910, 19924.19
406.2880, 20066.51
407.4840, 20094.78
408.6810, 20223.17
409.8770, 20282.60
411.0730, 20319.51
412.2690, 20403.17
413.4650, 20342.30
414.6610, 20383.80
415.8560, 20355.73
417.0520, 20329.56
418.2470, 20237.00
419.4420, 20140.00
420.6360, 19930.00
421.8310, 19726.00
423.0250, 19650.00
424.2200, 19534.00
425.4140, 19293.00
426.6080, 19373.00
427.8010, 19186.00
428.9950, 19378.00
430.1880, 19446.00
431.3810, 19464.00
432.5740, 19449.00
433.7670, 19560.00
434.9600, 19503.00
436.1520, 19373.00
437.3450, 19543.00
438.5370, 19492.00
439.7290, 19661.00
440.9200, 19519.00
442.1120, 19409.00
443.3030, 19559.00
444.4950, 19737.00
445.6860, 19660.00
446.8770, 19826.00
448.0670, 19723.00
449.2580, 19928.00
450.4480, 20123.00
451.6380, 20130.00
452.8280, 20029.00
454.0180, 20309.00
455.2080, 20249.00
456.3970, 20650.00
457.5870, 20555.00
458.7760, 20735.00
459.9650, 20859.00
461.1540, 20566.00
462.3420, 20792.00
463.5310, 20782.00
464.7190, 20833.00
465.9070, 20866.00
467.0950, 20817.00
468.2830, 21254.00
469.4700, 21514.00
470.6570, 21693.00
471.8450, 22349.00
473.0320, 23190.00
474.2190, 24092.00
475.4050, 25620.00
476.5920, 26936.00
477.7780, 29278.00
478.9640, 31005.00
480.1500, 32311.00
481.3360, 32245.00
482.5220, 31457.00
483.7070, 29560.00
484.8920, 27603.00
486.0770, 26116.00
487.2620, 24723.00
488.4470, 23628.00
489.6320, 23173.00
490.8160, 23140.00
492.0000, 22797.00
493.1840, 22807.00
494.3680, 22642.00
495.5520, 22867.00
496.7350, 23081.00
497.9190, 23464.00
499.1020, 24119.00
500.2850, 24775.00
501.4680, 26190.00
502.6510, 27790.00
503.8330, 30277.00
505.0150, 33638.00
506.1970, 37137.00
507.3790, 39948.00
508.5610, 41999.00
509.7430, 41836.00
510.9240, 39901.00
512.1050, 36506.00
513.2870, 33173.00
514.4670, 30028.00
515.6480, 28032.00
516.8290, 26226.00
518.0090, 25104.00
519.1890, 24353.00
520.3690, 23784.00
521.5490, 23184.00
522.7290, 22807.89
523.9090, 22921.00
525.0880, 22323.00
526.2670, 22391.00
527.4460, 22437.00
528.6250, 22155.00
529.8040, 22283.00
530.9820, 22038.00
532.1600, 22079.00
533.3380, 21990.00
534.5160, 22193.00
535.6940, 21908.00
536.8720, 21756.00
538.0490, 21990.00
539.2270, 21851.00
540.4040, 21816.00
541.5810, 21964.00
542.7570, 21742.00
543.9340, 21839.00
545.1100, 22040.00
546.2870, 22042.00
547.4630, 22047.00
548.6380, 22011.00
549.8140, 21927.00
550.9900, 21912.00
552.1650, 22119.00
553.3400, 21829.00
554.5150, 21980.00
555.6900, 21868.00
556.8650, 22072.00
558.0390, 22133.00
559.2140, 22038.00
560.3880, 22197.00
561.5620, 22081.00
562.7360, 22169.00
563.9090, 22228.00
565.0830, 22106.00
566.2560, 22119.00
567.4290, 22329.00
568.6020, 22200.00
569.7750, 22442.00
570.9470, 22365.00
572.1200, 22485.00
573.2920, 22438.00
574.4640, 22530.00
575.6360, 22776.00
576.8080, 22716.00
577.9790, 22837.00
579.1510, 22900.00
580.3220, 22968.00
581.4930, 23032.00
582.6640, 22918.00
583.8350, 22749.00
585.0050, 22849.00
586.1750, 22813.00
587.3460, 22827.00
588.5160, 22900.00
589.6850, 22861.00
590.8550, 22782.00
592.0250, 22792.00
593.1940, 22626.00
594.3630, 22661.00
595.5320, 22560.00
596.7010, 22748.00
597.8700, 22649.00
599.0380, 22749.00
600.2060, 23000.00
601.3740, 22969.00
602.5420, 22873.00
603.7100, 22843.00
604.8780, 22834.62
606.0450, 22951.00
607.2120, 22843.00
608.3800, 22983.00
609.5460, 22993.00
610.7130, 23015.00
611.8800, 23140.00
613.0460, 23075.00
614.2120, 23232.00
615.3790, 23064.00
616.5440, 23219.00
617.7100, 23369.00
618.8760, 23314.00
620.0410, 23208.00
621.2060, 23240.00
622.3710, 23375.00
623.5360, 23495.00
624.7010, 23357.00
625.8650, 23419.00
627.0300, 23470.38
628.1940, 23546.13
629.3580, 23618.00
630.5220, 23817.00
631.6850, 23947.00
632.8490, 24061.00
634.0120, 23984.00
635.1750, 24047.00
636.3380, 24039.50
637.5010, 24112.00
638.6640, 24062.00
639.8260, 24080.00
640.9890, 24187.00
642.1510, 24007.00
643.3130, 24230.00
644.4750, 24423.00
645.6360, 24503.00
646.7980, 24308.00
647.9590, 24494.00
649.1200, 24346.00
650.2810, 24402.00
651.4420, 24318.00
652.6020, 24437.00
653.7630, 24345.00
654.9230, 24140.00
656.0830, 24368.00
657.2430, 24209.00
658.4030, 24104.00
659.5620, 24049.00
660.7220, 24057.04
661.8810, 24081.88
663.0400, 24185.00
664.1990, 24233.00
665.3580, 24318.00
666.5160, 24397.00
667.6750, 24150.00
668.8330, 24363.00
669.9910, 24181.00
671.1490, 24272.00
672.3070, 24290.68
673.4640, 24219.17
674.6210, 24383.00
675.7790, 24192.00
676.9360, 24361.00
678.0930, 24425.00
679.2490, 24594.00
680.4060, 24497.00
681.5620, 24622.00
682.7180, 24512.00
683.8740, 24584.00
685.0300, 24568.00
686.1860, 24595.10
687.3410, 24627.00
688.4970, 24724.00
689.6520, 24710.00
690.8070, 24833.00
691.9620, 24891.00
693.1160, 24827.00
694.2710, 25065.00
695.4250, 24758.00
696.5790, 24899.00
697.7330, 25007.00
698.8870, 24903.00
700.0410, 24977.00
701.1940, 24834.00
702.3480, 24796.00
703.5010, 25105.00
704.6540, 25103.00
705.8060, 25029.00
706.9590, 25065.00
708.1120, 24937.00
709.2640, 25015.00
710.4160, 25187.00
711.5680, 25221.00
712.7200, 25127.00
713.8710, 25223.00
715.0230, 25186.00
716.1740, 25433.00
717.3250, 25289.00
718.4760, 25565.00
719.6270, 25443.00
720.7780, 25371.00
721.9280, 25490.00
723.0780, 25604.00
724.2280, 25425.00
725.3780, 25529.00
726.5280, 25756.00
727.6780, 25666.00
728.8270, 25697.00
729.9760, 25508.00
731.1250, 25627.00
732.2740, 25559.00
733.4230, 25569.00
734.5720, 25627.00
735.7200, 25721.00
736.8680, 25729.00
738.0160, 25728.00
739.1640, 25864.58
740.3120, 25944.00
741.4600, 26038.00
742.6070, 26047.00
743.7540, 25978.00
744.9010, 26019.00
746.0480, 25918.00
747.1950, 25938.00
748.3420, 26004.81
749.4880, 26022.71
750.6340, 26196.00
751.7800, 26142.00
752.9260, 26269.00
754.0720, 26266.00
755.2180, 26426.84
756.3630, 26629.00
757.5080, 26827.00
758.6530, 26964.00
759.7980, 27258.00
760.9430, 27500.00
762.0880, 27921.00
763.2320, 28128.00
764.3760, 28551.00
765.5200, 28554.00
766.6640, 28406.00
767.8080, 28022.00
768.9510, 27753.00
770.0950, 27650.00
771.2380, 27518.00
772.3810, 27364.00
773.5240, 27348.57
774.6670, 27313.00
775.8090, 27286.00
776.9520, 27258.00
778.0940, 27171.00
779.2360, 27247.00
780.3780, 27178.00
781.5200, 27033.00
782.6610, 26813.00
783.8030, 27077.00
784.9440, 27107.00
786.0850, 27014.00
787.2260, 27191.00
788.3660, 27088.00
789.5070, 27179.00
790.6470, 27003.00
791.7880, 27167.00
792.9280, 27068.00
794.0680, 27242.00
795.2070, 27408.00
796.3470, 27357.00
797.4860, 27054.00
798.6250, 27342.00
799.7650, 27366.00
800.9030, 27166.00
802.0420, 27495.00
803.1810, 27419.00
804.3190, 27397.00
805.4570, 27585.00
806.5950, 27510.00
807.7330, 27591.00
808.8710, 27901.00
810.0090, 28056.00
811.1460, 28303.00
812.2830, 28373.00
813.4200, 28672.00
814.5570, 28992.00
815.6940, 29102.00
816.8300, 29134.00
817.9670, 28842.80
819.1030, 28787.73
820.2390, 28706.17
821.3750, 28599.52
822.5110, 28392.68
823.6460, 28315.32
824.7820, 28186.01
825.9170, 28054.67
827.0520, 27944.00
828.1870, 28144.00
829.3220, 28066.00
830.4560, 28111.00
831.5910, 28158.00
832.7250, 28094.00
833.8590, 28180.00
834.9930, 28075.00
836.1270, 28116.00
837.2600, 28146.00
838.3940, 28341.00
839.5270, 28149.00
840.6600, 28264.00
841.7930, 28218.00
842.9260, 28242.00
844.0580, 28479.00
845.1910, 28380.00
846.3230, 28403.00
847.4550, 28493.00
848.5870, 28345.00
849.7190, 28401.00
850.8510, 28567.00
851.9820, 28414.00
853.1130, 28299.00
854.2440, 28386.00
855.3750, 28642.00
856.5060, 28650.00
857.6370, 28595.00
858.7670, 28563.00
859.8970, 28731.00
861.0280, 28825.00
862.1580, 28790.00
863.2870, 29073.00
864.4170, 28799.00
865.5460, 28855.00
866.6760, 28895.00
867.8050, 28700.00
868.9340, 29045.00
870.0630, 28982.00
871.1910, 28978.00
872.3200, 28988.00
873.4480, 28921.00
874.5760, 28939.00
875.7040, 29017.00
876.8320, 29160.00
877.9600, 29202.00
879.0870, 29243.00
880.2140, 29414.00
881.3420, 29361.21
882.4690, 29111.00
883.5950, 29221.00
884.7220, 29347.00
885.8490, 29061.00
886.9750, 29354.00
888.1010, 29237.00
889.2270, 29434.00
890.3530, 29449.00
891.4790, 29441.00
892.6040, 29483.00
893.7300, 29417.00
894.8550, 29539.00
895.9800, 29452.00
897.1050, 29696.00
898.2290, 29660.04
899.3540, 29657.47
900.4780, 29688.00
901.6030, 29629.00
902.7270, 29596.00
903.8500, 29636.00
904.9740, 29711.00
906.0980, 29746.00
907.2210, 29942.00
908.3440, 29811.00
909.4670, 29968.00
910.5900, 29791.00
911.7130, 29598.00
912.8360, 29939.00
913.9580, 30130.00
915.0800, 29988.00
916.2020, 30205.00
917.3240, 29990.00
918.4460, 30194.00
919.5680, 30272.00
920.6890, 30244.00
921.8100, 30317.00
922.9320, 30175.00
924.0520, 30327.00
925.1730, 30152.00
926.2940, 30341.00
927.4140, 30502.00
928.5350, 30473.00
929.6550, 30538.14
930.7750, 30188.00
931.8950, 30440.00
933.0140, 30428.00
934.1340, 30284.00
935.2530, 30630.00
936.3720, 30554.00
937.4910, 30603.00
938.6100, 30853.00
939.7290, 30634.00
940.8470, 30654.00
941.9650, 30791.00
943.0840, 30635.00
944.2020, 30858.00
945.3200, 30994.00
946.4370, 31040.00
947.5550, 31023.00
948.6720, 30978.00
949.7890, 30965.00
950.9060, 30807.00
952.0230, 31195.00
953.1400, 31202.00
954.2560, 31060.00
955.3730, 30991.00
956.4890, 31234.00
957.6050, 31262.00
958.7210, 31315.00
959.8370, 31371.13
960.9520, 31324.00
962.0680, 31382.00
963.1830, 31387.00
964.2980, 31428.00
965.4130, 31466.00
966.5280, 31831.00
967.6430, 31523.00
968.7570, 31661.00
969.8710, 32021.00
970.9850, 31989.00
972.0990, 31824.00
973.2130, 32227.00
974.3270, 31982.00
975.4400, 32266.00
976.5540, 32613.00
977.6670, 32643.00
978.7800, 32575.00
979.8930, 32576.00
981.0050, 32702.00
982.1180, 32657.00
983.2300, 32611.00
984.3420, 32315.00
985.4540, 32342.00
986.5660, 32149.00
987.6780, 32207.00
988.7890, 32160.00
989.9010, 32189.00
991.0120, 32149.00
992.1230, 32289.00
993.2340, 32180.00
994.3450, 32298.64
995.4550, 32410.00
996.5660, 32451.00
997.6760, 32458.00
998.7860, 32495.00
999.8960, 32492.00
1001.006, 32485.00
1002.115, 32440.00
1003.225, 32509.00
1004.334, 32672.00
1005.443, 32691.00
1006.552, 32662.00
1007.661, 33134.00
1008.770, 32872.00
1009.878, 33145.00
1010.986, 32863.00
1012.095, 33012.00
1013.203, 33116.00
1014.310, 33094.00
1015.418, 33256.00
1016.526, 33305.00
1017.633, 33316.00
1018.740, 33063.00
1019.847, 33146.00
1020.954, 32818.00
1022.061, 33105.00
1023.167, 33325.00
1024.274, 33286.00
1025.380, 33481.00
1026.486, 33380.00
1027.592, 33564.00
1028.698, 33851.00
1029.803, 34007.00
1030.909, 34152.00
1032.014, 34239.23
1033.119, 34282.34
1034.224, 34259.00
1035.329, 34227.00
1036.433, 34142.00
1037.538, 33966.00
1038.642, 33892.00
1039.746, 33749.00
1040.850, 33731.00
1041.954, 33641.00
1043.058, 33855.00
1044.161, 33827.00
1045.265, 33609.00
1046.368, 33631.00
1047.471, 33930.00
1048.574, 33982.00
1049.676, 33833.00
1050.779, 34069.00
1051.881, 33978.00
1052.984, 33650.00
1054.086, 34049.00
1055.188, 33961.00
1056.289, 33736.00
1057.391, 33872.00
1058.492, 33902.00
1059.594, 34047.00
1060.695, 34111.00
1061.796, 34094.00
1062.897, 34040.00
1063.997, 33868.00
1065.098, 33961.44
1066.198, 33923.00
1067.298, 34146.00
1068.398, 34212.00
1069.498, 34460.00
1070.598, 34449.04
1071.697, 34269.00
1072.797, 34410.00
1073.896, 34414.00
1074.995, 34336.00
1076.094, 34489.00
1077.192, 34489.00
1078.291, 34588.41
1079.389, 34675.49
1080.488, 34767.00
1081.586, 34825.00
1082.684, 34808.00
1083.781, 34835.00
1084.879, 34881.00
1085.976, 34987.00
1087.074, 35102.00
1088.171, 35392.00
1089.268, 35545.00
1090.365, 35651.00
1091.461, 35903.00
1092.558, 35955.00
1093.654, 36316.00
1094.750, 36506.00
1095.846, 36828.00
1096.942, 37270.00
1098.038, 37632.00
1099.134, 37660.00
1100.229, 37761.00
1101.324, 37891.00
1102.419, 37410.00
1103.514, 37542.00
1104.609, 37186.00
1105.704, 37257.00
1106.798, 37068.00
1107.892, 36584.00
1108.986, 36425.00
1110.080, 36586.00
1111.174, 36285.00
1112.268, 36542.00
1113.361, 36742.00
1114.455, 36734.00
1115.548, 36574.00
1116.641, 36629.00
1117.734, 36514.00
1118.826, 36409.00
1119.919, 36469.00
1121.011, 36251.00
1122.104, 36153.00
1123.196, 36412.00
1124.288, 36100.00
1125.379, 36381.00
1126.471, 36356.00
1127.562, 36175.00
1128.654, 36018.00
1129.745, 36148.00
1130.836, 36213.00
1131.927, 36185.00
1133.017, 36268.00
1134.108, 36208.00
1135.198, 36100.00
1136.288, 35913.00
1137.378, 36136.00
1138.468, 36229.00
1139.558, 36148.00
1140.647, 36284.00
1141.737, 36268.00
1142.826, 36196.00
1143.915, 36184.00
1145.004, 36291.00
1146.093, 36281.04
1147.181, 36208.00
1148.270, 36379.88
1149.358, 36395.00
1150.446, 36420.00
1151.534, 36374.00
1152.622, 36470.00
1153.710, 36462.98
1154.797, 36517.12
1155.885, 36522.00
1156.972, 36572.00
1158.059, 36615.00
1159.146, 36510.00
1160.232, 36690.00
1161.319, 36643.00
1162.405, 36643.00
1163.492, 36741.28
1164.578, 36863.00
1165.664, 36858.00
1166.749, 36796.00
1167.835, 36844.00
1168.921, 36748.00
1170.006, 36832.94
1171.091, 36857.00
1172.176, 36948.00
1173.261, 36995.00
1174.346, 36984.03
1175.430, 36974.00
1176.514, 37109.00
1177.599, 37076.00
1178.683, 37008.00
1179.767, 37090.00
1180.850, 37029.00
1181.934, 37079.00
1183.017, 37082.31
1184.101, 37231.00
1185.184, 37085.00
1186.267, 37253.00
1187.350, 37253.00
1188.432, 37361.00
1189.515, 37343.00
1190.597, 37379.29
1191.679, 37593.00
1192.761, 37425.00
1193.843, 37482.00
1194.925, 37535.00
1196.006, 37727.00
1197.088, 37634.00
1198.169, 37535.00
1199.250, 37721.00
1200.331, 37742.00
1201.412, 37772.00
1202.493, 37545.00
1203.573, 37802.00
1204.653, 37715.00
1205.734, 37924.00
1206.814, 37794.00
1207.893, 38113.00
1208.973, 37828.00
1210.053, 37853.00
1211.132, 38019.00
1212.211, 38038.00
1213.290, 38212.00
1214.369, 38361.00
1215.448, 38073.00
1216.527, 38158.00
1217.605, 38430.00
1218.683, 38086.00
1219.761, 38120.00
1220.839, 38137.00
1221.917, 38457.00
1222.995, 38401.00
1224.072, 38420.00
1225.150, 38353.00
1226.227, 38359.00
1227.304, 38605.00
1228.381, 38492.00
1229.458, 38558.00
1230.534, 38514.00
1231.611, 38763.00
1232.687, 38682.00
1233.763, 38846.00
1234.839, 38857.00
1235.915, 38694.00
1236.991, 38866.00
1238.066, 38912.00
1239.141, 38771.00
1240.217, 39046.00
1241.292, 38956.00
1242.366, 38799.00
1243.441, 38884.00
1244.516, 38927.00
1245.590, 39312.00
1246.664, 39209.00
1247.739, 39191.00
1248.813, 39032.00
1249.886, 39269.00
1250.960, 39148.00
1252.033, 39177.00
1253.107, 39110.00
1254.180, 39350.00
1255.253, 39137.00
1256.326, 39296.00
1257.399, 39370.00
1258.471, 39272.00
1259.544, 39408.00
1260.616, 39459.00
1261.688, 39393.00
1262.760, 39482.00
1263.832, 39499.61
1264.903, 39693.00
1265.975, 39620.00
1267.046, 39624.00
1268.117, 39739.00
1269.188, 40027.00
1270.259, 39670.00
1271.330, 39563.00
1272.400, 39857.00
1273.471, 39965.00
1274.541, 39771.00
1275.611, 39997.00
1276.681, 39839.00
1277.751, 39773.00
