##NAMES=Albite
##RRUFFID=R040068
##IDEAL CHEMISTRY=NaAlSi_3_O_8_
##LOCALITY=Harding Pegmatite, Dixon, New Mexico, USA
##OWNER=RRUFF
##SOURCE=University of Arizona Mineral Museum
##DESCRIPTION=Tan colored crystal fragment
##STATUS=The identification of this mineral has been confirmed by X-ray diffraction and chemical analysis
##URL=rruff.info/R040068
##MEASURED CHEMISTRY=(Na_0.99_Ca_0.01_)Al_1.00_(Si_0.99_Al_0.01_)_3_O_8_
##PIN_ID=L00690
##ORIENTATION=Laser parallel to (0 1 1). Fiducial mark perpendicular to laser is parallel to a [1 0 0]
74.09800, 8210.000
75.34400, 9333.000
76.59000, 10680.00
77.83600, 11532.00
79.08100, 12527.00
80.32700, 13128.00
81.57200, 11645.00
82.81700, 10312.00
84.06200, 10681.00
85.30600, 11430.00
86.55100, 12184.00
87.79500, 12681.00
89.03900, 12783.00
90.28300, 12566.00
91.52700, 11959.00
92.77000, 11008.00
94.01300, 10343.00
95.25700, 10013.00
96.49900, 9883.000
97.74200, 9643.000
98.98500, 9939.000
100.2270, 9975.000
101.4690, 9849.000
102.7110, 9863.000
103.9530, 9999.000
105.1950, 10234.00
106.4360, 10589.00
107.6780, 10851.00
108.9190, 11345.00
110.1600, 11552.00
111.4000, 12013.00
112.6410, 12644.00
113.8810, 13792.00
115.1210, 14752.00
116.3610, 15038.00
117.6010, 15066.00
118.8410, 15155.00
120.0800, 14666.00
121.3190, 12597.00
122.5580, 11372.00
123.7970, 11116.00
125.0360, 10824.00
126.2740, 10786.00
127.5130, 10655.00
128.7510, 10598.00
129.9890, 10679.00
131.2270, 10673.29
132.4640, 10761.93
133.7010, 10879.00
134.9390, 10995.00
136.1760, 11214.00
137.4120, 11396.00
138.6490, 11676.00
139.8860, 12067.00
141.1220, 12605.00
142.3580, 13169.00
143.5940, 13902.00
144.8300, 14823.00
146.0650, 15331.00
147.3000, 15866.00
148.5360, 16012.00
149.7710, 16279.00
151.0050, 16053.00
152.2400, 16231.00
153.4750, 16180.00
154.7090, 16460.00
155.9430, 16870.00
157.1770, 17469.00
158.4100, 18377.00
159.6440, 19522.00
160.8770, 20990.00
162.1100, 22146.00
163.3430, 22150.00
164.5760, 21921.00
165.8090, 21400.00
167.0410, 20199.00
168.2730, 19420.00
169.5050, 18500.00
170.7370, 18342.00
171.9690, 17947.00
173.2000, 17920.00
174.4320, 17847.00
175.6630, 17669.00
176.8940, 17899.00
178.1250, 18181.00
179.3550, 18998.00
180.5860, 19705.00
181.8160, 20671.00
183.0460, 21731.00
184.2760, 22678.00
185.5050, 23267.00
186.7350, 23434.00
187.9640, 23336.00
189.1930, 22464.00
190.4220, 21621.00
191.6510, 20346.00
192.8790, 18865.00
194.1080, 17974.00
195.3360, 16950.00
196.5640, 16282.00
197.7920, 15694.00
199.0190, 15341.00
200.2470, 15141.00
201.4740, 15252.00
202.7010, 15289.00
203.9280, 15816.00
205.1550, 16052.00
206.3820, 16927.00
207.6080, 17902.00
208.8340, 18293.00
210.0600, 18459.00
211.2860, 18450.00
212.5120, 17798.00
213.7370, 16736.00
214.9620, 15856.00
216.1870, 14789.00
217.4120, 14029.00
218.6370, 13333.00
219.8620, 13074.00
221.0860, 12806.00
222.3100, 12763.00
223.5340, 12563.00
224.7580, 12507.00
225.9820, 12336.00
227.2050, 12249.00
228.4280, 12292.00
229.6510, 12313.00
230.8740, 12234.00
232.0970, 12149.00
233.3190, 12368.00
234.5420, 12428.00
235.7640, 12389.00
236.9860, 12351.00
238.2080, 12488.00
239.4290, 12627.00
240.6510, 12767.00
241.8720, 12767.00
243.0930, 13012.00
244.3140, 13377.00
245.5350, 13697.00
246.7550, 14243.00
247.9760, 14947.00
249.1960, 15820.00
250.4160, 16925.00
251.6360, 17508.00
252.8550, 17963.00
254.0750, 17716.00
255.2940, 16989.00
256.5130, 16058.00
257.7320, 15230.00
258.9510, 14408.00
260.1690, 14126.00
261.3880, 13749.00
262.6060, 13751.00
263.8240, 13827.00
265.0420, 14127.00
266.2600, 14346.00
267.4770, 14902.00
268.6940, 15185.00
269.9110, 15529.00
271.1280, 15712.00
272.3450, 15777.00
273.5620, 15567.00
274.7780, 15398.00
275.9940, 15499.00
277.2100, 15219.00
278.4260, 15467.00
279.6420, 15603.00
280.8570, 16287.00
282.0720, 17011.00
283.2880, 18219.00
284.5020, 19735.00
285.7170, 21938.00
286.9320, 24745.00
288.1460, 28226.00
289.3600, 31602.00
290.5740, 34210.00
291.7880, 35562.00
293.0020, 35147.00
294.2150, 33014.00
295.4290, 29916.00
296.6420, 26161.00
297.8550, 22856.00
299.0680, 20268.00
300.2800, 18598.00
301.4930, 17297.00
302.7050, 16151.00
303.9170, 15528.00
305.1290, 15124.00
306.3410, 15081.00
307.5520, 14594.00
308.7630, 14481.00
309.9750, 14523.00
311.1850, 14530.00
312.3960, 14301.00
313.6070, 14302.00
314.8170, 14312.00
316.0280, 14122.00
317.2380, 14126.00
318.4480, 14165.00
319.6570, 14093.00
320.8670, 14234.00
322.0760, 14571.00
323.2850, 14904.00
324.4940, 15439.00
325.7030, 16421.00
326.9120, 17299.00
328.1200, 18363.00
329.3290, 19269.00
330.5370, 19185.00
331.7450, 19027.00
332.9520, 18145.00
334.1600, 17013.00
335.3670, 16274.00
336.5750, 15502.00
337.7820, 14974.00
338.9880, 14483.00
340.1950, 14279.00
341.4020, 14293.00
342.6080, 14138.00
343.8140, 14144.00
345.0200, 14079.00
346.2260, 14062.00
347.4310, 14015.00
348.6370, 14168.00
349.8420, 14207.00
351.0470, 14280.00
352.2520, 14133.00
353.4570, 14118.00
354.6610, 14037.00
355.8660, 13983.00
357.0700, 13952.00
358.2740, 13866.00
359.4780, 13786.00
360.6810, 13840.00
361.8850, 13919.00
363.0880, 13942.00
364.2910, 13842.00
365.4940, 13848.00
366.6970, 13763.00
367.8990, 13741.00
369.1020, 14001.00
370.3040, 13725.00
371.5060, 13872.00
372.7080, 13972.00
373.9090, 13868.00
375.1110, 14132.00
376.3120, 14037.00
377.5130, 13951.00
378.7140, 14136.00
379.9150, 14000.00
381.1160, 13927.00
382.3160, 14008.00
383.5160, 14091.00
384.7170, 14076.00
385.9160, 14175.00
387.1160, 14104.00
388.3160, 14114.00
389.5150, 14142.00
390.7140, 14190.00
391.9130, 14458.00
393.1120, 14406.00
394.3110, 14602.00
395.5090, 14914.00
396.7080, 14989.00
397.9060, 15428.00
399.1040, 15704.00
400.3010, 15716.00
401.4990, 15766.00
402.6960, 15672.00
403.8940, 15765.00
405.0910, 15872.74
406.2880, 16049.00
407.4840, 16213.00
408.6810, 16354.00
409.8770, 16590.00
411.0730, 16319.00
412.2690, 16050.00
413.4650, 15846.00
414.6610, 15854.00
415.8560, 15842.00
417.0520, 15967.00
418.2470, 15953.00
419.4420, 15862.00
420.6360, 15535.00
421.8310, 15872.00
423.0250, 15974.00
424.2200, 14983.00
425.4140, 14869.00
426.6080, 14952.00
427.8010, 14722.00
428.9950, 14828.00
430.1880, 14760.00
431.3810, 14830.00
432.5740, 14867.00
433.7670, 14839.00
434.9600, 14856.00
436.1520, 14772.00
437.3450, 14806.52
438.5370, 14807.41
439.7290, 14831.00
440.9200, 14891.00
442.1120, 14898.00
443.3030, 15024.00
444.4950, 14920.00
445.6860, 14954.00
446.8770, 15011.00
448.0670, 15216.00
449.2580, 15413.00
450.4480, 15233.00
451.6380, 15465.00
452.8280, 15538.00
454.0180, 15726.00
455.2080, 15833.00
456.3970, 15957.00
457.5870, 16119.00
458.7760, 15991.00
459.9650, 16174.00
461.1540, 16099.00
462.3420, 16169.00
463.5310, 16249.00
464.7190, 16183.00
465.9070, 16373.00
467.0950, 16399.00
468.2830, 16793.00
469.4700, 17088.00
470.6570, 17449.00
471.8450, 17885.00
473.0320, 18720.00
474.2190, 20023.00
475.4050, 21617.00
476.5920, 23654.00
477.7780, 26104.00
478.9640, 28048.00
480.1500, 29084.00
481.3360, 29212.00
482.5220, 28283.00
483.7070, 26209.00
484.8920, 23710.00
486.0770, 22063.00
487.2620, 20558.00
488.4470, 19716.00
489.6320, 19062.00
490.8160, 18715.00
492.0000, 18551.00
493.1840, 18691.00
494.3680, 18733.00
495.5520, 18738.00
496.7350, 19402.00
497.9190, 19997.00
499.1020, 20773.00
500.2850, 22045.00
501.4680, 23932.00
502.6510, 26468.00
503.8330, 30316.00
505.0150, 34939.00
506.1970, 40247.00
507.3790, 44542.00
508.5610, 46809.00
509.7430, 46596.00
510.9240, 43569.00
512.1050, 38951.00
513.2870, 33718.00
514.4670, 29087.00
515.6480, 25944.00
516.8290, 23745.00
518.0090, 21969.00
519.1890, 20690.00
520.3690, 20020.00
521.5490, 19395.00
522.7290, 18882.00
523.9090, 18468.00
525.0880, 18183.00
526.2670, 17985.00
527.4460, 17727.00
528.6250, 17650.00
529.8040, 17597.00
530.9820, 17534.00
532.1600, 17397.00
533.3380, 17290.00
534.5160, 17192.00
535.6940, 17229.00
536.8720, 16944.00
538.0490, 17048.00
539.2270, 16941.00
540.4040, 17046.00
541.5810, 17007.00
542.7570, 17039.00
543.9340, 17001.00
545.1100, 17055.00
546.2870, 16907.00
547.4630, 16965.00
548.6380, 16978.00
549.8140, 16866.00
550.9900, 16952.00
552.1650, 17022.00
553.3400, 16873.00
554.5150, 17074.00
555.6900, 16872.00
556.8650, 17031.00
558.0390, 16955.00
559.2140, 16833.00
560.3880, 17052.00
561.5620, 16968.00
562.7360, 17068.00
563.9090, 16884.00
565.0830, 16867.00
566.2560, 17153.00
567.4290, 17171.00
568.6020, 17281.00
569.7750, 17136.00
570.9470, 17367.00
572.1200, 17469.00
573.2920, 17320.00
574.4640, 17449.00
575.6360, 17461.00
576.8080, 17695.00
577.9790, 17886.00
579.1510, 17838.00
580.3220, 17953.00
581.4930, 18137.00
582.6640, 18073.00
583.8350, 17805.00
585.0050, 17753.00
586.1750, 17847.00
587.3460, 17472.00
588.5160, 17570.00
589.6850, 17401.00
590.8550, 17635.00
592.0250, 17488.00
593.1940, 17513.00
594.3630, 17413.00
595.5320, 17528.00
596.7010, 17425.00
597.8700, 17415.00
599.0380, 17628.00
600.2060, 17549.00
601.3740, 17615.00
602.5420, 17735.00
603.7100, 17585.00
604.8780, 17423.00
606.0450, 17403.00
607.2120, 17562.00
608.3800, 17672.00
609.5460, 17773.00
610.7130, 17794.84
611.8800, 17717.00
613.0460, 17730.00
614.2120, 17731.00
615.3790, 17599.00
616.5440, 17905.00
617.7100, 17886.00
618.8760, 17949.00
620.0410, 17787.00
621.2060, 17937.00
622.3710, 17814.00
623.5360, 17944.00
624.7010, 17992.00
625.8650, 18092.69
627.0300, 18284.00
628.1940, 18409.00
629.3580, 18514.00
630.5220, 18699.00
631.6850, 19093.00
632.8490, 19120.00
634.0120, 19243.00
635.1750, 19380.00
636.3380, 19168.00
637.5010, 19213.00
638.6640, 18988.00
639.8260, 19036.00
640.9890, 18934.00
642.1510, 18919.00
643.3130, 19092.00
644.4750, 18992.00
645.6360, 19301.00
646.7980, 19259.00
647.9590, 19399.00
649.1200, 19449.00
650.2810, 19275.00
651.4420, 19101.00
652.6020, 18980.00
653.7630, 18908.00
654.9230, 18558.00
656.0830, 18676.00
657.2430, 18678.00
658.4030, 18652.00
659.5620, 18400.00
660.7220, 18678.00
661.8810, 18510.00
663.0400, 18701.00
664.1990, 18508.00
665.3580, 18521.00
666.5160, 18368.00
667.6750, 18563.00
668.8330, 18665.00
669.9910, 18604.00
671.1490, 18495.00
672.3070, 18704.00
673.4640, 18493.00
674.6210, 18757.00
675.7790, 18571.00
676.9360, 18749.00
678.0930, 18658.00
679.2490, 18578.00
680.4060, 18630.00
681.5620, 18694.70
682.7180, 18715.42
683.8740, 18892.00
685.0300, 18865.00
686.1860, 18792.00
687.3410, 18895.00
688.4970, 18697.00
689.6520, 18766.00
690.8070, 18887.00
691.9620, 18879.00
693.1160, 18786.00
694.2710, 18949.00
695.4250, 19065.00
696.5790, 18919.00
697.7330, 19049.00
698.8870, 18895.00
700.0410, 18934.00
701.1940, 19020.00
702.3480, 19006.00
703.5010, 18919.00
704.6540, 18933.00
705.8060, 18966.00
706.9590, 19050.00
708.1120, 19115.98
709.2640, 19116.00
710.4160, 19259.00
711.5680, 19335.00
712.7200, 19302.65
713.8710, 19282.00
715.0230, 19262.00
716.1740, 19444.00
717.3250, 19237.00
718.4760, 19391.00
719.6270, 19541.00
720.7780, 19367.00
721.9280, 19344.00
723.0780, 19485.00
724.2280, 19430.00
725.3780, 19590.00
726.5280, 19520.00
727.6780, 19640.00
728.8270, 19369.00
729.9760, 19521.00
731.1250, 19537.00
732.2740, 19544.00
733.4230, 19605.00
734.5720, 19672.00
735.7200, 19664.00
736.8680, 19717.00
738.0160, 19556.00
739.1640, 19704.00
740.3120, 19750.00
741.4600, 19914.00
742.6070, 19795.00
743.7540, 19906.00
744.9010, 19736.00
746.0480, 20007.00
747.1950, 19862.00
748.3420, 19881.00
749.4880, 20010.00
750.6340, 20013.00
751.7800, 20033.00
752.9260, 20283.00
754.0720, 20369.00
755.2180, 20490.14
756.3630, 20540.00
757.5080, 20767.00
758.6530, 20866.00
759.7980, 21078.00
760.9430, 21496.00
762.0880, 21707.00
763.2320, 21996.00
764.3760, 22311.00
765.5200, 22264.00
766.6640, 22117.00
767.8080, 21898.00
768.9510, 21569.00
770.0950, 21480.00
771.2380, 21241.00
772.3810, 21142.00
773.5240, 21063.00
774.6670, 20938.00
775.8090, 21175.00
776.9520, 21059.00
778.0940, 20951.00
779.2360, 20921.00
780.3780, 20824.00
781.5200, 20936.00
782.6610, 20771.00
783.8030, 20797.00
784.9440, 20619.00
786.0850, 20823.00
787.2260, 20782.00
788.3660, 20811.00
789.5070, 20731.00
790.6470, 20649.00
791.7880, 20900.00
792.9280, 20680.00
794.0680, 20673.00
795.2070, 20905.00
796.3470, 20972.00
797.4860, 20853.00
798.6250, 21022.00
799.7650, 21036.00
800.9030, 21140.00
802.0420, 21202.11
803.1810, 21046.00
804.3190, 21286.00
805.4570, 21216.00
806.5950, 21214.00
807.7330, 21467.00
808.8710, 21695.00
810.0090, 21826.00
811.1460, 22219.00
812.2830, 22467.00
813.4200, 22744.00
814.5570, 23002.00
815.6940, 23220.00
816.8300, 23465.00
817.9670, 23397.00
819.1030, 23037.00
820.2390, 22641.00
821.3750, 22219.00
822.5110, 22090.00
823.6460, 21983.00
824.7820, 21857.00
825.9170, 21806.00
827.0520, 21733.00
828.1870, 21730.00
829.3220, 21555.00
830.4560, 21460.00
831.5910, 21733.00
832.7250, 21651.00
833.8590, 21593.00
834.9930, 21607.00
836.1270, 21552.00
837.2600, 21626.00
838.3940, 21508.00
839.5270, 21443.00
840.6600, 21543.00
841.7930, 21762.00
842.9260, 21661.00
844.0580, 21708.00
845.1910, 21747.00
846.3230, 21509.00
847.4550, 21681.00
848.5870, 21807.00
849.7190, 21692.00
850.8510, 21755.00
851.9820, 21658.00
853.1130, 21734.00
854.2440, 21771.00
855.3750, 21867.00
856.5060, 21974.00
857.6370, 21801.00
858.7670, 21916.00
859.8970, 21784.00
861.0280, 22012.00
862.1580, 21962.00
863.2870, 21906.00
864.4170, 21858.00
865.5460, 21834.44
866.6760, 21956.00
867.8050, 21848.00
868.9340, 21996.00
870.0630, 22125.00
871.1910, 21990.00
872.3200, 22012.00
873.4480, 22133.00
874.5760, 22001.00
875.7040, 22173.00
876.8320, 22033.00
877.9600, 22079.00
879.0870, 22187.00
880.2140, 22150.00
881.3420, 22294.00
882.4690, 22351.00
883.5950, 22299.00
884.7220, 22374.00
885.8490, 22532.00
886.9750, 22317.00
888.1010, 22269.00
889.2270, 22393.00
890.3530, 22578.00
891.4790, 22652.00
892.6040, 22554.00
893.7300, 22636.00
894.8550, 22581.00
895.9800, 22763.00
897.1050, 22510.00
898.2290, 22459.00
899.3540, 22553.00
900.4780, 22613.00
901.6030, 22556.00
902.7270, 22581.00
903.8500, 22632.74
904.9740, 22691.00
906.0980, 22748.00
907.2210, 22782.00
908.3440, 22841.00
909.4670, 22974.00
910.5900, 22988.00
911.7130, 22764.00
912.8360, 22915.00
913.9580, 22856.00
915.0800, 22822.00
916.2020, 23043.00
917.3240, 23071.00
918.4460, 23077.00
919.5680, 22975.00
920.6890, 22888.00
921.8100, 23166.00
922.9320, 23023.00
924.0520, 23102.00
925.1730, 23140.00
926.2940, 23173.00
927.4140, 23223.59
928.5350, 23106.00
929.6550, 23262.00
930.7750, 23342.00
931.8950, 23290.00
933.0140, 23099.00
934.1340, 23194.00
935.2530, 23271.00
936.3720, 23537.00
937.4910, 23483.00
938.6100, 23523.00
939.7290, 23556.00
940.8470, 23447.00
941.9650, 23571.00
943.0840, 23342.00
944.2020, 23408.00
945.3200, 23458.00
946.4370, 23641.00
947.5550, 23664.00
948.6720, 23671.00
949.7890, 23595.00
950.9060, 23676.00
952.0230, 23777.00
953.1400, 23713.00
954.2560, 23911.00
955.3730, 23794.00
956.4890, 23802.00
957.6050, 23945.00
958.7210, 23824.00
959.8370, 23968.00
960.9520, 23972.00
962.0680, 24023.00
963.1830, 24041.00
964.2980, 24157.00
965.4130, 24130.00
966.5280, 24335.00
967.6430, 24277.00
968.7570, 24341.00
969.8710, 24546.00
970.9850, 24580.00
972.0990, 24892.00
973.2130, 24920.00
974.3270, 25181.00
975.4400, 25386.00
976.5540, 25428.00
977.6670, 25640.00
978.7800, 25668.94
979.8930, 25721.98
981.0050, 25687.00
982.1180, 25627.00
983.2300, 25513.00
984.3420, 25157.00
985.4540, 25027.00
986.5660, 24951.00
987.6780, 24785.00
988.7890, 24817.00
989.9010, 24699.00
991.0120, 24786.00
992.1230, 24754.00
993.2340, 24800.00
994.3450, 24877.00
995.4550, 24749.00
996.5660, 24772.00
997.6760, 24875.00
998.7860, 24794.00
999.8960, 24973.00
1001.006, 24956.22
1002.115, 25199.00
1003.225, 25030.00
1004.334, 25121.00
1005.443, 25209.00
1006.552, 25236.00
1007.661, 25404.00
1008.770, 25190.00
1009.878, 25280.00
1010.986, 25278.00
1012.095, 25821.00
1013.203, 25771.00
1014.310, 25785.00
1015.418, 25918.00
1016.526, 25863.00
1017.633, 26015.00
1018.740, 25652.00
1019.847, 25810.00
1020.954, 25753.00
1022.061, 25701.00
1023.167, 25829.00
1024.274, 25889.00
1025.380, 26197.00
1026.486, 26166.00
1027.592, 26433.00
1028.698, 26576.00
1029.803, 26785.00
1030.909, 27379.00
1032.014, 27509.00
1033.119, 27650.00
1034.224, 27598.00
1035.329, 27568.00
1036.433, 27419.00
1037.538, 26866.00
1038.642, 26837.00
1039.746, 26555.00
1040.850, 26319.00
1041.954, 26113.00
1043.058, 25991.00
1044.161, 26122.00
1045.265, 26100.00
1046.368, 25946.00
1047.471, 25858.00
1048.574, 25869.00
1049.676, 25785.00
1050.779, 25939.00
1051.881, 25938.00
1052.984, 25849.00
1054.086, 25957.00
1055.188, 25946.84
1056.289, 25859.00
1057.391, 26012.00
1058.492, 25946.00
1059.594, 25923.00
1060.695, 26021.00
1061.796, 26008.00
1062.897, 25952.00
1063.997, 25932.00
1065.098, 25911.00
1066.198, 26172.00
1067.298, 26138.00
1068.398, 26241.00
1069.498, 26125.00
1070.598, 26121.00
1071.697, 26296.00
1072.797, 26411.00
1073.896, 26416.00
1074.995, 26260.00
1076.094, 26245.00
1077.192, 26402.00
1078.291, 26289.00
1079.389, 26472.00
1080.488, 26501.00
1081.586, 26556.00
1082.684, 26681.00
1083.781, 26667.00
1084.879, 26956.00
1085.976, 26682.00
1087.074, 26884.00
1088.171, 27058.00
1089.268, 27042.00
1090.365, 27344.00
1091.461, 27599.00
1092.558, 27795.00
1093.654, 28199.00
1094.750, 28550.00
1095.846, 28856.00
1096.942, 29274.00
1098.038, 29483.00
1099.134, 30011.00
1100.229, 29898.00
1101.324, 30047.00
1102.419, 29567.00
1103.514, 29721.00
1104.609, 29473.75
1105.704, 29018.00
1106.798, 28998.00
1107.892, 28814.00
1108.986, 28384.00
1110.080, 28373.00
1111.174, 28242.00
1112.268, 28370.00
1113.361, 28448.00
1114.455, 28593.00
1115.548, 28509.00
1116.641, 28428.00
1117.734, 28461.00
1118.826, 28397.00
1119.919, 28355.00
1121.011, 28008.00
1122.104, 27927.00
1123.196, 27915.00
1124.288, 27708.00
1125.379, 27654.00
1126.471, 27467.00
1127.562, 27522.00
1128.654, 27545.00
1129.745, 27647.00
1130.836, 27421.00
1131.927, 27352.00
1133.017, 27584.00
1134.108, 27648.00
1135.198, 27408.00
1136.288, 27731.00
1137.378, 27534.00
1138.468, 27603.00
1139.558, 27441.00
1140.647, 27417.00
1141.737, 27589.00
1142.826, 27750.00
1143.915, 27759.06
1145.004, 27853.00
1146.093, 27842.00
1147.181, 27783.00
1148.270, 27780.00
1149.358, 27847.00
1150.446, 27896.00
1151.534, 27917.00
1152.622, 27905.00
1153.710, 27929.00
1154.797, 27931.74
1155.885, 28174.00
1156.972, 27957.00
1158.059, 27988.00
1159.146, 28027.00
1160.232, 27882.00
1161.319, 28064.00
1162.405, 27851.00
1163.492, 28067.00
1164.578, 27905.00
1165.664, 28089.00
1166.749, 28155.00
1167.835, 27881.00
1168.921, 27984.00
1170.006, 28049.00
1171.091, 28174.00
1172.176, 28203.91
1173.261, 28171.00
1174.346, 28265.00
1175.430, 28177.00
1176.514, 28178.00
1177.599, 28300.00
1178.683, 28146.00
1179.767, 28303.00
1180.850, 28128.00
1181.934, 28221.00
1183.017, 28220.00
1184.101, 28156.00
1185.184, 28273.00
1186.267, 28505.00
1187.350, 28368.00
1188.432, 28061.00
1189.515, 28141.00
1190.597, 28366.00
1191.679, 28306.00
1192.761, 28664.00
1193.843, 28601.00
1194.925, 28412.00
1196.006, 28470.00
1197.088, 28645.00
1198.169, 28404.00
1199.250, 28717.00
1200.331, 28458.00
1201.412, 28850.00
1202.493, 28680.00
1203.573, 28554.00
1204.653, 28903.00
1205.734, 28721.00
1206.814, 28872.00
1207.893, 28710.00
1208.973, 28686.00
1210.053, 28835.00
1211.132, 28968.00
1212.211, 29001.00
1213.290, 29063.00
1214.369, 28923.00
1215.448, 29049.00
1216.527, 28963.00
1217.605, 29187.00
1218.683, 28966.00
1219.761, 28898.00
1220.839, 28956.00
1221.917, 29058.00
1222.995, 29104.00
1224.072, 29436.00
1225.150, 29295.00
1226.227, 29191.00
1227.304, 29608.00
1228.381, 29273.00
1229.458, 29004.00
1230.534, 29083.00
1231.611, 29298.00
1232.687, 29321.00
1233.763, 29484.00
1234.839, 29167.00
1235.915, 29480.00
1236.991, 29386.00
1238.066, 29700.00
1239.141, 29408.00
1240.217, 29723.00
1241.292, 29323.00
1242.366, 29576.00
1243.441, 29406.00
1244.516, 29473.00
1245.590, 29712.00
1246.664, 29548.00
1247.739, 29683.00
1248.813, 29676.00
1249.886, 29476.00
1250.960, 29522.00
1252.033, 29539.00
1253.107, 29809.00
1254.180, 29562.00
1255.253, 29857.00
1256.326, 29702.00
1257.399, 29760.00
