##NAMES=Albite
##RRUFFID=R050253
##IDEAL CHEMISTRY=NaAlSi_3_O_8_
##LOCALITY=Madawaska/Faraday mine, Bancroft, Ontario, Canada
##OWNER=RRUFF
##SOURCE=Marcus Origlieri
##DESCRIPTION=Colorless to brown prismatic single crystals
##STATUS=The identification of this mineral has been confirmed by X-ray diffraction and chemical analysis
##URL=rruff.info/R050253
##MEASURED CHEMISTRY=(Na_0.99_Ca_0.01_)Al_1.00_(Si_0.99_Al_0.01_)_3_O_8_
##PIN_ID=L01462
##ORIENTATION=Laser parallel to (1 0 1). Fiducial mark perpendicular to laser is parallel to b [0 1 0]
94.71400, 10636.00
95.94800, 10922.00
97.18200, 10978.00
98.41600, 11280.00
99.64900, 11381.00
100.8830, 11753.00
102.1160, 12131.00
103.3490, 12330.00
104.5820, 12932.00
105.8150, 13619.00
107.0470, 13970.00
108.2800, 14584.00
109.5120, 15634.00
110.7440, 16131.00
111.9760, 16315.00
113.2080, 16190.00
114.4400, 15937.00
115.6710, 15346.00
116.9030, 14724.00
118.1340, 14436.00
119.3650, 14120.00
120.5960, 13839.93
121.8270, 13406.00
123.0580, 13463.00
124.2880, 13485.00
125.5190, 13269.00
126.7490, 13440.00
127.9790, 13485.00
129.2090, 13419.00
130.4390, 13729.00
131.6680, 13876.00
132.8980, 14081.00
134.1270, 14125.00
135.3560, 14429.00
136.5850, 14934.00
137.8140, 15213.00
139.0430, 15674.00
140.2710, 16159.00
141.5000, 16824.00
142.7280, 17449.00
143.9560, 18166.00
145.1840, 18679.00
146.4120, 19064.00
147.6390, 19889.00
148.8670, 20009.00
150.0940, 20345.00
151.3210, 19895.00
152.5490, 19485.00
153.7750, 18722.00
155.0020, 18267.00
156.2290, 17815.00
157.4550, 17764.00
158.6810, 17670.00
159.9080, 18025.00
161.1340, 18229.00
162.3590, 18281.00
163.5850, 18346.00
164.8110, 18377.00
166.0360, 18246.00
167.2610, 18537.00
168.4860, 18626.00
169.7110, 18866.00
170.9360, 19142.00
172.1610, 19288.00
173.3850, 19346.00
174.6100, 19593.00
175.8340, 20174.00
177.0580, 20453.00
178.2820, 21103.00
179.5050, 21421.00
180.7290, 22105.00
181.9520, 22795.00
183.1760, 22806.00
184.3990, 23170.00
185.6220, 23072.00
186.8450, 22625.00
188.0670, 22341.00
189.2900, 21643.00
190.5120, 21150.00
191.7340, 20384.00
192.9560, 19746.00
194.1780, 19508.00
195.4000, 19060.00
196.6220, 19135.00
197.8430, 19191.00
199.0640, 19271.00
200.2860, 19856.00
201.5070, 20486.00
202.7270, 21194.00
203.9480, 21703.00
205.1690, 22428.00
206.3890, 23068.00
207.6090, 23926.00
208.8290, 23766.00
210.0490, 23067.00
211.2690, 22013.00
212.4890, 21095.00
213.7080, 19837.00
214.9280, 18913.00
216.1470, 18162.00
217.3660, 17464.00
218.5850, 16934.70
219.8030, 16570.00
221.0220, 16193.00
222.2400, 16011.00
223.4590, 15888.00
224.6770, 15743.00
225.8950, 15816.00
227.1120, 15513.00
228.3300, 15599.00
229.5480, 15723.00
230.7650, 15524.00
231.9820, 15496.00
233.1990, 15465.00
234.4160, 15439.00
235.6330, 15476.00
236.8490, 15579.00
238.0660, 15579.00
239.2820, 15732.00
240.4980, 15658.00
241.7140, 15728.00
242.9300, 15951.00
244.1460, 16057.00
245.3610, 16220.00
246.5770, 16291.00
247.7920, 16490.00
249.0070, 16395.00
250.2220, 16521.00
251.4370, 16762.00
252.6510, 16730.00
253.8660, 16941.00
255.0800, 16575.00
256.2940, 16654.00
257.5080, 16784.00
258.7220, 16872.00
259.9360, 17390.00
261.1490, 17499.00
262.3630, 17802.00
263.5760, 17896.00
264.7890, 18350.00
266.0020, 18743.00
267.2150, 19055.00
268.4270, 19371.00
269.6400, 19159.00
270.8520, 19234.00
272.0640, 18934.00
273.2760, 18906.00
274.4880, 18756.00
275.7000, 18723.00
276.9120, 18715.00
278.1230, 19134.00
279.3340, 19431.00
280.5450, 20382.00
281.7560, 21480.00
282.9670, 22360.00
284.1780, 24062.00
285.3880, 25295.00
286.5980, 26934.00
287.8090, 28624.00
289.0190, 29710.00
290.2290, 30038.00
291.4380, 28957.00
292.6480, 27903.00
293.8570, 26571.00
295.0670, 24701.00
296.2760, 23069.00
297.4850, 21683.00
298.6930, 20568.83
299.9020, 19577.00
301.1110, 19010.00
302.3190, 18631.00
303.5270, 18317.00
304.7350, 17932.00
305.9430, 17912.00
307.1510, 17716.00
308.3580, 17445.00
309.5660, 17501.00
310.7730, 17594.00
311.9800, 17436.00
313.1870, 17296.00
314.3940, 17364.00
315.6010, 17349.00
316.8070, 17573.00
318.0130, 17601.00
319.2200, 17569.00
320.4260, 17847.00
321.6310, 18118.00
322.8370, 18124.00
324.0430, 18330.00
325.2480, 18664.00
326.4540, 19025.00
327.6590, 19015.00
328.8640, 18808.00
330.0680, 18796.00
331.2730, 18394.00
332.4780, 18300.00
333.6820, 18070.00
334.8860, 17917.00
336.0900, 17760.00
337.2940, 17433.00
338.4980, 17451.00
339.7010, 17503.00
340.9050, 17252.00
342.1080, 17470.00
343.3110, 17274.00
344.5140, 17407.00
345.7170, 17365.00
346.9200, 17586.00
348.1220, 17311.00
349.3240, 17502.00
350.5270, 17536.00
351.7290, 17462.00
352.9310, 17311.00
354.1320, 17452.00
355.3340, 17464.00
356.5350, 17424.00
357.7370, 17404.00
358.9380, 17574.00
360.1390, 17708.00
361.3400, 17588.00
362.5400, 17622.00
363.7410, 17495.00
364.9410, 17705.00
366.1410, 17445.00
367.3410, 17611.00
368.5410, 17674.00
369.7410, 17629.00
370.9400, 17728.00
372.1400, 17655.00
373.3390, 17810.00
374.5380, 17768.00
375.7370, 17906.00
376.9360, 17766.00
378.1350, 17800.00
379.3330, 17905.00
380.5310, 17776.00
381.7300, 17707.00
382.9280, 17969.00
384.1260, 18073.00
385.3230, 18100.00
386.5210, 18183.19
387.7180, 18205.00
388.9160, 18202.00
390.1130, 18376.00
391.3100, 18443.00
392.5060, 18438.00
393.7030, 18578.00
394.9000, 18571.00
396.0960, 18754.00
397.2920, 18845.00
398.4880, 19032.00
399.6840, 19123.00
400.8800, 19338.00
402.0750, 19231.00
403.2710, 19462.00
404.4660, 19569.00
405.6610, 19963.00
406.8560, 20268.00
408.0510, 20103.00
409.2450, 20426.00
410.4400, 20416.00
411.6340, 20152.00
412.8280, 20408.00
414.0220, 20791.00
415.2160, 20993.00
416.4100, 20955.00
417.6030, 20564.00
418.7970, 20101.00
419.9900, 19788.00
421.1830, 19467.00
422.3760, 19486.00
423.5690, 19234.00
424.7610, 19152.00
425.9540, 19144.00
427.1460, 19108.00
428.3380, 19119.00
429.5300, 19110.00
430.7220, 19095.00
431.9140, 19152.00
433.1050, 19290.00
434.2970, 18967.00
435.4880, 19472.00
436.6790, 19301.00
437.8700, 19601.00
439.0610, 19699.00
440.2510, 19688.00
441.4420, 19945.00
442.6320, 19973.00
443.8220, 20129.00
445.0120, 20496.00
446.2020, 20954.00
447.3910, 21492.00
448.5810, 21958.00
449.7700, 22669.00
450.9600, 23146.00
452.1490, 24003.00
453.3370, 24757.00
454.5260, 25380.00
455.7150, 25645.00
456.9030, 25713.00
458.0910, 25224.00
459.2800, 24806.00
460.4670, 24467.00
461.6550, 24239.00
462.8430, 24345.00
464.0300, 24197.00
465.2180, 25199.00
466.4050, 25922.00
467.5920, 27500.00
468.7790, 29532.00
469.9650, 32141.00
471.1520, 35307.00
472.3380, 39074.00
473.5250, 42384.00
474.7110, 46863.00
475.8970, 51361.00
477.0820, 54226.00
478.2680, 55086.00
479.4540, 52817.00
480.6390, 48945.00
481.8240, 44662.00
483.0090, 40197.00
484.1940, 35737.00
485.3780, 32707.00
486.5630, 30007.00
487.7470, 28111.00
488.9320, 27182.00
490.1160, 26550.00
491.3000, 26457.00
492.4830, 26216.00
493.6670, 27112.00
494.8500, 27915.00
496.0340, 29271.00
497.2170, 31465.00
498.4000, 34635.00
499.5820, 38414.00
500.7650, 42617.00
501.9480, 47188.00
503.1300, 52038.00
504.3120, 57067.00
505.4940, 60809.00
506.6760, 61600.00
507.8580, 60204.00
509.0390, 55706.00
510.2210, 50625.00
511.4020, 45221.00
512.5830, 40338.00
513.7640, 36448.00
514.9450, 33067.00
516.1250, 30277.00
517.3060, 28274.00
518.4860, 27091.00
519.6660, 26029.00
520.8460, 25417.00
522.0260, 24706.00
523.2060, 24251.00
524.3850, 24129.00
525.5650, 23654.00
526.7440, 23280.00
527.9230, 23247.00
529.1020, 22920.00
530.2810, 22888.00
531.4590, 22533.00
532.6380, 22470.00
533.8160, 22399.00
534.9940, 22249.00
536.1720, 22431.00
537.3500, 22223.00
538.5270, 22085.00
539.7050, 22108.00
540.8820, 21901.00
542.0590, 22142.00
543.2360, 21890.00
544.4130, 21955.00
545.5900, 22005.00
546.7660, 21938.00
547.9430, 21823.00
549.1190, 22015.00
550.2950, 21735.00
551.4710, 21842.00
552.6470, 21735.00
553.8220, 21915.00
554.9980, 21962.00
556.1730, 21913.00
557.3480, 21858.00
558.5230, 21775.00
559.6980, 21805.00
560.8730, 21783.80
562.0470, 21816.04
563.2220, 21846.00
564.3960, 21943.00
565.5700, 22032.00
566.7440, 22151.00
567.9170, 22154.00
569.0910, 22254.00
570.2640, 22368.87
571.4380, 22456.51
572.6110, 22633.00
573.7840, 22725.00
574.9570, 22879.00
576.1290, 23060.00
577.3020, 23042.00
578.4740, 22980.00
579.6460, 23015.00
580.8180, 22805.00
581.9900, 22668.00
583.1620, 22728.00
584.3330, 22492.00
585.5040, 22559.00
586.6760, 22261.00
587.8470, 22380.00
589.0180, 22057.00
590.1880, 22109.00
591.3590, 22190.00
592.5290, 22305.00
593.7000, 22285.00
594.8700, 22185.00
596.0400, 22224.00
597.2090, 21946.00
598.3790, 21980.00
599.5490, 22236.00
600.7180, 22049.00
601.8870, 22388.00
603.0560, 22346.00
604.2250, 22180.00
605.3940, 22155.00
606.5620, 22243.00
607.7300, 22318.00
608.8990, 22457.00
610.0670, 22443.00
611.2350, 22514.87
612.4020, 22495.00
613.5700, 22534.00
614.7370, 22560.00
615.9050, 22490.00
617.0720, 22459.00
618.2390, 22549.00
619.4060, 22496.00
620.5720, 22690.00
621.7390, 22593.00
622.9050, 22900.00
624.0710, 22667.00
625.2370, 22749.00
626.4030, 22829.00
627.5690, 22848.00
628.7340, 22929.65
629.9000, 23005.00
631.0650, 22979.00
632.2300, 23118.00
633.3950, 23004.00
634.5600, 23052.00
635.7240, 23256.00
636.8890, 23186.00
638.0530, 23137.00
639.2170, 23209.00
640.3810, 23494.00
641.5450, 23477.00
642.7080, 23743.00
643.8720, 23768.00
645.0350, 23585.00
646.1980, 23587.00
647.3610, 23882.00
648.5240, 23660.00
649.6870, 23652.00
650.8490, 23798.00
652.0120, 23616.00
653.1740, 23500.00
654.3360, 23393.00
655.4980, 23362.00
656.6600, 23259.00
657.8210, 23451.00
658.9830, 23396.00
660.1440, 23384.00
661.3050, 23534.00
662.4660, 23521.00
663.6270, 23401.00
664.7870, 23364.00
665.9480, 23352.08
667.1080, 23609.00
668.2680, 23391.00
669.4280, 23442.00
670.5880, 23563.00
671.7480, 23469.00
672.9070, 23597.00
674.0670, 23639.00
675.2260, 23747.00
676.3850, 23530.00
677.5440, 23689.00
678.7030, 23347.00
679.8610, 23406.00
681.0200, 23610.00
682.1780, 23808.00
683.3360, 23641.00
684.4940, 23637.00
685.6520, 23617.00
686.8090, 23480.00
687.9670, 23751.00
689.1240, 23665.00
690.2810, 23864.00
691.4380, 23794.00
692.5950, 23551.00
693.7520, 24043.00
694.9080, 23675.00
696.0650, 23786.00
697.2210, 23768.00
698.3770, 23927.00
699.5330, 23870.00
700.6880, 23904.00
701.8440, 23918.00
702.9990, 23872.00
704.1550, 23987.00
705.3100, 23782.00
706.4650, 23989.00
707.6190, 24033.00
708.7740, 23879.00
709.9290, 24191.00
711.0830, 24191.00
712.2370, 24326.00
713.3910, 24100.00
714.5450, 24321.00
715.6980, 24132.00
716.8520, 24262.00
718.0050, 24323.00
719.1580, 24375.00
720.3110, 24489.00
721.4640, 24501.80
722.6170, 24399.00
723.7700, 24547.00
724.9220, 24571.00
726.0740, 24571.00
727.2260, 24668.00
728.3780, 24501.00
729.5300, 24461.00
730.6810, 24461.00
731.8330, 24826.00
732.9840, 24837.00
734.1350, 24849.00
735.2860, 24848.00
736.4370, 24898.00
737.5880, 24920.00
738.7380, 24867.00
739.8880, 24962.00
741.0390, 25052.00
742.1890, 25040.00
743.3380, 25166.00
744.4880, 25407.00
745.6380, 25319.00
746.7870, 25543.00
747.9360, 25661.00
749.0850, 25781.00
750.2340, 25893.00
751.3830, 26350.00
752.5310, 26708.00
753.6800, 27116.00
754.8280, 27753.00
755.9760, 28664.00
757.1240, 29495.00
758.2720, 30676.00
759.4190, 32001.00
760.5670, 33052.00
761.7140, 33830.00
762.8610, 34209.00
764.0080, 33764.00
765.1550, 33157.00
766.3020, 31931.00
767.4480, 30730.00
768.5950, 29762.00
769.7410, 28954.00
770.8870, 28305.00
772.0330, 28057.00
773.1780, 28010.00
774.3240, 27650.00
775.4690, 27451.00
776.6140, 27315.00
777.7590, 26895.00
778.9040, 26814.00
780.0490, 26461.00
781.1940, 26396.00
782.3380, 26216.00
783.4820, 26422.00
784.6260, 26349.00
785.7700, 26443.00
786.9140, 26215.00
788.0580, 26070.00
789.2010, 26157.00
790.3450, 26271.00
791.4880, 26078.00
792.6310, 26212.00
793.7730, 26368.00
794.9160, 26402.00
796.0590, 26526.00
797.2010, 26427.00
798.3430, 26513.00
799.4850, 26607.12
800.6270, 26649.00
801.7690, 26863.00
802.9100, 27115.00
804.0520, 27320.00
805.1930, 27879.00
806.3340, 28551.00
807.4750, 29044.00
808.6160, 29831.00
809.7560, 30932.00
810.8970, 31908.00
812.0370, 32500.00
813.1770, 33651.00
814.3170, 33986.00
815.4570, 33692.00
816.5960, 33042.00
817.7360, 32271.00
818.8750, 31373.00
820.0140, 30149.00
821.1530, 29077.00
822.2920, 28746.00
823.4310, 28244.00
824.5690, 28035.00
825.7070, 27871.00
826.8460, 27552.00
827.9840, 27295.00
829.1220, 27023.00
830.2590, 27184.00
831.3970, 27175.00
832.5340, 27243.00
833.6710, 27106.00
834.8080, 27064.00
835.9450, 27050.00
837.0820, 27137.00
838.2190, 27042.00
839.3550, 27018.00
840.4910, 27115.00
841.6270, 26874.00
842.7630, 26849.00
843.8990, 27131.00
845.0350, 27140.00
846.1700, 27092.00
847.3060, 26922.00
848.4410, 26879.00
849.5760, 27009.00
850.7100, 27129.00
851.8450, 27053.00
852.9800, 27236.00
854.1140, 27172.00
855.2480, 27068.00
856.3820, 27017.00
857.5160, 27219.00
858.6500, 27085.00
859.7830, 27068.00
860.9170, 27313.00
862.0500, 27055.00
863.1830, 27098.00
864.3160, 27362.00
865.4480, 27451.00
866.5810, 27235.00
867.7130, 27349.00
868.8460, 27300.00
869.9780, 27386.00
871.1100, 27510.00
872.2410, 27338.00
873.3730, 27438.00
874.5050, 27555.00
875.6360, 27441.00
876.7670, 27518.00
877.8980, 27487.00
879.0290, 27583.00
880.1590, 27497.00
881.2900, 27533.00
882.4200, 27653.00
883.5500, 27720.00
884.6800, 27639.00
885.8100, 27659.00
886.9400, 27662.32
888.0690, 27541.00
889.1990, 27678.00
890.3280, 27696.00
891.4570, 27730.00
892.5860, 27866.00
893.7140, 27881.00
894.8430, 27985.00
895.9710, 28030.00
897.1000, 27854.00
898.2280, 28009.00
899.3560, 27947.00
900.4830, 27973.00
901.6110, 28064.00
902.7380, 28135.00
903.8660, 28179.64
904.9930, 28204.89
906.1200, 28272.00
907.2460, 28198.00
908.3730, 28204.00
909.5000, 28173.00
910.6260, 28493.00
911.7520, 28397.00
912.8780, 28443.00
914.0040, 28227.00
915.1290, 28619.00
916.2550, 28472.00
917.3800, 28442.00
918.5050, 28556.00
919.6300, 28524.00
920.7550, 28198.00
921.8800, 28679.00
923.0040, 28530.00
924.1290, 28517.00
925.2530, 28843.00
926.3770, 28648.00
927.5010, 28723.00
928.6250, 28677.00
929.7480, 28580.00
930.8720, 28853.00
931.9950, 28788.00
933.1180, 28681.00
934.2410, 28792.00
935.3640, 29148.00
936.4860, 29088.00
937.6090, 28985.00
938.7310, 28702.00
939.8530, 28870.00
940.9750, 29022.00
942.0970, 29117.00
943.2180, 29098.00
944.3400, 29153.00
945.4610, 29231.00
946.5820, 29311.00
947.7030, 29394.00
948.8240, 29526.00
949.9450, 29481.00
951.0650, 29480.00
952.1860, 29644.00
953.3060, 29596.00
954.4260, 29879.00
955.5460, 29655.00
956.6650, 29859.00
957.7850, 29788.00
958.9040, 29597.00
960.0230, 29797.00
961.1420, 29886.00
962.2610, 29784.00
963.3800, 29776.00
964.4990, 29845.00
965.6170, 29834.00
966.7350, 29702.00
967.8530, 29785.00
968.9710, 29928.00
970.0890, 29761.00
971.2070, 30138.00
972.3240, 30202.00
973.4410, 30175.00
974.5580, 30076.00
975.6750, 30383.00
976.7920, 30443.00
977.9090, 30354.00
979.0250, 30223.00
980.1410, 30419.00
981.2580, 30285.00
982.3740, 30399.00
983.4890, 30399.00
984.6050, 30406.00
985.7200, 30192.00
986.8360, 30373.00
987.9510, 30388.00
989.0660, 30163.00
990.1810, 30450.00
991.2950, 30575.00
992.4100, 30549.00
993.5240, 30474.00
994.6390, 30728.00
995.7530, 30674.00
996.8660, 30598.00
997.9800, 30961.00
999.0940, 31001.00
1000.207, 30977.00
1001.320, 31156.00
1002.433, 31435.00
1003.546, 31418.00
1004.659, 31425.00
1005.772, 31742.00
1006.884, 31618.00
1007.996, 31572.00
1009.108, 31756.00
1010.220, 31988.00
1011.332, 31922.00
1012.444, 31878.00
1013.555, 31955.51
1014.666, 31988.00
1015.777, 31941.00
1016.888, 31798.00
1017.999, 31728.00
1019.110, 31541.00
1020.220, 31455.00
1021.331, 31431.00
1022.441, 31287.00
1023.551, 31528.00
1024.661, 31399.00
1025.770, 31262.00
1026.880, 31600.00
1027.989, 31465.00
1029.098, 31664.00
1030.207, 31624.00
1031.316, 31673.00
1032.425, 31681.00
1033.533, 31772.00
1034.642, 31646.00
1035.750, 31525.00
1036.858, 31645.00
1037.966, 31617.00
1039.073, 31640.00
1040.181, 31733.00
1041.288, 31858.00
1042.396, 31882.00
1043.503, 31894.00
1044.610, 31964.64
1045.716, 31994.00
1046.823, 32039.00
1047.929, 32062.00
1049.036, 32092.38
1050.142, 32045.00
1051.248, 32053.00
1052.353, 31996.00
1053.459, 31964.00
1054.564, 32020.92
1055.670, 31982.00
1056.775, 32108.00
1057.880, 32018.00
1058.985, 31983.00
1060.089, 31906.00
1061.194, 32008.00
1062.298, 32018.12
1063.402, 32016.00
1064.506, 32149.00
1065.610, 32124.00
1066.713, 32147.00
1067.817, 32298.00
1068.920, 32102.00
1070.023, 32613.00
1071.126, 32452.00
1072.229, 32483.00
1073.332, 32648.00
1074.435, 32763.00
1075.537, 32757.00
1076.639, 32891.52
1077.741, 32844.00
1078.843, 33086.00
1079.945, 33161.00
1081.046, 33351.00
1082.148, 33410.00
1083.249, 33578.00
1084.350, 33737.00
1085.451, 34066.00
1086.551, 34569.00
1087.652, 34777.00
1088.752, 35129.00
1089.853, 35818.00
1090.953, 36458.00
1092.053, 37240.00
1093.152, 38136.00
1094.252, 39235.00
1095.351, 40338.00
1096.451, 40894.00
1097.550, 41521.92
1098.649, 42241.00
1099.748, 41939.00
1100.846, 41736.00
1101.945, 41219.00
1103.043, 40374.00
1104.141, 39815.00
1105.239, 39044.00
1106.337, 38522.00
1107.434, 37989.00
1108.532, 37737.00
1109.629, 37565.00
1110.726, 37258.00
1111.823, 37177.00
1112.920, 37010.00
1114.017, 37128.00
1115.113, 36898.00
1116.210, 36786.00
1117.306, 36685.00
1118.402, 36579.00
1119.498, 36058.00
1120.593, 35455.00
1121.689, 35579.00
1122.784, 35232.00
1123.879, 35122.00
1124.974, 34876.00
1126.069, 34686.00
1127.164, 34521.00
1128.259, 34170.00
1129.353, 34130.00
1130.447, 34056.00
1131.541, 34031.00
1132.635, 33942.01
1133.729, 33985.00
1134.822, 33770.00
1135.916, 33793.00
1137.009, 33707.75
1138.102, 33802.00
1139.195, 33750.00
1140.288, 33764.00
1141.380, 33749.00
1142.473, 33779.11
1143.565, 33810.57
1144.657, 33867.00
1145.749, 33932.00
1146.841, 33980.00
1147.932, 34111.00
1149.024, 34303.00
1150.115, 34233.00
1151.206, 34327.00
1152.297, 34000.00
1153.388, 34328.00
1154.479, 34277.00
1155.569, 33995.00
1156.659, 34014.00
1157.750, 34039.00
1158.839, 34254.00
1159.929, 34088.00
1161.019, 34188.00
1162.108, 34041.00
1163.198, 34094.00
1164.287, 34095.00
1165.376, 34077.00
1166.465, 34235.00
1167.553, 34180.00
1168.642, 34393.00
1169.730, 34110.00
1170.818, 34170.00
1171.906, 34193.00
1172.994, 34321.00
1174.082, 34426.00
1175.170, 34309.00
1176.257, 34232.00
1177.344, 34270.00
1178.431, 34233.35
1179.518, 34482.00
1180.605, 34286.00
1181.691, 34491.00
1182.778, 34541.00
1183.864, 34341.00
1184.950, 34650.00
1186.036, 34443.00
1187.122, 34477.00
1188.207, 34673.00
1189.292, 34652.00
1190.378, 34542.00
1191.463, 34548.00
1192.548, 34654.00
1193.632, 34848.00
1194.717, 34809.00
1195.801, 34902.00
1196.886, 34827.00
1197.970, 34881.04
1199.054, 34956.00
1200.137, 34899.00
1201.221, 34849.00
1202.305, 34757.00
1203.388, 34762.00
1204.471, 34820.36
1205.554, 35061.00
1206.637, 35017.00
1207.719, 35079.00
1208.802, 35170.00
1209.884, 35203.00
1210.966, 35034.00
1212.048, 34914.00
1213.130, 35147.00
1214.212, 35304.00
1215.293, 35424.00
1216.374, 35482.73
1217.456, 35498.49
1218.536, 35480.00
1219.617, 35433.00
1220.698, 35390.00
1221.778, 35355.00
1222.859, 35310.00
1223.939, 35303.82
1225.019, 35456.00
1226.099, 35390.00
1227.178, 35353.00
1228.258, 35593.00
1229.337, 35594.00
1230.417, 35341.00
1231.496, 35447.00
1232.574, 35468.00
1233.653, 35780.00
1234.732, 35559.00
1235.810, 35557.00
1236.888, 35506.00
1237.966, 35684.00
1239.044, 35739.00
1240.122, 35790.00
1241.199, 35762.00
1242.277, 35819.00
1243.354, 35953.00
1244.431, 36188.00
1245.508, 35903.00
1246.585, 36088.00
1247.661, 36099.00
1248.738, 36021.00
1249.814, 35977.00
1250.890, 36026.00
1251.966, 35927.00
1253.042, 35960.00
1254.117, 36177.00
1255.193, 36074.00
1256.268, 36288.00
1257.343, 36273.00
1258.418, 36234.00
1259.493, 36250.00
1260.567, 36306.00
1261.642, 36306.85
1262.716, 36430.00
1263.790, 36322.00
1264.864, 36584.00
1265.938, 36506.00
1267.011, 36536.00
1268.085, 36628.00
1269.158, 36391.00
1270.231, 36703.00
1271.304, 36643.00
1272.377, 36577.00
1273.450, 36518.00
1274.522, 36647.00
