##NAMES=Albite
##RRUFFID=R050402
##IDEAL CHEMISTRY=NaAlSi_3_O_8_
##LOCALITY=Urbano mine, Golconda District, Brazil
##OWNER=RRUFF
##SOURCE=Bob Downs
##DESCRIPTION=Colorless tabular single crystals associated with fluorapatite R050401
##STATUS=The identification of this mineral has been confirmed by X-ray diffraction and chemical analysis
##URL=rruff.info/R050402
##MEASURED CHEMISTRY=Na_1.00_Al_1.00_Si_3.00_O_8_
##PIN_ID=M00068
##ORIENTATION=Laser parallel to a* (1 0 0). Fiducial mark perpendicular to laser is parallel to b [0 1 0]
86.07200, 4312.000
87.30800, 4520.000
88.54200, 4462.000
89.77700, 4439.000
91.01200, 4467.000
92.24600, 4507.000
93.48000, 4568.000
94.71400, 4644.000
95.94800, 4616.000
97.18200, 4811.000
98.41600, 4956.000
99.64900, 5033.000
100.8830, 5349.000
102.1160, 5590.000
103.3490, 5899.000
104.5820, 6373.000
105.8150, 6727.000
107.0470, 7378.000
108.2800, 8189.000
109.5120, 9182.000
110.7440, 10066.00
111.9760, 10601.00
113.2080, 10759.00
114.4400, 10147.00
115.6710, 9198.000
116.9030, 8220.000
118.1340, 7469.000
119.3650, 6715.000
120.5960, 6212.000
121.8270, 5996.000
123.0580, 5859.000
124.2880, 5891.000
125.5190, 5811.000
126.7490, 5710.000
127.9790, 5808.000
129.2090, 5806.000
130.4390, 5912.000
131.6680, 5996.243
132.8980, 5985.000
134.1270, 6237.000
135.3560, 6351.000
136.5850, 6552.000
137.8140, 6829.000
139.0430, 7203.000
140.2710, 7588.000
141.5000, 8102.000
142.7280, 8429.000
143.9560, 8589.000
145.1840, 8555.000
146.4120, 8537.000
147.6390, 8541.000
148.8670, 8605.000
150.0940, 8616.910
151.3210, 8732.000
152.5490, 8675.000
153.7750, 8710.000
155.0020, 8681.000
156.2290, 8814.000
157.4550, 8993.000
158.6810, 9304.000
159.9080, 9747.000
161.1340, 9974.000
162.3590, 10328.00
163.5850, 10363.00
164.8110, 10614.00
166.0360, 10666.00
167.2610, 10950.00
168.4860, 11429.00
169.7110, 11613.00
170.9360, 11350.00
172.1610, 10717.00
173.3850, 10032.00
174.6100, 9637.000
175.8340, 9334.000
177.0580, 9200.000
178.2820, 9215.000
179.5050, 9329.000
180.7290, 9526.000
181.9520, 9674.000
183.1760, 9897.000
184.3990, 9991.000
185.6220, 9920.000
186.8450, 9813.000
188.0670, 9553.000
189.2900, 9403.000
190.5120, 9331.000
191.7340, 9058.000
192.9560, 8930.000
194.1780, 8732.000
195.4000, 8772.000
196.6220, 8773.000
197.8430, 8779.000
199.0640, 8919.000
200.2860, 9122.000
201.5070, 9322.000
202.7270, 9734.000
203.9480, 10084.00
205.1690, 10441.00
206.3890, 10906.00
207.6090, 11055.00
208.8290, 11192.00
210.0490, 10769.00
211.2690, 10192.00
212.4890, 9486.000
213.7080, 8916.000
214.9280, 8427.000
216.1470, 7914.000
217.3660, 7602.000
218.5850, 7564.000
219.8030, 7329.000
221.0220, 7240.000
222.2400, 7163.000
223.4590, 7183.000
224.6770, 7121.000
225.8950, 7119.000
227.1120, 7131.987
228.3300, 7226.000
229.5480, 7167.000
230.7650, 7206.000
231.9820, 7226.000
233.1990, 7189.000
234.4160, 7241.000
235.6330, 7335.000
236.8490, 7413.000
238.0660, 7432.000
239.2820, 7514.000
240.4980, 7658.000
241.7140, 7792.000
242.9300, 7921.000
244.1460, 8124.000
245.3610, 8298.000
246.5770, 8673.000
247.7920, 9077.000
249.0070, 9545.000
250.2220, 9774.000
251.4370, 9913.000
252.6510, 9742.000
253.8660, 9488.000
255.0800, 9104.000
256.2940, 8915.000
257.5080, 8780.000
258.7220, 8644.000
259.9360, 8717.000
261.1490, 8937.000
262.3630, 9088.000
263.5760, 9343.000
264.7890, 9748.000
266.0020, 10042.00
267.2150, 10507.00
268.4270, 10723.00
269.6400, 10750.00
270.8520, 10707.00
272.0640, 10505.00
273.2760, 10258.00
274.4880, 9977.000
275.7000, 9874.000
276.9120, 9911.000
278.1230, 10053.00
279.3340, 10356.00
280.5450, 10961.00
281.7560, 11485.00
282.9670, 11990.00
284.1780, 13101.00
285.3880, 14087.00
286.5980, 15470.00
287.8090, 16853.00
289.0190, 17781.00
290.2290, 18181.00
291.4380, 17706.00
292.6480, 16340.00
293.8570, 14872.00
295.0670, 13465.00
296.2760, 12252.00
297.4850, 11379.00
298.6930, 10683.00
299.9020, 10135.00
301.1110, 9764.000
302.3190, 9462.000
303.5270, 9297.000
304.7350, 9255.000
305.9430, 9277.000
307.1510, 9103.000
308.3580, 9122.000
309.5660, 9109.000
310.7730, 8927.000
311.9800, 8972.000
313.1870, 8967.000
314.3940, 8943.000
315.6010, 8812.000
316.8070, 8968.000
318.0130, 8970.000
319.2200, 9040.000
320.4260, 9174.000
321.6310, 9456.000
322.8370, 9559.000
324.0430, 9865.000
325.2480, 10348.00
326.4540, 10525.00
327.6590, 10884.00
328.8640, 10857.00
330.0680, 10594.00
331.2730, 10280.00
332.4780, 10006.00
333.6820, 9627.000
334.8860, 9301.000
336.0900, 9334.000
337.2940, 9202.000
338.4980, 9204.000
339.7010, 9164.000
340.9050, 9173.000
342.1080, 9150.000
343.3110, 9161.000
344.5140, 9110.000
345.7170, 9100.000
346.9200, 9211.000
348.1220, 9099.000
349.3240, 9192.000
350.5270, 9177.000
351.7290, 9222.000
352.9310, 9109.000
354.1320, 9208.000
355.3340, 9326.000
356.5350, 9209.000
357.7370, 9292.000
358.9380, 9108.000
360.1390, 9406.000
361.3400, 9344.000
362.5400, 9343.000
363.7410, 9435.000
364.9410, 9417.000
366.1410, 9358.000
367.3410, 9403.000
368.5410, 9396.384
369.7410, 9510.000
370.9400, 9462.000
372.1400, 9523.000
373.3390, 9593.000
374.5380, 9620.000
375.7370, 9657.019
376.9360, 9696.438
378.1350, 9697.000
379.3330, 9738.000
380.5310, 9760.000
381.7300, 9739.000
382.9280, 9777.000
384.1260, 9799.000
385.3230, 9901.000
386.5210, 9979.000
387.7180, 9942.000
388.9160, 10132.00
390.1130, 10146.00
391.3100, 10285.00
392.5060, 10342.00
393.7030, 10346.00
394.9000, 10522.00
396.0960, 10640.00
397.2920, 10724.00
398.4880, 10771.00
399.6840, 10973.00
400.8800, 11122.00
402.0750, 11370.00
403.2710, 11608.00
404.4660, 12209.00
405.6610, 12703.00
406.8560, 13239.00
408.0510, 13233.00
409.2450, 12781.00
410.4400, 12424.00
411.6340, 12176.00
412.8280, 12107.00
414.0220, 12143.00
415.2160, 12410.00
416.4100, 12344.00
417.6030, 12115.00
418.7970, 11769.00
419.9900, 11495.00
421.1830, 11266.00
422.3760, 11061.00
423.5690, 10849.00
424.7610, 10903.00
425.9540, 10991.00
427.1460, 10972.00
428.3380, 10996.00
429.5300, 10937.00
430.7220, 11009.00
431.9140, 10976.00
433.1050, 11011.19
434.2970, 11130.00
435.4880, 11059.00
436.6790, 11155.00
437.8700, 11135.00
439.0610, 11256.00
440.2510, 11345.00
441.4420, 11394.63
442.6320, 11437.00
443.8220, 11490.00
445.0120, 11525.00
446.2020, 11449.00
447.3910, 11655.00
448.5810, 11806.00
449.7700, 11778.00
450.9600, 12002.00
452.1490, 12281.00
453.3370, 12360.00
454.5260, 12529.00
455.7150, 12582.00
456.9030, 12589.00
458.0910, 12639.00
459.2800, 12633.00
460.4670, 12618.00
461.6550, 12800.00
462.8430, 12796.00
464.0300, 13021.00
465.2180, 13237.00
466.4050, 13523.00
467.5920, 13975.00
468.7790, 14768.00
469.9650, 15765.00
471.1520, 16725.00
472.3380, 17952.00
473.5250, 19310.00
474.7110, 20959.00
475.8970, 22950.00
477.0820, 24524.00
478.2680, 25173.00
479.4540, 24512.00
480.6390, 23078.00
481.8240, 20953.00
483.0090, 19035.00
484.1940, 17565.00
485.3780, 16288.00
486.5630, 15535.00
487.7470, 15283.00
488.9320, 14936.00
490.1160, 14717.00
491.3000, 14708.00
492.4830, 14864.00
493.6670, 15138.00
494.8500, 15583.00
496.0340, 16320.00
497.2170, 17181.00
498.4000, 18562.00
499.5820, 20007.00
500.7650, 22255.00
501.9480, 24286.00
503.1300, 27258.00
504.3120, 30174.00
505.4940, 32637.00
506.6760, 33985.00
507.8580, 33123.00
509.0390, 30230.00
510.2210, 27125.00
511.4020, 24012.00
512.5830, 21590.00
513.7640, 19422.00
514.9450, 17968.00
516.1250, 17033.00
517.3060, 16345.00
518.4860, 15847.00
519.6660, 15454.00
520.8460, 15060.00
522.0260, 14955.00
523.2060, 14733.00
524.3850, 14626.00
525.5650, 14507.00
526.7440, 14425.00
527.9230, 14378.00
529.1020, 14203.00
530.2810, 14262.00
531.4590, 14292.00
532.6380, 14181.00
533.8160, 14153.00
534.9940, 14057.00
536.1720, 14054.00
537.3500, 14170.00
538.5270, 14202.00
539.7050, 14230.00
540.8820, 14178.00
542.0590, 14085.00
543.2360, 14189.00
544.4130, 14245.00
545.5900, 14211.00
546.7660, 14332.00
547.9430, 14236.00
549.1190, 14359.00
550.2950, 14223.00
551.4710, 14312.00
552.6470, 14357.00
553.8220, 14417.00
554.9980, 14345.00
556.1730, 14381.00
557.3480, 14465.00
558.5230, 14410.00
559.6980, 14452.00
560.8730, 14550.00
562.0470, 14529.00
563.2220, 14640.00
564.3960, 14632.00
565.5700, 14560.00
566.7440, 14927.00
567.9170, 14985.00
569.0910, 15029.00
570.2640, 14998.00
571.4380, 15089.00
572.6110, 15195.00
573.7840, 15234.00
574.9570, 15338.00
576.1290, 15648.00
577.3020, 15777.00
578.4740, 15749.00
579.6460, 15869.00
580.8180, 15575.00
581.9900, 15876.00
583.1620, 15496.00
584.3330, 15433.00
585.5040, 15374.00
586.6760, 15327.00
587.8470, 15415.00
589.0180, 15538.00
590.1880, 15437.00
591.3590, 15408.00
592.5290, 15374.00
593.7000, 15536.00
594.8700, 15479.00
596.0400, 15440.00
597.2090, 15660.00
598.3790, 15555.00
599.5490, 15471.00
600.7180, 15724.00
601.8870, 15751.00
603.0560, 15726.00
604.2250, 15727.00
605.3940, 15739.00
606.5620, 15759.00
607.7300, 15869.00
608.8990, 15974.00
610.0670, 16037.00
611.2350, 16135.00
612.4020, 16103.00
613.5700, 16145.00
614.7370, 16187.00
615.9050, 16227.00
617.0720, 16244.49
618.2390, 16295.63
619.4060, 16274.00
620.5720, 16377.00
621.7390, 16404.00
622.9050, 16431.00
624.0710, 16601.00
625.2370, 16776.00
626.4030, 16707.00
627.5690, 16682.00
628.7340, 16940.00
629.9000, 16992.00
631.0650, 17025.00
632.2300, 17202.00
633.3950, 17270.00
634.5600, 17308.00
635.7240, 17469.00
636.8890, 17258.00
638.0530, 17362.00
639.2170, 17579.00
640.3810, 17582.00
641.5450, 17797.00
642.7080, 17718.00
643.8720, 17911.00
645.0350, 18036.00
646.1980, 17842.00
647.3610, 18001.00
648.5240, 17971.00
649.6870, 17911.00
650.8490, 17921.00
652.0120, 17878.00
653.1740, 17846.00
654.3360, 17795.86
655.4980, 17762.00
656.6600, 17658.00
657.8210, 17574.00
658.9830, 17485.00
660.1440, 17694.00
661.3050, 17779.00
662.4660, 17690.00
663.6270, 17758.00
664.7870, 17704.00
665.9480, 17851.00
667.1080, 17828.00
668.2680, 17911.00
669.4280, 18063.00
670.5880, 18016.00
671.7480, 17995.00
672.9070, 18129.00
674.0670, 18135.00
675.2260, 18334.00
676.3850, 18106.00
677.5440, 18273.00
678.7030, 18126.00
679.8610, 18218.00
681.0200, 18362.00
682.1780, 18168.00
683.3360, 18188.00
684.4940, 18360.00
685.6520, 18409.00
686.8090, 18479.00
687.9670, 18530.00
689.1240, 18434.00
690.2810, 18581.00
691.4380, 18728.00
692.5950, 18536.00
693.7520, 18754.00
694.9080, 18732.00
696.0650, 18726.00
697.2210, 18996.00
698.3770, 18897.00
699.5330, 18876.00
700.6880, 18946.00
701.8440, 19067.00
702.9990, 19063.00
704.1550, 19084.00
705.3100, 19142.00
706.4650, 19284.00
707.6190, 19427.00
708.7740, 19412.00
709.9290, 19531.00
711.0830, 19462.00
712.2370, 19700.00
713.3910, 19651.00
714.5450, 19749.00
715.6980, 19568.00
716.8520, 19921.00
718.0050, 19930.00
719.1580, 20158.00
720.3110, 20071.00
721.4640, 20166.00
722.6170, 20128.00
723.7700, 20299.00
724.9220, 20156.00
726.0740, 20040.00
727.2260, 20134.00
728.3780, 20223.00
729.5300, 20244.00
730.6810, 20019.00
731.8330, 20183.00
732.9840, 20291.00
734.1350, 20129.00
735.2860, 20321.00
736.4370, 20608.00
737.5880, 20558.00
738.7380, 20470.00
739.8880, 20594.00
741.0390, 20594.00
742.1890, 20538.00
743.3380, 20773.00
744.4880, 20735.00
745.6380, 20988.00
746.7870, 21088.00
747.9360, 20937.00
749.0850, 21051.00
750.2340, 21312.00
751.3830, 21508.00
752.5310, 21545.00
753.6800, 21893.00
754.8280, 22024.00
755.9760, 22194.00
757.1240, 22769.00
758.2720, 23084.00
759.4190, 23676.00
760.5670, 23861.00
761.7140, 24430.00
762.8610, 24823.00
764.0080, 24737.00
765.1550, 24201.00
766.3020, 23960.00
767.4480, 23578.00
768.5950, 23146.00
769.7410, 22933.00
770.8870, 22598.00
772.0330, 22599.00
773.1780, 22351.00
774.3240, 22325.00
775.4690, 22404.00
776.6140, 22363.00
777.7590, 22567.00
778.9040, 22278.00
780.0490, 22338.00
781.1940, 22256.00
782.3380, 22484.00
783.4820, 22475.00
784.6260, 22603.00
785.7700, 22601.00
786.9140, 22485.00
788.0580, 22690.00
789.2010, 22642.00
790.3450, 22722.00
791.4880, 22883.00
792.6310, 22865.00
793.7730, 22872.00
794.9160, 22819.00
796.0590, 23068.00
797.2010, 22898.00
798.3430, 23231.00
799.4850, 23094.00
800.6270, 23246.00
801.7690, 23502.00
802.9100, 23392.00
804.0520, 23564.00
805.1930, 23786.00
806.3340, 23923.00
807.4750, 24151.00
808.6160, 24409.00
809.7560, 24750.00
810.8970, 25313.00
812.0370, 25693.00
813.1770, 26013.00
814.3170, 26352.00
815.4570, 26360.00
816.5960, 26334.00
817.7360, 25847.00
818.8750, 25375.00
820.0140, 25114.00
821.1530, 24813.00
822.2920, 24646.00
823.4310, 24464.00
824.5690, 24343.00
825.7070, 24495.00
826.8460, 24353.00
827.9840, 24281.00
829.1220, 24513.00
830.2590, 24545.00
831.3970, 24304.00
832.5340, 24668.00
833.6710, 24538.00
834.8080, 24618.00
835.9450, 24633.00
837.0820, 24764.00
838.2190, 24697.00
839.3550, 24651.00
840.4910, 24957.00
841.6270, 24789.00
842.7630, 24852.00
843.8990, 25016.00
845.0350, 24823.00
846.1700, 24886.00
847.3060, 24920.00
848.4410, 25241.00
849.5760, 25189.00
850.7100, 25237.00
851.8450, 25294.00
852.9800, 25345.00
854.1140, 25368.05
855.2480, 25597.00
856.3820, 25356.00
857.5160, 25465.00
858.6500, 25357.00
859.7830, 25817.00
860.9170, 25630.00
862.0500, 25857.00
863.1830, 25876.00
864.3160, 25783.00
865.4480, 25815.00
866.5810, 25870.00
867.7130, 25927.24
868.8460, 26098.00
869.9780, 26123.00
871.1100, 26171.00
872.2410, 26209.00
873.3730, 26188.00
874.5050, 26055.00
875.6360, 26395.00
876.7670, 26212.00
877.8980, 26432.00
879.0290, 26390.00
880.1590, 26453.00
881.2900, 26446.00
882.4200, 26707.00
883.5500, 26486.00
884.6800, 26518.00
885.8100, 26844.00
886.9400, 26738.00
888.0690, 26824.00
889.1990, 26978.00
890.3280, 26981.00
891.4570, 26978.00
892.5860, 27043.00
893.7140, 27032.00
894.8430, 27118.00
895.9710, 27094.00
897.1000, 27189.34
898.2280, 27161.00
899.3560, 27367.00
900.4830, 27364.00
901.6110, 27448.00
902.7380, 27518.00
903.8660, 27535.00
904.9930, 27629.00
906.1200, 27815.00
907.2460, 27617.00
908.3730, 27930.00
909.5000, 27918.00
910.6260, 27786.00
911.7520, 28123.00
912.8780, 28018.00
914.0040, 27966.00
915.1290, 28281.00
916.2550, 28136.00
917.3800, 28454.00
918.5050, 28398.00
919.6300, 28299.00
920.7550, 28446.00
921.8800, 28387.00
923.0040, 28460.00
924.1290, 28321.00
925.2530, 28438.38
926.3770, 28445.18
927.5010, 28626.00
928.6250, 28628.00
929.7480, 28737.00
930.8720, 29013.00
931.9950, 28763.00
933.1180, 29128.00
934.2410, 28912.00
935.3640, 29224.00
936.4860, 29160.00
937.6090, 29326.00
938.7310, 29181.00
939.8530, 29436.00
940.9750, 29413.00
942.0970, 29348.00
943.2180, 29504.00
944.3400, 29600.00
945.4610, 29565.00
946.5820, 29602.00
947.7030, 29720.00
948.8240, 29787.00
949.9450, 29890.00
951.0650, 30000.00
952.1860, 30033.00
953.3060, 30135.18
954.4260, 30191.00
955.5460, 30286.00
956.6650, 30385.00
957.7850, 30464.00
958.9040, 30830.00
960.0230, 31080.00
961.1420, 31058.00
962.2610, 30995.00
963.3800, 31305.00
964.4990, 31347.00
965.6170, 31500.00
966.7350, 31408.00
967.8530, 31379.00
968.9710, 31133.00
970.0890, 31660.00
971.2070, 31574.00
972.3240, 31487.00
973.4410, 31717.00
974.5580, 31759.00
975.6750, 32029.00
976.7920, 31991.00
977.9090, 32252.00
979.0250, 32214.00
980.1410, 32266.00
981.2580, 32128.00
982.3740, 31951.00
983.4890, 32059.00
984.6050, 32074.00
985.7200, 31807.00
986.8360, 31947.00
987.9510, 31959.00
989.0660, 32005.00
990.1810, 32098.00
991.2950, 32077.00
992.4100, 32340.00
993.5240, 32000.00
994.6390, 32436.00
995.7530, 32263.00
996.8660, 32451.00
997.9800, 32295.00
999.0940, 32439.00
1000.207, 32708.00
1001.320, 32741.00
1002.433, 32793.00
1003.546, 33094.00
1004.659, 32965.00
1005.772, 33450.00
1006.884, 33307.00
1007.996, 33443.00
1009.108, 33750.00
1010.220, 33833.00
1011.332, 33911.87
1012.444, 34030.91
1013.555, 33922.00
1014.666, 34083.00
1015.777, 34018.00
1016.888, 33943.00
1017.999, 33961.00
1019.110, 33876.04
1020.220, 34053.00
1021.331, 33837.00
1022.441, 33889.00
1023.551, 34031.00
1024.661, 33980.00
1025.770, 34092.00
1026.880, 34086.00
1027.989, 34186.00
1029.098, 34260.00
1030.207, 34506.00
1031.316, 34663.00
1032.425, 34534.00
1033.533, 34691.00
1034.642, 34478.00
1035.750, 34599.00
1036.858, 34623.00
1037.966, 34616.00
1039.073, 34724.00
1040.181, 34561.00
1041.288, 34650.00
1042.396, 34598.00
1043.503, 34688.00
1044.610, 34750.24
1045.716, 34965.00
1046.823, 34864.00
1047.929, 34956.00
1049.036, 34905.00
1050.142, 34865.00
1051.248, 35220.00
1052.353, 35153.00
1053.459, 35255.00
1054.564, 35301.00
1055.670, 35555.00
1056.775, 35357.00
1057.880, 35319.00
1058.985, 35647.00
1060.089, 35488.00
1061.194, 35738.00
1062.298, 35561.00
1063.402, 35788.00
1064.506, 35757.00
1065.610, 35554.00
1066.713, 35801.00
1067.817, 35590.00
1068.920, 35999.00
1070.023, 36000.00
1071.126, 35803.00
1072.229, 36274.00
1073.332, 36444.00
1074.435, 36122.00
1075.537, 36369.00
1076.639, 36357.00
1077.741, 36586.00
1078.843, 36536.00
1079.945, 36620.00
1081.046, 36708.00
1082.148, 36869.00
1083.249, 37083.00
1084.350, 37599.00
1085.451, 37634.00
1086.551, 38138.00
1087.652, 38184.00
1088.752, 37963.00
1089.853, 38046.00
1090.953, 38182.45
1092.053, 38381.00
1093.152, 38751.00
1094.252, 38922.00
1095.351, 39542.00
1096.451, 39786.00
1097.550, 39758.00
1098.649, 40239.00
1099.748, 40302.00
1100.846, 40237.00
1101.945, 40075.00
1103.043, 39837.00
1104.141, 39953.00
1105.239, 39725.00
1106.337, 39721.00
1107.434, 39435.00
1108.532, 39261.00
1109.629, 39142.00
1110.726, 39235.00
1111.823, 39276.00
1112.920, 39474.00
1114.017, 39353.00
1115.113, 39443.00
1116.210, 39454.00
1117.306, 39365.00
1118.402, 39490.00
1119.498, 39387.00
1120.593, 39487.00
1121.689, 39610.00
1122.784, 39418.00
1123.879, 39653.00
1124.974, 39165.00
1126.069, 39372.00
1127.164, 39453.00
1128.259, 39422.00
1129.353, 39032.00
1130.447, 39119.00
1131.541, 39182.00
1132.635, 39285.00
1133.729, 39453.00
1134.822, 39432.00
1135.916, 39373.00
1137.009, 39305.00
1138.102, 39594.00
1139.195, 39530.00
1140.288, 39605.00
1141.380, 39802.00
1142.473, 39649.00
1143.565, 40110.00
1144.657, 39875.00
1145.749, 39785.00
1146.841, 39846.00
1147.932, 40135.00
1149.024, 40160.00
1150.115, 40277.00
1151.206, 40102.00
1152.297, 40423.00
1153.388, 40312.00
1154.479, 40419.00
1155.569, 40256.00
1156.659, 40566.00
1157.750, 40644.00
1158.839, 40504.00
1159.929, 40797.00
1161.019, 40713.08
1162.108, 40772.00
1163.198, 40792.00
1164.287, 40763.00
1165.376, 40922.00
1166.465, 40768.00
1167.553, 40864.00
1168.642, 41157.00
1169.730, 41147.00
1170.818, 41057.00
1171.906, 41145.00
1172.994, 41127.78
1174.082, 41049.00
1175.170, 41211.00
1176.257, 41205.00
1177.344, 41288.00
1178.431, 41417.00
1179.518, 41560.00
1180.605, 41751.00
1181.691, 41721.00
1182.778, 41798.00
1183.864, 41900.00
1184.950, 41596.00
1186.036, 42085.00
1187.122, 41834.00
1188.207, 42072.00
1189.292, 42001.00
1190.378, 42027.00
1191.463, 42105.00
1192.548, 42468.00
1193.632, 42166.00
1194.717, 42161.00
1195.801, 42649.00
1196.886, 42680.00
1197.970, 42430.00
1199.054, 42593.00
1200.137, 42573.00
1201.221, 42676.00
1202.305, 42793.00
1203.388, 42946.00
1204.471, 42668.00
1205.554, 43047.00
1206.637, 42863.00
1207.719, 43015.00
1208.802, 43010.00
1209.884, 42899.00
1210.966, 42872.00
1212.048, 43243.00
1213.130, 43289.00
1214.212, 43345.00
1215.293, 43239.00
1216.374, 43467.00
1217.456, 43363.00
1218.536, 43519.00
1219.617, 43643.00
1220.698, 43687.00
1221.778, 43669.00
1222.859, 43572.00
1223.939, 43604.00
1225.019, 43850.00
1226.099, 43912.00
1227.178, 44137.00
1228.258, 44163.00
1229.337, 44192.00
1230.417, 44047.00
1231.496, 44201.00
1232.574, 44240.00
1233.653, 44220.00
1234.732, 44423.00
1235.810, 44616.00
1236.888, 44422.00
1237.966, 44560.00
1239.044, 44752.00
1240.122, 44826.00
1241.199, 44575.00
1242.277, 44991.00
1243.354, 44756.00
1244.431, 45125.00
1245.508, 45120.00
1246.585, 45086.00
1247.661, 44907.00
1248.738, 45094.00
1249.814, 45058.00
1250.890, 45115.00
1251.966, 45284.00
1253.042, 45490.00
1254.117, 45677.00
1255.193, 45308.00
1256.268, 45542.00
1257.343, 45453.00
1258.418, 45568.00
1259.493, 45704.00
1260.567, 46119.00
1261.642, 45899.00
1262.716, 46008.00
1263.790, 45535.00
1264.864, 45928.00
1265.938, 45964.00
1267.011, 46151.00
1268.085, 46037.00
