##NAMES=Albite
##RRUFFID=R050253
##IDEAL CHEMISTRY=NaAlSi_3_O_8_
##LOCALITY=Madawaska/Faraday mine, Bancroft, Ontario, Canada
##OWNER=RRUFF
##SOURCE=Marcus Origlieri
##DESCRIPTION=Colorless to brown prismatic single crystals
##STATUS=The identification of this mineral has been confirmed by X-ray diffraction and chemical analysis
##URL=rruff.info/R050253
##MEASURED CHEMISTRY=(Na_0.99_Ca_0.01_)Al_1.00_(Si_0.99_Al_0.01_)_3_O_8_
##PIN_ID=L01944
##ORIENTATION=Laser parallel to (0 -1 -1). Fiducial mark perpendicular to laser is parallel to a [1 0 0]
94.71400, 14575.00
95.94800, 14971.00
97.18200, 14866.00
98.41600, 15111.00
99.64900, 15414.00
100.8830, 15710.00
102.1160, 15548.00
103.3490, 16007.00
104.5820, 16503.00
105.8150, 16936.00
107.0470, 17889.00
108.2800, 18592.00
109.5120, 19181.45
110.7440, 19950.24
111.9760, 20610.00
113.2080, 21178.00
114.4400, 22273.00
115.6710, 22762.00
116.9030, 22578.00
118.1340, 21458.00
119.3650, 19863.00
120.5960, 18708.00
121.8270, 17682.00
123.0580, 17537.00
124.2880, 17194.00
125.5190, 16805.00
126.7490, 16540.00
127.9790, 16496.00
129.2090, 16628.00
130.4390, 16801.00
131.6680, 16684.00
132.8980, 16785.00
134.1270, 16912.00
135.3560, 16970.00
136.5850, 17110.00
137.8140, 17359.00
139.0430, 17717.00
140.2710, 17919.48
141.5000, 18259.00
142.7280, 18517.00
143.9560, 18910.00
145.1840, 19328.00
146.4120, 19996.00
147.6390, 20567.00
148.8670, 20625.00
150.0940, 20648.00
151.3210, 20748.00
152.5490, 21122.00
153.7750, 21446.00
155.0020, 21775.00
156.2290, 22167.00
157.4550, 22753.00
158.6810, 23587.00
159.9080, 24584.00
161.1340, 26063.00
162.3590, 27436.00
163.5850, 28685.00
164.8110, 29286.00
166.0360, 29205.00
167.2610, 28280.00
168.4860, 27402.00
169.7110, 26982.00
170.9360, 26967.00
172.1610, 27091.00
173.3850, 27210.00
174.6100, 26797.00
175.8340, 26208.00
177.0580, 25876.00
178.2820, 25669.00
179.5050, 25534.00
180.7290, 26100.00
181.9520, 26698.00
183.1760, 27500.00
184.3990, 28180.00
185.6220, 28665.00
186.8450, 29251.00
188.0670, 29465.00
189.2900, 28974.00
190.5120, 28191.00
191.7340, 27407.00
192.9560, 26516.00
194.1780, 25479.00
195.4000, 25002.00
196.6220, 24513.00
197.8430, 24020.00
199.0640, 23861.00
200.2860, 24048.00
201.5070, 23761.00
202.7270, 24044.71
203.9480, 24678.00
205.1690, 24708.00
206.3890, 25208.00
207.6090, 25972.00
208.8290, 26722.00
210.0490, 28011.00
211.2690, 28447.00
212.4890, 28012.00
213.7080, 26591.00
214.9280, 24785.00
216.1470, 23158.00
217.3660, 21917.00
218.5850, 20995.00
219.8030, 20245.00
221.0220, 20041.00
222.2400, 19540.00
223.4590, 19378.00
224.6770, 19388.00
225.8950, 19117.00
227.1120, 19059.00
228.3300, 18978.00
229.5480, 18992.00
230.7650, 18836.00
231.9820, 18705.00
233.1990, 19034.00
234.4160, 19010.00
235.6330, 18942.00
236.8490, 18996.00
238.0660, 19121.00
239.2820, 19066.00
240.4980, 19151.00
241.7140, 19425.00
242.9300, 19541.00
244.1460, 19800.00
245.3610, 19854.00
246.5770, 19978.00
247.7920, 20371.00
249.0070, 20738.00
250.2220, 21304.00
251.4370, 21780.00
252.6510, 22407.00
253.8660, 22577.00
255.0800, 22488.00
256.2940, 21931.00
257.5080, 21424.00
258.7220, 21098.00
259.9360, 21317.00
261.1490, 21183.00
262.3630, 20774.00
263.5760, 20276.00
264.7890, 20749.00
266.0020, 20849.00
267.2150, 21233.00
268.4270, 21455.00
269.6400, 21595.00
270.8520, 21956.00
272.0640, 22208.00
273.2760, 22173.00
274.4880, 22426.00
275.7000, 22194.00
276.9120, 22433.00
278.1230, 22600.00
279.3340, 23199.00
280.5450, 23984.00
281.7560, 24447.00
282.9670, 25526.00
284.1780, 26712.00
285.3880, 28526.00
286.5980, 30854.00
287.8090, 33008.00
289.0190, 35913.00
290.2290, 38922.00
291.4380, 41210.00
292.6480, 42257.00
293.8570, 41333.00
295.0670, 38502.00
296.2760, 34698.00
297.4850, 31252.00
298.6930, 28594.00
299.9020, 26200.00
301.1110, 24851.00
302.3190, 23871.00
303.5270, 23092.00
304.7350, 22780.00
305.9430, 22198.00
307.1510, 21943.00
308.3580, 21697.00
309.5660, 21749.00
310.7730, 21693.00
311.9800, 21643.00
313.1870, 21622.00
314.3940, 21646.00
315.6010, 21754.00
316.8070, 21635.00
318.0130, 21451.00
319.2200, 21826.00
320.4260, 21897.00
321.6310, 22168.00
322.8370, 22481.00
324.0430, 22888.00
325.2480, 23373.00
326.4540, 24459.00
327.6590, 25632.00
328.8640, 26647.00
330.0680, 27437.00
331.2730, 27424.00
332.4780, 26741.00
333.6820, 25229.00
334.8860, 23991.00
336.0900, 23331.00
337.2940, 22666.00
338.4980, 22178.00
339.7010, 22017.00
340.9050, 21667.00
342.1080, 21528.00
343.3110, 21531.00
344.5140, 21534.00
345.7170, 21526.00
346.9200, 21536.00
348.1220, 21569.00
349.3240, 21544.00
350.5270, 21529.00
351.7290, 21508.00
352.9310, 21455.70
354.1320, 21481.00
355.3340, 21375.00
356.5350, 21435.00
357.7370, 21471.00
358.9380, 21381.00
360.1390, 21338.00
361.3400, 21508.00
362.5400, 21490.00
363.7410, 21550.00
364.9410, 21484.00
366.1410, 21442.00
367.3410, 21683.00
368.5410, 21477.00
369.7410, 21559.00
370.9400, 21767.00
372.1400, 21645.00
373.3390, 21703.00
374.5380, 21567.00
375.7370, 21581.00
376.9360, 21481.00
378.1350, 21647.00
379.3330, 21661.00
380.5310, 21626.00
381.7300, 21709.59
382.9280, 21663.00
384.1260, 21761.00
385.3230, 21741.00
386.5210, 21772.00
387.7180, 21927.00
388.9160, 21876.00
390.1130, 22117.00
391.3100, 22167.00
392.5060, 22068.00
393.7030, 22182.00
394.9000, 22321.00
396.0960, 22524.00
397.2920, 22767.00
398.4880, 22791.00
399.6840, 22913.00
400.8800, 23167.00
402.0750, 23276.00
403.2710, 23420.00
404.4660, 23610.00
405.6610, 23844.00
406.8560, 24341.00
408.0510, 25133.00
409.2450, 25403.00
410.4400, 25399.00
411.6340, 24907.00
412.8280, 24323.00
414.0220, 24188.00
415.2160, 24069.00
416.4100, 23777.00
417.6030, 23783.00
418.7970, 23693.00
419.9900, 23769.00
421.1830, 23237.00
422.3760, 23185.00
423.5690, 23105.00
424.7610, 23042.00
425.9540, 22856.00
427.1460, 22791.00
428.3380, 22742.00
429.5300, 22792.00
430.7220, 22797.00
431.9140, 22894.00
433.1050, 22896.39
434.2970, 22934.67
435.4880, 22917.00
436.6790, 23009.00
437.8700, 22979.00
439.0610, 23057.00
440.2510, 23197.00
441.4420, 23290.00
442.6320, 23047.00
443.8220, 23424.00
445.0120, 23220.00
446.2020, 23347.00
447.3910, 23301.00
448.5810, 23435.00
449.7700, 23579.00
450.9600, 23366.00
452.1490, 23786.00
453.3370, 23742.00
454.5260, 24223.00
455.7150, 24043.00
456.9030, 24629.00
458.0910, 24424.00
459.2800, 24737.00
460.4670, 24682.00
461.6550, 24661.00
462.8430, 24624.00
464.0300, 24879.00
465.2180, 25008.00
466.4050, 25286.00
467.5920, 25464.00
468.7790, 26022.00
469.9650, 26638.00
471.1520, 27272.00
472.3380, 28340.00
473.5250, 29319.00
474.7110, 30841.00
475.8970, 32568.00
477.0820, 34883.00
478.2680, 37092.00
479.4540, 39264.00
480.6390, 40028.00
481.8240, 38917.00
483.0090, 37243.00
484.1940, 34454.00
485.3780, 32080.00
486.5630, 30167.00
487.7470, 29138.00
488.9320, 28133.00
490.1160, 27783.00
491.3000, 27338.00
492.4830, 27506.00
493.6670, 27536.00
494.8500, 28006.00
496.0340, 28706.00
497.2170, 29158.00
498.4000, 30566.00
499.5820, 31780.00
500.7650, 33497.00
501.9480, 35981.00
503.1300, 38983.00
504.3120, 42852.00
505.4940, 47266.00
506.6760, 51827.00
507.8580, 55223.00
509.0390, 56705.00
510.2210, 54481.00
511.4020, 50391.00
512.5830, 44909.00
513.7640, 40402.00
514.9450, 36500.00
516.1250, 33796.00
517.3060, 31911.00
518.4860, 30532.00
519.6660, 29555.00
520.8460, 28631.00
522.0260, 28259.00
523.2060, 27656.00
524.3850, 27349.00
525.5650, 27259.00
526.7440, 26924.00
527.9230, 26694.00
529.1020, 26777.00
530.2810, 26462.00
531.4590, 26557.00
532.6380, 26491.00
533.8160, 26452.00
534.9940, 26397.00
536.1720, 26236.00
537.3500, 26161.00
538.5270, 26126.00
539.7050, 26128.00
540.8820, 26206.00
542.0590, 26100.00
543.2360, 26270.00
544.4130, 26170.00
545.5900, 26113.00
546.7660, 26017.00
547.9430, 26220.00
549.1190, 25988.00
550.2950, 26274.00
551.4710, 26295.00
552.6470, 26047.00
553.8220, 26081.00
554.9980, 26010.00
556.1730, 26075.00
557.3480, 26101.00
558.5230, 26120.35
559.6980, 26183.01
560.8730, 26245.00
562.0470, 26281.00
563.2220, 26419.00
564.3960, 26463.00
565.5700, 26480.00
566.7440, 26258.00
567.9170, 26617.00
569.0910, 26525.00
570.2640, 26565.00
571.4380, 26755.00
572.6110, 26672.00
573.7840, 26831.00
574.9570, 26900.00
576.1290, 26932.00
577.3020, 27324.00
578.4740, 27515.00
579.6460, 27721.00
580.8180, 27660.00
581.9900, 27534.00
583.1620, 27498.00
584.3330, 27259.00
585.5040, 27028.00
586.6760, 26861.00
587.8470, 26738.01
589.0180, 26615.00
590.1880, 26586.00
591.3590, 26518.00
592.5290, 26473.00
593.7000, 26388.00
594.8700, 26470.00
596.0400, 26590.00
597.2090, 26545.94
598.3790, 26663.00
599.5490, 26562.00
600.7180, 26657.00
601.8870, 26665.00
603.0560, 26718.00
604.2250, 26663.00
605.3940, 26756.00
606.5620, 26896.00
607.7300, 26910.00
608.8990, 27109.00
610.0670, 26844.00
611.2350, 27123.00
612.4020, 26811.00
613.5700, 26949.00
614.7370, 27208.00
615.9050, 27137.00
617.0720, 27279.45
618.2390, 27269.00
619.4060, 27378.00
620.5720, 27322.00
621.7390, 27377.00
622.9050, 27327.00
624.0710, 27253.00
625.2370, 27460.00
626.4030, 27348.00
627.5690, 27506.00
628.7340, 27942.00
629.9000, 27893.00
631.0650, 28069.00
632.2300, 28211.00
633.3950, 28201.00
634.5600, 28279.00
635.7240, 28457.00
636.8890, 28357.00
638.0530, 28374.00
639.2170, 28391.00
640.3810, 28579.00
641.5450, 28546.00
642.7080, 28604.00
643.8720, 28910.00
645.0350, 28875.00
646.1980, 29028.00
647.3610, 29155.00
648.5240, 29278.00
649.6870, 28906.00
650.8490, 28769.00
652.0120, 28849.00
653.1740, 28916.00
654.3360, 28592.00
655.4980, 28333.00
656.6600, 28444.00
657.8210, 28277.00
658.9830, 28108.00
660.1440, 28234.00
661.3050, 28289.00
662.4660, 28215.00
663.6270, 28294.00
664.7870, 28241.00
665.9480, 28165.00
667.1080, 28211.00
668.2680, 28208.00
669.4280, 28254.00
670.5880, 28475.00
671.7480, 28411.00
672.9070, 28458.00
674.0670, 28491.00
675.2260, 28431.00
676.3850, 28439.54
677.5440, 28346.00
678.7030, 28385.00
679.8610, 28398.14
681.0200, 28402.00
682.1780, 28506.00
683.3360, 28564.00
684.4940, 28563.00
685.6520, 28343.00
686.8090, 28463.00
687.9670, 28393.40
689.1240, 28417.00
690.2810, 28392.00
691.4380, 28494.00
692.5950, 28489.00
693.7520, 28533.00
694.9080, 28659.00
696.0650, 28594.00
697.2210, 28671.00
698.3770, 28512.00
699.5330, 28584.00
700.6880, 28804.00
701.8440, 28620.00
702.9990, 28841.00
704.1550, 28799.00
705.3100, 28778.00
706.4650, 28840.00
707.6190, 28855.00
708.7740, 28861.00
709.9290, 29210.00
711.0830, 28882.00
712.2370, 29073.00
713.3910, 28897.00
714.5450, 29070.00
715.6980, 28997.00
716.8520, 28986.00
718.0050, 29123.00
719.1580, 29483.00
720.3110, 29301.00
721.4640, 29049.00
722.6170, 29054.00
723.7700, 29515.00
724.9220, 29239.00
726.0740, 29337.00
727.2260, 29410.00
728.3780, 29330.00
729.5300, 29245.00
730.6810, 29487.00
731.8330, 29410.00
732.9840, 29689.00
734.1350, 29561.00
735.2860, 29474.00
736.4370, 29413.00
737.5880, 29591.00
738.7380, 29545.00
739.8880, 29704.00
741.0390, 29703.00
742.1890, 30164.00
743.3380, 29910.00
744.4880, 30093.00
745.6380, 29796.00
746.7870, 30011.00
747.9360, 29847.00
749.0850, 30100.00
750.2340, 30243.00
751.3830, 30347.00
752.5310, 30149.00
753.6800, 30262.00
754.8280, 30238.00
755.9760, 30465.00
757.1240, 30710.00
758.2720, 30748.00
759.4190, 31143.00
760.5670, 31387.00
761.7140, 31776.00
762.8610, 32161.00
764.0080, 32671.00
765.1550, 32515.00
766.3020, 32486.00
767.4480, 32164.00
768.5950, 31893.00
769.7410, 31646.00
770.8870, 31294.00
772.0330, 31323.00
773.1780, 31009.00
774.3240, 31151.00
775.4690, 31355.00
776.6140, 31238.00
777.7590, 31105.00
778.9040, 31182.00
780.0490, 30872.00
781.1940, 31018.00
782.3380, 30787.00
783.4820, 31046.00
784.6260, 30948.00
785.7700, 30791.00
786.9140, 30805.00
788.0580, 31056.00
789.2010, 30951.00
790.3450, 31091.00
791.4880, 30969.00
792.6310, 31121.00
793.7730, 30914.00
794.9160, 30973.00
796.0590, 30958.00
797.2010, 31103.00
798.3430, 31267.00
799.4850, 31243.00
800.6270, 31460.00
801.7690, 31507.00
802.9100, 31538.00
804.0520, 31608.00
805.1930, 31642.00
806.3340, 31894.00
807.4750, 32260.00
808.6160, 32360.00
809.7560, 32791.00
810.8970, 33207.00
812.0370, 33636.00
813.1770, 34045.00
814.3170, 34878.00
815.4570, 35374.00
816.5960, 35286.00
817.7360, 35262.00
818.8750, 35258.00
820.0140, 34160.00
821.1530, 33962.00
822.2920, 33271.00
823.4310, 32542.00
824.5690, 32623.00
825.7070, 32103.00
826.8460, 32296.00
827.9840, 32137.00
829.1220, 32133.00
830.2590, 32301.00
831.3970, 32155.00
832.5340, 31999.00
833.6710, 32168.00
834.8080, 32059.00
835.9450, 32008.00
837.0820, 32292.00
838.2190, 32169.00
839.3550, 31977.00
840.4910, 32107.00
841.6270, 32137.00
842.7630, 32102.00
843.8990, 32328.00
845.0350, 32272.00
846.1700, 32273.00
847.3060, 32499.00
848.4410, 32142.00
849.5760, 32422.00
850.7100, 32677.00
851.8450, 32283.00
852.9800, 32381.00
854.1140, 32494.00
855.2480, 32341.00
856.3820, 32512.00
857.5160, 32678.00
858.6500, 32360.00
859.7830, 32635.00
860.9170, 32559.00
862.0500, 32768.00
863.1830, 32735.00
864.3160, 32676.00
865.4480, 32714.00
866.5810, 32639.00
867.7130, 32919.00
868.8460, 32717.00
869.9780, 32810.00
871.1100, 32725.00
872.2410, 32737.00
873.3730, 32860.00
874.5050, 32815.00
875.6360, 32959.00
876.7670, 32985.00
877.8980, 33029.20
879.0290, 32964.00
880.1590, 33087.00
881.2900, 33166.00
882.4200, 33103.00
883.5500, 33163.00
884.6800, 33146.00
885.8100, 33180.00
886.9400, 33246.00
888.0690, 33215.00
889.1990, 33222.00
890.3280, 33281.00
891.4570, 33295.00
892.5860, 33146.00
893.7140, 33294.00
894.8430, 33343.00
895.9710, 33402.00
897.1000, 33537.00
898.2280, 33488.00
899.3560, 33536.00
900.4830, 33558.00
901.6110, 33598.08
902.7380, 33537.00
903.8660, 33720.00
904.9930, 33778.00
906.1200, 33835.00
907.2460, 33672.00
908.3730, 33876.00
909.5000, 33873.00
910.6260, 33863.00
911.7520, 34017.00
912.8780, 33970.00
914.0040, 34185.00
915.1290, 34120.00
916.2550, 34103.00
917.3800, 33978.00
918.5050, 34161.00
919.6300, 34060.00
920.7550, 33950.00
921.8800, 34314.00
923.0040, 34295.00
924.1290, 34287.00
925.2530, 34250.00
926.3770, 34436.00
927.5010, 34194.00
928.6250, 34177.00
929.7480, 34603.00
930.8720, 34491.00
931.9950, 34456.00
933.1180, 34647.00
934.2410, 34291.00
935.3640, 34580.00
936.4860, 34619.00
937.6090, 34582.00
938.7310, 34792.00
939.8530, 34677.00
940.9750, 34914.00
942.0970, 34746.00
943.2180, 34802.00
944.3400, 35010.00
945.4610, 35027.00
946.5820, 35070.96
947.7030, 35159.00
948.8240, 35134.00
949.9450, 35128.00
951.0650, 35280.00
952.1860, 35393.00
953.3060, 35483.00
954.4260, 35214.00
955.5460, 35314.00
956.6650, 35223.00
957.7850, 35280.00
958.9040, 35821.00
960.0230, 35429.00
961.1420, 35724.00
962.2610, 35430.00
963.3800, 35301.00
964.4990, 35575.00
965.6170, 35814.00
966.7350, 35630.00
967.8530, 35835.00
968.9710, 35542.00
970.0890, 35990.00
971.2070, 35912.00
972.3240, 36166.00
973.4410, 36129.00
974.5580, 36313.00
975.6750, 36157.00
976.7920, 36123.00
977.9090, 36268.00
979.0250, 36608.00
980.1410, 36641.00
981.2580, 36711.00
982.3740, 36543.00
983.4890, 36542.00
984.6050, 36469.00
985.7200, 36328.00
986.8360, 36688.00
987.9510, 36526.00
989.0660, 36631.00
990.1810, 36374.00
991.2950, 36802.00
992.4100, 36488.00
993.5240, 36649.00
994.6390, 36621.00
995.7530, 36710.00
996.8660, 36572.00
997.9800, 36773.00
999.0940, 36711.00
1000.207, 37209.00
1001.320, 37100.00
1002.433, 37343.00
1003.546, 37211.00
1004.659, 37167.00
1005.772, 37516.00
1006.884, 37792.00
1007.996, 37420.00
1009.108, 37585.00
1010.220, 37878.00
1011.332, 37810.00
1012.444, 37965.00
1013.555, 37954.00
1014.666, 38359.00
1015.777, 38304.00
1016.888, 38161.00
1017.999, 37976.00
1019.110, 38149.00
1020.220, 38243.00
1021.331, 38217.00
1022.441, 37834.00
1023.551, 37956.00
1024.661, 37956.00
1025.770, 37961.00
1026.880, 38280.00
1027.989, 38430.00
1029.098, 38424.00
1030.207, 38809.00
1031.316, 38806.00
1032.425, 39136.00
1033.533, 38917.00
1034.642, 39076.00
1035.750, 39153.00
1036.858, 38741.00
1037.966, 38628.00
1039.073, 38754.00
1040.181, 38456.00
1041.288, 38197.00
1042.396, 38255.00
1043.503, 38383.00
1044.610, 38345.00
1045.716, 38288.00
1046.823, 38281.00
1047.929, 38192.00
1049.036, 38217.44
1050.142, 38365.00
1051.248, 38246.00
1052.353, 38399.00
1053.459, 38418.00
1054.564, 38265.00
1055.670, 38771.00
1056.775, 38421.00
1057.880, 38577.00
1058.985, 38343.00
1060.089, 38745.00
1061.194, 38471.00
1062.298, 38433.00
1063.402, 38473.00
1064.506, 38426.00
1065.610, 38546.00
1066.713, 38854.00
1067.817, 38519.00
1068.920, 38404.00
1070.023, 38762.00
1071.126, 39016.00
1072.229, 39124.00
1073.332, 38948.00
1074.435, 39179.00
1075.537, 38974.00
1076.639, 39193.00
1077.741, 39163.00
1078.843, 39394.00
1079.945, 39178.00
1081.046, 39382.00
1082.148, 39552.00
1083.249, 39485.00
1084.350, 39545.00
1085.451, 39839.00
1086.551, 39997.00
1087.652, 40146.00
1088.752, 40339.00
1089.853, 40397.00
1090.953, 40453.00
1092.053, 40490.00
1093.152, 40638.00
1094.252, 41235.00
1095.351, 41207.00
1096.451, 41749.00
1097.550, 42312.00
1098.649, 42456.00
1099.748, 42857.00
1100.846, 43071.00
1101.945, 42896.00
1103.043, 42914.00
1104.141, 42636.00
1105.239, 42524.00
1106.337, 41909.00
1107.434, 41685.00
1108.532, 41725.00
1109.629, 41739.00
1110.726, 41450.00
1111.823, 41590.00
1112.920, 41636.00
1114.017, 41504.00
1115.113, 41943.00
1116.210, 42002.00
1117.306, 41788.00
1118.402, 42048.00
1119.498, 42243.00
1120.593, 42221.00
1121.689, 41942.00
1122.784, 41970.00
1123.879, 41880.00
1124.974, 41424.00
1126.069, 41303.00
1127.164, 41492.00
1128.259, 41281.00
1129.353, 40953.00
1130.447, 41092.00
1131.541, 40829.00
1132.635, 40635.00
1133.729, 40810.00
1134.822, 40441.00
1135.916, 40544.00
1137.009, 40663.00
1138.102, 40744.00
1139.195, 40745.00
1140.288, 40741.00
1141.380, 40717.00
1142.473, 40738.19
1143.565, 40744.00
1144.657, 40776.00
1145.749, 40682.00
1146.841, 40707.00
1147.932, 40714.00
1149.024, 40760.00
1150.115, 40958.00
1151.206, 41196.00
1152.297, 41017.00
1153.388, 41154.00
1154.479, 41140.00
1155.569, 41103.00
1156.659, 41475.00
1157.750, 41393.00
1158.839, 41514.00
1159.929, 41609.00
1161.019, 41298.00
1162.108, 41581.00
1163.198, 41582.00
1164.287, 41826.00
1165.376, 41661.00
1166.465, 41626.00
1167.553, 41481.00
1168.642, 41415.00
1169.730, 41720.00
1170.818, 41602.00
1171.906, 41672.00
1172.994, 41594.00
1174.082, 41729.00
1175.170, 41685.00
1176.257, 41572.00
1177.344, 41780.00
1178.431, 41605.00
1179.518, 41674.00
1180.605, 41842.00
1181.691, 41684.00
1182.778, 41766.00
1183.864, 41901.00
1184.950, 41719.00
1186.036, 41947.00
1187.122, 41741.00
1188.207, 42109.00
1189.292, 42202.00
1190.378, 42053.00
1191.463, 41883.00
1192.548, 42123.00
1193.632, 42140.00
1194.717, 42160.00
1195.801, 42033.00
1196.886, 42287.00
1197.970, 42060.00
1199.054, 42247.00
1200.137, 42062.00
1201.221, 42246.00
1202.305, 42385.00
1203.388, 42487.00
1204.471, 42323.00
1205.554, 42400.00
1206.637, 42227.00
1207.719, 42456.00
1208.802, 42332.00
1209.884, 42220.00
1210.966, 42394.00
1212.048, 42496.00
1213.130, 42543.00
1214.212, 42676.60
1215.293, 42771.00
1216.374, 42857.00
1217.456, 42736.00
1218.536, 42795.00
1219.617, 42699.00
1220.698, 42917.00
1221.778, 43058.00
1222.859, 42919.00
1223.939, 42855.00
1225.019, 42904.00
1226.099, 42704.00
1227.178, 42817.75
1228.258, 43043.00
1229.337, 42960.00
1230.417, 43102.00
1231.496, 43195.00
1232.574, 43215.00
1233.653, 43081.00
1234.732, 43099.00
1235.810, 43389.00
1236.888, 43066.00
1237.966, 43579.00
1239.044, 43457.00
1240.122, 43488.00
1241.199, 43338.00
1242.277, 43391.00
1243.354, 43566.00
1244.431, 43445.00
1245.508, 43564.00
1246.585, 43932.00
1247.661, 43724.00
1248.738, 43977.00
1249.814, 43887.00
1250.890, 43792.00
1251.966, 43759.00
1253.042, 43795.00
1254.117, 43736.00
1255.193, 43931.00
1256.268, 43689.00
1257.343, 44082.00
1258.418, 44156.00
1259.493, 43984.00
1260.567, 44021.00
1261.642, 44166.00
1262.716, 44130.00
1263.790, 44396.00
1264.864, 44083.00
1265.938, 44036.00
1267.011, 43940.00
1268.085, 44294.00
1269.158, 44283.00
1270.231, 44413.00
1271.304, 44356.00
1272.377, 44449.00
1273.450, 44413.00
1274.522, 44532.00
