##NAMES=Albite
##RRUFFID=R050253
##IDEAL CHEMISTRY=NaAlSi_3_O_8_
##LOCALITY=Madawaska/Faraday mine, Bancroft, Ontario, Canada
##OWNER=RRUFF
##SOURCE=Marcus Origlieri
##DESCRIPTION=Colorless to brown prismatic single crystals
##STATUS=The identification of this mineral has been confirmed by X-ray diffraction and chemical analysis
##URL=rruff.info/R050253
##MEASURED CHEMISTRY=(Na_0.99_Ca_0.01_)Al_1.00_(Si_0.99_Al_0.01_)_3_O_8_
##PIN_ID=L01462
##ORIENTATION=Laser parallel to (1 0 1). Fiducial mark perpendicular to laser is parallel to b [0 1 0]
94.71400, 12692.00
95.94800, 12679.00
97.18200, 12653.00
98.41600, 12727.00
99.64900, 12751.53
100.8830, 12893.00
102.1160, 12864.00
103.3490, 12955.00
104.5820, 12982.00
105.8150, 13491.00
107.0470, 13812.00
108.2800, 13889.00
109.5120, 14503.00
110.7440, 14404.00
111.9760, 14010.00
113.2080, 13924.00
114.4400, 14029.00
115.6710, 14022.00
116.9030, 14123.00
118.1340, 13855.00
119.3650, 13561.00
120.5960, 13148.00
121.8270, 12950.00
123.0580, 12971.00
124.2880, 12881.00
125.5190, 12719.00
126.7490, 12436.00
127.9790, 12497.00
129.2090, 12466.00
130.4390, 12670.00
131.6680, 12616.00
132.8980, 12517.00
134.1270, 12507.00
135.3560, 12579.00
136.5850, 12780.00
137.8140, 12955.00
139.0430, 13174.00
140.2710, 13259.00
141.5000, 13443.00
142.7280, 13667.00
143.9560, 14034.00
145.1840, 14414.00
146.4120, 14781.00
147.6390, 15603.00
148.8670, 16434.00
150.0940, 17181.00
151.3210, 18386.00
152.5490, 19984.00
153.7750, 21263.00
155.0020, 22335.00
156.2290, 23318.00
157.4550, 24391.00
158.6810, 25530.00
159.9080, 26672.00
161.1340, 28437.00
162.3590, 29738.00
163.5850, 30861.00
164.8110, 31330.00
166.0360, 30280.00
167.2610, 28755.00
168.4860, 26704.00
169.7110, 24677.00
170.9360, 23416.00
172.1610, 22668.00
173.3850, 22436.00
174.6100, 22384.00
175.8340, 22526.00
177.0580, 22718.00
178.2820, 22958.00
179.5050, 23165.00
180.7290, 23577.00
181.9520, 24184.00
183.1760, 24312.00
184.3990, 24853.00
185.6220, 24961.00
186.8450, 25030.00
188.0670, 24768.00
189.2900, 24553.00
190.5120, 23445.00
191.7340, 22515.00
192.9560, 21531.00
194.1780, 20504.00
195.4000, 19674.00
196.6220, 19385.00
197.8430, 19038.00
199.0640, 19058.00
200.2860, 19570.00
201.5070, 20031.00
202.7270, 20297.00
203.9480, 20383.00
205.1690, 20775.00
206.3890, 20747.00
207.6090, 21153.00
208.8290, 21786.00
210.0490, 22422.00
211.2690, 22516.00
212.4890, 22265.00
213.7080, 21076.00
214.9280, 19678.00
216.1470, 18193.00
217.3660, 16851.00
218.5850, 15750.00
219.8030, 15034.00
221.0220, 14276.00
222.2400, 14062.00
223.4590, 13605.00
224.6770, 13424.00
225.8950, 13321.00
227.1120, 13038.00
228.3300, 13068.00
229.5480, 12951.00
230.7650, 12948.00
231.9820, 12804.00
233.1990, 12826.00
234.4160, 12844.00
235.6330, 12630.00
236.8490, 12556.00
238.0660, 12777.00
239.2820, 12634.00
240.4980, 12644.00
241.7140, 12640.00
242.9300, 12582.00
244.1460, 12666.00
245.3610, 12679.00
246.5770, 12636.00
247.7920, 12589.00
249.0070, 12599.00
250.2220, 12691.00
251.4370, 12770.00
252.6510, 12848.00
253.8660, 12884.00
255.0800, 12959.00
256.2940, 12829.00
257.5080, 13067.00
258.7220, 13110.00
259.9360, 13296.00
261.1490, 13490.00
262.3630, 13387.00
263.5760, 13120.00
264.7890, 13427.00
266.0020, 13340.00
267.2150, 13601.00
268.4270, 13722.00
269.6400, 13941.00
270.8520, 14282.00
272.0640, 14420.00
273.2760, 14473.00
274.4880, 14944.00
275.7000, 15371.00
276.9120, 16092.00
278.1230, 16837.00
279.3340, 17797.00
280.5450, 19328.00
281.7560, 21056.00
282.9670, 22891.00
284.1780, 24300.00
285.3880, 25848.00
286.5980, 27635.60
287.8090, 28900.00
289.0190, 31003.00
290.2290, 32721.00
291.4380, 34140.00
292.6480, 34483.00
293.8570, 33821.00
295.0670, 31689.00
296.2760, 28734.00
297.4850, 25732.00
298.6930, 22799.00
299.9020, 20660.00
301.1110, 18706.00
302.3190, 17707.00
303.5270, 16833.00
304.7350, 16119.00
305.9430, 15860.00
307.1510, 15432.00
308.3580, 15251.00
309.5660, 15410.00
310.7730, 15023.00
311.9800, 15103.00
313.1870, 14951.00
314.3940, 14863.00
315.6010, 14925.00
316.8070, 14590.00
318.0130, 14447.00
319.2200, 14398.00
320.4260, 14453.00
321.6310, 14389.33
322.8370, 14313.00
324.0430, 14438.00
325.2480, 14417.00
326.4540, 14525.00
327.6590, 14537.13
328.8640, 14382.00
330.0680, 14511.00
331.2730, 14467.00
332.4780, 14327.00
333.6820, 14219.00
334.8860, 14057.00
336.0900, 14173.00
337.2940, 14034.00
338.4980, 13708.00
339.7010, 13814.00
340.9050, 13767.00
342.1080, 13825.00
343.3110, 13771.00
344.5140, 13738.00
345.7170, 13862.00
346.9200, 13683.00
348.1220, 13808.00
349.3240, 13650.00
350.5270, 13792.00
351.7290, 13852.00
352.9310, 13793.00
354.1320, 13664.00
355.3340, 13665.00
356.5350, 13568.00
357.7370, 13502.00
358.9380, 13589.00
360.1390, 13567.00
361.3400, 13472.00
362.5400, 13664.00
363.7410, 13676.00
364.9410, 13601.00
366.1410, 13726.00
367.3410, 13684.00
368.5410, 13683.00
369.7410, 13425.00
370.9400, 13756.00
372.1400, 13438.00
373.3390, 13519.00
374.5380, 13711.00
375.7370, 13559.00
376.9360, 13622.00
378.1350, 13657.00
379.3330, 13747.00
380.5310, 13786.00
381.7300, 13786.77
382.9280, 13775.00
384.1260, 13770.00
385.3230, 13816.00
386.5210, 13823.90
387.7180, 13840.00
388.9160, 13811.00
390.1130, 13847.00
391.3100, 13868.00
392.5060, 13907.00
393.7030, 14023.00
394.9000, 14224.00
396.0960, 14110.00
397.2920, 14096.00
398.4880, 14500.00
399.6840, 14695.00
400.8800, 14855.00
402.0750, 14916.00
403.2710, 15120.00
404.4660, 15163.00
405.6610, 15426.00
406.8560, 15459.00
408.0510, 15815.00
409.2450, 16032.00
410.4400, 16106.00
411.6340, 15856.00
412.8280, 15369.00
414.0220, 14991.00
415.2160, 14690.00
416.4100, 14575.00
417.6030, 14286.00
418.7970, 14299.00
419.9900, 14468.00
421.1830, 14296.00
422.3760, 14262.00
423.5690, 14143.00
424.7610, 14165.00
425.9540, 14239.00
427.1460, 14273.00
428.3380, 14250.00
429.5300, 14207.00
430.7220, 14242.00
431.9140, 14305.00
433.1050, 14310.33
434.2970, 14335.00
435.4880, 14392.00
436.6790, 14404.00
437.8700, 14455.00
439.0610, 14631.00
440.2510, 14778.00
441.4420, 14561.00
442.6320, 14708.00
443.8220, 14863.00
445.0120, 14858.00
446.2020, 14983.00
447.3910, 15345.00
448.5810, 15496.00
449.7700, 15719.00
450.9600, 15903.00
452.1490, 16084.00
453.3370, 16232.00
454.5260, 16363.00
455.7150, 16612.00
456.9030, 16926.00
458.0910, 17317.00
459.2800, 17464.00
460.4670, 17686.00
461.6550, 18042.00
462.8430, 18136.00
464.0300, 18973.00
465.2180, 19659.00
466.4050, 20638.00
467.5920, 22214.00
468.7790, 24190.00
469.9650, 26879.00
471.1520, 29692.00
472.3380, 32637.00
473.5250, 35078.00
474.7110, 37276.00
475.8970, 40102.00
477.0820, 42950.00
478.2680, 46190.00
479.4540, 48184.00
480.6390, 49098.00
481.8240, 47312.00
483.0090, 43552.00
484.1940, 38454.00
485.3780, 33943.00
486.5630, 29872.00
487.7470, 26557.00
488.9320, 24831.00
490.1160, 23201.00
491.3000, 22520.00
492.4830, 22566.00
493.6670, 22843.00
494.8500, 23561.00
496.0340, 25001.00
497.2170, 27322.00
498.4000, 30070.00
499.5820, 33521.00
500.7650, 37193.00
501.9480, 40366.00
503.1300, 43412.00
504.3120, 46673.00
505.4940, 50744.00
506.6760, 54210.00
507.8580, 56910.00
509.0390, 58397.00
510.2210, 56503.00
511.4020, 52205.00
512.5830, 46353.00
513.7640, 40175.00
514.9450, 34491.00
516.1250, 30220.00
517.3060, 27060.00
518.4860, 24886.00
519.6660, 23006.00
520.8460, 21881.00
522.0260, 20852.00
523.2060, 20310.00
524.3850, 19691.00
525.5650, 19125.00
526.7440, 18920.00
527.9230, 18580.00
529.1020, 18286.00
530.2810, 18144.00
531.4590, 17862.00
532.6380, 17796.00
533.8160, 17574.00
534.9940, 17457.00
536.1720, 17279.00
537.3500, 17261.00
538.5270, 17132.00
539.7050, 17144.00
540.8820, 17020.00
542.0590, 16918.00
543.2360, 16914.00
544.4130, 16887.27
545.5900, 16848.00
546.7660, 16922.00
547.9430, 16822.00
549.1190, 16790.00
550.2950, 16802.00
551.4710, 16962.00
552.6470, 16882.00
553.8220, 16874.00
554.9980, 16688.00
556.1730, 16742.00
557.3480, 16817.00
558.5230, 16679.00
559.6980, 16868.00
560.8730, 16912.00
562.0470, 16838.00
563.2220, 16776.00
564.3960, 16745.00
565.5700, 16891.00
566.7440, 16890.00
567.9170, 16945.00
569.0910, 17191.00
570.2640, 17271.00
571.4380, 17365.00
572.6110, 17433.00
573.7840, 17576.00
574.9570, 17512.00
576.1290, 17557.00
577.3020, 17702.00
578.4740, 17919.00
579.6460, 17954.00
580.8180, 17811.00
581.9900, 17824.00
583.1620, 17778.00
584.3330, 17584.00
585.5040, 17533.00
586.6760, 17483.00
587.8470, 17358.00
589.0180, 17331.00
590.1880, 17309.00
591.3590, 17344.00
592.5290, 17273.00
593.7000, 17328.00
594.8700, 17401.00
596.0400, 17249.00
597.2090, 17434.00
598.3790, 17386.00
599.5490, 17538.00
600.7180, 17473.00
601.8870, 17399.00
603.0560, 17333.00
604.2250, 17314.45
605.3940, 17418.00
606.5620, 17331.00
607.7300, 17317.00
608.8990, 17410.00
610.0670, 17324.00
611.2350, 17375.00
612.4020, 17234.00
613.5700, 17305.00
614.7370, 17296.00
615.9050, 17542.00
617.0720, 17388.00
618.2390, 17479.00
619.4060, 17385.00
620.5720, 17434.00
621.7390, 17518.00
622.9050, 17655.00
624.0710, 17544.00
625.2370, 17728.00
626.4030, 17740.00
627.5690, 17588.00
628.7340, 17657.00
629.9000, 17680.00
631.0650, 17702.00
632.2300, 17707.84
633.3950, 17752.00
634.5600, 17711.00
635.7240, 17724.00
636.8890, 17786.00
638.0530, 17924.00
639.2170, 17841.00
640.3810, 17902.00
641.5450, 18148.00
642.7080, 18156.00
643.8720, 18282.00
645.0350, 18153.00
646.1980, 18245.00
647.3610, 18275.00
648.5240, 18135.00
649.6870, 18175.00
650.8490, 18141.00
652.0120, 17931.00
653.1740, 17970.00
654.3360, 17741.00
655.4980, 17891.00
656.6600, 17650.00
657.8210, 17690.00
658.9830, 17628.00
660.1440, 17569.00
661.3050, 17515.00
662.4660, 17552.00
663.6270, 17467.00
664.7870, 17597.00
665.9480, 17542.00
667.1080, 17472.00
668.2680, 17523.00
669.4280, 17417.00
670.5880, 17579.00
671.7480, 17484.00
672.9070, 17564.00
674.0670, 17482.00
675.2260, 17558.00
676.3850, 17328.00
677.5440, 17483.00
678.7030, 17422.00
679.8610, 17609.00
681.0200, 17542.00
682.1780, 17556.00
683.3360, 17405.00
684.4940, 17409.00
685.6520, 17485.00
686.8090, 17579.00
687.9670, 17524.00
689.1240, 17433.00
690.2810, 17480.00
691.4380, 17521.00
692.5950, 17426.00
693.7520, 17613.00
694.9080, 17605.00
696.0650, 17651.00
697.2210, 17689.00
698.3770, 17660.00
699.5330, 17538.00
700.6880, 17652.00
701.8440, 17552.00
702.9990, 17707.00
704.1550, 17684.00
705.3100, 17752.00
706.4650, 17727.00
707.6190, 17930.00
708.7740, 17923.00
709.9290, 17705.00
711.0830, 17950.00
712.2370, 17708.00
713.3910, 17883.00
714.5450, 17889.00
715.6980, 18055.00
716.8520, 18102.00
718.0050, 17819.00
719.1580, 18077.00
720.3110, 18040.00
721.4640, 18090.00
722.6170, 18231.00
723.7700, 18239.00
724.9220, 18142.00
726.0740, 18085.00
727.2260, 18327.00
728.3780, 18412.00
729.5300, 18257.00
730.6810, 18322.00
731.8330, 18350.00
732.9840, 18241.00
734.1350, 18493.00
735.2860, 18677.00
736.4370, 18551.00
737.5880, 18487.00
738.7380, 18569.00
739.8880, 18442.00
741.0390, 18633.00
742.1890, 18655.00
743.3380, 18987.00
744.4880, 18798.00
745.6380, 18890.00
746.7870, 18890.00
747.9360, 18864.00
749.0850, 19158.00
750.2340, 19090.00
751.3830, 19134.00
752.5310, 19457.00
753.6800, 19425.00
754.8280, 19778.00
755.9760, 19910.00
757.1240, 20184.00
758.2720, 20653.00
759.4190, 20989.00
760.5670, 21076.00
761.7140, 21294.00
762.8610, 21705.00
764.0080, 21943.00
765.1550, 21986.00
766.3020, 21845.00
767.4480, 21875.00
768.5950, 21646.00
769.7410, 21558.00
770.8870, 21386.00
772.0330, 21349.39
773.1780, 21298.61
774.3240, 21359.00
775.4690, 21308.00
776.6140, 21391.00
777.7590, 21481.00
778.9040, 21076.00
780.0490, 20828.00
781.1940, 20511.00
782.3380, 20477.00
783.4820, 20209.00
784.6260, 20172.00
785.7700, 20064.00
786.9140, 20215.00
788.0580, 19915.00
789.2010, 20053.00
790.3450, 19806.00
791.4880, 19991.00
792.6310, 19912.00
793.7730, 19789.00
794.9160, 20284.00
796.0590, 20118.00
797.2010, 20017.00
798.3430, 20185.00
799.4850, 20140.00
800.6270, 20268.00
801.7690, 20581.00
802.9100, 20520.00
804.0520, 20684.00
805.1930, 20687.00
806.3340, 20767.00
807.4750, 21358.00
808.6160, 21600.00
809.7560, 21693.00
810.8970, 22065.00
812.0370, 22108.00
813.1770, 22398.00
814.3170, 22939.00
815.4570, 23005.00
816.5960, 23060.00
817.7360, 23126.00
818.8750, 22798.00
820.0140, 22452.00
821.1530, 22080.00
822.2920, 21879.00
823.4310, 21555.00
824.5690, 21340.00
825.7070, 21299.00
826.8460, 21186.00
827.9840, 21003.00
829.1220, 20981.00
830.2590, 21107.00
831.3970, 20912.00
832.5340, 20834.00
833.6710, 21181.00
834.8080, 21040.00
835.9450, 20919.00
837.0820, 20995.00
838.2190, 21029.00
839.3550, 21145.00
840.4910, 21118.00
841.6270, 20862.00
842.7630, 20865.00
843.8990, 20938.00
845.0350, 20933.16
846.1700, 21102.00
847.3060, 21154.00
848.4410, 21171.00
849.5760, 21291.00
850.7100, 21171.00
851.8450, 21291.00
852.9800, 21453.00
854.1140, 21376.00
855.2480, 21248.00
856.3820, 21409.00
857.5160, 21489.00
858.6500, 21422.00
859.7830, 21540.00
860.9170, 21665.00
862.0500, 21538.00
863.1830, 21715.00
864.3160, 21803.00
865.4480, 21534.00
866.5810, 21484.00
867.7130, 21525.00
868.8460, 21544.00
869.9780, 21534.00
871.1100, 21436.00
872.2410, 21467.00
873.3730, 21411.00
874.5050, 21432.00
875.6360, 21531.00
876.7670, 21443.00
877.8980, 21523.00
879.0290, 21478.00
880.1590, 21492.00
881.2900, 21470.00
882.4200, 21591.00
883.5500, 21684.00
884.6800, 21661.00
885.8100, 21624.00
886.9400, 21575.00
888.0690, 21602.54
889.1990, 21595.00
890.3280, 21684.00
891.4570, 21716.92
892.5860, 21925.00
893.7140, 21860.00
894.8430, 21981.00
895.9710, 22098.00
897.1000, 21918.00
898.2280, 21975.00
899.3560, 21968.00
900.4830, 21849.00
901.6110, 22051.00
902.7380, 21930.00
903.8660, 22183.00
904.9930, 22086.00
906.1200, 22057.00
907.2460, 22009.00
908.3730, 22102.00
909.5000, 22195.00
910.6260, 21996.00
911.7520, 21746.00
912.8780, 22028.00
914.0040, 21920.00
915.1290, 22065.00
916.2550, 21956.00
917.3800, 21921.00
918.5050, 21972.00
919.6300, 21937.00
920.7550, 21812.00
921.8800, 21954.00
923.0040, 21896.00
924.1290, 21918.00
925.2530, 21796.00
926.3770, 21988.00
927.5010, 21811.00
928.6250, 22076.00
929.7480, 22242.00
930.8720, 21925.00
931.9950, 22028.00
933.1180, 21956.00
934.2410, 22021.00
935.3640, 22124.00
936.4860, 22108.00
937.6090, 22155.00
938.7310, 22062.00
939.8530, 22054.00
940.9750, 22111.00
942.0970, 22091.00
943.2180, 22131.00
944.3400, 22309.00
945.4610, 22369.00
946.5820, 22437.00
947.7030, 22498.00
948.8240, 22432.00
949.9450, 22324.00
951.0650, 22659.00
952.1860, 22831.00
953.3060, 22876.00
954.4260, 22830.00
955.5460, 22811.00
956.6650, 22819.00
957.7850, 22950.00
958.9040, 22939.00
960.0230, 22901.00
961.1420, 23079.00
962.2610, 22981.00
963.3800, 23056.00
964.4990, 22955.00
965.6170, 22926.26
966.7350, 22957.00
967.8530, 22904.00
968.9710, 22936.60
970.0890, 22860.00
971.2070, 22964.00
972.3240, 22968.00
973.4410, 22946.00
974.5580, 22769.00
975.6750, 23082.00
976.7920, 22769.00
977.9090, 23001.00
979.0250, 22975.00
980.1410, 23307.00
981.2580, 22929.00
982.3740, 23211.00
983.4890, 22968.00
984.6050, 23348.00
985.7200, 23042.00
986.8360, 22941.00
987.9510, 23011.00
989.0660, 23200.00
990.1810, 23143.00
991.2950, 23135.00
992.4100, 23194.00
993.5240, 23384.00
994.6390, 23545.00
995.7530, 23400.00
996.8660, 23777.00
997.9800, 23848.00
999.0940, 24225.00
1000.207, 23946.00
1001.320, 23923.00
1002.433, 24208.00
1003.546, 24255.00
1004.659, 24273.00
1005.772, 24077.00
1006.884, 24240.00
1007.996, 24189.00
1009.108, 24191.00
1010.220, 24397.00
1011.332, 24425.00
1012.444, 24338.00
1013.555, 24670.00
1014.666, 24432.00
1015.777, 24344.00
1016.888, 24606.00
1017.999, 24502.00
1019.110, 24390.00
1020.220, 24620.00
1021.331, 24274.00
1022.441, 24392.00
1023.551, 24403.00
1024.661, 24327.00
1025.770, 24280.00
1026.880, 24334.16
1027.989, 24296.00
1029.098, 24389.00
1030.207, 24364.00
1031.316, 24278.00
1032.425, 24363.00
1033.533, 24406.00
1034.642, 24345.00
1035.750, 24348.00
1036.858, 24242.00
1037.966, 24195.00
1039.073, 24268.00
1040.181, 24113.00
1041.288, 24380.00
1042.396, 24304.00
1043.503, 24167.00
1044.610, 24266.00
1045.716, 24454.00
1046.823, 24263.00
1047.929, 24227.00
1049.036, 24481.00
1050.142, 24418.00
1051.248, 24653.00
1052.353, 24348.00
1053.459, 24346.00
1054.564, 24429.00
1055.670, 24360.00
1056.775, 24318.00
1057.880, 24330.00
1058.985, 24449.00
1060.089, 24336.00
1061.194, 24375.00
1062.298, 24600.00
1063.402, 24636.00
1064.506, 24558.00
1065.610, 24773.00
1066.713, 24722.00
1067.817, 24859.00
1068.920, 24898.00
1070.023, 25056.00
1071.126, 25128.43
1072.229, 25206.00
1073.332, 25301.00
1074.435, 25368.00
1075.537, 25445.00
1076.639, 25800.00
1077.741, 25927.00
1078.843, 26061.05
1079.945, 26171.00
1081.046, 26327.00
1082.148, 26530.00
1083.249, 26750.00
1084.350, 27047.00
1085.451, 27149.00
1086.551, 27438.00
1087.652, 28032.00
1088.752, 28015.00
1089.853, 28795.00
1090.953, 29486.00
1092.053, 30271.00
1093.152, 31218.56
1094.252, 32097.00
1095.351, 33239.00
1096.451, 34254.00
1097.550, 35374.00
1098.649, 36111.00
1099.748, 36248.00
1100.846, 36471.00
1101.945, 36258.00
1103.043, 35753.00
1104.141, 34962.00
1105.239, 34313.00
1106.337, 33522.00
1107.434, 32961.00
1108.532, 32661.00
1109.629, 32105.00
1110.726, 32216.00
1111.823, 32152.00
1112.920, 31910.00
1114.017, 31788.00
1115.113, 31709.00
1116.210, 31709.00
1117.306, 31615.00
1118.402, 31166.00
1119.498, 31037.00
1120.593, 30734.00
1121.689, 30021.00
1122.784, 29710.00
1123.879, 29387.00
1124.974, 29035.00
1126.069, 28289.00
1127.164, 27908.00
1128.259, 27662.00
1129.353, 27205.00
1130.447, 27068.00
1131.541, 26953.00
1132.635, 26640.00
1133.729, 26613.00
1134.822, 26741.00
1135.916, 26293.00
1137.009, 26136.00
1138.102, 26280.00
1139.195, 26170.00
1140.288, 26033.00
1141.380, 26046.00
1142.473, 26048.00
1143.565, 25915.00
1144.657, 25987.00
1145.749, 26000.00
1146.841, 26120.00
1147.932, 25976.00
1149.024, 25955.00
1150.115, 26209.00
1151.206, 26105.00
1152.297, 26077.00
1153.388, 26182.00
1154.479, 25950.00
1155.569, 26004.00
1156.659, 25972.00
1157.750, 26119.00
1158.839, 26254.00
1159.929, 25908.00
1161.019, 25947.00
1162.108, 26159.00
1163.198, 25989.00
1164.287, 26223.00
1165.376, 26222.00
1166.465, 26163.00
1167.553, 26329.00
1168.642, 26051.00
1169.730, 26263.00
1170.818, 26203.00
1171.906, 26278.00
1172.994, 26327.00
1174.082, 26356.00
1175.170, 26390.30
1176.257, 26385.58
1177.344, 26418.00
1178.431, 26340.00
1179.518, 26335.00
1180.605, 26274.00
1181.691, 26341.00
1182.778, 26465.00
1183.864, 26470.00
1184.950, 26426.00
1186.036, 26428.00
1187.122, 26302.00
1188.207, 26416.00
1189.292, 26401.00
1190.378, 26600.00
1191.463, 26509.00
1192.548, 26656.00
1193.632, 26492.00
1194.717, 26480.00
1195.801, 26575.00
1196.886, 26441.00
1197.970, 26608.00
1199.054, 26444.00
1200.137, 26633.00
1201.221, 26739.00
1202.305, 26772.00
1203.388, 26746.00
1204.471, 26677.00
1205.554, 26673.00
1206.637, 26581.00
1207.719, 26632.08
1208.802, 26820.00
1209.884, 26797.00
1210.966, 26813.00
1212.048, 27044.00
1213.130, 27004.00
1214.212, 26838.00
1215.293, 27146.00
1216.374, 26885.00
1217.456, 27021.00
1218.536, 26960.00
1219.617, 27217.00
1220.698, 27060.00
1221.778, 27453.00
1222.859, 27281.00
1223.939, 27137.00
1225.019, 27179.00
1226.099, 27350.00
1227.178, 27329.00
1228.258, 27291.00
1229.337, 27198.00
1230.417, 27251.88
1231.496, 27281.00
1232.574, 27360.00
1233.653, 27383.00
1234.732, 27498.00
1235.810, 27436.00
1236.888, 27673.00
1237.966, 27490.00
1239.044, 27683.00
1240.122, 27423.00
1241.199, 27584.00
1242.277, 27682.00
1243.354, 27803.00
1244.431, 27623.00
1245.508, 27557.00
1246.585, 27702.00
1247.661, 27725.00
1248.738, 27785.00
1249.814, 27947.00
1250.890, 27938.00
1251.966, 27817.00
1253.042, 28017.00
1254.117, 27829.00
1255.193, 28115.00
1256.268, 28367.00
1257.343, 28106.00
1258.418, 28208.00
1259.493, 28280.00
1260.567, 28231.00
1261.642, 28492.00
1262.716, 28303.00
1263.790, 28551.00
1264.864, 28517.00
1265.938, 28827.00
1267.011, 28989.00
1268.085, 28858.00
1269.158, 28907.00
1270.231, 28724.00
1271.304, 29209.00
1272.377, 28894.00
1273.450, 29003.00
1274.522, 28856.00
