##NAMES=Albite
##RRUFFID=R050402
##IDEAL CHEMISTRY=NaAlSi_3_O_8_
##LOCALITY=Urbano mine, Golconda District, Brazil
##OWNER=RRUFF
##SOURCE=Bob Downs
##DESCRIPTION=Colorless tabular single crystals associated with fluorapatite R050401
##STATUS=The identification of this mineral has been confirmed by X-ray diffraction and chemical analysis
##URL=rruff.info/R050402
##MEASURED CHEMISTRY=Na_1.00_Al_1.00_Si_3.00_O_8_
##PIN_ID=M00145
##ORIENTATION=Laser parallel to (0 1 1). Fiducial mark perpendicular to laser is parallel to -a [-1 0 0]
93.48000, 8955.000
94.71400, 9185.000
95.94800, 9390.000
97.18200, 9506.000
98.41600, 10033.00
99.64900, 10249.00
100.8830, 10804.00
102.1160, 11098.00
103.3490, 11569.00
104.5820, 12335.00
105.8150, 13052.00
107.0470, 14542.00
108.2800, 16019.00
109.5120, 16449.00
110.7440, 16837.00
111.9760, 16726.00
113.2080, 16367.00
114.4400, 15599.00
115.6710, 14529.00
116.9030, 13718.00
118.1340, 12867.00
119.3650, 12352.00
120.5960, 11942.00
121.8270, 11935.00
123.0580, 11866.00
124.2880, 11815.00
125.5190, 11861.00
126.7490, 11815.00
127.9790, 11919.00
129.2090, 12059.00
130.4390, 12159.00
131.6680, 12416.00
132.8980, 12433.00
134.1270, 12868.00
135.3560, 13165.00
136.5850, 13655.00
137.8140, 14180.00
139.0430, 14779.00
140.2710, 15647.00
141.5000, 16017.00
142.7280, 17076.00
143.9560, 17647.00
145.1840, 18019.00
146.4120, 18326.00
147.6390, 18312.00
148.8670, 18342.00
150.0940, 18663.00
151.3210, 18853.00
152.5490, 18802.00
153.7750, 19053.00
155.0020, 20067.00
156.2290, 20702.00
157.4550, 22324.00
158.6810, 23656.00
159.9080, 24582.00
161.1340, 24898.00
162.3590, 24877.00
163.5850, 24443.00
164.8110, 24021.00
166.0360, 23875.00
167.2610, 23815.00
168.4860, 24094.00
169.7110, 24004.00
170.9360, 23630.00
172.1610, 23068.00
173.3850, 23090.00
174.6100, 23086.00
175.8340, 23477.00
177.0580, 23947.00
178.2820, 24848.00
179.5050, 25592.00
180.7290, 26124.00
181.9520, 26817.00
183.1760, 26732.00
184.3990, 26602.00
185.6220, 25823.00
186.8450, 24556.00
188.0670, 23386.00
189.2900, 22109.00
190.5120, 21009.00
191.7340, 19906.00
192.9560, 19116.00
194.1780, 18768.00
195.4000, 18309.00
196.6220, 18327.00
197.8430, 18456.00
199.0640, 18741.00
200.2860, 19335.00
201.5070, 19982.00
202.7270, 21086.00
203.9480, 21873.00
205.1690, 22811.00
206.3890, 23628.00
207.6090, 23517.00
208.8290, 22691.00
210.0490, 21239.00
211.2690, 19860.00
212.4890, 18336.00
213.7080, 17018.00
214.9280, 15861.00
216.1470, 15322.00
217.3660, 14744.00
218.5850, 14338.00
219.8030, 13943.00
221.0220, 13675.00
222.2400, 13508.00
223.4590, 13376.00
224.6770, 13325.00
225.8950, 13140.00
227.1120, 13329.00
228.3300, 12993.00
229.5480, 13169.00
230.7650, 13228.00
231.9820, 13176.00
233.1990, 13219.00
234.4160, 13230.00
235.6330, 13191.00
236.8490, 13315.00
238.0660, 13416.00
239.2820, 13406.00
240.4980, 13678.00
241.7140, 13783.00
242.9300, 14195.00
244.1460, 14400.00
245.3610, 14539.00
246.5770, 15090.00
247.7920, 15646.00
249.0070, 15881.00
250.2220, 16011.47
251.4370, 16202.00
252.6510, 15774.00
253.8660, 15624.00
255.0800, 15161.00
256.2940, 15092.00
257.5080, 15215.00
258.7220, 15618.00
259.9360, 15533.00
261.1490, 15674.00
262.3630, 16047.00
263.5760, 16412.00
264.7890, 16858.00
266.0020, 17424.00
267.2150, 17870.00
268.4270, 17946.00
269.6400, 17972.00
270.8520, 17697.00
272.0640, 17499.00
273.2760, 17419.00
274.4880, 17488.00
275.7000, 17971.00
276.9120, 18568.00
278.1230, 19401.00
279.3340, 20677.00
280.5450, 22283.00
281.7560, 24433.00
282.9670, 26689.00
284.1780, 29322.00
285.3880, 32560.00
286.5980, 35860.00
287.8090, 38420.00
289.0190, 39358.00
290.2290, 38342.00
291.4380, 36044.00
292.6480, 32445.00
293.8570, 28500.00
295.0670, 25562.00
296.2760, 22613.00
297.4850, 20468.00
298.6930, 19177.00
299.9020, 18071.00
301.1110, 17156.00
302.3190, 16583.00
303.5270, 16138.00
304.7350, 15857.00
305.9430, 15555.00
307.1510, 15552.00
308.3580, 15243.00
309.5660, 15209.00
310.7730, 15008.00
311.9800, 15015.00
313.1870, 14848.00
314.3940, 14815.00
315.6010, 14759.00
316.8070, 14959.07
318.0130, 15117.91
319.2200, 15429.27
320.4260, 15759.00
321.6310, 16333.00
322.8370, 16882.00
324.0430, 17588.00
325.2480, 18618.00
326.4540, 19158.00
327.6590, 19367.00
328.8640, 18863.00
330.0680, 18000.00
331.2730, 17481.00
332.4780, 16584.00
333.6820, 15914.00
334.8860, 15560.00
336.0900, 14978.00
337.2940, 14877.00
338.4980, 14672.00
339.7010, 14661.00
340.9050, 14529.00
342.1080, 14730.00
343.3110, 14498.00
344.5140, 14475.00
345.7170, 14639.00
346.9200, 14564.00
348.1220, 14565.00
349.3240, 14583.00
350.5270, 14499.00
351.7290, 14297.00
352.9310, 14521.00
354.1320, 14196.00
355.3340, 14301.00
356.5350, 14122.00
357.7370, 14368.00
358.9380, 14388.00
360.1390, 14152.00
361.3400, 14243.00
362.5400, 14224.00
363.7410, 14248.00
364.9410, 14267.00
366.1410, 14173.00
367.3410, 14299.00
368.5410, 14316.00
369.7410, 14165.00
370.9400, 14206.00
372.1400, 14203.00
373.3390, 14277.00
374.5380, 14284.06
375.7370, 14245.00
376.9360, 14270.00
378.1350, 14352.00
379.3330, 14225.00
380.5310, 14330.00
381.7300, 14444.00
382.9280, 14529.00
384.1260, 14587.29
385.3230, 14526.00
386.5210, 14671.00
387.7180, 14698.64
388.9160, 14732.00
390.1130, 14880.00
391.3100, 14947.00
392.5060, 14953.00
393.7030, 15117.00
394.9000, 15262.00
396.0960, 15427.00
397.2920, 15808.00
398.4880, 15798.00
399.6840, 15968.00
400.8800, 16235.00
402.0750, 16702.00
403.2710, 16909.00
404.4660, 17438.00
405.6610, 17809.00
406.8560, 17864.00
408.0510, 17560.00
409.2450, 17170.00
410.4400, 16996.00
411.6340, 16880.00
412.8280, 16950.00
414.0220, 16794.00
415.2160, 16863.00
416.4100, 16493.00
417.6030, 16112.00
418.7970, 15934.00
419.9900, 15536.00
421.1830, 15510.00
422.3760, 15292.00
423.5690, 15211.00
424.7610, 15316.00
425.9540, 15064.00
427.1460, 15222.00
428.3380, 15100.00
429.5300, 15136.00
430.7220, 15324.00
431.9140, 15333.00
433.1050, 15392.00
434.2970, 15316.00
435.4880, 15308.00
436.6790, 15537.00
437.8700, 15597.00
439.0610, 15511.00
440.2510, 15597.00
441.4420, 15838.00
442.6320, 15819.00
443.8220, 15971.00
445.0120, 16363.00
446.2020, 16629.00
447.3910, 16966.00
448.5810, 17408.00
449.7700, 18182.00
450.9600, 18314.00
452.1490, 18918.00
453.3370, 19563.00
454.5260, 19750.00
455.7150, 19866.00
456.9030, 19581.00
458.0910, 19315.00
459.2800, 19154.00
460.4670, 18826.00
461.6550, 18979.00
462.8430, 19125.00
464.0300, 19612.00
465.2180, 20323.00
466.4050, 21388.00
467.5920, 22757.00
468.7790, 24507.00
469.9650, 26717.00
471.1520, 29732.00
472.3380, 32972.00
473.5250, 36858.00
474.7110, 40793.00
475.8970, 44447.00
477.0820, 45870.00
478.2680, 44596.00
479.4540, 41414.00
480.6390, 36986.00
481.8240, 32600.00
483.0090, 28982.00
484.1940, 26611.00
485.3780, 24399.00
486.5630, 23232.00
487.7470, 22535.00
488.9320, 21931.00
490.1160, 21616.00
491.3000, 21993.00
492.4830, 22468.00
493.6670, 23237.00
494.8500, 24575.00
496.0340, 26433.00
497.2170, 28797.00
498.4000, 32305.00
499.5820, 36160.00
500.7650, 40430.00
501.9480, 46247.00
503.1300, 51916.00
504.3120, 57060.00
505.4940, 59959.00
506.6760, 58970.00
507.8580, 55391.00
509.0390, 49059.00
510.2210, 42708.00
511.4020, 37219.00
512.5830, 32551.00
513.7640, 29197.00
514.9450, 26552.00
516.1250, 24590.00
517.3060, 23172.00
518.4860, 22042.00
519.6660, 21267.00
520.8460, 20519.00
522.0260, 20028.00
523.2060, 19477.00
524.3850, 19338.00
525.5650, 19075.00
526.7440, 18881.00
527.9230, 18586.00
529.1020, 18529.00
530.2810, 18411.00
531.4590, 18150.00
532.6380, 18021.00
533.8160, 18074.00
534.9940, 17992.00
536.1720, 17699.00
537.3500, 17928.00
538.5270, 17683.00
539.7050, 17692.00
540.8820, 17518.00
542.0590, 17408.00
543.2360, 17465.00
544.4130, 17523.00
545.5900, 17417.00
546.7660, 17447.00
547.9430, 17436.00
549.1190, 17443.00
550.2950, 17329.00
551.4710, 17307.00
552.6470, 17347.00
553.8220, 17398.00
554.9980, 17452.00
556.1730, 17443.16
557.3480, 17510.00
558.5230, 17412.00
559.6980, 17371.00
560.8730, 17336.00
562.0470, 17434.00
563.2220, 17420.13
564.3960, 17498.00
565.5700, 17521.00
566.7440, 17549.00
567.9170, 17643.00
569.0910, 17807.00
570.2640, 17923.00
571.4380, 18013.00
572.6110, 18181.00
573.7840, 18286.00
574.9570, 18486.00
576.1290, 18611.00
577.3020, 18741.00
578.4740, 18964.00
579.6460, 18600.00
580.8180, 18548.00
581.9900, 18197.00
583.1620, 18216.00
584.3330, 18053.00
585.5040, 17909.00
586.6760, 17914.00
587.8470, 17663.00
589.0180, 17732.00
590.1880, 17640.00
591.3590, 17706.00
592.5290, 17556.00
593.7000, 17495.00
594.8700, 17663.00
596.0400, 17682.00
597.2090, 17679.00
598.3790, 17733.07
599.5490, 17716.00
600.7180, 17716.00
601.8870, 17754.00
603.0560, 17709.00
604.2250, 17721.23
605.3940, 17789.00
606.5620, 17720.00
607.7300, 17668.00
608.8990, 17700.00
610.0670, 17776.00
611.2350, 17970.00
612.4020, 17951.00
613.5700, 17972.00
614.7370, 17979.00
615.9050, 17969.00
617.0720, 18120.00
618.2390, 18225.00
619.4060, 18215.00
620.5720, 18336.00
621.7390, 18401.63
622.9050, 18537.00
624.0710, 18601.00
625.2370, 18698.00
626.4030, 18860.00
627.5690, 19044.00
628.7340, 18787.00
629.9000, 19133.00
631.0650, 19014.00
632.2300, 19189.00
633.3950, 19033.00
634.5600, 19014.00
635.7240, 19103.00
636.8890, 19218.00
638.0530, 19154.00
639.2170, 19164.00
640.3810, 19411.00
641.5450, 19382.00
642.7080, 19520.00
643.8720, 19695.00
645.0350, 19934.00
646.1980, 19816.00
647.3610, 19778.00
648.5240, 19616.00
649.6870, 19376.00
650.8490, 19189.00
652.0120, 19053.00
653.1740, 18985.00
654.3360, 18818.00
655.4980, 18817.00
656.6600, 18463.00
657.8210, 18612.00
658.9830, 18543.00
660.1440, 18467.00
661.3050, 18551.00
662.4660, 18507.00
663.6270, 18274.00
664.7870, 18405.00
665.9480, 18402.00
667.1080, 18406.00
668.2680, 18552.00
669.4280, 18322.00
670.5880, 18403.00
671.7480, 18362.00
672.9070, 18399.00
674.0670, 18245.00
675.2260, 18384.00
676.3850, 18356.00
677.5440, 18585.00
678.7030, 18411.00
679.8610, 18585.00
681.0200, 18442.00
682.1780, 18340.00
683.3360, 18462.00
684.4940, 18518.00
685.6520, 18443.00
686.8090, 18565.00
687.9670, 18352.00
689.1240, 18485.00
690.2810, 18653.00
691.4380, 18678.00
692.5950, 18351.00
693.7520, 18619.00
694.9080, 18636.00
696.0650, 18575.00
697.2210, 18751.00
698.3770, 18914.00
699.5330, 18660.00
700.6880, 18843.00
701.8440, 18633.00
702.9990, 18778.00
704.1550, 18671.00
705.3100, 18749.00
706.4650, 18823.00
707.6190, 18854.13
708.7740, 19168.00
709.9290, 18976.00
711.0830, 19190.00
712.2370, 19157.00
713.3910, 18917.00
714.5450, 19012.00
715.6980, 19273.00
716.8520, 19434.00
718.0050, 19397.00
719.1580, 19590.00
720.3110, 19326.00
721.4640, 19360.00
722.6170, 19280.00
723.7700, 19322.00
724.9220, 19197.00
726.0740, 19303.00
727.2260, 19370.00
728.3780, 19115.00
729.5300, 19240.00
730.6810, 19369.00
731.8330, 19386.00
732.9840, 19394.00
734.1350, 19545.00
735.2860, 19400.00
736.4370, 19586.00
737.5880, 19368.00
738.7380, 19594.00
739.8880, 19659.00
741.0390, 19594.00
742.1890, 19692.00
743.3380, 19846.00
744.4880, 19913.00
745.6380, 20071.87
746.7870, 20196.00
747.9360, 20342.00
749.0850, 20495.00
750.2340, 20584.00
751.3830, 20885.00
752.5310, 21193.00
753.6800, 21555.00
754.8280, 22036.00
755.9760, 22753.00
757.1240, 23583.00
758.2720, 24272.00
759.4190, 25300.00
760.5670, 25947.00
761.7140, 26273.00
762.8610, 26140.00
764.0080, 25552.00
765.1550, 24533.00
766.3020, 23890.00
767.4480, 23138.00
768.5950, 22714.00
769.7410, 21936.00
770.8870, 21988.00
772.0330, 21809.00
773.1780, 21556.00
774.3240, 21256.00
775.4690, 21414.00
776.6140, 21159.00
777.7590, 20991.00
778.9040, 20817.00
780.0490, 20732.00
781.1940, 20586.00
782.3380, 20651.00
783.4820, 20590.00
784.6260, 20694.00
785.7700, 20523.00
786.9140, 20367.00
788.0580, 20574.00
789.2010, 20420.00
790.3450, 20494.00
791.4880, 20549.00
792.6310, 20599.00
793.7730, 20637.00
794.9160, 20716.00
796.0590, 20860.00
797.2010, 20842.00
798.3430, 20879.00
799.4850, 21186.00
800.6270, 21169.00
801.7690, 21442.00
802.9100, 21437.00
804.0520, 21730.00
805.1930, 22067.00
806.3340, 22627.00
807.4750, 23182.00
808.6160, 23631.00
809.7560, 24432.00
810.8970, 25355.00
812.0370, 25892.00
813.1770, 26315.00
814.3170, 26344.00
815.4570, 25999.00
816.5960, 25002.00
817.7360, 24282.00
818.8750, 23437.00
820.0140, 22942.00
821.1530, 22515.00
822.2920, 22131.00
823.4310, 21716.00
824.5690, 21719.00
825.7070, 21648.00
826.8460, 21473.00
827.9840, 21408.00
829.1220, 21392.00
830.2590, 21191.00
831.3970, 21186.00
832.5340, 21029.00
833.6710, 21262.00
834.8080, 21221.00
835.9450, 21112.00
837.0820, 21068.00
838.2190, 21049.00
839.3550, 21172.00
840.4910, 20968.00
841.6270, 21120.00
842.7630, 21222.00
843.8990, 21173.00
845.0350, 21082.00
846.1700, 21127.00
847.3060, 21178.00
848.4410, 21048.00
849.5760, 21050.00
850.7100, 21275.00
851.8450, 21216.00
852.9800, 21331.00
854.1140, 21284.00
855.2480, 21311.00
856.3820, 21386.00
857.5160, 21292.00
858.6500, 21644.00
859.7830, 21602.00
860.9170, 21571.00
862.0500, 21591.00
863.1830, 21581.00
864.3160, 21513.00
865.4480, 21609.00
866.5810, 21371.00
867.7130, 21465.00
868.8460, 21357.00
869.9780, 21429.00
871.1100, 21435.00
872.2410, 21487.00
873.3730, 21505.00
874.5050, 21373.00
875.6360, 21380.00
876.7670, 21370.00
877.8980, 21641.00
879.0290, 21374.00
880.1590, 21549.00
881.2900, 21586.00
882.4200, 21545.00
883.5500, 21577.00
884.6800, 21594.26
885.8100, 21654.00
886.9400, 21657.00
888.0690, 21663.00
889.1990, 21717.16
890.3280, 21647.00
891.4570, 21735.00
892.5860, 21705.00
893.7140, 21739.00
894.8430, 21769.00
895.9710, 21686.00
897.1000, 21821.00
898.2280, 21724.00
899.3560, 21862.00
900.4830, 21941.00
901.6110, 21723.00
902.7380, 21723.00
903.8660, 21867.00
904.9930, 22034.00
906.1200, 22001.00
907.2460, 22066.00
908.3730, 22018.00
909.5000, 22005.00
910.6260, 21906.00
911.7520, 22080.00
912.8780, 22337.00
914.0040, 22010.00
915.1290, 22039.00
916.2550, 22252.00
917.3800, 22001.00
918.5050, 21929.00
919.6300, 22191.00
920.7550, 22010.00
921.8800, 22110.00
923.0040, 22225.00
924.1290, 22324.00
925.2530, 22104.00
926.3770, 22152.00
927.5010, 22288.00
928.6250, 22077.00
929.7480, 22391.00
930.8720, 22225.00
931.9950, 22410.00
933.1180, 22233.00
934.2410, 22277.00
935.3640, 22370.00
936.4860, 22305.00
937.6090, 22209.00
938.7310, 22070.00
939.8530, 22416.00
940.9750, 22386.00
942.0970, 22619.00
943.2180, 22358.00
944.3400, 22559.00
945.4610, 22443.00
946.5820, 22394.00
947.7030, 22452.00
948.8240, 22433.38
949.9450, 22577.00
951.0650, 22536.00
952.1860, 22665.00
953.3060, 22741.00
954.4260, 22857.00
955.5460, 22681.00
956.6650, 22750.00
957.7850, 22649.00
958.9040, 22786.00
960.0230, 22901.00
961.1420, 22850.00
962.2610, 22991.00
963.3800, 23037.00
964.4990, 23093.00
965.6170, 23308.00
966.7350, 23050.00
967.8530, 23108.00
968.9710, 23177.00
970.0890, 23345.00
971.2070, 23382.00
972.3240, 23805.00
973.4410, 24036.00
974.5580, 24026.00
975.6750, 24116.00
976.7920, 24116.00
977.9090, 24057.23
979.0250, 24107.00
980.1410, 23890.00
981.2580, 23760.00
982.3740, 23646.00
983.4890, 23578.00
984.6050, 23497.00
985.7200, 23550.00
986.8360, 23646.00
987.9510, 23572.00
989.0660, 23548.00
990.1810, 23538.00
991.2950, 23512.94
992.4100, 23551.00
993.5240, 23527.00
994.6390, 23661.00
995.7530, 23724.00
996.8660, 23695.00
997.9800, 23865.93
999.0940, 24026.00
1000.207, 24144.00
1001.320, 24223.00
1002.433, 24410.00
1003.546, 24438.09
1004.659, 24406.00
1005.772, 24510.00
1006.884, 24621.00
1007.996, 24608.00
1009.108, 24421.00
1010.220, 24660.00
1011.332, 24602.24
1012.444, 24782.00
1013.555, 24572.00
1014.666, 24966.00
1015.777, 24665.00
1016.888, 24717.00
1017.999, 24848.00
1019.110, 24659.00
1020.220, 24634.00
1021.331, 24775.00
1022.441, 24770.00
1023.551, 24867.00
1024.661, 25003.00
1025.770, 25094.00
1026.880, 25411.00
1027.989, 25648.00
1029.098, 25753.00
1030.207, 25928.00
1031.316, 25966.00
1032.425, 26029.00
1033.533, 25854.00
1034.642, 25562.00
1035.750, 25310.00
1036.858, 25430.00
1037.966, 25056.00
1039.073, 24882.00
1040.181, 24946.00
1041.288, 25084.00
1042.396, 24924.00
1043.503, 24797.00
1044.610, 24719.00
1045.716, 24700.28
1046.823, 24624.00
1047.929, 24777.00
1049.036, 24679.00
1050.142, 24768.00
1051.248, 24657.00
1052.353, 24508.00
1053.459, 24633.00
1054.564, 24425.00
1055.670, 24514.00
1056.775, 24657.00
1057.880, 24593.00
1058.985, 24667.83
1060.089, 24691.00
1061.194, 24644.00
1062.298, 24717.00
1063.402, 24627.00
1064.506, 24803.00
1065.610, 24674.00
1066.713, 24633.00
1067.817, 24778.00
1068.920, 24844.00
1070.023, 24859.00
1071.126, 25201.00
1072.229, 24966.00
1073.332, 25166.00
1074.435, 24974.00
1075.537, 25151.00
1076.639, 25255.00
1077.741, 25243.00
1078.843, 25626.00
1079.945, 25575.00
1081.046, 25622.00
1082.148, 25882.00
1083.249, 26263.00
1084.350, 26124.00
1085.451, 26435.00
1086.551, 26837.00
1087.652, 26874.00
1088.752, 27644.00
1089.853, 28010.00
1090.953, 28424.00
1092.053, 29331.00
1093.152, 30025.00
1094.252, 30630.00
1095.351, 31247.00
1096.451, 31936.00
1097.550, 32150.00
1098.649, 32100.00
1099.748, 31771.00
1100.846, 31642.00
1101.945, 31013.00
1103.043, 30697.00
1104.141, 29894.00
1105.239, 29462.00
1106.337, 28820.00
1107.434, 29026.00
1108.532, 28696.00
1109.629, 28332.00
1110.726, 28544.00
1111.823, 28449.00
1112.920, 28107.00
1114.017, 28164.00
1115.113, 28129.00
1116.210, 27912.00
1117.306, 27489.00
1118.402, 27419.00
1119.498, 26952.00
1120.593, 26908.00
1121.689, 26680.00
1122.784, 26526.00
1123.879, 26330.00
1124.974, 26245.00
1126.069, 25995.00
1127.164, 26034.00
1128.259, 26065.00
1129.353, 25987.00
1130.447, 25675.00
1131.541, 25880.00
1132.635, 25904.00
1133.729, 25663.00
1134.822, 25880.00
1135.916, 25862.00
1137.009, 25849.00
1138.102, 25818.00
1139.195, 25766.01
1140.288, 25751.92
1141.380, 25727.44
1142.473, 25711.53
1143.565, 25724.00
1144.657, 25730.54
1145.749, 25783.00
1146.841, 25752.00
1147.932, 25702.00
1149.024, 25712.00
1150.115, 25840.00
1151.206, 25946.00
1152.297, 25791.00
1153.388, 26050.00
1154.479, 26048.00
1155.569, 25894.00
1156.659, 25910.00
1157.750, 25933.00
1158.839, 25796.00
1159.929, 25679.00
1161.019, 25988.00
1162.108, 25682.00
1163.198, 25952.00
1164.287, 25921.00
1165.376, 25862.00
1166.465, 25895.00
1167.553, 26033.00
1168.642, 26135.00
1169.730, 25844.00
1170.818, 26107.00
1171.906, 25847.00
1172.994, 26055.00
1174.082, 26203.00
1175.170, 26250.00
1176.257, 25920.00
1177.344, 26145.00
1178.431, 26046.00
1179.518, 26118.00
1180.605, 26018.00
1181.691, 26080.00
1182.778, 26204.00
1183.864, 25988.00
1184.950, 26173.00
1186.036, 26194.00
1187.122, 26098.00
1188.207, 26224.00
1189.292, 26149.00
1190.378, 26314.00
1191.463, 26379.00
1192.548, 26029.00
1193.632, 26097.00
1194.717, 26083.00
1195.801, 26212.00
1196.886, 26403.00
1197.970, 26157.00
1199.054, 26356.00
1200.137, 26402.00
1201.221, 26275.00
1202.305, 26485.00
1203.388, 26366.00
1204.471, 26365.00
1205.554, 26303.00
1206.637, 26381.00
1207.719, 26377.00
1208.802, 26554.00
1209.884, 26393.00
1210.966, 26279.00
1212.048, 26468.00
1213.130, 26342.00
1214.212, 26414.00
1215.293, 26632.00
1216.374, 26681.00
1217.456, 26559.00
1218.536, 26629.00
1219.617, 26654.00
1220.698, 26566.00
1221.778, 26692.00
1222.859, 26842.00
1223.939, 26684.00
1225.019, 26800.00
1226.099, 26560.00
1227.178, 26551.00
1228.258, 26530.00
1229.337, 26853.00
1230.417, 26821.00
1231.496, 26930.00
1232.574, 26897.00
1233.653, 26807.00
1234.732, 27001.00
1235.810, 27030.00
1236.888, 26829.00
1237.966, 26988.00
1239.044, 27013.00
1240.122, 26900.00
1241.199, 26925.00
1242.277, 26946.00
1243.354, 26935.00
1244.431, 27019.00
1245.508, 27111.00
1246.585, 27216.00
1247.661, 27220.96
1248.738, 27254.00
1249.814, 27204.00
1250.890, 27240.00
1251.966, 27192.00
1253.042, 27304.00
1254.117, 27237.00
1255.193, 27191.00
1256.268, 27224.00
1257.343, 27157.00
1258.418, 27217.00
1259.493, 27279.00
1260.567, 27315.00
1261.642, 27370.00
1262.716, 27401.00
1263.790, 27483.00
1264.864, 27383.00
1265.938, 27460.00
1267.011, 27620.00
1268.085, 27653.00
1269.158, 27523.00
1270.231, 27575.00
1271.304, 27555.85
1272.377, 27572.00
1273.450, 27546.00
1274.522, 27529.00
