##NAMES=Albite
##RRUFFID=R040068
##IDEAL CHEMISTRY=NaAlSi_3_O_8_
##LOCALITY=Harding Pegmatite, Dixon, New Mexico, USA
##OWNER=RRUFF
##SOURCE=University of Arizona Mineral Museum
##DESCRIPTION=Tan colored crystal fragment
##STATUS=The identification of this mineral has been confirmed by X-ray diffraction and chemical analysis
##URL=rruff.info/R040068
##MEASURED CHEMISTRY=(Na_0.99_Ca_0.01_)Al_1.00_(Si_0.99_Al_0.01_)_3_O_8_
##PIN_ID=L00690
##ORIENTATION=Laser parallel to (0 1 1). Fiducial mark perpendicular to laser is parallel to a [1 0 0]
74.09800, 6463.000
75.34400, 7081.000
76.59000, 7600.000
77.83600, 7959.000
79.08100, 8157.000
80.32700, 8433.000
81.57200, 8263.000
82.81700, 7454.000
84.06200, 7194.000
85.30600, 7303.000
86.55100, 7191.000
87.79500, 7353.000
89.03900, 7372.000
90.28300, 7306.000
91.52700, 7427.000
92.77000, 7471.000
94.01300, 7285.000
95.25700, 7264.000
96.49900, 7247.000
97.74200, 7080.000
98.98500, 7082.000
100.2270, 7091.010
101.4690, 7199.000
102.7110, 7275.000
103.9530, 7490.166
105.1950, 7665.000
106.4360, 8015.000
107.6780, 8359.000
108.9190, 8683.000
110.1600, 9031.000
111.4000, 9676.000
112.6410, 10480.00
113.8810, 11422.00
115.1210, 12228.00
116.3610, 12324.00
117.6010, 12036.00
118.8410, 11959.00
120.0800, 11408.00
121.3190, 9990.000
122.5580, 8810.000
123.7970, 8884.000
125.0360, 8276.000
126.2740, 8041.000
127.5130, 7940.000
128.7510, 7986.000
129.9890, 7938.000
131.2270, 7943.000
132.4640, 7961.000
133.7010, 7944.000
134.9390, 8047.000
136.1760, 7936.000
137.4120, 8035.000
138.6490, 8073.000
139.8860, 8359.000
141.1220, 8361.000
142.3580, 8549.000
143.5940, 8714.000
144.8300, 8884.000
146.0650, 9163.000
147.3000, 9616.000
148.5360, 10210.00
149.7710, 10649.00
151.0050, 10933.00
152.2400, 11158.40
153.4750, 11341.00
154.7090, 11201.00
155.9430, 10984.00
157.1770, 10688.00
158.4100, 10462.00
159.6440, 10583.00
160.8770, 10773.00
162.1100, 10944.00
163.3430, 11002.00
164.5760, 10859.00
165.8090, 10642.00
167.0410, 10426.00
168.2730, 10280.00
169.5050, 9983.000
170.7370, 9751.000
171.9690, 9769.000
173.2000, 9716.000
174.4320, 9527.000
175.6630, 9421.000
176.8940, 9362.000
178.1250, 9443.000
179.3550, 9442.000
180.5860, 9542.000
181.8160, 9696.000
183.0460, 9872.000
184.2760, 10119.00
185.5050, 10221.00
186.7350, 10344.83
187.9640, 10373.39
189.1930, 10418.00
190.4220, 10270.00
191.6510, 10109.00
192.8790, 9914.000
194.1080, 9840.000
195.3360, 9653.000
196.5640, 9555.000
197.7920, 9363.000
199.0190, 9401.000
200.2470, 9372.000
201.4740, 9274.000
202.7010, 9483.000
203.9280, 9551.000
205.1550, 9768.000
206.3820, 10178.00
207.6080, 10225.00
208.8340, 10527.00
210.0600, 10529.00
211.2860, 10616.00
212.5120, 10468.00
213.7370, 10221.00
214.9620, 9728.000
216.1870, 9437.000
217.4120, 9111.000
218.6370, 8915.000
219.8620, 8842.000
221.0860, 8835.000
222.3100, 8748.000
223.5340, 8691.000
224.7580, 8663.000
225.9820, 8653.000
227.2050, 8590.000
228.4280, 8639.000
229.6510, 8719.000
230.8740, 8662.000
232.0970, 8630.000
233.3190, 8692.000
234.5420, 8647.000
235.7640, 8704.000
236.9860, 8792.000
238.2080, 8825.000
239.4290, 8735.000
240.6510, 8810.000
241.8720, 8934.000
243.0930, 8976.000
244.3140, 9129.902
245.5350, 9250.754
246.7550, 9451.000
247.9760, 9692.000
249.1960, 9933.000
250.4160, 10486.00
251.6360, 10708.00
252.8550, 10678.00
254.0750, 10889.00
255.2940, 10670.00
256.5130, 10335.00
257.7320, 9778.000
258.9510, 9692.000
260.1690, 9513.000
261.3880, 9470.000
262.6060, 9518.000
263.8240, 9753.000
265.0420, 9859.000
266.2600, 10067.00
267.4770, 10514.00
268.6940, 10732.00
269.9110, 10987.00
271.1280, 11000.00
272.3450, 10984.00
273.5620, 10700.00
274.7780, 10527.00
275.9940, 10492.00
277.2100, 10284.00
278.4260, 10410.00
279.6420, 10119.00
280.8570, 10162.00
282.0720, 10311.00
283.2880, 10407.00
284.5020, 10697.00
285.7170, 11233.00
286.9320, 11951.00
288.1460, 12485.00
289.3600, 13602.00
290.5740, 14163.00
291.7880, 14749.00
293.0020, 14849.00
294.2150, 14221.00
295.4290, 13552.00
296.6420, 12693.00
297.8550, 11913.00
299.0680, 11189.00
300.2800, 10620.00
301.4930, 10436.00
302.7050, 10186.00
303.9170, 10063.00
305.1290, 10038.00
306.3410, 9919.000
307.5520, 9875.000
308.7630, 9866.000
309.9750, 9833.000
311.1850, 9816.911
312.3960, 9817.530
313.6070, 9787.000
314.8170, 9799.000
316.0280, 9783.000
317.2380, 9719.000
318.4480, 9611.000
319.6570, 9791.000
320.8670, 9700.000
322.0760, 9836.000
323.2850, 9671.000
324.4940, 9866.000
325.7030, 10026.00
326.9120, 10220.00
328.1200, 10416.00
329.3290, 10509.00
330.5370, 10583.00
331.7450, 10704.00
332.9520, 10554.82
334.1600, 10109.00
335.3670, 10254.00
336.5750, 9887.000
337.7820, 9788.000
338.9880, 9824.000
340.1950, 9719.000
341.4020, 9750.051
342.6080, 9735.996
343.8140, 9813.000
345.0200, 9757.000
346.2260, 9817.000
347.4310, 9874.000
348.6370, 9748.000
349.8420, 9827.000
351.0470, 9716.000
352.2520, 9699.000
353.4570, 9611.000
354.6610, 9551.000
355.8660, 9710.000
357.0700, 9677.000
358.2740, 9842.000
359.4780, 9686.000
360.6810, 9815.000
361.8850, 9809.000
363.0880, 9805.000
364.2910, 9805.000
365.4940, 9834.000
366.6970, 9682.000
367.8990, 9786.000
369.1020, 9787.000
370.3040, 9885.000
371.5060, 9993.000
372.7080, 9813.000
373.9090, 10064.00
375.1110, 9916.000
376.3120, 10009.00
377.5130, 9920.000
378.7140, 9998.000
379.9150, 10095.00
381.1160, 9936.000
382.3160, 9943.000
383.5160, 10035.00
384.7170, 10050.00
385.9160, 10028.00
387.1160, 9997.000
388.3160, 9997.000
389.5150, 10118.00
390.7140, 10173.00
391.9130, 10101.00
393.1120, 10064.00
394.3110, 10200.00
395.5090, 10333.00
396.7080, 10326.00
397.9060, 10408.00
399.1040, 10431.00
400.3010, 10626.00
401.4990, 10668.00
402.6960, 10681.00
403.8940, 10878.00
405.0910, 10959.00
406.2880, 11107.00
407.4840, 11364.00
408.6810, 11566.00
409.8770, 11791.00
411.0730, 11697.00
412.2690, 11531.00
413.4650, 11521.00
414.6610, 11573.00
415.8560, 11812.00
417.0520, 11983.00
418.2470, 12045.00
419.4420, 11818.00
420.6360, 11669.00
421.8310, 11273.00
423.0250, 11054.00
424.2200, 10834.00
425.4140, 10632.00
426.6080, 10519.00
427.8010, 10607.00
428.9950, 10496.00
430.1880, 10742.00
431.3810, 10476.00
432.5740, 10707.00
433.7670, 10684.87
434.9600, 10599.00
436.1520, 10839.00
437.3450, 10471.00
438.5370, 10751.00
439.7290, 10597.00
440.9200, 10619.00
442.1120, 10738.00
443.3030, 10838.00
444.4950, 10865.00
445.6860, 10750.00
446.8770, 10815.00
448.0670, 10805.00
449.2580, 10833.00
450.4480, 10995.00
451.6380, 10890.00
452.8280, 11019.00
454.0180, 11395.00
455.2080, 11273.00
456.3970, 11547.00
457.5870, 11486.00
458.7760, 11516.00
459.9650, 11456.00
461.1540, 11455.00
462.3420, 11570.00
463.5310, 11516.00
464.7190, 11636.00
465.9070, 11590.00
467.0950, 11748.00
468.2830, 11967.00
469.4700, 12255.00
470.6570, 12685.00
471.8450, 13202.00
473.0320, 13600.00
474.2190, 14644.00
475.4050, 15790.00
476.5920, 17482.00
477.7780, 19541.00
478.9640, 21329.00
480.1500, 22537.00
481.3360, 22602.00
482.5220, 21876.00
483.7070, 20056.00
484.8920, 18731.00
486.0770, 16328.00
487.2620, 15014.00
488.4470, 14430.00
489.6320, 13688.00
490.8160, 13186.00
492.0000, 13188.00
493.1840, 12983.00
494.3680, 13012.00
495.5520, 12977.00
496.7350, 13156.00
497.9190, 13366.00
499.1020, 13992.00
500.2850, 14627.00
501.4680, 15611.00
502.6510, 16842.00
503.8330, 18811.00
505.0150, 21330.00
506.1970, 24313.00
507.3790, 26919.00
508.5610, 28552.00
509.7430, 28283.00
510.9240, 27040.00
512.1050, 24338.00
513.2870, 21246.00
514.4670, 18834.00
515.6480, 16827.00
516.8290, 15616.00
518.0090, 14817.00
519.1890, 14105.00
520.3690, 13500.00
521.5490, 13423.00
522.7290, 13105.00
523.9090, 12711.00
525.0880, 12631.00
526.2670, 12411.00
527.4460, 12498.00
528.6250, 12226.00
529.8040, 12341.00
530.9820, 12108.00
532.1600, 12112.00
533.3380, 12210.00
534.5160, 12209.00
535.6940, 12191.87
536.8720, 12105.00
538.0490, 12081.00
539.2270, 12001.00
540.4040, 11863.00
541.5810, 11884.00
542.7570, 11853.00
543.9340, 11925.00
545.1100, 11891.00
546.2870, 12011.00
547.4630, 11992.00
548.6380, 11958.00
549.8140, 11927.00
550.9900, 12041.00
552.1650, 11999.00
553.3400, 11950.00
554.5150, 11862.00
555.6900, 11991.00
556.8650, 12031.00
558.0390, 11962.00
559.2140, 11969.00
560.3880, 11969.00
561.5620, 11915.00
562.7360, 12019.00
563.9090, 11876.00
565.0830, 12041.00
566.2560, 12205.00
567.4290, 11987.00
568.6020, 12134.00
569.7750, 12095.00
570.9470, 12272.00
572.1200, 12157.00
573.2920, 12126.00
574.4640, 12224.00
575.6360, 12299.00
576.8080, 12281.00
577.9790, 12481.00
579.1510, 12511.00
580.3220, 12446.00
581.4930, 12359.00
582.6640, 12497.00
583.8350, 12486.00
585.0050, 12370.00
586.1750, 12432.00
587.3460, 12316.00
588.5160, 12298.00
589.6850, 12328.00
590.8550, 12288.00
592.0250, 12243.00
593.1940, 12075.00
594.3630, 12290.00
595.5320, 12311.00
596.7010, 12130.00
597.8700, 12274.00
599.0380, 12232.00
600.2060, 12275.00
601.3740, 12253.00
602.5420, 12268.00
603.7100, 12405.00
604.8780, 12219.00
606.0450, 12322.00
607.2120, 12271.00
608.3800, 12439.00
609.5460, 12379.00
610.7130, 12325.00
611.8800, 12367.00
613.0460, 12454.00
614.2120, 12543.00
615.3790, 12500.00
616.5440, 12470.00
617.7100, 12609.00
618.8760, 12394.00
620.0410, 12491.00
621.2060, 12691.00
622.3710, 12537.00
623.5360, 12735.00
624.7010, 12574.00
625.8650, 12687.00
627.0300, 12591.00
628.1940, 12607.00
629.3580, 12800.00
630.5220, 12669.00
631.6850, 12716.00
632.8490, 12725.00
634.0120, 12854.00
635.1750, 12949.00
636.3380, 12923.00
637.5010, 12972.00
638.6640, 12973.00
639.8260, 12974.00
640.9890, 12946.00
642.1510, 12939.79
643.3130, 12931.28
644.4750, 12920.00
645.6360, 12929.00
646.7980, 12955.44
647.9590, 12985.00
649.1200, 12985.00
650.2810, 13019.00
651.4420, 13039.00
652.6020, 13061.00
653.7630, 12997.00
654.9230, 12996.05
656.0830, 12899.00
657.2430, 12922.00
658.4030, 12919.00
659.5620, 12876.00
660.7220, 12931.74
661.8810, 12908.00
663.0400, 12975.00
664.1990, 12989.00
665.3580, 12931.00
666.5160, 12913.00
667.6750, 12941.00
668.8330, 13028.00
669.9910, 13035.00
671.1490, 13006.00
672.3070, 12952.00
673.4640, 13131.00
674.6210, 13061.00
675.7790, 13145.00
676.9360, 13042.00
678.0930, 13181.00
679.2490, 13115.00
680.4060, 13143.00
681.5620, 13172.00
682.7180, 13136.00
683.8740, 13103.00
685.0300, 13153.00
686.1860, 13057.00
687.3410, 13162.00
688.4970, 13037.00
689.6520, 13168.00
690.8070, 13247.00
691.9620, 13268.00
693.1160, 13295.00
694.2710, 13267.00
695.4250, 13324.51
696.5790, 13364.00
697.7330, 13400.00
698.8870, 13418.00
700.0410, 13431.00
701.1940, 13411.00
702.3480, 13350.00
703.5010, 13398.00
704.6540, 13436.00
705.8060, 13421.96
706.9590, 13302.00
708.1120, 13429.00
709.2640, 13445.00
710.4160, 13418.00
711.5680, 13583.00
712.7200, 13725.00
713.8710, 13543.00
715.0230, 13428.00
716.1740, 13691.00
717.3250, 13406.00
718.4760, 13656.00
719.6270, 13660.00
720.7780, 13808.00
721.9280, 13695.00
723.0780, 13795.00
724.2280, 13709.00
725.3780, 13850.00
726.5280, 13689.00
727.6780, 13681.00
728.8270, 13694.00
729.9760, 13658.89
731.1250, 13669.00
732.2740, 13658.00
733.4230, 13773.00
734.5720, 13692.00
735.7200, 13851.00
736.8680, 13845.00
738.0160, 13744.00
739.1640, 13884.00
740.3120, 13981.00
741.4600, 13825.00
742.6070, 13756.00
743.7540, 13867.00
744.9010, 14049.00
746.0480, 13960.00
747.1950, 13967.00
748.3420, 14076.00
749.4880, 14148.00
750.6340, 14150.00
751.7800, 14070.00
752.9260, 14391.00
754.0720, 14220.00
755.2180, 14331.00
756.3630, 14543.00
757.5080, 14593.00
758.6530, 15044.00
759.7980, 15272.15
760.9430, 15479.00
762.0880, 15912.00
763.2320, 16315.00
764.3760, 16532.00
765.5200, 16483.00
766.6640, 16498.00
767.8080, 16066.00
768.9510, 15592.00
770.0950, 15273.00
771.2380, 15053.00
772.3810, 14927.00
773.5240, 14834.00
774.6670, 14748.00
775.8090, 14796.00
776.9520, 14712.00
778.0940, 14704.00
779.2360, 14703.00
780.3780, 14621.00
781.5200, 14630.00
782.6610, 14450.00
783.8030, 14716.00
784.9440, 14401.00
786.0850, 14549.00
787.2260, 14536.00
788.3660, 14530.00
789.5070, 14516.00
790.6470, 14516.24
791.7880, 14508.67
792.9280, 14522.00
794.0680, 14529.00
795.2070, 14543.00
796.3470, 14616.00
797.4860, 14627.72
798.6250, 14678.00
799.7650, 14684.00
800.9030, 14699.32
802.0420, 14706.79
803.1810, 14716.00
804.3190, 14694.00
805.4570, 14704.00
806.5950, 14687.00
807.7330, 14807.00
808.8710, 14834.00
810.0090, 14856.00
811.1460, 15052.00
812.2830, 15076.00
813.4200, 15547.00
814.5570, 15535.00
815.6940, 15675.00
816.8300, 15399.00
817.9670, 15743.00
819.1030, 15526.00
820.2390, 15469.00
821.3750, 15219.00
822.5110, 15213.00
823.6460, 15092.00
824.7820, 15032.00
825.9170, 14995.00
827.0520, 14857.00
828.1870, 15021.00
829.3220, 14914.00
830.4560, 15027.00
831.5910, 15064.00
832.7250, 14845.00
833.8590, 15025.00
834.9930, 14964.00
836.1270, 14961.00
837.2600, 15060.00
838.3940, 15088.00
839.5270, 15242.00
840.6600, 15225.20
841.7930, 15118.00
842.9260, 15184.00
844.0580, 15255.00
845.1910, 15150.00
846.3230, 15170.00
847.4550, 15188.00
848.5870, 15083.00
849.7190, 15268.00
850.8510, 15185.00
851.9820, 15205.00
853.1130, 15244.00
854.2440, 15186.00
855.3750, 15088.00
856.5060, 15287.00
857.6370, 15267.00
858.7670, 15260.00
859.8970, 15132.00
861.0280, 15212.00
862.1580, 15295.00
863.2870, 15414.00
864.4170, 15402.00
865.5460, 15354.00
866.6760, 15373.00
867.8050, 15345.00
868.9340, 15371.00
870.0630, 15401.00
871.1910, 15276.00
872.3200, 15528.00
873.4480, 15537.00
874.5760, 15473.00
875.7040, 15427.00
876.8320, 15456.00
877.9600, 15502.00
879.0870, 15511.00
880.2140, 15479.00
881.3420, 15632.00
882.4690, 15517.00
883.5950, 15436.00
884.7220, 15576.00
885.8490, 15638.00
886.9750, 15632.00
888.1010, 15611.00
889.2270, 15715.00
890.3530, 15748.00
891.4790, 15862.00
892.6040, 15683.00
893.7300, 15563.00
894.8550, 15679.00
895.9800, 15807.00
897.1050, 15684.00
898.2290, 15671.00
899.3540, 15977.00
900.4780, 15954.00
901.6030, 15704.00
902.7270, 15952.00
903.8500, 15682.00
904.9740, 15897.00
906.0980, 15869.00
907.2210, 15953.00
908.3440, 15857.00
909.4670, 15942.00
910.5900, 15914.00
911.7130, 15812.00
912.8360, 16116.00
913.9580, 15843.00
915.0800, 16078.00
916.2020, 16047.00
917.3240, 16153.00
918.4460, 16225.00
919.5680, 16057.00
920.6890, 16110.00
921.8100, 15952.00
922.9320, 16127.00
924.0520, 15993.00
925.1730, 16095.00
926.2940, 16120.00
927.4140, 16068.00
928.5350, 16164.00
929.6550, 16164.00
930.7750, 16039.00
931.8950, 16118.60
933.0140, 16117.84
934.1340, 16187.00
935.2530, 16166.00
936.3720, 16295.00
937.4910, 16219.00
938.6100, 16298.00
939.7290, 16430.00
940.8470, 16242.00
941.9650, 16367.00
943.0840, 16426.00
944.2020, 16356.00
945.3200, 16381.00
946.4370, 16535.00
947.5550, 16491.00
948.6720, 16334.00
949.7890, 16527.00
950.9060, 16544.00
952.0230, 16501.00
953.1400, 16592.00
954.2560, 16673.00
955.3730, 16680.53
956.4890, 16753.31
957.6050, 16726.00
958.7210, 16780.00
959.8370, 16739.00
960.9520, 16775.61
962.0680, 16809.00
963.1830, 16816.00
964.2980, 16904.00
965.4130, 16903.00
966.5280, 16988.00
967.6430, 17080.00
968.7570, 16980.00
969.8710, 17327.00
970.9850, 17149.00
972.0990, 17201.00
973.2130, 17449.00
974.3270, 17423.00
975.4400, 17645.00
976.5540, 17628.00
977.6670, 17921.00
978.7800, 18228.00
979.8930, 18096.00
981.0050, 18090.00
982.1180, 18009.00
983.2300, 17866.00
984.3420, 17662.00
985.4540, 17506.00
986.5660, 17470.00
987.6780, 17403.00
988.7890, 17236.00
989.9010, 17163.00
991.0120, 17143.00
992.1230, 17142.00
993.2340, 17112.19
994.3450, 17250.00
995.4550, 17123.00
996.5660, 17333.00
997.6760, 17407.00
998.7860, 17215.00
999.8960, 17352.00
1001.006, 17446.00
1002.115, 17372.00
1003.225, 17398.00
1004.334, 17613.00
1005.443, 17639.00
1006.552, 17855.00
1007.661, 17677.00
1008.770, 17680.00
1009.878, 17720.00
1010.986, 17820.00
1012.095, 17818.00
1013.203, 17730.00
1014.310, 17724.00
1015.418, 17934.00
1016.526, 17819.00
1017.633, 17805.00
1018.740, 17849.38
1019.847, 17727.87
1020.954, 17855.00
1022.061, 17656.00
1023.167, 17682.00
1024.274, 17843.00
1025.380, 17847.00
1026.486, 17906.00
1027.592, 17869.00
1028.698, 18058.00
1029.803, 17920.00
1030.909, 18135.00
1032.014, 18347.00
1033.119, 18080.00
1034.224, 18253.00
1035.329, 18248.00
1036.433, 18098.00
1037.538, 17969.00
1038.642, 18082.00
1039.746, 17906.00
1040.850, 18003.00
1041.954, 18014.00
1043.058, 17987.00
1044.161, 18048.00
1045.265, 17938.00
1046.368, 17962.00
1047.471, 18318.00
1048.574, 18057.00
1049.676, 18000.00
1050.779, 18282.00
1051.881, 18115.00
1052.984, 18034.00
1054.086, 17996.00
1055.188, 18082.00
1056.289, 18024.00
1057.391, 18207.00
1058.492, 18006.00
1059.594, 18159.00
1060.695, 17978.00
1061.796, 18113.00
1062.897, 18080.00
1063.997, 18056.00
1065.098, 18102.00
1066.198, 18077.42
1067.298, 18224.00
1068.398, 18142.00
1069.498, 18190.00
1070.598, 18346.00
1071.697, 18392.00
1072.797, 18306.00
1073.896, 18430.00
1074.995, 18253.00
1076.094, 18365.00
1077.192, 18314.00
1078.291, 18473.00
1079.389, 18463.00
1080.488, 18660.00
1081.586, 18460.00
1082.684, 18503.00
1083.781, 18712.00
1084.879, 18736.39
1085.976, 18904.91
1087.074, 19045.08
1088.171, 19158.24
1089.268, 19163.84
1090.365, 19308.32
1091.461, 19397.06
1092.558, 19483.60
1093.654, 19647.54
1094.750, 19668.69
1095.846, 20406.00
1096.942, 20611.00
1098.038, 20966.00
1099.134, 21358.00
1100.229, 21010.00
1101.324, 21135.00
1102.419, 21180.00
1103.514, 20843.00
1104.609, 20635.00
1105.704, 20311.00
1106.798, 20241.00
1107.892, 20145.00
1108.986, 19919.00
1110.080, 19980.00
1111.174, 19982.00
1112.268, 19887.00
1113.361, 19928.00
1114.455, 19896.00
1115.548, 19966.00
1116.641, 19910.00
1117.734, 19918.00
1118.826, 19805.00
1119.919, 19670.00
1121.011, 19567.00
1122.104, 19436.02
1123.196, 19353.89
1124.288, 19241.00
1125.379, 19194.00
1126.471, 19225.00
1127.562, 19151.00
1128.654, 19123.00
1129.745, 19058.00
1130.836, 18962.00
1131.927, 19264.00
1133.017, 19416.00
1134.108, 19200.00
1135.198, 19278.00
1136.288, 19232.00
1137.378, 19082.00
1138.468, 19164.00
1139.558, 19126.00
1140.647, 19347.00
1141.737, 19163.00
1142.826, 19082.00
1143.915, 19423.00
1145.004, 19265.00
1146.093, 19318.00
1147.181, 19122.00
1148.270, 19147.00
1149.358, 19391.00
1150.446, 19209.00
1151.534, 19361.00
1152.622, 19365.00
1153.710, 19466.00
1154.797, 19427.00
1155.885, 19424.00
1156.972, 19293.00
1158.059, 19354.00
1159.146, 19515.00
1160.232, 19402.00
1161.319, 19436.00
1162.405, 19358.00
1163.492, 19470.00
1164.578, 19422.00
1165.664, 19427.00
1166.749, 19544.00
1167.835, 19636.00
1168.921, 19433.00
1170.006, 19285.00
1171.091, 19717.00
1172.176, 19462.00
1173.261, 19535.00
1174.346, 19618.00
1175.430, 19595.00
1176.514, 19748.00
1177.599, 19669.00
1178.683, 19598.00
1179.767, 19716.00
1180.850, 19631.00
1181.934, 19738.00
1183.017, 19738.00
1184.101, 19517.00
1185.184, 19840.00
1186.267, 19742.00
1187.350, 19624.00
1188.432, 19790.00
1189.515, 19749.00
1190.597, 19765.00
1191.679, 19863.00
1192.761, 19751.00
1193.843, 19770.00
1194.925, 19834.00
1196.006, 19999.00
1197.088, 19846.00
1198.169, 19834.00
1199.250, 19919.00
1200.331, 19697.00
1201.412, 20062.00
1202.493, 19906.00
1203.573, 19977.00
1204.653, 19871.00
1205.734, 19898.60
1206.814, 20028.00
1207.893, 19982.00
1208.973, 20002.00
1210.053, 20083.00
1211.132, 20087.61
1212.211, 20162.00
1213.290, 20135.00
1214.369, 20243.00
1215.448, 20171.00
1216.527, 20095.00
1217.605, 20241.00
1218.683, 20224.00
1219.761, 20046.00
1220.839, 20388.00
1221.917, 20361.00
1222.995, 20202.00
1224.072, 20278.00
1225.150, 20399.00
1226.227, 20568.00
1227.304, 20547.24
1228.381, 20342.00
1229.458, 20490.00
1230.534, 20482.00
1231.611, 20356.00
1232.687, 20365.00
1233.763, 20565.00
1234.839, 20423.00
1235.915, 20464.00
1236.991, 20428.00
1238.066, 20414.00
1239.141, 20450.00
1240.217, 20619.00
1241.292, 20547.49
1242.366, 20626.00
1243.441, 20560.00
1244.516, 20501.00
1245.590, 20613.00
1246.664, 20533.00
1247.739, 20628.00
1248.813, 20603.00
1249.886, 20782.00
1250.960, 20736.00
1252.033, 20451.00
1253.107, 20708.00
1254.180, 20622.00
1255.253, 20630.00
1256.326, 20802.00
1257.399, 20726.00
