##NAMES=Albite
##RRUFFID=R050253
##IDEAL CHEMISTRY=NaAlSi_3_O_8_
##LOCALITY=Madawaska/Faraday mine, Bancroft, Ontario, Canada
##OWNER=RRUFF
##SOURCE=Marcus Origlieri
##DESCRIPTION=Colorless to brown prismatic single crystals
##STATUS=The identification of this mineral has been confirmed by X-ray diffraction and chemical analysis
##URL=rruff.info/R050253
##MEASURED CHEMISTRY=(Na_0.99_Ca_0.01_)Al_1.00_(Si_0.99_Al_0.01_)_3_O_8_
##PIN_ID=L01944
##ORIENTATION=Laser parallel to (0 -1 -1). Fiducial mark perpendicular to laser is parallel to a [1 0 0]
94.71400, 8359.000
95.94800, 8499.000
97.18200, 8472.000
98.41600, 8556.000
99.64900, 8706.000
100.8830, 8931.000
102.1160, 8902.000
103.3490, 9235.000
104.5820, 9583.000
105.8150, 10141.00
107.0470, 10974.00
108.2800, 11709.00
109.5120, 12287.85
110.7440, 12988.38
111.9760, 13553.00
113.2080, 14094.00
114.4400, 14852.00
115.6710, 15191.00
116.9030, 14869.00
118.1340, 13593.00
119.3650, 12347.00
120.5960, 11143.00
121.8270, 10326.00
123.0580, 10018.00
124.2880, 9757.000
125.5190, 9327.000
126.7490, 9302.000
127.9790, 9177.000
129.2090, 9289.000
130.4390, 9467.000
131.6680, 9509.000
132.8980, 9394.000
134.1270, 9456.000
135.3560, 9450.000
136.5850, 9637.000
137.8140, 10075.00
139.0430, 10200.00
140.2710, 10554.00
141.5000, 10868.00
142.7280, 11087.00
143.9560, 11574.00
145.1840, 12101.00
146.4120, 12797.00
147.6390, 13333.00
148.8670, 13394.00
150.0940, 13396.00
151.3210, 13337.00
152.5490, 13507.00
153.7750, 13905.00
155.0020, 14294.00
156.2290, 14780.00
157.4550, 15446.00
158.6810, 16460.00
159.9080, 17522.00
161.1340, 18947.00
162.3590, 20113.00
163.5850, 21037.00
164.8110, 21610.00
166.0360, 21367.00
167.2610, 20559.00
168.4860, 20232.00
169.7110, 19961.00
170.9360, 20781.00
172.1610, 21406.00
173.3850, 21696.00
174.6100, 21328.00
175.8340, 20838.00
177.0580, 20360.00
178.2820, 20240.00
179.5050, 20597.00
180.7290, 20937.00
181.9520, 21990.00
183.1760, 22873.00
184.3990, 23611.00
185.6220, 24596.00
186.8450, 24926.00
188.0670, 25057.00
189.2900, 24544.00
190.5120, 23273.00
191.7340, 22027.00
192.9560, 20771.00
194.1780, 19475.00
195.4000, 18492.00
196.6220, 17868.00
197.8430, 17238.00
199.0640, 17063.00
200.2860, 17281.00
201.5070, 17410.00
202.7270, 17917.00
203.9480, 18266.00
205.1690, 18902.00
206.3890, 19648.00
207.6090, 20919.00
208.8290, 22564.00
210.0490, 23921.00
211.2690, 24452.00
212.4890, 23872.00
213.7080, 21829.00
214.9280, 19224.00
216.1470, 16826.00
217.3660, 14859.00
218.5850, 13620.00
219.8030, 12673.00
221.0220, 12183.00
222.2400, 11602.00
223.4590, 11392.00
224.6770, 11035.00
225.8950, 11009.00
227.1120, 10707.00
228.3300, 10617.00
229.5480, 10618.00
230.7650, 10529.00
231.9820, 10442.00
233.1990, 10401.00
234.4160, 10285.00
235.6330, 10300.23
236.8490, 10295.24
238.0660, 10362.00
239.2820, 10376.00
240.4980, 10497.00
241.7140, 10578.00
242.9300, 10753.21
244.1460, 10920.00
245.3610, 11184.00
246.5770, 11402.00
247.7920, 11672.00
249.0070, 11929.00
250.2220, 12330.00
251.4370, 12842.00
252.6510, 13234.00
253.8660, 13405.00
255.0800, 13086.00
256.2940, 13633.00
257.5080, 13822.00
258.7220, 12727.00
259.9360, 12214.00
261.1490, 12050.00
262.3630, 11607.00
263.5760, 11512.00
264.7890, 11461.00
266.0020, 11658.00
267.2150, 11707.00
268.4270, 11861.00
269.6400, 12109.00
270.8520, 12332.00
272.0640, 12476.00
273.2760, 12760.00
274.4880, 12705.00
275.7000, 12976.00
276.9120, 13276.00
278.1230, 13721.00
279.3340, 14385.00
280.5450, 15284.00
281.7560, 16583.00
282.9670, 17995.00
284.1780, 19830.00
285.3880, 22034.00
286.5980, 24859.00
287.8090, 28329.00
289.0190, 32058.00
290.2290, 35917.00
291.4380, 39127.00
292.6480, 40267.00
293.8570, 38659.00
295.0670, 34682.00
296.2760, 29655.00
297.4850, 24915.00
298.6930, 21183.00
299.9020, 18426.00
301.1110, 16567.00
302.3190, 15342.00
303.5270, 14222.00
304.7350, 13594.00
305.9430, 13302.00
307.1510, 12830.00
308.3580, 12577.00
309.5660, 12351.00
310.7730, 12246.00
311.9800, 12326.00
313.1870, 12102.00
314.3940, 12307.00
315.6010, 12176.00
316.8070, 12066.00
318.0130, 12177.00
319.2200, 12307.00
320.4260, 12511.00
321.6310, 13063.00
322.8370, 13530.00
324.0430, 14172.00
325.2480, 14940.00
326.4540, 16224.00
327.6590, 17420.00
328.8640, 18942.00
330.0680, 20067.00
331.2730, 20024.00
332.4780, 18764.00
333.6820, 16845.00
334.8860, 15291.00
336.0900, 14046.00
337.2940, 13321.00
338.4980, 12667.00
339.7010, 12349.00
340.9050, 12096.00
342.1080, 11914.00
343.3110, 11799.00
344.5140, 11755.00
345.7170, 11711.00
346.9200, 11620.00
348.1220, 11770.00
349.3240, 11772.00
350.5270, 11728.00
351.7290, 11696.00
352.9310, 11584.00
354.1320, 11600.00
355.3340, 11602.00
356.5350, 11667.00
357.7370, 11351.00
358.9380, 11545.00
360.1390, 11337.00
361.3400, 11478.00
362.5400, 11362.00
363.7410, 11451.00
364.9410, 11391.00
366.1410, 11343.00
367.3410, 11459.00
368.5410, 11282.00
369.7410, 11380.00
370.9400, 11395.00
372.1400, 11412.00
373.3390, 11415.00
374.5380, 11435.00
375.7370, 11446.00
376.9360, 11454.82
378.1350, 11438.00
379.3330, 11440.00
380.5310, 11460.00
381.7300, 11380.00
382.9280, 11299.00
384.1260, 11464.00
385.3230, 11375.00
386.5210, 11482.00
387.7180, 11561.00
388.9160, 11574.00
390.1130, 11471.00
391.3100, 11689.00
392.5060, 11722.00
393.7030, 11657.00
394.9000, 11901.00
396.0960, 11909.00
397.2920, 12135.00
398.4880, 12160.00
399.6840, 12311.00
400.8800, 12430.00
402.0750, 12527.00
403.2710, 12673.00
404.4660, 12640.00
405.6610, 12976.00
406.8560, 13000.00
408.0510, 13191.00
409.2450, 13386.00
410.4400, 13354.00
411.6340, 13123.00
412.8280, 12991.00
414.0220, 12711.00
415.2160, 12727.81
416.4100, 12653.72
417.6030, 12711.00
418.7970, 12617.00
419.9900, 12504.00
421.1830, 12343.00
422.3760, 12089.00
423.5690, 11955.00
424.7610, 11966.00
425.9540, 11883.00
427.1460, 11895.00
428.3380, 11998.00
429.5300, 12084.00
430.7220, 12016.00
431.9140, 11979.00
433.1050, 11992.00
434.2970, 11995.58
435.4880, 11983.00
436.6790, 12057.00
437.8700, 12114.00
439.0610, 12117.00
440.2510, 12247.00
441.4420, 12158.00
442.6320, 12268.64
443.8220, 12280.00
445.0120, 12424.00
446.2020, 12437.00
447.3910, 12545.00
448.5810, 12630.98
449.7700, 12735.00
450.9600, 12842.00
452.1490, 12933.54
453.3370, 13053.43
454.5260, 13194.00
455.7150, 13275.00
456.9030, 13427.00
458.0910, 13515.00
459.2800, 13657.00
460.4670, 13601.00
461.6550, 13656.00
462.8430, 13636.00
464.0300, 13746.00
465.2180, 13791.00
466.4050, 14083.00
467.5920, 14658.00
468.7790, 15051.00
469.9650, 15978.00
471.1520, 16859.00
472.3380, 18060.00
473.5250, 19263.00
474.7110, 21047.00
475.8970, 23498.00
477.0820, 25885.00
478.2680, 28636.00
479.4540, 30776.00
480.6390, 31925.00
481.8240, 31075.00
483.0090, 28187.00
484.1940, 24822.00
485.3780, 21929.00
486.5630, 19811.00
487.7470, 18446.00
488.9320, 17553.00
490.1160, 16834.00
491.3000, 16584.00
492.4830, 16755.00
493.6670, 16893.00
494.8500, 17333.00
496.0340, 17997.00
497.2170, 19170.00
498.4000, 20367.00
499.5820, 22520.00
500.7650, 24779.00
501.9480, 27994.00
503.1300, 31842.00
504.3120, 36785.00
505.4940, 42277.00
506.6760, 48364.00
507.8580, 52919.00
509.0390, 54550.00
510.2210, 51458.00
511.4020, 45337.00
512.5830, 38952.00
513.7640, 32485.00
514.9450, 27464.00
516.1250, 24307.00
517.3060, 21679.00
518.4860, 19903.00
519.6660, 18680.00
520.8460, 17971.00
522.0260, 17169.00
523.2060, 16471.00
524.3850, 16092.00
525.5650, 15814.00
526.7440, 15375.00
527.9230, 15330.00
529.1020, 15111.00
530.2810, 14855.00
531.4590, 14911.00
532.6380, 14705.00
533.8160, 14704.00
534.9940, 14423.00
536.1720, 14453.00
537.3500, 14338.00
538.5270, 14192.00
539.7050, 14360.00
540.8820, 14247.00
542.0590, 14257.00
543.2360, 14007.00
544.4130, 14174.00
545.5900, 14066.00
546.7660, 14090.00
547.9430, 13986.00
549.1190, 14124.00
550.2950, 13996.00
551.4710, 13979.00
552.6470, 13897.00
553.8220, 14028.00
554.9980, 13900.00
556.1730, 14013.00
557.3480, 13907.00
558.5230, 13813.00
559.6980, 14075.00
560.8730, 14183.00
562.0470, 14067.00
563.2220, 14069.00
564.3960, 13927.00
565.5700, 14069.00
566.7440, 14188.00
567.9170, 14107.00
569.0910, 14191.00
570.2640, 14157.00
571.4380, 14503.00
572.6110, 14612.00
573.7840, 14665.00
574.9570, 15033.00
576.1290, 15224.00
577.3020, 15498.00
578.4740, 15717.00
579.6460, 15858.00
580.8180, 15748.00
581.9900, 15699.00
583.1620, 15546.00
584.3330, 15205.00
585.5040, 14939.00
586.6760, 14570.00
587.8470, 14169.00
589.0180, 14287.00
590.1880, 14096.00
591.3590, 14251.00
592.5290, 14078.00
593.7000, 13976.00
594.8700, 13996.00
596.0400, 14045.00
597.2090, 14068.00
598.3790, 13992.00
599.5490, 13967.00
600.7180, 13936.00
601.8870, 14031.00
603.0560, 14155.00
604.2250, 14165.15
605.3940, 14091.00
606.5620, 14239.00
607.7300, 14211.00
608.8990, 14176.00
610.0670, 14213.00
611.2350, 14112.00
612.4020, 14151.17
613.5700, 14151.00
614.7370, 14179.00
615.9050, 14269.00
617.0720, 14296.00
618.2390, 14365.00
619.4060, 14367.00
620.5720, 14272.00
621.7390, 14255.00
622.9050, 14529.00
624.0710, 14382.00
625.2370, 14799.00
626.4030, 14746.00
627.5690, 14860.00
628.7340, 14880.00
629.9000, 15008.00
631.0650, 15172.00
632.2300, 15185.00
633.3950, 15396.00
634.5600, 15429.00
635.7240, 15426.00
636.8890, 15443.00
638.0530, 15388.00
639.2170, 15439.00
640.3810, 15337.00
641.5450, 15547.00
642.7080, 15571.00
643.8720, 15881.00
645.0350, 15883.00
646.1980, 16146.00
647.3610, 16286.00
648.5240, 16282.00
649.6870, 16197.00
650.8490, 16051.00
652.0120, 15730.00
653.1740, 15576.00
654.3360, 15426.00
655.4980, 15155.00
656.6600, 15102.00
657.8210, 14913.00
658.9830, 14930.00
660.1440, 14848.00
661.3050, 14932.00
662.4660, 14816.00
663.6270, 14820.00
664.7870, 14601.00
665.9480, 14740.00
667.1080, 14680.00
668.2680, 14684.00
669.4280, 14740.00
670.5880, 14689.00
671.7480, 14764.00
672.9070, 14851.00
674.0670, 14741.00
675.2260, 14718.00
676.3850, 14686.00
677.5440, 14843.00
678.7030, 14779.00
679.8610, 14800.00
681.0200, 14683.00
682.1780, 14760.00
683.3360, 14817.00
684.4940, 14826.00
685.6520, 14824.00
686.8090, 14876.00
687.9670, 14911.00
689.1240, 14871.00
690.2810, 14839.00
691.4380, 14807.00
692.5950, 14782.00
693.7520, 14804.94
694.9080, 14917.00
696.0650, 14848.00
697.2210, 14909.00
698.3770, 14886.00
699.5330, 14791.00
700.6880, 14894.00
701.8440, 14832.00
702.9990, 14850.00
704.1550, 14973.00
705.3100, 15013.00
706.4650, 14942.00
707.6190, 15037.00
708.7740, 15108.00
709.9290, 14957.00
711.0830, 15001.00
712.2370, 15011.00
713.3910, 15086.00
714.5450, 15040.00
715.6980, 15001.00
716.8520, 15030.00
718.0050, 15098.00
719.1580, 15158.00
720.3110, 15013.00
721.4640, 15129.00
722.6170, 15200.00
723.7700, 15413.00
724.9220, 15092.00
726.0740, 15292.00
727.2260, 15072.00
728.3780, 15142.00
729.5300, 15241.00
730.6810, 15196.00
731.8330, 15335.00
732.9840, 15323.00
734.1350, 15363.00
735.2860, 15256.00
736.4370, 15296.00
737.5880, 15323.00
738.7380, 15403.00
739.8880, 15549.00
741.0390, 15420.00
742.1890, 15470.00
743.3380, 15301.00
744.4880, 15477.00
745.6380, 15560.00
746.7870, 15579.00
747.9360, 15491.00
749.0850, 15609.00
750.2340, 15750.00
751.3830, 15632.00
752.5310, 15805.00
753.6800, 16105.00
754.8280, 16038.00
755.9760, 16036.00
757.1240, 16353.00
758.2720, 16445.00
759.4190, 16782.00
760.5670, 17097.00
761.7140, 17465.00
762.8610, 17620.00
764.0080, 17977.00
765.1550, 17892.90
766.3020, 17986.00
767.4480, 17585.00
768.5950, 17398.00
769.7410, 17052.00
770.8870, 16694.00
772.0330, 16608.00
773.1780, 16516.00
774.3240, 16400.00
775.4690, 16461.00
776.6140, 16492.00
777.7590, 16491.00
778.9040, 16432.00
780.0490, 16234.00
781.1940, 16227.00
782.3380, 16201.00
783.4820, 16267.00
784.6260, 16197.00
785.7700, 16123.00
786.9140, 16137.00
788.0580, 16022.00
789.2010, 16083.10
790.3450, 16124.00
791.4880, 16167.00
792.6310, 16142.00
793.7730, 16149.00
794.9160, 16228.00
796.0590, 16286.00
797.2010, 16264.00
798.3430, 16405.00
799.4850, 16457.00
800.6270, 16460.00
801.7690, 16563.00
802.9100, 16614.00
804.0520, 16683.00
805.1930, 16964.00
806.3340, 17145.00
807.4750, 17460.00
808.6160, 17817.94
809.7560, 18295.28
810.8970, 18842.00
812.0370, 19412.00
813.1770, 20433.00
814.3170, 21030.00
815.4570, 21768.00
816.5960, 22029.00
817.7360, 21794.00
818.8750, 21114.00
820.0140, 20421.00
821.1530, 19268.00
822.2920, 18545.00
823.4310, 18075.00
824.5690, 17729.00
825.7070, 17366.00
826.8460, 17112.00
827.9840, 17223.00
829.1220, 16852.00
830.2590, 16933.00
831.3970, 16891.00
832.5340, 16763.00
833.6710, 16789.00
834.8080, 16740.00
835.9450, 16885.00
837.0820, 16792.00
838.2190, 16865.00
839.3550, 16751.00
840.4910, 16740.00
841.6270, 16775.00
842.7630, 16775.00
843.8990, 16753.00
845.0350, 16778.00
846.1700, 16771.98
847.3060, 16776.03
848.4410, 16800.00
849.5760, 16794.00
850.7100, 16841.00
851.8450, 16868.00
852.9800, 16910.00
854.1140, 16881.99
855.2480, 16817.00
856.3820, 16812.00
857.5160, 16839.00
858.6500, 16814.00
859.7830, 16923.00
860.9170, 16783.00
862.0500, 16958.00
863.1830, 17087.00
864.3160, 16887.00
865.4480, 16773.00
866.5810, 16964.00
867.7130, 16835.00
868.8460, 16918.12
869.9780, 16951.00
871.1100, 16985.00
872.2410, 17028.00
873.3730, 17038.31
874.5050, 17115.00
875.6360, 17055.07
876.7670, 17006.00
877.8980, 16998.00
879.0290, 17050.00
880.1590, 17004.00
881.2900, 17202.00
882.4200, 17082.00
883.5500, 17155.00
884.6800, 17068.00
885.8100, 17030.00
886.9400, 17116.00
888.0690, 17197.00
889.1990, 17268.00
890.3280, 17126.00
891.4570, 17083.00
892.5860, 17208.00
893.7140, 17151.00
894.8430, 17308.00
895.9710, 17502.00
897.1000, 17415.00
898.2280, 17391.00
899.3560, 17280.00
900.4830, 17334.00
901.6110, 17286.00
902.7380, 17407.00
903.8660, 17525.00
904.9930, 17419.00
906.1200, 17603.00
907.2460, 17435.00
908.3730, 17625.00
909.5000, 17432.00
910.6260, 17571.00
911.7520, 17827.00
912.8780, 17625.00
914.0040, 17742.00
915.1290, 17653.00
916.2550, 17736.00
917.3800, 17674.00
918.5050, 17740.00
919.6300, 17478.00
920.7550, 17678.00
921.8800, 17540.00
923.0040, 17740.00
924.1290, 17890.00
925.2530, 17696.00
926.3770, 17670.00
927.5010, 17972.00
928.6250, 17834.00
929.7480, 17888.00
930.8720, 17920.00
931.9950, 17956.00
933.1180, 18000.00
934.2410, 18030.93
935.3640, 18057.57
936.4860, 18064.00
937.6090, 18096.00
938.7310, 18035.00
939.8530, 18034.00
940.9750, 18029.85
942.0970, 18036.90
943.2180, 18038.00
944.3400, 18090.00
945.4610, 18141.00
946.5820, 18168.00
947.7030, 18211.00
948.8240, 18301.00
949.9450, 18164.00
951.0650, 18159.00
952.1860, 18448.00
953.3060, 18246.00
954.4260, 18327.00
955.5460, 18462.00
956.6650, 18295.00
957.7850, 18242.00
958.9040, 18380.00
960.0230, 18342.00
961.1420, 18443.00
962.2610, 18531.00
963.3800, 18458.00
964.4990, 18489.00
965.6170, 18527.00
966.7350, 18550.00
967.8530, 18583.00
968.9710, 18643.00
970.0890, 18695.00
971.2070, 18790.00
972.3240, 18906.00
973.4410, 18823.00
974.5580, 18944.00
975.6750, 18967.00
976.7920, 18964.25
977.9090, 18928.00
979.0250, 19059.00
980.1410, 19177.00
981.2580, 19379.00
982.3740, 19286.64
983.4890, 19013.00
984.6050, 19113.00
985.7200, 18993.00
986.8360, 18927.00
987.9510, 18974.00
989.0660, 19074.00
990.1810, 19058.00
991.2950, 19210.00
992.4100, 19248.00
993.5240, 19060.00
994.6390, 19143.00
995.7530, 19183.00
996.8660, 19149.00
997.9800, 19176.00
999.0940, 19222.16
1000.207, 19251.00
1001.320, 19363.00
1002.433, 19420.00
1003.546, 19560.00
1004.659, 19542.00
1005.772, 19631.00
1006.884, 19813.00
1007.996, 19739.00
1009.108, 19924.00
1010.220, 19929.00
1011.332, 20020.89
1012.444, 20150.00
1013.555, 20196.00
1014.666, 20249.00
1015.777, 20280.00
1016.888, 20274.00
1017.999, 20037.00
1019.110, 20175.00
1020.220, 20242.00
1021.331, 19947.00
1022.441, 20037.00
1023.551, 19922.00
1024.661, 20006.00
1025.770, 19866.00
1026.880, 20157.00
1027.989, 20208.00
1029.098, 20420.00
1030.207, 20851.00
1031.316, 20865.00
1032.425, 21202.00
1033.533, 21166.00
1034.642, 21016.00
1035.750, 21202.00
1036.858, 20859.00
1037.966, 20556.00
1039.073, 20504.00
1040.181, 20373.00
1041.288, 20221.00
1042.396, 20044.00
1043.503, 20247.00
1044.610, 20170.00
1045.716, 20068.00
1046.823, 19876.00
1047.929, 20099.00
1049.036, 19936.00
1050.142, 19936.00
1051.248, 20080.00
1052.353, 19952.00
1053.459, 20050.00
1054.564, 19904.00
1055.670, 19920.00
1056.775, 19842.00
1057.880, 20151.00
1058.985, 20119.00
1060.089, 20098.00
1061.194, 20045.00
1062.298, 20175.00
1063.402, 20019.00
1064.506, 20097.00
1065.610, 19994.00
1066.713, 20212.00
1067.817, 20085.00
1068.920, 20257.00
1070.023, 20212.00
1071.126, 20263.00
1072.229, 20122.00
1073.332, 20292.00
1074.435, 20398.00
1075.537, 20559.00
1076.639, 20419.00
1077.741, 20303.00
1078.843, 20428.00
1079.945, 20607.00
1081.046, 20655.00
1082.148, 20734.00
1083.249, 20747.00
1084.350, 20810.00
1085.451, 21112.00
1086.551, 21133.00
1087.652, 21164.00
1088.752, 21373.00
1089.853, 21424.00
1090.953, 21515.00
1092.053, 21697.00
1093.152, 21934.00
1094.252, 22256.00
1095.351, 22683.00
1096.451, 22841.00
1097.550, 23315.00
1098.649, 23485.00
1099.748, 23652.00
1100.846, 23807.00
1101.945, 23894.00
1103.043, 23705.00
1104.141, 23453.00
1105.239, 23159.00
1106.337, 22974.00
1107.434, 22680.00
1108.532, 22871.00
1109.629, 22534.00
1110.726, 22635.00
1111.823, 22399.00
1112.920, 22388.00
1114.017, 22606.00
1115.113, 22344.00
1116.210, 22659.00
1117.306, 22597.00
1118.402, 22659.00
1119.498, 22757.00
1120.593, 22727.00
1121.689, 22536.00
1122.784, 22665.00
1123.879, 22327.00
1124.974, 22142.00
1126.069, 22030.00
1127.164, 21799.00
1128.259, 21839.00
1129.353, 21492.00
1130.447, 21379.00
1131.541, 21356.00
1132.635, 21366.00
1133.729, 21178.00
1134.822, 21169.00
1135.916, 21100.00
1137.009, 21057.00
1138.102, 21064.00
1139.195, 21001.00
1140.288, 21049.00
1141.380, 20983.00
1142.473, 21197.00
1143.565, 21174.00
1144.657, 20977.00
1145.749, 20985.00
1146.841, 21359.00
1147.932, 21059.00
1149.024, 21249.00
1150.115, 21085.00
1151.206, 21619.00
1152.297, 21278.00
1153.388, 21505.00
1154.479, 21550.00
1155.569, 21395.00
1156.659, 21564.00
1157.750, 21469.00
1158.839, 21436.00
1159.929, 21412.00
1161.019, 21325.00
1162.108, 21511.00
1163.198, 21453.00
1164.287, 21597.00
1165.376, 21413.00
1166.465, 21324.00
1167.553, 21502.00
1168.642, 21384.00
1169.730, 21565.00
1170.818, 21554.00
1171.906, 21682.00
1172.994, 21639.66
1174.082, 21800.00
1175.170, 21496.00
1176.257, 21572.00
1177.344, 21456.00
1178.431, 21485.00
1179.518, 21533.00
1180.605, 21513.00
1181.691, 21556.00
1182.778, 21634.00
1183.864, 21645.00
1184.950, 21637.00
1186.036, 21759.00
1187.122, 21713.00
1188.207, 21768.00
1189.292, 21673.00
1190.378, 21667.00
1191.463, 21669.00
1192.548, 21766.00
1193.632, 21736.00
1194.717, 21764.00
1195.801, 21702.00
1196.886, 21791.00
1197.970, 21800.00
1199.054, 21941.00
1200.137, 21825.00
1201.221, 21894.00
1202.305, 21960.00
1203.388, 21931.00
1204.471, 21906.00
1205.554, 21945.00
1206.637, 21912.87
1207.719, 21898.00
1208.802, 21981.00
1209.884, 21828.00
1210.966, 22030.00
1212.048, 22009.00
1213.130, 21930.00
1214.212, 22097.00
1215.293, 22163.00
1216.374, 22083.00
1217.456, 22180.00
1218.536, 22337.00
1219.617, 22248.00
1220.698, 22339.76
1221.778, 22115.00
1222.859, 22312.00
1223.939, 22286.00
1225.019, 22156.00
1226.099, 22322.00
1227.178, 22152.00
1228.258, 22434.00
1229.337, 22470.00
1230.417, 22300.00
1231.496, 22309.00
1232.574, 22405.00
1233.653, 22249.00
1234.732, 22422.00
1235.810, 22443.00
1236.888, 22293.00
1237.966, 22443.00
1239.044, 22640.00
1240.122, 22508.00
1241.199, 22471.00
1242.277, 22365.00
1243.354, 22598.00
1244.431, 22502.00
1245.508, 22564.00
1246.585, 22555.00
1247.661, 22687.00
1248.738, 22716.00
1249.814, 22481.00
1250.890, 22616.00
1251.966, 22521.00
1253.042, 22707.00
1254.117, 22616.00
1255.193, 22792.00
1256.268, 22784.00
1257.343, 22850.00
1258.418, 22575.00
1259.493, 22791.00
1260.567, 22827.00
1261.642, 22633.00
1262.716, 22873.00
1263.790, 22910.00
1264.864, 22974.00
1265.938, 23021.05
1267.011, 23041.05
1268.085, 22961.00
1269.158, 23054.00
1270.231, 22944.00
1271.304, 22894.00
1272.377, 23084.00
1273.450, 23031.00
1274.522, 23063.06
