##NAMES=Albite
##RRUFFID=R050253
##IDEAL CHEMISTRY=NaAlSi_3_O_8_
##LOCALITY=Madawaska/Faraday mine, Bancroft, Ontario, Canada
##OWNER=RRUFF
##SOURCE=Marcus Origlieri
##DESCRIPTION=Colorless to brown prismatic single crystals
##STATUS=The identification of this mineral has been confirmed by X-ray diffraction and chemical analysis
##URL=rruff.info/R050253
##MEASURED CHEMISTRY=(Na_0.99_Ca_0.01_)Al_1.00_(Si_0.99_Al_0.01_)_3_O_8_
##PIN_ID=L01944
##ORIENTATION=Laser parallel to (0 -1 -1). Fiducial mark perpendicular to laser is parallel to a [1 0 0]
94.71400, 13609.00
95.94800, 13995.00
97.18200, 14050.00
98.41600, 14054.00
99.64900, 14397.00
100.8830, 14785.00
102.1160, 14762.00
103.3490, 15038.00
104.5820, 15381.00
105.8150, 16227.00
107.0470, 16981.00
108.2800, 17680.00
109.5120, 18316.65
110.7440, 18811.03
111.9760, 19504.00
113.2080, 19628.00
114.4400, 20282.00
115.6710, 20630.00
116.9030, 20771.00
118.1340, 19434.00
119.3650, 18335.00
120.5960, 17370.00
121.8270, 16873.00
123.0580, 16588.00
124.2880, 16508.00
125.5190, 16130.00
126.7490, 16093.16
127.9790, 15913.00
129.2090, 15977.00
130.4390, 16068.00
131.6680, 16089.00
132.8980, 16137.00
134.1270, 16229.17
135.3560, 16327.00
136.5850, 16475.00
137.8140, 16573.00
139.0430, 16847.00
140.2710, 17019.55
141.5000, 17385.00
142.7280, 17494.00
143.9560, 17876.00
145.1840, 18155.00
146.4120, 18661.00
147.6390, 18950.00
148.8670, 19283.00
150.0940, 19683.00
151.3210, 19708.00
152.5490, 20317.00
153.7750, 20571.00
155.0020, 20965.00
156.2290, 21038.00
157.4550, 21364.00
158.6810, 21981.00
159.9080, 22891.00
161.1340, 24005.00
162.3590, 24763.00
163.5850, 26071.00
164.8110, 25968.00
166.0360, 26008.00
167.2610, 25126.00
168.4860, 24606.00
169.7110, 23964.00
170.9360, 24067.00
172.1610, 24261.00
173.3850, 24028.00
174.6100, 23622.00
175.8340, 23319.00
177.0580, 22924.00
178.2820, 22730.00
179.5050, 22960.00
180.7290, 23394.00
181.9520, 23862.00
183.1760, 24224.00
184.3990, 24889.00
185.6220, 25479.00
186.8450, 25705.00
188.0670, 25821.00
189.2900, 25512.00
190.5120, 25181.00
191.7340, 24339.00
192.9560, 23766.00
194.1780, 23449.00
195.4000, 22920.00
196.6220, 22593.00
197.8430, 22226.00
199.0640, 22328.00
200.2860, 22333.00
201.5070, 22424.00
202.7270, 22594.85
203.9480, 23140.00
205.1690, 23115.00
206.3890, 23455.00
207.6090, 24022.00
208.8290, 24863.00
210.0490, 25640.00
211.2690, 25463.00
212.4890, 24893.00
213.7080, 23816.00
214.9280, 22464.00
216.1470, 21166.00
217.3660, 20107.00
218.5850, 19350.00
219.8030, 18955.00
221.0220, 18678.00
222.2400, 18553.00
223.4590, 18392.00
224.6770, 18080.00
225.8950, 18086.00
227.1120, 18180.00
228.3300, 18019.00
229.5480, 18095.00
230.7650, 18105.00
231.9820, 17979.00
233.1990, 17985.00
234.4160, 18054.00
235.6330, 18294.00
236.8490, 18147.00
238.0660, 18191.00
239.2820, 18050.00
240.4980, 18293.00
241.7140, 18404.00
242.9300, 18544.00
244.1460, 18743.00
245.3610, 18971.00
246.5770, 19328.00
247.7920, 19303.00
249.0070, 19709.00
250.2220, 20058.00
251.4370, 20721.00
252.6510, 20979.00
253.8660, 20877.81
255.0800, 21535.00
256.2940, 20460.00
257.5080, 20115.00
258.7220, 20044.00
259.9360, 20172.00
261.1490, 19999.71
262.3630, 19876.00
263.5760, 20043.00
264.7890, 20253.00
266.0020, 20473.00
267.2150, 20967.00
268.4270, 21406.00
269.6400, 21655.00
270.8520, 22106.00
272.0640, 22138.00
273.2760, 22225.00
274.4880, 21827.00
275.7000, 21745.00
276.9120, 21646.00
278.1230, 21817.15
279.3340, 22144.00
280.5450, 22662.00
281.7560, 23473.86
282.9670, 24285.00
284.1780, 25702.00
285.3880, 27181.00
286.5980, 28842.00
287.8090, 31179.00
289.0190, 33824.00
290.2290, 36189.00
291.4380, 38053.00
292.6480, 38488.00
293.8570, 37382.00
295.0670, 34721.00
296.2760, 31359.00
297.4850, 28288.00
298.6930, 26294.00
299.9020, 24492.00
301.1110, 23180.00
302.3190, 22366.00
303.5270, 21723.00
304.7350, 21318.00
305.9430, 20906.29
307.1510, 20843.00
308.3580, 20563.00
309.5660, 20589.00
310.7730, 20721.00
311.9800, 20619.00
313.1870, 20446.00
314.3940, 20497.00
315.6010, 20562.00
316.8070, 20337.00
318.0130, 20562.00
319.2200, 20622.00
320.4260, 20719.00
321.6310, 20860.00
322.8370, 21331.00
324.0430, 21616.00
325.2480, 21982.00
326.4540, 22655.00
327.6590, 23204.00
328.8640, 24030.00
330.0680, 24381.00
331.2730, 24347.00
332.4780, 23553.00
333.6820, 22718.00
334.8860, 21885.00
336.0900, 21482.00
337.2940, 21056.00
338.4980, 20741.00
339.7010, 20648.00
340.9050, 20518.00
342.1080, 20334.00
343.3110, 20542.00
344.5140, 20307.00
345.7170, 20334.00
346.9200, 20357.00
348.1220, 20286.00
349.3240, 20356.30
350.5270, 20245.00
351.7290, 20403.00
352.9310, 20366.41
354.1320, 20571.00
355.3340, 20413.00
356.5350, 20393.00
357.7370, 20462.00
358.9380, 20397.00
360.1390, 20533.00
361.3400, 20473.00
362.5400, 20370.00
363.7410, 20353.00
364.9410, 20602.00
366.1410, 20534.00
367.3410, 20600.00
368.5410, 20567.00
369.7410, 20705.00
370.9400, 20480.00
372.1400, 20530.00
373.3390, 20593.00
374.5380, 20471.00
375.7370, 20637.00
376.9360, 20685.00
378.1350, 20711.00
379.3330, 20917.00
380.5310, 20635.00
381.7300, 20695.00
382.9280, 20888.00
384.1260, 20884.00
385.3230, 20683.00
386.5210, 20901.00
387.7180, 20897.00
388.9160, 21006.00
390.1130, 21030.00
391.3100, 21021.00
392.5060, 21240.00
393.7030, 21335.00
394.9000, 21410.00
396.0960, 21540.03
397.2920, 21611.00
398.4880, 21689.00
399.6840, 22020.00
400.8800, 22067.00
402.0750, 22338.00
403.2710, 22283.00
404.4660, 22583.00
405.6610, 22781.00
406.8560, 23320.00
408.0510, 23785.00
409.2450, 24288.00
410.4400, 24157.00
411.6340, 23691.00
412.8280, 23523.00
414.0220, 23143.00
415.2160, 23081.00
416.4100, 23217.00
417.6030, 23205.00
418.7970, 23144.00
419.9900, 22732.00
421.1830, 22514.00
422.3760, 22271.00
423.5690, 21991.00
424.7610, 21974.00
425.9540, 22051.00
427.1460, 21883.00
428.3380, 21987.00
429.5300, 21838.00
430.7220, 21964.00
431.9140, 21802.00
433.1050, 22034.00
434.2970, 22015.00
435.4880, 21756.00
436.6790, 22158.00
437.8700, 21989.00
439.0610, 22051.00
440.2510, 22220.00
441.4420, 22173.00
442.6320, 22153.00
443.8220, 22295.00
445.0120, 22231.00
446.2020, 22348.00
447.3910, 22367.00
448.5810, 22660.00
449.7700, 22615.00
450.9600, 22514.00
452.1490, 22832.00
453.3370, 22753.00
454.5260, 23035.00
455.7150, 23276.00
456.9030, 23357.00
458.0910, 23539.00
459.2800, 23553.00
460.4670, 23604.00
461.6550, 23683.00
462.8430, 23807.00
464.0300, 24052.04
465.2180, 24304.00
466.4050, 24784.00
467.5920, 25342.00
468.7790, 26047.00
469.9650, 27246.00
471.1520, 28105.00
472.3380, 29448.00
473.5250, 31147.00
474.7110, 33241.00
475.8970, 36078.00
477.0820, 39229.00
478.2680, 42552.00
479.4540, 45208.00
480.6390, 45723.00
481.8240, 44310.00
483.0090, 41179.00
484.1940, 37056.00
485.3780, 33882.00
486.5630, 31461.00
487.7470, 29543.00
488.9320, 28527.00
490.1160, 27499.00
491.3000, 27394.00
492.4830, 27179.00
493.6670, 27139.00
494.8500, 27628.00
496.0340, 28295.00
497.2170, 29437.00
498.4000, 30784.00
499.5820, 32355.00
500.7650, 34489.00
501.9480, 37241.00
503.1300, 40561.00
504.3120, 44905.00
505.4940, 49792.00
506.6760, 54469.00
507.8580, 58031.00
509.0390, 58985.00
510.2210, 56294.00
511.4020, 51160.00
512.5830, 45460.00
513.7640, 40166.00
514.9450, 36133.00
516.1250, 33386.00
517.3060, 31316.00
518.4860, 29691.00
519.6660, 28642.00
520.8460, 28159.00
522.0260, 27563.00
523.2060, 27001.00
524.3850, 26394.00
525.5650, 26391.00
526.7440, 26021.00
527.9230, 26058.00
529.1020, 25757.00
530.2810, 25598.00
531.4590, 25442.00
532.6380, 25191.00
533.8160, 25331.00
534.9940, 25142.00
536.1720, 25144.00
537.3500, 25225.00
538.5270, 25237.00
539.7050, 25175.00
540.8820, 24986.00
542.0590, 25055.00
543.2360, 24894.00
544.4130, 24898.00
545.5900, 24848.00
546.7660, 25117.00
547.9430, 24918.00
549.1190, 25046.00
550.2950, 24908.00
551.4710, 25050.00
552.6470, 25179.00
553.8220, 25117.00
554.9980, 24834.00
556.1730, 24959.00
557.3480, 24861.00
558.5230, 24920.00
559.6980, 24914.00
560.8730, 24918.90
562.0470, 24947.90
563.2220, 24961.00
564.3960, 25030.00
565.5700, 25032.00
566.7440, 25180.00
567.9170, 25054.00
569.0910, 25199.00
570.2640, 25502.00
571.4380, 25557.00
572.6110, 25531.00
573.7840, 25627.00
574.9570, 25757.00
576.1290, 26025.00
577.3020, 25988.00
578.4740, 26163.00
579.6460, 26343.00
580.8180, 26068.00
581.9900, 26213.00
583.1620, 25960.00
584.3330, 25949.00
585.5040, 25573.00
586.6760, 25712.00
587.8470, 25295.00
589.0180, 25446.00
590.1880, 25270.00
591.3590, 25177.00
592.5290, 25458.00
593.7000, 25217.00
594.8700, 25408.00
596.0400, 25421.00
597.2090, 25414.00
598.3790, 25396.00
599.5490, 25418.00
600.7180, 25447.93
601.8870, 25474.00
603.0560, 25542.00
604.2250, 25511.00
605.3940, 25551.00
606.5620, 25620.00
607.7300, 25701.00
608.8990, 25666.00
610.0670, 25730.00
611.2350, 25840.00
612.4020, 25676.00
613.5700, 25738.00
614.7370, 25806.00
615.9050, 25841.00
617.0720, 26112.00
618.2390, 26022.00
619.4060, 26119.00
620.5720, 26167.00
621.7390, 26009.00
622.9050, 26185.00
624.0710, 26202.00
625.2370, 26330.00
626.4030, 26213.00
627.5690, 26459.00
628.7340, 26434.00
629.9000, 26597.00
631.0650, 26628.97
632.2300, 26606.00
633.3950, 26678.00
634.5600, 26832.00
635.7240, 26894.00
636.8890, 26897.41
638.0530, 26861.00
639.2170, 26885.00
640.3810, 26911.00
641.5450, 26978.00
642.7080, 26966.00
643.8720, 27079.00
645.0350, 27232.00
646.1980, 27493.00
647.3610, 27589.00
648.5240, 27625.00
649.6870, 27469.00
650.8490, 27385.00
652.0120, 27305.00
653.1740, 27004.00
654.3360, 27050.00
655.4980, 26947.00
656.6600, 26759.00
657.8210, 26771.00
658.9830, 26726.25
660.1440, 26822.00
661.3050, 26787.00
662.4660, 26868.00
663.6270, 26952.00
664.7870, 26737.00
665.9480, 26876.00
667.1080, 27118.00
668.2680, 26838.00
669.4280, 26984.00
670.5880, 26861.00
671.7480, 26978.00
672.9070, 27033.00
674.0670, 26794.00
675.2260, 27090.00
676.3850, 26904.00
677.5440, 27055.00
678.7030, 26846.00
679.8610, 27031.00
681.0200, 27059.00
682.1780, 26988.00
683.3360, 27035.00
684.4940, 27017.00
685.6520, 27055.90
686.8090, 26957.00
687.9670, 27088.00
689.1240, 27128.00
690.2810, 26984.00
691.4380, 27196.00
692.5950, 27368.00
693.7520, 27170.00
694.9080, 26916.00
696.0650, 27101.00
697.2210, 27219.00
698.3770, 27338.00
699.5330, 27253.00
700.6880, 27233.00
701.8440, 27475.00
702.9990, 27194.00
704.1550, 27347.00
705.3100, 27444.00
706.4650, 27519.00
707.6190, 27398.00
708.7740, 27391.00
709.9290, 27524.00
711.0830, 27381.00
712.2370, 27448.00
713.3910, 27447.00
714.5450, 27487.30
715.6980, 27596.00
716.8520, 27680.00
718.0050, 27705.00
719.1580, 27859.00
720.3110, 27951.00
721.4640, 27964.65
722.6170, 27947.00
723.7700, 27952.00
724.9220, 27906.00
726.0740, 27799.00
727.2260, 27887.53
728.3780, 27827.00
729.5300, 27974.00
730.6810, 28138.00
731.8330, 28092.00
732.9840, 28035.00
734.1350, 28000.00
735.2860, 28020.00
736.4370, 28106.00
737.5880, 28192.00
738.7380, 28121.00
739.8880, 28208.09
741.0390, 28138.00
742.1890, 28272.00
743.3380, 28254.00
744.4880, 28294.00
745.6380, 28384.98
746.7870, 28623.00
747.9360, 28538.00
749.0850, 28655.00
750.2340, 28739.00
751.3830, 28687.00
752.5310, 28720.00
753.6800, 29029.00
754.8280, 29067.00
755.9760, 29219.00
757.1240, 29421.00
758.2720, 29929.00
759.4190, 30147.00
760.5670, 30562.00
761.7140, 31070.00
762.8610, 31515.00
764.0080, 31961.00
765.1550, 31886.00
766.3020, 31751.00
767.4480, 31330.00
768.5950, 30646.00
769.7410, 30405.00
770.8870, 30202.00
772.0330, 29907.00
773.1780, 29927.00
774.3240, 29684.00
775.4690, 29746.00
776.6140, 29802.00
777.7590, 29751.00
778.9040, 29493.00
780.0490, 29660.00
781.1940, 29743.00
782.3380, 31028.00
783.4820, 30280.00
784.6260, 30552.00
785.7700, 29408.00
786.9140, 29340.00
788.0580, 29201.00
789.2010, 29309.00
790.3450, 29272.00
791.4880, 29288.00
792.6310, 29463.00
793.7730, 29342.00
794.9160, 29294.00
796.0590, 29607.00
797.2010, 29560.00
798.3430, 29675.00
799.4850, 29739.00
800.6270, 29767.00
801.7690, 29858.00
802.9100, 29865.00
804.0520, 30014.10
805.1930, 29977.00
806.3340, 30305.00
807.4750, 30233.00
808.6160, 30356.00
809.7560, 30341.00
810.8970, 30777.90
812.0370, 31692.00
813.1770, 31742.00
814.3170, 32274.00
815.4570, 32723.00
816.5960, 32851.00
817.7360, 32497.00
818.8750, 32247.00
820.0140, 31988.00
821.1530, 31453.00
822.2920, 30916.00
823.4310, 30840.00
824.5690, 30846.00
825.7070, 30353.00
826.8460, 30443.00
827.9840, 30318.00
829.1220, 30453.00
830.2590, 30091.00
831.3970, 30344.00
832.5340, 30224.00
833.6710, 30281.00
834.8080, 30251.28
835.9450, 30327.00
837.0820, 30344.29
838.2190, 30452.00
839.3550, 30401.00
840.4910, 30412.00
841.6270, 30417.00
842.7630, 30532.00
843.8990, 30461.67
845.0350, 30692.00
846.1700, 30463.00
847.3060, 30579.00
848.4410, 30772.00
849.5760, 30601.00
850.7100, 30527.00
851.8450, 30761.00
852.9800, 30734.00
854.1140, 30628.00
855.2480, 30746.00
856.3820, 30735.00
857.5160, 30709.00
858.6500, 30861.00
859.7830, 30786.00
860.9170, 30844.00
862.0500, 30861.00
863.1830, 30915.00
864.3160, 30809.00
865.4480, 30932.00
866.5810, 30929.00
867.7130, 30909.00
868.8460, 30995.00
869.9780, 31010.00
871.1100, 31068.00
872.2410, 31079.00
873.3730, 30982.00
874.5050, 31075.00
875.6360, 31109.00
876.7670, 31188.00
877.8980, 31068.00
879.0290, 31202.00
880.1590, 31299.00
881.2900, 31182.00
882.4200, 31406.00
883.5500, 31412.00
884.6800, 31415.00
885.8100, 31212.00
886.9400, 31271.00
888.0690, 31484.00
889.1990, 31361.00
890.3280, 31541.00
891.4570, 31503.00
892.5860, 31347.00
893.7140, 31624.00
894.8430, 31599.00
895.9710, 31638.00
897.1000, 31577.00
898.2280, 31776.00
899.3560, 31572.00
900.4830, 31809.00
901.6110, 31933.00
902.7380, 31832.00
903.8660, 31802.00
904.9930, 31853.00
906.1200, 32147.00
907.2460, 31829.00
908.3730, 32046.00
909.5000, 32063.00
910.6260, 32017.00
911.7520, 32339.00
912.8780, 32186.00
914.0040, 32136.00
915.1290, 32158.00
916.2550, 32098.82
917.3800, 32264.00
918.5050, 32114.00
919.6300, 32289.00
920.7550, 32341.00
921.8800, 32334.00
923.0040, 32331.00
924.1290, 32381.00
925.2530, 32506.00
926.3770, 32467.00
927.5010, 32478.02
928.6250, 32362.00
929.7480, 32409.00
930.8720, 32452.00
931.9950, 32444.00
933.1180, 32551.00
934.2410, 32510.00
935.3640, 32675.00
936.4860, 32593.00
937.6090, 32782.00
938.7310, 32840.00
939.8530, 32617.00
940.9750, 32971.00
942.0970, 32932.00
943.2180, 32797.00
944.3400, 33163.00
945.4610, 33049.00
946.5820, 33073.00
947.7030, 33178.00
948.8240, 33342.00
949.9450, 33183.00
951.0650, 33144.00
952.1860, 33338.00
953.3060, 33498.00
954.4260, 33445.00
955.5460, 33258.00
956.6650, 33407.00
957.7850, 33481.00
958.9040, 33510.00
960.0230, 33560.00
961.1420, 33703.00
962.2610, 33599.00
963.3800, 33466.00
964.4990, 33536.00
965.6170, 33916.00
966.7350, 33826.00
967.8530, 33941.00
968.9710, 33779.00
970.0890, 33899.00
971.2070, 34182.00
972.3240, 34339.00
973.4410, 34176.00
974.5580, 34273.00
975.6750, 34276.00
976.7920, 34686.00
977.9090, 34698.00
979.0250, 34662.00
980.1410, 34833.00
981.2580, 34886.00
982.3740, 34752.00
983.4890, 34584.00
984.6050, 34630.00
985.7200, 34667.00
986.8360, 34573.00
987.9510, 34490.00
989.0660, 34565.00
990.1810, 34574.00
991.2950, 34601.40
992.4100, 34639.00
993.5240, 34624.00
994.6390, 34625.00
995.7530, 34468.00
996.8660, 34601.00
997.9800, 34854.00
999.0940, 35020.00
1000.207, 34941.00
1001.320, 35055.00
1002.433, 35140.00
1003.546, 35346.00
1004.659, 35370.18
1005.772, 35409.00
1006.884, 35468.00
1007.996, 35586.00
1009.108, 35629.00
1010.220, 35901.00
1011.332, 36027.00
1012.444, 36224.00
1013.555, 36030.00
1014.666, 36008.00
1015.777, 36280.00
1016.888, 35908.00
1017.999, 35898.00
1019.110, 36178.00
1020.220, 35863.00
1021.331, 35789.00
1022.441, 35706.00
1023.551, 36010.00
1024.661, 35796.00
1025.770, 35947.00
1026.880, 35720.00
1027.989, 36179.00
1029.098, 36645.00
1030.207, 36253.00
1031.316, 36614.00
1032.425, 37191.00
1033.533, 36899.00
1034.642, 36834.00
1035.750, 36822.00
1036.858, 36535.00
1037.966, 36601.00
1039.073, 36580.00
1040.181, 36378.00
1041.288, 36358.41
1042.396, 36067.00
1043.503, 36108.00
1044.610, 36139.00
1045.716, 35984.00
1046.823, 36418.00
1047.929, 36367.00
1049.036, 36155.00
1050.142, 36427.00
1051.248, 36277.00
1052.353, 36233.00
1053.459, 36228.00
1054.564, 36223.00
1055.670, 36178.00
1056.775, 36125.00
1057.880, 36361.00
1058.985, 36352.00
1060.089, 36106.00
1061.194, 36415.00
1062.298, 36352.00
1063.402, 36747.00
1064.506, 36562.00
1065.610, 36526.00
1066.713, 36494.00
1067.817, 36434.00
1068.920, 36562.00
1070.023, 36644.00
1071.126, 36477.00
1072.229, 36763.00
1073.332, 36643.00
1074.435, 36741.00
1075.537, 36918.00
1076.639, 36954.00
1077.741, 37048.43
1078.843, 37039.00
1079.945, 37224.00
1081.046, 37309.00
1082.148, 37526.00
1083.249, 37575.00
1084.350, 37822.33
1085.451, 38001.00
1086.551, 38228.00
1087.652, 38300.00
1088.752, 38360.00
1089.853, 38630.00
1090.953, 38855.00
1092.053, 39153.01
1093.152, 39535.00
1094.252, 39966.00
1095.351, 40589.00
1096.451, 41239.00
1097.550, 42105.00
1098.649, 42507.00
1099.748, 42562.00
1100.846, 42837.00
1101.945, 42696.00
1103.043, 42349.00
1104.141, 41865.00
1105.239, 41795.00
1106.337, 41337.00
1107.434, 40642.00
1108.532, 40400.00
1109.629, 40378.00
1110.726, 40176.00
1111.823, 40326.00
1112.920, 40191.00
1114.017, 40259.00
1115.113, 40618.00
1116.210, 40430.00
1117.306, 40500.00
1118.402, 40554.00
1119.498, 40367.00
1120.593, 40245.00
1121.689, 40198.00
1122.784, 39965.00
1123.879, 39790.00
1124.974, 39703.00
1126.069, 39248.00
1127.164, 39294.00
1128.259, 39066.00
1129.353, 38730.00
1130.447, 38574.00
1131.541, 38464.00
1132.635, 38161.00
1133.729, 38136.00
1134.822, 38287.00
1135.916, 38129.00
1137.009, 38042.00
1138.102, 38142.00
1139.195, 38108.00
1140.288, 38171.00
1141.380, 38168.00
1142.473, 38356.00
1143.565, 38251.00
1144.657, 38375.00
1145.749, 38396.00
1146.841, 38357.00
1147.932, 38384.00
1149.024, 38648.00
1150.115, 38584.00
1151.206, 38662.00
1152.297, 38490.00
1153.388, 38807.00
1154.479, 38755.00
1155.569, 38798.00
1156.659, 38758.00
1157.750, 38797.00
1158.839, 38823.00
1159.929, 38792.39
1161.019, 38836.00
1162.108, 38758.00
1163.198, 38886.00
1164.287, 38884.00
1165.376, 39195.00
1166.465, 38976.00
1167.553, 39137.00
1168.642, 39000.00
1169.730, 39193.00
1170.818, 39028.00
1171.906, 38887.00
1172.994, 39183.00
1174.082, 39089.00
1175.170, 39298.00
1176.257, 39148.00
1177.344, 38979.00
1178.431, 39061.00
1179.518, 39266.00
1180.605, 39138.00
1181.691, 39369.00
1182.778, 39228.00
1183.864, 39430.00
1184.950, 39404.45
1186.036, 39377.82
1187.122, 39395.00
1188.207, 39384.00
1189.292, 39393.00
1190.378, 39521.00
1191.463, 39561.00
1192.548, 39567.20
1193.632, 39549.00
1194.717, 39512.00
1195.801, 39650.00
1196.886, 39525.00
1197.970, 39237.00
1199.054, 39385.00
1200.137, 39437.00
1201.221, 39801.00
1202.305, 39336.00
1203.388, 39850.00
1204.471, 39657.00
1205.554, 39861.00
1206.637, 39449.00
1207.719, 39625.00
1208.802, 39756.00
1209.884, 39908.00
1210.966, 39597.00
1212.048, 39776.00
1213.130, 39963.00
1214.212, 39914.00
1215.293, 40124.00
1216.374, 40089.00
1217.456, 39959.00
1218.536, 40112.00
1219.617, 40123.00
1220.698, 40131.58
1221.778, 40106.00
1222.859, 40188.00
1223.939, 40285.00
1225.019, 40302.00
1226.099, 40395.57
1227.178, 40459.91
1228.258, 40501.00
1229.337, 40476.00
1230.417, 40453.00
1231.496, 40461.07
1232.574, 40487.54
1233.653, 40466.00
1234.732, 40544.00
1235.810, 40603.00
1236.888, 40561.00
1237.966, 40743.00
1239.044, 40616.00
1240.122, 40585.00
1241.199, 40675.00
1242.277, 40591.00
1243.354, 40862.00
1244.431, 40848.00
1245.508, 40814.00
1246.585, 40615.00
1247.661, 40895.00
1248.738, 40905.00
1249.814, 40986.00
1250.890, 41072.00
1251.966, 41169.00
1253.042, 41039.00
1254.117, 40928.00
1255.193, 41395.00
1256.268, 40916.00
1257.343, 40962.00
1258.418, 41244.00
1259.493, 41151.00
1260.567, 41092.00
1261.642, 41190.00
1262.716, 41280.00
1263.790, 41628.00
1264.864, 41577.00
1265.938, 41438.00
1267.011, 41620.00
1268.085, 41397.00
1269.158, 41554.00
1270.231, 41207.00
1271.304, 41612.00
1272.377, 41632.00
1273.450, 41741.00
1274.522, 41433.00
