##NAMES=Albite
##RRUFFID=R050402
##IDEAL CHEMISTRY=NaAlSi_3_O_8_
##LOCALITY=Urbano mine, Golconda District, Brazil
##OWNER=RRUFF
##SOURCE=Bob Downs
##DESCRIPTION=Colorless tabular single crystals associated with fluorapatite R050401
##STATUS=The identification of this mineral has been confirmed by X-ray diffraction and chemical analysis
##URL=rruff.info/R050402
##MEASURED CHEMISTRY=Na_1.00_Al_1.00_Si_3.00_O_8_
##PIN_ID=M00163
##ORIENTATION=Laser parallel to (1 0 1). Fiducial mark perpendicular to laser is parallel to b [0 1 0]
126.7490, 17815.00
127.9790, 18039.00
129.2090, 18055.00
130.4390, 18002.00
131.6680, 18322.00
132.8980, 18180.00
134.1270, 18336.00
135.3560, 18423.00
136.5850, 18629.00
137.8140, 19343.00
139.0430, 19719.00
140.2710, 20388.00
141.5000, 21129.00
142.7280, 21923.00
143.9560, 22651.00
145.1840, 23460.00
146.4120, 24157.00
147.6390, 25363.00
148.8670, 26491.00
150.0940, 27547.00
151.3210, 28309.00
152.5490, 28866.00
153.7750, 28132.00
155.0020, 26737.00
156.2290, 24584.00
157.4550, 22325.00
158.6810, 20382.00
159.9080, 19045.00
161.1340, 18705.00
162.3590, 18168.00
163.5850, 18157.00
164.8110, 18370.00
166.0360, 18384.00
167.2610, 18631.00
168.4860, 18626.00
169.7110, 18917.00
170.9360, 19286.00
172.1610, 19545.00
173.3850, 19888.00
174.6100, 20332.00
175.8340, 21081.00
177.0580, 21683.00
178.2820, 22541.00
179.5050, 23181.52
180.7290, 24023.00
181.9520, 24611.00
183.1760, 25233.00
184.3990, 26043.00
185.6220, 26445.00
186.8450, 26695.00
188.0670, 26398.00
189.2900, 26088.00
190.5120, 25228.00
191.7340, 24191.00
192.9560, 22880.00
194.1780, 21912.00
195.4000, 21086.00
196.6220, 20338.00
197.8430, 20164.00
199.0640, 19810.00
200.2860, 20166.00
201.5070, 19952.00
202.7270, 20218.00
203.9480, 20155.00
205.1690, 20320.00
206.3890, 20713.00
207.6090, 20978.00
208.8290, 21293.00
210.0490, 21664.00
211.2690, 21705.00
212.4890, 21221.00
213.7080, 20734.00
214.9280, 19680.00
216.1470, 18680.00
217.3660, 17989.00
218.5850, 17130.00
219.8030, 16779.00
221.0220, 16442.00
222.2400, 16122.00
223.4590, 16099.00
224.6770, 15831.00
225.8950, 15789.00
227.1120, 15605.00
228.3300, 15728.00
229.5480, 15756.00
230.7650, 15417.00
231.9820, 15664.00
233.1990, 15659.00
234.4160, 15628.00
235.6330, 15587.00
236.8490, 15637.00
238.0660, 15816.00
239.2820, 15787.00
240.4980, 16093.00
241.7140, 16142.00
242.9300, 16347.00
244.1460, 16583.00
245.3610, 16869.00
246.5770, 17016.00
247.7920, 17356.00
249.0070, 17693.00
250.2220, 18179.00
251.4370, 18550.00
252.6510, 19016.00
253.8660, 19189.00
255.0800, 19250.00
256.2940, 19005.00
257.5080, 18595.00
258.7220, 18173.00
259.9360, 17979.00
261.1490, 17958.43
262.3630, 17944.00
263.5760, 18303.00
264.7890, 18492.00
266.0020, 18935.00
267.2150, 19385.00
268.4270, 19732.00
269.6400, 20097.00
270.8520, 20526.00
272.0640, 20324.00
273.2760, 20213.00
274.4880, 19794.00
275.7000, 19313.00
276.9120, 18668.00
278.1230, 18420.00
279.3340, 18289.00
280.5450, 18500.00
281.7560, 18815.00
282.9670, 19031.00
284.1780, 19621.00
285.3880, 20253.00
286.5980, 20977.00
287.8090, 21827.00
289.0190, 22696.00
290.2290, 23950.00
291.4380, 24492.00
292.6480, 24871.00
293.8570, 24703.00
295.0670, 24150.00
296.2760, 22845.00
297.4850, 21524.00
298.6930, 20324.00
299.9020, 19084.00
301.1110, 18384.00
302.3190, 17804.00
303.5270, 17276.00
304.7350, 17089.00
305.9430, 16880.00
307.1510, 16465.00
308.3580, 16434.00
309.5660, 16278.00
310.7730, 16183.00
311.9800, 16249.00
313.1870, 16227.00
314.3940, 16066.00
315.6010, 16049.00
316.8070, 16040.00
318.0130, 16103.65
319.2200, 16318.00
320.4260, 16430.00
321.6310, 16609.00
322.8370, 16941.00
324.0430, 17064.00
325.2480, 17313.00
326.4540, 17555.00
327.6590, 18042.00
328.8640, 18200.00
330.0680, 18716.00
331.2730, 18672.00
332.4780, 18661.00
333.6820, 18293.00
334.8860, 17648.00
336.0900, 17279.00
337.2940, 16993.00
338.4980, 16843.00
339.7010, 16733.00
340.9050, 16794.00
342.1080, 16582.00
343.3110, 16850.00
344.5140, 16762.00
345.7170, 16983.00
346.9200, 17032.00
348.1220, 17171.00
349.3240, 17161.00
350.5270, 17273.00
351.7290, 17282.00
352.9310, 17118.00
354.1320, 17208.00
355.3340, 17136.00
356.5350, 17038.00
357.7370, 17000.00
358.9380, 16989.00
360.1390, 16902.00
361.3400, 17017.00
362.5400, 16812.00
363.7410, 16761.00
364.9410, 16868.00
366.1410, 16614.00
367.3410, 16646.00
368.5410, 16684.00
369.7410, 16641.00
370.9400, 16653.00
372.1400, 16662.00
373.3390, 16466.00
374.5380, 16484.00
375.7370, 16364.00
376.9360, 16338.00
378.1350, 16365.00
379.3330, 16327.00
380.5310, 16366.22
381.7300, 16416.00
382.9280, 16448.00
384.1260, 16533.00
385.3230, 16606.00
386.5210, 16633.00
387.7180, 16963.00
388.9160, 17028.61
390.1130, 17073.70
391.3100, 17307.00
392.5060, 17180.00
393.7030, 17174.00
394.9000, 17401.00
396.0960, 17735.00
397.2920, 17941.00
398.4880, 17971.00
399.6840, 18205.00
400.8800, 18351.00
402.0750, 18203.00
403.2710, 18187.00
404.4660, 18026.00
405.6610, 17919.00
406.8560, 18177.00
408.0510, 18442.00
409.2450, 18674.00
410.4400, 18822.00
411.6340, 19157.00
412.8280, 19126.00
414.0220, 19426.00
415.2160, 19820.00
416.4100, 20017.00
417.6030, 20620.00
418.7970, 20452.00
419.9900, 20295.00
421.1830, 19445.00
422.3760, 18749.00
423.5690, 18151.00
424.7610, 17710.00
425.9540, 17280.00
427.1460, 17472.00
428.3380, 17169.00
429.5300, 17212.00
430.7220, 17125.00
431.9140, 17175.00
433.1050, 17241.00
434.2970, 17086.00
435.4880, 17000.00
436.6790, 17278.00
437.8700, 17399.00
439.0610, 17347.00
440.2510, 17491.00
441.4420, 17470.00
442.6320, 17859.00
443.8220, 18003.00
445.0120, 18141.00
446.2020, 18787.00
447.3910, 19270.00
448.5810, 19742.00
449.7700, 20573.00
450.9600, 21078.00
452.1490, 21659.00
453.3370, 22687.00
454.5260, 23403.00
455.7150, 24224.00
456.9030, 24931.00
458.0910, 25417.00
459.2800, 25223.00
460.4670, 24622.00
461.6550, 23680.00
462.8430, 23097.00
464.0300, 22277.00
465.2180, 22220.00
466.4050, 22413.00
467.5920, 23051.00
468.7790, 23685.27
469.9650, 24688.00
471.1520, 25914.00
472.3380, 27645.00
473.5250, 29581.00
474.7110, 31328.00
475.8970, 33676.00
477.0820, 36051.00
478.2680, 38343.00
479.4540, 40266.00
480.6390, 40949.00
481.8240, 40064.00
483.0090, 37537.00
484.1940, 34154.00
485.3780, 30829.00
486.5630, 28133.00
487.7470, 26284.00
488.9320, 24961.00
490.1160, 24229.00
491.3000, 23928.00
492.4830, 23755.00
493.6670, 23882.00
494.8500, 24228.00
496.0340, 25190.00
497.2170, 26610.00
498.4000, 28360.00
499.5820, 30404.00
500.7650, 33007.00
501.9480, 35627.00
503.1300, 38593.00
504.3120, 41780.00
505.4940, 45232.00
506.6760, 48862.00
507.8580, 51951.00
509.0390, 52791.00
510.2210, 51731.00
511.4020, 48507.00
512.5830, 43742.00
513.7640, 38662.00
514.9450, 33850.00
516.1250, 30404.00
517.3060, 27778.00
518.4860, 25883.00
519.6660, 24535.00
520.8460, 23525.00
522.0260, 22629.00
523.2060, 22109.00
524.3850, 21359.00
525.5650, 21058.00
526.7440, 20829.00
527.9230, 20699.00
529.1020, 20269.00
530.2810, 20244.00
531.4590, 20014.00
532.6380, 19847.00
533.8160, 19872.00
534.9940, 19505.00
536.1720, 19538.00
537.3500, 19534.00
538.5270, 19285.00
539.7050, 19397.00
540.8820, 19445.00
542.0590, 19683.00
543.2360, 19312.00
544.4130, 19313.00
545.5900, 19360.00
546.7660, 19174.00
547.9430, 19025.00
549.1190, 19131.00
550.2950, 19132.00
551.4710, 19102.00
552.6470, 19201.00
553.8220, 19152.14
554.9980, 19201.53
556.1730, 19110.00
557.3480, 19192.00
558.5230, 19148.00
559.6980, 18982.00
560.8730, 18950.00
562.0470, 18887.00
563.2220, 19084.00
564.3960, 19052.00
565.5700, 19331.00
566.7440, 19177.00
567.9170, 19225.00
569.0910, 19353.00
570.2640, 19407.00
571.4380, 19540.00
572.6110, 19502.00
573.7840, 19780.00
574.9570, 19834.00
576.1290, 19872.00
577.3020, 19788.00
578.4740, 20276.00
579.6460, 20357.00
580.8180, 20287.00
581.9900, 20246.00
583.1620, 20435.00
584.3330, 20257.00
585.5040, 20443.00
586.6760, 20214.00
587.8470, 20206.00
589.0180, 20491.00
590.1880, 20453.00
591.3590, 20321.00
592.5290, 20554.00
593.7000, 20435.00
594.8700, 20404.00
596.0400, 20571.00
597.2090, 20407.00
598.3790, 20554.00
599.5490, 20646.00
600.7180, 20487.00
601.8870, 20628.00
603.0560, 20451.00
604.2250, 20363.00
605.3940, 20355.00
606.5620, 20494.00
607.7300, 20668.00
608.8990, 20495.00
610.0670, 20001.00
611.2350, 20067.00
612.4020, 20207.00
613.5700, 20126.00
614.7370, 20275.00
615.9050, 20193.00
617.0720, 20436.00
618.2390, 20486.00
619.4060, 20693.00
620.5720, 20893.00
621.7390, 20980.00
622.9050, 21258.00
624.0710, 21592.00
625.2370, 21848.00
626.4030, 21877.00
627.5690, 21688.00
628.7340, 21655.00
629.9000, 21704.00
631.0650, 21477.00
632.2300, 21317.00
633.3950, 21258.00
634.5600, 21075.00
635.7240, 21143.00
636.8890, 20999.00
638.0530, 20883.00
639.2170, 21102.00
640.3810, 21086.00
641.5450, 21377.00
642.7080, 21610.00
643.8720, 21560.00
645.0350, 21762.00
646.1980, 22157.00
647.3610, 22037.00
648.5240, 22027.00
649.6870, 22054.00
650.8490, 21864.00
652.0120, 21950.00
653.1740, 21664.00
654.3360, 21529.00
655.4980, 21299.00
656.6600, 21147.00
657.8210, 20967.00
658.9830, 20808.00
660.1440, 20548.00
661.3050, 20605.00
662.4660, 20410.00
663.6270, 20456.00
664.7870, 20405.00
665.9480, 20208.00
667.1080, 20118.00
668.2680, 20385.00
669.4280, 19956.00
670.5880, 20270.00
671.7480, 20042.00
672.9070, 20034.00
674.0670, 20329.00
675.2260, 19924.00
676.3850, 20041.00
677.5440, 19969.00
678.7030, 19849.00
679.8610, 19954.00
681.0200, 19994.00
682.1780, 19889.00
683.3360, 20104.00
684.4940, 19875.00
685.6520, 20109.00
686.8090, 20136.00
687.9670, 19906.00
689.1240, 19833.00
690.2810, 19814.00
691.4380, 20088.00
692.5950, 19935.00
693.7520, 20206.00
694.9080, 19883.00
696.0650, 20014.00
697.2210, 20033.00
698.3770, 20143.00
699.5330, 20180.62
700.6880, 20113.00
701.8440, 20224.00
702.9990, 20130.00
704.1550, 20078.00
705.3100, 20148.00
706.4650, 20086.16
707.6190, 20175.00
708.7740, 20104.00
709.9290, 20184.00
711.0830, 20255.00
712.2370, 20298.00
713.3910, 20442.00
714.5450, 20501.00
715.6980, 20245.00
716.8520, 20365.00
718.0050, 20449.00
719.1580, 20398.00
720.3110, 20595.00
721.4640, 20813.00
722.6170, 20880.00
723.7700, 20866.00
724.9220, 20714.00
726.0740, 20934.00
727.2260, 20951.00
728.3780, 21059.00
729.5300, 21146.00
730.6810, 21046.00
731.8330, 20982.00
732.9840, 21334.00
734.1350, 21130.00
735.2860, 21167.00
736.4370, 21511.00
737.5880, 21032.00
738.7380, 21313.00
739.8880, 21355.00
741.0390, 21564.00
742.1890, 21778.00
743.3380, 21793.58
744.4880, 21707.00
745.6380, 21916.00
746.7870, 22058.00
747.9360, 22181.00
749.0850, 22547.00
750.2340, 22615.00
751.3830, 22914.00
752.5310, 23392.00
753.6800, 23881.00
754.8280, 24909.00
755.9760, 25458.00
757.1240, 26374.79
758.2720, 27486.00
759.4190, 28291.00
760.5670, 29683.00
761.7140, 30909.00
762.8610, 31793.00
764.0080, 32650.00
765.1550, 32768.00
766.3020, 31980.00
767.4480, 30649.00
768.5950, 29197.00
769.7410, 27682.00
770.8870, 26507.00
772.0330, 25387.00
773.1780, 24868.00
774.3240, 24288.00
775.4690, 24055.00
776.6140, 23676.00
777.7590, 23430.00
778.9040, 23370.00
780.0490, 23316.00
781.1940, 23337.00
782.3380, 23084.00
783.4820, 23158.00
784.6260, 23152.00
785.7700, 22913.00
786.9140, 23107.00
788.0580, 22984.00
789.2010, 22917.00
790.3450, 22866.00
791.4880, 23071.00
792.6310, 23191.00
793.7730, 23183.00
794.9160, 23535.00
796.0590, 23532.00
797.2010, 23470.00
798.3430, 23907.00
799.4850, 24108.00
800.6270, 24197.00
801.7690, 24551.00
802.9100, 25184.00
804.0520, 25384.00
805.1930, 26305.00
806.3340, 27177.00
807.4750, 27925.00
808.6160, 28723.00
809.7560, 29505.00
810.8970, 30141.00
812.0370, 30650.00
813.1770, 31473.00
814.3170, 31985.00
815.4570, 32614.00
816.5960, 32225.00
817.7360, 32151.00
818.8750, 30948.00
820.0140, 29761.00
821.1530, 28461.00
822.2920, 27314.00
823.4310, 26353.00
824.5690, 25571.00
825.7070, 25175.00
826.8460, 24827.00
827.9840, 24606.00
829.1220, 24378.00
830.2590, 24195.00
831.3970, 24371.00
832.5340, 24174.00
833.6710, 23961.00
834.8080, 24241.00
835.9450, 23870.00
837.0820, 24116.00
838.2190, 24075.00
839.3550, 23904.00
840.4910, 24219.00
841.6270, 24360.00
842.7630, 24281.00
843.8990, 24472.00
845.0350, 24475.00
846.1700, 24871.00
847.3060, 24774.00
848.4410, 25051.00
849.5760, 25157.00
850.7100, 25350.00
851.8450, 25432.00
852.9800, 25512.00
854.1140, 26012.00
855.2480, 25913.00
856.3820, 26014.00
857.5160, 26384.00
858.6500, 26268.00
859.7830, 26442.00
860.9170, 26379.00
862.0500, 26177.00
863.1830, 26139.00
864.3160, 25856.00
865.4480, 25464.00
866.5810, 25372.00
867.7130, 24943.00
868.8460, 24822.00
869.9780, 24881.00
871.1100, 24710.00
872.2410, 24598.00
873.3730, 24410.31
874.5050, 24380.30
875.6360, 24242.00
876.7670, 24269.00
877.8980, 24204.42
879.0290, 24205.44
880.1590, 24133.00
881.2900, 24156.00
882.4200, 24101.00
883.5500, 23883.00
884.6800, 23996.00
885.8100, 24046.00
886.9400, 24042.00
888.0690, 24254.00
889.1990, 24134.00
890.3280, 24121.00
891.4570, 24210.00
892.5860, 24321.00
893.7140, 24275.00
894.8430, 24169.00
895.9710, 24342.00
897.1000, 24306.00
898.2280, 24255.00
899.3560, 24334.00
900.4830, 24292.60
901.6110, 24485.00
902.7380, 24309.00
903.8660, 24220.00
904.9930, 24243.00
906.1200, 24488.00
907.2460, 24397.00
908.3730, 24506.00
909.5000, 24356.00
910.6260, 24465.00
911.7520, 24563.00
912.8780, 24362.00
914.0040, 24541.00
915.1290, 24190.00
916.2550, 24327.00
917.3800, 24203.00
918.5050, 24216.00
919.6300, 24325.00
920.7550, 24062.00
921.8800, 24252.00
923.0040, 24211.00
924.1290, 24045.00
925.2530, 24325.00
926.3770, 24378.00
927.5010, 24360.00
928.6250, 24234.00
929.7480, 24191.00
930.8720, 24439.00
931.9950, 24454.00
933.1180, 24258.00
934.2410, 24459.00
935.3640, 24390.00
936.4860, 24344.00
937.6090, 24389.00
938.7310, 24514.00
939.8530, 24584.00
940.9750, 24689.00
942.0970, 24471.00
943.2180, 24433.00
944.3400, 24508.00
945.4610, 24726.00
946.5820, 24842.00
947.7030, 24710.00
948.8240, 24802.00
949.9450, 24846.00
951.0650, 25117.00
952.1860, 25112.00
953.3060, 25138.00
954.4260, 25085.00
955.5460, 25246.00
956.6650, 25226.00
957.7850, 25211.53
958.9040, 25551.00
960.0230, 25199.00
961.1420, 25519.00
962.2610, 25654.00
963.3800, 25533.00
964.4990, 25682.00
965.6170, 25708.00
966.7350, 25659.00
967.8530, 25577.00
968.9710, 26018.00
970.0890, 26027.00
971.2070, 25996.00
972.3240, 26390.00
973.4410, 26377.00
974.5580, 26566.00
975.6750, 26774.00
976.7920, 27013.00
977.9090, 27191.00
979.0250, 27170.00
980.1410, 27282.00
981.2580, 27402.00
982.3740, 27061.00
983.4890, 27068.00
984.6050, 26725.00
985.7200, 26479.00
986.8360, 26565.00
987.9510, 26530.00
989.0660, 26317.00
990.1810, 26360.00
991.2950, 26365.00
992.4100, 26242.00
993.5240, 26456.00
994.6390, 26312.00
995.7530, 26405.00
996.8660, 26481.00
997.9800, 26739.00
999.0940, 27027.00
1000.207, 27199.00
1001.320, 27618.00
1002.433, 28046.00
1003.546, 28366.00
1004.659, 28236.00
1005.772, 27761.00
1006.884, 27799.00
1007.996, 27305.00
1009.108, 26997.00
1010.220, 27150.00
1011.332, 26804.00
1012.444, 27086.00
1013.555, 26750.00
1014.666, 26778.00
1015.777, 27011.00
1016.888, 26705.00
1017.999, 26907.00
1019.110, 26647.00
1020.220, 26754.00
1021.331, 26788.00
1022.441, 26570.00
1023.551, 26709.00
1024.661, 26696.00
1025.770, 26614.00
1026.880, 26585.00
1027.989, 26424.00
1029.098, 26565.00
1030.207, 26642.00
1031.316, 26605.00
1032.425, 26531.00
1033.533, 26384.00
1034.642, 26495.00
1035.750, 26563.00
1036.858, 26593.00
1037.966, 26379.00
1039.073, 26447.00
1040.181, 26446.00
1041.288, 26526.00
1042.396, 26447.00
1043.503, 26803.00
1044.610, 26535.00
1045.716, 26580.00
1046.823, 26678.00
1047.929, 26497.00
1049.036, 26735.00
1050.142, 26605.00
1051.248, 26740.00
1052.353, 26463.00
1053.459, 26615.00
1054.564, 26103.00
1055.670, 26316.00
1056.775, 26435.00
1057.880, 26118.00
1058.985, 26198.00
1060.089, 26191.00
1061.194, 26326.00
1062.298, 26505.00
1063.402, 26411.00
1064.506, 26154.00
1065.610, 26226.00
1066.713, 26224.00
1067.817, 26262.00
1068.920, 26306.00
1070.023, 26345.00
1071.126, 26351.00
1072.229, 26605.00
1073.332, 26556.00
1074.435, 26504.00
1075.537, 26705.00
1076.639, 26680.00
1077.741, 26893.00
1078.843, 27078.00
1079.945, 27087.00
1081.046, 27283.00
1082.148, 27309.00
1083.249, 27530.00
1084.350, 27682.00
1085.451, 27791.00
1086.551, 28078.00
1087.652, 28068.00
1088.752, 28291.00
1089.853, 28334.00
1090.953, 28816.00
1092.053, 29019.00
1093.152, 29346.00
1094.252, 29637.00
1095.351, 30286.00
1096.451, 30496.00
1097.550, 30711.00
1098.649, 30974.00
1099.748, 31006.00
1100.846, 30840.00
1101.945, 30933.00
1103.043, 30801.00
1104.141, 30608.42
1105.239, 29976.00
1106.337, 30102.00
1107.434, 29761.00
1108.532, 29380.00
1109.629, 29422.00
1110.726, 29425.00
1111.823, 29140.00
1112.920, 29110.00
1114.017, 28894.00
1115.113, 28764.00
1116.210, 28508.00
1117.306, 28489.00
1118.402, 28176.00
1119.498, 28057.00
1120.593, 28092.00
1121.689, 27979.00
1122.784, 28087.00
1123.879, 28130.00
1124.974, 27790.00
1126.069, 27587.00
1127.164, 27629.00
1128.259, 27520.00
1129.353, 27639.00
1130.447, 27573.03
1131.541, 27474.00
1132.635, 27511.00
1133.729, 27478.00
1134.822, 27427.00
1135.916, 27503.00
1137.009, 27298.00
1138.102, 27464.00
1139.195, 27273.00
1140.288, 27449.00
1141.380, 27426.00
1142.473, 27369.00
1143.565, 27592.00
1144.657, 27444.00
1145.749, 27706.00
1146.841, 27919.00
1147.932, 27594.00
1149.024, 27932.00
1150.115, 27887.00
1151.206, 27988.00
1152.297, 27902.00
1153.388, 28073.00
1154.479, 28013.00
1155.569, 28004.00
1156.659, 28092.00
1157.750, 28051.00
1158.839, 28008.00
1159.929, 28056.00
1161.019, 27946.00
1162.108, 28009.00
1163.198, 27754.00
1164.287, 27782.00
1165.376, 27813.00
1166.465, 27986.00
1167.553, 27860.00
1168.642, 27894.00
1169.730, 27793.00
1170.818, 27954.00
1171.906, 28066.00
1172.994, 27963.00
1174.082, 28051.00
1175.170, 28119.00
1176.257, 28018.00
1177.344, 28221.00
1178.431, 27972.00
1179.518, 28008.00
1180.605, 27942.00
1181.691, 27890.00
1182.778, 28089.00
1183.864, 27967.00
1184.950, 27971.97
1186.036, 28118.00
1187.122, 27888.00
1188.207, 27887.00
1189.292, 27904.00
1190.378, 28152.00
1191.463, 27885.00
1192.548, 28029.00
1193.632, 27872.00
1194.717, 27827.00
1195.801, 28017.00
1196.886, 27929.00
1197.970, 27865.00
1199.054, 27946.00
1200.137, 27958.00
1201.221, 28126.00
1202.305, 28035.00
1203.388, 27865.00
1204.471, 28009.00
1205.554, 27983.00
1206.637, 27983.00
1207.719, 27972.00
1208.802, 27838.00
1209.884, 27937.98
1210.966, 27920.00
1212.048, 28172.00
1213.130, 28067.00
1214.212, 28393.00
1215.293, 28214.00
1216.374, 28261.00
1217.456, 28344.00
1218.536, 28229.00
1219.617, 28266.00
1220.698, 28236.99
1221.778, 28490.00
1222.859, 28299.00
1223.939, 28388.00
1225.019, 28681.00
1226.099, 28477.00
1227.178, 28610.00
1228.258, 28786.00
1229.337, 28568.00
1230.417, 28782.00
1231.496, 28639.00
1232.574, 28602.00
1233.653, 28698.00
1234.732, 28928.00
1235.810, 28812.00
1236.888, 29033.00
1237.966, 29140.00
1239.044, 29023.00
1240.122, 29153.00
1241.199, 29252.00
1242.277, 29211.00
1243.354, 29245.00
1244.431, 29230.00
1245.508, 29180.00
1246.585, 29190.00
1247.661, 29108.00
1248.738, 29202.00
1249.814, 29371.00
1250.890, 29321.00
1251.966, 29166.00
1253.042, 29525.00
1254.117, 29194.00
1255.193, 29233.00
1256.268, 29295.00
1257.343, 29153.00
1258.418, 29265.00
1259.493, 29529.00
1260.567, 29556.00
1261.642, 29641.00
1262.716, 29501.00
1263.790, 29586.00
1264.864, 29570.00
1265.938, 29943.00
1267.011, 29755.00
1268.085, 30084.00
1269.158, 29897.00
1270.231, 29832.00
1271.304, 30098.00
1272.377, 30210.00
1273.450, 30181.00
1274.522, 30148.00
1275.594, 30049.00
1276.666, 30184.00
1277.738, 29998.00
1278.810, 30198.00
1279.882, 29821.00
1280.953, 29947.00
1282.025, 29896.00
1283.096, 29862.00
1284.167, 29690.00
1285.238, 29689.00
1286.308, 29751.00
1287.379, 29771.00
1288.449, 29817.00
1289.519, 29858.62
1290.589, 29909.72
1291.659, 29948.00
1292.729, 30049.00
1293.798, 30119.00
1294.868, 30236.00
1295.937, 30102.00
1297.006, 30396.00
1298.075, 30236.00
1299.143, 30019.00
1300.212, 30083.00
1301.280, 29966.00
1302.348, 30002.00
1303.416, 30220.00
