##NAMES=Albite
##RRUFFID=R050253
##IDEAL CHEMISTRY=NaAlSi_3_O_8_
##LOCALITY=Madawaska/Faraday mine, Bancroft, Ontario, Canada
##OWNER=RRUFF
##SOURCE=Marcus Origlieri
##DESCRIPTION=Colorless to brown prismatic single crystals
##STATUS=The identification of this mineral has been confirmed by X-ray diffraction and chemical analysis
##URL=rruff.info/R050253
##MEASURED CHEMISTRY=(Na_0.99_Ca_0.01_)Al_1.00_(Si_0.99_Al_0.01_)_3_O_8_
##PIN_ID=L01462
##ORIENTATION=Laser parallel to (1 0 1). Fiducial mark perpendicular to laser is parallel to b [0 1 0]
94.71400, 11732.00
95.94800, 12106.00
97.18200, 11998.00
98.41600, 12263.00
99.64900, 12627.00
100.8830, 12782.00
102.1160, 13055.00
103.3490, 13622.00
104.5820, 13989.00
105.8150, 14601.00
107.0470, 15004.00
108.2800, 15758.00
109.5120, 16527.00
110.7440, 17046.00
111.9760, 16859.00
113.2080, 16639.00
114.4400, 16127.00
115.6710, 16082.00
116.9030, 15460.00
118.1340, 15018.00
119.3650, 14644.00
120.5960, 14527.00
121.8270, 14306.00
123.0580, 14353.00
124.2880, 14357.00
125.5190, 14539.00
126.7490, 14442.00
127.9790, 14584.00
129.2090, 14776.00
130.4390, 14957.00
131.6680, 15260.00
132.8980, 15374.00
134.1270, 15535.00
135.3560, 16079.00
136.5850, 16530.00
137.8140, 17039.00
139.0430, 17679.00
140.2710, 18486.00
141.5000, 19364.00
142.7280, 20270.00
143.9560, 20935.00
145.1840, 21843.00
146.4120, 22768.00
147.6390, 23603.00
148.8670, 24054.00
150.0940, 24113.00
151.3210, 23785.00
152.5490, 22793.00
153.7750, 21609.00
155.0020, 20673.00
156.2290, 19595.00
157.4550, 18997.00
158.6810, 19057.00
159.9080, 18827.00
161.1340, 19137.00
162.3590, 19244.00
163.5850, 19399.00
164.8110, 19546.00
166.0360, 19594.00
167.2610, 19963.00
168.4860, 19989.00
169.7110, 20116.00
170.9360, 20574.00
172.1610, 20647.00
173.3850, 20885.00
174.6100, 21245.00
175.8340, 21374.00
177.0580, 21901.00
178.2820, 22343.00
179.5050, 22953.00
180.7290, 23788.00
181.9520, 24609.00
183.1760, 25044.00
184.3990, 25101.00
185.6220, 25170.00
186.8450, 24734.00
188.0670, 24047.00
189.2900, 23444.00
190.5120, 22738.00
191.7340, 21756.00
192.9560, 21224.00
194.1780, 20656.00
195.4000, 20480.00
196.6220, 20220.00
197.8430, 20420.00
199.0640, 20595.00
200.2860, 21049.00
201.5070, 21761.00
202.7270, 22218.00
203.9480, 23046.00
205.1690, 23561.00
206.3890, 24287.00
207.6090, 24438.00
208.8290, 24374.00
210.0490, 24082.00
211.2690, 22859.00
212.4890, 21731.00
213.7080, 20782.00
214.9280, 19563.00
216.1470, 18803.00
217.3660, 18303.00
218.5850, 17596.00
219.8030, 17455.00
221.0220, 17374.00
222.2400, 17114.00
223.4590, 16889.00
224.6770, 16795.00
225.8950, 16745.00
227.1120, 16612.00
228.3300, 16631.00
229.5480, 16596.00
230.7650, 16563.00
231.9820, 16493.00
233.1990, 16584.00
234.4160, 16734.00
235.6330, 16759.00
236.8490, 16795.00
238.0660, 16647.00
239.2820, 16761.00
240.4980, 16728.00
241.7140, 16968.00
242.9300, 17047.00
244.1460, 17191.00
245.3610, 17660.00
246.5770, 17512.00
247.7920, 18006.00
249.0070, 18070.00
250.2220, 18439.00
251.4370, 18526.00
252.6510, 18485.00
253.8660, 18521.00
255.0800, 18442.00
256.2940, 18262.00
257.5080, 18563.00
258.7220, 18573.00
259.9360, 18959.00
261.1490, 19518.00
262.3630, 19557.00
263.5760, 19925.00
264.7890, 20409.00
266.0020, 20887.00
267.2150, 21472.00
268.4270, 21623.00
269.6400, 21667.00
270.8520, 21246.00
272.0640, 20999.00
273.2760, 20573.00
274.4880, 20388.00
275.7000, 19932.00
276.9120, 20132.00
278.1230, 20220.00
279.3340, 20692.00
280.5450, 21130.00
281.7560, 22051.00
282.9670, 22876.00
284.1780, 23989.00
285.3880, 25193.00
286.5980, 26557.00
287.8090, 27822.00
289.0190, 28669.00
290.2290, 29102.00
291.4380, 28594.00
292.6480, 27277.00
293.8570, 26121.00
295.0670, 24634.00
296.2760, 23214.00
297.4850, 21895.00
298.6930, 20784.00
299.9020, 20338.00
301.1110, 19921.00
302.3190, 19456.00
303.5270, 19066.00
304.7350, 18823.00
305.9430, 18637.45
307.1510, 18773.00
308.3580, 18531.00
309.5660, 18633.00
310.7730, 18711.00
311.9800, 18463.00
313.1870, 18502.00
314.3940, 18592.00
315.6010, 18530.00
316.8070, 18696.00
318.0130, 18760.00
319.2200, 19067.00
320.4260, 19503.00
321.6310, 19607.00
322.8370, 19803.00
324.0430, 20203.00
325.2480, 20978.00
326.4540, 21366.00
327.6590, 21729.00
328.8640, 21990.00
330.0680, 21904.00
331.2730, 20776.00
332.4780, 20237.00
333.6820, 19727.00
334.8860, 19318.00
336.0900, 19138.00
337.2940, 18872.00
338.4980, 18713.00
339.7010, 18543.00
340.9050, 18496.33
342.1080, 18798.00
343.3110, 18483.00
344.5140, 18619.00
345.7170, 18599.00
346.9200, 18528.00
348.1220, 18598.00
349.3240, 18541.02
350.5270, 18540.00
351.7290, 18555.00
352.9310, 18503.00
354.1320, 18623.00
355.3340, 18644.00
356.5350, 18630.00
357.7370, 18639.00
358.9380, 18655.00
360.1390, 18576.00
361.3400, 18734.00
362.5400, 18761.00
363.7410, 18734.00
364.9410, 18644.00
366.1410, 18730.00
367.3410, 18643.00
368.5410, 18867.00
369.7410, 18897.00
370.9400, 18819.00
372.1400, 18980.00
373.3390, 18785.00
374.5380, 18855.00
375.7370, 18885.00
376.9360, 18891.00
378.1350, 18944.00
379.3330, 18915.00
380.5310, 18871.00
381.7300, 19202.00
382.9280, 19216.00
384.1260, 19046.00
385.3230, 19294.00
386.5210, 19248.00
387.7180, 19199.00
388.9160, 19233.00
390.1130, 19326.48
391.3100, 19472.00
392.5060, 19583.00
393.7030, 19728.38
394.9000, 19917.00
396.0960, 20062.00
397.2920, 20252.50
398.4880, 20495.00
399.6840, 20554.00
400.8800, 20837.00
402.0750, 20911.00
403.2710, 21148.00
404.4660, 21489.00
405.6610, 21647.00
406.8560, 22190.00
408.0510, 22446.00
409.2450, 22332.00
410.4400, 22304.00
411.6340, 22344.00
412.8280, 22553.00
414.0220, 22854.00
415.2160, 23022.00
416.4100, 22992.00
417.6030, 22508.00
418.7970, 22137.00
419.9900, 21572.00
421.1830, 21172.00
422.3760, 20949.00
423.5690, 20576.00
424.7610, 20412.00
425.9540, 20292.00
427.1460, 20476.00
428.3380, 20539.00
429.5300, 20254.00
430.7220, 20494.00
431.9140, 20399.00
433.1050, 20297.00
434.2970, 20577.00
435.4880, 20726.00
436.6790, 20715.00
437.8700, 20616.00
439.0610, 21025.00
440.2510, 21110.00
441.4420, 21465.00
442.6320, 21539.00
443.8220, 21902.00
445.0120, 22304.00
446.2020, 22719.00
447.3910, 23208.00
448.5810, 24035.00
449.7700, 25047.00
450.9600, 25680.00
452.1490, 26789.00
453.3370, 27718.00
454.5260, 28326.00
455.7150, 28639.00
456.9030, 28710.00
458.0910, 28148.00
459.2800, 27132.00
460.4670, 26686.00
461.6550, 26138.00
462.8430, 25681.00
464.0300, 25898.00
465.2180, 26148.00
466.4050, 26814.00
467.5920, 28035.00
468.7790, 29975.00
469.9650, 32289.00
471.1520, 35275.00
472.3380, 38395.00
473.5250, 41370.00
474.7110, 44971.00
475.8970, 48606.00
477.0820, 50973.00
478.2680, 52010.00
479.4540, 50375.00
480.6390, 46827.00
481.8240, 42668.00
483.0090, 38405.00
484.1940, 35024.00
485.3780, 32054.00
486.5630, 29722.00
487.7470, 28477.00
488.9320, 27772.00
490.1160, 27171.00
491.3000, 26807.00
492.4830, 27029.00
493.6670, 27568.00
494.8500, 28523.00
496.0340, 29897.00
497.2170, 31957.00
498.4000, 34589.00
499.5820, 37860.00
500.7650, 42024.00
501.9480, 45982.00
503.1300, 49975.00
504.3120, 54331.00
505.4940, 57503.00
506.6760, 58694.00
507.8580, 56968.00
509.0390, 53744.00
510.2210, 48878.00
511.4020, 43594.00
512.5830, 38681.00
513.7640, 35131.00
514.9450, 32240.00
516.1250, 30365.00
517.3060, 28754.00
518.4860, 27649.00
519.6660, 26675.00
520.8460, 25896.00
522.0260, 25498.00
523.2060, 25272.00
524.3850, 24859.00
525.5650, 24530.00
526.7440, 24270.00
527.9230, 24053.00
529.1020, 23864.30
530.2810, 23763.95
531.4590, 23667.00
532.6380, 23625.00
533.8160, 23715.00
534.9940, 23621.00
536.1720, 23405.00
537.3500, 23257.00
538.5270, 23439.00
539.7050, 23351.00
540.8820, 23396.00
542.0590, 23108.00
543.2360, 23286.00
544.4130, 22980.00
545.5900, 23141.00
546.7660, 23043.00
547.9430, 23215.00
549.1190, 23065.00
550.2950, 23199.00
551.4710, 23014.00
552.6470, 23100.00
553.8220, 23296.00
554.9980, 23123.00
556.1730, 23202.00
557.3480, 22972.00
558.5230, 23168.00
559.6980, 23073.00
560.8730, 23318.00
562.0470, 23168.00
563.2220, 23151.00
564.3960, 23191.00
565.5700, 23283.00
566.7440, 23343.69
567.9170, 23520.61
569.0910, 23589.00
570.2640, 23726.00
571.4380, 23942.00
572.6110, 24097.29
573.7840, 24055.00
574.9570, 24397.00
576.1290, 24530.00
577.3020, 24417.00
578.4740, 24443.00
579.6460, 24557.00
580.8180, 24463.00
581.9900, 24126.00
583.1620, 23997.00
584.3330, 23913.00
585.5040, 23938.00
586.6760, 23851.78
587.8470, 23583.00
589.0180, 23726.00
590.1880, 23574.00
591.3590, 23365.00
592.5290, 23374.00
593.7000, 23452.00
594.8700, 23389.97
596.0400, 23580.00
597.2090, 23446.00
598.3790, 23597.00
599.5490, 23639.00
600.7180, 23368.00
601.8870, 23447.00
603.0560, 23731.00
604.2250, 23520.00
605.3940, 23751.00
606.5620, 23539.00
607.7300, 23578.00
608.8990, 23767.00
610.0670, 23770.00
611.2350, 23739.00
612.4020, 23872.00
613.5700, 23674.00
614.7370, 24065.00
615.9050, 23809.00
617.0720, 23915.00
618.2390, 24078.00
619.4060, 24011.00
620.5720, 24245.00
621.7390, 24057.00
622.9050, 24297.00
624.0710, 24195.00
625.2370, 24236.00
626.4030, 24357.00
627.5690, 24228.00
628.7340, 24331.00
629.9000, 24471.00
631.0650, 24360.00
632.2300, 24467.00
633.3950, 24779.00
634.5600, 24735.00
635.7240, 24715.00
636.8890, 24480.00
638.0530, 24898.00
639.2170, 24743.00
640.3810, 25028.00
641.5450, 25033.00
642.7080, 24960.00
643.8720, 25106.00
645.0350, 25158.00
646.1980, 25334.00
647.3610, 25197.00
648.5240, 25013.00
649.6870, 25206.00
650.8490, 25041.00
652.0120, 24946.00
653.1740, 24966.00
654.3360, 24811.59
655.4980, 24863.00
656.6600, 24673.00
657.8210, 24800.00
658.9830, 24864.00
660.1440, 24956.00
661.3050, 24905.00
662.4660, 24848.00
663.6270, 24890.00
664.7870, 24836.00
665.9480, 24831.00
667.1080, 25001.00
668.2680, 24834.00
669.4280, 25025.00
670.5880, 24933.00
671.7480, 25172.00
672.9070, 25284.00
674.0670, 24974.00
675.2260, 25173.00
676.3850, 25049.00
677.5440, 24952.00
678.7030, 25056.00
679.8610, 25100.00
681.0200, 25096.00
682.1780, 25035.00
683.3360, 24997.00
684.4940, 25213.00
685.6520, 25045.00
686.8090, 25158.00
687.9670, 25115.00
689.1240, 25144.00
690.2810, 25325.00
691.4380, 25185.00
692.5950, 25354.00
693.7520, 25370.00
694.9080, 25289.00
696.0650, 25400.00
697.2210, 25214.00
698.3770, 25351.00
699.5330, 25492.00
700.6880, 25560.00
701.8440, 25437.00
702.9990, 25301.00
704.1550, 25671.00
705.3100, 25480.00
706.4650, 25703.00
707.6190, 25521.00
708.7740, 25749.00
709.9290, 25635.00
711.0830, 25739.00
712.2370, 25606.00
713.3910, 25857.00
714.5450, 25913.00
715.6980, 25879.00
716.8520, 25976.00
718.0050, 25999.00
719.1580, 25963.00
720.3110, 26106.00
721.4640, 25920.00
722.6170, 26125.00
723.7700, 25961.00
724.9220, 26130.00
726.0740, 26303.00
727.2260, 26123.00
728.3780, 26009.00
729.5300, 26261.00
730.6810, 26411.00
731.8330, 26380.00
732.9840, 26289.00
734.1350, 26209.00
735.2860, 26300.76
736.4370, 26447.00
737.5880, 26542.00
738.7380, 26708.00
739.8880, 26927.00
741.0390, 26906.00
742.1890, 26884.00
743.3380, 26917.00
744.4880, 27282.00
745.6380, 27320.00
746.7870, 27452.00
747.9360, 27467.00
749.0850, 27702.00
750.2340, 27963.00
751.3830, 28535.00
752.5310, 29061.00
753.6800, 29764.71
754.8280, 30652.15
755.9760, 31450.00
757.1240, 32753.00
758.2720, 33790.00
759.4190, 35131.00
760.5670, 36585.00
761.7140, 37668.00
762.8610, 38029.00
764.0080, 37818.00
765.1550, 36473.00
766.3020, 34965.00
767.4480, 33575.00
768.5950, 32484.00
769.7410, 31240.00
770.8870, 30547.00
772.0330, 30105.00
773.1780, 29931.00
774.3240, 29421.00
775.4690, 29053.00
776.6140, 29083.00
777.7590, 28739.00
778.9040, 28552.00
780.0490, 28465.00
781.1940, 28488.00
782.3380, 28357.00
783.4820, 28166.00
784.6260, 28154.00
785.7700, 27998.00
786.9140, 28093.00
788.0580, 28032.00
789.2010, 28036.00
790.3450, 28115.08
791.4880, 28123.00
792.6310, 28199.00
793.7730, 28295.00
794.9160, 28224.00
796.0590, 28341.00
797.2010, 28218.00
798.3430, 28419.00
799.4850, 28645.00
800.6270, 28730.00
801.7690, 29244.00
802.9100, 29296.00
804.0520, 29650.00
805.1930, 30352.00
806.3340, 30905.00
807.4750, 31935.00
808.6160, 33094.00
809.7560, 34230.00
810.8970, 35440.00
812.0370, 36769.00
813.1770, 37859.00
814.3170, 38546.00
815.4570, 38365.00
816.5960, 37292.00
817.7360, 36079.00
818.8750, 34745.00
820.0140, 33170.00
821.1530, 32291.00
822.2920, 31158.00
823.4310, 30644.00
824.5690, 30043.00
825.7070, 29667.00
826.8460, 29751.00
827.9840, 29364.00
829.1220, 29200.00
830.2590, 29243.00
831.3970, 29070.00
832.5340, 29050.00
833.6710, 29165.00
834.8080, 29012.00
835.9450, 28956.00
837.0820, 28945.00
838.2190, 28918.00
839.3550, 28782.00
840.4910, 28720.00
841.6270, 28828.00
842.7630, 29019.00
843.8990, 28968.00
845.0350, 29088.00
846.1700, 29046.00
847.3060, 28931.00
848.4410, 28689.00
849.5760, 29138.00
850.7100, 28885.00
851.8450, 28802.00
852.9800, 29146.00
854.1140, 29171.00
855.2480, 28807.00
856.3820, 29026.00
857.5160, 28984.00
858.6500, 29015.00
859.7830, 29115.00
860.9170, 29222.00
862.0500, 29158.00
863.1830, 29225.00
864.3160, 29227.00
865.4480, 29124.00
866.5810, 29165.00
867.7130, 29277.00
868.8460, 29361.00
869.9780, 29277.00
871.1100, 29425.00
872.2410, 29338.00
873.3730, 29484.00
874.5050, 29481.00
875.6360, 29553.00
876.7670, 29547.55
877.8980, 29584.71
879.0290, 29491.00
880.1590, 29616.00
881.2900, 29598.00
882.4200, 29552.00
883.5500, 29665.00
884.6800, 29492.00
885.8100, 29816.00
886.9400, 29831.00
888.0690, 29548.00
889.1990, 29793.00
890.3280, 29705.00
891.4570, 30084.00
892.5860, 30006.00
893.7140, 29836.00
894.8430, 29874.00
895.9710, 30005.00
897.1000, 29972.00
898.2280, 30124.00
899.3560, 29950.00
900.4830, 30157.00
901.6110, 30295.00
902.7380, 30026.00
903.8660, 30223.00
904.9930, 30059.00
906.1200, 30208.00
907.2460, 30136.00
908.3730, 30178.00
909.5000, 30129.00
910.6260, 30403.00
911.7520, 30232.00
912.8780, 30367.00
914.0040, 30509.00
915.1290, 30375.00
916.2550, 30593.00
917.3800, 30668.00
918.5050, 30491.00
919.6300, 30735.00
920.7550, 30645.00
921.8800, 30464.00
923.0040, 30682.00
924.1290, 30605.00
925.2530, 30509.00
926.3770, 30568.00
927.5010, 30802.00
928.6250, 30841.00
929.7480, 30669.00
930.8720, 30787.00
931.9950, 30621.00
933.1180, 31067.00
934.2410, 30771.00
935.3640, 31011.00
936.4860, 31040.00
937.6090, 31042.00
938.7310, 31032.00
939.8530, 31074.00
940.9750, 31268.00
942.0970, 31133.00
943.2180, 31293.00
944.3400, 31090.00
945.4610, 31319.00
946.5820, 31322.00
947.7030, 31533.00
948.8240, 31550.00
949.9450, 31691.00
951.0650, 31740.63
952.1860, 31886.00
953.3060, 31828.00
954.4260, 31829.00
955.5460, 31907.00
956.6650, 31855.00
957.7850, 31992.00
958.9040, 31853.00
960.0230, 32040.00
961.1420, 31761.00
962.2610, 31894.00
963.3800, 32059.00
964.4990, 31842.00
965.6170, 32072.00
966.7350, 32059.00
967.8530, 32195.00
968.9710, 32075.00
970.0890, 32400.00
971.2070, 32278.00
972.3240, 32411.00
973.4410, 32538.00
974.5580, 32556.00
975.6750, 32602.00
976.7920, 32846.00
977.9090, 32665.00
979.0250, 32786.00
980.1410, 32940.00
981.2580, 32654.00
982.3740, 32755.00
983.4890, 32687.00
984.6050, 32626.00
985.7200, 32735.00
986.8360, 32660.00
987.9510, 32701.74
989.0660, 32731.55
990.1810, 32738.00
991.2950, 32815.00
992.4100, 32822.00
993.5240, 32934.00
994.6390, 32901.00
995.7530, 33079.00
996.8660, 33235.00
997.9800, 32958.00
999.0940, 33571.00
1000.207, 33736.00
1001.320, 33547.00
1002.433, 33783.00
1003.546, 34168.00
1004.659, 34407.00
1005.772, 34319.00
1006.884, 34511.00
1007.996, 34484.00
1009.108, 34543.00
1010.220, 34445.00
1011.332, 34755.00
1012.444, 34662.00
1013.555, 34584.00
1014.666, 34687.00
1015.777, 34493.00
1016.888, 34323.00
1017.999, 34382.00
1019.110, 33769.00
1020.220, 34093.00
1021.331, 33881.00
1022.441, 33633.00
1023.551, 34002.00
1024.661, 33830.00
1025.770, 33894.00
1026.880, 33548.00
1027.989, 33912.00
1029.098, 33963.00
1030.207, 34067.00
1031.316, 34055.00
1032.425, 34196.00
1033.533, 33952.00
1034.642, 34026.00
1035.750, 34055.00
1036.858, 34242.00
1037.966, 34224.70
1039.073, 34079.00
1040.181, 34228.00
1041.288, 34216.00
1042.396, 34135.00
1043.503, 34458.00
1044.610, 34616.00
1045.716, 34526.00
1046.823, 34699.00
1047.929, 34442.00
1049.036, 34818.00
1050.142, 34500.00
1051.248, 34478.00
1052.353, 34579.00
1053.459, 34439.00
1054.564, 34498.00
1055.670, 34481.00
1056.775, 34349.00
1057.880, 34405.00
1058.985, 34465.00
1060.089, 34581.00
1061.194, 34578.68
1062.298, 34460.00
1063.402, 34569.00
1064.506, 34645.00
1065.610, 34574.00
1066.713, 34778.00
1067.817, 34632.00
1068.920, 34593.00
1070.023, 34677.00
1071.126, 34882.00
1072.229, 34904.55
1073.332, 34872.00
1074.435, 35061.00
1075.537, 35108.00
1076.639, 35086.00
1077.741, 35410.00
1078.843, 35486.00
1079.945, 35532.00
1081.046, 35879.00
1082.148, 35779.00
1083.249, 35789.00
1084.350, 36058.00
1085.451, 36729.00
1086.551, 36850.00
1087.652, 37172.00
1088.752, 37704.00
1089.853, 37970.00
1090.953, 38677.00
1092.053, 39269.00
1093.152, 40296.00
1094.252, 41144.00
1095.351, 42053.00
1096.451, 42945.00
1097.550, 43461.00
1098.649, 43751.93
1099.748, 44007.00
1100.846, 43586.00
1101.945, 43328.00
1103.043, 42562.00
1104.141, 41621.00
1105.239, 41017.00
1106.337, 40465.00
1107.434, 39718.00
1108.532, 39340.00
1109.629, 39239.00
1110.726, 38870.00
1111.823, 39038.00
1112.920, 38960.00
1114.017, 38764.00
1115.113, 38686.00
1116.210, 38608.00
1117.306, 38631.00
1118.402, 38439.00
1119.498, 37979.00
1120.593, 37974.00
1121.689, 37624.00
1122.784, 37453.00
1123.879, 37347.00
1124.974, 37104.00
1126.069, 37159.00
1127.164, 37144.00
1128.259, 36880.00
1129.353, 36622.00
1130.447, 36625.00
1131.541, 36567.00
1132.635, 36303.00
1133.729, 36292.00
1134.822, 36353.00
1135.916, 36190.00
1137.009, 36533.00
1138.102, 36410.00
1139.195, 36620.00
1140.288, 36573.00
1141.380, 36558.00
1142.473, 36485.00
1143.565, 36568.00
1144.657, 36634.00
1145.749, 36598.00
1146.841, 36878.00
1147.932, 36755.00
1149.024, 36945.00
1150.115, 36812.00
1151.206, 37042.00
1152.297, 37051.00
1153.388, 36976.00
1154.479, 37203.00
1155.569, 36836.00
1156.659, 37074.00
1157.750, 36732.00
1158.839, 36976.00
1159.929, 36724.00
1161.019, 36704.00
1162.108, 36676.00
1163.198, 36601.00
1164.287, 36769.00
1165.376, 36716.88
1166.465, 37052.00
1167.553, 36860.00
1168.642, 36781.00
1169.730, 37043.00
1170.818, 37136.00
1171.906, 37149.00
1172.994, 37015.00
1174.082, 37387.00
1175.170, 36960.00
1176.257, 37101.00
1177.344, 37353.00
1178.431, 37001.00
1179.518, 37126.00
1180.605, 37183.00
1181.691, 37300.00
1182.778, 37327.00
1183.864, 37293.00
1184.950, 37684.00
1186.036, 37413.00
1187.122, 37539.00
1188.207, 37636.00
1189.292, 37529.00
1190.378, 37382.00
1191.463, 37530.00
1192.548, 37486.00
1193.632, 37475.00
1194.717, 37576.00
1195.801, 37679.00
1196.886, 37609.00
1197.970, 37874.00
1199.054, 37609.00
1200.137, 37701.00
1201.221, 37946.00
1202.305, 37895.00
1203.388, 37726.00
1204.471, 37723.00
1205.554, 38034.00
1206.637, 37877.00
1207.719, 38026.00
1208.802, 37929.00
1209.884, 38096.00
1210.966, 37992.00
1212.048, 38133.00
1213.130, 38210.00
1214.212, 37951.00
1215.293, 38152.00
1216.374, 38046.00
1217.456, 38293.00
1218.536, 37904.00
1219.617, 38310.00
1220.698, 37985.00
1221.778, 38359.00
1222.859, 38397.00
1223.939, 38195.00
1225.019, 38476.00
1226.099, 38507.00
1227.178, 38543.00
1228.258, 38694.00
1229.337, 38441.00
1230.417, 38367.00
1231.496, 38543.00
1232.574, 38746.00
1233.653, 38703.00
1234.732, 38629.00
1235.810, 38654.00
1236.888, 38654.00
1237.966, 38776.00
1239.044, 38882.00
1240.122, 38971.00
1241.199, 38827.00
1242.277, 38766.00
1243.354, 38853.00
1244.431, 39018.00
1245.508, 39012.69
1246.585, 39079.00
1247.661, 39133.00
1248.738, 39128.00
1249.814, 39178.00
1250.890, 39245.27
1251.966, 39052.00
1253.042, 39281.00
1254.117, 39322.00
1255.193, 39083.00
1256.268, 39056.00
1257.343, 39408.00
1258.418, 39289.00
1259.493, 39220.00
1260.567, 39693.00
1261.642, 39247.00
1262.716, 39548.00
1263.790, 39481.00
1264.864, 39585.00
1265.938, 39481.00
1267.011, 39650.00
1268.085, 39590.00
1269.158, 39666.00
1270.231, 39578.00
1271.304, 39635.00
1272.377, 39857.00
1273.450, 39788.00
1274.522, 39796.00
