##NAMES=Albite
##RRUFFID=R050402
##IDEAL CHEMISTRY=NaAlSi_3_O_8_
##LOCALITY=Urbano mine, Golconda District, Brazil
##OWNER=RRUFF
##SOURCE=Bob Downs
##DESCRIPTION=Colorless tabular single crystals associated with fluorapatite R050401
##STATUS=The identification of this mineral has been confirmed by X-ray diffraction and chemical analysis
##URL=rruff.info/R050402
##MEASURED CHEMISTRY=Na_1.00_Al_1.00_Si_3.00_O_8_
##PIN_ID=M00107
##ORIENTATION=Laser parallel to b* (0 1 0). Fiducial mark perpendicular to laser is parallel to c [0 0 1]
81.13100, 7876.000
82.36700, 8897.000
83.60200, 9887.000
84.83700, 10755.00
86.07200, 10806.00
87.30800, 10868.00
88.54200, 10773.00
89.77700, 10459.00
91.01200, 10278.00
92.24600, 10174.00
93.48000, 9994.000
94.71400, 9922.000
95.94800, 10187.00
97.18200, 10210.00
98.41600, 10491.00
99.64900, 10740.00
100.8830, 10898.00
102.1160, 11467.00
103.3490, 12089.00
104.5820, 12555.00
105.8150, 13355.00
107.0470, 14124.00
108.2800, 15049.00
109.5120, 16006.00
110.7440, 16278.00
111.9760, 15985.00
113.2080, 15518.00
114.4400, 14779.00
115.6710, 14344.00
116.9030, 13467.00
118.1340, 12710.00
119.3650, 11983.00
120.5960, 11559.00
121.8270, 11385.00
123.0580, 11313.00
124.2880, 11431.00
125.5190, 11204.00
126.7490, 11349.00
127.9790, 11522.00
129.2090, 11803.00
130.4390, 12003.00
131.6680, 12132.00
132.8980, 12445.00
134.1270, 13017.00
135.3560, 13591.00
136.5850, 14012.00
137.8140, 14960.00
139.0430, 15656.00
140.2710, 16848.00
141.5000, 17637.00
142.7280, 18786.00
143.9560, 19593.00
145.1840, 20029.00
146.4120, 20271.00
147.6390, 20840.00
148.8670, 21186.00
150.0940, 21636.00
151.3210, 21880.00
152.5490, 22192.00
153.7750, 22615.00
155.0020, 22955.00
156.2290, 23603.00
157.4550, 24387.00
158.6810, 25639.00
159.9080, 26777.00
161.1340, 27224.00
162.3590, 27316.00
163.5850, 27127.00
164.8110, 26486.00
166.0360, 26311.00
167.2610, 26054.00
168.4860, 25828.00
169.7110, 25996.00
170.9360, 26153.00
172.1610, 26124.00
173.3850, 26253.00
174.6100, 26282.00
175.8340, 27162.00
177.0580, 27897.00
178.2820, 28998.00
179.5050, 29708.00
180.7290, 30940.00
181.9520, 31386.00
183.1760, 31847.00
184.3990, 31721.00
185.6220, 31035.00
186.8450, 29992.00
188.0670, 28268.00
189.2900, 26756.00
190.5120, 25126.00
191.7340, 23316.00
192.9560, 22215.00
194.1780, 21235.00
195.4000, 20951.00
196.6220, 20676.00
197.8430, 21032.00
199.0640, 21673.00
200.2860, 22326.00
201.5070, 23381.00
202.7270, 24315.00
203.9480, 25210.00
205.1690, 25916.00
206.3890, 26547.00
207.6090, 26588.00
208.8290, 26083.00
210.0490, 24704.00
211.2690, 23021.00
212.4890, 21102.00
213.7080, 19210.00
214.9280, 17660.00
216.1470, 16231.00
217.3660, 15159.00
218.5850, 14609.00
219.8030, 14050.00
221.0220, 13777.00
222.2400, 13349.00
223.4590, 13227.00
224.6770, 13166.00
225.8950, 13077.00
227.1120, 12937.00
228.3300, 12934.00
229.5480, 12836.00
230.7650, 12819.00
231.9820, 12873.00
233.1990, 12865.00
234.4160, 12961.00
235.6330, 12811.00
236.8490, 12906.00
238.0660, 12916.00
239.2820, 13071.00
240.4980, 13216.00
241.7140, 13499.00
242.9300, 13656.00
244.1460, 13972.00
245.3610, 14068.00
246.5770, 14463.00
247.7920, 14877.00
249.0070, 15276.00
250.2220, 15207.00
251.4370, 15358.00
252.6510, 15208.00
253.8660, 15060.00
255.0800, 14724.00
256.2940, 14799.00
257.5080, 14651.00
258.7220, 14776.00
259.9360, 15054.00
261.1490, 15405.00
262.3630, 15648.00
263.5760, 15946.00
264.7890, 16294.00
266.0020, 16749.00
267.2150, 17242.00
268.4270, 17267.00
269.6400, 17868.00
270.8520, 18058.00
272.0640, 18154.00
273.2760, 17717.00
274.4880, 17955.00
275.7000, 18286.00
276.9120, 19122.00
278.1230, 20191.00
279.3340, 22199.00
280.5450, 24672.00
281.7560, 27530.00
282.9670, 30737.00
284.1780, 33496.00
285.3880, 36830.00
286.5980, 39692.00
287.8090, 41962.00
289.0190, 43343.00
290.2290, 41928.00
291.4380, 40144.00
292.6480, 36429.00
293.8570, 32625.00
295.0670, 28945.00
296.2760, 25470.00
297.4850, 22341.00
298.6930, 20201.00
299.9020, 18651.00
301.1110, 17570.00
302.3190, 16961.00
303.5270, 16477.00
304.7350, 15995.00
305.9430, 15533.00
307.1510, 15562.00
308.3580, 15060.00
309.5660, 14936.00
310.7730, 14984.00
311.9800, 14999.00
313.1870, 14819.00
314.3940, 14748.00
315.6010, 14819.00
316.8070, 15017.00
318.0130, 15246.00
319.2200, 15892.00
320.4260, 16502.00
321.6310, 16913.00
322.8370, 17572.00
324.0430, 18243.00
325.2480, 19263.00
326.4540, 19582.00
327.6590, 19764.00
328.8640, 19521.00
330.0680, 18690.00
331.2730, 17869.00
332.4780, 16895.00
333.6820, 16304.00
334.8860, 15691.00
336.0900, 15099.00
337.2940, 14754.00
338.4980, 14831.00
339.7010, 14516.00
340.9050, 14433.00
342.1080, 14476.00
343.3110, 14526.00
344.5140, 14471.00
345.7170, 14351.00
346.9200, 14459.00
348.1220, 14347.00
349.3240, 14396.00
350.5270, 14466.00
351.7290, 14347.00
352.9310, 14149.00
354.1320, 14196.00
355.3340, 13980.00
356.5350, 14011.00
357.7370, 14058.00
358.9380, 13937.00
360.1390, 14059.00
361.3400, 13965.00
362.5400, 13999.00
363.7410, 13932.00
364.9410, 14065.00
366.1410, 14208.00
367.3410, 14105.00
368.5410, 14207.00
369.7410, 14091.00
370.9400, 14254.00
372.1400, 14209.00
373.3390, 14160.00
374.5380, 14141.00
375.7370, 14333.00
376.9360, 14217.00
378.1350, 14366.00
379.3330, 14288.00
380.5310, 14374.00
381.7300, 14341.00
382.9280, 14422.00
384.1260, 14714.00
385.3230, 14659.00
386.5210, 14670.00
387.7180, 14815.00
388.9160, 14946.00
390.1130, 15164.00
391.3100, 15225.00
392.5060, 15248.00
393.7030, 15595.00
394.9000, 15859.00
396.0960, 15850.00
397.2920, 16266.00
398.4880, 16516.00
399.6840, 16790.00
400.8800, 16962.00
402.0750, 17068.00
403.2710, 17271.00
404.4660, 17544.00
405.6610, 17831.00
406.8560, 18154.00
408.0510, 17861.00
409.2450, 17613.00
410.4400, 17401.00
411.6340, 17207.00
412.8280, 17272.00
414.0220, 17251.00
415.2160, 17188.00
416.4100, 16981.00
417.6030, 16716.00
418.7970, 16328.00
419.9900, 15923.00
421.1830, 15702.00
422.3760, 15421.00
423.5690, 15446.00
424.7610, 15142.00
425.9540, 15338.00
427.1460, 15013.00
428.3380, 15112.00
429.5300, 15393.00
430.7220, 15242.00
431.9140, 15121.00
433.1050, 15205.00
434.2970, 15355.00
435.4880, 15465.00
436.6790, 15510.00
437.8700, 15419.00
439.0610, 15601.00
440.2510, 15819.00
441.4420, 15995.00
442.6320, 16187.00
443.8220, 16210.00
445.0120, 16811.00
446.2020, 17283.00
447.3910, 17838.00
448.5810, 18733.00
449.7700, 19362.00
450.9600, 20183.00
452.1490, 20983.00
453.3370, 21634.00
454.5260, 22050.00
455.7150, 22344.00
456.9030, 22077.00
458.0910, 21505.00
459.2800, 20873.00
460.4670, 20416.00
461.6550, 20213.00
462.8430, 20233.00
464.0300, 20349.00
465.2180, 21002.00
466.4050, 22065.00
467.5920, 23894.00
468.7790, 26243.00
469.9650, 29336.00
471.1520, 32758.00
472.3380, 36552.00
473.5250, 40058.00
474.7110, 43828.00
475.8970, 46945.00
477.0820, 48610.00
478.2680, 48268.00
479.4540, 45669.00
480.6390, 41909.00
481.8240, 37520.00
483.0090, 33411.00
484.1940, 29553.00
485.3780, 26763.00
486.5630, 24871.00
487.7470, 23555.00
488.9320, 23031.00
490.1160, 22776.00
491.3000, 22889.00
492.4830, 23577.00
493.6670, 24523.00
494.8500, 26245.00
496.0340, 28876.00
497.2170, 32599.00
498.4000, 37186.00
499.5820, 42690.00
500.7650, 48140.00
501.9480, 54084.00
503.1300, 59490.00
504.3120, 63853.00
505.4940, 65535.00
506.6760, 65535.00
507.8580, 62912.00
509.0390, 57239.00
510.2210, 50533.00
511.4020, 43600.00
512.5830, 37477.00
513.7640, 32913.00
514.9450, 29340.00
516.1250, 26554.00
517.3060, 24604.00
518.4860, 23419.00
519.6660, 22232.00
520.8460, 21390.00
522.0260, 20638.00
523.2060, 20285.00
524.3850, 19749.00
525.5650, 19439.00
526.7440, 19254.00
527.9230, 19056.00
529.1020, 18819.00
530.2810, 18637.00
531.4590, 18431.00
532.6380, 18504.00
533.8160, 18289.00
534.9940, 18072.00
536.1720, 17920.00
537.3500, 17848.00
538.5270, 17815.00
539.7050, 17945.00
540.8820, 17779.00
542.0590, 17798.00
543.2360, 17672.00
544.4130, 17918.00
545.5900, 17584.00
546.7660, 17658.00
547.9430, 17571.00
549.1190, 17597.00
550.2950, 17463.00
551.4710, 17738.00
552.6470, 17613.00
553.8220, 17614.00
554.9980, 17557.00
556.1730, 17514.00
557.3480, 17427.00
558.5230, 17375.00
559.6980, 17586.00
560.8730, 17604.00
562.0470, 17538.00
563.2220, 17575.00
564.3960, 17575.00
565.5700, 17830.00
566.7440, 17748.00
567.9170, 17799.00
569.0910, 18196.00
570.2640, 18225.00
571.4380, 18428.00
572.6110, 18519.00
573.7840, 18934.00
574.9570, 19210.00
576.1290, 19141.00
577.3020, 19443.00
578.4740, 19426.00
579.6460, 19243.00
580.8180, 18937.00
581.9900, 18720.00
583.1620, 18429.00
584.3330, 18225.00
585.5040, 18040.00
586.6760, 18038.00
587.8470, 17960.00
589.0180, 17829.00
590.1880, 17692.00
591.3590, 17688.00
592.5290, 17738.00
593.7000, 17721.00
594.8700, 17545.00
596.0400, 17546.00
597.2090, 17637.00
598.3790, 17606.00
599.5490, 17616.00
600.7180, 17632.00
601.8870, 17747.00
603.0560, 17659.00
604.2250, 17745.00
605.3940, 17694.00
606.5620, 17861.00
607.7300, 17885.00
608.8990, 17849.00
610.0670, 17798.00
611.2350, 17862.00
612.4020, 17888.00
613.5700, 17991.00
614.7370, 17951.00
615.9050, 18013.00
617.0720, 18026.00
618.2390, 18239.00
619.4060, 18283.00
620.5720, 18264.00
621.7390, 18408.00
622.9050, 18367.00
624.0710, 18441.00
625.2370, 18809.00
626.4030, 18875.00
627.5690, 18874.00
628.7340, 19205.00
629.9000, 19248.00
631.0650, 19562.00
632.2300, 19407.00
633.3950, 19341.00
634.5600, 19200.00
635.7240, 19349.00
636.8890, 19530.00
638.0530, 19481.00
639.2170, 19575.00
640.3810, 19625.00
641.5450, 19665.00
642.7080, 19902.00
643.8720, 19894.00
645.0350, 20100.00
646.1980, 19885.00
647.3610, 20047.00
648.5240, 19890.00
649.6870, 19416.00
650.8490, 19224.00
652.0120, 19087.00
653.1740, 18892.00
654.3360, 18819.00
655.4980, 18782.00
656.6600, 18788.00
657.8210, 18764.00
658.9830, 18747.00
660.1440, 18466.00
661.3050, 18536.00
662.4660, 18808.00
663.6270, 18553.00
664.7870, 18629.00
665.9480, 18546.00
667.1080, 18535.00
668.2680, 18548.00
669.4280, 18594.00
670.5880, 18544.00
671.7480, 18549.00
672.9070, 18521.00
674.0670, 18596.00
675.2260, 18731.00
676.3850, 18545.00
677.5440, 18607.00
678.7030, 18589.00
679.8610, 18602.00
681.0200, 18720.00
682.1780, 18694.00
683.3360, 18587.00
684.4940, 18850.00
685.6520, 18769.00
686.8090, 18632.00
687.9670, 18618.00
689.1240, 18713.00
690.2810, 18751.00
691.4380, 18602.00
692.5950, 18662.00
693.7520, 18794.00
694.9080, 18678.00
696.0650, 18876.00
697.2210, 18857.00
698.3770, 18938.00
699.5330, 18914.00
700.6880, 18960.00
701.8440, 18852.00
702.9990, 18773.00
704.1550, 18877.00
705.3100, 19039.00
706.4650, 18934.00
707.6190, 18976.00
708.7740, 18940.00
709.9290, 18998.00
711.0830, 18951.00
712.2370, 19246.00
713.3910, 19256.00
714.5450, 19147.00
715.6980, 19291.00
716.8520, 19432.00
718.0050, 19388.00
719.1580, 19450.00
720.3110, 19511.00
721.4640, 19422.00
722.6170, 19522.00
723.7700, 19402.00
724.9220, 19455.00
726.0740, 19672.00
727.2260, 19324.00
728.3780, 19367.00
729.5300, 19510.00
730.6810, 19401.00
731.8330, 19497.00
732.9840, 19609.00
734.1350, 19525.00
735.2860, 19643.00
736.4370, 19761.00
737.5880, 19735.00
738.7380, 19801.00
739.8880, 19604.00
741.0390, 19800.00
742.1890, 20010.00
743.3380, 19949.00
744.4880, 19958.00
745.6380, 20276.00
746.7870, 20434.00
747.9360, 20529.00
749.0850, 20846.00
750.2340, 20832.00
751.3830, 21333.00
752.5310, 21701.00
753.6800, 22366.00
754.8280, 22964.00
755.9760, 24097.00
757.1240, 24912.00
758.2720, 26340.00
759.4190, 27429.00
760.5670, 28367.00
761.7140, 28996.00
762.8610, 29050.00
764.0080, 28443.00
765.1550, 27570.00
766.3020, 26160.00
767.4480, 24990.00
768.5950, 23955.00
769.7410, 23442.00
770.8870, 22821.00
772.0330, 22458.00
773.1780, 22225.00
774.3240, 21931.00
775.4690, 21795.00
776.6140, 21730.00
777.7590, 21543.00
778.9040, 21308.00
780.0490, 21001.00
781.1940, 20981.00
782.3380, 20904.00
783.4820, 20753.00
784.6260, 20628.00
785.7700, 20882.00
786.9140, 20735.00
788.0580, 20904.00
789.2010, 20590.00
790.3450, 20775.00
791.4880, 20809.00
792.6310, 20890.00
793.7730, 21055.00
794.9160, 21036.00
796.0590, 21009.00
797.2010, 21168.00
798.3430, 21582.00
799.4850, 21576.00
800.6270, 21502.00
801.7690, 21938.00
802.9100, 22214.00
804.0520, 22625.00
805.1930, 23386.00
806.3340, 24270.00
807.4750, 25375.00
808.6160, 26727.00
809.7560, 27783.00
810.8970, 29201.00
812.0370, 30575.00
813.1770, 31319.00
814.3170, 31623.00
815.4570, 30985.00
816.5960, 29959.00
817.7360, 28467.00
818.8750, 26760.00
820.0140, 25440.00
821.1530, 24493.00
822.2920, 23541.00
823.4310, 23019.00
824.5690, 22826.00
825.7070, 22496.00
826.8460, 22246.00
827.9840, 21906.00
829.1220, 21880.00
830.2590, 21793.00
831.3970, 21729.00
832.5340, 21421.00
833.6710, 21453.00
834.8080, 21622.00
835.9450, 21559.00
837.0820, 21528.00
838.2190, 21443.00
839.3550, 21408.00
840.4910, 21298.00
841.6270, 21405.00
842.7630, 21422.00
843.8990, 21285.00
845.0350, 21309.00
846.1700, 21339.00
847.3060, 21249.00
848.4410, 21310.00
849.5760, 21327.00
850.7100, 21327.00
851.8450, 21262.00
852.9800, 21312.00
854.1140, 21232.00
855.2480, 21270.00
856.3820, 21490.00
857.5160, 21358.00
858.6500, 21398.00
859.7830, 21361.00
860.9170, 21466.00
862.0500, 21396.00
863.1830, 21526.00
864.3160, 21553.00
865.4480, 21436.00
866.5810, 21471.00
867.7130, 21407.00
868.8460, 21457.00
869.9780, 21506.00
871.1100, 21317.00
872.2410, 21474.00
873.3730, 21530.00
874.5050, 21573.00
875.6360, 21739.00
876.7670, 21672.00
877.8980, 21680.00
879.0290, 21678.00
880.1590, 21754.00
881.2900, 21545.00
882.4200, 21683.00
883.5500, 21783.00
884.6800, 21583.00
885.8100, 21654.00
886.9400, 21729.00
888.0690, 21975.00
889.1990, 21786.00
890.3280, 21769.00
891.4570, 21728.00
892.5860, 21901.00
893.7140, 21792.00
894.8430, 21978.00
895.9710, 21874.00
897.1000, 21912.00
898.2280, 22017.00
899.3560, 22103.00
900.4830, 21941.00
901.6110, 22015.00
902.7380, 22010.00
903.8660, 22062.00
904.9930, 22156.00
906.1200, 22141.00
907.2460, 22069.00
908.3730, 22142.00
909.5000, 22208.00
910.6260, 22185.00
911.7520, 22422.00
912.8780, 22215.00
914.0040, 22327.00
915.1290, 22246.00
916.2550, 22197.00
917.3800, 22317.00
918.5050, 22287.00
919.6300, 22463.00
920.7550, 22344.00
921.8800, 22313.00
923.0040, 22177.00
924.1290, 22304.00
925.2530, 22509.00
926.3770, 22447.00
927.5010, 22499.00
928.6250, 22655.00
929.7480, 22436.00
930.8720, 22520.00
931.9950, 22299.00
933.1180, 22556.00
934.2410, 22543.00
935.3640, 22497.00
936.4860, 22705.00
937.6090, 22707.00
938.7310, 22705.00
939.8530, 22893.00
940.9750, 22678.00
942.0970, 22729.00
943.2180, 22885.00
944.3400, 22829.00
945.4610, 22747.00
946.5820, 22933.00
947.7030, 23084.00
948.8240, 23012.00
949.9450, 22928.00
951.0650, 23066.00
952.1860, 23015.00
953.3060, 23155.00
954.4260, 23110.00
955.5460, 23420.00
956.6650, 23177.00
957.7850, 23208.00
958.9040, 23229.00
960.0230, 23203.00
961.1420, 23465.00
962.2610, 23381.00
963.3800, 23388.00
964.4990, 23666.00
965.6170, 23541.00
966.7350, 23613.00
967.8530, 23673.00
968.9710, 23869.00
970.0890, 24145.00
971.2070, 24195.00
972.3240, 24416.00
973.4410, 24777.00
974.5580, 24825.00
975.6750, 25041.00
976.7920, 24981.00
977.9090, 25246.00
979.0250, 24848.00
980.1410, 24959.00
981.2580, 24645.00
982.3740, 24547.00
983.4890, 24455.00
984.6050, 24300.00
985.7200, 24222.00
986.8360, 24126.00
987.9510, 24033.00
989.0660, 24053.00
990.1810, 23930.00
991.2950, 24143.00
992.4100, 24331.00
993.5240, 24225.00
994.6390, 24116.00
995.7530, 24482.00
996.8660, 24310.00
997.9800, 24471.00
999.0940, 24771.00
1000.207, 24694.00
1001.320, 24828.00
1002.433, 24944.00
1003.546, 25063.00
1004.659, 25384.00
1005.772, 25272.00
1006.884, 25114.00
1007.996, 25390.00
1009.108, 25266.00
1010.220, 25336.00
1011.332, 25361.00
1012.444, 25269.00
1013.555, 25519.00
1014.666, 25231.00
1015.777, 25256.00
1016.888, 25130.00
1017.999, 25318.00
1019.110, 25127.00
1020.220, 25086.00
1021.331, 25037.00
1022.441, 25319.00
1023.551, 25351.00
1024.661, 25500.00
1025.770, 25668.00
1026.880, 25885.00
1027.989, 26260.00
1029.098, 26438.00
1030.207, 26562.00
1031.316, 26854.00
1032.425, 26693.00
1033.533, 26582.00
1034.642, 26674.00
1035.750, 26730.00
1036.858, 25798.00
1037.966, 25916.00
1039.073, 25922.00
1040.181, 26170.00
1041.288, 25565.00
1042.396, 25683.00
1043.503, 25755.00
1044.610, 25746.00
1045.716, 25732.00
1046.823, 25459.00
1047.929, 25387.00
1049.036, 25362.00
1050.142, 25514.00
1051.248, 25203.00
1052.353, 25191.00
1053.459, 25010.00
1054.564, 24993.00
1055.670, 25199.00
1056.775, 25056.00
1057.880, 26119.00
1058.985, 25202.00
1060.089, 25223.00
1061.194, 25168.00
1062.298, 25109.00
1063.402, 25209.00
1064.506, 25192.00
1065.610, 25368.00
1066.713, 25159.00
1067.817, 25349.00
1068.920, 25308.00
1070.023, 25390.00
1071.126, 25305.00
1072.229, 25763.00
1073.332, 25423.00
1074.435, 25507.00
1075.537, 25878.00
1076.639, 25727.00
1077.741, 25879.00
1078.843, 25870.00
1079.945, 26100.00
1081.046, 26304.00
1082.148, 26504.00
1083.249, 26550.00
1084.350, 26773.00
1085.451, 26859.00
1086.551, 27148.00
1087.652, 27387.00
1088.752, 28002.00
1089.853, 28263.00
1090.953, 29065.00
1092.053, 29677.00
1093.152, 30297.00
1094.252, 31448.00
1095.351, 32161.00
1096.451, 32756.00
1097.550, 33424.00
1098.649, 33457.00
1099.748, 33363.00
1100.846, 32978.00
1101.945, 32439.00
1103.043, 31429.00
1104.141, 30800.00
1105.239, 30601.00
1106.337, 30190.00
1107.434, 29634.00
1108.532, 29121.00
1109.629, 29113.00
1110.726, 29040.00
1111.823, 28936.00
1112.920, 28830.00
1114.017, 28579.00
1115.113, 28706.00
1116.210, 28383.00
1117.306, 28545.00
1118.402, 28248.00
1119.498, 28048.00
1120.593, 27961.00
1121.689, 27849.00
1122.784, 27670.00
1123.879, 27536.00
1124.974, 27076.00
1126.069, 27078.00
1127.164, 26969.00
1128.259, 26652.00
1129.353, 26748.00
1130.447, 26533.00
1131.541, 26476.00
1132.635, 26435.00
1133.729, 26571.00
1134.822, 26418.00
1135.916, 26394.00
1137.009, 26378.00
1138.102, 26321.00
1139.195, 26239.00
1140.288, 26375.00
1141.380, 26555.00
1142.473, 26547.00
1143.565, 26460.00
1144.657, 26628.00
1145.749, 26611.00
1146.841, 26662.00
1147.932, 26675.00
1149.024, 26643.00
1150.115, 26700.00
1151.206, 26748.00
1152.297, 26676.00
1153.388, 26721.00
1154.479, 26831.00
1155.569, 26738.00
1156.659, 26577.00
1157.750, 26661.00
1158.839, 26723.00
1159.929, 26592.00
1161.019, 26619.00
1162.108, 26589.00
1163.198, 26634.00
1164.287, 26659.00
1165.376, 26617.00
1166.465, 26695.00
1167.553, 26619.00
1168.642, 26731.00
1169.730, 26899.00
1170.818, 26777.00
1171.906, 26753.00
1172.994, 26886.00
1174.082, 26867.00
1175.170, 26638.00
1176.257, 26906.00
1177.344, 26791.00
1178.431, 26727.00
1179.518, 26835.00
1180.605, 26956.00
1181.691, 26773.00
1182.778, 26890.00
1183.864, 27053.00
1184.950, 26695.00
1186.036, 26861.00
1187.122, 26880.00
1188.207, 27234.00
1189.292, 27179.00
1190.378, 26752.00
1191.463, 27175.00
1192.548, 27128.00
1193.632, 27047.00
1194.717, 27189.00
1195.801, 27152.00
1196.886, 27071.00
1197.970, 27237.00
1199.054, 27180.00
1200.137, 27016.00
1201.221, 27318.00
1202.305, 27232.00
1203.388, 27093.00
1204.471, 27421.00
1205.554, 27446.00
1206.637, 27233.00
1207.719, 27073.00
1208.802, 27252.00
1209.884, 27366.00
1210.966, 27476.00
1212.048, 27472.00
1213.130, 27564.00
1214.212, 27356.00
1215.293, 27545.00
1216.374, 27447.00
1217.456, 27716.00
1218.536, 27603.00
1219.617, 27665.00
1220.698, 27628.00
1221.778, 27424.00
1222.859, 27791.00
1223.939, 27684.00
1225.019, 27867.00
1226.099, 27906.00
1227.178, 27648.00
1228.258, 27561.00
1229.337, 27798.00
1230.417, 27852.00
1231.496, 27697.00
1232.574, 27850.00
1233.653, 27679.00
1234.732, 27859.00
1235.810, 27793.00
1236.888, 28021.00
1237.966, 27775.00
1239.044, 27933.00
1240.122, 28078.00
1241.199, 27706.00
1242.277, 27937.00
1243.354, 28025.00
1244.431, 28138.00
1245.508, 27968.00
1246.585, 27994.00
1247.661, 27945.00
1248.738, 28206.00
1249.814, 27999.00
1250.890, 28123.00
1251.966, 28281.00
1253.042, 28302.00
1254.117, 28150.00
1255.193, 28182.00
1256.268, 28406.00
1257.343, 28354.00
1258.418, 28280.00
1259.493, 28207.00
1260.567, 28360.00
1261.642, 28386.00
1262.716, 28379.00
1263.790, 28446.00
