##NAMES=Albite
##RRUFFID=R050253
##IDEAL CHEMISTRY=NaAlSi_3_O_8_
##LOCALITY=Madawaska/Faraday mine, Bancroft, Ontario, Canada
##OWNER=RRUFF
##SOURCE=Marcus Origlieri
##DESCRIPTION=Colorless to brown prismatic single crystals
##STATUS=The identification of this mineral has been confirmed by X-ray diffraction and chemical analysis
##URL=rruff.info/R050253
##MEASURED CHEMISTRY=(Na_0.99_Ca_0.01_)Al_1.00_(Si_0.99_Al_0.01_)_3_O_8_
##PIN_ID=L01462
##ORIENTATION=Laser parallel to (1 0 1). Fiducial mark perpendicular to laser is parallel to b [0 1 0]
94.71400, 7082.000
95.94800, 7360.000
97.18200, 7436.000
98.41600, 7607.000
99.64900, 7857.000
100.8830, 8103.000
102.1160, 8388.000
103.3490, 8796.000
104.5820, 9342.000
105.8150, 9782.000
107.0470, 10250.00
108.2800, 10664.00
109.5120, 11336.00
110.7440, 11663.00
111.9760, 11635.00
113.2080, 11459.00
114.4400, 11064.00
115.6710, 10675.00
116.9030, 10236.00
118.1340, 9758.000
119.3650, 9374.000
120.5960, 8970.000
121.8270, 9035.000
123.0580, 8994.000
124.2880, 9158.000
125.5190, 9156.000
126.7490, 9255.000
127.9790, 9448.000
129.2090, 9434.000
130.4390, 9916.000
131.6680, 9994.000
132.8980, 10361.00
134.1270, 10924.00
135.3560, 11498.00
136.5850, 12164.00
137.8140, 12978.00
139.0430, 14128.00
140.2710, 15326.00
141.5000, 16595.00
142.7280, 18109.00
143.9560, 19331.00
145.1840, 20362.00
146.4120, 21390.00
147.6390, 22434.00
148.8670, 23014.00
150.0940, 22756.00
151.3210, 21647.00
152.5490, 20192.00
153.7750, 18199.00
155.0020, 16332.00
156.2290, 14518.00
157.4550, 13420.00
158.6810, 12746.00
159.9080, 12428.00
161.1340, 12445.00
162.3590, 12752.00
163.5850, 13173.00
164.8110, 13476.00
166.0360, 13993.00
167.2610, 14705.00
168.4860, 15411.00
169.7110, 15939.00
170.9360, 16479.00
172.1610, 16957.00
173.3850, 17393.00
174.6100, 18214.00
175.8340, 18392.00
177.0580, 19282.00
178.2820, 19938.00
179.5050, 20774.00
180.7290, 21511.00
181.9520, 22297.00
183.1760, 22846.00
184.3990, 23378.00
185.6220, 23266.00
186.8450, 22656.00
188.0670, 21868.00
189.2900, 20708.00
190.5120, 19498.00
191.7340, 18451.00
192.9560, 17368.00
194.1780, 16438.00
195.4000, 16056.00
196.6220, 15780.00
197.8430, 15841.00
199.0640, 15958.00
200.2860, 16600.00
201.5070, 17289.00
202.7270, 17854.00
203.9480, 18626.00
205.1690, 19403.00
206.3890, 20262.00
207.6090, 21073.00
208.8290, 20907.00
210.0490, 20436.00
211.2690, 19411.00
212.4890, 18040.00
213.7080, 16511.00
214.9280, 15109.00
216.1470, 13988.00
217.3660, 13051.27
218.5850, 12204.00
219.8030, 11752.00
221.0220, 11387.00
222.2400, 11119.00
223.4590, 10849.00
224.6770, 10713.00
225.8950, 10606.00
227.1120, 10550.00
228.3300, 10469.00
229.5480, 10392.41
230.7650, 10339.00
231.9820, 10268.00
233.1990, 10370.00
234.4160, 10362.00
235.6330, 10331.00
236.8490, 10276.00
238.0660, 10314.00
239.2820, 10485.00
240.4980, 10555.00
241.7140, 10747.00
242.9300, 10959.00
244.1460, 11137.00
245.3610, 11420.00
246.5770, 11467.00
247.7920, 11938.00
249.0070, 12304.00
250.2220, 12573.00
251.4370, 12727.00
252.6510, 12798.00
253.8660, 12746.00
255.0800, 12738.00
256.2940, 12635.00
257.5080, 12757.00
258.7220, 12894.00
259.9360, 13240.00
261.1490, 13765.00
262.3630, 14315.00
263.5760, 14974.00
264.7890, 15473.00
266.0020, 16240.00
267.2150, 16852.00
268.4270, 17047.00
269.6400, 17117.00
270.8520, 16860.00
272.0640, 16520.00
273.2760, 15708.00
274.4880, 15136.00
275.7000, 14906.00
276.9120, 14377.00
278.1230, 14414.00
279.3340, 14694.00
280.5450, 15307.00
281.7560, 16275.00
282.9670, 17229.00
284.1780, 18505.00
285.3880, 19740.00
286.5980, 21391.00
287.8090, 22957.00
289.0190, 23992.00
290.2290, 24579.00
291.4380, 24202.00
292.6480, 23134.00
293.8570, 21824.00
295.0670, 20077.00
296.2760, 18309.00
297.4850, 16672.00
298.6930, 15444.00
299.9020, 14376.00
301.1110, 13579.00
302.3190, 12920.00
303.5270, 12594.00
304.7350, 12345.00
305.9430, 12079.00
307.1510, 11967.00
308.3580, 11726.00
309.5660, 11683.00
310.7730, 11517.00
311.9800, 11552.00
313.1870, 11343.00
314.3940, 11230.00
315.6010, 11325.00
316.8070, 11273.00
318.0130, 11405.00
319.2200, 11444.00
320.4260, 11691.00
321.6310, 11970.00
322.8370, 12119.00
324.0430, 12201.00
325.2480, 12700.00
326.4540, 12888.00
327.6590, 13131.00
328.8640, 13097.00
330.0680, 13084.00
331.2730, 12700.00
332.4780, 12290.00
333.6820, 12131.00
334.8860, 11909.00
336.0900, 11636.00
337.2940, 11590.00
338.4980, 11340.00
339.7010, 11371.00
340.9050, 11310.00
342.1080, 11097.00
343.3110, 11226.00
344.5140, 11204.00
345.7170, 11273.00
346.9200, 11135.00
348.1220, 11157.00
349.3240, 11274.00
350.5270, 11061.00
351.7290, 11196.00
352.9310, 11196.00
354.1320, 11099.00
355.3340, 11009.00
356.5350, 11077.00
357.7370, 10998.00
358.9380, 11080.00
360.1390, 11055.00
361.3400, 11132.00
362.5400, 11134.00
363.7410, 11075.00
364.9410, 11060.00
366.1410, 11044.00
367.3410, 11159.00
368.5410, 11070.00
369.7410, 11047.00
370.9400, 11033.00
372.1400, 11217.00
373.3390, 11272.00
374.5380, 11228.00
375.7370, 11240.00
376.9360, 11198.00
378.1350, 11197.00
379.3330, 11180.00
380.5310, 11182.08
381.7300, 11186.00
382.9280, 11234.00
384.1260, 11323.00
385.3230, 11423.00
386.5210, 11497.00
387.7180, 11699.00
388.9160, 11697.00
390.1130, 11749.00
391.3100, 12022.00
392.5060, 12032.00
393.7030, 12216.00
394.9000, 12358.00
396.0960, 12767.00
397.2920, 12873.00
398.4880, 13107.00
399.6840, 13173.00
400.8800, 13354.00
402.0750, 13561.26
403.2710, 13445.00
404.4660, 14066.00
405.6610, 14165.00
406.8560, 14582.00
408.0510, 15084.00
409.2450, 15252.00
410.4400, 15614.82
411.6340, 15517.00
412.8280, 16112.00
414.0220, 16459.00
415.2160, 16710.00
416.4100, 16563.00
417.6030, 15978.00
418.7970, 15461.00
419.9900, 14681.00
421.1830, 14016.00
422.3760, 13431.00
423.5690, 13085.00
424.7610, 12860.00
425.9540, 12530.00
427.1460, 12499.00
428.3380, 12532.00
429.5300, 12527.00
430.7220, 12459.00
431.9140, 12559.00
433.1050, 12611.00
434.2970, 12735.00
435.4880, 12845.00
436.6790, 12936.00
437.8700, 13147.00
439.0610, 13321.00
440.2510, 13411.00
441.4420, 13593.00
442.6320, 14068.00
443.8220, 14477.00
445.0120, 15274.00
446.2020, 16194.00
447.3910, 17018.00
448.5810, 18473.00
449.7700, 19918.00
450.9600, 21393.00
452.1490, 22980.00
453.3370, 24293.00
454.5260, 25741.00
455.7150, 26248.00
456.9030, 26030.00
458.0910, 24778.00
459.2800, 23764.00
460.4670, 22244.00
461.6550, 21195.00
462.8430, 20531.00
464.0300, 19938.00
465.2180, 20108.00
466.4050, 21008.00
467.5920, 22480.76
468.7790, 24442.00
469.9650, 27486.00
471.1520, 31001.00
472.3380, 35076.00
473.5250, 38742.00
474.7110, 43246.00
475.8970, 48160.00
477.0820, 51449.00
478.2680, 52787.00
479.4540, 50919.00
480.6390, 47496.00
481.8240, 42223.00
483.0090, 37127.00
484.1940, 32053.00
485.3780, 27843.00
486.5630, 24846.00
487.7470, 23001.00
488.9320, 21338.00
490.1160, 20609.00
491.3000, 20505.00
492.4830, 20585.00
493.6670, 20993.00
494.8500, 22259.00
496.0340, 24074.00
497.2170, 26537.00
498.4000, 30265.00
499.5820, 34448.00
500.7650, 39243.00
501.9480, 44476.00
503.1300, 49502.00
504.3120, 55169.00
505.4940, 59573.00
506.6760, 60899.00
507.8580, 60029.00
509.0390, 56069.00
510.2210, 50226.00
511.4020, 43961.00
512.5830, 37817.00
513.7640, 32277.00
514.9450, 28091.00
516.1250, 25220.00
517.3060, 22747.00
518.4860, 20978.00
519.6660, 19675.00
520.8460, 18974.00
522.0260, 18085.00
523.2060, 17515.00
524.3850, 17025.00
525.5650, 16394.00
526.7440, 16338.00
527.9230, 16193.00
529.1020, 15920.00
530.2810, 15599.00
531.4590, 15468.00
532.6380, 15402.00
533.8160, 15153.00
534.9940, 15110.00
536.1720, 14763.00
537.3500, 14908.00
538.5270, 14629.00
539.7050, 14514.00
540.8820, 14478.00
542.0590, 14482.00
543.2360, 14536.00
544.4130, 14467.00
545.5900, 14497.00
546.7660, 14383.00
547.9430, 14475.00
549.1190, 14262.00
550.2950, 14257.00
551.4710, 14304.00
552.6470, 14203.00
553.8220, 14256.00
554.9980, 14179.00
556.1730, 14223.00
557.3480, 14269.00
558.5230, 13955.00
559.6980, 14079.00
560.8730, 14077.00
562.0470, 14244.00
563.2220, 14217.00
564.3960, 14264.00
565.5700, 14341.00
566.7440, 14398.35
567.9170, 14491.00
569.0910, 14622.00
570.2640, 14725.00
571.4380, 14912.00
572.6110, 15036.00
573.7840, 15332.00
574.9570, 15433.00
576.1290, 15715.00
577.3020, 15611.00
578.4740, 15695.00
579.6460, 15664.00
580.8180, 15475.00
581.9900, 15239.00
583.1620, 15094.00
584.3330, 14897.30
585.5040, 14637.00
586.6760, 14561.00
587.8470, 14415.00
589.0180, 14273.00
590.1880, 14235.00
591.3590, 14044.00
592.5290, 14120.00
593.7000, 14098.00
594.8700, 13987.00
596.0400, 14024.00
597.2090, 14003.00
598.3790, 14169.00
599.5490, 14100.00
600.7180, 14230.00
601.8870, 14199.00
603.0560, 14178.00
604.2250, 14180.00
605.3940, 14100.00
606.5620, 14099.00
607.7300, 14163.00
608.8990, 14115.00
610.0670, 14155.00
611.2350, 14153.84
612.4020, 14226.00
613.5700, 14149.00
614.7370, 14218.00
615.9050, 14211.00
617.0720, 14265.00
618.2390, 14237.00
619.4060, 14229.00
620.5720, 14521.00
621.7390, 14355.00
622.9050, 14535.00
624.0710, 14476.00
625.2370, 14522.00
626.4030, 14491.00
627.5690, 14534.00
628.7340, 14662.00
629.9000, 14728.00
631.0650, 14915.00
632.2300, 14818.00
633.3950, 14932.00
634.5600, 14928.00
635.7240, 14838.00
636.8890, 15126.00
638.0530, 15161.00
639.2170, 15331.00
640.3810, 15246.00
641.5450, 15365.00
642.7080, 15497.00
643.8720, 15570.00
645.0350, 15707.00
646.1980, 15640.00
647.3610, 15613.00
648.5240, 15722.00
649.6870, 15560.00
650.8490, 15312.00
652.0120, 15202.00
653.1740, 15101.00
654.3360, 14972.00
655.4980, 14999.00
656.6600, 14856.00
657.8210, 14788.00
658.9830, 14753.00
660.1440, 14635.00
661.3050, 14721.00
662.4660, 14821.00
663.6270, 14856.00
664.7870, 14870.94
665.9480, 14895.00
667.1080, 14862.00
668.2680, 14722.00
669.4280, 14753.00
670.5880, 14910.00
671.7480, 14655.00
672.9070, 14801.00
674.0670, 14815.00
675.2260, 14768.00
676.3850, 14848.39
677.5440, 14816.00
678.7030, 14873.00
679.8610, 14826.00
681.0200, 14790.00
682.1780, 14734.00
683.3360, 14858.00
684.4940, 14765.00
685.6520, 14925.00
686.8090, 14850.00
687.9670, 14919.00
689.1240, 14806.00
690.2810, 14869.00
691.4380, 14876.00
692.5950, 14977.00
693.7520, 14992.00
694.9080, 14963.01
696.0650, 14767.00
697.2210, 14873.00
698.3770, 14970.00
699.5330, 14941.00
700.6880, 15116.00
701.8440, 14893.00
702.9990, 14996.00
704.1550, 14990.00
705.3100, 14982.00
706.4650, 14999.00
707.6190, 15111.00
708.7740, 15166.00
709.9290, 15258.00
711.0830, 15272.56
712.2370, 15295.02
713.3910, 15266.00
714.5450, 15283.00
715.6980, 15249.00
716.8520, 15226.00
718.0050, 15220.00
719.1580, 15352.00
720.3110, 15299.00
721.4640, 15496.00
722.6170, 15387.00
723.7700, 15443.00
724.9220, 15519.00
726.0740, 15577.00
727.2260, 15546.00
728.3780, 15566.00
729.5300, 15652.00
730.6810, 15714.00
731.8330, 15758.00
732.9840, 15727.00
734.1350, 15693.00
735.2860, 15901.00
736.4370, 15929.00
737.5880, 16103.00
738.7380, 16037.00
739.8880, 16144.00
741.0390, 16403.00
742.1890, 16229.00
743.3380, 16427.00
744.4880, 16683.00
745.6380, 16813.00
746.7870, 16954.00
747.9360, 17432.00
749.0850, 17579.00
750.2340, 17906.00
751.3830, 18658.00
752.5310, 19420.00
753.6800, 20352.00
754.8280, 21582.00
755.9760, 23040.00
757.1240, 25157.00
758.2720, 27148.00
759.4190, 29302.00
760.5670, 31579.00
761.7140, 33283.00
762.8610, 33809.00
764.0080, 33214.00
765.1550, 31606.00
766.3020, 29181.00
767.4480, 26907.00
768.5950, 24634.00
769.7410, 22719.00
770.8870, 21229.00
772.0330, 20385.00
773.1780, 19663.00
774.3240, 19046.00
775.4690, 18527.00
776.6140, 18344.00
777.7590, 17953.00
778.9040, 17722.00
780.0490, 17420.00
781.1940, 17534.00
782.3380, 17403.00
783.4820, 17218.00
784.6260, 17021.00
785.7700, 17103.00
786.9140, 16956.00
788.0580, 17006.00
789.2010, 16988.00
790.3450, 17173.00
791.4880, 17027.00
792.6310, 17404.00
793.7730, 17172.00
794.9160, 17338.00
796.0590, 17322.00
797.2010, 17533.00
798.3430, 17556.00
799.4850, 17799.00
800.6270, 18120.00
801.7690, 18557.00
802.9100, 19132.00
804.0520, 19775.00
805.1930, 20539.00
806.3340, 21508.00
807.4750, 22894.00
808.6160, 24528.00
809.7560, 26606.00
810.8970, 28560.00
812.0370, 30799.00
813.1770, 32145.00
814.3170, 33203.00
815.4570, 33134.00
816.5960, 32010.00
817.7360, 29831.00
818.8750, 27474.00
820.0140, 25297.00
821.1530, 23172.00
822.2920, 21862.00
823.4310, 20664.00
824.5690, 19963.00
825.7070, 19182.00
826.8460, 18603.00
827.9840, 18383.00
829.1220, 18390.00
830.2590, 17968.00
831.3970, 17892.00
832.5340, 17809.00
833.6710, 17764.00
834.8080, 17777.00
835.9450, 17661.00
837.0820, 17575.00
838.2190, 17514.79
839.3550, 17358.00
840.4910, 17332.00
841.6270, 17254.00
842.7630, 17136.00
843.8990, 17253.00
845.0350, 17131.00
846.1700, 17156.00
847.3060, 17059.00
848.4410, 17107.00
849.5760, 17161.00
850.7100, 17176.00
851.8450, 17052.00
852.9800, 17011.00
854.1140, 17209.00
855.2480, 17056.00
856.3820, 17113.00
857.5160, 17057.00
858.6500, 17023.00
859.7830, 17047.00
860.9170, 17021.38
862.0500, 17124.00
863.1830, 17075.00
864.3160, 17027.00
865.4480, 17146.00
866.5810, 17149.00
867.7130, 17075.00
868.8460, 17263.00
869.9780, 17400.00
871.1100, 17158.00
872.2410, 17090.00
873.3730, 17052.00
874.5050, 17164.00
875.6360, 17221.00
876.7670, 17275.00
877.8980, 17282.00
879.0290, 17219.00
880.1590, 17232.00
881.2900, 17283.00
882.4200, 17356.00
883.5500, 17353.00
884.6800, 17271.00
885.8100, 17276.00
886.9400, 17325.00
888.0690, 17295.00
889.1990, 17457.00
890.3280, 17324.00
891.4570, 17366.00
892.5860, 17298.00
893.7140, 17468.00
894.8430, 17413.00
895.9710, 17535.00
897.1000, 17508.00
898.2280, 17527.00
899.3560, 17454.00
900.4830, 17578.00
901.6110, 17602.00
902.7380, 17482.00
903.8660, 17491.00
904.9930, 17700.00
906.1200, 17709.00
907.2460, 17632.00
908.3730, 17556.00
909.5000, 17643.00
910.6260, 17812.00
911.7520, 17813.00
912.8780, 17780.00
914.0040, 17729.00
915.1290, 17712.12
916.2550, 17711.00
917.3800, 17706.00
918.5050, 17692.00
919.6300, 17818.00
920.7550, 17784.00
921.8800, 17872.47
923.0040, 17871.00
924.1290, 17956.00
925.2530, 17983.00
926.3770, 17895.00
927.5010, 17898.00
928.6250, 17930.00
929.7480, 17892.00
930.8720, 17939.00
931.9950, 17845.00
933.1180, 17915.12
934.2410, 17961.00
935.3640, 18026.00
936.4860, 18086.00
937.6090, 18169.00
938.7310, 18160.00
939.8530, 18118.00
940.9750, 18195.00
942.0970, 18244.00
943.2180, 18262.00
944.3400, 18340.57
945.4610, 18382.25
946.5820, 18481.00
947.7030, 18490.00
948.8240, 18593.00
949.9450, 18638.43
951.0650, 18558.00
952.1860, 18683.00
953.3060, 18681.00
954.4260, 18744.00
955.5460, 18746.00
956.6650, 18777.00
957.7850, 18775.00
958.9040, 18741.00
960.0230, 18769.00
961.1420, 18751.00
962.2610, 18778.00
963.3800, 18779.26
964.4990, 18791.00
965.6170, 18769.00
966.7350, 18817.00
967.8530, 18772.00
968.9710, 18833.00
970.0890, 18804.00
971.2070, 18888.92
972.3240, 19140.00
973.4410, 19037.00
974.5580, 19106.00
975.6750, 19110.00
976.7920, 19482.00
977.9090, 19321.00
979.0250, 19346.00
980.1410, 19429.00
981.2580, 19319.00
982.3740, 19274.00
983.4890, 19082.00
984.6050, 19048.00
985.7200, 19227.00
986.8360, 19145.00
987.9510, 19253.00
989.0660, 19222.00
990.1810, 19164.00
991.2950, 19360.00
992.4100, 19277.00
993.5240, 19321.00
994.6390, 19418.00
995.7530, 19372.00
996.8660, 19699.00
997.9800, 19769.00
999.0940, 19875.00
1000.207, 20177.00
1001.320, 20581.00
1002.433, 20512.00
1003.546, 20752.00
1004.659, 20775.00
1005.772, 20916.00
1006.884, 21103.00
1007.996, 21108.00
1009.108, 20994.00
1010.220, 21009.00
1011.332, 21131.00
1012.444, 21187.00
1013.555, 21075.00
1014.666, 21108.00
1015.777, 21004.00
1016.888, 20726.00
1017.999, 20596.00
1019.110, 20449.00
1020.220, 20377.00
1021.331, 20105.00
1022.441, 20181.00
1023.551, 20059.00
1024.661, 19770.00
1025.770, 19962.00
1026.880, 19817.00
1027.989, 19840.00
1029.098, 19936.00
1030.207, 19865.00
1031.316, 19756.00
1032.425, 19801.00
1033.533, 19796.00
1034.642, 19792.18
1035.750, 19834.16
1036.858, 19851.00
1037.966, 19927.00
1039.073, 19989.00
1040.181, 20101.00
1041.288, 20155.24
1042.396, 20183.00
1043.503, 20314.00
1044.610, 20453.00
1045.716, 20591.00
1046.823, 20524.00
1047.929, 20743.00
1049.036, 20516.00
1050.142, 20524.00
1051.248, 20457.00
1052.353, 20446.00
1053.459, 20371.96
1054.564, 20166.00
1055.670, 20230.00
1056.775, 20272.00
1057.880, 20246.41
1058.985, 19937.00
1060.089, 20130.00
1061.194, 20113.00
1062.298, 19931.00
1063.402, 20120.00
1064.506, 20002.00
1065.610, 20187.00
1066.713, 20235.00
1067.817, 20270.00
1068.920, 20429.00
1070.023, 20378.00
1071.126, 20220.00
1072.229, 20430.00
1073.332, 20400.00
1074.435, 20447.00
1075.537, 20572.00
1076.639, 20571.00
1077.741, 20744.00
1078.843, 20736.00
1079.945, 20867.00
1081.046, 20938.00
1082.148, 20967.00
1083.249, 21172.00
1084.350, 21628.00
1085.451, 21877.00
1086.551, 21878.00
1087.652, 22174.00
1088.752, 22865.00
1089.853, 23222.00
1090.953, 23860.00
1092.053, 24482.00
1093.152, 25201.00
1094.252, 26086.00
1095.351, 26741.00
1096.451, 27497.00
1097.550, 27927.00
1098.649, 28156.00
1099.748, 27988.00
1100.846, 27757.00
1101.945, 27071.00
1103.043, 26305.00
1104.141, 25469.00
1105.239, 24768.00
1106.337, 24094.00
1107.434, 23884.00
1108.532, 23273.00
1109.629, 23097.00
1110.726, 22892.00
1111.823, 22611.00
1112.920, 22544.00
1114.017, 22245.00
1115.113, 22128.00
1116.210, 21793.00
1117.306, 21688.00
1118.402, 21720.00
1119.498, 21657.00
1120.593, 21622.78
1121.689, 21707.00
1122.784, 21493.00
1123.879, 21442.00
1124.974, 21235.00
1126.069, 21104.00
1127.164, 21204.00
1128.259, 21132.00
1129.353, 21044.00
1130.447, 21147.00
1131.541, 20999.00
1132.635, 20987.00
1133.729, 20832.00
1134.822, 20963.00
1135.916, 20950.00
1137.009, 20914.00
1138.102, 20888.00
1139.195, 20911.00
1140.288, 20998.00
1141.380, 20986.00
1142.473, 20869.00
1143.565, 21026.00
1144.657, 21195.00
1145.749, 21162.00
1146.841, 21409.00
1147.932, 21482.00
1149.024, 21431.00
1150.115, 21377.00
1151.206, 21411.00
1152.297, 21605.00
1153.388, 21326.00
1154.479, 21561.00
1155.569, 21278.00
1156.659, 21438.00
1157.750, 21355.00
1158.839, 21220.00
1159.929, 21321.00
1161.019, 21157.00
1162.108, 21111.00
1163.198, 21218.00
1164.287, 21206.00
1165.376, 21281.00
1166.465, 21224.00
1167.553, 21151.00
1168.642, 21307.00
1169.730, 21102.00
1170.818, 21311.00
1171.906, 21305.00
1172.994, 21351.00
1174.082, 21318.00
1175.170, 21287.00
1176.257, 21205.00
1177.344, 21384.00
1178.431, 21321.00
1179.518, 21413.00
1180.605, 21318.00
1181.691, 21292.00
1182.778, 21191.00
1183.864, 21490.00
1184.950, 21347.00
1186.036, 21439.00
1187.122, 21225.00
1188.207, 21369.00
1189.292, 21387.00
1190.378, 21575.00
1191.463, 21453.00
1192.548, 21491.00
1193.632, 21611.00
1194.717, 21609.00
1195.801, 21581.00
1196.886, 21662.00
1197.970, 21664.00
1199.054, 21665.45
1200.137, 21522.00
1201.221, 21617.00
1202.305, 21633.00
1203.388, 21513.00
1204.471, 21569.00
1205.554, 21586.00
1206.637, 21593.00
1207.719, 21546.00
1208.802, 21560.04
1209.884, 21774.00
1210.966, 21598.00
1212.048, 21624.00
1213.130, 21763.00
1214.212, 21690.00
1215.293, 21867.00
1216.374, 21760.00
1217.456, 21926.00
1218.536, 21708.00
1219.617, 21991.00
1220.698, 21794.00
1221.778, 21708.00
1222.859, 21806.00
1223.939, 21901.00
1225.019, 21818.00
1226.099, 21995.00
1227.178, 21797.00
1228.258, 21759.00
1229.337, 22073.00
1230.417, 22049.00
1231.496, 21894.00
1232.574, 22002.00
1233.653, 22152.00
1234.732, 21998.00
1235.810, 21833.00
1236.888, 21975.00
1237.966, 22104.00
1239.044, 22086.00
1240.122, 22068.00
1241.199, 22142.00
1242.277, 22156.00
1243.354, 22118.00
1244.431, 22123.00
1245.508, 22216.00
1246.585, 22262.00
1247.661, 22133.00
1248.738, 22291.00
1249.814, 22422.00
1250.890, 22257.00
1251.966, 22421.00
1253.042, 22378.00
1254.117, 22319.00
1255.193, 22378.00
1256.268, 22260.00
1257.343, 22309.10
1258.418, 22426.00
1259.493, 22391.00
1260.567, 22431.00
1261.642, 22556.00
1262.716, 22362.00
1263.790, 22513.00
1264.864, 22478.00
1265.938, 22487.00
1267.011, 22437.00
1268.085, 22546.00
1269.158, 22639.00
1270.231, 22699.00
1271.304, 22697.43
1272.377, 22716.00
1273.450, 22678.00
1274.522, 22602.00
