##NAMES=Albite
##RRUFFID=R050253
##IDEAL CHEMISTRY=NaAlSi_3_O_8_
##LOCALITY=Madawaska/Faraday mine, Bancroft, Ontario, Canada
##OWNER=RRUFF
##SOURCE=Marcus Origlieri
##DESCRIPTION=Colorless to brown prismatic single crystals
##STATUS=The identification of this mineral has been confirmed by X-ray diffraction and chemical analysis
##URL=rruff.info/R050253
##MEASURED CHEMISTRY=(Na_0.99_Ca_0.01_)Al_1.00_(Si_0.99_Al_0.01_)_3_O_8_
##PIN_ID=L01398
##ORIENTATION=Laser parallel to a* (1 0 0). Fiducial mark perpendicular to laser is parallel to b [0 1 0]
87.30800, 11617.00
88.54200, 11962.00
89.77700, 11025.00
91.01200, 11151.00
92.24600, 11535.00
93.48000, 11457.00
94.71400, 11580.00
95.94800, 11752.00
97.18200, 11894.00
98.41600, 12213.00
99.64900, 12543.00
100.8830, 13005.36
102.1160, 13606.00
103.3490, 14222.00
104.5820, 15091.00
105.8150, 16004.00
107.0470, 17336.00
108.2800, 18365.00
109.5120, 19963.00
110.7440, 20450.00
111.9760, 19023.00
113.2080, 17427.00
114.4400, 16595.00
115.6710, 15713.00
116.9030, 15413.00
118.1340, 14687.00
119.3650, 14183.00
120.5960, 13602.00
121.8270, 13565.00
123.0580, 13601.00
124.2880, 13748.00
125.5190, 13487.00
126.7490, 13397.00
127.9790, 13321.00
129.2090, 13698.00
130.4390, 13703.00
131.6680, 13954.00
132.8980, 14138.00
134.1270, 14342.00
135.3560, 14544.00
136.5850, 15057.00
137.8140, 15696.00
139.0430, 16113.00
140.2710, 16642.00
141.5000, 17290.00
142.7280, 17911.00
143.9560, 18194.00
145.1840, 18689.00
146.4120, 18776.00
147.6390, 19437.00
148.8670, 19986.00
150.0940, 20302.00
151.3210, 20864.00
152.5490, 22002.00
153.7750, 22727.00
155.0020, 23394.00
156.2290, 23972.00
157.4550, 24770.00
158.6810, 25228.00
159.9080, 25982.00
161.1340, 26097.00
162.3590, 25769.00
163.5850, 25287.00
164.8110, 24801.00
166.0360, 24342.00
167.2610, 24395.00
168.4860, 24130.00
169.7110, 24036.00
170.9360, 23507.00
172.1610, 23180.00
173.3850, 23067.00
174.6100, 23365.00
175.8340, 23921.00
177.0580, 24626.00
178.2820, 24997.00
179.5050, 25511.00
180.7290, 25726.00
181.9520, 25979.00
183.1760, 25710.00
184.3990, 25455.00
185.6220, 24708.00
186.8450, 24165.00
188.0670, 23113.00
189.2900, 22317.00
190.5120, 21752.00
191.7340, 21202.00
192.9560, 20735.00
194.1780, 20549.00
195.4000, 20617.00
196.6220, 20684.00
197.8430, 20995.00
199.0640, 21601.00
200.2860, 22157.00
201.5070, 23087.00
202.7270, 23970.00
203.9480, 24163.00
205.1690, 24133.00
206.3890, 23781.00
207.6090, 23081.00
208.8290, 21964.00
210.0490, 20817.00
211.2690, 19311.00
212.4890, 18335.00
213.7080, 17636.00
214.9280, 16871.00
216.1470, 16575.00
217.3660, 16146.00
218.5850, 15963.00
219.8030, 15720.00
221.0220, 15423.00
222.2400, 15493.00
223.4590, 15376.00
224.6770, 15254.00
225.8950, 15274.00
227.1120, 15182.00
228.3300, 15055.00
229.5480, 14928.00
230.7650, 14901.00
231.9820, 14932.03
233.1990, 14973.25
234.4160, 15149.00
235.6330, 15260.00
236.8490, 15458.00
238.0660, 15775.00
239.2820, 15698.00
240.4980, 16223.00
241.7140, 16688.00
242.9300, 17198.00
244.1460, 18052.00
245.3610, 18491.00
246.5770, 19018.00
247.7920, 19759.00
249.0070, 20110.00
250.2220, 20146.00
251.4370, 19642.00
252.6510, 18867.00
253.8660, 18125.00
255.0800, 17493.00
256.2940, 17211.00
257.5080, 16895.00
258.7220, 16932.00
259.9360, 17541.00
261.1490, 18126.00
262.3630, 17981.00
263.5760, 17996.00
264.7890, 18157.00
266.0020, 18709.00
267.2150, 18942.00
268.4270, 18959.00
269.6400, 19036.00
270.8520, 18665.00
272.0640, 18688.00
273.2760, 18930.00
274.4880, 19130.00
275.7000, 19521.00
276.9120, 20306.00
278.1230, 21704.00
279.3340, 23289.00
280.5450, 25739.00
281.7560, 28288.00
282.9670, 30838.00
284.1780, 33194.00
285.3880, 35371.00
286.5980, 37587.00
287.8090, 38671.00
289.0190, 38504.00
290.2290, 36753.00
291.4380, 33766.00
292.6480, 30373.00
293.8570, 27749.00
295.0670, 25472.00
296.2760, 23325.00
297.4850, 21858.00
298.6930, 20597.00
299.9020, 19557.00
301.1110, 18905.00
302.3190, 18329.00
303.5270, 17989.00
304.7350, 17702.00
305.9430, 17450.00
307.1510, 17287.00
308.3580, 17323.00
309.5660, 17192.00
310.7730, 17089.00
311.9800, 17141.00
313.1870, 17015.00
314.3940, 17180.00
315.6010, 17214.00
316.8070, 17409.00
318.0130, 17789.00
319.2200, 18671.00
320.4260, 19601.00
321.6310, 20405.00
322.8370, 21040.00
324.0430, 22031.00
325.2480, 22785.00
326.4540, 23322.00
327.6590, 22811.00
328.8640, 21716.00
330.0680, 20501.00
331.2730, 19362.00
332.4780, 18669.00
333.6820, 18043.00
334.8860, 17551.00
336.0900, 17146.00
337.2940, 17056.00
338.4980, 16848.00
339.7010, 16804.00
340.9050, 16534.00
342.1080, 16426.00
343.3110, 16449.00
344.5140, 16494.00
345.7170, 16398.00
346.9200, 16420.00
348.1220, 16463.00
349.3240, 16506.00
350.5270, 16379.00
351.7290, 16459.00
352.9310, 16272.00
354.1320, 16284.00
355.3340, 16269.08
356.5350, 16341.00
357.7370, 16238.00
358.9380, 16223.17
360.1390, 16176.89
361.3400, 16060.00
362.5400, 16269.00
363.7410, 16308.00
364.9410, 16478.00
366.1410, 16249.00
367.3410, 16393.00
368.5410, 16355.00
369.7410, 16540.00
370.9400, 16336.00
372.1400, 16499.00
373.3390, 16535.00
374.5380, 16450.00
375.7370, 16363.00
376.9360, 16591.00
378.1350, 16647.00
379.3330, 16670.58
380.5310, 16571.00
381.7300, 16695.00
382.9280, 16744.00
384.1260, 16642.00
385.3230, 16944.00
386.5210, 17080.00
387.7180, 17089.00
388.9160, 17288.00
390.1130, 17522.00
391.3100, 17550.00
392.5060, 17788.00
393.7030, 18030.00
394.9000, 18191.00
396.0960, 18589.00
397.2920, 19154.00
398.4880, 19340.00
399.6840, 19715.00
400.8800, 20207.00
402.0750, 20499.00
403.2710, 21145.00
404.4660, 21721.00
405.6610, 22037.00
406.8560, 22109.00
408.0510, 21583.00
409.2450, 21042.00
410.4400, 20655.00
411.6340, 20446.00
412.8280, 20358.00
414.0220, 20231.00
415.2160, 19918.00
416.4100, 19465.00
417.6030, 18959.00
418.7970, 18542.00
419.9900, 18244.33
421.1830, 17979.00
422.3760, 17766.00
423.5690, 17687.00
424.7610, 17535.00
425.9540, 17541.00
427.1460, 17508.00
428.3380, 17487.00
429.5300, 17243.00
430.7220, 17305.00
431.9140, 17464.00
433.1050, 17368.00
434.2970, 17538.00
435.4880, 17540.00
436.6790, 17492.00
437.8700, 17609.00
439.0610, 17695.00
440.2510, 17710.00
441.4420, 17735.00
442.6320, 17673.00
443.8220, 17705.00
445.0120, 17750.00
446.2020, 17920.00
447.3910, 17994.00
448.5810, 18027.00
449.7700, 18146.00
450.9600, 18473.00
452.1490, 18496.00
453.3370, 18701.00
454.5260, 18728.00
455.7150, 18704.00
456.9030, 18928.00
458.0910, 18758.00
459.2800, 18990.00
460.4670, 19021.00
461.6550, 19305.00
462.8430, 19415.00
464.0300, 20054.00
465.2180, 20370.00
466.4050, 21276.00
467.5920, 21922.00
468.7790, 23521.00
469.9650, 25210.00
471.1520, 27250.00
472.3380, 29428.00
473.5250, 31108.00
474.7110, 32497.00
475.8970, 34015.00
477.0820, 34432.00
478.2680, 32982.00
479.4540, 31226.00
480.6390, 28794.00
481.8240, 26757.00
483.0090, 25695.00
484.1940, 24214.00
485.3780, 23409.00
486.5630, 23043.00
487.7470, 22378.00
488.9320, 22463.00
490.1160, 22504.00
491.3000, 22816.00
492.4830, 23468.00
493.6670, 24299.00
494.8500, 25567.00
496.0340, 27426.00
497.2170, 30041.00
498.4000, 33702.00
499.5820, 37466.00
500.7650, 41866.00
501.9480, 46024.00
503.1300, 49350.00
504.3120, 52484.00
505.4940, 52534.00
506.6760, 50197.00
507.8580, 46333.00
509.0390, 41406.00
510.2210, 36779.00
511.4020, 33104.00
512.5830, 30322.00
513.7640, 27809.00
514.9450, 26090.00
516.1250, 24695.00
517.3060, 23601.00
518.4860, 22690.00
519.6660, 22153.00
520.8460, 21856.00
522.0260, 21271.00
523.2060, 21133.00
524.3850, 20820.00
525.5650, 20615.00
526.7440, 20609.00
527.9230, 20383.00
529.1020, 20136.00
530.2810, 20187.00
531.4590, 19991.00
532.6380, 20124.00
533.8160, 19900.00
534.9940, 19775.00
536.1720, 19782.00
537.3500, 19642.54
538.5270, 19752.00
539.7050, 19583.00
540.8820, 19615.00
542.0590, 19720.00
543.2360, 19780.00
544.4130, 19806.00
545.5900, 19818.38
546.7660, 19547.00
547.9430, 19736.00
549.1190, 19700.00
550.2950, 19572.00
551.4710, 19690.00
552.6470, 19576.00
553.8220, 19713.00
554.9980, 19660.00
556.1730, 19841.00
557.3480, 19522.00
558.5230, 19680.00
559.6980, 19754.00
560.8730, 19888.00
562.0470, 19879.00
563.2220, 19883.00
564.3960, 19725.00
565.5700, 19994.00
566.7440, 20097.00
567.9170, 20005.00
569.0910, 20496.00
570.2640, 20305.00
571.4380, 20467.00
572.6110, 20636.00
573.7840, 20850.00
574.9570, 20819.00
576.1290, 21058.00
577.3020, 21289.00
578.4740, 20929.00
579.6460, 20841.00
580.8180, 20621.00
581.9900, 20556.00
583.1620, 20461.00
584.3330, 20223.00
585.5040, 20159.00
586.6760, 20117.00
587.8470, 20201.00
589.0180, 19983.00
590.1880, 19940.00
591.3590, 19967.00
592.5290, 19909.67
593.7000, 20077.00
594.8700, 20037.00
596.0400, 20064.00
597.2090, 20293.00
598.3790, 20236.00
599.5490, 20406.00
600.7180, 20269.00
601.8870, 20486.00
603.0560, 20494.00
604.2250, 20691.00
605.3940, 20826.00
606.5620, 20702.00
607.7300, 20854.00
608.8990, 20879.00
610.0670, 20744.00
611.2350, 20790.00
612.4020, 20794.00
613.5700, 20858.00
614.7370, 20657.00
615.9050, 20717.00
617.0720, 20832.00
618.2390, 20992.00
619.4060, 20956.00
620.5720, 20932.00
621.7390, 21101.00
622.9050, 21069.00
624.0710, 21054.00
625.2370, 21467.00
626.4030, 21292.00
627.5690, 21454.00
628.7340, 21662.00
629.9000, 21672.00
631.0650, 21793.00
632.2300, 21796.00
633.3950, 21855.00
634.5600, 21647.00
635.7240, 21696.00
636.8890, 21613.00
638.0530, 21683.68
639.2170, 21828.00
640.3810, 21934.00
641.5450, 22139.00
642.7080, 22336.00
643.8720, 22422.00
645.0350, 22497.00
646.1980, 22344.00
647.3610, 22133.00
648.5240, 22079.00
649.6870, 21874.00
650.8490, 21827.00
652.0120, 21695.00
653.1740, 21491.00
654.3360, 21369.00
655.4980, 21465.00
656.6600, 21341.00
657.8210, 21218.00
658.9830, 21577.00
660.1440, 21431.00
661.3050, 21200.00
662.4660, 21387.00
663.6270, 21088.00
664.7870, 21222.00
665.9480, 21317.00
667.1080, 21364.00
668.2680, 21447.92
669.4280, 21481.00
670.5880, 21504.00
671.7480, 21503.00
672.9070, 21425.00
674.0670, 21296.00
675.2260, 21398.00
676.3850, 21268.00
677.5440, 21316.00
678.7030, 21498.00
679.8610, 21134.00
681.0200, 21188.00
682.1780, 20979.00
683.3360, 21175.00
684.4940, 21163.00
685.6520, 21273.00
686.8090, 21195.00
687.9670, 21437.00
689.1240, 21232.00
690.2810, 21349.00
691.4380, 21160.00
692.5950, 21205.00
693.7520, 21400.00
694.9080, 21274.00
696.0650, 21271.00
697.2210, 21279.00
698.3770, 21454.00
699.5330, 21413.00
700.6880, 21407.00
701.8440, 21454.00
702.9990, 21351.00
704.1550, 21291.00
705.3100, 21531.00
706.4650, 21612.00
707.6190, 21595.00
708.7740, 21555.00
709.9290, 21587.00
711.0830, 21631.00
712.2370, 21728.00
713.3910, 21643.00
714.5450, 21830.00
715.6980, 21851.00
716.8520, 21919.00
718.0050, 21837.00
719.1580, 21668.00
720.3110, 21703.00
721.4640, 21890.00
722.6170, 22046.00
723.7700, 21821.00
724.9220, 21932.00
726.0740, 21803.00
727.2260, 21846.00
728.3780, 21936.00
729.5300, 21809.00
730.6810, 21638.00
731.8330, 21943.00
732.9840, 21853.00
734.1350, 21822.00
735.2860, 21934.00
736.4370, 22023.00
737.5880, 21874.00
738.7380, 22038.00
739.8880, 21968.00
741.0390, 22213.00
742.1890, 21803.00
743.3380, 21808.00
744.4880, 22159.00
745.6380, 22195.00
746.7870, 22397.00
747.9360, 22414.00
749.0850, 22533.02
750.2340, 22498.00
751.3830, 22739.00
752.5310, 22710.00
753.6800, 22835.00
754.8280, 23411.00
755.9760, 23717.00
757.1240, 23903.00
758.2720, 24438.00
759.4190, 24927.00
760.5670, 24989.00
761.7140, 25364.00
762.8610, 25279.00
764.0080, 24940.00
765.1550, 24388.00
766.3020, 24095.00
767.4480, 23958.00
768.5950, 23624.00
769.7410, 23509.00
770.8870, 23215.00
772.0330, 23190.00
773.1780, 23263.00
774.3240, 23328.00
775.4690, 23171.00
776.6140, 23262.00
777.7590, 22900.00
778.9040, 22999.00
780.0490, 22850.00
781.1940, 22817.00
782.3380, 22973.00
783.4820, 22881.00
784.6260, 22954.00
785.7700, 22856.00
786.9140, 22888.00
788.0580, 22971.00
789.2010, 22924.00
790.3450, 22983.66
791.4880, 22982.35
792.6310, 23027.00
793.7730, 22960.00
794.9160, 22957.00
796.0590, 22895.00
797.2010, 23058.00
798.3430, 23132.00
799.4850, 23248.00
800.6270, 23294.00
801.7690, 23456.00
802.9100, 23557.00
804.0520, 23891.00
805.1930, 24047.00
806.3340, 24485.00
807.4750, 24746.00
808.6160, 25181.00
809.7560, 25743.00
810.8970, 26149.00
812.0370, 26688.00
813.1770, 26922.00
814.3170, 26918.00
815.4570, 26427.00
816.5960, 25969.00
817.7360, 25780.00
818.8750, 25025.00
820.0140, 24596.00
821.1530, 24223.00
822.2920, 24208.00
823.4310, 23986.00
824.5690, 24036.00
825.7070, 24012.00
826.8460, 23685.00
827.9840, 23772.00
829.1220, 23646.00
830.2590, 23668.00
831.3970, 23574.00
832.5340, 23687.00
833.6710, 23727.00
834.8080, 23742.00
835.9450, 23670.00
837.0820, 23855.00
838.2190, 23764.00
839.3550, 23683.00
840.4910, 23691.00
841.6270, 23897.00
842.7630, 23669.00
843.8990, 23882.00
845.0350, 23850.00
846.1700, 23692.00
847.3060, 23841.00
848.4410, 23907.00
849.5760, 23811.00
850.7100, 23817.00
851.8450, 23873.00
852.9800, 23845.00
854.1140, 23822.00
855.2480, 23948.00
856.3820, 23967.00
857.5160, 24052.00
858.6500, 24061.00
859.7830, 24119.00
860.9170, 23890.00
862.0500, 24030.00
863.1830, 24024.00
864.3160, 23915.00
865.4480, 24133.00
866.5810, 24057.00
867.7130, 24142.00
868.8460, 24079.00
869.9780, 24072.00
871.1100, 24187.00
872.2410, 24091.00
873.3730, 24378.00
874.5050, 24165.00
875.6360, 24154.00
876.7670, 24326.00
877.8980, 24083.00
879.0290, 24326.00
880.1590, 24130.00
881.2900, 24324.00
882.4200, 24270.00
883.5500, 24322.00
884.6800, 24346.00
885.8100, 24375.06
886.9400, 24420.00
888.0690, 24418.00
889.1990, 24547.00
890.3280, 24448.00
891.4570, 24411.00
892.5860, 24480.00
893.7140, 24760.00
894.8430, 24680.00
895.9710, 24624.00
897.1000, 24788.00
898.2280, 24694.00
899.3560, 24643.00
900.4830, 24883.00
901.6110, 24551.00
902.7380, 24938.00
903.8660, 24724.00
904.9930, 24752.00
906.1200, 24873.00
907.2460, 24835.00
908.3730, 25060.00
909.5000, 25101.00
910.6260, 25058.00
911.7520, 25073.00
912.8780, 25116.00
914.0040, 25201.00
915.1290, 25205.87
916.2550, 25311.00
917.3800, 25209.00
918.5050, 25275.00
919.6300, 25180.00
920.7550, 25114.00
921.8800, 25210.00
923.0040, 25324.00
924.1290, 24994.00
925.2530, 25345.00
926.3770, 25202.00
927.5010, 25230.00
928.6250, 25375.00
929.7480, 25306.00
930.8720, 25399.75
931.9950, 25528.00
933.1180, 25535.00
934.2410, 25599.00
935.3640, 25623.36
936.4860, 25569.00
937.6090, 25643.00
938.7310, 25642.82
939.8530, 25663.02
940.9750, 25701.00
942.0970, 25794.00
943.2180, 25932.00
944.3400, 25971.00
945.4610, 25961.00
946.5820, 25951.00
947.7030, 25935.00
948.8240, 26072.00
949.9450, 26018.00
951.0650, 25964.00
952.1860, 26147.00
953.3060, 26055.00
954.4260, 26158.00
955.5460, 26201.00
956.6650, 26041.00
957.7850, 26367.00
958.9040, 26442.00
960.0230, 26262.00
961.1420, 26264.00
962.2610, 26481.00
963.3800, 26325.00
964.4990, 26597.00
965.6170, 26669.00
966.7350, 26496.00
967.8530, 26937.00
968.9710, 26664.00
970.0890, 26843.00
971.2070, 27065.00
972.3240, 27202.00
973.4410, 27401.00
974.5580, 27637.00
975.6750, 27702.00
976.7920, 27929.00
977.9090, 27931.00
979.0250, 27626.00
980.1410, 27680.00
981.2580, 27610.00
982.3740, 27397.00
983.4890, 27494.00
984.6050, 27386.00
985.7200, 27107.00
986.8360, 27360.00
987.9510, 27342.00
989.0660, 27250.00
990.1810, 27482.00
991.2950, 27315.00
992.4100, 27422.00
993.5240, 27385.00
994.6390, 27542.00
995.7530, 27742.00
996.8660, 27757.00
997.9800, 27694.00
999.0940, 28087.00
1000.207, 28196.00
1001.320, 28411.00
1002.433, 29034.00
1003.546, 30218.00
1004.659, 30710.00
1005.772, 32582.00
1006.884, 34372.00
1007.996, 33931.00
1009.108, 33511.00
1010.220, 32204.00
1011.332, 31359.00
1012.444, 30523.00
1013.555, 29643.00
1014.666, 29474.00
1015.777, 29033.00
1016.888, 29106.00
1017.999, 28929.00
1019.110, 28720.00
1020.220, 28871.00
1021.331, 28878.00
1022.441, 28830.00
1023.551, 29088.00
1024.661, 29106.00
1025.770, 29405.00
1026.880, 29541.00
1027.989, 29897.00
1029.098, 29916.00
1030.207, 30179.00
1031.316, 29942.00
1032.425, 30031.00
1033.533, 29865.00
1034.642, 29647.00
1035.750, 29210.00
1036.858, 29054.00
1037.966, 29061.00
1039.073, 28718.00
1040.181, 28840.00
1041.288, 28614.00
1042.396, 28539.00
1043.503, 28637.00
1044.610, 28771.00
1045.716, 28683.00
1046.823, 28620.00
1047.929, 28468.00
1049.036, 28487.46
1050.142, 28608.00
1051.248, 28481.00
1052.353, 28674.00
1053.459, 28650.00
1054.564, 28474.00
1055.670, 28495.00
1056.775, 28657.00
1057.880, 28456.00
1058.985, 28869.00
1060.089, 28598.00
1061.194, 28732.00
1062.298, 28703.00
1063.402, 28666.00
1064.506, 28641.00
1065.610, 28735.00
1066.713, 28841.00
1067.817, 28875.51
1068.920, 28968.56
1070.023, 28992.00
1071.126, 29073.00
1072.229, 29077.00
1073.332, 29052.00
1074.435, 29229.00
1075.537, 29187.00
1076.639, 29169.00
1077.741, 29316.00
1078.843, 29351.00
1079.945, 29596.00
1081.046, 29717.71
1082.148, 29683.00
1083.249, 30002.00
1084.350, 29906.00
1085.451, 29893.00
1086.551, 30129.00
1087.652, 30296.00
1088.752, 30397.00
1089.853, 30769.00
1090.953, 31066.00
1092.053, 31382.00
1093.152, 31981.00
1094.252, 32377.00
1095.351, 32660.00
1096.451, 33313.00
1097.550, 33301.00
1098.649, 33639.00
1099.748, 33270.00
1100.846, 33144.00
1101.945, 33058.00
1103.043, 32719.00
1104.141, 32326.00
1105.239, 32334.00
1106.337, 31835.00
1107.434, 31678.00
1108.532, 31716.00
1109.629, 31582.00
1110.726, 31625.96
1111.823, 31823.00
1112.920, 31757.00
1114.017, 31770.00
1115.113, 31916.00
1116.210, 31569.00
1117.306, 31771.00
1118.402, 31725.00
1119.498, 31741.00
1120.593, 31681.00
1121.689, 31411.00
1122.784, 31301.00
1123.879, 31195.10
1124.974, 31071.08
1126.069, 31097.00
1127.164, 30934.00
1128.259, 31080.00
1129.353, 31040.00
1130.447, 30858.00
1131.541, 30863.00
1132.635, 30884.00
1133.729, 30656.00
1134.822, 30778.00
1135.916, 30764.00
1137.009, 30771.00
1138.102, 30750.00
1139.195, 30671.00
1140.288, 30746.00
1141.380, 30717.00
1142.473, 30896.00
1143.565, 30645.00
1144.657, 30666.00
1145.749, 30698.00
1146.841, 30911.00
1147.932, 30822.03
1149.024, 30814.00
1150.115, 30745.00
1151.206, 30717.00
1152.297, 30658.00
1153.388, 30817.00
1154.479, 30524.00
1155.569, 30821.00
1156.659, 30854.00
1157.750, 30660.00
1158.839, 30758.00
1159.929, 30888.00
1161.019, 31100.00
1162.108, 30975.95
1163.198, 30728.00
1164.287, 30767.00
1165.376, 30944.00
1166.465, 30910.00
1167.553, 31019.00
1168.642, 30837.00
1169.730, 30927.00
1170.818, 30891.00
1171.906, 30834.84
1172.994, 31128.00
1174.082, 30723.00
1175.170, 31170.00
1176.257, 31046.00
1177.344, 31022.00
1178.431, 31225.00
1179.518, 31106.00
1180.605, 31207.00
1181.691, 31297.00
1182.778, 31361.00
1183.864, 31321.00
1184.950, 31316.00
1186.036, 31491.00
1187.122, 31137.00
1188.207, 31174.00
1189.292, 31410.00
1190.378, 31348.00
1191.463, 31465.00
1192.548, 31461.00
1193.632, 31445.00
1194.717, 31384.00
1195.801, 31521.00
1196.886, 31530.00
1197.970, 31545.00
1199.054, 31490.00
1200.137, 31689.00
1201.221, 31764.00
1202.305, 31775.00
1203.388, 31694.00
1204.471, 31693.00
1205.554, 31758.00
1206.637, 31787.00
1207.719, 31803.12
1208.802, 31840.36
1209.884, 31844.00
1210.966, 31872.00
1212.048, 31901.00
1213.130, 31893.00
1214.212, 32001.00
1215.293, 32072.00
1216.374, 31948.00
1217.456, 32023.00
1218.536, 31918.00
1219.617, 32011.00
1220.698, 32152.00
1221.778, 32212.00
1222.859, 32222.00
1223.939, 32334.00
1225.019, 32347.00
1226.099, 32345.00
1227.178, 32494.29
1228.258, 32430.00
1229.337, 32637.00
1230.417, 32590.00
1231.496, 32404.00
1232.574, 32371.00
1233.653, 32521.00
1234.732, 32382.12
1235.810, 32666.00
1236.888, 32409.00
1237.966, 32569.00
1239.044, 32800.00
1240.122, 32803.00
1241.199, 32847.00
1242.277, 32779.00
1243.354, 32809.00
1244.431, 32792.00
1245.508, 33148.00
1246.585, 32944.00
1247.661, 32990.00
1248.738, 33064.00
1249.814, 32959.00
1250.890, 32973.00
1251.966, 33006.00
1253.042, 33221.00
1254.117, 33092.00
1255.193, 33217.00
1256.268, 33410.00
1257.343, 33389.00
1258.418, 33484.26
1259.493, 33411.00
1260.567, 33502.00
1261.642, 33435.00
1262.716, 33361.00
1263.790, 33732.00
1264.864, 33652.00
1265.938, 33510.00
1267.011, 33712.00
1268.085, 33689.00
