##NAMES=Albite
##RRUFFID=R050402
##IDEAL CHEMISTRY=NaAlSi_3_O_8_
##LOCALITY=Urbano mine, Golconda District, Brazil
##OWNER=RRUFF
##SOURCE=Bob Downs
##DESCRIPTION=Colorless tabular single crystals associated with fluorapatite R050401
##STATUS=The identification of this mineral has been confirmed by X-ray diffraction and chemical analysis
##URL=rruff.info/R050402
##MEASURED CHEMISTRY=Na_1.00_Al_1.00_Si_3.00_O_8_
##PIN_ID=M00163
##ORIENTATION=Laser parallel to (1 0 1). Fiducial mark perpendicular to laser is parallel to b [0 1 0]
126.7490, 28466.48
127.9790, 28344.47
129.2090, 28033.00
130.4390, 27933.00
131.6680, 27992.00
132.8980, 27830.00
134.1270, 27679.00
135.3560, 27938.00
136.5850, 27983.00
137.8140, 29135.00
139.0430, 30157.00
140.2710, 30153.00
141.5000, 31612.00
142.7280, 32119.00
143.9560, 32500.00
145.1840, 32600.00
146.4120, 32953.00
147.6390, 33332.00
148.8670, 33663.00
150.0940, 34245.00
151.3210, 34934.00
152.5490, 35432.00
153.7750, 35280.00
155.0020, 34381.00
156.2290, 33188.00
157.4550, 31774.00
158.6810, 30838.00
159.9080, 30504.00
161.1340, 30485.00
162.3590, 30704.00
163.5850, 30728.00
164.8110, 30709.00
166.0360, 30472.00
167.2610, 29792.00
168.4860, 29324.00
169.7110, 29210.00
170.9360, 29225.00
172.1610, 29488.00
173.3850, 29886.00
174.6100, 30278.43
175.8340, 30720.00
177.0580, 31402.00
178.2820, 32099.00
179.5050, 32761.00
180.7290, 32989.00
181.9520, 32945.00
183.1760, 33005.00
184.3990, 33219.00
185.6220, 33050.00
186.8450, 32782.00
188.0670, 32072.00
189.2900, 31371.00
190.5120, 30311.00
191.7340, 29279.00
192.9560, 28150.00
194.1780, 27631.00
195.4000, 26987.00
196.6220, 26492.00
197.8430, 26553.00
199.0640, 26413.00
200.2860, 26640.00
201.5070, 27360.00
202.7270, 27709.00
203.9480, 27976.00
205.1690, 27607.00
206.3890, 27286.00
207.6090, 27166.00
208.8290, 27410.00
210.0490, 27532.00
211.2690, 26978.00
212.4890, 26526.00
213.7080, 25244.00
214.9280, 24500.00
216.1470, 23360.00
217.3660, 22335.00
218.5850, 21849.00
219.8030, 21293.00
221.0220, 20982.00
222.2400, 20414.00
223.4590, 20321.00
224.6770, 20377.00
225.8950, 19967.00
227.1120, 19957.00
228.3300, 19881.00
229.5480, 19940.00
230.7650, 19796.00
231.9820, 19846.00
233.1990, 19738.00
234.4160, 19686.00
235.6330, 19669.00
236.8490, 19903.00
238.0660, 19858.00
239.2820, 19891.00
240.4980, 19920.00
241.7140, 20348.00
242.9300, 20499.00
244.1460, 20832.00
245.3610, 21143.00
246.5770, 21119.00
247.7920, 20948.00
249.0070, 21063.00
250.2220, 21272.00
251.4370, 21556.00
252.6510, 21788.00
253.8660, 21590.00
255.0800, 21844.00
256.2940, 21609.00
257.5080, 21551.00
258.7220, 21826.00
259.9360, 22353.00
261.1490, 22313.94
262.3630, 22625.00
263.5760, 22495.00
264.7890, 22704.00
266.0020, 22652.00
267.2150, 23114.00
268.4270, 22995.00
269.6400, 23219.00
270.8520, 23540.00
272.0640, 23144.00
273.2760, 23126.00
274.4880, 22857.00
275.7000, 22741.00
276.9120, 22887.00
278.1230, 23093.00
279.3340, 23793.00
280.5450, 24549.00
281.7560, 25593.00
282.9670, 27077.00
284.1780, 27968.00
285.3880, 28812.00
286.5980, 29343.00
287.8090, 29938.00
289.0190, 30755.00
290.2290, 31153.00
291.4380, 31584.00
292.6480, 31449.00
293.8570, 30840.00
295.0670, 29812.00
296.2760, 28248.00
297.4850, 26455.00
298.6930, 25084.00
299.9020, 23764.00
301.1110, 22822.26
302.3190, 22283.78
303.5270, 21726.00
304.7350, 21631.00
305.9430, 21906.00
307.1510, 21439.00
308.3580, 21540.00
309.5660, 21436.00
310.7730, 21032.00
311.9800, 20917.39
313.1870, 20617.00
314.3940, 20394.00
315.6010, 20357.00
316.8070, 20261.00
318.0130, 20382.00
319.2200, 20496.00
320.4260, 21005.00
321.6310, 21151.00
322.8370, 21421.00
324.0430, 21852.00
325.2480, 21841.53
326.4540, 22050.69
327.6590, 21957.00
328.8640, 22063.00
330.0680, 22137.00
331.2730, 21864.00
332.4780, 21843.00
333.6820, 21465.00
334.8860, 21202.00
336.0900, 20834.00
337.2940, 20757.36
338.4980, 20839.00
339.7010, 20737.00
340.9050, 20854.00
342.1080, 21044.00
343.3110, 21267.00
344.5140, 21535.00
345.7170, 21671.00
346.9200, 21954.00
348.1220, 22089.00
349.3240, 22122.00
350.5270, 22502.00
351.7290, 22527.00
352.9310, 22664.00
354.1320, 22481.00
355.3340, 22595.00
356.5350, 22264.00
357.7370, 22320.00
358.9380, 22393.00
360.1390, 22228.00
361.3400, 22126.00
362.5400, 21843.00
363.7410, 21869.00
364.9410, 21717.00
366.1410, 21640.00
367.3410, 21502.00
368.5410, 21367.00
369.7410, 21228.00
370.9400, 21110.00
372.1400, 20991.88
373.3390, 20878.00
374.5380, 20770.00
375.7370, 20697.00
376.9360, 20580.88
378.1350, 20562.00
379.3330, 20469.00
380.5310, 20413.00
381.7300, 20428.00
382.9280, 20293.00
384.1260, 20391.00
385.3230, 20302.00
386.5210, 20494.00
387.7180, 20667.00
388.9160, 20632.00
390.1130, 20884.00
391.3100, 20935.00
392.5060, 21196.00
393.7030, 21332.00
394.9000, 21274.00
396.0960, 21215.00
397.2920, 21649.00
398.4880, 21575.00
399.6840, 21886.00
400.8800, 22104.00
402.0750, 22343.00
403.2710, 22162.00
404.4660, 22112.00
405.6610, 22205.00
406.8560, 22659.00
408.0510, 22938.00
409.2450, 23493.00
410.4400, 23426.00
411.6340, 23288.00
412.8280, 22792.00
414.0220, 22768.00
415.2160, 22449.00
416.4100, 22560.00
417.6030, 22896.00
418.7970, 22445.00
419.9900, 22297.00
421.1830, 21733.00
422.3760, 21142.00
423.5690, 20849.00
424.7610, 20693.00
425.9540, 20648.00
427.1460, 20438.00
428.3380, 20265.00
429.5300, 20486.00
430.7220, 20377.00
431.9140, 20252.00
433.1050, 20476.00
434.2970, 20461.00
435.4880, 20402.00
436.6790, 20737.00
437.8700, 20697.00
439.0610, 20672.00
440.2510, 20748.00
441.4420, 20973.00
442.6320, 21274.00
443.8220, 21689.00
445.0120, 21928.00
446.2020, 22608.00
447.3910, 23171.00
448.5810, 24000.00
449.7700, 24657.00
450.9600, 25361.00
452.1490, 25657.00
453.3370, 26343.00
454.5260, 26591.00
455.7150, 26870.00
456.9030, 27184.00
458.0910, 27419.00
459.2800, 27448.00
460.4670, 27105.00
461.6550, 26679.00
462.8430, 26492.00
464.0300, 26406.00
465.2180, 26972.00
466.4050, 27866.00
467.5920, 29053.00
468.7790, 31252.00
469.9650, 33554.00
471.1520, 36745.00
472.3380, 39739.00
473.5250, 41989.00
474.7110, 43320.00
475.8970, 44650.00
477.0820, 45786.00
478.2680, 47299.00
479.4540, 48070.00
480.6390, 47754.00
481.8240, 45747.00
483.0090, 42933.00
484.1940, 39446.00
485.3780, 35971.00
486.5630, 33604.00
487.7470, 31940.00
488.9320, 30871.00
490.1160, 30240.00
491.3000, 30066.00
492.4830, 30343.00
493.6670, 30891.00
494.8500, 32260.00
496.0340, 33610.00
497.2170, 35894.00
498.4000, 39086.00
499.5820, 43056.00
500.7650, 46532.00
501.9480, 49790.00
503.1300, 51427.00
504.3120, 53507.00
505.4940, 54781.00
506.6760, 56487.00
507.8580, 57387.00
509.0390, 56855.00
510.2210, 54595.00
511.4020, 50743.00
512.5830, 46229.00
513.7640, 41128.00
514.9450, 37076.00
516.1250, 33610.00
517.3060, 31196.00
518.4860, 29056.00
519.6660, 27835.00
520.8460, 26879.00
522.0260, 25941.00
523.2060, 25225.89
524.3850, 24703.24
525.5650, 24238.00
526.7440, 24018.00
527.9230, 23694.03
529.1020, 23817.00
530.2810, 23369.00
531.4590, 23247.00
532.6380, 23235.00
533.8160, 22951.00
534.9940, 22884.00
536.1720, 22736.00
537.3500, 22665.72
538.5270, 22572.00
539.7050, 22665.00
540.8820, 22656.00
542.0590, 22777.00
543.2360, 22559.00
544.4130, 22733.00
545.5900, 22724.00
546.7660, 22462.00
547.9430, 23123.00
549.1190, 22736.97
550.2950, 23321.00
551.4710, 22471.00
552.6470, 22406.00
553.8220, 22329.00
554.9980, 22539.00
556.1730, 22446.00
557.3480, 22520.00
558.5230, 22503.00
559.6980, 22467.00
560.8730, 22558.38
562.0470, 22417.00
563.2220, 22622.00
564.3960, 22655.00
565.5700, 22530.00
566.7440, 22633.00
567.9170, 22595.00
569.0910, 22838.00
570.2640, 23221.00
571.4380, 23124.00
572.6110, 23532.00
573.7840, 23486.00
574.9570, 23597.00
576.1290, 23617.00
577.3020, 23756.00
578.4740, 23776.00
579.6460, 24225.00
580.8180, 24085.00
581.9900, 24384.00
583.1620, 24237.00
584.3330, 24454.00
585.5040, 24666.00
586.6760, 24804.00
587.8470, 24710.00
589.0180, 24985.00
590.1880, 25005.00
591.3590, 25173.00
592.5290, 25344.00
593.7000, 25710.00
594.8700, 25898.00
596.0400, 25846.00
597.2090, 25899.00
598.3790, 25769.00
599.5490, 25842.00
600.7180, 25700.00
601.8870, 25845.00
603.0560, 25554.00
604.2250, 25550.00
605.3940, 25369.00
606.5620, 25079.00
607.7300, 25136.00
608.8990, 24812.00
610.0670, 24504.00
611.2350, 24537.00
612.4020, 24526.00
613.5700, 24387.00
614.7370, 25539.00
615.9050, 24643.00
617.0720, 24525.00
618.2390, 26041.00
619.4060, 25028.00
620.5720, 25031.00
621.7390, 25300.00
622.9050, 25237.00
624.0710, 25631.00
625.2370, 25672.00
626.4030, 25820.00
627.5690, 26029.00
628.7340, 25623.00
629.9000, 25598.00
631.0650, 25217.00
632.2300, 25096.00
633.3950, 25001.00
634.5600, 24847.00
635.7240, 24852.00
636.8890, 24678.00
638.0530, 24705.00
639.2170, 24809.00
640.3810, 24892.00
641.5450, 25208.00
642.7080, 25173.00
643.8720, 25307.00
645.0350, 25507.00
646.1980, 25459.00
647.3610, 25644.00
648.5240, 25642.00
649.6870, 25662.00
650.8490, 25698.00
652.0120, 25514.00
653.1740, 25177.00
654.3360, 25272.00
655.4980, 24816.00
656.6600, 24704.00
657.8210, 24405.00
658.9830, 24456.00
660.1440, 24264.00
661.3050, 24013.00
662.4660, 23906.00
663.6270, 23780.00
664.7870, 23617.00
665.9480, 23603.00
667.1080, 23376.00
668.2680, 23413.60
669.4280, 23327.00
670.5880, 23408.00
671.7480, 23328.00
672.9070, 23241.00
674.0670, 23140.00
675.2260, 23101.00
676.3850, 23037.00
677.5440, 23172.00
678.7030, 22915.00
679.8610, 23103.00
681.0200, 23055.00
682.1780, 23032.00
683.3360, 23141.00
684.4940, 22956.00
685.6520, 23008.00
686.8090, 22942.00
687.9670, 23077.00
689.1240, 22915.00
690.2810, 23000.00
691.4380, 23112.00
692.5950, 22868.00
693.7520, 23049.00
694.9080, 22976.00
696.0650, 22966.00
697.2210, 22991.00
698.3770, 23225.00
699.5330, 23004.00
700.6880, 23186.00
701.8440, 23145.00
702.9990, 23387.00
704.1550, 23353.00
705.3100, 23441.00
706.4650, 23370.00
707.6190, 23277.00
708.7740, 23387.00
709.9290, 23420.00
711.0830, 23262.00
712.2370, 23317.00
713.3910, 23364.00
714.5450, 23443.00
715.6980, 23401.00
716.8520, 23377.00
718.0050, 23426.00
719.1580, 23395.00
720.3110, 23790.00
721.4640, 23608.00
722.6170, 23833.00
723.7700, 23919.00
724.9220, 23969.00
726.0740, 24281.00
727.2260, 24306.00
728.3780, 24590.00
729.5300, 24593.00
730.6810, 24458.00
731.8330, 24462.00
732.9840, 24486.00
734.1350, 24634.00
735.2860, 24542.00
736.4370, 24525.00
737.5880, 24837.00
738.7380, 24833.00
739.8880, 24597.00
741.0390, 24736.00
742.1890, 24848.00
743.3380, 25031.00
744.4880, 25103.00
745.6380, 25124.00
746.7870, 25408.00
747.9360, 25650.00
749.0850, 25539.00
750.2340, 26043.00
751.3830, 26526.00
752.5310, 27074.00
753.6800, 27873.00
754.8280, 28410.00
755.9760, 29489.00
757.1240, 30519.00
758.2720, 31694.00
759.4190, 32553.00
760.5670, 33232.00
761.7140, 33438.00
762.8610, 34138.00
764.0080, 34161.00
765.1550, 33766.00
766.3020, 33028.00
767.4480, 32108.00
768.5950, 31142.00
769.7410, 30030.00
770.8870, 29462.00
772.0330, 29028.00
773.1780, 28473.00
774.3240, 28095.00
775.4690, 28224.00
776.6140, 27851.00
777.7590, 27685.00
778.9040, 27704.00
780.0490, 27427.00
781.1940, 27222.00
782.3380, 26989.00
783.4820, 27056.00
784.6260, 27078.00
785.7700, 27131.00
786.9140, 27010.00
788.0580, 27140.64
789.2010, 27096.00
790.3450, 27313.00
791.4880, 27362.00
792.6310, 27444.00
793.7730, 27672.00
794.9160, 27864.00
796.0590, 28033.00
797.2010, 28307.00
798.3430, 28584.00
799.4850, 29095.00
800.6270, 29649.00
801.7690, 31154.00
802.9100, 31292.00
804.0520, 32441.00
805.1930, 34146.00
806.3340, 36703.00
807.4750, 37384.00
808.6160, 38150.00
809.7560, 38842.00
810.8970, 39306.00
812.0370, 39041.00
813.1770, 38993.00
814.3170, 38757.00
815.4570, 38243.00
816.5960, 37443.00
817.7360, 36580.00
818.8750, 34969.00
820.0140, 33611.00
821.1530, 32460.00
822.2920, 31285.00
823.4310, 30325.00
824.5690, 29976.00
825.7070, 29467.00
826.8460, 29030.00
827.9840, 29093.00
829.1220, 28733.00
830.2590, 28821.00
831.3970, 28436.00
832.5340, 28619.00
833.6710, 28542.00
834.8080, 28491.00
835.9450, 28504.00
837.0820, 28603.00
838.2190, 28713.00
839.3550, 28796.25
840.4910, 28893.00
841.6270, 29013.00
842.7630, 29373.00
843.8990, 29478.00
845.0350, 29675.00
846.1700, 30073.00
847.3060, 30618.00
848.4410, 30621.00
849.5760, 31487.00
850.7100, 31675.00
851.8450, 32143.00
852.9800, 32606.00
854.1140, 33078.00
855.2480, 33309.97
856.3820, 33462.00
857.5160, 33587.00
858.6500, 33397.00
859.7830, 33220.00
860.9170, 32923.00
862.0500, 32644.00
863.1830, 32382.00
864.3160, 31995.00
865.4480, 31250.00
866.5810, 30647.00
867.7130, 30160.00
868.8460, 29981.00
869.9780, 29718.00
871.1100, 29313.00
872.2410, 29319.00
873.3730, 29142.00
874.5050, 29036.00
875.6360, 28775.00
876.7670, 28892.00
877.8980, 28718.00
879.0290, 28651.00
880.1590, 28416.00
881.2900, 28506.00
882.4200, 28396.00
883.5500, 28368.00
884.6800, 28300.00
885.8100, 28260.00
886.9400, 28315.00
888.0690, 28281.55
889.1990, 28292.10
890.3280, 28318.00
891.4570, 28313.00
892.5860, 28357.00
893.7140, 28399.00
894.8430, 28469.23
895.9710, 28570.00
897.1000, 28618.00
898.2280, 28658.00
899.3560, 28665.00
900.4830, 28828.00
901.6110, 28770.00
902.7380, 28555.00
903.8660, 28959.00
904.9930, 28938.00
906.1200, 29161.00
907.2460, 29020.00
908.3730, 29239.00
909.5000, 28884.00
910.6260, 29458.00
911.7520, 29300.00
912.8780, 28936.00
914.0040, 29054.00
915.1290, 29058.00
916.2550, 28873.00
917.3800, 28766.00
918.5050, 28634.00
919.6300, 28578.00
920.7550, 28421.00
921.8800, 28393.00
923.0040, 28593.00
924.1290, 28505.00
925.2530, 28738.00
926.3770, 28643.00
927.5010, 28627.00
928.6250, 28787.00
929.7480, 28596.00
930.8720, 28643.00
931.9950, 28805.00
933.1180, 28936.00
934.2410, 29011.00
935.3640, 28917.00
936.4860, 28792.00
937.6090, 29022.00
938.7310, 28960.00
939.8530, 29016.00
940.9750, 29189.00
942.0970, 29222.00
943.2180, 29313.00
944.3400, 29171.00
945.4610, 29266.00
946.5820, 29194.00
947.7030, 29388.00
948.8240, 29579.00
949.9450, 29731.00
951.0650, 29849.00
952.1860, 30119.00
953.3060, 30280.00
954.4260, 30425.10
955.5460, 30415.00
956.6650, 30646.00
957.7850, 30733.00
958.9040, 30714.00
960.0230, 30912.00
961.1420, 31119.00
962.2610, 31035.00
963.3800, 31270.00
964.4990, 31401.00
965.6170, 31508.00
966.7350, 31326.00
967.8530, 31526.00
968.9710, 31395.00
970.0890, 31652.00
971.2070, 31823.00
972.3240, 32043.00
973.4410, 32029.00
974.5580, 32274.00
975.6750, 32276.00
976.7920, 32429.00
977.9090, 32502.77
979.0250, 32518.42
980.1410, 32560.00
981.2580, 32560.00
982.3740, 32459.00
983.4890, 32476.00
984.6050, 32429.00
985.7200, 32306.00
986.8360, 32471.00
987.9510, 32342.00
989.0660, 32425.00
990.1810, 32334.00
991.2950, 32592.00
992.4100, 32456.00
993.5240, 32766.00
994.6390, 32448.00
995.7530, 32713.00
996.8660, 33209.00
997.9800, 33116.00
999.0940, 33698.00
1000.207, 34116.00
1001.320, 34223.00
1002.433, 34836.00
1003.546, 34824.00
1004.659, 35014.00
1005.772, 34554.00
1006.884, 34229.00
1007.996, 33387.00
1009.108, 33076.00
1010.220, 33063.00
1011.332, 32782.00
1012.444, 32742.00
1013.555, 33015.00
1014.666, 33646.00
1015.777, 33222.68
1016.888, 33241.18
1017.999, 32700.00
1019.110, 32810.00
1020.220, 32638.00
1021.331, 32925.00
1022.441, 32709.00
1023.551, 32668.00
1024.661, 32585.00
1025.770, 32358.00
1026.880, 32622.00
1027.989, 32431.00
1029.098, 32313.00
1030.207, 32307.00
1031.316, 32158.00
1032.425, 32263.00
1033.533, 32304.00
1034.642, 32142.00
1035.750, 32182.00
1036.858, 32112.00
1037.966, 32091.00
1039.073, 31988.00
1040.181, 32041.48
1041.288, 32108.00
1042.396, 32093.00
1043.503, 32036.00
1044.610, 31953.69
1045.716, 31913.00
1046.823, 31861.00
1047.929, 31912.00
1049.036, 31855.00
1050.142, 31790.00
1051.248, 31591.00
1052.353, 31871.00
1053.459, 31444.00
1054.564, 31612.00
1055.670, 31564.00
1056.775, 31233.00
1057.880, 31177.00
1058.985, 31420.00
1060.089, 31307.00
1061.194, 31404.00
1062.298, 31580.00
1063.402, 31336.00
1064.506, 31398.00
1065.610, 31354.00
1066.713, 31473.00
1067.817, 31665.00
1068.920, 31755.00
1070.023, 32149.00
1071.126, 31900.00
1072.229, 31782.00
1073.332, 32230.00
1074.435, 32267.00
1075.537, 32258.00
1076.639, 32077.00
1077.741, 32657.00
1078.843, 32907.00
1079.945, 33101.00
1081.046, 33573.00
1082.148, 33673.00
1083.249, 33758.00
1084.350, 34356.00
1085.451, 34450.00
1086.551, 34851.00
1087.652, 35294.00
1088.752, 35693.00
1089.853, 36296.00
1090.953, 36964.00
1092.053, 37563.00
1093.152, 38321.00
1094.252, 39469.00
1095.351, 40173.00
1096.451, 40813.00
1097.550, 41386.00
1098.649, 41706.00
1099.748, 41793.00
1100.846, 41740.00
1101.945, 41394.00
1103.043, 40940.00
1104.141, 40605.00
1105.239, 40162.00
1106.337, 39919.00
1107.434, 39594.00
1108.532, 39728.00
1109.629, 39643.00
1110.726, 39393.00
1111.823, 39200.00
1112.920, 39185.00
1114.017, 38994.00
1115.113, 38713.00
1116.210, 38229.00
1117.306, 37884.00
1118.402, 37499.00
1119.498, 37004.00
1120.593, 36752.00
1121.689, 36421.75
1122.784, 35963.00
1123.879, 35892.00
1124.974, 35215.00
1126.069, 34877.12
1127.164, 35229.00
1128.259, 34611.00
1129.353, 34330.00
1130.447, 34140.00
1131.541, 34001.00
1132.635, 33726.00
1133.729, 33780.00
1134.822, 33510.00
1135.916, 33691.00
1137.009, 33630.00
1138.102, 33357.00
1139.195, 33576.00
1140.288, 33532.00
1141.380, 33667.00
1142.473, 33512.00
1143.565, 33538.00
1144.657, 33578.00
1145.749, 33582.23
1146.841, 33963.00
1147.932, 33784.00
1149.024, 33946.00
1150.115, 34200.00
1151.206, 34010.00
1152.297, 34405.00
1153.388, 34397.00
1154.479, 34120.00
1155.569, 34588.00
1156.659, 34158.00
1157.750, 34310.00
1158.839, 34247.00
1159.929, 34372.00
1161.019, 34294.00
1162.108, 34342.00
1163.198, 34499.00
1164.287, 34227.00
1165.376, 34041.00
1166.465, 34046.00
1167.553, 33955.24
1168.642, 34018.00
1169.730, 34048.00
1170.818, 33991.00
1171.906, 34141.00
1172.994, 34065.00
1174.082, 34073.00
1175.170, 34119.00
1176.257, 34096.00
1177.344, 34147.03
1178.431, 34057.00
1179.518, 34178.00
1180.605, 34127.00
1181.691, 34035.00
1182.778, 34162.00
1183.864, 34156.00
1184.950, 33866.00
1186.036, 34111.00
1187.122, 33754.00
1188.207, 34021.00
1189.292, 33679.00
1190.378, 33768.00
1191.463, 33716.00
1192.548, 33804.00
1193.632, 33669.00
1194.717, 33603.00
1195.801, 33494.00
1196.886, 33599.00
1197.970, 33571.00
1199.054, 33433.00
1200.137, 33538.00
1201.221, 33962.00
1202.305, 33622.00
1203.388, 33806.00
1204.471, 33737.00
1205.554, 33641.00
1206.637, 33657.00
1207.719, 33628.35
1208.802, 33547.00
1209.884, 33659.00
1210.966, 33753.00
1212.048, 33788.00
1213.130, 33667.00
1214.212, 33826.12
1215.293, 33889.47
1216.374, 34031.00
1217.456, 34143.00
1218.536, 34268.00
1219.617, 34344.00
1220.698, 34143.00
1221.778, 34189.00
1222.859, 34303.00
1223.939, 34407.00
1225.019, 34586.00
1226.099, 34625.28
1227.178, 34587.00
1228.258, 34646.00
1229.337, 34904.00
1230.417, 34738.00
1231.496, 34893.00
1232.574, 35016.00
1233.653, 34984.00
1234.732, 35372.00
1235.810, 35724.00
1236.888, 35345.00
1237.966, 35371.00
1239.044, 35298.00
1240.122, 35625.00
1241.199, 35486.00
1242.277, 35558.00
1243.354, 35663.00
1244.431, 35509.00
1245.508, 35694.00
1246.585, 35597.00
1247.661, 35795.00
1248.738, 35492.00
1249.814, 35814.00
1250.890, 35840.00
1251.966, 35983.00
1253.042, 35788.00
1254.117, 35909.00
1255.193, 35853.00
1256.268, 35939.00
1257.343, 35898.52
1258.418, 35930.00
1259.493, 35860.00
1260.567, 36067.00
1261.642, 36179.00
1262.716, 36248.00
1263.790, 36202.00
1264.864, 36333.00
1265.938, 36489.00
1267.011, 36546.00
1268.085, 36872.00
1269.158, 36744.00
1270.231, 36753.00
1271.304, 36996.00
1272.377, 36515.00
1273.450, 37094.00
1274.522, 36863.00
1275.594, 36926.00
1276.666, 36995.00
1277.738, 36865.00
1278.810, 36710.00
1279.882, 36344.00
1280.953, 36257.00
1282.025, 36374.00
1283.096, 36466.00
1284.167, 36444.21
1285.238, 36488.93
1286.308, 36432.00
1287.379, 36491.00
1288.449, 36379.00
1289.519, 36426.00
1290.589, 36411.00
1291.659, 36932.00
1292.729, 36642.00
1293.798, 36806.00
1294.868, 37195.00
1295.937, 36904.00
1297.006, 36800.00
1298.075, 36796.00
1299.143, 36662.00
1300.212, 36819.00
1301.280, 36800.00
1302.348, 36707.00
1303.416, 36709.00
