##NAMES=Amesite
##RRUFFID=R070132
##IDEAL CHEMISTRY=Mg_2_Al(AlSiO_5_)(OH)_4_
##LOCALITY=Saranovskii mine, Saranovskaya Village, Gornozavodskii area, Permskaya Oblast', Middle Urals, Russia
##OWNER=RRUFF
##SOURCE=Michael Scott
##DESCRIPTION=Purple transparent hexagonal prisms, polytype 2H2
##STATUS=The identification of this mineral is confirmed by single-crystal X-ray diffraction and chemical analysis.
##URL=rruff.info/R070132
##MEASURED CHEMISTRY=(Mg_1.87_[box]_0.05_Cr_0.05_Fe^2+^_0.03_)_Σ=2_(Al_0.98_Cr_0.02_)_Σ=1_(Si_1.05_Al_0.95_)O_5_(OH)_4_ ; OH estimated by difference
##PIN_ID=M00364
147.4850, 8427.000
148.7160, 8385.000
149.9470, 8316.000
151.1780, 8292.000
152.4080, 8361.000
153.6380, 8395.000
154.8690, 8556.000
156.0980, 8368.000
157.3280, 8449.000
158.5580, 8469.000
159.7870, 8392.000
161.0170, 8486.000
162.2460, 8566.000
163.4750, 8553.000
164.7030, 8730.000
165.9320, 8742.000
167.1600, 8624.000
168.3890, 8761.000
169.6170, 8673.000
170.8450, 8859.000
172.0730, 8814.000
173.3000, 8825.000
174.5280, 8970.000
175.7550, 9063.000
176.9820, 9164.000
178.2090, 9307.000
179.4350, 9499.000
180.6620, 9695.000
181.8880, 9818.000
183.1150, 10197.00
184.3410, 10529.00
185.5670, 10967.00
186.7920, 11446.00
188.0180, 12018.00
189.2430, 12574.00
190.4690, 13306.00
191.6940, 14074.00
192.9180, 14993.00
194.1430, 16009.00
195.3680, 16699.00
196.5920, 17877.00
197.8160, 19196.00
199.0400, 20526.00
200.2640, 22208.00
201.4880, 24302.00
202.7110, 26674.00
203.9350, 29007.00
205.1580, 31615.00
206.3810, 34758.00
207.6040, 38099.00
208.8270, 42225.00
210.0490, 46640.00
211.2710, 51500.00
212.4940, 55399.00
213.7160, 57204.00
214.9370, 56641.00
216.1590, 52819.00
217.3810, 46422.00
218.6020, 39334.00
219.8230, 32865.00
221.0440, 27331.00
222.2650, 22947.00
223.4860, 19845.00
224.7060, 17397.00
225.9260, 15643.00
227.1470, 14376.00
228.3670, 13521.00
229.5860, 12716.00
230.8060, 12384.00
232.0260, 11931.00
233.2450, 11650.00
234.4640, 11412.00
235.6830, 11418.00
236.9020, 11095.00
238.1200, 11206.00
239.3390, 11403.00
240.5570, 11431.00
241.7750, 11414.00
242.9930, 11504.00
244.2110, 11693.00
245.4290, 11631.00
246.6460, 11663.49
247.8630, 11764.00
249.0810, 11596.00
250.2980, 11550.00
251.5140, 11574.00
252.7310, 11813.00
253.9470, 12252.00
255.1640, 12550.00
256.3800, 12793.00
257.5960, 12718.00
258.8120, 12765.00
260.0270, 12350.00
261.2430, 11853.00
262.4580, 11318.00
263.6730, 11074.00
264.8880, 10952.00
266.1030, 10749.00
267.3170, 10739.00
268.5320, 10817.00
269.7460, 10713.00
270.9600, 10936.00
272.1740, 10825.00
273.3880, 11045.00
274.6010, 11024.00
275.8150, 10919.00
277.0280, 11114.00
278.2410, 11093.00
279.4540, 11141.00
280.6670, 11188.00
281.8790, 11277.00
283.0920, 11299.00
284.3040, 11527.00
285.5160, 11628.00
286.7280, 11612.00
287.9400, 11969.00
289.1510, 11925.00
290.3630, 11862.00
291.5740, 11689.00
292.7850, 11333.00
293.9960, 10756.00
295.2070, 10201.00
296.4170, 10100.00
297.6280, 9695.000
298.8380, 9586.000
300.0480, 9441.000
301.2580, 9491.000
302.4680, 9470.000
303.6770, 9397.000
304.8870, 9363.000
306.0960, 9437.000
307.3050, 9538.000
308.5140, 9465.000
309.7230, 9680.000
310.9310, 9811.000
312.1400, 9878.000
313.3480, 10114.00
314.5560, 10477.00
315.7640, 10536.00
316.9720, 10537.00
318.1790, 10715.00
319.3870, 10686.00
320.5940, 10888.00
321.8010, 10998.00
323.0080, 11398.00
324.2150, 11747.00
325.4210, 12096.00
326.6280, 12216.00
327.8340, 12515.00
329.0400, 12732.00
330.2460, 12766.00
331.4510, 12708.00
332.6570, 12858.00
333.8620, 13335.00
335.0680, 14095.00
336.2730, 15239.00
337.4780, 15617.00
338.6820, 15335.00
339.8870, 14360.00
341.0910, 13460.00
342.2950, 12821.00
343.5000, 12396.00
344.7030, 11740.00
345.9070, 11694.00
347.1110, 11372.00
348.3140, 11287.00
349.5170, 11023.00
350.7200, 10709.00
351.9230, 10621.00
353.1260, 10554.00
354.3290, 10466.00
355.5310, 10331.00
356.7330, 10491.00
357.9350, 10568.00
359.1370, 10528.00
360.3390, 10538.00
361.5400, 10542.00
362.7420, 10615.00
363.9430, 10634.00
365.1440, 10741.00
366.3450, 10881.00
367.5460, 10874.00
368.7460, 10897.00
369.9470, 10823.00
371.1470, 10823.00
372.3470, 10966.00
373.5470, 11106.00
374.7460, 11208.00
375.9460, 11541.00
377.1450, 11960.00
378.3450, 12491.00
379.5440, 12853.00
380.7430, 12985.00
381.9410, 13111.00
383.1400, 13184.00
384.3380, 13212.00
385.5370, 13332.00
386.7350, 13427.00
387.9320, 13414.00
389.1300, 13729.00
390.3280, 13662.00
391.5250, 14007.00
392.7220, 14216.00
393.9190, 14198.00
395.1160, 13843.00
396.3130, 13735.00
397.5100, 13421.00
398.7060, 13741.00
399.9020, 14156.00
401.0980, 14691.00
402.2940, 15701.00
403.4900, 16640.00
404.6860, 18165.00
405.8810, 19667.00
407.0760, 21238.00
408.2710, 21879.00
409.4660, 22361.00
410.6610, 21998.00
411.8550, 22168.00
413.0500, 22535.00
414.2440, 23259.00
415.4380, 24538.00
416.6320, 26317.00
417.8260, 28539.00
419.0190, 30277.00
420.2130, 31064.00
421.4060, 30076.00
422.5990, 27197.00
423.7920, 23713.00
424.9850, 20873.00
426.1770, 18372.00
427.3700, 16783.00
428.5620, 15690.00
429.7540, 15011.00
430.9460, 14483.00
432.1380, 14502.00
433.3290, 14425.00
434.5210, 14759.00
435.7120, 15145.00
436.9030, 15326.00
438.0940, 15451.43
439.2850, 15436.47
440.4750, 15403.00
441.6660, 15025.00
442.8560, 14717.00
444.0460, 14166.00
445.2360, 13813.00
446.4260, 13767.00
447.6160, 13855.00
448.8050, 13839.00
449.9940, 14073.00
451.1830, 14077.39
452.3720, 14122.00
453.5610, 14144.00
454.7500, 14015.00
455.9380, 13897.00
457.1260, 14124.00
458.3150, 13840.00
459.5020, 13769.00
460.6900, 13254.00
461.8780, 13106.00
463.0650, 12843.00
464.2530, 12818.00
465.4400, 12778.00
466.6270, 12790.00
467.8130, 13221.00
469.0000, 13695.00
470.1870, 14396.00
471.3730, 14979.00
472.5590, 15804.00
473.7450, 16908.00
474.9310, 17819.00
476.1160, 18784.00
477.3020, 19575.00
478.4870, 20457.00
479.6720, 21127.00
480.8570, 21770.00
482.0420, 22360.00
483.2270, 23105.00
484.4110, 23620.00
485.5960, 24213.06
486.7800, 24813.00
487.9640, 25247.00
489.1480, 25697.00
490.3310, 26106.00
491.5150, 26520.00
492.6980, 26225.00
493.8810, 25024.00
495.0640, 23303.00
496.2470, 21070.00
497.4300, 18965.00
498.6120, 17234.00
499.7950, 15755.00
500.9770, 14589.00
502.1590, 13721.00
503.3410, 13257.00
504.5220, 12885.00
505.7040, 12589.00
506.8850, 12378.00
508.0660, 12245.72
509.2470, 12353.00
510.4280, 12185.00
511.6090, 12342.00
512.7890, 12434.00
513.9700, 12420.00
515.1500, 12729.00
516.3300, 12748.00
517.5100, 13239.00
518.6900, 13596.00
519.8690, 13990.00
521.0490, 14603.00
522.2280, 15192.97
523.4070, 15901.00
524.5860, 16661.00
525.7640, 17692.00
526.9430, 18564.00
528.1210, 19698.00
529.3000, 20717.00
530.4780, 21938.00
531.6560, 22837.00
532.8330, 23764.00
534.0110, 24360.00
535.1880, 24751.00
536.3650, 24631.00
537.5430, 24459.00
538.7190, 23784.00
539.8960, 23083.00
541.0730, 22222.00
542.2490, 21296.00
543.4250, 20559.00
544.6020, 19790.00
545.7780, 19120.00
546.9530, 18453.00
548.1290, 17813.55
549.3040, 17200.00
550.4800, 16606.00
551.6550, 16036.00
552.8300, 15517.35
554.0040, 15053.00
555.1790, 14573.00
556.3540, 14102.00
557.5280, 13724.00
558.7020, 13200.00
559.8760, 12786.00
561.0500, 12585.00
562.2230, 12168.00
563.3970, 11940.00
564.5700, 11669.00
565.7430, 11633.00
566.9160, 11368.00
568.0890, 11289.00
569.2620, 11208.00
570.4340, 11048.00
571.6070, 10798.00
572.7790, 10650.00
573.9510, 10749.00
575.1230, 10568.00
576.2940, 10623.00
577.4660, 10503.00
578.6370, 10541.00
579.8080, 10567.00
580.9790, 10579.00
582.1500, 10374.00
583.3210, 10404.00
584.4910, 10293.00
585.6620, 10351.00
586.8320, 10137.00
588.0020, 10274.00
589.1720, 10224.00
590.3410, 10240.00
591.5110, 10256.00
592.6800, 10129.00
593.8500, 10070.00
595.0190, 9988.000
596.1880, 10093.00
597.3560, 10015.00
598.5250, 10061.00
599.6930, 9901.000
600.8620, 10058.00
602.0300, 10069.00
603.1970, 9899.000
604.3650, 10048.00
605.5330, 10064.00
606.7000, 10117.00
607.8680, 10151.00
609.0350, 10136.00
610.2020, 10249.00
611.3680, 10196.00
612.5350, 10457.00
613.7010, 10533.00
614.8680, 10902.00
616.0340, 10997.00
617.2000, 11376.00
618.3660, 11694.00
619.5310, 12086.00
620.6970, 12419.00
621.8620, 12586.00
623.0270, 12510.00
624.1920, 12233.00
625.3570, 11853.00
626.5220, 11733.00
627.6860, 11390.00
628.8500, 11203.00
630.0140, 11042.00
631.1780, 10729.00
632.3420, 10631.00
633.5060, 10554.00
634.6700, 10583.00
635.8330, 10496.00
636.9960, 10387.00
638.1590, 10414.00
639.3220, 10377.00
640.4850, 10403.00
641.6470, 10428.10
642.8100, 10516.00
643.9720, 10528.00
645.1340, 10584.00
646.2960, 10700.00
647.4570, 10683.00
648.6190, 10645.00
649.7800, 10775.00
650.9420, 10852.00
652.1030, 10761.00
653.2640, 10770.00
654.4240, 10715.00
655.5850, 10741.52
656.7450, 10735.50
657.9060, 10825.00
659.0660, 10815.00
660.2260, 10867.00
661.3850, 11042.00
662.5450, 11153.00
663.7040, 11255.25
664.8640, 11363.00
666.0230, 11456.00
667.1820, 11583.00
668.3410, 11642.00
669.4990, 12101.00
670.6580, 12511.00
671.8160, 13228.00
672.9740, 13133.00
674.1320, 13364.00
675.2900, 14178.00
676.4480, 14576.00
677.6050, 15294.00
678.7630, 16043.00
679.9200, 16589.00
681.0770, 17278.00
682.2340, 17767.00
683.3900, 18150.00
684.5470, 18385.00
685.7030, 18178.00
686.8590, 17464.00
688.0150, 16955.00
689.1710, 16402.00
690.3270, 15834.00
691.4830, 15597.00
692.6380, 15646.00
693.7930, 15749.00
694.9480, 16331.00
696.1030, 16923.00
697.2580, 17860.00
698.4130, 19046.00
699.5670, 20700.00
700.7210, 22316.00
701.8750, 24350.00
703.0290, 26005.00
704.1830, 27543.00
705.3370, 28546.00
706.4900, 28529.00
707.6430, 28047.00
708.7970, 26365.00
709.9490, 24644.00
711.1020, 22953.00
712.2550, 20930.00
713.4070, 19343.00
714.5600, 17985.00
715.7120, 16755.00
716.8640, 15658.00
718.0160, 14761.00
719.1670, 14054.00
720.3190, 13698.00
721.4700, 13213.00
722.6210, 12804.00
723.7720, 12555.00
724.9230, 12313.00
726.0740, 11945.00
727.2250, 11875.00
728.3750, 11740.92
729.5250, 11712.00
730.6750, 11657.00
731.8250, 11380.00
732.9750, 11293.00
734.1240, 11168.00
735.2740, 11117.00
736.4230, 11107.00
737.5720, 11061.00
738.7210, 11021.00
739.8700, 10932.00
741.0190, 10851.00
742.1670, 10787.00
743.3150, 10848.00
744.4630, 10839.00
745.6110, 10868.00
746.7590, 10698.00
747.9070, 10571.00
749.0540, 10714.00
750.2020, 10783.00
751.3490, 10607.00
752.4960, 10772.00
753.6430, 10621.00
754.7890, 10547.00
755.9360, 10694.00
757.0820, 10626.00
758.2280, 10819.00
759.3740, 10818.00
760.5200, 10616.00
761.6660, 10743.00
762.8120, 10651.00
763.9570, 10649.00
765.1020, 10675.00
766.2470, 10684.00
767.3920, 10679.00
768.5370, 10707.00
769.6810, 10835.00
770.8260, 10768.00
771.9700, 10849.00
773.1140, 10788.00
774.2580, 10827.00
775.4020, 10877.00
776.5460, 11078.00
777.6890, 10893.00
778.8320, 10905.00
779.9750, 11108.00
781.1180, 11246.00
782.2610, 11167.00
783.4040, 11360.00
784.5460, 11376.00
785.6890, 11410.00
786.8310, 11478.00
787.9730, 11506.00
789.1150, 11549.00
790.2560, 11614.00
791.3980, 11690.00
792.5390, 11590.00
793.6810, 11643.00
794.8220, 11580.00
795.9630, 11628.00
797.1030, 11542.00
798.2440, 11599.00
799.3840, 11670.00
800.5240, 11741.00
801.6650, 11763.00
802.8040, 11728.00
803.9440, 11805.44
805.0840, 11833.95
806.2230, 11902.00
807.3630, 11989.00
808.5020, 12046.00
809.6410, 12202.00
810.7790, 12200.00
811.9180, 12132.00
813.0570, 12162.00
814.1950, 12335.00
815.3330, 12195.00
816.4710, 12375.00
817.6090, 12501.00
818.7470, 12496.00
819.8840, 12588.00
821.0220, 12700.00
822.1590, 12596.00
823.2960, 12739.00
824.4330, 12710.00
825.5690, 12485.00
826.7060, 12394.00
827.8420, 12465.00
828.9790, 12340.00
830.1150, 12317.00
831.2510, 12359.00
832.3860, 12254.00
833.5220, 12237.00
834.6570, 12100.00
835.7930, 12022.00
836.9280, 12093.00
838.0630, 12099.00
839.1980, 12008.45
840.3320, 11970.70
841.4670, 11830.00
842.6010, 11741.00
843.7350, 11635.00
844.8690, 11539.13
846.0030, 11453.00
847.1370, 11379.00
848.2700, 11323.00
849.4040, 11270.00
850.5370, 11203.00
851.6700, 11044.00
852.8030, 11035.00
853.9360, 11053.00
855.0680, 11087.00
856.2000, 11259.00
857.3330, 11149.00
858.4650, 11091.00
859.5970, 11209.00
860.7290, 11082.00
861.8600, 11108.00
862.9920, 11043.00
864.1230, 11113.00
865.2540, 11112.00
866.3850, 11167.00
867.5160, 11057.00
868.6460, 11003.00
869.7770, 11131.00
870.9070, 10979.00
872.0370, 11070.00
873.1670, 11142.00
874.2970, 11052.00
875.4270, 11235.00
876.5570, 11309.00
877.6860, 11175.00
878.8150, 11411.00
879.9440, 11530.00
881.0730, 11592.00
882.2020, 11575.00
883.3300, 11661.65
884.4590, 11655.00
885.5870, 11727.00
886.7150, 11796.00
887.8430, 11793.00
888.9710, 11617.00
890.0990, 11588.00
891.2260, 11567.00
892.3530, 11370.00
893.4810, 11322.00
894.6080, 11147.00
895.7340, 11216.00
896.8610, 11289.00
897.9880, 11207.00
899.1140, 11227.00
900.2400, 11116.00
901.3660, 11018.00
902.4920, 11089.00
903.6180, 11187.00
904.7430, 11052.00
905.8690, 11152.00
906.9940, 11216.00
908.1190, 11142.00
909.2440, 11218.00
910.3690, 11147.00
911.4930, 11229.00
912.6180, 11178.00
913.7420, 11197.00
914.8660, 10970.00
915.9900, 11057.00
917.1140, 10933.00
918.2380, 11056.00
919.3610, 11071.00
920.4850, 11045.00
921.6080, 11060.00
922.7310, 11087.00
923.8540, 11122.00
924.9760, 11188.00
926.0990, 11285.00
927.2210, 11382.00
928.3440, 11487.91
929.4660, 11633.00
930.5880, 11717.00
931.7090, 11972.00
932.8310, 12086.00
933.9520, 12319.00
935.0740, 12604.00
936.1950, 12727.00
937.3160, 12781.00
938.4360, 12856.00
939.5570, 12960.00
940.6780, 12703.00
941.7980, 12522.00
942.9180, 12589.00
944.0380, 12563.00
945.1580, 12448.00
946.2780, 12377.00
947.3970, 12543.00
948.5170, 12576.00
949.6360, 12632.00
950.7550, 12904.00
951.8740, 13006.00
952.9930, 13373.00
954.1110, 13527.00
955.2300, 13554.00
956.3480, 13644.00
957.4660, 13614.00
958.5840, 13594.00
959.7020, 13688.00
960.8190, 13847.00
961.9370, 13983.00
963.0540, 14489.00
964.1710, 14920.00
965.2880, 15337.00
966.4050, 16089.00
967.5220, 16565.00
968.6380, 17206.00
969.7550, 17618.00
970.8710, 17695.00
971.9870, 17731.00
973.1030, 17567.00
974.2190, 17367.00
975.3340, 17210.00
976.4500, 17134.00
977.5650, 17211.00
978.6800, 17330.00
979.7950, 17518.00
980.9100, 17266.00
982.0250, 17142.00
983.1390, 16889.00
984.2530, 16601.00
985.3680, 15740.00
986.4820, 15341.00
987.5950, 14733.00
988.7090, 14570.00
989.8230, 13922.00
990.9360, 13461.00
992.0490, 13138.00
993.1620, 13120.00
994.2750, 12900.00
995.3880, 12724.00
996.5010, 12816.00
997.6130, 12670.00
998.7250, 12727.00
999.8370, 12861.00
1000.949, 13045.00
1002.061, 13184.00
1003.173, 13313.00
1004.284, 13555.00
1005.396, 13659.00
1006.507, 13789.00
1007.618, 14207.00
1008.729, 14723.00
1009.839, 15303.00
1010.950, 15788.00
1012.060, 16361.00
1013.171, 16718.00
1014.281, 16687.00
1015.391, 16597.00
1016.500, 16399.00
1017.610, 15937.00
1018.719, 15473.00
1019.829, 14777.00
1020.938, 14188.00
1022.047, 13741.00
1023.156, 13159.00
1024.264, 12929.00
1025.373, 12689.00
1026.481, 12236.00
1027.589, 11979.00
1028.697, 11875.00
1029.805, 11769.00
1030.913, 11812.00
1032.020, 11581.00
1033.128, 11542.00
1034.235, 11684.00
1035.342, 11538.00
1036.449, 11495.00
1037.556, 11511.00
1038.663, 11343.00
1039.769, 11474.00
1040.875, 11488.00
1041.981, 11478.00
1043.087, 11585.00
1044.193, 11508.00
1045.299, 11523.02
1046.404, 11356.00
1047.510, 11473.00
1048.615, 11448.00
1049.720, 11426.00
1050.825, 11451.00
1051.930, 11425.05
1053.034, 11426.77
1054.139, 11429.30
1055.243, 11448.00
1056.347, 11496.00
1057.451, 11334.00
1058.555, 11329.00
1059.658, 11252.00
1060.762, 11451.00
1061.865, 11433.00
1062.968, 11285.00
1064.071, 11478.00
1065.174, 11438.00
1066.277, 11418.00
1067.380, 11471.00
1068.482, 11572.00
1069.584, 11411.00
1070.686, 11313.00
1071.788, 11459.00
1072.890, 11414.00
1073.992, 11464.00
1075.093, 11308.00
1076.194, 11382.00
1077.295, 11452.00
1078.396, 11539.00
1079.497, 11538.00
1080.598, 11546.87
1081.698, 11571.00
1082.799, 11463.00
1083.899, 11423.00
1084.999, 11320.00
1086.099, 11383.00
1087.199, 11505.00
1088.298, 11405.00
1089.398, 11555.00
1090.497, 11338.00
1091.596, 11321.00
1092.695, 11349.00
1093.794, 11309.00
1094.892, 11269.00
1095.991, 11334.00
1097.089, 11284.00
1098.187, 11176.00
1099.285, 11287.00
1100.383, 11204.00
1101.481, 11369.00
1102.579, 11168.00
1103.676, 11375.00
1104.773, 11326.00
1105.870, 11347.00
1106.967, 11285.00
1108.064, 11305.00
1109.161, 11307.37
1110.257, 11292.41
1111.353, 11359.00
1112.449, 11303.00
1113.545, 11377.00
1114.641, 11405.00
1115.737, 11358.00
1116.832, 11365.00
1117.928, 11256.00
1119.023, 11230.00
1120.118, 11285.00
1121.213, 11253.00
1122.308, 11302.00
1123.402, 11384.00
1124.497, 11265.00
1125.591, 11285.00
1126.685, 11439.00
1127.779, 11290.00
1128.873, 11347.00
1129.967, 11401.00
1131.060, 11373.00
1132.153, 11319.00
1133.247, 11213.00
1134.340, 11319.00
1135.433, 11336.00
1136.525, 11255.00
1137.618, 11345.00
1138.710, 11342.00
1139.802, 11306.00
1140.895, 11465.00
1141.987, 11345.00
1143.078, 11399.00
1144.170, 11435.00
1145.261, 11302.00
1146.353, 11277.00
1147.444, 11329.00
1148.535, 11318.00
1149.626, 11322.00
1150.716, 11324.00
1151.807, 11292.00
1152.897, 11264.00
1153.988, 11378.00
1155.078, 11270.00
1156.168, 11298.00
1157.257, 11414.00
1158.347, 11459.00
1159.436, 11439.00
1160.526, 11529.00
1161.615, 11415.00
1162.704, 11491.00
1163.793, 11407.00
1164.881, 11356.00
1165.970, 11553.00
1167.058, 11481.00
1168.147, 11449.00
1169.235, 11417.00
1170.323, 11312.00
1171.410, 11272.18
1172.498, 11305.00
1173.585, 11216.00
1174.673, 11242.00
1175.760, 11392.00
1176.847, 11558.00
1177.934, 11456.00
1179.020, 11485.00
1180.107, 11454.00
1181.193, 11446.00
1182.279, 11473.00
1183.365, 11451.00
1184.451, 11375.00
1185.537, 11436.00
1186.623, 11500.00
1187.708, 11372.00
1188.793, 11391.00
1189.878, 11335.00
1190.963, 11380.46
1192.048, 11496.00
1193.133, 11521.00
1194.217, 11518.00
1195.302, 11583.00
1196.386, 11483.00
1197.470, 11498.00
1198.554, 11375.00
1199.638, 11459.00
1200.721, 11670.00
1201.805, 11476.00
1202.888, 11647.00
1203.971, 11444.00
1205.054, 11584.00
1206.137, 11403.00
1207.219, 11524.00
1208.302, 11573.00
1209.384, 11590.00
1210.466, 11411.00
1211.548, 11436.00
1212.630, 11464.00
1213.712, 11662.00
1214.794, 11511.00
1215.875, 11586.00
1216.956, 11595.00
1218.037, 11524.00
1219.118, 11534.00
1220.199, 11572.00
1221.280, 11608.00
1222.360, 11640.00
1223.441, 11613.00
1224.521, 11542.00
1225.601, 11489.00
1226.681, 11585.00
1227.760, 11691.00
1228.840, 11672.00
1229.919, 11676.00
1230.999, 11659.00
1232.078, 11635.00
1233.157, 11637.00
1234.236, 11699.00
1235.314, 11693.00
1236.393, 11688.00
1237.471, 11747.00
1238.549, 11709.00
1239.627, 11710.00
1240.705, 11811.00
1241.783, 11699.00
1242.860, 11687.00
1243.938, 11791.00
1245.015, 11716.00
1246.092, 11774.00
1247.169, 11847.00
1248.246, 11964.00
1249.323, 11864.00
1250.399, 11927.00
1251.475, 11796.00
1252.552, 11910.00
1253.628, 11835.00
1254.703, 11835.00
1255.779, 11881.00
1256.855, 11831.00
1257.930, 12007.00
1259.005, 11883.00
1260.080, 11873.00
1261.155, 11860.00
1262.230, 11717.00
1263.305, 11950.00
1264.379, 11958.00
1265.454, 11924.00
1266.528, 11942.00
1267.602, 12033.00
1268.676, 11967.00
1269.750, 11850.00
1270.823, 11972.00
1271.897, 11878.00
1272.970, 11843.00
1274.043, 12090.00
1275.116, 11973.00
1276.189, 12000.00
1277.261, 12001.00
1278.334, 11967.00
1279.406, 12006.00
1280.478, 12032.00
1281.550, 11915.00
1282.622, 11900.00
1283.694, 11806.00
1284.766, 11984.00
1285.837, 11986.00
1286.908, 11903.00
1287.979, 12076.00
1289.050, 11965.00
1290.121, 11995.00
1291.192, 11832.00
1292.262, 11907.00
1293.333, 11991.00
1294.403, 11873.00
1295.473, 11934.00
1296.543, 11946.74
1297.613, 12097.00
1298.682, 11997.00
1299.752, 11966.00
1300.821, 11973.00
1301.890, 11906.00
1302.959, 11943.86
1304.028, 11969.09
1305.096, 12014.00
1306.165, 12072.00
1307.233, 12144.00
1308.301, 12199.00
1309.370, 12211.00
1310.437, 12200.00
1311.505, 12264.00
1312.573, 12099.00
1313.640, 12368.00
1314.708, 12161.00
1315.775, 12208.00
1316.842, 12180.00
1317.908, 12267.00
