##NAMES=Amesite
##RRUFFID=R070132
##IDEAL CHEMISTRY=Mg_2_Al(AlSiO_5_)(OH)_4_
##LOCALITY=Saranovskii mine, Saranovskaya Village, Gornozavodskii area, Permskaya Oblast', Middle Urals, Russia
##OWNER=RRUFF
##SOURCE=Michael Scott
##DESCRIPTION=Purple transparent hexagonal prisms, polytype 2H2
##STATUS=The identification of this mineral is confirmed by single-crystal X-ray diffraction and chemical analysis.
##URL=rruff.info/R070132
##MEASURED CHEMISTRY=(Mg_1.87_[box]_0.05_Cr_0.05_Fe^2+^_0.03_)_Σ=2_(Al_0.98_Cr_0.02_)_Σ=1_(Si_1.05_Al_0.95_)O_5_(OH)_4_ ; OH estimated by difference
##PIN_ID=M00194
111.7130, 2358.000
112.9490, 2449.000
114.1850, 2618.000
115.4200, 2879.000
116.6560, 3034.000
117.8910, 3008.000
119.1260, 2913.000
120.3610, 2692.000
121.5960, 2603.000
122.8300, 2590.000
124.0640, 2520.717
125.2990, 2613.000
126.5330, 2587.000
127.7670, 2649.000
129.0000, 2806.000
130.2340, 2902.000
131.4670, 3006.000
132.7000, 3112.000
133.9330, 3181.000
135.1660, 3185.000
136.3990, 3196.000
137.6310, 3110.000
138.8640, 2982.000
140.0960, 2942.000
141.3280, 2726.000
142.5600, 2623.000
143.7910, 2641.000
145.0230, 2654.000
146.2540, 2597.000
147.4850, 2624.000
148.7160, 2614.000
149.9470, 2589.000
151.1780, 2617.000
152.4080, 2658.000
153.6380, 2635.000
154.8690, 2614.000
156.0980, 2596.000
157.3280, 2624.000
158.5580, 2582.000
159.7870, 2552.000
161.0170, 2539.000
162.2460, 2632.000
163.4750, 2625.000
164.7030, 2709.000
165.9320, 2648.000
167.1600, 2655.000
168.3890, 2675.000
169.6170, 2713.000
170.8450, 2723.000
172.0730, 2746.000
173.3000, 2666.000
174.5280, 2724.000
175.7550, 2714.000
176.9820, 2721.000
178.2090, 2796.000
179.4350, 2701.000
180.6620, 2749.000
181.8880, 2789.000
183.1150, 2747.000
184.3410, 2859.000
185.5670, 2831.000
186.7920, 2942.000
188.0180, 3005.000
189.2430, 3067.000
190.4690, 3289.000
191.6940, 3405.000
192.9180, 3630.000
194.1430, 3755.000
195.3680, 3858.000
196.5920, 3889.000
197.8160, 3852.000
199.0400, 3887.000
200.2640, 3973.000
201.4880, 4098.000
202.7110, 4217.000
203.9350, 4224.000
205.1580, 4165.000
206.3810, 4145.000
207.6040, 4045.000
208.8270, 3982.887
210.0490, 3910.751
211.2710, 3828.000
212.4940, 3746.000
213.7160, 3697.000
214.9370, 3612.544
216.1590, 3644.000
217.3810, 3582.000
218.6020, 3650.000
219.8230, 3774.000
221.0440, 3744.000
222.2650, 3741.000
223.4860, 3918.000
224.7060, 3922.000
225.9260, 4137.000
227.1470, 4290.000
228.3670, 4498.000
229.5860, 4733.000
230.8060, 5262.000
232.0260, 5767.000
233.2450, 6396.000
234.4640, 7394.000
235.6830, 9416.000
236.9020, 10165.00
238.1200, 12635.00
239.3390, 16607.00
240.5570, 22667.00
241.7750, 31036.00
242.9930, 39727.00
244.2110, 45666.00
245.4290, 45677.00
246.6460, 39358.00
247.8630, 30201.00
249.0810, 22570.00
250.2980, 17303.00
251.5140, 14477.00
252.7310, 12526.00
253.9470, 11649.00
255.1640, 11490.00
256.3800, 11688.00
257.5960, 12235.00
258.8120, 13059.00
260.0270, 14043.00
261.2430, 14687.00
262.4580, 16155.00
263.6730, 18110.00
264.8880, 21198.00
266.1030, 24653.00
267.3170, 29165.00
268.5320, 34671.00
269.7460, 40754.00
270.9600, 47619.00
272.1740, 53781.00
273.3880, 57839.00
274.6010, 58955.00
275.8150, 56716.00
277.0280, 53846.00
278.2410, 49733.00
279.4540, 46630.00
280.6670, 43877.00
281.8790, 41843.00
283.0920, 40263.00
284.3040, 37805.00
285.5160, 34152.00
286.7280, 29846.00
287.9400, 25647.00
289.1510, 21551.00
290.3630, 17953.00
291.5740, 14886.00
292.7850, 12358.00
293.9960, 10170.00
295.2070, 8634.000
296.4170, 7518.000
297.6280, 6571.000
298.8380, 5909.000
300.0480, 5515.000
301.2580, 5030.000
302.4680, 4899.000
303.6770, 4681.000
304.8870, 4656.000
306.0960, 4609.000
307.3050, 4635.000
308.5140, 4872.000
309.7230, 5035.000
310.9310, 5372.000
312.1400, 5719.000
313.3480, 6077.000
314.5560, 6281.000
315.7640, 6448.000
316.9720, 6531.000
318.1790, 6715.000
319.3870, 6806.000
320.5940, 7235.000
321.8010, 8072.000
323.0080, 9517.000
324.2150, 10806.00
325.4210, 12007.00
326.6280, 12597.00
327.8340, 12578.00
329.0400, 12222.00
330.2460, 11854.00
331.4510, 11133.00
332.6570, 10190.00
333.8620, 9177.000
335.0680, 8313.000
336.2730, 7749.000
337.4780, 7818.000
338.6820, 8258.000
339.8870, 8860.000
341.0910, 9727.000
342.2950, 9920.000
343.5000, 10057.00
344.7030, 9995.000
345.9070, 9856.000
347.1110, 9642.000
348.3140, 9310.000
349.5170, 8737.000
350.7200, 7815.000
351.9230, 6921.000
353.1260, 6176.000
354.3290, 5889.000
355.5310, 5585.000
356.7330, 5555.000
357.9350, 5542.000
359.1370, 5619.000
360.3390, 5621.000
361.5400, 5551.000
362.7420, 5821.000
363.9430, 6019.000
365.1440, 6181.000
366.3450, 6809.000
367.5460, 7400.000
368.7460, 8273.000
369.9470, 9291.000
371.1470, 10632.00
372.3470, 12489.00
373.5470, 15392.00
374.7460, 18630.00
375.9460, 21945.00
377.1450, 24765.00
378.3450, 26076.00
379.5440, 25639.00
380.7430, 23785.00
381.9410, 21549.00
383.1400, 19800.00
384.3380, 18770.00
385.5370, 18019.00
386.7350, 17717.00
387.9320, 17142.00
389.1300, 16779.00
390.3280, 16763.04
391.5250, 16560.00
392.7220, 16855.00
393.9190, 17017.00
395.1160, 17089.00
396.3130, 17146.00
397.5100, 17155.00
398.7060, 17881.00
399.9020, 19644.00
401.0980, 22592.00
402.2940, 27200.00
403.4900, 33251.00
404.6860, 40122.00
405.8810, 46009.00
407.0760, 49064.00
408.2710, 49464.00
409.4660, 48488.00
410.6610, 48207.00
411.8550, 48641.00
413.0500, 47578.00
414.2440, 43459.00
415.4380, 37261.00
416.6320, 30939.00
417.8260, 24790.00
419.0190, 20131.00
420.2130, 16562.00
421.4060, 14662.00
422.5990, 11571.00
423.7920, 10032.00
424.9850, 8948.000
426.1770, 8087.000
427.3700, 7438.000
428.5620, 7039.000
429.7540, 6587.000
430.9460, 6410.000
432.1380, 6214.000
433.3290, 6167.000
434.5210, 6098.000
435.7120, 6103.000
436.9030, 6260.000
438.0940, 6563.000
439.2850, 6842.000
440.4750, 6925.000
441.6660, 7149.000
442.8560, 7309.000
444.0460, 7461.000
445.2360, 7681.000
446.4260, 8040.000
447.6160, 8201.000
448.8050, 8199.000
449.9940, 8249.000
451.1830, 8243.000
452.3720, 8026.000
453.5610, 7975.000
454.7500, 7819.000
455.9380, 7802.000
457.1260, 7990.000
458.3150, 8061.000
459.5020, 7876.000
460.6900, 8046.000
461.8780, 7891.000
463.0650, 7789.000
464.2530, 7597.000
465.4400, 7607.000
466.6270, 7723.000
467.8130, 7988.000
469.0000, 8767.000
470.1870, 9668.000
471.3730, 10989.00
472.5590, 12770.00
473.7450, 14492.00
474.9310, 16064.00
476.1160, 17391.00
477.3020, 17767.00
478.4870, 17683.00
479.6720, 16894.00
480.8570, 15491.00
482.0420, 14632.00
483.2270, 13566.00
484.4110, 12613.00
485.5960, 11915.00
486.7800, 11413.00
487.9640, 10945.00
489.1480, 10453.00
490.3310, 10189.00
491.5150, 10078.00
492.6980, 9562.000
493.8810, 9075.000
495.0640, 8437.000
496.2470, 7533.000
497.4300, 6908.000
498.6120, 6196.000
499.7950, 5738.000
500.9770, 5293.000
502.1590, 5043.000
503.3410, 4819.000
504.5220, 4644.000
505.7040, 4646.000
506.8850, 4563.000
508.0660, 4642.000
509.2470, 4505.000
510.4280, 4552.000
511.6090, 4637.000
512.7890, 4786.000
513.9700, 4792.000
515.1500, 5125.000
516.3300, 5252.000
517.5100, 5408.000
518.6900, 5751.000
519.8690, 6270.000
521.0490, 6647.000
522.2280, 7296.000
523.4070, 8056.000
524.5860, 9047.000
525.7640, 10018.00
526.9430, 10835.00
528.1210, 11723.00
529.3000, 12324.00
530.4780, 12605.00
531.6560, 12727.00
532.8330, 12434.00
534.0110, 11972.00
535.1880, 11420.00
536.3650, 10773.00
537.5430, 10079.00
538.7190, 9604.000
539.8960, 9127.000
541.0730, 8792.000
542.2490, 8187.000
543.4250, 7887.000
544.6020, 7626.000
545.7780, 7620.000
546.9530, 7391.000
548.1290, 7372.000
549.3040, 7344.000
550.4800, 7365.000
551.6550, 7164.000
552.8300, 7108.000
554.0040, 6740.000
555.1790, 6642.000
556.3540, 6217.000
557.5280, 5907.000
558.7020, 5644.000
559.8760, 5264.000
561.0500, 5112.000
562.2230, 5041.000
563.3970, 4865.000
564.5700, 4919.000
565.7430, 4957.000
566.9160, 5081.000
568.0890, 5160.000
569.2620, 5306.000
570.4340, 5328.000
571.6070, 5249.000
572.7790, 5113.000
573.9510, 4840.000
575.1230, 4512.000
576.2940, 4256.000
577.4660, 4024.000
578.6370, 4010.000
579.8080, 3900.000
580.9790, 3877.000
582.1500, 3727.000
583.3210, 3736.000
584.4910, 3627.000
585.6620, 3631.000
586.8320, 3487.000
588.0020, 3406.000
589.1720, 3401.000
590.3410, 3371.000
591.5110, 3220.000
592.6800, 3211.000
593.8500, 3065.000
595.0190, 3119.000
596.1880, 2988.000
597.3560, 3010.000
598.5250, 2989.000
599.6930, 2949.000
600.8620, 2996.000
602.0300, 2914.000
603.1970, 2768.008
604.3650, 2863.263
605.5330, 2919.440
606.7000, 2938.632
607.8680, 2810.093
609.0350, 2872.319
610.2020, 2858.094
611.3680, 2840.727
612.5350, 2929.804
613.7010, 2822.742
614.8680, 2910.131
616.0340, 2853.000
617.2000, 2790.273
618.3660, 2883.393
619.5310, 2937.430
620.6970, 2954.491
621.8620, 2823.813
623.0270, 2883.906
624.1920, 2867.546
625.3570, 2894.000
626.5220, 2950.000
627.6860, 2899.000
628.8500, 2913.000
630.0140, 2935.000
631.1780, 2859.000
632.3420, 2938.000
633.5060, 2981.000
634.6700, 2977.000
635.8330, 2981.000
636.9960, 2892.000
638.1590, 2942.000
639.3220, 2967.000
640.4850, 2958.000
641.6470, 3047.000
642.8100, 2981.000
643.9720, 3082.000
645.1340, 3084.000
646.2960, 3041.000
647.4570, 3094.000
648.6190, 3140.000
649.7800, 3208.000
650.9420, 3233.000
652.1030, 3219.000
653.2640, 3217.000
654.4240, 3169.000
655.5850, 3309.000
656.7450, 3303.000
657.9060, 3365.000
659.0660, 3483.000
660.2260, 3557.000
661.3850, 3547.000
662.5450, 3654.000
663.7040, 3672.000
664.8640, 3849.000
666.0230, 3938.000
667.1820, 4023.000
668.3410, 4156.000
669.4990, 4270.000
670.6580, 4553.000
671.8160, 4731.000
672.9740, 5108.000
674.1320, 5430.000
675.2900, 5877.000
676.4480, 6401.000
677.6050, 6977.000
678.7630, 7802.000
679.9200, 8701.000
681.0770, 9817.000
682.2340, 10554.00
683.3900, 11562.00
684.5470, 11756.00
685.7030, 11706.00
686.8590, 11149.00
688.0150, 10383.00
689.1710, 9683.000
690.3270, 9061.000
691.4830, 8916.000
692.6380, 8861.000
693.7930, 9052.000
694.9480, 9329.000
696.1030, 9744.000
697.2580, 10569.00
698.4130, 11357.00
699.5670, 12420.00
700.7210, 13809.00
701.8750, 15361.00
703.0290, 17405.00
704.1830, 19258.00
705.3370, 20729.00
706.4900, 21817.00
707.6430, 22243.00
708.7970, 21536.00
709.9490, 20077.00
711.1020, 18281.00
712.2550, 16311.00
713.4070, 14274.00
714.5600, 12671.00
715.7120, 11179.00
716.8640, 10035.00
718.0160, 9048.000
719.1670, 8064.000
720.3190, 7364.000
721.4700, 6717.000
722.6210, 6203.000
723.7720, 5712.000
724.9230, 5366.000
726.0740, 5028.000
727.2250, 4781.000
728.3750, 4540.000
729.5250, 4338.000
730.6750, 4110.000
731.8250, 3966.000
732.9750, 3793.000
734.1240, 3741.000
735.2740, 3637.000
736.4230, 3625.000
737.5720, 3514.000
738.7210, 3499.000
739.8700, 3445.000
741.0190, 3364.000
742.1670, 3312.000
743.3150, 3292.000
744.4630, 3237.000
745.6110, 3202.000
746.7590, 3227.000
747.9070, 3179.000
749.0540, 3172.711
750.2020, 3079.000
751.3490, 3121.000
752.4960, 3076.000
753.6430, 3011.000
754.7890, 3062.000
755.9360, 3007.000
757.0820, 3007.000
758.2280, 3097.000
759.3740, 2969.000
760.5200, 3050.000
761.6660, 3063.000
762.8120, 3043.000
763.9570, 3033.000
765.1020, 3023.000
766.2470, 3110.000
767.3920, 3205.000
768.5370, 3114.000
769.6810, 3199.000
770.8260, 3157.000
771.9700, 3179.000
773.1140, 3304.000
774.2580, 3380.000
775.4020, 3439.000
776.5460, 3495.000
777.6890, 3609.000
778.8320, 3719.000
779.9750, 3774.000
781.1180, 3860.761
782.2610, 3829.000
783.4040, 3947.000
784.5460, 3930.000
785.6890, 3885.000
786.8310, 3928.000
787.9730, 3861.000
789.1150, 3879.000
790.2560, 3908.000
791.3980, 3763.000
792.5390, 3825.000
793.6810, 3807.000
794.8220, 3819.000
795.9630, 3738.000
797.1030, 3843.000
798.2440, 3777.000
799.3840, 3826.000
800.5240, 3847.000
801.6650, 3897.000
802.8040, 3810.000
803.9440, 3944.000
805.0840, 3965.000
806.2230, 4008.000
807.3630, 4240.000
808.5020, 4414.000
809.6410, 4477.000
810.7790, 4659.000
811.9180, 4839.000
813.0570, 4948.000
814.1950, 5169.000
815.3330, 5352.000
816.4710, 5542.000
817.6090, 5659.000
818.7470, 5857.000
819.8840, 5869.000
821.0220, 5966.000
822.1590, 6122.000
823.2960, 6134.000
824.4330, 6110.000
825.5690, 6046.000
826.7060, 5914.000
827.8420, 5822.000
828.9790, 5641.000
830.1150, 5514.000
831.2510, 5225.000
832.3860, 5058.000
833.5220, 4960.000
834.6570, 4827.000
835.7930, 4719.000
836.9280, 4702.000
838.0630, 4540.000
839.1980, 4450.000
840.3320, 4321.000
841.4670, 4307.000
842.6010, 4297.000
843.7350, 4261.000
844.8690, 4088.000
846.0030, 3961.000
847.1370, 3852.000
848.2700, 3787.000
849.4040, 3647.000
850.5370, 3668.000
851.6700, 3506.000
852.8030, 3498.000
853.9360, 3400.000
855.0680, 3396.000
856.2000, 3338.000
857.3330, 3247.000
858.4650, 3256.000
859.5970, 3224.000
860.7290, 3171.000
861.8600, 3143.000
862.9920, 3181.000
864.1230, 3169.000
865.2540, 3169.000
866.3850, 3201.000
867.5160, 3132.000
868.6460, 3181.000
869.7770, 3177.000
870.9070, 3207.000
872.0370, 3232.000
873.1670, 3292.000
874.2970, 3296.000
875.4270, 3348.000
876.5570, 3337.000
877.6860, 3393.000
878.8150, 3347.000
879.9440, 3367.000
881.0730, 3311.000
882.2020, 3293.000
883.3300, 3140.000
884.4590, 3221.000
885.5870, 3128.000
886.7150, 3196.000
887.8430, 3185.000
888.9710, 3077.000
890.0990, 3100.000
891.2260, 3132.000
892.3530, 3043.000
893.4810, 3051.000
894.6080, 2965.000
895.7340, 2986.000
896.8610, 2996.000
897.9880, 2940.000
899.1140, 2991.000
900.2400, 2982.000
901.3660, 2950.000
902.4920, 2983.000
903.6180, 2994.000
904.7430, 3013.000
905.8690, 2994.000
906.9940, 2979.000
908.1190, 3031.000
909.2440, 3056.000
910.3690, 2986.000
911.4930, 2996.000
912.6180, 3036.000
913.7420, 2985.000
914.8660, 3063.000
915.9900, 3038.000
917.1140, 3000.000
918.2380, 3071.000
919.3610, 3079.000
920.4850, 3061.000
921.6080, 3125.000
922.7310, 3073.000
923.8540, 3081.000
924.9760, 3167.000
926.0990, 3238.000
927.2210, 3177.000
928.3440, 3239.000
929.4660, 3254.000
930.5880, 3344.000
931.7090, 3402.000
932.8310, 3404.000
933.9520, 3454.000
935.0740, 3536.000
936.1950, 3602.000
937.3160, 3655.000
938.4360, 3841.000
939.5570, 3941.000
940.6780, 4151.000
941.7980, 4329.000
942.9180, 4524.000
944.0380, 4921.000
945.1580, 5386.000
946.2780, 5788.000
947.3970, 6583.000
948.5170, 7420.000
949.6360, 8517.000
950.7550, 9578.000
951.8740, 10957.00
952.9930, 11861.00
954.1110, 12132.56
955.2300, 12079.04
956.3480, 11870.00
957.4660, 10906.00
958.5840, 9862.000
959.7020, 9152.000
960.8190, 8262.000
961.9370, 7567.000
963.0540, 6989.000
964.1710, 6691.000
965.2880, 6293.000
966.4050, 6030.000
967.5220, 5791.000
968.6380, 5709.000
969.7550, 5665.000
970.8710, 5675.000
971.9870, 5618.140
973.1030, 5667.000
974.2190, 5558.000
975.3340, 5499.000
976.4500, 5448.000
977.5650, 5538.000
978.6800, 5521.000
979.7950, 5619.000
980.9100, 5730.000
982.0250, 5551.000
983.1390, 5634.000
984.2530, 5319.000
985.3680, 5181.000
986.4820, 4897.000
987.5950, 4625.000
988.7090, 4433.000
989.8230, 4362.000
990.9360, 4144.000
992.0490, 4046.000
993.1620, 3944.000
994.2750, 3824.000
995.3880, 3824.002
996.5010, 3810.596
997.6130, 3844.000
998.7250, 3923.000
999.8370, 3961.000
1000.949, 4093.000
1002.061, 4191.000
1003.173, 4391.000
1004.284, 4666.000
1005.396, 4942.000
1006.507, 5154.000
1007.618, 5587.000
1008.729, 5901.000
1009.839, 6113.000
1010.950, 6214.000
1012.060, 6328.000
1013.171, 6153.000
1014.281, 6056.000
1015.391, 5856.000
1016.500, 5456.000
1017.610, 5227.000
1018.719, 4927.000
1019.829, 4675.000
1020.938, 4466.000
1022.047, 4072.000
1023.156, 3939.000
1024.264, 3797.000
1025.373, 3740.000
1026.481, 3555.000
1027.589, 3591.000
1028.697, 3439.000
1029.805, 3518.000
1030.913, 3483.000
1032.020, 3453.000
1033.128, 3441.000
1034.235, 3454.247
1035.342, 3542.000
1036.449, 3519.000
1037.556, 3532.000
1038.663, 3586.000
1039.769, 3576.000
1040.875, 3618.000
1041.981, 3622.000
1043.087, 3559.000
1044.193, 3550.000
1045.299, 3565.000
1046.404, 3523.000
1047.510, 3451.000
1048.615, 3399.000
1049.720, 3356.000
1050.825, 3339.000
1051.930, 3242.000
1053.034, 3217.000
1054.139, 3156.000
1055.243, 3077.000
1056.347, 3073.000
1057.451, 3033.616
1058.555, 3046.000
1059.658, 3010.000
1060.762, 3049.000
1061.865, 3045.000
1062.968, 3036.000
1064.071, 3073.000
1065.174, 3041.000
1066.277, 3062.000
1067.380, 3044.000
1068.482, 3053.000
1069.584, 3143.000
1070.686, 3083.000
1071.788, 3104.000
1072.890, 3173.000
1073.992, 3171.000
1075.093, 3122.000
1076.194, 3188.000
1077.295, 3175.000
1078.396, 3195.000
1079.497, 3188.000
1080.598, 3151.000
1081.698, 3072.000
1082.799, 3050.000
1083.899, 3033.000
1084.999, 2928.000
1086.099, 2934.000
1087.199, 2851.000
1088.298, 2821.000
1089.398, 2835.000
1090.497, 2816.000
1091.596, 2772.000
1092.695, 2724.000
1093.794, 2724.000
1094.892, 2721.000
1095.991, 2712.000
1097.089, 2732.000
1098.187, 2666.000
1099.285, 2663.000
1100.383, 2686.000
1101.481, 2652.000
1102.579, 2709.000
1103.676, 2623.000
1104.773, 2666.000
1105.870, 2642.000
1106.967, 2608.000
1108.064, 2639.000
1109.161, 2651.000
1110.257, 2633.000
1111.353, 2662.000
1112.449, 2636.000
1113.545, 2694.000
1114.641, 2645.000
1115.737, 2698.000
1116.832, 2692.000
1117.928, 2682.000
1119.023, 2677.000
1120.118, 2686.689
1121.213, 2689.582
1122.308, 2708.000
1123.402, 2710.000
1124.497, 2711.000
1125.591, 2717.000
1126.685, 2691.176
1127.779, 2632.000
1128.873, 2636.000
1129.967, 2574.000
1131.060, 2544.000
1132.153, 2626.000
1133.247, 2560.000
1134.340, 2536.000
1135.433, 2588.000
1136.525, 2588.000
1137.618, 2554.000
1138.710, 2595.000
1139.802, 2591.000
1140.895, 2573.573
1141.987, 2620.000
1143.078, 2547.000
1144.170, 2550.000
1145.261, 2552.000
1146.353, 2515.000
1147.444, 2539.000
1148.535, 2543.000
1149.626, 2505.000
1150.716, 2527.000
1151.807, 2532.000
1152.897, 2577.000
1153.988, 2523.000
1155.078, 2522.000
1156.168, 2579.000
1157.257, 2499.000
1158.347, 2533.000
1159.436, 2510.000
1160.526, 2592.000
1161.615, 2492.000
1162.704, 2528.000
1163.793, 2581.000
1164.881, 2551.000
1165.970, 2589.000
1167.058, 2534.000
1168.147, 2524.000
1169.235, 2505.000
1170.323, 2533.000
1171.410, 2567.000
1172.498, 2538.000
1173.585, 2484.000
1174.673, 2550.000
1175.760, 2562.000
1176.847, 2493.000
1177.934, 2469.000
1179.020, 2496.000
1180.107, 2512.000
1181.193, 2584.000
1182.279, 2495.000
1183.365, 2566.000
1184.451, 2553.000
1185.537, 2458.000
1186.623, 2526.000
1187.708, 2572.000
1188.793, 2493.000
1189.878, 2549.000
1190.963, 2471.000
1192.048, 2480.000
1193.133, 2489.000
1194.217, 2558.000
1195.302, 2506.000
1196.386, 2486.000
1197.470, 2557.000
1198.554, 2462.000
1199.638, 2531.000
1200.721, 2472.000
1201.805, 2501.000
1202.888, 2524.000
1203.971, 2488.000
1205.054, 2497.000
1206.137, 2480.000
1207.219, 2596.000
1208.302, 2538.000
1209.384, 2503.000
1210.466, 2576.000
1211.548, 2502.000
1212.630, 2506.000
1213.712, 2497.000
1214.794, 2501.000
1215.875, 2490.000
1216.956, 2525.000
1218.037, 2518.000
1219.118, 2465.000
1220.199, 2512.000
1221.280, 2487.000
1222.360, 2526.000
1223.441, 2519.000
1224.521, 2511.000
1225.601, 2513.000
1226.681, 2501.000
1227.760, 2509.000
1228.840, 2488.000
1229.919, 2511.000
1230.999, 2511.000
1232.078, 2517.000
1233.157, 2507.000
1234.236, 2495.000
1235.314, 2519.000
1236.393, 2518.000
1237.471, 2488.000
1238.549, 2521.000
1239.627, 2527.000
1240.705, 2609.000
1241.783, 2527.000
1242.860, 2463.000
1243.938, 2504.000
1245.015, 2568.000
1246.092, 2527.000
1247.169, 2525.000
1248.246, 2558.000
1249.323, 2506.000
1250.399, 2544.000
1251.475, 2552.000
1252.552, 2534.000
1253.628, 2497.000
1254.703, 2559.000
1255.779, 2486.000
1256.855, 2534.000
1257.930, 2510.000
1259.005, 2551.000
1260.080, 2500.000
1261.155, 2476.000
1262.230, 2536.000
1263.305, 2546.000
1264.379, 2469.000
1265.454, 2491.000
1266.528, 2489.000
1267.602, 2562.000
1268.676, 2503.000
1269.750, 2480.000
1270.823, 2527.000
1271.897, 2445.000
1272.970, 2518.000
1274.043, 2582.000
1275.116, 2488.000
1276.189, 2539.000
1277.261, 2482.000
1278.334, 2523.000
1279.406, 2483.000
1280.478, 2493.000
1281.550, 2516.000
1282.622, 2483.000
1283.694, 2538.000
1284.766, 2507.000
1285.837, 2492.000
1286.908, 2534.000
