##NAMES=Amesite
##RRUFFID=R070132
##IDEAL CHEMISTRY=Mg_2_Al(AlSiO_5_)(OH)_4_
##LOCALITY=Saranovskii mine, Saranovskaya Village, Gornozavodskii area, Permskaya Oblast', Middle Urals, Russia
##OWNER=RRUFF
##SOURCE=Michael Scott
##DESCRIPTION=Purple transparent hexagonal prisms, polytype 2H2
##STATUS=The identification of this mineral is confirmed by single-crystal X-ray diffraction and chemical analysis.
##URL=rruff.info/R070132
##MEASURED CHEMISTRY=(Mg_1.87_[box]_0.05_Cr_0.05_Fe^2+^_0.03_)_Σ=2_(Al_0.98_Cr_0.02_)_Σ=1_(Si_1.05_Al_0.95_)O_5_(OH)_4_ ; OH estimated by difference
##PIN_ID=M00364
147.4850, 8470.000
148.7160, 8646.000
149.9470, 8474.000
151.1780, 8717.000
152.4080, 8878.000
153.6380, 8588.000
154.8690, 8696.000
156.0980, 8618.000
157.3280, 8680.000
158.5580, 8642.000
159.7870, 8761.000
161.0170, 8738.000
162.2460, 8686.000
163.4750, 8850.000
164.7030, 8965.000
165.9320, 8929.000
167.1600, 8890.000
168.3890, 8883.000
169.6170, 8958.000
170.8450, 8941.000
172.0730, 9125.000
173.3000, 9134.000
174.5280, 9236.000
175.7550, 9211.000
176.9820, 9509.000
178.2090, 9313.000
179.4350, 9564.000
180.6620, 9710.000
181.8880, 10090.00
183.1150, 10272.00
184.3410, 10641.00
185.5670, 11029.00
186.7920, 11350.00
188.0180, 11944.00
189.2430, 12402.00
190.4690, 13164.00
191.6940, 13916.00
192.9180, 14608.00
194.1430, 15388.00
195.3680, 16434.00
196.5920, 17188.00
197.8160, 18393.00
199.0400, 19526.00
200.2640, 21029.00
201.4880, 22647.00
202.7110, 24554.00
203.9350, 26477.00
205.1580, 28862.00
206.3810, 31541.00
207.6040, 34955.00
208.8270, 38342.00
210.0490, 42914.00
211.2710, 47017.00
212.4940, 50960.00
213.7160, 53296.00
214.9370, 52844.00
216.1590, 49442.00
217.3810, 43832.00
218.6020, 37550.00
219.8230, 31597.00
221.0440, 26436.00
222.2650, 22466.00
223.4860, 19317.00
224.7060, 17123.00
225.9260, 15446.00
227.1470, 14199.00
228.3670, 13284.00
229.5860, 12654.00
230.8060, 12287.00
232.0260, 11913.00
233.2450, 11722.00
234.4640, 11495.71
235.6830, 11423.00
236.9020, 11298.00
238.1200, 11300.00
239.3390, 11301.15
240.5570, 11327.00
241.7750, 11439.00
242.9930, 11614.00
244.2110, 11789.00
245.4290, 11990.00
246.6460, 12048.73
247.8630, 12091.00
249.0810, 12144.00
250.2980, 11914.00
251.5140, 11912.00
252.7310, 11968.00
253.9470, 12132.00
255.1640, 12719.00
256.3800, 13042.00
257.5960, 12947.00
258.8120, 13037.00
260.0270, 12718.00
261.2430, 12038.00
262.4580, 11792.00
263.6730, 11489.00
264.8880, 11401.00
266.1030, 11176.00
267.3170, 11351.00
268.5320, 11281.00
269.7460, 11330.00
270.9600, 11547.00
272.1740, 11490.00
273.3880, 11458.00
274.6010, 11466.00
275.8150, 11437.02
277.0280, 11416.00
278.2410, 11423.00
279.4540, 11378.00
280.6670, 11361.00
281.8790, 11385.00
283.0920, 11435.19
284.3040, 11580.00
285.5160, 11594.00
286.7280, 11723.00
287.9400, 11790.00
289.1510, 11966.00
290.3630, 11911.00
291.5740, 11887.00
292.7850, 11360.00
293.9960, 10766.00
295.2070, 10323.00
296.4170, 10194.00
297.6280, 9872.000
298.8380, 9729.000
300.0480, 9685.000
301.2580, 9554.000
302.4680, 9535.000
303.6770, 9504.000
304.8870, 9547.000
306.0960, 9575.865
307.3050, 9731.000
308.5140, 9725.000
309.7230, 9836.000
310.9310, 9978.000
312.1400, 10364.00
313.3480, 10633.00
314.5560, 10746.00
315.7640, 10953.00
316.9720, 11109.00
318.1790, 11179.00
319.3870, 11299.00
320.5940, 11473.00
321.8010, 11770.00
323.0080, 12134.00
324.2150, 12670.00
325.4210, 12982.00
326.6280, 13342.00
327.8340, 13392.00
329.0400, 13548.00
330.2460, 13469.00
331.4510, 13378.00
332.6570, 13346.00
333.8620, 13707.00
335.0680, 14426.00
336.2730, 15223.00
337.4780, 16071.00
338.6820, 15581.00
339.8870, 14699.00
341.0910, 13845.00
342.2950, 13041.00
343.5000, 12717.00
344.7030, 12151.00
345.9070, 11854.00
347.1110, 11550.00
348.3140, 11371.00
349.5170, 11140.22
350.7200, 11068.00
351.9230, 10847.00
353.1260, 10764.00
354.3290, 10758.00
355.5310, 10856.00
356.7330, 10973.00
357.9350, 11162.00
359.1370, 11140.00
360.3390, 11100.00
361.5400, 11047.00
362.7420, 11045.00
363.9430, 11162.00
365.1440, 11310.00
366.3450, 11297.00
367.5460, 11372.53
368.7460, 11446.00
369.9470, 11419.00
371.1470, 11324.00
372.3470, 11364.00
373.5470, 11369.00
374.7460, 11727.00
375.9460, 11921.00
377.1450, 12331.00
378.3450, 12796.00
379.5440, 13326.00
380.7430, 13634.00
381.9410, 13827.00
383.1400, 13866.00
384.3380, 14046.00
385.5370, 14267.67
386.7350, 14395.00
387.9320, 14852.00
389.1300, 15116.00
390.3280, 15609.00
391.5250, 16185.00
392.7220, 16511.00
393.9190, 16283.00
395.1160, 15730.00
396.3130, 15502.00
397.5100, 14687.00
398.7060, 14402.00
399.9020, 14431.00
401.0980, 14746.00
402.2940, 15373.00
403.4900, 16196.00
404.6860, 17428.00
405.8810, 18804.00
407.0760, 19898.00
408.2710, 20643.00
409.4660, 20723.00
410.6610, 20356.00
411.8550, 19662.00
413.0500, 19584.00
414.2440, 19827.00
415.4380, 20162.00
416.6320, 21326.00
417.8260, 22755.00
419.0190, 24362.00
420.2130, 25548.00
421.4060, 25185.00
422.5990, 23252.00
423.7920, 20992.00
424.9850, 18705.00
426.1770, 16943.00
427.3700, 15776.00
428.5620, 14879.00
429.7540, 14403.00
430.9460, 14117.00
432.1380, 14182.00
433.3290, 14245.00
434.5210, 14703.00
435.7120, 14960.00
436.9030, 15495.00
438.0940, 15725.00
439.2850, 15677.00
440.4750, 15705.00
441.6660, 15244.00
442.8560, 14578.00
444.0460, 14092.00
445.2360, 13968.00
446.4260, 13649.00
447.6160, 13662.00
448.8050, 13888.00
449.9940, 14106.00
451.1830, 14247.00
452.3720, 14369.00
453.5610, 14239.00
454.7500, 14351.00
455.9380, 14415.00
457.1260, 14385.00
458.3150, 14447.00
459.5020, 14294.00
460.6900, 13674.00
461.8780, 13213.00
463.0650, 13049.00
464.2530, 12748.00
465.4400, 12633.00
466.6270, 12606.00
467.8130, 12886.00
469.0000, 13010.00
470.1870, 13543.00
471.3730, 13886.00
472.5590, 14575.00
473.7450, 15226.00
474.9310, 16131.00
476.1160, 16796.00
477.3020, 17601.00
478.4870, 18323.00
479.6720, 18804.00
480.8570, 19308.00
482.0420, 20057.00
483.2270, 20661.00
484.4110, 21450.00
485.5960, 22342.00
486.7800, 22715.00
487.9640, 23305.00
489.1480, 23926.00
490.3310, 24220.00
491.5150, 24580.00
492.6980, 24279.00
493.8810, 23122.00
495.0640, 21481.00
496.2470, 19791.00
497.4300, 17847.00
498.6120, 16373.00
499.7950, 15243.00
500.9770, 14368.00
502.1590, 13587.00
503.3410, 13226.00
504.5220, 12902.00
505.7040, 12608.00
506.8850, 12576.00
508.0660, 12485.00
509.2470, 12324.00
510.4280, 12356.00
511.6090, 12568.00
512.7890, 12586.00
513.9700, 12769.00
515.1500, 12964.00
516.3300, 13234.00
517.5100, 13587.00
518.6900, 13986.00
519.8690, 14501.00
521.0490, 15284.00
522.2280, 15947.00
523.4070, 16645.00
524.5860, 17940.00
525.7640, 18596.00
526.9430, 19891.00
528.1210, 21058.00
529.3000, 21929.00
530.4780, 23260.00
531.6560, 24203.00
532.8330, 25104.00
534.0110, 25896.00
535.1880, 26408.00
536.3650, 26412.00
537.5430, 26062.00
538.7190, 25532.00
539.8960, 24633.00
541.0730, 23896.00
542.2490, 22795.00
543.4250, 21893.00
544.6020, 21063.00
545.7780, 20401.00
546.9530, 19639.00
548.1290, 19174.00
549.3040, 18491.00
550.4800, 17848.00
551.6550, 17207.00
552.8300, 16839.00
554.0040, 16283.00
555.1790, 15782.00
556.3540, 15215.00
557.5280, 14777.00
558.7020, 14181.00
559.8760, 13703.00
561.0500, 13278.00
562.2230, 12876.88
563.3970, 12521.00
564.5700, 12276.00
565.7430, 12031.00
566.9160, 11875.00
568.0890, 11809.00
569.2620, 11582.00
570.4340, 11457.00
571.6070, 11229.00
572.7790, 11226.00
573.9510, 11154.00
575.1230, 10971.00
576.2940, 10948.00
577.4660, 10888.00
578.6370, 10913.00
579.8080, 10817.00
580.9790, 10665.00
582.1500, 10627.00
583.3210, 10543.00
584.4910, 10573.00
585.6620, 10508.00
586.8320, 10472.00
588.0020, 10522.00
589.1720, 10501.00
590.3410, 10446.00
591.5110, 10377.00
592.6800, 10399.00
593.8500, 10382.00
595.0190, 10294.00
596.1880, 10223.00
597.3560, 10304.00
598.5250, 10244.00
599.6930, 10244.00
600.8620, 10238.00
602.0300, 10250.00
603.1970, 10162.00
604.3650, 10230.00
605.5330, 10267.00
606.7000, 10245.00
607.8680, 10319.00
609.0350, 10242.00
610.2020, 10405.00
611.3680, 10332.00
612.5350, 10625.00
613.7010, 10522.00
614.8680, 10838.00
616.0340, 11023.00
617.2000, 11402.00
618.3660, 11687.00
619.5310, 12095.00
620.6970, 12232.00
621.8620, 12487.00
623.0270, 12394.00
624.1920, 12139.00
625.3570, 12057.00
626.5220, 11723.00
627.6860, 11501.00
628.8500, 11215.00
630.0140, 11079.00
631.1780, 10934.86
632.3420, 10871.00
633.5060, 10778.00
634.6700, 10772.00
635.8330, 10759.00
636.9960, 10710.04
638.1590, 10652.00
639.3220, 10643.00
640.4850, 10582.00
641.6470, 10522.00
642.8100, 10664.00
643.9720, 10685.00
645.1340, 10851.00
646.2960, 10871.00
647.4570, 10823.00
648.6190, 10901.00
649.7800, 10774.00
650.9420, 10852.00
652.1030, 10914.00
653.2640, 10932.00
654.4240, 11115.00
655.5850, 10970.00
656.7450, 11007.00
657.9060, 11070.00
659.0660, 10924.00
660.2260, 11076.00
661.3850, 11122.00
662.5450, 11139.00
663.7040, 11451.00
664.8640, 11367.00
666.0230, 11578.00
667.1820, 11622.00
668.3410, 11927.00
669.4990, 12067.00
670.6580, 12269.00
671.8160, 12587.00
672.9740, 12912.00
674.1320, 13338.05
675.2900, 13851.00
676.4480, 14345.00
677.6050, 14864.00
678.7630, 15467.00
679.9200, 16068.00
681.0770, 16723.00
682.2340, 17164.00
683.3900, 17582.00
684.5470, 17635.35
685.7030, 17645.00
686.8590, 17298.00
688.0150, 16790.00
689.1710, 16186.00
690.3270, 15629.00
691.4830, 15588.00
692.6380, 15306.00
693.7930, 15661.00
694.9480, 16298.00
696.1030, 16860.00
697.2580, 18023.00
698.4130, 18916.00
699.5670, 20650.00
700.7210, 22323.00
701.8750, 24176.00
703.0290, 26075.00
704.1830, 27896.00
705.3370, 29009.00
706.4900, 29413.00
707.6430, 28986.00
708.7970, 27616.00
709.9490, 25867.00
711.1020, 23722.00
712.2550, 21848.00
713.4070, 20179.00
714.5600, 18716.00
715.7120, 17363.00
716.8640, 16130.00
718.0160, 15271.00
719.1670, 14522.00
720.3190, 14092.00
721.4700, 13480.00
722.6210, 13301.00
723.7720, 13018.00
724.9230, 12616.00
726.0740, 12408.00
727.2250, 12277.00
728.3750, 11920.00
729.5250, 11808.00
730.6750, 11825.00
731.8250, 11728.00
732.9750, 11555.00
734.1240, 11497.00
735.2740, 11443.00
736.4230, 11400.00
737.5720, 11250.00
738.7210, 11226.00
739.8700, 11180.99
741.0190, 11129.00
742.1670, 11118.00
743.3150, 11079.00
744.4630, 11000.00
745.6110, 11071.00
746.7590, 10919.00
747.9070, 11041.00
749.0540, 10931.00
750.2020, 10877.00
751.3490, 10846.00
752.4960, 10890.00
753.6430, 10917.00
754.7890, 10868.00
755.9360, 10894.48
757.0820, 10863.89
758.2280, 10875.00
759.3740, 10843.00
760.5200, 10821.00
761.6660, 10876.00
762.8120, 10915.00
763.9570, 10833.00
765.1020, 10884.00
766.2470, 10825.00
767.3920, 10776.00
768.5370, 10843.00
769.6810, 10767.00
770.8260, 10849.00
771.9700, 11014.00
773.1140, 10996.00
774.2580, 11062.00
775.4020, 11018.00
776.5460, 11206.00
777.6890, 11221.00
778.8320, 11273.00
779.9750, 11323.00
781.1180, 11282.00
782.2610, 11408.00
783.4040, 11442.71
784.5460, 11555.00
785.6890, 11608.00
786.8310, 11682.00
787.9730, 11794.00
789.1150, 11766.00
790.2560, 11817.00
791.3980, 11805.00
792.5390, 11851.91
793.6810, 11833.00
794.8220, 11924.00
795.9630, 12059.00
797.1030, 12045.00
798.2440, 11992.00
799.3840, 11928.00
800.5240, 12041.00
801.6650, 12269.00
802.8040, 12122.00
803.9440, 12188.00
805.0840, 12498.00
806.2230, 12386.00
807.3630, 12324.00
808.5020, 12350.00
809.6410, 12524.00
810.7790, 12580.00
811.9180, 12685.00
813.0570, 12798.00
814.1950, 12802.00
815.3330, 12853.00
816.4710, 12831.00
817.6090, 13081.00
818.7470, 13291.00
819.8840, 13093.00
821.0220, 13380.00
822.1590, 13395.00
823.2960, 13364.00
824.4330, 13345.00
825.5690, 13438.00
826.7060, 13359.00
827.8420, 13379.00
828.9790, 13304.00
830.1150, 13252.00
831.2510, 13247.00
832.3860, 13188.00
833.5220, 13167.00
834.6570, 13173.00
835.7930, 13046.00
836.9280, 13022.33
838.0630, 12850.00
839.1980, 12849.00
840.3320, 12771.00
841.4670, 12602.00
842.6010, 12499.00
843.7350, 12351.00
844.8690, 12140.00
846.0030, 12154.00
847.1370, 11978.00
848.2700, 11766.00
849.4040, 11697.00
850.5370, 11576.00
851.6700, 11499.00
852.8030, 11488.00
853.9360, 11452.00
855.0680, 11443.00
856.2000, 11389.13
857.3330, 11364.00
858.4650, 11335.00
859.5970, 11348.00
860.7290, 11444.00
861.8600, 11456.00
862.9920, 11474.00
864.1230, 11518.00
865.2540, 11467.00
866.3850, 11255.00
867.5160, 11235.00
868.6460, 11265.00
869.7770, 11162.00
870.9070, 11292.00
872.0370, 11206.00
873.1670, 11387.00
874.2970, 11379.00
875.4270, 11370.00
876.5570, 11620.00
877.6860, 11542.00
878.8150, 11633.00
879.9440, 11713.00
881.0730, 11844.00
882.2020, 11915.16
883.3300, 12045.00
884.4590, 12066.00
885.5870, 12171.00
886.7150, 12206.00
887.8430, 11981.00
888.9710, 11797.00
890.0990, 11815.00
891.2260, 11734.00
892.3530, 11600.00
893.4810, 11473.00
894.6080, 11342.00
895.7340, 11431.00
896.8610, 11459.00
897.9880, 11387.00
899.1140, 11439.00
900.2400, 11287.00
901.3660, 11352.00
902.4920, 11293.00
903.6180, 11354.00
904.7430, 11266.00
905.8690, 11403.00
906.9940, 11307.00
908.1190, 11373.00
909.2440, 11326.00
910.3690, 11216.00
911.4930, 11318.00
912.6180, 11370.00
913.7420, 11340.00
914.8660, 11165.00
915.9900, 11179.00
917.1140, 11197.00
918.2380, 11323.00
919.3610, 11318.00
920.4850, 11259.00
921.6080, 11249.00
922.7310, 11237.00
923.8540, 11274.36
924.9760, 11397.00
926.0990, 11424.00
927.2210, 11557.00
928.3440, 11706.00
929.4660, 11703.00
930.5880, 11955.00
931.7090, 12037.00
932.8310, 12317.00
933.9520, 12608.00
935.0740, 12842.00
936.1950, 13082.00
937.3160, 13066.00
938.4360, 13234.00
939.5570, 13152.00
940.6780, 12967.00
941.7980, 12770.00
942.9180, 12708.00
944.0380, 12712.00
945.1580, 12711.00
946.2780, 12561.00
947.3970, 12733.00
948.5170, 12812.00
949.6360, 12852.00
950.7550, 13251.00
951.8740, 13337.00
952.9930, 13643.00
954.1110, 13762.00
955.2300, 13800.00
956.3480, 13891.00
957.4660, 14010.00
958.5840, 13912.00
959.7020, 14055.00
960.8190, 14282.00
961.9370, 14545.00
963.0540, 14921.00
964.1710, 15508.00
965.2880, 15972.00
966.4050, 16671.00
967.5220, 17248.00
968.6380, 17954.00
969.7550, 18340.00
970.8710, 18583.00
971.9870, 18905.00
973.1030, 18673.00
974.2190, 18460.00
975.3340, 18053.00
976.4500, 17958.00
977.5650, 17840.00
978.6800, 17755.00
979.7950, 17454.00
980.9100, 17460.00
982.0250, 17310.00
983.1390, 17141.00
984.2530, 16512.00
985.3680, 15923.00
986.4820, 15392.00
987.5950, 14817.00
988.7090, 14364.00
989.8230, 13877.00
990.9360, 13533.00
992.0490, 13340.00
993.1620, 13233.00
994.2750, 12874.00
995.3880, 12990.00
996.5010, 12801.00
997.6130, 12821.00
998.7250, 12827.00
999.8370, 12824.00
1000.949, 12848.00
1002.061, 13261.00
1003.173, 13319.00
1004.284, 13357.00
1005.396, 13670.00
1006.507, 13785.00
1007.618, 14162.00
1008.729, 14543.00
1009.839, 14814.00
1010.950, 15634.00
1012.060, 15956.00
1013.171, 16376.00
1014.281, 16333.00
1015.391, 16499.00
1016.500, 16387.00
1017.610, 15864.00
1018.719, 15463.00
1019.829, 14843.00
1020.938, 14329.00
1022.047, 13786.00
1023.156, 13326.00
1024.264, 12891.00
1025.373, 12704.00
1026.481, 12370.00
1027.589, 12195.00
1028.697, 12166.00
1029.805, 11970.00
1030.913, 11985.00
1032.020, 11806.00
1033.128, 11782.00
1034.235, 11701.00
1035.342, 11692.00
1036.449, 11699.00
1037.556, 11616.00
1038.663, 11671.00
1039.769, 11577.00
1040.875, 11523.00
1041.981, 11542.00
1043.087, 11516.00
1044.193, 11581.00
1045.299, 11445.00
1046.404, 11660.00
1047.510, 11498.00
1048.615, 11477.00
1049.720, 11583.00
1050.825, 11679.00
1051.930, 11609.00
1053.034, 11635.00
1054.139, 11558.00
1055.243, 11390.00
1056.347, 11536.00
1057.451, 11412.00
1058.555, 11631.00
1059.658, 11479.00
1060.762, 11506.00
1061.865, 11488.00
1062.968, 11625.00
1064.071, 11546.00
1065.174, 11496.00
1066.277, 11466.00
1067.380, 11466.00
1068.482, 11448.00
1069.584, 11552.00
1070.686, 11488.00
1071.788, 11540.00
1072.890, 11503.00
1073.992, 11639.00
1075.093, 11560.00
1076.194, 11637.00
1077.295, 11655.00
1078.396, 11825.00
1079.497, 11706.86
1080.598, 11742.00
1081.698, 11505.00
1082.799, 11704.00
1083.899, 11619.00
1084.999, 11492.00
1086.099, 11638.00
1087.199, 11628.00
1088.298, 11575.00
1089.398, 11582.00
1090.497, 11516.00
1091.596, 11443.00
1092.695, 11600.00
1093.794, 11487.00
1094.892, 11534.00
1095.991, 11449.00
1097.089, 11577.00
1098.187, 11491.00
1099.285, 11421.00
1100.383, 11542.00
1101.481, 11452.00
1102.579, 11416.00
1103.676, 11296.00
1104.773, 11235.00
1105.870, 11400.00
1106.967, 11454.00
1108.064, 11460.00
1109.161, 11510.00
1110.257, 11392.00
1111.353, 11541.00
1112.449, 11276.00
1113.545, 11446.00
1114.641, 11355.00
1115.737, 11499.00
1116.832, 11456.00
1117.928, 11525.00
1119.023, 11536.72
1120.118, 11425.00
1121.213, 11491.00
1122.308, 11491.00
1123.402, 11380.00
1124.497, 11509.00
1125.591, 11552.00
1126.685, 11353.00
1127.779, 11464.00
1128.873, 11437.00
1129.967, 11467.00
1131.060, 11311.00
1132.153, 11311.00
1133.247, 11343.00
1134.340, 11317.00
1135.433, 11436.00
1136.525, 11380.00
1137.618, 11441.00
1138.710, 11319.00
1139.802, 11534.00
1140.895, 11467.00
1141.987, 11375.00
1143.078, 11448.00
1144.170, 11321.00
1145.261, 11455.00
1146.353, 11243.00
1147.444, 11339.00
1148.535, 11281.00
1149.626, 11434.00
1150.716, 11320.00
1151.807, 11345.00
1152.897, 11302.00
1153.988, 11379.00
1155.078, 11422.00
1156.168, 11438.63
1157.257, 11474.37
1158.347, 11504.00
1159.436, 11508.00
1160.526, 11522.00
1161.615, 11552.00
1162.704, 11537.00
1163.793, 11605.00
1164.881, 11585.00
1165.970, 11513.00
1167.058, 11414.00
1168.147, 11522.00
1169.235, 11439.00
1170.323, 11492.00
1171.410, 11467.00
1172.498, 11537.00
1173.585, 11458.00
1174.673, 11450.00
1175.760, 11450.00
1176.847, 11376.00
1177.934, 11458.00
1179.020, 11576.00
1180.107, 11552.00
1181.193, 11580.10
1182.279, 11506.00
1183.365, 11529.00
1184.451, 11576.00
1185.537, 11549.00
1186.623, 11585.00
1187.708, 11510.00
1188.793, 11490.08
1189.878, 11561.00
1190.963, 11421.00
1192.048, 11441.00
1193.133, 11465.77
1194.217, 11712.00
1195.302, 11569.00
1196.386, 11592.00
1197.470, 11467.00
1198.554, 11531.00
1199.638, 11453.00
1200.721, 11575.00
1201.805, 11571.00
1202.888, 11454.00
1203.971, 11581.00
1205.054, 11515.00
1206.137, 11603.00
1207.219, 11533.00
1208.302, 11417.00
1209.384, 11618.00
1210.466, 11504.00
1211.548, 11488.00
1212.630, 11526.00
1213.712, 11505.00
1214.794, 11558.00
1215.875, 11782.00
1216.956, 11432.00
1218.037, 11771.00
1219.118, 11607.00
1220.199, 11571.00
1221.280, 11572.00
1222.360, 11586.00
1223.441, 11594.00
1224.521, 11550.00
1225.601, 11569.96
1226.681, 11579.24
1227.760, 11570.00
1228.840, 11652.00
1229.919, 11658.00
1230.999, 11753.00
1232.078, 11830.00
1233.157, 11603.00
1234.236, 11714.00
1235.314, 11776.00
1236.393, 11733.00
1237.471, 11824.00
1238.549, 11776.00
1239.627, 11726.00
1240.705, 11758.00
1241.783, 11767.00
1242.860, 11738.00
1243.938, 11599.00
1245.015, 11887.00
1246.092, 11941.00
1247.169, 11863.00
1248.246, 11758.00
1249.323, 11844.00
1250.399, 11661.00
1251.475, 11885.00
1252.552, 11875.00
1253.628, 11718.00
1254.703, 11852.00
1255.779, 11879.00
1256.855, 11731.00
1257.930, 11830.00
1259.005, 11903.00
1260.080, 11873.00
1261.155, 11821.00
1262.230, 11915.00
1263.305, 11951.00
1264.379, 11933.00
1265.454, 11927.00
1266.528, 11994.00
1267.602, 11942.00
1268.676, 12025.00
1269.750, 12093.00
1270.823, 12055.00
1271.897, 11854.00
1272.970, 11894.00
1274.043, 11974.00
1275.116, 11884.00
1276.189, 12027.00
1277.261, 12075.00
1278.334, 12080.00
1279.406, 12086.00
1280.478, 12058.00
1281.550, 11924.00
1282.622, 12059.00
1283.694, 11993.00
1284.766, 11847.00
1285.837, 12046.00
1286.908, 12096.00
1287.979, 11934.00
1289.050, 11974.00
1290.121, 11895.00
1291.192, 11959.00
1292.262, 11954.00
1293.333, 11982.00
1294.403, 11934.00
1295.473, 12059.00
1296.543, 11886.00
1297.613, 12088.00
1298.682, 12037.00
1299.752, 11946.00
1300.821, 12099.00
1301.890, 11980.00
1302.959, 12098.00
1304.028, 11973.00
1305.096, 12029.00
1306.165, 12287.00
1307.233, 12077.00
1308.301, 12170.00
1309.370, 12394.00
1310.437, 12309.00
1311.505, 12225.00
1312.573, 12237.00
1313.640, 12126.00
1314.708, 12179.00
1315.775, 12241.00
1316.842, 12172.00
1317.908, 12090.00
