##NAMES=Amesite
##RRUFFID=R070132
##IDEAL CHEMISTRY=Mg_2_Al(AlSiO_5_)(OH)_4_
##LOCALITY=Saranovskii mine, Saranovskaya Village, Gornozavodskii area, Permskaya Oblast', Middle Urals, Russia
##OWNER=RRUFF
##SOURCE=Michael Scott
##DESCRIPTION=Purple transparent hexagonal prisms, polytype 2H2
##STATUS=The identification of this mineral is confirmed by single-crystal X-ray diffraction and chemical analysis.
##URL=rruff.info/R070132
##MEASURED CHEMISTRY=(Mg_1.87_[box]_0.05_Cr_0.05_Fe^2+^_0.03_)_Σ=2_(Al_0.98_Cr_0.02_)_Σ=1_(Si_1.05_Al_0.95_)O_5_(OH)_4_ ; OH estimated by difference
##PIN_ID=M00364
147.4850, 8191.000
148.7160, 8271.000
149.9470, 8125.000
151.1780, 8147.000
152.4080, 8210.000
153.6380, 8174.000
154.8690, 8160.000
156.0980, 8282.000
157.3280, 8278.000
158.5580, 8234.000
159.7870, 8335.000
161.0170, 8380.000
162.2460, 8271.000
163.4750, 8414.000
164.7030, 8511.000
165.9320, 8466.000
167.1600, 8509.000
168.3890, 8646.000
169.6170, 8559.000
170.8450, 8655.000
172.0730, 8605.000
173.3000, 8555.000
174.5280, 8822.000
175.7550, 8841.000
176.9820, 8961.000
178.2090, 9030.000
179.4350, 9142.000
180.6620, 9323.000
181.8880, 9549.000
183.1150, 9742.000
184.3410, 9982.000
185.5670, 10487.00
186.7920, 10813.00
188.0180, 11246.00
189.2430, 11950.00
190.4690, 12706.00
191.6940, 13352.00
192.9180, 14153.00
194.1430, 14908.00
195.3680, 15847.00
196.5920, 16882.00
197.8160, 18031.00
199.0400, 19359.00
200.2640, 20864.00
201.4880, 22652.78
202.7110, 24707.00
203.9350, 26881.00
205.1580, 29416.00
206.3810, 32185.00
207.6040, 35798.00
208.8270, 39824.00
210.0490, 44517.00
211.2710, 49450.00
212.4940, 53322.00
213.7160, 55351.00
214.9370, 54764.00
216.1590, 51312.00
217.3810, 45837.00
218.6020, 39343.00
219.8230, 33197.00
221.0440, 27619.00
222.2650, 23195.00
223.4860, 19797.00
224.7060, 17300.00
225.9260, 15369.00
227.1470, 14152.00
228.3670, 13228.00
229.5860, 12269.00
230.8060, 11973.00
232.0260, 11661.00
233.2450, 11255.00
234.4640, 11165.00
235.6830, 10847.00
236.9020, 10872.00
238.1200, 10777.00
239.3390, 11033.00
240.5570, 11122.00
241.7750, 11035.00
242.9930, 11251.00
244.2110, 11354.00
245.4290, 11347.00
246.6460, 11471.00
247.8630, 11303.00
249.0810, 11243.00
250.2980, 11238.00
251.5140, 11290.00
252.7310, 11561.00
253.9470, 11953.00
255.1640, 12496.00
256.3800, 13082.00
257.5960, 12956.00
258.8120, 12872.00
260.0270, 12347.00
261.2430, 11772.00
262.4580, 11138.00
263.6730, 10758.00
264.8880, 10657.00
266.1030, 10627.00
267.3170, 10576.00
268.5320, 10441.00
269.7460, 10535.00
270.9600, 10579.00
272.1740, 10749.00
273.3880, 10862.00
274.6010, 10814.00
275.8150, 10921.00
277.0280, 10719.00
278.2410, 10751.00
279.4540, 10916.00
280.6670, 10938.00
281.8790, 11188.00
283.0920, 11212.00
284.3040, 11287.00
285.5160, 11472.00
286.7280, 11718.00
287.9400, 11914.00
289.1510, 11771.00
290.3630, 11921.00
291.5740, 11704.00
292.7850, 11165.00
293.9960, 10631.00
295.2070, 10276.00
296.4170, 9890.000
297.6280, 9621.000
298.8380, 9244.000
300.0480, 9330.000
301.2580, 9244.000
302.4680, 9113.000
303.6770, 9001.000
304.8870, 9092.000
306.0960, 9165.000
307.3050, 9250.000
308.5140, 9269.000
309.7230, 9295.000
310.9310, 9395.000
312.1400, 9539.000
313.3480, 9776.000
314.5560, 9959.000
315.7640, 10001.00
316.9720, 9971.000
318.1790, 10022.00
319.3870, 9973.000
320.5940, 10001.00
321.8010, 10259.00
323.0080, 10624.00
324.2150, 10863.00
325.4210, 10923.00
326.6280, 11191.00
327.8340, 11469.00
329.0400, 11719.00
330.2460, 11663.00
331.4510, 11871.00
332.6570, 11879.00
333.8620, 12363.00
335.0680, 13056.00
336.2730, 14019.00
337.4780, 14489.00
338.6820, 14291.00
339.8870, 13700.00
341.0910, 13003.00
342.2950, 12580.00
343.5000, 12236.00
344.7030, 12338.00
345.9070, 12079.00
347.1110, 11951.00
348.3140, 11651.00
349.5170, 11426.00
350.7200, 11144.00
351.9230, 10989.00
353.1260, 10515.00
354.3290, 10458.00
355.5310, 10347.00
356.7330, 10512.00
357.9350, 10319.00
359.1370, 10381.00
360.3390, 10552.00
361.5400, 10484.00
362.7420, 10313.00
363.9430, 10429.00
365.1440, 10356.00
366.3450, 10626.00
367.5460, 10564.00
368.7460, 10515.00
369.9470, 10421.00
371.1470, 10366.00
372.3470, 10482.00
373.5470, 10547.00
374.7460, 10834.00
375.9460, 11187.00
377.1450, 11540.00
378.3450, 12113.00
379.5440, 12433.00
380.7430, 12719.00
381.9410, 12777.00
383.1400, 12685.00
384.3380, 12743.00
385.5370, 12605.00
386.7350, 12938.00
387.9320, 12959.00
389.1300, 12884.00
390.3280, 13196.00
391.5250, 13685.00
392.7220, 13858.00
393.9190, 13587.00
395.1160, 13497.00
396.3130, 12990.00
397.5100, 12870.00
398.7060, 12894.00
399.9020, 13380.00
401.0980, 13846.00
402.2940, 14621.00
403.4900, 16034.00
404.6860, 17292.00
405.8810, 18894.00
407.0760, 20363.00
408.2710, 21447.00
409.4660, 21901.00
410.6610, 22100.00
411.8550, 22775.00
413.0500, 23504.00
414.2440, 24902.00
415.4380, 26965.00
416.6320, 29705.00
417.8260, 32407.00
419.0190, 34779.00
420.2130, 35497.00
421.4060, 34208.00
422.5990, 31289.00
423.7920, 27171.00
424.9850, 23680.00
426.1770, 20548.00
427.3700, 18365.00
428.5620, 16761.00
429.7540, 15741.00
430.9460, 15080.00
432.1380, 14717.00
433.3290, 14620.00
434.5210, 14678.00
435.7120, 14886.00
436.9030, 15296.00
438.0940, 15297.00
439.2850, 15325.00
440.4750, 15122.00
441.6660, 14650.00
442.8560, 14262.00
444.0460, 13800.00
445.2360, 13522.00
446.4260, 13399.00
447.6160, 13483.00
448.8050, 13771.00
449.9940, 13657.00
451.1830, 13650.00
452.3720, 13655.00
453.5610, 13550.00
454.7500, 13480.15
455.9380, 13388.00
457.1260, 13215.00
458.3150, 13033.00
459.5020, 12824.00
460.6900, 12686.00
461.8780, 12461.00
463.0650, 12419.00
464.2530, 12376.00
465.4400, 12489.00
466.6270, 12680.00
467.8130, 13151.00
469.0000, 13663.00
470.1870, 14292.00
471.3730, 15202.00
472.5590, 16213.00
473.7450, 17332.00
474.9310, 18490.00
476.1160, 19610.00
477.3020, 20673.00
478.4870, 21379.00
479.6720, 22150.00
480.8570, 22640.00
482.0420, 23231.00
483.2270, 23904.00
484.4110, 24635.00
485.5960, 25095.00
486.7800, 25416.00
487.9640, 25706.00
489.1480, 26010.00
490.3310, 26488.00
491.5150, 26854.00
492.6980, 26723.00
493.8810, 25622.00
495.0640, 23950.00
496.2470, 21838.00
497.4300, 19595.00
498.6120, 17828.00
499.7950, 16185.00
500.9770, 14885.00
502.1590, 14004.00
503.3410, 13112.00
504.5220, 12793.00
505.7040, 12465.00
506.8850, 12024.00
508.0660, 11909.00
509.2470, 11749.00
510.4280, 11734.00
511.6090, 11704.00
512.7890, 11923.00
513.9700, 11849.00
515.1500, 12045.00
516.3300, 12424.00
517.5100, 12345.00
518.6900, 12550.00
519.8690, 12809.00
521.0490, 13126.00
522.2280, 13871.00
523.4070, 14148.00
524.5860, 14704.00
525.7640, 15762.00
526.9430, 16267.00
528.1210, 17293.00
529.3000, 18129.00
530.4780, 18865.00
531.6560, 19776.00
532.8330, 20539.00
534.0110, 21286.00
535.1880, 21648.00
536.3650, 21446.00
537.5430, 21332.00
538.7190, 20948.00
539.8960, 20261.00
541.0730, 19566.00
542.2490, 18826.00
543.4250, 18100.00
544.6020, 17597.00
545.7780, 16903.00
546.9530, 16393.00
548.1290, 15728.00
549.3040, 15400.00
550.4800, 14818.00
551.6550, 14351.00
552.8300, 13969.00
554.0040, 13616.00
555.1790, 13248.00
556.3540, 12812.00
557.5280, 12535.00
558.7020, 12104.00
559.8760, 11868.00
561.0500, 11719.00
562.2230, 11271.00
563.3970, 11131.00
564.5700, 10905.00
565.7430, 10898.00
566.9160, 10779.00
568.0890, 10561.00
569.2620, 10406.00
570.4340, 10368.00
571.6070, 10286.00
572.7790, 10162.00
573.9510, 10082.00
575.1230, 10112.00
576.2940, 10003.00
577.4660, 10002.00
578.6370, 9887.000
579.8080, 9940.000
580.9790, 9900.000
582.1500, 9799.000
583.3210, 9738.000
584.4910, 9864.000
585.6620, 9740.000
586.8320, 10017.00
588.0020, 9733.000
589.1720, 9795.000
590.3410, 9797.000
591.5110, 9692.000
592.6800, 9579.000
593.8500, 9673.000
595.0190, 9604.000
596.1880, 9614.000
597.3560, 9671.000
598.5250, 9690.000
599.6930, 9546.000
600.8620, 9711.000
602.0300, 9483.000
603.1970, 9500.000
604.3650, 9617.000
605.5330, 9539.000
606.7000, 9678.000
607.8680, 9709.000
609.0350, 9688.000
610.2020, 9769.000
611.3680, 9871.090
612.5350, 9970.219
613.7010, 10188.00
614.8680, 10306.00
616.0340, 10550.00
617.2000, 10832.00
618.3660, 11291.00
619.5310, 11692.00
620.6970, 12091.00
621.8620, 12298.00
623.0270, 12247.00
624.1920, 11985.00
625.3570, 11729.00
626.5220, 11495.00
627.6860, 11162.00
628.8500, 10986.00
630.0140, 10746.00
631.1780, 10456.00
632.3420, 10520.00
633.5060, 10250.00
634.6700, 10119.00
635.8330, 10106.00
636.9960, 10081.00
638.1590, 10050.00
639.3220, 10032.17
640.4850, 10020.00
641.6470, 10054.00
642.8100, 10046.00
643.9720, 10204.00
645.1340, 10261.00
646.2960, 10237.00
647.4570, 10187.00
648.6190, 10275.00
649.7800, 10317.00
650.9420, 10327.00
652.1030, 10261.00
653.2640, 10398.00
654.4240, 10387.00
655.5850, 10307.00
656.7450, 10382.00
657.9060, 10373.00
659.0660, 10461.00
660.2260, 10495.00
661.3850, 10503.00
662.5450, 10582.00
663.7040, 10642.00
664.8640, 10793.00
666.0230, 11014.00
667.1820, 11050.00
668.3410, 11047.00
669.4990, 11451.00
670.6580, 11658.00
671.8160, 12133.00
672.9740, 12425.00
674.1320, 12791.00
675.2900, 13349.00
676.4480, 13819.00
677.6050, 14464.00
678.7630, 14969.00
679.9200, 15953.00
681.0770, 16593.00
682.2340, 17035.00
683.3900, 17436.00
684.5470, 17552.00
685.7030, 17463.00
686.8590, 16988.00
688.0150, 16600.00
689.1710, 15985.00
690.3270, 15587.00
691.4830, 15223.00
692.6380, 15176.00
693.7930, 15162.00
694.9480, 15571.00
696.1030, 16242.00
697.2580, 16972.00
698.4130, 18620.00
699.5670, 20285.00
700.7210, 22075.00
701.8750, 23122.00
703.0290, 24201.00
704.1830, 25724.00
705.3370, 26279.00
706.4900, 26555.00
707.6430, 25876.00
708.7970, 24598.00
709.9490, 23216.00
711.1020, 21320.00
712.2550, 19739.00
713.4070, 18073.00
714.5600, 16797.00
715.7120, 15668.00
716.8640, 14781.00
718.0160, 13941.00
719.1670, 13412.00
720.3190, 12815.00
721.4700, 12457.00
722.6210, 12132.00
723.7720, 11893.00
724.9230, 11602.00
726.0740, 11526.00
727.2250, 11348.00
728.3750, 11243.00
729.5250, 11105.00
730.6750, 10958.00
731.8250, 10831.00
732.9750, 10821.00
734.1240, 10768.00
735.2740, 10584.00
736.4230, 10645.00
737.5720, 10591.00
738.7210, 10512.00
739.8700, 10507.00
741.0190, 10455.46
742.1670, 10379.00
743.3150, 10403.00
744.4630, 10307.00
745.6110, 10287.00
746.7590, 10279.00
747.9070, 10246.00
749.0540, 10303.00
750.2020, 10290.00
751.3490, 10292.68
752.4960, 10239.00
753.6430, 10286.00
754.7890, 10241.00
755.9360, 10220.00
757.0820, 10219.00
758.2280, 10216.55
759.3740, 10234.00
760.5200, 10255.00
761.6660, 10270.00
762.8120, 10306.00
763.9570, 10215.00
765.1020, 10278.00
766.2470, 10252.00
767.3920, 10319.00
768.5370, 10270.00
769.6810, 10146.00
770.8260, 10382.00
771.9700, 10260.96
773.1140, 10438.00
774.2580, 10325.00
775.4020, 10390.00
776.5460, 10619.00
777.6890, 10610.00
778.8320, 10584.00
779.9750, 10769.00
781.1180, 10812.00
782.2610, 10879.00
783.4040, 10854.00
784.5460, 10881.00
785.6890, 11103.00
786.8310, 11147.00
787.9730, 11287.00
789.1150, 11224.00
790.2560, 11171.00
791.3980, 11411.00
792.5390, 11387.00
793.6810, 11363.00
794.8220, 11193.00
795.9630, 11197.00
797.1030, 11272.00
798.2440, 11325.00
799.3840, 11346.00
800.5240, 11274.00
801.6650, 11325.00
802.8040, 11551.00
803.9440, 11569.00
805.0840, 11736.00
806.2230, 11879.00
807.3630, 11964.00
808.5020, 12069.36
809.6410, 12032.00
810.7790, 12217.00
811.9180, 12237.00
813.0570, 12318.00
814.1950, 12238.00
815.3330, 12396.00
816.4710, 12414.00
817.6090, 12461.00
818.7470, 12533.00
819.8840, 12763.00
821.0220, 12743.00
822.1590, 12938.00
823.2960, 12583.00
824.4330, 12492.00
825.5690, 12473.00
826.7060, 12427.00
827.8420, 12335.18
828.9790, 12255.28
830.1150, 12133.00
831.2510, 12062.00
832.3860, 11902.00
833.5220, 11859.00
834.6570, 11747.00
835.7930, 11522.00
836.9280, 11672.00
838.0630, 11499.00
839.1980, 11330.00
840.3320, 11327.00
841.4670, 11209.00
842.6010, 11175.00
843.7350, 11089.00
844.8690, 10968.00
846.0030, 10940.00
847.1370, 10817.00
848.2700, 10842.00
849.4040, 10823.00
850.5370, 10856.00
851.6700, 10810.19
852.8030, 10752.00
853.9360, 10727.00
855.0680, 10749.00
856.2000, 10726.00
857.3330, 10701.00
858.4650, 10820.00
859.5970, 10812.00
860.7290, 10685.00
861.8600, 10634.00
862.9920, 10808.00
864.1230, 10620.00
865.2540, 10836.00
866.3850, 10739.00
867.5160, 10744.00
868.6460, 10727.00
869.7770, 10569.00
870.9070, 10728.00
872.0370, 10652.00
873.1670, 10777.00
874.2970, 10726.00
875.4270, 10763.00
876.5570, 10793.00
877.6860, 10888.00
878.8150, 11049.00
879.9440, 11274.00
881.0730, 11454.00
882.2020, 11459.00
883.3300, 11583.00
884.4590, 11593.00
885.5870, 11486.00
886.7150, 11623.00
887.8430, 11487.00
888.9710, 11349.00
890.0990, 11340.00
891.2260, 11089.00
892.3530, 11159.00
893.4810, 10904.00
894.6080, 10818.00
895.7340, 10826.00
896.8610, 10860.00
897.9880, 10901.00
899.1140, 10642.00
900.2400, 10628.00
901.3660, 10642.00
902.4920, 10819.00
903.6180, 10676.00
904.7430, 10677.00
905.8690, 10713.00
906.9940, 10603.00
908.1190, 10754.00
909.2440, 10667.00
910.3690, 10707.00
911.4930, 10620.00
912.6180, 10577.00
913.7420, 10573.00
914.8660, 10519.47
915.9900, 10557.00
917.1140, 10500.00
918.2380, 10511.00
919.3610, 10573.00
920.4850, 10512.00
921.6080, 10493.00
922.7310, 10611.00
923.8540, 10557.00
924.9760, 10640.00
926.0990, 10842.00
927.2210, 10786.00
928.3440, 10846.00
929.4660, 11018.00
930.5880, 11143.00
931.7090, 11352.00
932.8310, 11318.00
933.9520, 11543.00
935.0740, 11974.00
936.1950, 11963.00
937.3160, 12042.00
938.4360, 12372.00
939.5570, 12200.00
940.6780, 12143.00
941.7980, 11930.00
942.9180, 11875.00
944.0380, 11861.00
945.1580, 11943.00
946.2780, 11843.00
947.3970, 11866.00
948.5170, 12015.00
949.6360, 12155.00
950.7550, 12471.00
951.8740, 12673.00
952.9930, 12810.00
954.1110, 13028.00
955.2300, 13023.00
956.3480, 12958.00
957.4660, 12907.00
958.5840, 12958.00
959.7020, 13001.00
960.8190, 13121.00
961.9370, 13112.00
963.0540, 13466.00
964.1710, 13747.00
965.2880, 14324.00
966.4050, 14907.00
967.5220, 15613.00
968.6380, 16148.00
969.7550, 16729.00
970.8710, 17006.00
971.9870, 17035.00
973.1030, 17040.00
974.2190, 17194.00
975.3340, 17070.00
976.4500, 17248.00
977.5650, 17461.00
978.6800, 17554.00
979.7950, 17955.00
980.9100, 18080.00
982.0250, 17953.00
983.1390, 17742.00
984.2530, 17115.00
985.3680, 16398.00
986.4820, 15670.00
987.5950, 15073.00
988.7090, 14465.65
989.8230, 13956.79
990.9360, 13443.00
992.0490, 13102.00
993.1620, 12762.00
994.2750, 12475.00
995.3880, 12422.00
996.5010, 12264.00
997.6130, 12296.00
998.7250, 12254.00
999.8370, 12355.00
1000.949, 12479.00
1002.061, 12716.00
1003.173, 12999.00
1004.284, 13082.00
1005.396, 13254.00
1006.507, 13606.00
1007.618, 13814.00
1008.729, 14276.00
1009.839, 15010.00
1010.950, 15374.00
1012.060, 16032.00
1013.171, 16292.00
1014.281, 16352.00
1015.391, 16220.00
1016.500, 16173.00
1017.610, 15418.00
1018.719, 15047.00
1019.829, 14474.00
1020.938, 13857.00
1022.047, 13166.00
1023.156, 12779.00
1024.264, 12389.00
1025.373, 11956.00
1026.481, 11820.00
1027.589, 11570.00
1028.697, 11290.00
1029.805, 11281.00
1030.913, 11176.00
1032.020, 11177.00
1033.128, 11184.00
1034.235, 11147.00
1035.342, 11138.12
1036.449, 11053.00
1037.556, 11037.00
1038.663, 10968.00
1039.769, 10805.00
1040.875, 10898.00
1041.981, 10856.00
1043.087, 10946.00
1044.193, 10925.00
1045.299, 10876.98
1046.404, 10864.00
1047.510, 10833.81
1048.615, 10825.71
1049.720, 10803.41
1050.825, 10820.00
1051.930, 10768.00
1053.034, 10758.00
1054.139, 10746.00
1055.243, 10791.00
1056.347, 10730.00
1057.451, 10682.00
1058.555, 10776.00
1059.658, 10635.00
1060.762, 10750.00
1061.865, 10832.00
1062.968, 10753.00
1064.071, 10737.00
1065.174, 10620.00
1066.277, 10752.00
1067.380, 10683.00
1068.482, 10815.00
1069.584, 10796.00
1070.686, 10789.00
1071.788, 10706.00
1072.890, 10840.00
1073.992, 10758.00
1075.093, 10648.00
1076.194, 10728.00
1077.295, 10830.00
1078.396, 10815.00
1079.497, 10879.00
1080.598, 10986.00
1081.698, 10797.00
1082.799, 10756.00
1083.899, 10788.00
1084.999, 10844.00
1086.099, 10892.00
1087.199, 10816.00
1088.298, 10750.00
1089.398, 10651.00
1090.497, 10884.00
1091.596, 10670.00
1092.695, 10670.00
1093.794, 10755.00
1094.892, 10643.00
1095.991, 10534.00
1097.089, 10622.00
1098.187, 10617.00
1099.285, 10637.00
1100.383, 10681.00
1101.481, 10615.00
1102.579, 10620.00
1103.676, 10546.00
1104.773, 10622.00
1105.870, 10516.00
1106.967, 10685.00
1108.064, 10687.00
1109.161, 10701.00
1110.257, 10594.00
1111.353, 10669.00
1112.449, 10665.00
1113.545, 10542.00
1114.641, 10566.00
1115.737, 10713.00
1116.832, 10644.00
1117.928, 10664.00
1119.023, 10520.00
1120.118, 10798.00
1121.213, 10587.00
1122.308, 10593.00
1123.402, 10761.00
1124.497, 10756.00
1125.591, 10559.00
1126.685, 10627.00
1127.779, 10490.00
1128.873, 10609.00
1129.967, 10655.00
1131.060, 10617.00
1132.153, 10741.00
1133.247, 10576.00
1134.340, 10714.00
1135.433, 10511.00
1136.525, 10645.00
1137.618, 10559.00
1138.710, 10506.00
1139.802, 10504.00
1140.895, 10630.00
1141.987, 10607.00
1143.078, 10701.00
1144.170, 10559.00
1145.261, 10702.00
1146.353, 10647.00
1147.444, 10533.00
1148.535, 10618.00
1149.626, 10606.00
1150.716, 10504.00
1151.807, 10672.00
1152.897, 10543.00
1153.988, 10646.00
1155.078, 10686.00
1156.168, 10551.00
1157.257, 10742.00
1158.347, 10658.00
1159.436, 10570.00
1160.526, 10708.00
1161.615, 10685.00
1162.704, 10763.00
1163.793, 10785.00
1164.881, 10802.52
1165.970, 10604.00
1167.058, 10807.00
1168.147, 10710.00
1169.235, 10614.00
1170.323, 10773.00
1171.410, 10684.00
1172.498, 10724.00
1173.585, 10772.00
1174.673, 10600.00
1175.760, 10749.00
1176.847, 10825.00
1177.934, 10756.00
1179.020, 10752.00
1180.107, 10728.00
1181.193, 10693.00
1182.279, 10830.00
1183.365, 10628.00
1184.451, 10827.00
1185.537, 10723.00
1186.623, 10707.00
1187.708, 10771.00
1188.793, 10860.00
1189.878, 10799.00
1190.963, 10754.00
1192.048, 10738.00
1193.133, 10782.00
1194.217, 10660.00
1195.302, 10728.00
1196.386, 10731.00
1197.470, 10836.00
1198.554, 10759.00
1199.638, 10770.00
1200.721, 10751.00
1201.805, 10842.00
1202.888, 10810.00
1203.971, 10882.00
1205.054, 10840.00
1206.137, 10872.00
1207.219, 10795.00
1208.302, 10718.00
1209.384, 10726.00
1210.466, 10755.00
1211.548, 10818.00
1212.630, 10781.00
1213.712, 10749.00
1214.794, 10903.00
1215.875, 10845.00
1216.956, 10859.00
1218.037, 10919.00
1219.118, 10889.00
1220.199, 10835.00
1221.280, 10812.00
1222.360, 10860.00
1223.441, 10924.00
1224.521, 10909.00
1225.601, 10909.00
1226.681, 10886.00
1227.760, 10910.00
1228.840, 11035.00
1229.919, 10902.00
1230.999, 10886.00
1232.078, 11090.00
1233.157, 10835.00
1234.236, 11041.00
1235.314, 10997.00
1236.393, 11041.00
1237.471, 11030.00
1238.549, 10913.00
1239.627, 10975.00
1240.705, 10976.00
1241.783, 11008.00
1242.860, 11074.00
1243.938, 11070.35
1245.015, 11070.00
1246.092, 11097.00
1247.169, 11121.00
1248.246, 11129.00
1249.323, 11147.00
1250.399, 11107.00
1251.475, 11164.00
1252.552, 11033.00
1253.628, 11125.00
1254.703, 11284.00
1255.779, 11141.00
1256.855, 11268.00
1257.930, 11112.00
1259.005, 11181.00
1260.080, 11176.00
1261.155, 11210.00
1262.230, 11134.00
1263.305, 11173.00
1264.379, 11189.00
1265.454, 11193.22
1266.528, 11330.00
1267.602, 11253.00
1268.676, 11283.00
1269.750, 11314.00
1270.823, 11437.00
1271.897, 11327.00
1272.970, 11191.00
1274.043, 11280.00
1275.116, 11246.00
1276.189, 11417.00
1277.261, 11337.00
1278.334, 11269.00
1279.406, 11276.00
1280.478, 11347.00
1281.550, 11301.00
1282.622, 11426.00
1283.694, 11308.00
1284.766, 11223.00
1285.837, 11152.00
1286.908, 11357.00
1287.979, 11300.00
1289.050, 11264.00
1290.121, 11309.00
1291.192, 11271.00
1292.262, 11311.00
1293.333, 11222.00
1294.403, 11173.00
1295.473, 11394.00
1296.543, 11330.00
1297.613, 11382.00
1298.682, 11349.00
1299.752, 11308.00
1300.821, 11398.00
1301.890, 11453.00
1302.959, 11367.00
1304.028, 11462.00
1305.096, 11328.00
1306.165, 11590.00
1307.233, 11400.00
1308.301, 11534.00
1309.370, 11675.00
1310.437, 11552.00
1311.505, 11648.00
1312.573, 11499.00
1313.640, 11449.00
1314.708, 11489.00
1315.775, 11544.00
1316.842, 11535.00
1317.908, 11602.00
