##NAMES=Analcime
##RRUFFID=R040128
##IDEAL CHEMISTRY=NaAlSi_2_O_6_&#183;H_2_O
##LOCALITY=Mont Saint-Hilaire, Rouville County, Quebec, Canada
##OWNER=RRUFF
##SOURCE=Bob Downs
##DESCRIPTION=White trapezohedra associated with black arfvedsonite, R040127
##STATUS=The identification of this mineral has been confirmed by X-ray diffraction and chemical analysis
##URL=rruff.info/R040128
##MEASURED CHEMISTRY=Na_0.93_(Si_2.04_Al_0.99_)O_6_Â·H_2_O
##PIN_ID=L00925
##ORIENTATION=Laser parallel to c* (0 0 1). Fiducial mark perpendicular to laser is parallel to a [1 0 0]
62.89900, 631.0000
64.14700, 606.0000
65.39500, 608.0000
66.64300, 611.0000
67.89000, 600.0000
69.13800, 590.0000
70.38500, 654.0000
71.63200, 666.0000
72.87900, 690.0000
74.12500, 670.0000
75.37200, 718.0000
76.61800, 753.0000
77.86400, 743.0000
79.10900, 786.0000
80.35500, 868.0000
81.60000, 982.0000
82.84600, 1072.000
84.09100, 1199.000
85.33500, 1300.000
86.58000, 1602.000
87.82400, 1808.000
89.06900, 2182.000
90.31300, 2604.000
91.55600, 3085.000
92.80000, 3570.000
94.04300, 4200.000
95.28700, 4828.000
96.53000, 5514.000
97.77300, 6358.000
99.01500, 7303.000
100.2580, 8201.000
101.5000, 9190.000
102.7420, 10366.00
103.9840, 11294.00
105.2260, 12426.00
106.4670, 13363.00
107.7080, 14267.56
108.9490, 15343.00
110.1900, 15930.00
111.4310, 16728.00
112.6720, 17380.00
113.9120, 17902.00
115.1520, 18690.00
116.3920, 19258.00
117.6320, 20015.00
118.8710, 20246.00
120.1110, 20228.00
121.3500, 20694.00
122.5890, 20850.00
123.8270, 21094.00
125.0660, 21203.00
126.3040, 21436.00
127.5430, 21611.33
128.7810, 21650.00
130.0180, 21980.00
131.2560, 22009.00
132.4940, 22179.00
133.7310, 22459.00
134.9680, 22487.00
136.2050, 22448.00
137.4410, 22726.00
138.6780, 22823.00
139.9140, 23036.00
141.1500, 22954.00
142.3860, 22875.00
143.6220, 22695.00
144.8570, 22389.00
146.0920, 22147.20
147.3280, 21803.00
148.5620, 21501.00
149.7970, 21111.00
151.0320, 20812.00
152.2660, 20418.00
153.5000, 20220.00
154.7340, 19849.00
155.9680, 19591.00
157.2020, 19313.87
158.4350, 19014.00
159.6680, 18764.00
160.9010, 18454.00
162.1340, 18203.00
163.3670, 17974.00
164.5990, 18074.00
165.8310, 17789.00
167.0630, 17763.00
168.2950, 17666.00
169.5270, 17419.00
170.7580, 17364.00
171.9900, 17427.00
173.2210, 17433.00
174.4510, 17163.00
175.6820, 17371.00
176.9130, 17233.00
178.1430, 17021.00
179.3730, 17097.00
180.6030, 17159.00
181.8330, 16972.00
183.0620, 17136.00
184.2920, 17189.00
185.5210, 17091.00
186.7500, 17126.00
187.9790, 17084.00
189.2070, 17210.00
190.4360, 17203.00
191.6640, 17456.00
192.8920, 17187.00
194.1200, 17246.00
195.3480, 17291.00
196.5750, 17146.00
197.8020, 17077.00
199.0290, 17010.00
200.2560, 16993.00
201.4830, 17001.00
202.7090, 16900.55
203.9360, 16872.00
205.1620, 16730.00
206.3880, 16691.00
207.6140, 16608.84
208.8390, 16731.00
210.0650, 16654.00
211.2900, 16755.00
212.5150, 16863.00
213.7400, 16647.00
214.9640, 16672.00
216.1890, 16573.00
217.4130, 16594.00
218.6370, 16749.00
219.8610, 16580.00
221.0850, 16726.00
222.3080, 16721.00
223.5310, 16396.00
224.7540, 16445.00
225.9770, 16641.00
227.2000, 16496.00
228.4230, 16516.00
229.6450, 16500.00
230.8670, 16445.00
232.0890, 16412.79
233.3110, 16332.00
234.5320, 16277.00
235.7540, 16248.07
236.9750, 16152.00
238.1960, 16169.00
239.4170, 15973.00
240.6380, 15795.00
241.8580, 15836.00
243.0780, 15794.00
244.2990, 15670.00
245.5180, 15663.00
246.7380, 15615.00
247.9580, 15469.00
249.1770, 15522.00
250.3960, 15403.00
251.6150, 15472.00
252.8340, 15495.00
254.0530, 15380.00
255.2710, 15436.00
256.4890, 15353.00
257.7070, 15362.00
258.9250, 15430.00
260.1430, 15450.66
261.3600, 15498.00
262.5770, 15584.00
263.7950, 15593.00
265.0110, 15620.00
266.2280, 15749.00
267.4450, 15661.00
268.6610, 15797.00
269.8770, 15704.00
271.0930, 15705.00
272.3090, 15648.00
273.5250, 15665.32
274.7400, 15674.88
275.9550, 15693.00
277.1700, 15713.00
278.3850, 15751.07
279.6000, 15642.00
280.8140, 15816.00
282.0290, 15820.00
283.2430, 15799.00
284.4570, 15967.00
285.6700, 16167.00
286.8840, 16505.00
288.0970, 16858.00
289.3100, 17292.00
290.5230, 18199.00
291.7360, 18708.00
292.9490, 19512.00
294.1610, 20190.00
295.3740, 20972.00
296.5860, 21647.00
297.7970, 22005.00
299.0090, 22307.00
300.2210, 22192.00
301.4320, 21626.00
302.6430, 21115.00
303.8540, 20491.00
305.0650, 19784.00
306.2750, 19355.00
307.4860, 18686.00
308.6960, 18171.00
309.9060, 17978.00
311.1160, 17534.00
312.3260, 17362.00
313.5350, 17369.00
314.7440, 17345.00
315.9530, 17298.00
317.1620, 16942.00
318.3710, 16842.00
319.5800, 17010.00
320.7880, 16806.00
321.9960, 16999.00
323.2040, 16774.00
324.4120, 17094.00
325.6200, 17106.00
326.8270, 17064.00
328.0340, 17110.00
329.2410, 17194.00
330.4480, 17312.00
331.6550, 17322.26
332.8610, 17353.00
334.0680, 17357.00
335.2740, 17542.00
336.4800, 17535.00
337.6860, 17530.00
338.8910, 17774.00
340.0970, 17936.00
341.3020, 18086.00
342.5070, 18313.00
343.7120, 18377.00
344.9170, 18503.00
346.1210, 18561.00
347.3250, 18872.00
348.5290, 18891.00
349.7330, 18822.00
350.9370, 18850.00
352.1410, 19331.00
353.3440, 19410.00
354.5470, 19602.00
355.7500, 19679.00
356.9530, 19952.00
358.1560, 20040.00
359.3580, 20092.00
360.5610, 20198.00
361.7630, 20415.11
362.9650, 20608.39
364.1660, 20981.00
365.3680, 21189.00
366.5690, 21627.00
367.7710, 22047.00
368.9720, 22188.00
370.1720, 22622.81
371.3730, 22910.00
372.5740, 23259.00
373.7740, 23610.00
374.9740, 23890.00
376.1740, 24165.00
377.3740, 24706.00
378.5730, 24896.00
379.7730, 25256.97
380.9720, 25663.00
382.1710, 25832.00
383.3700, 26105.00
384.5680, 26350.00
385.7670, 26371.00
386.9650, 26523.00
388.1630, 26740.00
389.3610, 26701.00
390.5590, 26679.00
391.7560, 26592.00
392.9540, 26670.00
394.1510, 26689.00
395.3480, 26401.00
396.5450, 26061.00
397.7420, 25770.00
398.9380, 25569.00
400.1340, 25397.00
401.3300, 24935.00
402.5260, 24552.00
403.7220, 24086.00
404.9180, 23735.00
406.1130, 23238.00
407.3080, 22885.00
408.5030, 22587.00
409.6980, 22144.00
410.8930, 21823.00
412.0870, 21382.00
413.2820, 21087.81
414.4760, 20782.00
415.6700, 20523.00
416.8630, 20258.00
418.0570, 20030.00
419.2500, 19931.00
420.4440, 19734.49
421.6370, 19587.97
422.8290, 19506.00
424.0220, 19353.00
425.2150, 19315.00
426.4070, 19327.00
427.5990, 19291.00
428.7910, 19324.35
429.9830, 19352.08
431.1740, 19400.00
432.3660, 19434.00
433.5570, 19484.00
434.7480, 19582.67
435.9390, 19766.00
437.1300, 19841.00
438.3200, 20030.00
439.5110, 20256.00
440.7010, 20263.00
441.8910, 20519.00
443.0810, 20606.00
444.2700, 20925.00
445.4600, 21192.00
446.6490, 21238.00
447.8380, 21651.00
449.0270, 21930.00
450.2160, 22180.00
451.4040, 22730.00
452.5930, 23131.00
453.7810, 23720.32
454.9690, 24316.00
456.1570, 25102.00
457.3440, 26000.00
458.5320, 26934.00
459.7190, 27992.00
460.9060, 29457.00
462.0930, 30865.00
463.2800, 32818.00
464.4660, 34748.00
465.6530, 37085.00
466.8390, 40235.00
468.0250, 43518.00
469.2110, 47335.00
470.3970, 51865.00
471.5820, 57126.50
472.7680, 62800.00
473.9530, 69632.00
475.1380, 76874.00
476.3230, 84811.00
477.5070, 92710.00
478.6920, 100453.0
479.8760, 107459.0
481.0600, 112997.0
482.2440, 116511.0
483.4280, 117871.0
484.6110, 116383.0
485.7950, 112477.0
486.9780, 107576.0
488.1610, 100208.0
489.3440, 92325.00
490.5260, 83778.00
491.7090, 76712.00
492.8910, 69504.00
494.0730, 63011.00
495.2550, 57384.00
496.4370, 52671.00
497.6190, 48238.00
498.8000, 44228.00
499.9810, 41198.00
501.1620, 38449.00
502.3430, 36265.00
503.5240, 34017.00
504.7050, 32391.00
505.8850, 30748.00
507.0650, 29364.00
508.2450, 28174.00
509.4250, 27275.00
510.6050, 26206.00
511.7840, 25347.00
512.9630, 24578.00
514.1430, 24035.00
515.3220, 23793.00
516.5000, 22920.00
517.6790, 22515.00
518.8570, 21942.00
520.0360, 21516.00
521.2140, 21220.12
522.3920, 21026.00
523.5690, 20753.00
524.7470, 20503.00
525.9240, 20394.00
527.1010, 20125.00
528.2780, 20055.00
529.4550, 19733.00
530.6320, 19505.00
531.8080, 19326.00
532.9850, 19090.00
534.1610, 19127.00
535.3370, 18951.00
536.5130, 18816.00
537.6880, 18744.00
538.8640, 18582.00
540.0390, 18488.00
541.2140, 18336.00
542.3890, 18207.38
543.5640, 18213.00
544.7380, 18012.00
545.9130, 17983.00
547.0870, 18040.00
548.2610, 17854.00
549.4350, 17760.00
550.6090, 17752.00
551.7820, 17636.00
552.9550, 17641.00
554.1290, 17509.00
555.3020, 17535.00
556.4740, 17417.00
557.6470, 17474.00
558.8200, 17306.00
559.9920, 17334.00
561.1640, 17357.00
562.3360, 17259.00
563.5080, 17267.00
564.6790, 17154.00
565.8510, 17068.00
567.0220, 17172.00
568.1930, 17218.00
569.3640, 17103.00
570.5350, 17171.58
571.7050, 17075.00
572.8760, 17148.00
574.0460, 17049.00
575.2160, 17011.00
576.3860, 17127.00
577.5550, 17179.00
578.7250, 17125.00
579.8940, 17148.00
581.0630, 17167.51
582.2320, 17184.84
583.4010, 17230.00
584.5700, 17253.00
585.7380, 17324.00
586.9070, 17331.00
588.0750, 17354.00
589.2430, 17485.00
590.4110, 17518.00
591.5780, 17610.00
592.7460, 17586.00
593.9130, 17704.00
595.0800, 17742.00
596.2470, 17776.00
597.4140, 17807.00
598.5800, 17901.00
599.7470, 18020.00
600.9130, 18115.00
602.0790, 18135.00
603.2450, 18193.92
604.4100, 18382.00
605.5760, 18247.00
606.7410, 18378.00
607.9070, 18448.00
609.0720, 18370.00
610.2360, 18482.00
611.4010, 18450.00
612.5660, 18513.00
613.7300, 18552.00
614.8940, 18783.00
616.0580, 18630.00
617.2220, 18544.00
618.3860, 18292.00
619.5490, 18587.00
620.7120, 18445.00
621.8750, 18619.00
623.0380, 18403.00
624.2010, 18489.00
625.3640, 18353.00
626.5260, 18155.00
627.6880, 18253.00
628.8510, 18417.00
630.0120, 18204.00
631.1740, 18387.00
632.3360, 18371.00
633.4970, 18412.00
634.6580, 18401.00
635.8200, 18280.00
636.9800, 18279.00
638.1410, 18477.00
639.3020, 18347.00
640.4620, 18513.00
641.6220, 18394.00
642.7820, 18287.00
643.9420, 18340.00
645.1020, 18072.00
646.2610, 18226.00
647.4210, 18056.00
648.5800, 18045.00
649.7390, 18067.00
650.8980, 18216.00
652.0570, 18207.00
653.2150, 18052.00
654.3730, 18149.00
655.5320, 17960.00
656.6900, 18249.00
657.8470, 18143.00
659.0050, 18286.00
660.1620, 18241.00
661.3200, 18221.00
662.4770, 18285.00
663.6340, 18320.00
664.7910, 18358.00
665.9470, 18412.00
667.1040, 18513.00
668.2600, 18510.00
669.4160, 18460.00
670.5720, 18768.00
671.7280, 18512.00
672.8840, 18694.00
674.0390, 18787.00
675.1940, 18689.00
676.3490, 18679.00
677.5040, 18488.00
678.6590, 18465.00
679.8140, 18368.00
680.9680, 18312.00
682.1220, 18382.00
683.2760, 18195.00
684.4300, 18242.00
685.5840, 17981.00
686.7380, 17894.00
687.8910, 17754.00
689.0440, 17916.00
690.1970, 17651.00
691.3500, 17708.00
692.5030, 17666.00
693.6560, 17523.00
694.8080, 17446.00
695.9600, 17331.00
697.1120, 17395.00
698.2640, 17415.00
699.4160, 17416.00
700.5670, 17519.00
701.7190, 17496.55
702.8700, 17508.92
704.0210, 17494.00
705.1720, 17517.00
706.3230, 17486.00
707.4730, 17555.00
708.6240, 17692.00
709.7740, 17464.00
710.9240, 17679.00
712.0740, 17743.00
713.2230, 17421.00
714.3730, 17720.00
715.5220, 17800.00
716.6720, 17532.00
717.8210, 17540.00
718.9690, 17625.00
720.1180, 17735.00
721.2670, 17773.00
722.4150, 17651.00
723.5630, 17576.00
724.7110, 17611.00
725.8590, 17642.00
727.0070, 17538.00
728.1540, 17504.00
729.3020, 17503.00
730.4490, 17518.00
731.5960, 17408.00
732.7430, 17445.00
733.8890, 17493.00
735.0360, 17461.00
736.1820, 17672.00
737.3280, 17380.00
738.4740, 17643.00
739.6200, 17585.00
740.7660, 17605.00
741.9120, 17598.00
743.0570, 17631.00
744.2020, 17551.00
745.3470, 17637.00
746.4920, 17568.00
747.6370, 17462.00
748.7810, 17688.00
749.9250, 17743.00
751.0700, 17571.00
752.2140, 17597.00
753.3580, 17518.00
754.5010, 17639.00
755.6450, 17542.00
756.7880, 17631.00
757.9310, 17640.00
759.0740, 17749.00
760.2170, 17673.00
761.3600, 17718.00
762.5020, 17848.00
763.6450, 17729.00
764.7870, 17776.00
765.9290, 17768.00
767.0710, 17812.58
768.2120, 17693.00
769.3540, 17972.00
770.4950, 18008.00
771.6370, 18086.00
772.7780, 17929.00
773.9180, 17852.00
775.0590, 18024.00
776.2000, 18112.00
777.3400, 18146.00
778.4800, 18156.00
779.6200, 18182.15
780.7600, 18112.00
781.9000, 18183.00
783.0390, 18162.00
784.1790, 18170.00
785.3180, 18187.00
786.4570, 18239.00
787.5960, 18275.00
788.7350, 18266.64
789.8730, 18331.00
791.0120, 18264.00
792.1500, 18173.00
793.2880, 18203.06
794.4260, 18176.00
795.5630, 18260.00
796.7010, 18293.00
797.8380, 18300.00
798.9760, 18332.00
800.1130, 18238.00
801.2500, 18167.00
802.3860, 18208.00
803.5230, 18091.00
804.6590, 18294.00
805.7960, 18375.00
806.9320, 18619.91
808.0680, 18232.00
809.2030, 18329.94
810.3390, 18226.00
811.4740, 18178.00
812.6100, 18223.00
813.7450, 18263.00
814.8800, 18275.56
816.0140, 18268.00
817.1490, 18301.00
818.2830, 18397.00
819.4180, 18308.00
820.5520, 18221.00
821.6860, 18272.00
822.8200, 18312.00
823.9530, 18404.00
825.0870, 18392.69
826.2200, 18411.00
827.3530, 18367.00
828.4860, 18333.00
829.6190, 18272.00
830.7510, 18384.00
831.8840, 18509.00
833.0160, 18424.00
834.1480, 18451.00
835.2800, 18414.00
836.4120, 18421.16
837.5440, 18519.00
838.6750, 18452.00
839.8070, 18529.00
840.9380, 18537.00
842.0690, 18543.00
843.2000, 18645.00
844.3300, 18485.00
845.4610, 18552.00
846.5910, 18488.00
847.7220, 18827.00
848.8520, 18582.00
849.9810, 18715.00
851.1110, 18616.00
852.2410, 18499.00
853.3700, 18614.00
854.4990, 18635.00
855.6280, 18690.00
856.7570, 18669.00
857.8860, 18717.00
859.0150, 18747.48
860.1430, 18720.00
861.2710, 18783.00
862.3990, 18767.00
863.5270, 18697.00
864.6550, 18722.00
865.7830, 18777.00
866.9100, 18963.00
868.0370, 18967.00
869.1640, 18906.00
870.2910, 18628.00
871.4180, 18841.00
872.5450, 18842.00
873.6710, 18723.00
874.7980, 18915.00
875.9240, 18904.00
877.0500, 18909.00
878.1760, 18882.00
879.3010, 18867.00
880.4270, 18861.00
881.5520, 18806.00
882.6770, 18834.00
883.8020, 18846.00
884.9270, 18887.00
886.0520, 18931.00
887.1760, 18855.00
888.3010, 18813.00
889.4250, 18861.00
890.5490, 18817.00
891.6730, 18832.00
892.7970, 18909.00
893.9200, 18882.00
895.0440, 18882.00
896.1670, 18903.00
897.2900, 18923.24
898.4130, 18964.65
899.5360, 19008.00
900.6580, 19043.00
901.7810, 19097.00
902.9030, 19087.00
904.0250, 19196.00
905.1470, 19160.00
906.2690, 19031.00
907.3910, 19162.00
908.5120, 19170.00
909.6330, 19149.00
910.7540, 19350.00
911.8750, 19195.00
912.9960, 19264.00
914.1170, 19210.00
915.2380, 19321.00
916.3580, 19394.00
917.4780, 19400.00
918.5980, 19280.00
919.7180, 19265.00
920.8380, 19573.00
921.9570, 19402.00
923.0770, 19397.00
924.1960, 19275.00
925.3150, 19277.19
926.4340, 19595.00
927.5530, 19330.00
928.6710, 19480.00
929.7900, 19566.00
930.9080, 19525.00
932.0260, 19547.00
933.1440, 19551.00
934.2620, 19572.00
935.3800, 19613.81
936.4970, 19680.00
937.6140, 19733.00
938.7320, 19875.00
939.8490, 19997.00
940.9660, 19743.00
942.0820, 19885.00
943.1990, 19551.00
944.3150, 19782.00
945.4310, 19790.00
946.5470, 20043.00
947.6630, 20052.00
948.7790, 19919.00
949.8950, 20002.00
951.0100, 19890.00
952.1250, 19846.00
953.2400, 20104.00
954.3550, 20081.00
955.4700, 20342.00
956.5850, 20651.00
957.6990, 19996.00
958.8140, 20164.00
959.9280, 20170.00
961.0420, 20249.00
962.1560, 20307.00
963.2690, 20084.00
964.3830, 20445.00
965.4960, 20258.00
966.6090, 20505.00
967.7230, 20333.00
968.8350, 20372.00
969.9480, 20470.00
971.0610, 20563.00
972.1730, 20585.46
973.2850, 20636.00
974.3980, 20667.00
975.5100, 20724.00
976.6210, 20810.00
977.7330, 20734.00
978.8440, 20944.00
979.9560, 20949.00
981.0670, 21045.00
982.1780, 21222.00
983.2890, 21343.00
984.3990, 21507.00
985.5100, 21453.00
986.6200, 21447.00
987.7310, 21433.00
988.8410, 21657.00
989.9510, 21613.00
991.0600, 21782.00
992.1700, 21845.00
993.2790, 22055.00
994.3890, 22090.00
995.4980, 22380.00
996.6070, 22436.00
997.7160, 22615.00
998.8240, 22766.00
999.9330, 22939.00
1001.041, 22911.00
1002.149, 23142.00
1003.257, 23003.47
1004.365, 22987.00
1005.473, 22784.00
1006.580, 22756.00
1007.688, 22714.00
1008.795, 22663.00
1009.902, 22751.00
1011.009, 22548.00
1012.116, 22595.00
1013.222, 22816.00
1014.329, 22822.00
1015.435, 22659.00
1016.541, 22906.00
1017.647, 22697.00
1018.753, 22863.00
1019.859, 22764.00
1020.964, 22790.00
1022.070, 22949.00
1023.175, 23065.00
1024.280, 23039.00
1025.385, 22991.00
1026.490, 23047.00
1027.594, 22836.00
1028.699, 23067.00
1029.803, 23286.00
1030.907, 23232.00
1032.011, 23131.00
1033.115, 23509.00
1034.219, 23112.00
1035.322, 23334.00
1036.426, 23379.00
1037.529, 23552.00
1038.632, 23656.00
1039.735, 23672.00
1040.837, 23417.00
1041.940, 23628.00
1043.042, 23596.32
1044.145, 23859.00
1045.247, 23823.00
1046.349, 24024.00
1047.451, 24296.00
1048.552, 24271.00
1049.654, 24393.00
1050.755, 24462.68
1051.856, 24546.82
1052.957, 24547.00
1054.058, 24774.00
1055.159, 24853.95
1056.259, 24984.72
1057.360, 24988.00
1058.460, 25090.00
1059.560, 25206.00
1060.660, 25132.00
1061.760, 25522.00
1062.860, 25615.00
1063.959, 25807.00
1065.058, 25730.00
1066.158, 25966.00
1067.257, 26137.00
1068.355, 26280.00
1069.454, 26448.00
1070.553, 26709.37
1071.651, 26885.22
1072.749, 27267.00
1073.847, 27393.00
1074.945, 27670.00
1076.043, 28075.00
1077.141, 28381.00
1078.238, 28796.00
1079.336, 29033.00
1080.433, 29314.00
1081.530, 29693.00
1082.627, 30006.00
1083.723, 30514.00
1084.820, 30621.00
1085.916, 31242.00
1087.013, 31428.00
1088.109, 31584.00
1089.205, 32062.00
1090.301, 32211.00
1091.396, 32434.00
1092.492, 32781.00
1093.587, 33069.00
1094.682, 33025.00
1095.777, 33084.00
1096.872, 33139.00
1097.967, 33041.00
1099.061, 33141.00
1100.156, 32999.00
1101.250, 33089.00
1102.344, 33003.00
1103.438, 33071.00
1104.532, 32873.00
1105.626, 32661.00
1106.719, 32561.00
1107.813, 32101.00
1108.906, 32013.00
1109.999, 32176.00
1111.092, 31541.00
1112.184, 31607.00
1113.277, 31026.00
1114.370, 31142.00
1115.462, 30840.00
1116.554, 30664.00
1117.646, 30381.00
1118.738, 30082.00
1119.829, 29963.00
1120.921, 29680.00
1122.012, 29561.00
1123.104, 29381.00
1124.195, 29003.00
1125.286, 28884.00
1126.376, 28659.00
1127.467, 28307.00
1128.557, 28141.00
1129.648, 27919.00
1130.738, 27702.00
1131.828, 27503.00
1132.918, 27175.00
1134.008, 26930.00
1135.097, 26939.00
1136.186, 26650.00
1137.276, 26566.00
1138.365, 26518.00
1139.454, 26282.00
1140.543, 25989.00
1141.631, 25824.00
1142.720, 25645.35
1143.808, 25557.00
1144.896, 25393.00
1145.984, 25245.00
1147.072, 25159.00
1148.160, 25080.00
1149.248, 24948.00
1150.335, 24850.00
1151.422, 24665.00
1152.509, 24826.00
1153.596, 24591.00
1154.683, 24627.00
1155.770, 24303.00
1156.857, 24340.00
1157.943, 24172.00
1159.029, 24113.00
1160.115, 24097.00
1161.201, 23848.00
1162.287, 23786.00
1163.373, 23825.00
1164.458, 23719.00
1165.543, 23775.00
1166.629, 23584.00
1167.714, 23448.00
1168.799, 23535.00
1169.883, 23577.00
1170.968, 23341.00
1172.052, 23489.00
1173.137, 23410.00
1174.221, 23392.00
1175.305, 23396.00
1176.389, 23318.88
1177.472, 23306.32
1178.556, 23224.00
1179.639, 23230.00
1180.722, 23225.00
1181.805, 23186.00
1182.888, 23136.71
1183.971, 23337.00
1185.054, 23006.00
1186.136, 22989.00
1187.219, 22953.00
1188.301, 23203.00
1189.383, 22928.00
1190.465, 23219.00
1191.547, 23069.00
1192.628, 23218.00
1193.710, 23073.00
1194.791, 23104.00
1195.872, 23124.00
1196.953, 22948.00
1198.034, 23079.00
1199.115, 23090.00
1200.195, 23056.00
1201.276, 23021.00
1202.356, 23098.00
1203.436, 23051.00
1204.516, 23060.00
1205.596, 23119.00
1206.675, 23083.00
1207.755, 22978.00
1208.834, 23270.00
1209.913, 23116.00
1210.992, 23015.00
1212.071, 23256.00
1213.150, 23103.00
1214.229, 23162.00
1215.307, 22909.00
1216.386, 22922.00
1217.464, 23202.00
1218.542, 23128.00
1219.620, 23279.00
1220.697, 23287.00
1221.775, 23203.00
1222.852, 23225.00
1223.930, 23208.00
1225.007, 23202.00
1226.084, 23398.00
1227.161, 23257.00
1228.237, 23173.00
1229.314, 23460.00
1230.390, 23202.00
1231.466, 23286.00
1232.543, 23380.00
1233.619, 23173.00
1234.694, 23326.00
1235.770, 23313.00
1236.845, 23355.00
1237.921, 23340.00
1238.996, 23335.19
1240.071, 23344.96
1241.146, 23344.00
1242.221, 23354.00
1243.295, 23437.00
1244.370, 23478.00
1245.444, 23405.00
