##NAMES=Anatase
##RRUFFID=R060277
##IDEAL CHEMISTRY=Ti^4+^O_2_
##LOCALITY=Taftan, near Dalbandi, Baluchistan Province, Pakistan
##OWNER=RRUFF
##SOURCE=Herb Obodda
##DESCRIPTION=Dark brown tetragonal tabular crystals
##STATUS=The identification of this mineral is confirmed by single-crystal X-ray diffraction and chemical analysis.
##URL=rruff.info/R060277
##MEASURED CHEMISTRY=Ti_1.00_O_2_
##PIN_ID=L01956
##ORIENTATION=Laser parallel to -a* (-1 0 0). Fiducial mark perpendicular to laser is parallel to -c [0 0 -1]
50.72400, 337.0000
51.97000, 350.0000
53.21600, 352.0000
54.46200, 349.0000
55.70800, 352.0000
56.95400, 356.0000
58.19900, 346.0000
59.44500, 349.0000
60.69000, 361.0000
61.93500, 368.0000
63.17900, 362.0000
64.42400, 364.0000
65.66800, 376.0000
66.91300, 383.0000
68.15700, 400.0000
69.40100, 415.0000
70.64400, 416.0000
71.88800, 434.0000
73.13100, 460.0000
74.37400, 478.0000
75.61700, 512.0000
76.86000, 528.0000
78.10300, 528.0000
79.34500, 575.0000
80.58800, 610.0000
81.83000, 640.0000
83.07200, 636.0000
84.31400, 673.0000
85.55500, 735.0000
86.79700, 748.0000
88.03800, 832.0000
89.27900, 849.0000
90.52000, 883.0000
91.76100, 917.0000
93.00100, 964.0000
94.24200, 999.0000
95.48200, 1073.000
96.72200, 1105.000
97.96200, 1200.000
99.20200, 1224.000
100.4410, 1263.000
101.6810, 1347.000
102.9200, 1389.000
104.1590, 1432.000
105.3980, 1512.000
106.6360, 1602.000
107.8750, 1762.000
109.1130, 1797.000
110.3510, 1951.000
111.5890, 1998.000
112.8270, 2093.000
114.0650, 2239.000
115.3020, 2422.000
116.5390, 2653.000
117.7770, 2774.000
119.0130, 3109.000
120.2500, 3398.000
121.4870, 3790.000
122.7230, 4262.000
123.9590, 4894.000
125.1950, 5672.000
126.4310, 6708.000
127.6670, 7968.000
128.9030, 9645.000
130.1380, 12055.00
131.3730, 14825.00
132.6080, 18074.00
133.8430, 21603.00
135.0780, 25772.00
136.3120, 29999.00
137.5470, 35086.00
138.7810, 40910.00
140.0150, 47332.00
141.2480, 53191.00
142.4820, 57398.00
143.7160, 59995.00
144.9490, 57706.00
146.1820, 51629.00
147.4150, 42367.00
148.6480, 32600.00
149.8800, 24400.00
151.1130, 18228.00
152.3450, 13863.00
153.5770, 10897.00
154.8090, 8612.000
156.0410, 7051.000
157.2720, 5882.000
158.5040, 5061.000
159.7350, 4303.000
160.9660, 3751.000
162.1970, 3288.000
163.4270, 2901.000
164.6580, 2703.000
165.8880, 2381.000
167.1180, 2214.000
168.3480, 2033.000
169.5780, 1881.000
170.8080, 1738.000
172.0370, 1615.706
173.2670, 1502.000
174.4960, 1419.000
175.7250, 1356.000
176.9540, 1292.000
178.1820, 1238.000
179.4110, 1172.000
180.6390, 1124.000
181.8670, 1083.000
183.0950, 1065.000
184.3230, 1018.000
185.5500, 1010.000
186.7780, 1068.000
188.0050, 1053.000
189.2320, 1066.000
190.4590, 1072.000
191.6850, 1113.000
192.9120, 1224.000
194.1380, 1336.000
195.3650, 1455.000
196.5910, 1578.000
197.8160, 1579.000
199.0420, 1571.000
200.2680, 1404.000
201.4930, 1125.000
202.7180, 987.0000
203.9430, 853.0000
205.1680, 810.0000
206.3930, 743.0000
207.6170, 747.0000
208.8410, 683.0000
210.0660, 660.0000
211.2890, 667.0000
212.5130, 641.0000
213.7370, 633.0000
214.9600, 623.0000
216.1840, 600.0000
217.4070, 590.0000
218.6300, 603.0000
219.8520, 589.0000
221.0750, 585.0000
222.2970, 565.0000
223.5200, 555.0000
224.7420, 556.0000
225.9640, 555.0000
227.1850, 555.0000
228.4070, 552.0975
229.6280, 551.9236
230.8490, 546.0000
232.0700, 547.0000
233.2910, 546.0000
234.5120, 537.0000
235.7320, 523.0000
236.9530, 540.0000
238.1730, 517.0000
239.3930, 517.0000
240.6130, 522.0000
241.8320, 511.0000
243.0520, 508.0000
244.2710, 510.0000
245.4900, 502.0000
246.7090, 514.0000
247.9280, 519.0000
249.1470, 493.0000
250.3650, 501.0000
251.5840, 499.0000
252.8020, 519.0000
254.0200, 492.0000
255.2370, 519.0000
256.4550, 524.0000
257.6720, 528.0000
258.8900, 504.0000
260.1070, 516.0000
261.3240, 511.0000
262.5400, 515.0000
263.7570, 508.0000
264.9730, 520.0000
266.1900, 526.0000
267.4060, 510.0000
268.6220, 516.0000
269.8370, 532.0000
271.0530, 537.0000
272.2680, 498.0000
273.4830, 506.0000
274.6980, 507.0000
275.9130, 530.0000
277.1280, 523.0000
278.3420, 529.0000
279.5570, 557.0000
280.7710, 542.0000
281.9850, 522.0000
283.1990, 525.0000
284.4120, 526.7052
285.6260, 526.0000
286.8390, 545.0000
288.0520, 557.0000
289.2650, 557.0000
290.4780, 563.0000
291.6910, 561.0000
292.9030, 564.0104
294.1160, 555.0000
295.3280, 574.0000
296.5400, 573.0000
297.7510, 592.0000
298.9630, 577.0000
300.1740, 590.0000
301.3860, 599.0000
302.5970, 598.0000
303.8080, 589.0000
305.0180, 595.0000
306.2290, 597.0000
307.4390, 599.0000
308.6500, 601.0000
309.8600, 599.0000
311.0700, 606.0000
312.2790, 613.2972
313.4890, 604.0000
314.6980, 629.0000
315.9080, 632.0000
317.1170, 628.0000
318.3250, 640.0000
319.5340, 623.0000
320.7430, 644.0000
321.9510, 644.0000
323.1590, 637.0000
324.3670, 625.0000
325.5750, 629.0000
326.7830, 627.0000
327.9900, 624.2297
329.1980, 641.0000
330.4050, 629.0000
331.6120, 619.0000
332.8190, 633.0000
334.0250, 640.0000
335.2320, 651.0000
336.4380, 617.0000
337.6440, 615.0000
338.8500, 641.0000
340.0560, 630.0000
341.2620, 644.0000
342.4670, 633.0000
343.6730, 641.0000
344.8780, 639.0000
346.0830, 636.0000
347.2870, 625.0000
348.4920, 638.0000
349.6970, 654.0000
350.9010, 670.0000
352.1050, 618.0000
353.3090, 662.0000
354.5130, 647.0000
355.7160, 688.0000
356.9200, 672.0000
358.1230, 690.0000
359.3260, 688.0000
360.5290, 700.0000
361.7320, 719.0000
362.9340, 726.0000
364.1370, 698.0000
365.3390, 709.0000
366.5410, 730.0000
367.7430, 710.0000
368.9450, 766.0000
370.1460, 743.0000
371.3480, 783.0000
372.5490, 807.0000
373.7500, 842.0000
374.9510, 829.0000
376.1520, 889.0000
377.3520, 913.0000
378.5520, 954.0000
379.7530, 1013.000
380.9530, 1062.000
382.1530, 1132.000
383.3520, 1191.000
384.5520, 1196.000
385.7510, 1291.000
386.9500, 1361.000
388.1490, 1381.000
389.3480, 1541.000
390.5470, 1579.000
391.7450, 1586.000
392.9440, 1686.000
394.1420, 1690.000
395.3400, 1702.000
396.5380, 1686.000
397.7350, 1652.000
398.9330, 1590.000
400.1300, 1544.000
401.3270, 1459.000
402.5240, 1411.000
403.7210, 1314.000
404.9180, 1173.000
406.1140, 1143.000
407.3110, 1065.000
408.5070, 993.0000
409.7030, 967.0000
410.8990, 908.0000
412.0940, 835.0000
413.2900, 818.0000
414.4850, 773.0000
415.6800, 778.0000
416.8750, 758.0000
418.0700, 706.0000
419.2650, 731.0000
420.4590, 704.0000
421.6530, 701.0000
422.8470, 676.0000
424.0410, 666.0000
425.2350, 665.0000
426.4290, 652.0000
427.6220, 638.0000
428.8160, 642.0000
430.0090, 647.0000
431.2020, 624.0000
432.3940, 621.0000
433.5870, 639.0000
434.7790, 608.0000
435.9720, 597.0000
437.1640, 604.0000
438.3560, 595.6829
439.5470, 608.0000
440.7390, 608.0000
441.9300, 606.0000
443.1220, 615.0000
444.3130, 591.0000
445.5040, 583.0000
446.6940, 586.0000
447.8850, 623.0000
449.0750, 605.0000
450.2660, 622.0000
451.4560, 582.0000
452.6460, 600.0000
453.8350, 602.0000
455.0250, 580.0000
456.2140, 588.0000
457.4040, 625.0000
458.5930, 625.0000
459.7820, 619.0000
460.9700, 613.0000
462.1590, 627.0000
463.3470, 621.0000
464.5350, 614.0000
465.7240, 627.0000
466.9110, 630.0000
468.0990, 605.0000
469.2870, 617.0000
470.4740, 621.0000
471.6610, 628.0000
472.8480, 645.0000
474.0350, 647.0000
475.2220, 644.0000
476.4090, 635.0000
477.5950, 642.0000
478.7810, 636.0000
479.9670, 643.0000
481.1530, 643.0000
482.3390, 664.0000
483.5240, 677.0000
484.7100, 693.0000
485.8950, 664.0000
487.0800, 694.0000
488.2650, 684.0000
489.4490, 698.0000
490.6340, 718.0000
491.8180, 717.0000
493.0030, 732.0000
494.1870, 740.0000
495.3700, 756.0000
496.5540, 766.0000
497.7380, 801.0000
498.9210, 829.0000
500.1040, 852.0000
501.2870, 905.0000
502.4700, 919.0000
503.6530, 997.0000
504.8350, 1032.000
506.0180, 1100.000
507.2000, 1178.000
508.3820, 1218.000
509.5640, 1283.000
510.7450, 1362.000
511.9270, 1410.000
513.1080, 1448.000
514.2890, 1463.000
515.4700, 1433.000
516.6510, 1408.000
517.8320, 1371.000
519.0130, 1333.712
520.1930, 1297.000
521.3730, 1257.000
522.5530, 1220.000
523.7330, 1196.000
524.9130, 1144.000
526.0920, 1103.000
527.2710, 1071.000
528.4510, 1018.000
529.6300, 992.0000
530.8080, 995.0000
531.9870, 954.0000
533.1660, 889.0000
534.3440, 842.0000
535.5220, 871.0000
536.7000, 837.0000
537.8780, 852.0000
539.0560, 803.0000
540.2330, 790.0000
541.4110, 744.0000
542.5880, 764.0000
543.7650, 747.0000
544.9420, 743.0000
546.1180, 738.0000
547.2950, 730.0000
548.4710, 706.0000
549.6470, 723.0000
550.8230, 696.0000
551.9990, 707.0000
553.1750, 696.0000
554.3500, 688.0000
555.5260, 691.0000
556.7010, 676.0000
557.8760, 675.0000
559.0510, 667.0000
560.2250, 678.0000
561.4000, 680.0000
562.5740, 701.0000
563.7480, 662.0000
564.9220, 693.0000
566.0960, 664.0000
567.2700, 709.0000
568.4430, 700.0000
569.6170, 674.0000
570.7900, 678.0000
571.9630, 711.0000
573.1360, 651.0000
574.3080, 690.0000
575.4810, 707.0000
576.6530, 674.0000
577.8250, 708.0000
578.9980, 721.0000
580.1690, 723.0000
581.3410, 722.0000
582.5130, 738.0000
583.6840, 746.0000
584.8550, 751.0000
586.0260, 726.0000
587.1970, 784.0000
588.3680, 764.0000
589.5380, 746.0000
590.7080, 782.0000
591.8790, 815.0000
593.0490, 842.0000
594.2190, 858.0000
595.3880, 870.0000
596.5580, 868.0000
597.7270, 902.0000
598.8960, 936.0000
600.0650, 954.0000
601.2340, 1002.000
602.4030, 1021.000
603.5710, 1037.000
604.7400, 1057.000
605.9080, 1131.000
607.0760, 1160.000
608.2440, 1236.000
609.4120, 1298.000
610.5790, 1368.000
611.7460, 1464.000
612.9140, 1550.000
614.0810, 1608.000
615.2480, 1706.000
616.4140, 1869.000
617.5810, 2042.000
618.7470, 2187.000
619.9130, 2449.000
621.0790, 2619.000
622.2450, 2849.000
623.4110, 3263.000
624.5770, 3575.000
625.7420, 3793.000
626.9070, 4202.000
628.0720, 4685.000
629.2370, 5242.000
630.4020, 5670.000
631.5660, 6203.000
632.7310, 6668.000
633.8950, 7111.000
635.0590, 7461.000
636.2230, 7763.000
637.3870, 8028.000
638.5500, 8113.000
639.7140, 7938.000
640.8770, 7688.000
642.0400, 7359.000
643.2030, 6901.000
644.3660, 6494.000
645.5280, 5873.000
646.6910, 5485.000
647.8530, 4963.000
649.0150, 4639.000
650.1770, 4286.000
651.3390, 3865.000
652.5000, 3526.000
653.6620, 3343.000
654.8230, 3066.000
655.9840, 2826.000
657.1450, 2604.000
658.3060, 2472.000
659.4660, 2321.000
660.6270, 2250.000
661.7870, 2073.000
662.9470, 1920.000
664.1070, 1862.000
665.2670, 1771.000
666.4260, 1694.000
667.5860, 1622.000
668.7450, 1538.000
669.9040, 1466.000
671.0630, 1404.000
672.2220, 1369.000
673.3800, 1314.000
674.5390, 1270.000
675.6970, 1242.000
676.8550, 1178.000
678.0130, 1168.000
679.1710, 1132.000
680.3290, 1065.000
681.4860, 1070.000
682.6430, 1011.000
683.8000, 967.0000
684.9570, 994.0000
686.1140, 972.0000
687.2710, 937.0000
688.4270, 918.0000
689.5840, 916.0000
690.7400, 870.0000
691.8960, 905.0000
693.0520, 869.0000
694.2070, 852.0000
695.3630, 841.0000
696.5180, 849.0000
697.6730, 789.0000
698.8280, 808.0000
699.9830, 815.0000
701.1380, 772.0000
702.2920, 793.0000
703.4470, 750.0000
704.6010, 723.0000
705.7550, 734.0000
706.9090, 726.0000
708.0620, 741.0000
709.2160, 701.0000
710.3690, 679.0000
711.5220, 726.0000
712.6750, 722.0000
713.8280, 678.0000
714.9810, 653.0000
716.1340, 664.0000
717.2860, 656.0000
718.4380, 645.0000
719.5900, 635.0000
720.7420, 652.0000
721.8940, 628.0000
723.0450, 642.0000
724.1970, 640.0000
725.3480, 608.0000
726.4990, 627.0000
727.6500, 632.0000
728.8010, 631.0000
729.9510, 581.0000
731.1020, 597.0000
732.2520, 601.0000
733.4020, 590.0000
734.5520, 605.0000
735.7020, 594.0000
736.8510, 586.0000
738.0010, 575.0000
739.1500, 570.2850
740.2990, 575.0000
741.4480, 567.0000
742.5970, 572.0000
743.7450, 583.0000
744.8940, 564.0000
746.0420, 562.0000
747.1900, 587.0000
748.3380, 558.0000
749.4860, 548.0000
750.6330, 571.0000
751.7810, 554.0000
752.9280, 556.0000
754.0750, 575.0000
755.2220, 583.0000
756.3690, 546.0000
757.5160, 559.0000
758.6620, 555.0000
759.8090, 570.0000
760.9550, 558.0000
762.1010, 552.0000
763.2470, 567.0000
764.3920, 575.0000
765.5380, 569.0000
766.6830, 563.0000
767.8280, 563.0000
768.9730, 567.0000
770.1180, 571.1723
771.2630, 568.0000
772.4070, 584.0000
773.5520, 594.0000
774.6960, 593.0000
775.8400, 597.0000
776.9840, 592.0000
778.1280, 586.0000
779.2710, 585.7632
780.4140, 588.8176
781.5580, 583.0000
782.7010, 597.0000
783.8440, 604.0000
784.9860, 600.0000
786.1290, 585.0000
787.2710, 621.0000
788.4140, 629.0000
789.5560, 636.0000
790.6980, 621.0000
791.8390, 635.0000
792.9810, 623.0000
794.1220, 610.0000
795.2640, 633.0000
796.4050, 636.0000
797.5460, 641.0000
798.6860, 648.4675
799.8270, 607.0000
800.9680, 640.0000
802.1080, 623.0000
803.2480, 590.0000
804.3880, 597.0000
805.5280, 628.0000
806.6670, 601.0000
807.8070, 612.0000
808.9460, 618.0000
810.0850, 595.0000
811.2240, 579.0000
812.3630, 562.0000
813.5020, 592.0000
814.6400, 602.0000
815.7790, 599.0000
816.9170, 565.0000
818.0550, 565.0000
819.1930, 576.0000
820.3300, 583.0000
821.4680, 567.0000
822.6050, 581.0000
823.7430, 568.0000
824.8800, 564.0000
826.0170, 559.0000
827.1530, 561.0000
828.2900, 557.0000
829.4260, 563.0000
830.5620, 544.0000
831.6990, 556.0000
832.8340, 548.0000
833.9700, 557.0000
835.1060, 556.0000
836.2410, 576.0000
837.3760, 551.0000
838.5120, 521.0000
839.6470, 543.0000
840.7810, 547.0000
841.9160, 540.0000
843.0500, 557.0000
844.1850, 551.0000
845.3190, 545.0000
846.4530, 517.0000
847.5870, 538.0000
848.7200, 531.0000
849.8540, 525.0000
850.9870, 543.0000
852.1200, 525.0000
853.2530, 528.0000
854.3860, 515.0000
855.5190, 520.0000
856.6510, 524.0000
857.7840, 528.0000
858.9160, 515.0000
860.0480, 534.0000
861.1800, 512.0000
862.3110, 537.0000
863.4430, 526.0000
864.5740, 503.0000
865.7060, 537.0000
866.8370, 512.0000
867.9680, 520.0000
869.0980, 499.0000
870.2290, 508.0000
871.3590, 517.0000
872.4900, 504.0000
873.6200, 497.0000
874.7500, 504.0000
875.8790, 497.0000
877.0090, 500.0000
878.1380, 501.0000
879.2680, 519.0000
880.3970, 501.0000
881.5260, 493.0000
882.6550, 475.0000
883.7830, 482.0000
884.9120, 494.0000
886.0400, 496.0000
887.1680, 502.0000
888.2960, 497.0000
889.4240, 485.0000
890.5520, 487.3180
891.6790, 473.0000
892.8070, 486.0000
893.9340, 478.0000
895.0610, 487.0000
896.1880, 470.0000
897.3140, 485.0000
898.4410, 485.0000
899.5670, 478.0000
900.6940, 476.0000
901.8200, 467.0000
902.9450, 484.0000
904.0710, 477.0000
905.1970, 466.0000
906.3220, 488.0000
907.4470, 463.0000
908.5730, 478.0000
909.6980, 480.0000
910.8220, 481.0000
911.9470, 458.0000
913.0710, 473.0000
914.1960, 463.0000
915.3200, 476.0000
916.4440, 475.7091
917.5680, 464.0000
918.6910, 475.0000
919.8150, 472.0000
920.9380, 465.0000
922.0610, 461.0000
923.1840, 465.0000
924.3070, 485.0000
925.4300, 466.0000
926.5520, 459.0000
927.6750, 455.0000
928.7970, 479.0000
929.9190, 455.0000
931.0410, 470.0000
932.1630, 464.0000
933.2840, 468.0000
934.4060, 470.0000
935.5270, 470.0000
936.6480, 462.0000
937.7690, 462.0000
938.8900, 459.0914
940.0100, 465.0000
941.1310, 454.0000
942.2510, 464.0000
943.3710, 460.0000
944.4910, 457.0000
945.6110, 451.0000
946.7310, 462.0000
947.8500, 469.0000
948.9690, 449.0000
950.0890, 458.0000
951.2080, 441.0000
952.3260, 462.0000
953.4450, 467.0000
954.5640, 459.0000
955.6820, 458.0000
956.8000, 453.0000
957.9180, 445.0000
959.0360, 467.0000
960.1540, 458.0000
961.2710, 458.0000
962.3890, 447.0000
963.5060, 449.0000
964.6230, 447.0000
965.7400, 459.0000
966.8570, 469.0000
967.9730, 462.0000
969.0900, 455.0000
970.2060, 454.0000
971.3220, 455.0000
972.4380, 454.0000
973.5540, 463.0000
974.6700, 444.0000
975.7850, 447.0000
976.9010, 453.0000
978.0160, 467.0000
979.1310, 450.0000
980.2460, 434.0000
981.3600, 458.0000
982.4750, 449.0000
983.5890, 453.0000
984.7030, 465.0000
985.8170, 463.0000
986.9310, 452.0000
988.0450, 445.0000
989.1590, 450.0000
990.2720, 447.0000
991.3850, 446.0000
992.4980, 440.0000
993.6110, 451.0000
994.7240, 440.0000
995.8370, 459.0000
996.9490, 447.0000
998.0620, 449.0000
999.1740, 454.0000
1000.286, 448.0000
1001.398, 449.0000
1002.509, 439.0000
1003.621, 432.0000
1004.732, 444.0000
1005.843, 450.0000
1006.954, 438.0000
1008.065, 446.0000
1009.176, 438.0000
1010.286, 452.0000
1011.397, 444.0000
1012.507, 448.0000
1013.617, 437.0000
1014.727, 442.0000
1015.837, 446.0000
1016.946, 445.0000
1018.056, 441.0000
1019.165, 430.0000
1020.274, 445.0000
1021.383, 445.0000
1022.492, 429.0000
1023.601, 445.0000
1024.709, 422.0000
1025.817, 452.0000
1026.926, 454.0000
1028.034, 441.0000
1029.141, 441.0000
1030.249, 443.0000
1031.357, 428.0000
1032.464, 440.0000
1033.571, 430.0000
1034.678, 445.0000
1035.785, 441.0000
1036.892, 443.0000
1037.999, 443.0000
1039.105, 444.0000
1040.211, 434.0000
1041.317, 458.0000
1042.423, 417.0000
1043.529, 451.0000
1044.635, 427.0000
1045.740, 436.0000
1046.845, 438.0000
1047.951, 436.0000
1049.056, 440.0000
1050.160, 450.0000
1051.265, 427.0000
1052.370, 443.0000
1053.474, 440.0000
1054.578, 449.0000
1055.682, 433.0000
1056.786, 424.0000
1057.890, 434.0000
1058.993, 447.0000
1060.097, 449.0000
1061.200, 440.0000
1062.303, 446.0000
1063.406, 433.0000
1064.509, 437.0000
1065.612, 431.0000
1066.714, 441.0000
1067.816, 440.0000
1068.919, 436.0000
1070.021, 423.0000
1071.122, 436.0000
1072.224, 425.0000
1073.326, 454.0000
1074.427, 445.0000
1075.528, 436.0000
1076.629, 433.0000
1077.730, 435.0000
1078.831, 435.0000
1079.931, 422.0000
1081.032, 426.0000
1082.132, 433.0000
1083.232, 449.0000
1084.332, 422.0000
1085.432, 424.0000
1086.531, 439.0000
1087.631, 421.0000
1088.730, 430.0000
1089.829, 421.0000
1090.928, 429.0000
1092.027, 442.0000
1093.126, 421.0000
1094.224, 424.0000
1095.323, 427.0000
1096.421, 422.0000
1097.519, 421.0000
1098.617, 415.0000
1099.715, 435.0000
1100.812, 414.0000
1101.910, 436.0000
1103.007, 428.0000
1104.104, 427.0000
1105.201, 434.0000
1106.298, 417.0000
1107.394, 430.0000
1108.491, 405.0000
1109.587, 427.0000
1110.683, 438.0000
1111.779, 419.0000
1112.875, 432.0000
1113.971, 427.0000
1115.066, 413.0000
1116.162, 420.0000
1117.257, 422.0000
1118.352, 432.0000
1119.447, 433.0000
1120.542, 443.0000
1121.636, 448.0000
1122.731, 422.0000
1123.825, 443.0000
1124.919, 421.0000
1126.013, 430.0000
1127.107, 432.0000
1128.200, 430.0000
1129.294, 437.0000
1130.387, 419.0000
1131.480, 423.0000
1132.573, 416.0000
1133.666, 430.0000
1134.759, 434.0000
1135.851, 419.0000
1136.944, 418.0000
1138.036, 426.0000
1139.128, 414.0000
1140.220, 407.0000
1141.312, 417.0000
1142.403, 396.0000
1143.495, 428.0000
1144.586, 416.0000
1145.677, 418.0000
1146.768, 412.0000
1147.859, 427.0000
1148.950, 426.0000
1150.040, 421.0000
1151.130, 406.0000
1152.221, 411.0000
1153.311, 408.0953
1154.401, 411.0000
1155.490, 414.0000
1156.580, 416.0000
1157.669, 420.0000
1158.759, 416.0000
1159.848, 421.0000
1160.937, 420.0000
1162.025, 413.0000
1163.114, 415.0000
1164.202, 417.0000
1165.291, 409.0000
1166.379, 410.8289
1167.467, 407.9634
1168.555, 407.0000
1169.642, 410.0000
1170.730, 408.4073
1171.817, 410.9086
1172.905, 413.0000
1173.992, 414.0000
1175.078, 412.0000
1176.165, 411.0000
1177.252, 422.0000
1178.338, 415.0000
1179.425, 423.0000
1180.511, 416.0000
1181.597, 428.0000
1182.682, 412.0000
1183.768, 423.0000
1184.854, 426.0000
1185.939, 418.0000
1187.024, 414.0000
1188.109, 417.0000
1189.194, 414.0000
1190.279, 420.0000
1191.363, 411.0000
1192.448, 414.7917
1193.532, 414.2013
1194.616, 419.0000
1195.700, 420.0000
1196.784, 427.0000
1197.867, 423.9148
1198.951, 423.7869
1200.034, 422.0000
1201.117, 416.0000
1202.200, 422.0000
1203.283, 414.0000
1204.366, 429.0000
1205.448, 421.0000
1206.531, 430.0000
1207.613, 428.0000
1208.695, 427.0000
1209.777, 424.0000
1210.859, 424.0685
1211.940, 420.6564
1213.022, 422.0000
1214.103, 417.0000
1215.184, 412.0000
1216.265, 415.0000
1217.346, 412.0000
1218.427, 413.0000
1219.507, 420.0000
1220.587, 421.0000
1221.668, 426.0000
1222.748, 430.0490
1223.828, 434.0000
1224.907, 434.0000
1225.987, 430.0000
1227.066, 423.0000
1228.146, 423.0000
1229.225, 426.0000
1230.304, 434.0000
1231.382, 422.0000
1232.461, 428.0000
1233.540, 441.0000
1234.618, 428.0000
1235.696, 424.0000
1236.774, 414.0000
1237.852, 422.0000
1238.930, 427.0000
