##NAMES=Anatase
##RRUFFID=R060277
##IDEAL CHEMISTRY=Ti^4+^O_2_
##LOCALITY=Taftan, near Dalbandi, Baluchistan Province, Pakistan
##OWNER=RRUFF
##SOURCE=Herb Obodda
##DESCRIPTION=Dark brown tetragonal tabular crystals
##STATUS=The identification of this mineral is confirmed by single-crystal X-ray diffraction and chemical analysis.
##URL=rruff.info/R060277
##MEASURED CHEMISTRY=Ti_1.00_O_2_
##PIN_ID=L01956
##ORIENTATION=Laser parallel to -a* (-1 0 0). Fiducial mark perpendicular to laser is parallel to -c [0 0 -1]
50.72400, 355.0000
51.97000, 347.0000
53.21600, 364.0000
54.46200, 351.0000
55.70800, 358.0000
56.95400, 363.0000
58.19900, 376.0000
59.44500, 377.0000
60.69000, 393.0000
61.93500, 394.0000
63.17900, 413.0000
64.42400, 398.0000
65.66800, 424.0000
66.91300, 452.0000
68.15700, 454.0000
69.40100, 488.0000
70.64400, 521.0000
71.88800, 538.0000
73.13100, 573.0000
74.37400, 599.0000
75.61700, 649.0000
76.86000, 664.0000
78.10300, 712.0000
79.34500, 744.0000
80.58800, 774.0000
81.83000, 839.0000
83.07200, 844.0000
84.31400, 890.0000
85.55500, 942.0000
86.79700, 969.0000
88.03800, 1057.000
89.27900, 1102.000
90.52000, 1172.000
91.76100, 1204.000
93.00100, 1256.000
94.24200, 1310.000
95.48200, 1386.000
96.72200, 1381.000
97.96200, 1457.000
99.20200, 1557.000
100.4410, 1587.000
101.6810, 1687.000
102.9200, 1757.000
104.1590, 1813.000
105.3980, 1955.000
106.6360, 2071.000
107.8750, 2107.000
109.1130, 2215.000
110.3510, 2400.000
111.5890, 2460.000
112.8270, 2700.000
114.0650, 2910.000
115.3020, 3069.000
116.5390, 3289.000
117.7770, 3570.000
119.0130, 3962.000
120.2500, 4389.000
121.4870, 4932.000
122.7230, 5475.000
123.9590, 6249.000
125.1950, 7364.000
126.4310, 8995.000
127.6670, 10837.00
128.9030, 13404.00
130.1380, 17091.00
131.3730, 21307.00
132.6080, 26263.00
133.8430, 31059.00
135.0780, 35771.00
136.3120, 40423.00
137.5470, 45625.00
138.7810, 50514.00
140.0150, 55284.00
141.2480, 57965.00
142.4820, 58797.00
143.7160, 57045.00
144.9490, 52030.00
146.1820, 44291.00
147.4150, 35509.00
148.6480, 27119.00
149.8800, 20697.00
151.1130, 15889.00
152.3450, 12253.00
153.5770, 9689.000
154.8090, 7902.000
156.0410, 6562.000
157.2720, 5538.000
158.5040, 4791.000
159.7350, 4143.000
160.9660, 3773.000
162.1970, 3306.000
163.4270, 2980.000
164.6580, 2706.000
165.8880, 2507.000
167.1180, 2265.000
168.3480, 2174.000
169.5780, 1981.000
170.8080, 1905.000
172.0370, 1777.000
173.2670, 1676.000
174.4960, 1610.000
175.7250, 1504.000
176.9540, 1442.000
178.1820, 1364.000
179.4110, 1333.000
180.6390, 1277.000
181.8670, 1256.052
183.0950, 1245.000
184.3230, 1248.000
185.5500, 1276.000
186.7780, 1315.000
188.0050, 1386.000
189.2320, 1390.000
190.4590, 1407.000
191.6850, 1465.000
192.9120, 1571.000
194.1380, 1651.000
195.3650, 1706.000
196.5910, 1739.000
197.8160, 1705.000
199.0420, 1526.000
200.2680, 1373.000
201.4930, 1225.000
202.7180, 1085.000
203.9430, 1045.000
205.1680, 933.0000
206.3930, 916.0000
207.6170, 850.0000
208.8410, 846.0000
210.0660, 868.0000
211.2890, 833.0000
212.5130, 820.0000
213.7370, 809.0000
214.9600, 781.0000
216.1840, 794.0000
217.4070, 801.0000
218.6300, 765.0000
219.8520, 783.0000
221.0750, 771.0000
222.2970, 781.0000
223.5200, 761.0000
224.7420, 761.0000
225.9640, 742.0000
227.1850, 738.9083
228.4070, 733.0000
229.6280, 737.0000
230.8490, 728.0000
232.0700, 739.0000
233.2910, 726.9100
234.5120, 726.0000
235.7320, 720.0000
236.9530, 717.4672
238.1730, 719.0000
239.3930, 721.0000
240.6130, 730.0000
241.8320, 744.0000
243.0520, 730.0000
244.2710, 703.0000
245.4900, 706.0000
246.7090, 718.0000
247.9280, 700.0000
249.1470, 724.0000
250.3650, 727.0000
251.5840, 744.0000
252.8020, 746.0986
254.0200, 730.0000
255.2370, 740.0000
256.4550, 738.0000
257.6720, 721.0000
258.8900, 761.0000
260.1070, 780.0000
261.3240, 770.0000
262.5400, 790.2487
263.7570, 783.0000
264.9730, 796.0000
266.1900, 790.0000
267.4060, 793.0000
268.6220, 795.5344
269.8370, 801.0000
271.0530, 808.0000
272.2680, 805.0000
273.4830, 835.0000
274.6980, 848.0000
275.9130, 842.0000
277.1280, 849.0000
278.3420, 875.0000
279.5570, 871.0000
280.7710, 910.0000
281.9850, 914.0000
283.1990, 967.0000
284.4120, 962.0000
285.6260, 973.0000
286.8390, 1005.000
288.0520, 1012.000
289.2650, 1041.396
290.4780, 1059.000
291.6910, 1086.000
292.9030, 1125.000
294.1160, 1129.000
295.3280, 1159.000
296.5400, 1173.000
297.7510, 1212.000
298.9630, 1219.000
300.1740, 1267.000
301.3860, 1268.000
302.5970, 1318.000
303.8080, 1320.000
305.0180, 1361.000
306.2290, 1374.000
307.4390, 1366.000
308.6500, 1380.000
309.8600, 1419.000
311.0700, 1425.000
312.2790, 1399.000
313.4890, 1432.000
314.6980, 1430.000
315.9080, 1451.000
317.1170, 1457.000
318.3250, 1492.000
319.5340, 1489.000
320.7430, 1490.691
321.9510, 1453.000
323.1590, 1475.000
324.3670, 1454.000
325.5750, 1441.000
326.7830, 1438.000
327.9900, 1457.000
329.1980, 1447.430
330.4050, 1439.000
331.6120, 1444.000
332.8190, 1441.000
334.0250, 1427.000
335.2320, 1454.000
336.4380, 1454.000
337.6440, 1461.000
338.8500, 1449.000
340.0560, 1479.000
341.2620, 1469.000
342.4670, 1508.000
343.6730, 1556.000
344.8780, 1577.000
346.0830, 1551.000
347.2870, 1617.000
348.4920, 1634.000
349.6970, 1656.000
350.9010, 1741.000
352.1050, 1763.000
353.3090, 1763.000
354.5130, 1814.000
355.7160, 1888.000
356.9200, 1972.000
358.1230, 1980.000
359.3260, 2078.000
360.5290, 2139.000
361.7320, 2215.000
362.9340, 2314.000
364.1370, 2425.000
365.3390, 2591.000
366.5410, 2737.000
367.7430, 2917.000
368.9450, 3093.000
370.1460, 3320.000
371.3480, 3593.000
372.5490, 3872.000
373.7500, 4120.000
374.9510, 4550.000
376.1520, 4948.000
377.3520, 5461.000
378.5520, 5990.000
379.7530, 6548.000
380.9530, 7241.000
382.1530, 7890.000
383.3520, 8794.000
384.5520, 9643.000
385.7510, 10584.00
386.9500, 11666.00
388.1490, 12598.00
389.3480, 13676.00
390.5470, 14509.00
391.7450, 15352.00
392.9440, 16307.00
394.1420, 16795.00
395.3400, 16900.00
396.5380, 17053.00
397.7350, 16638.00
398.9330, 16062.00
400.1300, 15152.00
401.3270, 14204.00
402.5240, 12791.00
403.7210, 11579.00
404.9180, 10480.00
406.1140, 9237.000
407.3110, 8157.000
408.5070, 7279.000
409.7030, 6463.000
410.8990, 5829.000
412.0940, 5278.000
413.2900, 4858.000
414.4850, 4347.000
415.6800, 3948.000
416.8750, 3728.000
418.0700, 3447.000
419.2650, 3285.000
420.4590, 3058.000
421.6530, 2917.000
422.8470, 2773.000
424.0410, 2621.000
425.2350, 2534.000
426.4290, 2396.000
427.6220, 2361.000
428.8160, 2172.000
430.0090, 2120.000
431.2020, 2001.000
432.3940, 1969.000
433.5870, 1942.000
434.7790, 1908.000
435.9720, 1847.000
437.1640, 1798.000
438.3560, 1823.000
439.5470, 1775.000
440.7390, 1772.000
441.9300, 1693.000
443.1220, 1698.000
444.3130, 1677.000
445.5040, 1652.000
446.6940, 1639.000
447.8850, 1613.000
449.0750, 1633.000
450.2660, 1625.000
451.4560, 1600.000
452.6460, 1581.000
453.8350, 1555.000
455.0250, 1584.000
456.2140, 1607.000
457.4040, 1569.000
458.5930, 1503.000
459.7820, 1547.000
460.9700, 1543.000
462.1590, 1553.000
463.3470, 1531.000
464.5350, 1545.815
465.7240, 1602.000
466.9110, 1585.000
468.0990, 1615.000
469.2870, 1685.000
470.4740, 1633.000
471.6610, 1691.000
472.8480, 1763.000
474.0350, 1775.000
475.2220, 1770.000
476.4090, 1885.000
477.5950, 1894.000
478.7810, 1905.000
479.9670, 1951.000
481.1530, 2033.000
482.3390, 2031.000
483.5240, 2149.000
484.7100, 2256.000
485.8950, 2302.000
487.0800, 2421.000
488.2650, 2507.000
489.4490, 2655.000
490.6340, 2759.000
491.8180, 2903.000
493.0030, 3095.126
494.1870, 3251.000
495.3700, 3528.000
496.5540, 3812.000
497.7380, 4091.000
498.9210, 4452.000
500.1040, 4821.000
501.2870, 5466.000
502.4700, 5953.000
503.6530, 6674.000
504.8350, 7422.000
506.0180, 8146.000
507.2000, 9123.000
508.3820, 9901.000
509.5640, 10946.00
510.7450, 11845.00
511.9270, 12601.00
513.1080, 13143.00
514.2890, 13379.00
515.4700, 13358.00
516.6510, 13330.00
517.8320, 12813.00
519.0130, 12434.00
520.1930, 11977.00
521.3730, 11346.00
522.5530, 10554.00
523.7330, 10009.00
524.9130, 9240.000
526.0920, 8620.000
527.2710, 7940.000
528.4510, 7491.000
529.6300, 6829.000
530.8080, 6322.000
531.9870, 5903.000
533.1660, 5641.000
534.3440, 5214.000
535.5220, 5038.000
536.7000, 4768.000
537.8780, 4377.000
539.0560, 4182.000
540.2330, 4045.000
541.4110, 3710.000
542.5880, 3619.000
543.7650, 3475.000
544.9420, 3331.000
546.1180, 3149.000
547.2950, 3000.000
548.4710, 2878.367
549.6470, 2839.000
550.8230, 2669.000
551.9990, 2636.000
553.1750, 2580.000
554.3500, 2465.000
555.5260, 2398.000
556.7010, 2357.000
557.8760, 2300.000
559.0510, 2219.000
560.2250, 2172.000
561.4000, 2152.000
562.5740, 2095.000
563.7480, 2129.000
564.9220, 2061.000
566.0960, 2086.000
567.2700, 2037.506
568.4430, 1952.000
569.6170, 1950.000
570.7900, 1902.000
571.9630, 1866.000
573.1360, 1902.000
574.3080, 1881.000
575.4810, 1846.000
576.6530, 1843.000
577.8250, 1826.849
578.9980, 1825.861
580.1690, 1802.000
581.3410, 1824.000
582.5130, 1789.000
583.6840, 1759.000
584.8550, 1773.000
586.0260, 1751.000
587.1970, 1813.000
588.3680, 1695.000
589.5380, 1768.000
590.7080, 1733.000
591.8790, 1748.000
593.0490, 1733.000
594.2190, 1739.593
595.3880, 1786.000
596.5580, 1781.000
597.7270, 1782.000
598.8960, 1843.000
600.0650, 1865.000
601.2340, 1872.000
602.4030, 1876.000
603.5710, 1958.000
604.7400, 2040.000
605.9080, 2067.638
607.0760, 2074.000
608.2440, 2166.000
609.4120, 2218.000
610.5790, 2278.000
611.7460, 2366.000
612.9140, 2490.000
614.0810, 2574.000
615.2480, 2743.000
616.4140, 2853.000
617.5810, 3008.000
618.7470, 3311.000
619.9130, 3505.000
621.0790, 3736.000
622.2450, 4025.000
623.4110, 4468.000
624.5770, 4793.000
625.7420, 5266.000
626.9070, 5751.000
628.0720, 6234.000
629.2370, 6666.000
630.4020, 7328.000
631.5660, 7730.000
632.7310, 8247.000
633.8950, 8648.000
635.0590, 9016.000
636.2230, 9199.000
637.3870, 9194.000
638.5500, 9073.000
639.7140, 8921.000
640.8770, 8510.000
642.0400, 8172.000
643.2030, 7667.000
644.3660, 7143.000
645.5280, 6666.000
646.6910, 6167.000
647.8530, 5705.000
649.0150, 5197.000
650.1770, 4832.000
651.3390, 4431.000
652.5000, 4100.000
653.6620, 3847.000
654.8230, 3582.000
655.9840, 3308.000
657.1450, 3127.000
658.3060, 3076.000
659.4660, 2898.000
660.6270, 2776.000
661.7870, 2600.000
662.9470, 2528.000
664.1070, 2393.000
665.2670, 2279.000
666.4260, 2212.000
667.5860, 2115.000
668.7450, 2008.000
669.9040, 2017.000
671.0630, 1939.000
672.2220, 1887.000
673.3800, 1881.000
674.5390, 1805.000
675.6970, 1739.000
676.8550, 1700.000
678.0130, 1666.000
679.1710, 1612.000
680.3290, 1587.000
681.4860, 1556.000
682.6430, 1546.000
683.8000, 1484.000
684.9570, 1522.000
686.1140, 1467.000
687.2710, 1423.000
688.4270, 1470.000
689.5840, 1438.000
690.7400, 1426.000
691.8960, 1390.000
693.0520, 1352.000
694.2070, 1350.000
695.3630, 1369.000
696.5180, 1350.000
697.6730, 1339.000
698.8280, 1335.000
699.9830, 1341.000
701.1380, 1288.000
702.2920, 1283.000
703.4470, 1243.000
704.6010, 1217.000
705.7550, 1234.000
706.9090, 1192.000
708.0620, 1179.000
709.2160, 1147.000
710.3690, 1139.000
711.5220, 1159.000
712.6750, 1083.000
713.8280, 1106.000
714.9810, 1101.000
716.1340, 1028.000
717.2860, 1045.000
718.4380, 1054.000
719.5900, 1019.000
720.7420, 997.0000
721.8940, 999.0000
723.0450, 1003.000
724.1970, 963.0000
725.3480, 946.0000
726.4990, 943.5611
727.6500, 969.0000
728.8010, 935.0000
729.9510, 945.0000
731.1020, 940.0000
732.2520, 899.0000
733.4020, 905.0000
734.5520, 903.0000
735.7020, 898.0000
736.8510, 899.7414
738.0010, 903.0000
739.1500, 893.0000
740.2990, 881.0000
741.4480, 869.0000
742.5970, 905.0000
743.7450, 889.0000
744.8940, 866.0000
746.0420, 911.0000
747.1900, 884.0000
748.3380, 883.0000
749.4860, 860.0000
750.6330, 879.0000
751.7810, 910.0000
752.9280, 900.0000
754.0750, 905.0000
755.2220, 887.0000
756.3690, 890.6415
757.5160, 864.0000
758.6620, 897.0000
759.8090, 921.0000
760.9550, 940.0000
762.1010, 900.0000
763.2470, 942.0000
764.3920, 915.0000
765.5380, 944.0000
766.6830, 964.0000
767.8280, 955.0000
768.9730, 952.0000
770.1180, 1012.000
771.2630, 967.0000
772.4070, 1051.000
773.5520, 1038.000
774.6960, 1057.000
775.8400, 1069.000
776.9840, 1102.000
778.1280, 1075.000
779.2710, 1116.000
780.4140, 1122.000
781.5580, 1152.000
782.7010, 1182.000
783.8440, 1182.000
784.9860, 1205.000
786.1290, 1243.000
787.2710, 1267.000
788.4140, 1235.000
789.5560, 1282.000
790.6980, 1252.000
791.8390, 1325.000
792.9810, 1294.000
794.1220, 1252.000
795.2640, 1275.000
796.4050, 1267.000
797.5460, 1284.000
798.6860, 1275.000
799.8270, 1257.000
800.9680, 1244.000
802.1080, 1253.000
803.2480, 1251.000
804.3880, 1244.000
805.5280, 1250.000
806.6670, 1183.000
807.8070, 1205.000
808.9460, 1190.000
810.0850, 1120.000
811.2240, 1160.000
812.3630, 1086.000
813.5020, 1148.000
814.6400, 1101.000
815.7790, 1103.000
816.9170, 1099.000
818.0550, 1106.000
819.1930, 1091.000
820.3300, 1087.000
821.4680, 1031.000
822.6050, 1044.000
823.7430, 1002.000
824.8800, 1029.000
826.0170, 1014.000
827.1530, 1038.000
828.2900, 1025.000
829.4260, 1010.000
830.5620, 1007.000
831.6990, 984.0000
832.8340, 1013.000
833.9700, 984.0000
835.1060, 952.0000
836.2410, 1001.000
837.3760, 938.0000
838.5120, 982.0000
839.6470, 971.0000
840.7810, 958.0000
841.9160, 942.0000
843.0500, 928.0000
844.1850, 924.7899
845.3190, 939.0000
846.4530, 930.0000
847.5870, 920.0000
848.7200, 941.0000
849.8540, 913.0000
850.9870, 895.0000
852.1200, 897.0000
853.2530, 883.0000
854.3860, 899.0000
855.5190, 896.0000
856.6510, 868.0000
857.7840, 915.0000
858.9160, 871.0000
860.0480, 869.0000
861.1800, 884.0000
862.3110, 894.0000
863.4430, 854.0000
864.5740, 832.0000
865.7060, 831.7130
866.8370, 856.0000
867.9680, 820.0000
869.0980, 843.0000
870.2290, 837.0000
871.3590, 826.0000
872.4900, 838.0000
873.6200, 827.0000
874.7500, 820.0000
875.8790, 828.0000
877.0090, 823.0000
878.1380, 816.0000
879.2680, 814.0000
880.3970, 798.0000
881.5260, 779.0000
882.6550, 790.0000
883.7830, 796.0000
884.9120, 775.0000
886.0400, 779.0000
887.1680, 751.0000
888.2960, 774.0000
889.4240, 734.0000
890.5520, 737.0000
891.6790, 757.0000
892.8070, 753.0000
893.9340, 743.0000
895.0610, 725.0000
896.1880, 739.0000
897.3140, 728.0000
898.4410, 718.0000
899.5670, 723.0000
900.6940, 718.0000
901.8200, 725.0000
902.9450, 731.0000
904.0710, 727.3347
905.1970, 711.0000
906.3220, 720.0000
907.4470, 712.0000
908.5730, 698.0000
909.6980, 694.0000
910.8220, 691.0000
911.9470, 686.0000
913.0710, 725.0000
914.1960, 686.0000
915.3200, 689.0000
916.4440, 739.0000
917.5680, 688.0000
918.6910, 705.0000
919.8150, 680.0000
920.9380, 699.0000
922.0610, 672.0000
923.1840, 684.0000
924.3070, 681.0000
925.4300, 687.0000
926.5520, 674.0000
927.6750, 663.0000
928.7970, 682.0000
929.9190, 680.0000
931.0410, 682.0000
932.1630, 677.0000
933.2840, 674.0000
934.4060, 661.0000
935.5270, 661.2247
936.6480, 647.0000
937.7690, 657.0000
938.8900, 665.0000
940.0100, 665.0000
941.1310, 662.0000
942.2510, 651.0000
943.3710, 670.0000
944.4910, 658.0000
945.6110, 643.0000
946.7310, 649.0000
947.8500, 661.0000
948.9690, 635.0000
950.0890, 646.0000
951.2080, 623.0000
952.3260, 658.0000
953.4450, 642.0000
954.5640, 636.0000
955.6820, 634.0000
956.8000, 641.0000
957.9180, 645.0000
959.0360, 638.0000
960.1540, 642.0294
961.2710, 631.0000
962.3890, 640.0000
963.5060, 638.0000
964.6230, 637.0000
965.7400, 640.1204
966.8570, 648.0000
967.9730, 638.0000
969.0900, 634.0000
970.2060, 626.0000
971.3220, 613.0000
972.4380, 607.0000
973.5540, 610.5490
974.6700, 608.0338
975.7850, 618.0000
976.9010, 618.0000
978.0160, 609.0000
979.1310, 618.0000
980.2460, 614.1533
981.3600, 612.7917
982.4750, 613.0000
983.5890, 614.0000
984.7030, 609.0000
985.8170, 618.0000
986.9310, 616.0000
988.0450, 627.0000
989.1590, 607.0000
990.2720, 616.0000
991.3850, 610.0000
992.4980, 623.0000
993.6110, 612.0000
994.7240, 623.0000
995.8370, 630.0000
996.9490, 589.0000
998.0620, 609.0000
999.1740, 623.0000
1000.286, 600.0000
1001.398, 616.0000
1002.509, 604.0000
1003.621, 607.0000
1004.732, 587.0000
1005.843, 573.0000
1006.954, 601.0000
1008.065, 628.0000
1009.176, 596.0000
1010.286, 613.0000
1011.397, 618.0000
1012.507, 583.0000
1013.617, 592.0000
1014.727, 600.0000
1015.837, 596.0000
1016.946, 600.0000
1018.056, 615.0000
1019.165, 598.0000
1020.274, 589.0000
1021.383, 598.0000
1022.492, 607.0000
1023.601, 608.0000
1024.709, 594.0000
1025.817, 600.4653
1026.926, 594.8287
1028.034, 599.0000
1029.141, 590.0000
1030.249, 590.0000
1031.357, 586.0000
1032.464, 588.0000
1033.571, 584.0000
1034.678, 610.0000
1035.785, 567.0000
1036.892, 604.0000
1037.999, 582.0000
1039.105, 582.0000
1040.211, 589.0000
1041.317, 578.0000
1042.423, 609.0000
1043.529, 576.0000
1044.635, 611.0000
1045.740, 588.0000
1046.845, 559.0000
1047.951, 587.0000
1049.056, 590.0000
1050.160, 606.0000
1051.265, 593.0000
1052.370, 576.0000
1053.474, 589.0000
1054.578, 570.0000
1055.682, 565.0000
1056.786, 575.0000
1057.890, 570.0000
1058.993, 569.0836
1060.097, 564.0000
1061.200, 568.0000
1062.303, 573.0000
1063.406, 583.0000
1064.509, 582.8704
1065.612, 567.0000
1066.714, 578.0000
1067.816, 578.0000
1068.919, 559.0000
1070.021, 568.0000
1071.122, 551.0000
1072.224, 563.0000
1073.326, 583.0000
1074.427, 563.0000
1075.528, 574.0000
1076.629, 562.0000
1077.730, 570.0000
1078.831, 566.0000
1079.931, 577.0000
1081.032, 573.0000
1082.132, 568.0000
1083.232, 564.0000
1084.332, 552.0000
1085.432, 573.0000
1086.531, 554.0000
1087.631, 559.0000
1088.730, 573.0000
1089.829, 550.0000
1090.928, 557.0000
1092.027, 550.0000
1093.126, 548.0000
1094.224, 536.0000
1095.323, 561.0000
1096.421, 545.0000
1097.519, 577.0000
1098.617, 545.0000
1099.715, 547.0000
1100.812, 541.0000
1101.910, 538.0000
1103.007, 538.4022
1104.104, 534.0000
1105.201, 536.0000
1106.298, 546.0000
1107.394, 542.0000
1108.491, 556.0000
1109.587, 549.0000
1110.683, 562.0000
1111.779, 544.0000
1112.875, 520.0000
1113.971, 539.0000
1115.066, 546.0000
1116.162, 537.0000
1117.257, 544.0000
1118.352, 541.0000
1119.447, 571.0000
1120.542, 552.0000
1121.636, 578.0000
1122.731, 561.0000
1123.825, 569.0000
1124.919, 553.0000
1126.013, 530.0000
1127.107, 554.0000
1128.200, 554.0000
1129.294, 536.0000
1130.387, 554.0000
1131.480, 548.0000
1132.573, 522.0000
1133.666, 551.0000
1134.759, 539.0000
1135.851, 530.0000
1136.944, 520.0000
1138.036, 535.0000
1139.128, 534.0000
1140.220, 547.0000
1141.312, 537.0000
1142.403, 511.0000
1143.495, 525.0000
1144.586, 525.0000
1145.677, 525.0000
1146.768, 538.0000
1147.859, 529.0000
1148.950, 543.0000
1150.040, 535.0000
1151.130, 526.0000
1152.221, 516.0000
1153.311, 524.0000
1154.401, 528.0000
1155.490, 521.0000
1156.580, 525.0000
1157.669, 526.0000
1158.759, 524.0000
1159.848, 526.2772
1160.937, 521.0000
1162.025, 526.0000
1163.114, 528.0000
1164.202, 526.0000
1165.291, 523.0000
1166.379, 527.0000
1167.467, 520.0000
1168.555, 529.0000
1169.642, 515.0000
1170.730, 518.0000
1171.817, 505.0000
1172.905, 530.0000
1173.992, 522.0000
1175.078, 526.0000
1176.165, 525.0000
1177.252, 526.0000
1178.338, 522.0000
1179.425, 531.0000
1180.511, 522.0000
1181.597, 529.0000
1182.682, 536.0000
1183.768, 544.0000
1184.854, 526.0000
1185.939, 509.0000
1187.024, 524.0000
1188.109, 531.0000
1189.194, 538.0000
1190.279, 535.0000
1191.363, 527.0000
1192.448, 517.0000
1193.532, 519.0000
1194.616, 521.0000
1195.700, 522.0000
1196.784, 536.0000
1197.867, 516.0000
1198.951, 518.0000
1200.034, 503.0000
1201.117, 532.0000
1202.200, 531.0000
1203.283, 533.0000
1204.366, 506.0000
1205.448, 529.0000
1206.531, 526.0000
1207.613, 530.0000
1208.695, 529.0000
1209.777, 542.0000
1210.859, 510.0000
1211.940, 501.0000
1213.022, 518.0000
1214.103, 531.0000
1215.184, 514.0000
1216.265, 521.0000
1217.346, 530.0000
1218.427, 512.0000
1219.507, 522.0000
1220.587, 534.0000
1221.668, 529.0000
1222.748, 530.0000
1223.828, 549.0000
1224.907, 518.0000
1225.987, 542.0000
1227.066, 509.0000
1228.146, 510.0000
1229.225, 518.0000
1230.304, 522.0000
1231.382, 532.0000
1232.461, 525.0000
1233.540, 520.0000
1234.618, 549.0000
1235.696, 516.0000
1236.774, 538.0000
1237.852, 530.0000
1238.930, 530.0000
