##NAMES=Andalusite
##RRUFFID=R060212
##IDEAL CHEMISTRY=Al_2_SiO_5_
##LOCALITY=Brazil
##OWNER=RRUFF
##SOURCE=Marcus Origlieri
##DESCRIPTION=Transparent yellow-green water-worn pebble
##STATUS=The identification of this mineral is confirmed by single-crystal X-ray diffraction and chemical analysis.
##URL=rruff.info/R060212
##MEASURED CHEMISTRY=(Al_1.98_Fe^3+^_0.02_)_Î£=2_Si_1.00_O_5_
##PIN_ID=L00827
##ORIENTATION=Laser parallel to -b* (0 -1 0). Fiducial mark perpendicular to laser is parallel to c [0 0 1]
99.64900, 10039.00
100.8830, 10217.00
102.1160, 10423.00
103.3490, 10580.00
104.5820, 10573.00
105.8150, 10930.00
107.0470, 11078.00
108.2800, 11612.00
109.5120, 11932.00
110.7440, 11673.00
111.9760, 11376.00
113.2080, 11450.00
114.4400, 11482.00
115.6710, 11597.00
116.9030, 11879.00
118.1340, 11827.00
119.3650, 11863.00
120.5960, 11772.00
121.8270, 11882.00
123.0580, 11931.00
124.2880, 12112.00
125.5190, 12102.00
126.7490, 12268.00
127.9790, 12192.00
129.2090, 12227.00
130.4390, 12410.00
131.6680, 12617.00
132.8980, 12666.00
134.1270, 12700.00
135.3560, 12805.00
136.5850, 12907.00
137.8140, 13010.00
139.0430, 13267.00
140.2710, 13218.00
141.5000, 13407.00
142.7280, 13411.00
143.9560, 13450.00
145.1840, 13320.00
146.4120, 13440.00
147.6390, 13413.00
148.8670, 13302.00
150.0940, 13338.00
151.3210, 13398.00
152.5490, 13325.00
153.7750, 13204.00
155.0020, 13299.00
156.2290, 13399.00
157.4550, 13277.00
158.6810, 13307.00
159.9080, 13284.00
161.1340, 13388.00
162.3590, 13420.00
163.5850, 13591.00
164.8110, 13688.00
166.0360, 13751.00
167.2610, 13738.00
168.4860, 13710.00
169.7110, 13811.00
170.9360, 13881.00
172.1610, 13897.00
173.3850, 13928.00
174.6100, 13943.96
175.8340, 13905.00
177.0580, 13950.00
178.2820, 13883.00
179.5050, 13878.00
180.7290, 14019.00
181.9520, 14106.00
183.1760, 14180.00
184.3990, 14246.00
185.6220, 14343.00
186.8450, 14417.64
188.0670, 14532.00
189.2900, 14605.00
190.5120, 14716.00
191.7340, 14851.00
192.9560, 14922.00
194.1780, 15069.00
195.4000, 14911.00
196.6220, 15020.00
197.8430, 15038.00
199.0640, 15133.00
200.2860, 15104.00
201.5070, 15262.00
202.7270, 15275.00
203.9480, 15127.00
205.1690, 15016.00
206.3890, 14732.00
207.6090, 14523.00
208.8290, 14506.00
210.0490, 14562.00
211.2690, 14559.00
212.4890, 14646.00
213.7080, 14616.00
214.9280, 14618.00
216.1470, 14603.00
217.3660, 14742.00
218.5850, 14659.00
219.8030, 14678.00
221.0220, 14866.00
222.2400, 14770.00
223.4590, 14736.00
224.6770, 14871.00
225.8950, 14952.00
227.1120, 14915.00
228.3300, 14959.00
229.5480, 14989.00
230.7650, 14947.00
231.9820, 15128.00
233.1990, 15247.00
234.4160, 15217.00
235.6330, 15300.00
236.8490, 15391.00
238.0660, 15458.16
239.2820, 15669.00
240.4980, 15650.00
241.7140, 15689.00
242.9300, 15737.00
244.1460, 15570.00
245.3610, 15804.00
246.5770, 15444.00
247.7920, 15751.00
249.0070, 15554.00
250.2220, 15722.00
251.4370, 15732.00
252.6510, 15673.00
253.8660, 15587.00
255.0800, 15871.00
256.2940, 15880.00
257.5080, 15868.00
258.7220, 16006.00
259.9360, 16060.38
261.1490, 16160.92
262.3630, 16238.00
263.5760, 16379.00
264.7890, 16374.00
266.0020, 16448.00
267.2150, 16616.00
268.4270, 16793.00
269.6400, 16733.00
270.8520, 17005.00
272.0640, 17192.00
273.2760, 17458.00
274.4880, 17756.00
275.7000, 18225.00
276.9120, 18400.00
278.1230, 18648.00
279.3340, 19086.00
280.5450, 19837.00
281.7560, 20898.00
282.9670, 21981.00
284.1780, 23533.00
285.3880, 25303.00
286.5980, 27453.00
287.8090, 30209.00
289.0190, 32170.00
290.2290, 33564.00
291.4380, 33725.00
292.6480, 32064.00
293.8570, 29902.00
295.0670, 27050.00
296.2760, 24707.00
297.4850, 22824.00
298.6930, 21508.00
299.9020, 20469.00
301.1110, 19705.00
302.3190, 19185.00
303.5270, 18780.00
304.7350, 18546.00
305.9430, 18393.00
307.1510, 18310.00
308.3580, 18291.00
309.5660, 18373.00
310.7730, 18817.00
311.9800, 19338.00
313.1870, 20136.00
314.3940, 20956.00
315.6010, 22116.00
316.8070, 23637.00
318.0130, 24937.00
319.2200, 26326.00
320.4260, 26711.00
321.6310, 26435.00
322.8370, 25467.00
324.0430, 24158.00
325.2480, 22983.00
326.4540, 21655.00
327.6590, 20746.00
328.8640, 20259.00
330.0680, 19827.00
331.2730, 19385.00
332.4780, 19376.00
333.6820, 19389.00
334.8860, 19295.00
336.0900, 19223.00
337.2940, 19282.00
338.4980, 19029.00
339.7010, 19163.00
340.9050, 19109.00
342.1080, 19197.00
343.3110, 19228.00
344.5140, 19080.00
345.7170, 19302.00
346.9200, 19436.00
348.1220, 19730.00
349.3240, 20099.00
350.5270, 20693.00
351.7290, 21194.00
352.9310, 21971.00
354.1320, 22694.00
355.3340, 23634.00
356.5350, 24294.00
357.7370, 24912.00
358.9380, 24478.00
360.1390, 24039.00
361.3400, 23475.00
362.5400, 22574.00
363.7410, 21911.00
364.9410, 21542.00
366.1410, 20884.23
367.3410, 20528.00
368.5410, 20036.00
369.7410, 20053.00
370.9400, 19862.00
372.1400, 19643.00
373.3390, 19711.00
374.5380, 19720.00
375.7370, 19375.00
376.9360, 19316.00
378.1350, 19257.00
379.3330, 19170.23
380.5310, 19257.00
381.7300, 19237.00
382.9280, 19269.00
384.1260, 19426.00
385.3230, 19463.00
386.5210, 19358.00
387.7180, 19390.00
388.9160, 19340.00
390.1130, 19610.00
391.3100, 19446.00
392.5060, 19510.00
393.7030, 19299.00
394.9000, 19531.00
396.0960, 19393.00
397.2920, 19378.00
398.4880, 19457.00
399.6840, 19476.00
400.8800, 19412.00
402.0750, 19502.00
403.2710, 19585.00
404.4660, 19586.00
405.6610, 19529.00
406.8560, 19763.00
408.0510, 19866.00
409.2450, 19729.00
410.4400, 19952.00
411.6340, 20201.00
412.8280, 20306.00
414.0220, 20470.00
415.2160, 20682.00
416.4100, 21011.00
417.6030, 21004.00
418.7970, 21116.00
419.9900, 20886.00
421.1830, 20723.00
422.3760, 20435.00
423.5690, 20287.00
424.7610, 20214.00
425.9540, 20073.00
427.1460, 20074.00
428.3380, 19949.00
429.5300, 19976.00
430.7220, 20098.00
431.9140, 19882.00
433.1050, 20105.00
434.2970, 20226.00
435.4880, 20209.00
436.6790, 20105.00
437.8700, 20127.00
439.0610, 20229.00
440.2510, 20223.00
441.4420, 20373.00
442.6320, 20303.00
443.8220, 20561.00
445.0120, 20539.00
446.2020, 20693.00
447.3910, 20993.00
448.5810, 21408.00
449.7700, 21644.00
450.9600, 21676.00
452.1490, 21637.00
453.3370, 21193.00
454.5260, 21210.00
455.7150, 21051.00
456.9030, 20836.00
458.0910, 20807.00
459.2800, 20768.00
460.4670, 20845.00
461.6550, 21008.00
462.8430, 20859.00
464.0300, 20933.00
465.2180, 20759.00
466.4050, 21080.00
467.5920, 20988.00
468.7790, 21092.00
469.9650, 21416.00
471.1520, 21215.00
472.3380, 21434.00
473.5250, 21562.00
474.7110, 21396.00
475.8970, 21610.00
477.0820, 21597.00
478.2680, 21656.00
479.4540, 21831.00
480.6390, 22017.00
481.8240, 21832.00
483.0090, 21951.00
484.1940, 21978.00
485.3780, 22175.00
486.5630, 21962.00
487.7470, 21736.00
488.9320, 21807.00
490.1160, 21662.00
491.3000, 21774.00
492.4830, 21715.00
493.6670, 21632.00
494.8500, 21643.00
496.0340, 21636.25
497.2170, 21791.00
498.4000, 21733.00
499.5820, 21782.00
500.7650, 21912.00
501.9480, 21838.00
503.1300, 21916.00
504.3120, 22040.00
505.4940, 21866.00
506.6760, 22068.00
507.8580, 22263.00
509.0390, 22080.00
510.2210, 22178.00
511.4020, 22153.00
512.5830, 22048.00
513.7640, 22299.00
514.9450, 22408.00
516.1250, 22313.00
517.3060, 22285.00
518.4860, 22376.00
519.6660, 22282.00
520.8460, 22489.00
522.0260, 22573.00
523.2060, 22446.00
524.3850, 22529.00
525.5650, 22703.00
526.7440, 22629.00
527.9230, 22586.00
529.1020, 22621.00
530.2810, 22919.00
531.4590, 22651.00
532.6380, 22807.00
533.8160, 22752.00
534.9940, 22727.00
536.1720, 23088.00
537.3500, 23192.00
538.5270, 23002.00
539.7050, 23446.00
540.8820, 23487.00
542.0590, 23785.00
543.2360, 23886.00
544.4130, 24181.00
545.5900, 24480.00
546.7660, 25057.00
547.9430, 25264.00
549.1190, 25823.00
550.2950, 25625.00
551.4710, 25848.00
552.6470, 25626.00
553.8220, 25322.00
554.9980, 24839.00
556.1730, 24637.00
557.3480, 24346.00
558.5230, 24027.00
559.6980, 23851.00
560.8730, 23925.00
562.0470, 23921.00
563.2220, 23798.00
564.3960, 23615.00
565.5700, 23708.00
566.7440, 23803.00
567.9170, 23888.00
569.0910, 23812.00
570.2640, 23833.00
571.4380, 23900.00
572.6110, 24127.00
573.7840, 23982.00
574.9570, 23940.00
576.1290, 23901.00
577.3020, 23713.00
578.4740, 23859.00
579.6460, 23835.00
580.8180, 23828.00
581.9900, 23949.00
583.1620, 23865.00
584.3330, 23845.00
585.5040, 24099.00
586.6760, 24186.00
587.8470, 24081.00
589.0180, 24073.00
590.1880, 24001.00
591.3590, 24043.00
592.5290, 24316.00
593.7000, 24170.00
594.8700, 24258.00
596.0400, 24352.00
597.2090, 24255.00
598.3790, 24468.00
599.5490, 24321.00
600.7180, 24751.00
601.8870, 24669.00
603.0560, 24753.00
604.2250, 24837.00
605.3940, 24894.00
606.5620, 24956.00
607.7300, 25069.00
608.8990, 24884.00
610.0670, 24826.00
611.2350, 24970.00
612.4020, 24845.00
613.5700, 24857.00
614.7370, 24848.00
615.9050, 24685.00
617.0720, 24838.00
618.2390, 24905.00
619.4060, 24795.00
620.5720, 24867.00
621.7390, 25127.00
622.9050, 25026.00
624.0710, 25102.00
625.2370, 25221.00
626.4030, 25137.00
627.5690, 25214.00
628.7340, 25147.00
629.9000, 25245.00
631.0650, 25082.00
632.2300, 25303.00
633.3950, 25219.00
634.5600, 25286.00
635.7240, 25218.00
636.8890, 25082.00
638.0530, 25370.00
639.2170, 25560.00
640.3810, 25488.00
641.5450, 25455.00
642.7080, 25530.00
643.8720, 25680.00
645.0350, 25734.00
646.1980, 25713.00
647.3610, 25684.00
648.5240, 25741.00
649.6870, 25661.00
650.8490, 25630.00
652.0120, 25692.00
653.1740, 25633.00
654.3360, 25760.00
655.4980, 25900.00
656.6600, 25873.00
657.8210, 25963.00
658.9830, 25919.00
660.1440, 26167.00
661.3050, 26260.00
662.4660, 26342.00
663.6270, 26302.00
664.7870, 26249.00
665.9480, 26393.00
667.1080, 26373.00
668.2680, 26359.93
669.4280, 26080.00
670.5880, 26271.00
671.7480, 26221.00
672.9070, 26104.00
674.0670, 26250.00
675.2260, 26309.00
676.3850, 26425.00
677.5440, 26327.00
678.7030, 26277.00
679.8610, 26510.00
681.0200, 26751.00
682.1780, 26559.00
683.3360, 26709.00
684.4940, 26445.00
685.6520, 26607.00
686.8090, 26815.00
687.9670, 26673.00
689.1240, 26730.00
690.2810, 26823.00
691.4380, 26799.00
692.5950, 26805.00
693.7520, 26754.00
694.9080, 26764.48
696.0650, 26808.94
697.2210, 26803.00
698.3770, 26958.00
699.5330, 27073.00
700.6880, 27213.00
701.8440, 27285.00
702.9990, 27323.00
704.1550, 27404.00
705.3100, 27442.00
706.4650, 27535.22
707.6190, 27613.00
708.7740, 27693.00
709.9290, 27779.00
711.0830, 27796.00
712.2370, 28191.00
713.3910, 28308.00
714.5450, 28200.00
715.6980, 28114.00
716.8520, 28122.00
718.0050, 28203.00
719.1580, 28204.00
720.3110, 27992.00
721.4640, 27968.00
722.6170, 27701.00
723.7700, 27596.00
724.9220, 27636.00
726.0740, 27647.00
727.2260, 27675.00
728.3780, 27659.69
729.5300, 27513.00
730.6810, 27607.00
731.8330, 27679.00
732.9840, 27642.00
734.1350, 27758.00
735.2860, 27636.00
736.4370, 27823.00
737.5880, 27813.00
738.7380, 27895.00
739.8880, 27839.00
741.0390, 27951.00
742.1890, 27906.00
743.3380, 28065.00
744.4880, 28026.00
745.6380, 28209.00
746.7870, 28107.00
747.9360, 28217.00
749.0850, 28147.00
750.2340, 28152.00
751.3830, 28278.00
752.5310, 28340.00
753.6800, 28145.00
754.8280, 28276.00
755.9760, 28170.00
757.1240, 28186.00
758.2720, 28355.00
759.4190, 28197.00
760.5670, 28301.00
761.7140, 28440.00
762.8610, 28345.00
764.0080, 28560.00
765.1550, 28802.00
766.3020, 28442.00
767.4480, 28559.00
768.5950, 28591.00
769.7410, 28425.00
770.8870, 28648.00
772.0330, 28721.00
773.1780, 28744.00
774.3240, 28716.00
775.4690, 28839.00
776.6140, 28979.00
777.7590, 28843.00
778.9040, 28998.00
780.0490, 28939.00
781.1940, 29027.00
782.3380, 28942.00
783.4820, 28880.00
784.6260, 29063.00
785.7700, 29273.00
786.9140, 29177.00
788.0580, 29208.00
789.2010, 29336.00
790.3450, 29397.00
791.4880, 29526.00
792.6310, 29353.00
793.7730, 29393.00
794.9160, 29598.00
796.0590, 29422.00
797.2010, 29547.00
798.3430, 29480.00
799.4850, 29767.00
800.6270, 29791.00
801.7690, 29867.00
802.9100, 30156.00
804.0520, 29943.00
805.1930, 30087.00
806.3340, 29777.00
807.4750, 30026.00
808.6160, 29966.00
809.7560, 30094.00
810.8970, 30035.00
812.0370, 30089.00
813.1770, 30105.00
814.3170, 30080.00
815.4570, 29937.00
816.5960, 30177.00
817.7360, 29903.00
818.8750, 30014.00
820.0140, 30189.00
821.1530, 30018.00
822.2920, 30255.00
823.4310, 30384.00
824.5690, 30349.00
825.7070, 30408.00
826.8460, 30490.00
827.9840, 30357.00
829.1220, 30516.00
830.2590, 30628.00
831.3970, 30719.00
832.5340, 30686.00
833.6710, 30741.00
834.8080, 30830.00
835.9450, 30785.00
837.0820, 30848.00
838.2190, 30778.00
839.3550, 30648.00
840.4910, 30703.00
841.6270, 30826.00
842.7630, 30498.00
843.8990, 30756.00
845.0350, 30653.00
846.1700, 30821.00
847.3060, 30863.00
848.4410, 30735.00
849.5760, 30924.00
850.7100, 30693.00
851.8450, 30743.00
852.9800, 30955.00
854.1140, 30948.00
855.2480, 30870.00
856.3820, 31091.00
857.5160, 31129.00
858.6500, 31006.00
859.7830, 31376.00
860.9170, 31158.00
862.0500, 31376.00
863.1830, 31349.00
864.3160, 31115.00
865.4480, 31314.00
866.5810, 31494.00
867.7130, 31553.00
868.8460, 31442.00
869.9780, 31568.00
871.1100, 31594.00
872.2410, 31694.00
873.3730, 31610.00
874.5050, 31662.20
875.6360, 31581.00
876.7670, 31707.00
877.8980, 31786.00
879.0290, 31899.00
880.1590, 31712.00
881.2900, 31987.00
882.4200, 31931.00
883.5500, 31878.00
884.6800, 32065.00
885.8100, 32110.00
886.9400, 32149.00
888.0690, 32263.00
889.1990, 32335.00
890.3280, 32456.00
891.4570, 32499.00
892.5860, 32502.00
893.7140, 32545.00
894.8430, 32655.54
895.9710, 32936.00
897.1000, 32895.00
898.2280, 33134.00
899.3560, 33238.00
900.4830, 33629.00
901.6110, 33654.00
902.7380, 33708.00
903.8660, 34149.00
904.9930, 34453.00
906.1200, 34834.00
907.2460, 35235.00
908.3730, 36272.00
909.5000, 37225.00
910.6260, 38652.00
911.7520, 39921.00
912.8780, 42560.00
914.0040, 45397.00
915.1290, 48937.00
916.2550, 51811.00
917.3800, 54842.00
918.5050, 55724.00
919.6300, 54702.00
920.7550, 52369.00
921.8800, 49572.00
923.0040, 46987.00
924.1290, 44820.00
925.2530, 43611.00
926.3770, 42981.00
927.5010, 41977.00
928.6250, 41332.00
929.7480, 40071.00
930.8720, 39092.00
931.9950, 38228.00
933.1180, 37440.00
934.2410, 36768.00
935.3640, 36386.00
936.4860, 35822.00
937.6090, 35748.00
938.7310, 35886.00
939.8530, 35587.00
940.9750, 35615.00
942.0970, 35370.00
943.2180, 35685.00
944.3400, 35772.00
945.4610, 35922.00
946.5820, 35951.00
947.7030, 36281.00
948.8240, 36481.00
949.9450, 36682.00
951.0650, 36367.00
952.1860, 36017.00
953.3060, 35905.00
954.4260, 35567.00
955.5460, 35292.00
956.6650, 35161.00
957.7850, 34821.00
958.9040, 34875.00
960.0230, 34669.00
961.1420, 34591.00
962.2610, 34556.00
963.3800, 34520.00
964.4990, 34734.00
965.6170, 34585.00
966.7350, 34372.00
967.8530, 34632.00
968.9710, 34644.00
970.0890, 34583.00
971.2070, 34494.00
972.3240, 34651.00
973.4410, 34771.00
974.5580, 34545.00
975.6750, 34773.00
976.7920, 34643.00
977.9090, 34814.00
979.0250, 34690.00
980.1410, 34698.00
981.2580, 34830.00
982.3740, 34871.00
983.4890, 34925.71
984.6050, 35055.00
985.7200, 35003.00
986.8360, 35116.00
987.9510, 35100.00
989.0660, 34970.00
990.1810, 35346.00
991.2950, 34937.00
992.4100, 35513.00
993.5240, 35355.94
994.6390, 35262.00
995.7530, 35304.00
996.8660, 35336.00
997.9800, 35299.00
999.0940, 35323.00
1000.207, 35291.00
1001.320, 35397.00
1002.433, 35471.00
1003.546, 35506.81
1004.659, 35635.00
1005.772, 35698.00
1006.884, 35838.00
1007.996, 35983.03
1009.108, 36149.15
1010.220, 36349.00
1011.332, 36558.00
1012.444, 36834.00
1013.555, 37077.00
1014.666, 37483.00
1015.777, 37908.00
1016.888, 38328.00
1017.999, 38608.00
1019.110, 38681.00
1020.220, 38448.00
1021.331, 38634.00
1022.441, 37996.00
1023.551, 38040.00
1024.661, 37297.00
1025.770, 37494.00
1026.880, 37056.00
1027.989, 37057.00
1029.098, 36722.00
1030.207, 36858.00
1031.316, 36628.00
1032.425, 36698.00
1033.533, 36562.00
1034.642, 36714.00
1035.750, 36737.00
1036.858, 36555.00
1037.966, 36570.00
1039.073, 36841.00
1040.181, 36759.00
1041.288, 36889.00
1042.396, 36731.00
1043.503, 36854.00
1044.610, 36805.00
1045.716, 37002.00
1046.823, 37042.00
1047.929, 36975.00
1049.036, 37109.00
1050.142, 37285.00
1051.248, 37365.00
1052.353, 37504.00
1053.459, 37495.00
1054.564, 37767.00
1055.670, 37990.00
1056.775, 38338.00
1057.880, 38887.00
1058.985, 39493.00
1060.089, 40324.00
1061.194, 40975.00
1062.298, 41870.00
1063.402, 42110.00
1064.506, 42481.00
1065.610, 42114.00
1066.713, 41157.00
1067.817, 40461.00
1068.920, 39797.00
1070.023, 39402.00
1071.126, 39158.00
1072.229, 38831.00
1073.332, 38572.00
1074.435, 38405.47
1075.537, 38211.12
1076.639, 38152.00
1077.741, 38023.00
1078.843, 37992.00
1079.945, 38057.00
1081.046, 37996.00
1082.148, 38073.00
1083.249, 38076.00
1084.350, 38180.00
1085.451, 38158.00
1086.551, 38287.00
1087.652, 38272.43
1088.752, 38259.00
1089.853, 38229.00
1090.953, 38251.00
1092.053, 38137.00
1093.152, 38280.00
1094.252, 38592.00
1095.351, 38582.00
1096.451, 38478.00
1097.550, 38256.00
1098.649, 38626.00
1099.748, 38479.00
1100.846, 38749.00
1101.945, 38900.00
1103.043, 38718.00
1104.141, 38741.00
1105.239, 38980.00
1106.337, 39173.00
1107.434, 39116.00
1108.532, 39460.00
1109.629, 39364.00
1110.726, 39238.00
1111.823, 39520.00
1112.920, 39427.00
1114.017, 39339.00
1115.113, 39129.00
1116.210, 39085.00
1117.306, 38820.00
1118.402, 39114.00
1119.498, 39077.00
1120.593, 39504.00
1121.689, 39558.00
1122.784, 39285.00
1123.879, 39400.00
1124.974, 39132.00
1126.069, 39406.00
1127.164, 39272.00
1128.259, 39258.00
1129.353, 38958.00
1130.447, 39087.00
1131.541, 39094.00
1132.635, 39076.00
1133.729, 39220.00
1134.822, 39134.00
1135.916, 39167.00
1137.009, 39391.00
1138.102, 39070.00
1139.195, 39085.00
1140.288, 39422.00
1141.380, 39181.00
1142.473, 39220.00
1143.565, 39402.00
1144.657, 39354.00
1145.749, 39420.00
1146.841, 39401.00
1147.932, 39507.00
1149.024, 39322.00
1150.115, 39627.00
1151.206, 39272.00
1152.297, 39595.00
1153.388, 39679.00
1154.479, 39646.00
1155.569, 39561.00
1156.659, 39762.00
1157.750, 39895.00
1158.839, 39749.00
1159.929, 39544.00
1161.019, 39769.00
1162.108, 39976.00
1163.198, 39925.00
1164.287, 40017.00
1165.376, 40036.00
1166.465, 40007.00
1167.553, 39961.00
1168.642, 40030.00
1169.730, 40008.00
1170.818, 40092.82
1171.906, 40030.00
1172.994, 40284.00
1174.082, 40303.00
1175.170, 40410.00
1176.257, 40398.00
1177.344, 40215.00
1178.431, 40375.00
1179.518, 40247.00
1180.605, 40338.00
1181.691, 40543.00
1182.778, 40430.00
1183.864, 40382.00
1184.950, 40681.00
1186.036, 40546.00
1187.122, 40426.00
1188.207, 40597.00
1189.292, 40535.00
1190.378, 40700.00
1191.463, 40904.00
1192.548, 40886.00
1193.632, 40918.00
1194.717, 40804.00
1195.801, 41008.00
1196.886, 40745.00
1197.970, 40925.00
1199.054, 40867.00
1200.137, 40899.00
1201.221, 40988.40
1202.305, 41103.00
1203.388, 41146.00
1204.471, 41225.00
1205.554, 41377.00
1206.637, 41193.00
1207.719, 41014.00
1208.802, 41147.00
1209.884, 41397.00
1210.966, 41379.00
1212.048, 41459.00
1213.130, 41316.00
1214.212, 41457.00
1215.293, 41418.00
1216.374, 41506.00
1217.456, 41410.00
1218.536, 41677.00
1219.617, 41432.00
1220.698, 41729.00
1221.778, 41704.00
1222.859, 41572.00
1223.939, 41628.00
1225.019, 41775.00
1226.099, 41656.00
1227.178, 41751.00
1228.258, 41830.00
1229.337, 41757.00
1230.417, 41866.00
1231.496, 42245.00
1232.574, 42088.00
1233.653, 42309.00
1234.732, 42019.00
1235.810, 42014.00
1236.888, 42305.00
1237.966, 42255.00
1239.044, 42334.00
1240.122, 42242.00
1241.199, 42419.00
1242.277, 42365.00
1243.354, 42383.00
1244.431, 42443.00
1245.508, 42350.00
1246.585, 42381.00
1247.661, 42748.00
1248.738, 42429.00
1249.814, 42420.00
1250.890, 42830.00
1251.966, 42338.00
1253.042, 42485.00
1254.117, 42545.00
1255.193, 42891.00
1256.268, 42632.00
1257.343, 42727.00
1258.418, 42761.00
1259.493, 42794.00
1260.567, 42841.85
1261.642, 42828.00
1262.716, 42887.00
1263.790, 42994.00
1264.864, 42996.00
1265.938, 43072.80
1267.011, 43283.00
1268.085, 43114.00
1269.158, 42903.00
1270.231, 42775.00
1271.304, 43134.00
1272.377, 43095.00
1273.450, 43208.00
1274.522, 43446.00
1275.594, 43161.00
1276.666, 43140.00
1277.738, 43333.00
1278.810, 43476.00
1279.882, 43152.00
1280.953, 43520.00
