##NAMES=Andalusite
##RRUFFID=R060212
##IDEAL CHEMISTRY=Al_2_SiO_5_
##LOCALITY=Brazil
##OWNER=RRUFF
##SOURCE=Marcus Origlieri
##DESCRIPTION=Transparent yellow-green water-worn pebble
##STATUS=The identification of this mineral is confirmed by single-crystal X-ray diffraction and chemical analysis.
##URL=rruff.info/R060212
##MEASURED CHEMISTRY=(Al_1.98_Fe^3+^_0.02_)_Î£=2_Si_1.00_O_5_
##PIN_ID=L00827
##ORIENTATION=Laser parallel to -b* (0 -1 0). Fiducial mark perpendicular to laser is parallel to c [0 0 1]
99.64900, 8534.000
100.8830, 8695.000
102.1160, 8673.000
103.3490, 8891.000
104.5820, 8909.000
105.8150, 9114.000
107.0470, 9535.000
108.2800, 9777.000
109.5120, 10172.00
110.7440, 10200.00
111.9760, 9745.000
113.2080, 9597.000
114.4400, 9652.000
115.6710, 9928.000
116.9030, 10045.00
118.1340, 9948.000
119.3650, 9984.000
120.5960, 9857.000
121.8270, 9907.000
123.0580, 9952.000
124.2880, 9958.099
125.5190, 10097.00
126.7490, 10057.00
127.9790, 10279.00
129.2090, 10307.00
130.4390, 10425.00
131.6680, 10571.00
132.8980, 10589.00
134.1270, 10660.00
135.3560, 10898.00
136.5850, 10980.00
137.8140, 11262.00
139.0430, 11501.00
140.2710, 11554.00
141.5000, 11708.00
142.7280, 11477.00
143.9560, 11585.00
145.1840, 11553.00
146.4120, 11463.00
147.6390, 11397.00
148.8670, 11101.00
150.0940, 11077.00
151.3210, 11065.00
152.5490, 11097.00
153.7750, 11143.00
155.0020, 11042.00
156.2290, 10958.00
157.4550, 10942.00
158.6810, 10972.00
159.9080, 11011.00
161.1340, 11069.00
162.3590, 11133.00
163.5850, 11128.00
164.8110, 11205.00
166.0360, 11396.00
167.2610, 11406.00
168.4860, 11461.76
169.7110, 11412.00
170.9360, 11448.00
172.1610, 11514.00
173.3850, 11441.00
174.6100, 11351.00
175.8340, 11418.00
177.0580, 11455.00
178.2820, 11455.00
179.5050, 11630.00
180.7290, 11503.00
181.9520, 11552.00
183.1760, 11534.00
184.3990, 11658.00
185.6220, 11783.00
186.8450, 11989.00
188.0670, 12126.00
189.2900, 12375.00
190.5120, 12488.00
191.7340, 12618.00
192.9560, 12440.00
194.1780, 12487.00
195.4000, 12633.00
196.6220, 12530.00
197.8430, 12619.00
199.0640, 12391.00
200.2860, 12580.00
201.5070, 12882.00
202.7270, 12723.00
203.9480, 12849.00
205.1690, 12463.00
206.3890, 12224.00
207.6090, 12126.00
208.8290, 12033.00
210.0490, 11867.00
211.2690, 11863.00
212.4890, 11852.00
213.7080, 12034.00
214.9280, 11986.00
216.1470, 11932.00
217.3660, 12134.00
218.5850, 12084.00
219.8030, 12119.00
221.0220, 12040.00
222.2400, 12124.00
223.4590, 12075.00
224.6770, 12018.00
225.8950, 12145.00
227.1120, 12108.00
228.3300, 12197.00
229.5480, 12198.00
230.7650, 12276.00
231.9820, 12332.00
233.1990, 12502.00
234.4160, 12440.00
235.6330, 12711.00
236.8490, 12724.00
238.0660, 12732.00
239.2820, 12867.00
240.4980, 13042.00
241.7140, 13167.00
242.9300, 13133.00
244.1460, 12959.00
245.3610, 13144.00
246.5770, 12950.00
247.7920, 12995.00
249.0070, 12932.00
250.2220, 12953.00
251.4370, 12953.00
252.6510, 12937.00
253.8660, 13101.00
255.0800, 13172.00
256.2940, 13275.00
257.5080, 13451.52
258.7220, 13336.00
259.9360, 13689.00
261.1490, 13704.00
262.3630, 13587.00
263.5760, 13653.00
264.7890, 13683.00
266.0020, 13593.00
267.2150, 13960.00
268.4270, 14018.00
269.6400, 14066.00
270.8520, 14282.00
272.0640, 14575.00
273.2760, 15032.00
274.4880, 15281.00
275.7000, 15805.00
276.9120, 16196.00
278.1230, 16711.00
279.3340, 17265.00
280.5450, 18309.00
281.7560, 19541.00
282.9670, 21150.00
284.1780, 23012.00
285.3880, 24887.00
286.5980, 27552.00
287.8090, 30481.00
289.0190, 33656.00
290.2290, 36320.00
291.4380, 37123.00
292.6480, 35474.00
293.8570, 32231.00
295.0670, 28372.00
296.2760, 24911.00
297.4850, 22050.00
298.6930, 20238.00
299.9020, 18630.00
301.1110, 17504.00
302.3190, 16649.00
303.5270, 16439.00
304.7350, 15876.00
305.9430, 15766.00
307.1510, 15879.00
308.3580, 15693.00
309.5660, 16189.00
310.7730, 16706.00
311.9800, 17624.00
313.1870, 18596.00
314.3940, 19652.00
315.6010, 21093.00
316.8070, 22917.00
318.0130, 25398.00
319.2200, 27807.00
320.4260, 29174.00
321.6310, 28610.00
322.8370, 26700.00
324.0430, 24477.00
325.2480, 22242.00
326.4540, 20470.00
327.6590, 18947.00
328.8640, 18201.00
330.0680, 17474.00
331.2730, 17130.00
332.4780, 16889.00
333.6820, 16779.00
334.8860, 16516.00
336.0900, 16576.00
337.2940, 16298.00
338.4980, 16410.00
339.7010, 16382.00
340.9050, 16347.00
342.1080, 16277.00
343.3110, 16350.00
344.5140, 16491.00
345.7170, 16418.00
346.9200, 16880.00
348.1220, 17277.74
349.3240, 18010.00
350.5270, 18683.00
351.7290, 19388.00
352.9310, 20609.00
354.1320, 21842.00
355.3340, 23357.00
356.5350, 24587.00
357.7370, 25191.00
358.9380, 24971.00
360.1390, 24361.00
361.3400, 23345.00
362.5400, 21964.00
363.7410, 20939.00
364.9410, 19695.00
366.1410, 18967.00
367.3410, 18155.00
368.5410, 17548.00
369.7410, 17299.00
370.9400, 17020.00
372.1400, 16919.00
373.3390, 16653.00
374.5380, 16505.00
375.7370, 16424.00
376.9360, 16283.60
378.1350, 16250.35
379.3330, 16166.00
380.5310, 16163.00
381.7300, 16181.00
382.9280, 16069.00
384.1260, 16205.00
385.3230, 16084.00
386.5210, 16011.00
387.7180, 16038.00
388.9160, 16056.00
390.1130, 16104.00
391.3100, 16253.00
392.5060, 16164.00
393.7030, 16211.00
394.9000, 16136.00
396.0960, 16021.00
397.2920, 16030.39
398.4880, 15891.00
399.6840, 15954.00
400.8800, 16016.00
402.0750, 15974.00
403.2710, 16025.00
404.4660, 15976.00
405.6610, 16040.00
406.8560, 16017.00
408.0510, 16109.00
409.2450, 16299.00
410.4400, 16415.00
411.6340, 16435.00
412.8280, 16629.00
414.0220, 17016.00
415.2160, 17054.00
416.4100, 17238.00
417.6030, 17504.00
418.7970, 17472.00
419.9900, 17437.00
421.1830, 16937.00
422.3760, 16749.00
423.5690, 16565.00
424.7610, 16510.00
425.9540, 16509.00
427.1460, 16332.00
428.3380, 16168.00
429.5300, 16315.00
430.7220, 16258.00
431.9140, 16185.00
433.1050, 16288.00
434.2970, 16138.00
435.4880, 16315.00
436.6790, 16447.00
437.8700, 16446.00
439.0610, 16468.00
440.2510, 16496.00
441.4420, 16564.00
442.6320, 16656.12
443.8220, 16843.00
445.0120, 16909.00
446.2020, 17042.00
447.3910, 17210.00
448.5810, 17514.00
449.7700, 17855.00
450.9600, 18217.00
452.1490, 18061.00
453.3370, 17736.00
454.5260, 17314.00
455.7150, 17097.00
456.9030, 17019.00
458.0910, 16884.00
459.2800, 16826.00
460.4670, 16955.00
461.6550, 16966.00
462.8430, 16934.00
464.0300, 16930.00
465.2180, 17005.00
466.4050, 17051.09
467.5920, 17048.00
468.7790, 17242.00
469.9650, 17244.00
471.1520, 17351.00
472.3380, 17399.00
473.5250, 17505.00
474.7110, 17707.00
475.8970, 17483.00
477.0820, 17767.00
478.2680, 17920.00
479.4540, 17764.00
480.6390, 17891.00
481.8240, 17880.00
483.0090, 18040.00
484.1940, 17970.00
485.3780, 17935.00
486.5630, 18123.00
487.7470, 17945.00
488.9320, 17812.00
490.1160, 17849.00
491.3000, 17625.00
492.4830, 17523.00
493.6670, 17517.00
494.8500, 17591.00
496.0340, 17472.00
497.2170, 17638.00
498.4000, 17665.00
499.5820, 17543.00
500.7650, 17641.00
501.9480, 17683.00
503.1300, 17672.60
504.3120, 17761.73
505.4940, 17722.00
506.6760, 17911.00
507.8580, 17933.00
509.0390, 18080.00
510.2210, 18003.00
511.4020, 18000.00
512.5830, 18170.00
513.7640, 18243.00
514.9450, 18207.00
516.1250, 18268.62
517.3060, 18300.00
518.4860, 18269.00
519.6660, 18312.23
520.8460, 18272.57
522.0260, 18349.00
523.2060, 18200.00
524.3850, 18234.00
525.5650, 18194.00
526.7440, 18385.00
527.9230, 18140.00
529.1020, 18302.00
530.2810, 18381.00
531.4590, 18367.00
532.6380, 18425.00
533.8160, 18484.41
534.9940, 18534.00
536.1720, 18618.00
537.3500, 18715.00
538.5270, 18795.00
539.7050, 19026.00
540.8820, 19156.00
542.0590, 19433.00
543.2360, 19826.00
544.4130, 20231.00
545.5900, 20702.00
546.7660, 21454.00
547.9430, 21602.00
549.1190, 21930.00
550.2950, 22399.00
551.4710, 22362.00
552.6470, 21985.00
553.8220, 21825.00
554.9980, 21001.00
556.1730, 20690.00
557.3480, 20400.00
558.5230, 19903.00
559.6980, 19720.00
560.8730, 19448.00
562.0470, 19388.00
563.2220, 19391.00
564.3960, 19264.00
565.5700, 19211.00
566.7440, 19263.00
567.9170, 19218.00
569.0910, 19236.00
570.2640, 19178.00
571.4380, 19296.00
572.6110, 19191.00
573.7840, 19299.00
574.9570, 19139.00
576.1290, 19260.00
577.3020, 19281.00
578.4740, 19325.00
579.6460, 19374.00
580.8180, 19182.00
581.9900, 19394.00
583.1620, 19218.00
584.3330, 19231.00
585.5040, 19274.00
586.6760, 19345.00
587.8470, 19141.00
589.0180, 19403.00
590.1880, 19628.00
591.3590, 19272.00
592.5290, 19412.00
593.7000, 19315.00
594.8700, 19495.00
596.0400, 19519.00
597.2090, 19671.00
598.3790, 19605.00
599.5490, 19702.00
600.7180, 19868.00
601.8870, 19754.00
603.0560, 20006.00
604.2250, 19924.00
605.3940, 20045.00
606.5620, 20053.00
607.7300, 20107.00
608.8990, 20087.00
610.0670, 19997.00
611.2350, 19945.00
612.4020, 19925.00
613.5700, 19956.00
614.7370, 19863.00
615.9050, 20061.00
617.0720, 20007.00
618.2390, 20031.00
619.4060, 20225.00
620.5720, 20164.61
621.7390, 20215.00
622.9050, 20220.00
624.0710, 20204.00
625.2370, 20271.00
626.4030, 20106.00
627.5690, 20149.00
628.7340, 20196.00
629.9000, 20251.00
631.0650, 20163.00
632.2300, 20319.00
633.3950, 20044.00
634.5600, 20241.00
635.7240, 20135.00
636.8890, 20280.00
638.0530, 20239.00
639.2170, 20386.00
640.3810, 20490.00
641.5450, 20320.00
642.7080, 20609.00
643.8720, 20675.00
645.0350, 20654.01
646.1980, 20540.00
647.3610, 20639.00
648.5240, 20562.00
649.6870, 20471.00
650.8490, 20430.00
652.0120, 20503.00
653.1740, 20750.00
654.3360, 20640.00
655.4980, 20724.00
656.6600, 20694.00
657.8210, 20727.00
658.9830, 20932.00
660.1440, 21112.00
661.3050, 21218.00
662.4660, 21267.00
663.6270, 21481.00
664.7870, 21128.00
665.9480, 20940.00
667.1080, 21125.00
668.2680, 20967.00
669.4280, 20978.00
670.5880, 20857.00
671.7480, 21018.00
672.9070, 21024.00
674.0670, 21142.00
675.2260, 21125.00
676.3850, 21174.00
677.5440, 21241.47
678.7030, 21233.00
679.8610, 21337.00
681.0200, 21363.00
682.1780, 21366.00
683.3360, 21388.00
684.4940, 21418.00
685.6520, 21524.00
686.8090, 21498.00
687.9670, 21614.00
689.1240, 21495.00
690.2810, 21535.00
691.4380, 21541.00
692.5950, 21651.00
693.7520, 21635.84
694.9080, 21665.00
696.0650, 21648.00
697.2210, 21738.00
698.3770, 21737.00
699.5330, 21775.17
700.6880, 21803.00
701.8440, 21836.00
702.9990, 22027.00
704.1550, 22057.00
705.3100, 22110.00
706.4650, 22209.00
707.6190, 22180.00
708.7740, 22409.00
709.9290, 22508.00
711.0830, 22478.00
712.2370, 23116.00
713.3910, 22984.00
714.5450, 23299.00
715.6980, 23178.00
716.8520, 23336.00
718.0050, 23184.00
719.1580, 22908.00
720.3110, 22809.00
721.4640, 22607.00
722.6170, 22441.00
723.7700, 22307.00
724.9220, 22285.00
726.0740, 21989.00
727.2260, 22128.00
728.3780, 22037.00
729.5300, 22116.00
730.6810, 21832.00
731.8330, 21989.00
732.9840, 21895.00
734.1350, 21804.00
735.2860, 22114.00
736.4370, 22226.00
737.5880, 22032.00
738.7380, 22145.00
739.8880, 22203.00
741.0390, 22126.00
742.1890, 22256.00
743.3380, 22353.00
744.4880, 22366.00
745.6380, 22433.00
746.7870, 22233.00
747.9360, 22329.00
749.0850, 22235.00
750.2340, 22360.00
751.3830, 22248.00
752.5310, 22453.00
753.6800, 22323.00
754.8280, 22268.00
755.9760, 22542.00
757.1240, 22481.00
758.2720, 22315.00
759.4190, 22581.00
760.5670, 22511.00
761.7140, 22373.00
762.8610, 22429.00
764.0080, 22583.00
765.1550, 22636.00
766.3020, 22441.00
767.4480, 22661.00
768.5950, 22343.00
769.7410, 22546.00
770.8870, 22710.00
772.0330, 22936.00
773.1780, 22784.00
774.3240, 22614.00
775.4690, 22815.00
776.6140, 23036.00
777.7590, 22890.00
778.9040, 22819.00
780.0490, 22763.00
781.1940, 23095.00
782.3380, 22919.00
783.4820, 23116.00
784.6260, 23100.00
785.7700, 23124.00
786.9140, 23164.00
788.0580, 23225.40
789.2010, 23268.00
790.3450, 23376.00
791.4880, 23452.00
792.6310, 23483.28
793.7730, 23423.00
794.9160, 23452.00
796.0590, 23431.00
797.2010, 23406.00
798.3430, 23386.00
799.4850, 23595.00
800.6270, 23468.00
801.7690, 23759.00
802.9100, 23680.00
804.0520, 23764.00
805.1930, 23881.00
806.3340, 24151.00
807.4750, 23887.00
808.6160, 23876.00
809.7560, 23969.00
810.8970, 23780.00
812.0370, 23866.00
813.1770, 23631.00
814.3170, 23663.00
815.4570, 23594.00
816.5960, 23661.00
817.7360, 23726.00
818.8750, 23713.00
820.0140, 23725.00
821.1530, 23890.00
822.2920, 23780.00
823.4310, 23879.00
824.5690, 23728.00
825.7070, 23954.00
826.8460, 24071.00
827.9840, 24029.00
829.1220, 24154.00
830.2590, 24276.00
831.3970, 24439.00
832.5340, 24421.00
833.6710, 24471.49
834.8080, 24577.00
835.9450, 24401.00
837.0820, 24315.00
838.2190, 24196.00
839.3550, 24176.00
840.4910, 24187.00
841.6270, 24127.00
842.7630, 24014.00
843.8990, 24210.00
845.0350, 24178.00
846.1700, 24073.00
847.3060, 24384.00
848.4410, 24310.00
849.5760, 24266.00
850.7100, 24193.00
851.8450, 24291.00
852.9800, 24412.00
854.1140, 24431.00
855.2480, 24581.00
856.3820, 24339.00
857.5160, 24331.00
858.6500, 24475.00
859.7830, 24805.00
860.9170, 24460.00
862.0500, 24632.00
863.1830, 24555.00
864.3160, 24564.00
865.4480, 24754.00
866.5810, 24929.00
867.7130, 24704.00
868.8460, 24852.00
869.9780, 24811.00
871.1100, 24801.00
872.2410, 24713.00
873.3730, 24852.00
874.5050, 24899.00
875.6360, 25046.00
876.7670, 25009.00
877.8980, 25045.00
879.0290, 25131.00
880.1590, 25102.00
881.2900, 25381.00
882.4200, 25150.00
883.5500, 25264.00
884.6800, 25335.00
885.8100, 25579.00
886.9400, 25502.00
888.0690, 25544.00
889.1990, 25458.00
890.3280, 25529.00
891.4570, 25645.00
892.5860, 25817.00
893.7140, 25999.00
894.8430, 25940.00
895.9710, 26195.00
897.1000, 26325.00
898.2280, 26614.00
899.3560, 26662.00
900.4830, 26891.00
901.6110, 27196.77
902.7380, 27526.00
903.8660, 27930.00
904.9930, 28283.00
906.1200, 28830.00
907.2460, 29609.00
908.3730, 30718.00
909.5000, 32111.00
910.6260, 34084.00
911.7520, 36371.00
912.8780, 39472.00
914.0040, 43249.00
915.1290, 47836.00
916.2550, 52206.00
917.3800, 56569.00
918.5050, 58260.00
919.6300, 57523.00
920.7550, 54231.00
921.8800, 49320.00
923.0040, 45253.00
924.1290, 42154.00
925.2530, 39856.00
926.3770, 38584.00
927.5010, 36916.00
928.6250, 36203.00
929.7480, 35002.00
930.8720, 33670.00
931.9950, 32692.00
933.1180, 31683.00
934.2410, 30627.00
935.3640, 30127.00
936.4860, 29543.00
937.6090, 29576.00
938.7310, 28996.00
939.8530, 28916.00
940.9750, 28712.00
942.0970, 28652.00
943.2180, 28848.00
944.3400, 28930.00
945.4610, 28921.00
946.5820, 29291.00
947.7030, 29493.00
948.8240, 29549.00
949.9450, 29675.00
951.0650, 29402.00
952.1860, 29148.00
953.3060, 28989.00
954.4260, 28831.00
955.5460, 28296.00
956.6650, 28140.00
957.7850, 27943.00
958.9040, 27740.00
960.0230, 27541.00
961.1420, 27441.00
962.2610, 27345.00
963.3800, 27266.46
964.4990, 27209.00
965.6170, 27171.00
966.7350, 27190.00
967.8530, 27120.00
968.9710, 27091.00
970.0890, 27263.00
971.2070, 27319.00
972.3240, 27101.00
973.4410, 27276.00
974.5580, 27355.00
975.6750, 27148.00
976.7920, 27437.00
977.9090, 27236.00
979.0250, 27376.00
980.1410, 27447.00
981.2580, 27386.00
982.3740, 27477.49
983.4890, 27460.00
984.6050, 27514.00
985.7200, 27582.00
986.8360, 27587.00
987.9510, 27617.59
989.0660, 27522.00
990.1810, 27629.00
991.2950, 27468.00
992.4100, 27453.00
993.5240, 27537.95
994.6390, 27541.00
995.7530, 27663.00
996.8660, 27823.00
997.9800, 27814.00
999.0940, 27841.00
1000.207, 27681.00
1001.320, 28011.00
1002.433, 27675.00
1003.546, 28050.00
1004.659, 27714.00
1005.772, 28149.00
1006.884, 28286.00
1007.996, 28583.00
1009.108, 28461.00
1010.220, 28695.00
1011.332, 29174.00
1012.444, 29297.00
1013.555, 29621.00
1014.666, 30098.00
1015.777, 30634.00
1016.888, 30963.00
1017.999, 31146.00
1019.110, 31297.00
1020.220, 31241.00
1021.331, 31354.00
1022.441, 30703.00
1023.551, 30396.00
1024.661, 30001.00
1025.770, 30008.00
1026.880, 29656.00
1027.989, 29350.00
1029.098, 29296.00
1030.207, 28962.00
1031.316, 29210.00
1032.425, 29048.00
1033.533, 29046.00
1034.642, 28943.00
1035.750, 28943.00
1036.858, 28868.00
1037.966, 28902.00
1039.073, 28854.00
1040.181, 29147.00
1041.288, 28956.00
1042.396, 29119.00
1043.503, 28925.00
1044.610, 29174.00
1045.716, 29013.00
1046.823, 28998.00
1047.929, 29237.00
1049.036, 29087.00
1050.142, 29357.00
1051.248, 29127.00
1052.353, 29728.00
1053.459, 29722.00
1054.564, 30174.00
1055.670, 30439.00
1056.775, 30582.00
1057.880, 31312.00
1058.985, 31931.00
1060.089, 32574.00
1061.194, 33354.00
1062.298, 34296.00
1063.402, 35021.00
1064.506, 35296.00
1065.610, 34966.00
1066.713, 34060.00
1067.817, 33195.00
1068.920, 32390.00
1070.023, 31861.00
1071.126, 31284.00
1072.229, 30874.00
1073.332, 30750.00
1074.435, 30344.00
1075.537, 30480.00
1076.639, 30286.00
1077.741, 30221.00
1078.843, 30108.00
1079.945, 30051.78
1081.046, 29991.00
1082.148, 30050.00
1083.249, 30101.00
1084.350, 30231.00
1085.451, 30380.00
1086.551, 30175.00
1087.652, 30024.00
1088.752, 30010.00
1089.853, 30116.00
1090.953, 30202.00
1092.053, 30095.00
1093.152, 30066.00
1094.252, 29999.00
1095.351, 30228.00
1096.451, 30398.00
1097.550, 30205.00
1098.649, 30253.00
1099.748, 30285.00
1100.846, 30501.00
1101.945, 30583.15
1103.043, 30688.82
1104.141, 30877.00
1105.239, 30882.00
1106.337, 30998.00
1107.434, 31066.00
1108.532, 31262.00
1109.629, 31261.40
1110.726, 31079.00
1111.823, 31217.00
1112.920, 31143.00
1114.017, 30923.00
1115.113, 30857.00
1116.210, 30892.00
1117.306, 30826.00
1118.402, 30625.00
1119.498, 30776.00
1120.593, 30954.00
1121.689, 30954.00
1122.784, 31285.00
1123.879, 31028.00
1124.974, 31226.00
1126.069, 31019.00
1127.164, 30874.00
1128.259, 30961.00
1129.353, 30814.00
1130.447, 30607.00
1131.541, 30737.00
1132.635, 30631.00
1133.729, 30683.00
1134.822, 30749.00
1135.916, 30675.00
1137.009, 30818.00
1138.102, 30959.00
1139.195, 31062.00
1140.288, 30849.00
1141.380, 30613.00
1142.473, 31050.00
1143.565, 30586.00
1144.657, 30664.00
1145.749, 30923.00
1146.841, 31102.00
1147.932, 31010.00
1149.024, 30907.00
1150.115, 30977.00
1151.206, 30966.00
1152.297, 31136.00
1153.388, 31066.00
1154.479, 31008.00
1155.569, 30948.00
1156.659, 31090.00
1157.750, 31122.00
1158.839, 31062.00
1159.929, 31229.00
1161.019, 31018.00
1162.108, 31272.00
1163.198, 31204.00
1164.287, 31319.00
1165.376, 31255.00
1166.465, 31274.00
1167.553, 31598.00
1168.642, 31540.00
1169.730, 31385.00
1170.818, 31651.00
1171.906, 31443.00
1172.994, 31423.00
1174.082, 31627.00
1175.170, 31559.00
1176.257, 31576.00
1177.344, 31802.00
1178.431, 31821.00
1179.518, 31882.00
1180.605, 31762.00
1181.691, 31769.00
1182.778, 31788.00
1183.864, 31927.00
1184.950, 31896.00
1186.036, 31711.00
1187.122, 31996.00
1188.207, 31913.00
1189.292, 31930.00
1190.378, 32019.00
1191.463, 32204.00
1192.548, 31990.00
1193.632, 32229.00
1194.717, 32131.00
1195.801, 32078.00
1196.886, 32111.79
1197.970, 32283.00
1199.054, 32056.00
1200.137, 32222.00
1201.221, 32286.00
1202.305, 32251.00
1203.388, 32136.00
1204.471, 32334.00
1205.554, 32046.00
1206.637, 32288.00
1207.719, 32444.00
1208.802, 32657.00
1209.884, 32349.00
1210.966, 32713.00
1212.048, 32239.00
1213.130, 32571.00
1214.212, 32695.00
1215.293, 32545.00
1216.374, 32238.00
1217.456, 32487.00
1218.536, 32635.00
1219.617, 32869.00
1220.698, 32502.00
1221.778, 32668.00
1222.859, 32744.00
1223.939, 32549.00
1225.019, 32846.00
1226.099, 32943.00
1227.178, 32924.00
1228.258, 32886.00
1229.337, 33059.00
1230.417, 32899.00
1231.496, 33106.00
1232.574, 33166.00
1233.653, 33083.00
1234.732, 33115.00
1235.810, 33372.00
1236.888, 33221.00
1237.966, 33084.00
1239.044, 33271.00
1240.122, 33119.00
1241.199, 33308.00
1242.277, 33196.00
1243.354, 33596.00
1244.431, 33404.00
1245.508, 33519.00
1246.585, 33564.00
1247.661, 33603.00
1248.738, 33685.00
1249.814, 33380.00
1250.890, 33716.00
1251.966, 33833.00
1253.042, 33595.00
1254.117, 33912.00
1255.193, 33728.00
1256.268, 33709.00
1257.343, 33616.00
1258.418, 33757.00
1259.493, 33670.00
1260.567, 33775.00
1261.642, 33817.00
1262.716, 33817.93
1263.790, 33972.00
1264.864, 33920.00
1265.938, 33739.00
1267.011, 33869.00
1268.085, 33904.00
1269.158, 33786.00
1270.231, 33973.00
1271.304, 34107.00
1272.377, 33923.00
1273.450, 33812.00
1274.522, 34089.00
1275.594, 33880.00
1276.666, 34007.00
1277.738, 34169.00
1278.810, 34140.00
1279.882, 34192.00
1280.953, 34263.00
