##NAMES=Andalusite
##RRUFFID=R050258
##IDEAL CHEMISTRY=Al_2_SiO_5_
##LOCALITY=Bautista Canyon, near Hemet, Riverside County, California, USA
##OWNER=RRUFF
##SOURCE=Marcus Origlieri
##DESCRIPTION=Brown fragment
##STATUS=The identification of this mineral has been confirmed by X-ray diffraction and chemical analysis
##URL=rruff.info/R050258
##MEASURED CHEMISTRY=Al_2.00_Si_1.00_O_5_
##PIN_ID=M00252
##ORIENTATION=Laser parallel to b* (0 1 0). Fiducial mark perpendicular to laser is parallel to c [0 0 1]
111.9760, 13120.00
113.2080, 13009.00
114.4400, 13244.00
115.6710, 13332.00
116.9030, 13375.00
118.1340, 13431.00
119.3650, 13547.00
120.5960, 13473.00
121.8270, 13692.00
123.0580, 13559.00
124.2880, 13764.00
125.5190, 13989.00
126.7490, 13793.00
127.9790, 13978.00
129.2090, 14085.00
130.4390, 14096.00
131.6680, 14086.00
132.8980, 14195.00
134.1270, 14275.00
135.3560, 14302.00
136.5850, 14411.20
137.8140, 14447.81
139.0430, 14569.00
140.2710, 14562.00
141.5000, 14613.00
142.7280, 14698.00
143.9560, 14740.00
145.1840, 14624.00
146.4120, 14809.00
147.6390, 14701.00
148.8670, 14741.00
150.0940, 14911.00
151.3210, 14913.00
152.5490, 14938.00
153.7750, 14965.00
155.0020, 14974.00
156.2290, 15087.00
157.4550, 15104.00
158.6810, 15137.00
159.9080, 15322.00
161.1340, 15172.00
162.3590, 15338.00
163.5850, 15198.00
164.8110, 15340.00
166.0360, 15510.00
167.2610, 15399.00
168.4860, 15535.00
169.7110, 15424.00
170.9360, 15590.00
172.1610, 15619.00
173.3850, 15723.00
174.6100, 15749.00
175.8340, 15743.00
177.0580, 15755.00
178.2820, 15829.00
179.5050, 15774.00
180.7290, 15861.00
181.9520, 15964.00
183.1760, 15917.00
184.3990, 16100.00
185.6220, 16120.00
186.8450, 16201.00
188.0670, 16049.00
189.2900, 16272.00
190.5120, 16341.00
191.7340, 16254.00
192.9560, 16512.00
194.1780, 16498.00
195.4000, 16423.00
196.6220, 16496.00
197.8430, 16393.00
199.0640, 16733.00
200.2860, 16651.00
201.5070, 16744.00
202.7270, 16592.00
203.9480, 16622.00
205.1690, 16603.00
206.3890, 16793.00
207.6090, 16658.00
208.8290, 16803.00
210.0490, 16717.00
211.2690, 16738.00
212.4890, 16733.00
213.7080, 16844.00
214.9280, 16822.00
216.1470, 16750.00
217.3660, 16879.00
218.5850, 16854.00
219.8030, 16947.00
221.0220, 17060.00
222.2400, 17099.00
223.4590, 16930.00
224.6770, 16985.00
225.8950, 17102.00
227.1120, 17109.00
228.3300, 17214.00
229.5480, 17177.00
230.7650, 17340.00
231.9820, 17391.00
233.1990, 17328.00
234.4160, 17414.00
235.6330, 17541.00
236.8490, 17678.00
238.0660, 17562.00
239.2820, 17727.00
240.4980, 17612.00
241.7140, 17757.00
242.9300, 17855.00
244.1460, 17713.00
245.3610, 17658.00
246.5770, 17718.00
247.7920, 17749.00
249.0070, 17942.00
250.2220, 17905.00
251.4370, 18023.00
252.6510, 18057.06
253.8660, 17960.00
255.0800, 18096.00
256.2940, 18047.00
257.5080, 18042.00
258.7220, 18172.00
259.9360, 18175.00
261.1490, 18395.00
262.3630, 18261.00
263.5760, 18212.00
264.7890, 18352.00
266.0020, 18561.00
267.2150, 18348.00
268.4270, 18673.00
269.6400, 18689.00
270.8520, 18752.00
272.0640, 18985.00
273.2760, 19021.00
274.4880, 19335.00
275.7000, 19464.00
276.9120, 19583.00
278.1230, 19872.00
279.3340, 20298.00
280.5450, 20769.09
281.7560, 21336.79
282.9670, 22088.00
284.1780, 22730.00
285.3880, 23641.00
286.5980, 24568.00
287.8090, 25299.00
289.0190, 26442.00
290.2290, 26636.00
291.4380, 26170.00
292.6480, 25151.00
293.8570, 24249.00
295.0670, 22779.00
296.2760, 21988.00
297.4850, 21103.00
298.6930, 20582.00
299.9020, 20267.00
301.1110, 20003.00
302.3190, 19810.00
303.5270, 19684.00
304.7350, 19765.00
305.9430, 19759.00
307.1510, 19729.00
308.3580, 19712.00
309.5660, 19885.00
310.7730, 20232.00
311.9800, 20527.42
313.1870, 21094.00
314.3940, 21494.00
315.6010, 22306.00
316.8070, 23012.00
318.0130, 23579.00
319.2200, 23696.07
320.4260, 23882.00
321.6310, 23317.00
322.8370, 22880.00
324.0430, 22035.00
325.2480, 21653.00
326.4540, 21255.00
327.6590, 20762.00
328.8640, 20680.00
330.0680, 20552.00
331.2730, 20510.00
332.4780, 20477.84
333.6820, 20481.00
334.8860, 20516.00
336.0900, 20490.00
337.2940, 20604.00
338.4980, 20698.00
339.7010, 20529.00
340.9050, 20673.00
342.1080, 20648.00
343.3110, 20818.00
344.5140, 21049.00
345.7170, 21016.00
346.9200, 21151.00
348.1220, 21592.00
349.3240, 21975.00
350.5270, 22315.00
351.7290, 22783.00
352.9310, 23268.00
354.1320, 24081.00
355.3340, 24642.00
356.5350, 24872.00
357.7370, 24798.00
358.9380, 24532.00
360.1390, 24261.00
361.3400, 23607.00
362.5400, 23338.00
363.7410, 22562.00
364.9410, 22468.00
366.1410, 22119.00
367.3410, 21976.00
368.5410, 21558.00
369.7410, 21787.00
370.9400, 21458.00
372.1400, 21480.00
373.3390, 21586.00
374.5380, 21399.00
375.7370, 21267.00
376.9360, 21383.00
378.1350, 21294.77
379.3330, 21475.00
380.5310, 21371.00
381.7300, 21376.00
382.9280, 21458.00
384.1260, 21643.00
385.3230, 21569.00
386.5210, 21587.00
387.7180, 21729.00
388.9160, 21718.46
390.1130, 21715.00
391.3100, 21858.00
392.5060, 21798.00
393.7030, 21889.00
394.9000, 21764.00
396.0960, 21803.00
397.2920, 21516.00
398.4880, 21826.00
399.6840, 21730.00
400.8800, 21744.00
402.0750, 21881.00
403.2710, 21947.00
404.4660, 21850.00
405.6610, 21731.00
406.8560, 22168.00
408.0510, 22060.00
409.2450, 22094.00
410.4400, 21852.00
411.6340, 22171.00
412.8280, 21994.00
414.0220, 22113.00
415.2160, 22137.00
416.4100, 22485.00
417.6030, 22238.00
418.7970, 22230.00
419.9900, 22316.00
421.1830, 22143.00
422.3760, 22246.00
423.5690, 22053.00
424.7610, 22176.00
425.9540, 22406.00
427.1460, 22119.00
428.3380, 22312.00
429.5300, 22543.00
430.7220, 22513.00
431.9140, 22506.00
433.1050, 22461.00
434.2970, 22370.00
435.4880, 22431.00
436.6790, 22605.00
437.8700, 22410.00
439.0610, 22608.00
440.2510, 22664.00
441.4420, 22641.00
442.6320, 22988.00
443.8220, 23053.00
445.0120, 23016.00
446.2020, 23145.00
447.3910, 23228.00
448.5810, 23509.00
449.7700, 23676.00
450.9600, 23434.00
452.1490, 23401.00
453.3370, 23315.00
454.5260, 23181.00
455.7150, 23173.00
456.9030, 23067.00
458.0910, 22918.00
459.2800, 22907.00
460.4670, 22756.00
461.6550, 22805.00
462.8430, 22986.00
464.0300, 23019.00
465.2180, 23204.00
466.4050, 23212.27
467.5920, 23144.00
468.7790, 23191.00
469.9650, 23272.00
471.1520, 23170.00
472.3380, 23181.00
473.5250, 23340.00
474.7110, 23482.00
475.8970, 23387.00
477.0820, 23577.00
478.2680, 23453.00
479.4540, 23472.00
480.6390, 23410.00
481.8240, 23825.00
483.0090, 23629.00
484.1940, 23669.00
485.3780, 23532.00
486.5630, 23562.00
487.7470, 23639.00
488.9320, 23611.00
490.1160, 23767.00
491.3000, 23601.00
492.4830, 23832.00
493.6670, 23803.00
494.8500, 23892.00
496.0340, 23970.00
497.2170, 24035.00
498.4000, 24077.80
499.5820, 24157.43
500.7650, 24138.00
501.9480, 24297.00
503.1300, 24338.92
504.3120, 24410.00
505.4940, 24401.00
506.6760, 24469.00
507.8580, 24459.00
509.0390, 24594.00
510.2210, 24495.00
511.4020, 24803.00
512.5830, 24639.00
513.7640, 24725.00
514.9450, 24557.00
516.1250, 24705.00
517.3060, 24669.00
518.4860, 24796.00
519.6660, 24848.00
520.8460, 24710.00
522.0260, 24976.00
523.2060, 24834.00
524.3850, 25021.00
525.5650, 24885.00
526.7440, 24984.00
527.9230, 25076.00
529.1020, 24990.00
530.2810, 25152.00
531.4590, 25281.00
532.6380, 25322.00
533.8160, 25420.00
534.9940, 25398.00
536.1720, 25505.00
537.3500, 25670.00
538.5270, 25684.00
539.7050, 26069.00
540.8820, 25986.00
542.0590, 26140.00
543.2360, 26612.00
544.4130, 26515.00
545.5900, 26845.00
546.7660, 27017.00
547.9430, 27182.00
549.1190, 27303.79
550.2950, 27336.60
551.4710, 27319.00
552.6470, 27232.00
553.8220, 27002.00
554.9980, 26716.00
556.1730, 26545.00
557.3480, 26539.00
558.5230, 26662.00
559.6980, 26590.00
560.8730, 26387.00
562.0470, 26418.00
563.2220, 26347.00
564.3960, 26606.00
565.5700, 26625.00
566.7440, 26630.00
567.9170, 26701.00
569.0910, 26904.00
570.2640, 26579.00
571.4380, 26692.00
572.6110, 26552.00
573.7840, 26993.00
574.9570, 26710.00
576.1290, 26644.00
577.3020, 26734.00
578.4740, 26617.00
579.6460, 26564.00
580.8180, 26490.00
581.9900, 26718.00
583.1620, 26641.00
584.3330, 26616.00
585.5040, 26383.00
586.6760, 26628.00
587.8470, 26699.00
589.0180, 26558.00
590.1880, 26550.00
591.3590, 26582.00
592.5290, 26668.00
593.7000, 26631.00
594.8700, 26609.00
596.0400, 26714.00
597.2090, 26663.00
598.3790, 26854.00
599.5490, 26782.00
600.7180, 26756.00
601.8870, 26788.00
603.0560, 27060.00
604.2250, 26991.00
605.3940, 27098.00
606.5620, 27346.00
607.7300, 27295.00
608.8990, 27378.00
610.0670, 27260.00
611.2350, 27341.00
612.4020, 27550.00
613.5700, 27625.00
614.7370, 27728.00
615.9050, 27684.00
617.0720, 27559.00
618.2390, 27847.00
619.4060, 27716.00
620.5720, 27710.00
621.7390, 27899.00
622.9050, 27969.00
624.0710, 28027.00
625.2370, 28203.00
626.4030, 28157.20
627.5690, 28225.00
628.7340, 28173.00
629.9000, 28151.00
631.0650, 28275.00
632.2300, 28093.00
633.3950, 28371.00
634.5600, 28287.00
635.7240, 28288.00
636.8890, 28161.00
638.0530, 28396.00
639.2170, 28496.00
640.3810, 28385.00
641.5450, 28322.00
642.7080, 28335.00
643.8720, 28234.00
645.0350, 28506.00
646.1980, 28345.00
647.3610, 28389.00
648.5240, 28473.00
649.6870, 28352.00
650.8490, 28443.00
652.0120, 28251.00
653.1740, 28310.00
654.3360, 28142.00
655.4980, 28134.00
656.6600, 27822.00
657.8210, 28164.00
658.9830, 28065.00
660.1440, 28153.00
661.3050, 27942.00
662.4660, 27954.00
663.6270, 28161.00
664.7870, 27966.00
665.9480, 28086.00
667.1080, 27984.00
668.2680, 28035.00
669.4280, 28123.00
670.5880, 27985.00
671.7480, 28041.00
672.9070, 27911.00
674.0670, 27917.00
675.2260, 27954.69
676.3850, 28018.00
677.5440, 28116.00
678.7030, 28084.00
679.8610, 28301.00
681.0200, 28260.00
682.1780, 28340.00
683.3360, 28192.00
684.4940, 28383.00
685.6520, 28260.00
686.8090, 28450.00
687.9670, 28355.00
689.1240, 28495.00
690.2810, 28422.00
691.4380, 28509.00
692.5950, 28525.00
693.7520, 28545.00
694.9080, 28850.00
696.0650, 28695.00
697.2210, 28337.00
698.3770, 28711.00
699.5330, 28657.00
700.6880, 28715.00
701.8440, 28800.00
702.9990, 28908.00
704.1550, 28939.31
705.3100, 29034.66
706.4650, 29069.00
707.6190, 29129.00
708.7740, 29293.00
709.9290, 29237.00
711.0830, 29402.00
712.2370, 29372.00
713.3910, 29459.00
714.5450, 29512.00
715.6980, 29498.00
716.8520, 29462.00
718.0050, 29708.00
719.1580, 29547.00
720.3110, 29642.00
721.4640, 29322.00
722.6170, 29276.00
723.7700, 29552.00
724.9220, 29515.00
726.0740, 29462.00
727.2260, 29164.00
728.3780, 29337.00
729.5300, 29374.00
730.6810, 29620.00
731.8330, 29672.00
732.9840, 29432.00
734.1350, 29653.00
735.2860, 29690.00
736.4370, 29376.00
737.5880, 29700.00
738.7380, 29478.00
739.8880, 29572.00
741.0390, 29686.00
742.1890, 29684.00
743.3380, 29869.00
744.4880, 29772.00
745.6380, 29849.36
746.7870, 29794.00
747.9360, 29907.00
749.0850, 29950.00
750.2340, 30011.00
751.3830, 29790.00
752.5310, 29976.00
753.6800, 29641.00
754.8280, 30024.00
755.9760, 29869.00
757.1240, 30023.00
758.2720, 29855.00
759.4190, 30256.00
760.5670, 29927.00
761.7140, 30221.00
762.8610, 29844.00
764.0080, 30191.00
765.1550, 30216.00
766.3020, 30288.00
767.4480, 30093.00
768.5950, 30222.00
769.7410, 30332.00
770.8870, 30436.00
772.0330, 30370.00
773.1780, 30507.00
774.3240, 30414.00
775.4690, 30636.00
776.6140, 30517.00
777.7590, 30455.00
778.9040, 30649.00
780.0490, 30649.00
781.1940, 30612.00
782.3380, 30644.00
783.4820, 30735.00
784.6260, 30809.00
785.7700, 30866.00
786.9140, 30906.00
788.0580, 31089.00
789.2010, 30956.00
790.3450, 31202.00
791.4880, 31124.00
792.6310, 31055.00
793.7730, 31106.00
794.9160, 31313.00
796.0590, 31302.00
797.2010, 31509.00
798.3430, 31121.00
799.4850, 31278.00
800.6270, 31491.00
801.7690, 31647.00
802.9100, 31966.00
804.0520, 31714.00
805.1930, 31702.00
806.3340, 31785.00
807.4750, 32121.00
808.6160, 32281.00
809.7560, 32337.00
810.8970, 32618.00
812.0370, 32468.00
813.1770, 32797.00
814.3170, 32837.00
815.4570, 32865.00
816.5960, 33083.00
817.7360, 33138.00
818.8750, 33328.00
820.0140, 33316.00
821.1530, 33111.00
822.2920, 33185.00
823.4310, 32897.00
824.5690, 33148.00
825.7070, 32859.00
826.8460, 32837.00
827.9840, 32676.00
829.1220, 32434.00
830.2590, 32646.00
831.3970, 32282.00
832.5340, 32590.00
833.6710, 32580.00
834.8080, 32442.00
835.9450, 32491.00
837.0820, 32527.00
838.2190, 32432.00
839.3550, 32717.00
840.4910, 32563.00
841.6270, 32752.00
842.7630, 32416.00
843.8990, 32251.00
845.0350, 32245.00
846.1700, 32209.00
847.3060, 32145.00
848.4410, 32399.00
849.5760, 32301.00
850.7100, 32201.00
851.8450, 32394.00
852.9800, 32318.00
854.1140, 32222.00
855.2480, 32333.00
856.3820, 32644.00
857.5160, 32587.00
858.6500, 32684.00
859.7830, 32609.00
860.9170, 32685.00
862.0500, 32701.00
863.1830, 32755.00
864.3160, 32764.00
865.4480, 32789.00
866.5810, 32744.00
867.7130, 32870.00
868.8460, 32863.00
869.9780, 32975.00
871.1100, 32937.00
872.2410, 33014.00
873.3730, 32883.00
874.5050, 33024.00
875.6360, 33066.00
876.7670, 33116.00
877.8980, 33217.00
879.0290, 33221.04
880.1590, 33245.00
881.2900, 33252.00
882.4200, 33271.00
883.5500, 33268.00
884.6800, 33452.00
885.8100, 33599.00
886.9400, 33361.00
888.0690, 33378.00
889.1990, 33630.00
890.3280, 33580.00
891.4570, 33698.00
892.5860, 33655.00
893.7140, 33908.00
894.8430, 33861.00
895.9710, 33836.00
897.1000, 33883.00
898.2280, 34238.00
899.3560, 34342.00
900.4830, 34452.00
901.6110, 34740.00
902.7380, 34872.00
903.8660, 34920.00
904.9930, 35094.00
906.1200, 35331.00
907.2460, 35711.00
908.3730, 36169.77
909.5000, 36448.00
910.6260, 37448.00
911.7520, 38309.00
912.8780, 39309.00
914.0040, 40661.00
915.1290, 42014.00
916.2550, 43763.00
917.3800, 44408.00
918.5050, 44436.00
919.6300, 43245.00
920.7550, 42654.00
921.8800, 41248.00
923.0040, 39720.00
924.1290, 38930.00
925.2530, 38206.00
926.3770, 37661.00
927.5010, 37445.00
928.6250, 37142.00
929.7480, 36697.00
930.8720, 36338.00
931.9950, 36191.00
933.1180, 36394.00
934.2410, 36028.00
935.3640, 36326.00
936.4860, 35884.00
937.6090, 36178.00
938.7310, 36150.00
939.8530, 36323.00
940.9750, 36757.00
942.0970, 36582.00
943.2180, 36807.00
944.3400, 37007.00
945.4610, 37489.00
946.5820, 37783.00
947.7030, 38091.00
948.8240, 38294.00
949.9450, 38339.00
951.0650, 37918.00
952.1860, 37730.00
953.3060, 37346.00
954.4260, 36924.00
955.5460, 36874.00
956.6650, 36536.00
957.7850, 36303.00
958.9040, 36310.00
960.0230, 36300.00
961.1420, 36056.00
962.2610, 36045.00
963.3800, 36018.00
964.4990, 35783.00
965.6170, 36019.00
966.7350, 36056.00
967.8530, 35944.00
968.9710, 35847.00
970.0890, 35904.00
971.2070, 36006.00
972.3240, 36115.00
973.4410, 36239.00
974.5580, 36260.00
975.6750, 36200.00
976.7920, 36293.00
977.9090, 36311.00
979.0250, 36219.00
980.1410, 36306.00
981.2580, 36233.00
982.3740, 36320.49
983.4890, 36547.00
984.6050, 36446.00
985.7200, 36457.00
986.8360, 36405.00
987.9510, 36649.00
989.0660, 36469.00
990.1810, 36648.00
991.2950, 36756.00
992.4100, 36356.00
993.5240, 36820.00
994.6390, 36900.00
995.7530, 37049.00
996.8660, 37346.00
997.9800, 37501.00
999.0940, 37546.00
1000.207, 37998.00
1001.320, 37989.00
1002.433, 37838.00
1003.546, 38376.00
1004.659, 38339.00
1005.772, 38429.00
1006.884, 38294.00
1007.996, 38009.00
1009.108, 38279.00
1010.220, 38410.00
1011.332, 38019.00
1012.444, 38057.00
1013.555, 38194.00
1014.666, 38408.00
1015.777, 38914.00
1016.888, 38712.00
1017.999, 38891.00
1019.110, 38812.00
1020.220, 38649.00
1021.331, 38763.00
1022.441, 38460.00
1023.551, 38209.00
1024.661, 38268.00
1025.770, 38045.00
1026.880, 38076.00
1027.989, 38118.00
1029.098, 37831.00
1030.207, 38162.00
1031.316, 37839.00
1032.425, 38065.00
1033.533, 37808.00
1034.642, 37823.00
1035.750, 38064.00
1036.858, 37797.00
1037.966, 37867.00
1039.073, 37840.00
1040.181, 38177.00
1041.288, 38163.00
1042.396, 38174.00
1043.503, 38109.00
1044.610, 38111.00
1045.716, 38201.00
1046.823, 37981.00
1047.929, 38133.00
1049.036, 37883.00
1050.142, 38225.00
1051.248, 38354.00
1052.353, 38625.00
1053.459, 38494.00
1054.564, 38222.00
1055.670, 38815.00
1056.775, 38817.00
1057.880, 39171.00
1058.985, 39173.00
1060.089, 39687.00
1061.194, 39491.00
1062.298, 40018.00
1063.402, 39913.00
1064.506, 40099.00
1065.610, 40076.00
1066.713, 39800.00
1067.817, 39882.00
1068.920, 39564.00
1070.023, 39374.00
1071.126, 39244.00
1072.229, 39210.00
1073.332, 39113.00
1074.435, 39095.50
1075.537, 39080.25
1076.639, 39056.00
1077.741, 39068.00
1078.843, 38994.00
1079.945, 38940.00
1081.046, 39187.00
1082.148, 39246.00
1083.249, 39137.00
1084.350, 39313.00
1085.451, 39345.00
1086.551, 39115.00
1087.652, 39272.00
1088.752, 39217.00
1089.853, 39317.00
1090.953, 39166.00
1092.053, 39438.00
1093.152, 39270.00
1094.252, 39281.00
1095.351, 39542.00
1096.451, 39512.00
1097.550, 39472.00
1098.649, 39770.00
1099.748, 39546.00
1100.846, 39736.00
1101.945, 39697.00
1103.043, 39891.00
1104.141, 40029.00
1105.239, 40020.00
1106.337, 40195.00
1107.434, 40200.13
1108.532, 40486.00
1109.629, 40285.00
1110.726, 40267.00
1111.823, 40376.00
1112.920, 40263.00
1114.017, 40216.00
1115.113, 40232.00
1116.210, 40204.00
1117.306, 40069.00
1118.402, 40265.00
1119.498, 40695.00
1120.593, 40183.00
1121.689, 40267.00
1122.784, 40170.00
1123.879, 40612.00
1124.974, 40326.00
1126.069, 40314.00
1127.164, 40455.00
1128.259, 40178.00
1129.353, 40576.00
1130.447, 40438.00
1131.541, 40622.00
1132.635, 40322.00
1133.729, 40513.00
1134.822, 40611.00
1135.916, 40648.00
1137.009, 40695.00
1138.102, 40453.00
1139.195, 40501.00
1140.288, 40655.00
1141.380, 40767.00
1142.473, 41002.00
1143.565, 40860.00
1144.657, 40957.00
1145.749, 40953.00
1146.841, 41134.00
1147.932, 40946.00
1149.024, 40940.00
1150.115, 41052.00
1151.206, 41051.00
1152.297, 41187.00
1153.388, 41100.00
1154.479, 41167.00
1155.569, 41300.00
1156.659, 41230.00
1157.750, 41114.00
1158.839, 41532.00
1159.929, 41492.00
1161.019, 41281.00
1162.108, 41543.00
1163.198, 41352.00
1164.287, 41325.00
1165.376, 41658.00
1166.465, 41507.00
1167.553, 41486.00
1168.642, 41542.00
1169.730, 41718.00
1170.818, 41943.00
1171.906, 41805.00
1172.994, 41819.00
1174.082, 41784.00
1175.170, 41754.00
1176.257, 41718.00
1177.344, 41752.00
1178.431, 41907.00
1179.518, 42004.00
1180.605, 41894.00
1181.691, 42206.00
1182.778, 42096.00
1183.864, 41977.00
1184.950, 42071.00
1186.036, 42086.00
1187.122, 42251.00
1188.207, 42362.00
1189.292, 42228.00
1190.378, 42477.00
1191.463, 42218.00
1192.548, 42215.00
1193.632, 42438.00
1194.717, 42473.00
1195.801, 42302.00
1196.886, 42457.00
1197.970, 42541.00
1199.054, 42688.00
1200.137, 42733.00
1201.221, 42792.91
1202.305, 42777.00
1203.388, 42839.82
1204.471, 42835.86
1205.554, 42819.00
1206.637, 42741.00
1207.719, 42742.00
1208.802, 42561.00
1209.884, 42946.00
1210.966, 42707.00
1212.048, 43139.00
1213.130, 42942.00
1214.212, 42972.00
1215.293, 43078.00
1216.374, 43013.00
1217.456, 43276.00
1218.536, 43298.00
1219.617, 43127.00
1220.698, 43162.00
1221.778, 43056.00
1222.859, 43199.00
1223.939, 43537.00
1225.019, 43481.00
1226.099, 43188.00
1227.178, 43357.00
1228.258, 43137.00
1229.337, 43429.00
1230.417, 43383.00
1231.496, 43511.00
1232.574, 43262.00
1233.653, 43527.00
1234.732, 43667.00
1235.810, 43448.00
1236.888, 43499.00
1237.966, 43734.00
1239.044, 43662.00
1240.122, 43708.00
1241.199, 43893.00
1242.277, 43898.00
1243.354, 43633.00
1244.431, 43958.00
1245.508, 43861.00
1246.585, 44068.00
1247.661, 44082.00
1248.738, 44073.00
1249.814, 44044.00
1250.890, 44258.00
1251.966, 44317.00
1253.042, 44128.00
1254.117, 43998.00
1255.193, 44073.00
1256.268, 43997.00
1257.343, 44293.00
1258.418, 44493.00
1259.493, 44144.00
1260.567, 44464.00
1261.642, 44450.00
1262.716, 44425.00
1263.790, 44400.00
1264.864, 44429.00
1265.938, 44634.00
1267.011, 44765.00
1268.085, 44483.00
1269.158, 44271.00
1270.231, 44730.00
1271.304, 45016.00
1272.377, 44977.00
1273.450, 44769.00
1274.522, 44771.00
1275.594, 44887.00
1276.666, 44835.00
1277.738, 45074.00
1278.810, 44975.00
1279.882, 45108.00
1280.953, 45025.00
1282.025, 44956.00
1283.096, 45055.32
1284.167, 45381.00
1285.238, 45213.00
1286.308, 45312.00
1287.379, 45494.00
1288.449, 45007.00
1289.519, 45186.00
1290.589, 45368.00
1291.659, 45433.00
1292.729, 45249.00
