##NAMES=Andalusite
##RRUFFID=R060197
##IDEAL CHEMISTRY=Al_2_SiO_5_
##LOCALITY=Brazil
##OWNER=RRUFF
##SOURCE=Marcus Origlieri
##DESCRIPTION=Green colored water worn pebble
##STATUS=The identification of this mineral has been confirmed by X-ray diffraction and chemical analysis
##URL=rruff.info/R060197
##MEASURED CHEMISTRY=(Al_1.97_Mn^3+^_0.03_)_Î£=2_Si_1.00_O_5_
##PIN_ID=M00401
##ORIENTATION=Laser parallel to c* (0 0 1). Fiducial mark perpendicular to laser is parallel to a [1 0 0]
91.01200, 7584.000
92.24600, 7921.000
93.48000, 7834.000
94.71400, 8049.000
95.94800, 8192.000
97.18200, 8158.000
98.41600, 8256.000
99.64900, 8570.000
100.8830, 8674.000
102.1160, 8633.000
103.3490, 8749.000
104.5820, 9116.000
105.8150, 9556.000
107.0470, 9845.000
108.2800, 10170.00
109.5120, 10893.00
110.7440, 10612.00
111.9760, 9752.000
113.2080, 9694.000
114.4400, 9832.000
115.6710, 10140.00
116.9030, 10016.00
118.1340, 9961.000
119.3650, 9772.000
120.5960, 9646.000
121.8270, 9851.000
123.0580, 9918.000
124.2880, 9939.000
125.5190, 9681.000
126.7490, 9894.000
127.9790, 9873.000
129.2090, 10031.00
130.4390, 10070.00
131.6680, 10219.00
132.8980, 10125.00
134.1270, 10039.00
135.3560, 10222.00
136.5850, 10201.00
137.8140, 10356.00
139.0430, 10503.00
140.2710, 10581.00
141.5000, 10355.00
142.7280, 10464.00
143.9560, 10522.00
145.1840, 10486.00
146.4120, 10580.00
147.6390, 10545.00
148.8670, 10494.00
150.0940, 10595.00
151.3210, 10730.00
152.5490, 10813.00
153.7750, 10784.00
155.0020, 10823.00
156.2290, 10851.00
157.4550, 10939.00
158.6810, 10827.00
159.9080, 10822.00
161.1340, 10984.00
162.3590, 11141.00
163.5850, 11195.00
164.8110, 11273.00
166.0360, 11348.41
167.2610, 11407.57
168.4860, 11433.00
169.7110, 11535.00
170.9360, 11537.00
172.1610, 11595.00
173.3850, 11525.00
174.6100, 11578.00
175.8340, 11599.00
177.0580, 11608.65
178.2820, 11636.21
179.5050, 11644.00
180.7290, 11670.00
181.9520, 11620.00
183.1760, 11646.00
184.3990, 11910.00
185.6220, 11962.00
186.8450, 12228.00
188.0670, 12453.00
189.2900, 12569.64
190.5120, 12746.57
191.7340, 12856.00
192.9560, 12995.00
194.1780, 13091.00
195.4000, 13244.00
196.6220, 13150.00
197.8430, 13062.00
199.0640, 13124.00
200.2860, 13047.00
201.5070, 12994.00
202.7270, 12947.00
203.9480, 12675.00
205.1690, 12229.00
206.3890, 11851.00
207.6090, 11709.00
208.8290, 11625.00
210.0490, 11695.00
211.2690, 11652.00
212.4890, 11607.00
213.7080, 11691.00
214.9280, 11690.42
216.1470, 11781.00
217.3660, 11787.00
218.5850, 11805.00
219.8030, 11834.00
221.0220, 11668.00
222.2400, 11842.00
223.4590, 11688.00
224.6770, 11819.00
225.8950, 11829.00
227.1120, 11722.00
228.3300, 11798.00
229.5480, 11828.34
230.7650, 12058.00
231.9820, 12010.00
233.1990, 12295.00
234.4160, 12465.00
235.6330, 12352.00
236.8490, 12456.00
238.0660, 12629.00
239.2820, 12619.00
240.4980, 12914.00
241.7140, 12737.00
242.9300, 12923.00
244.1460, 12930.00
245.3610, 12989.00
246.5770, 12844.00
247.7920, 12893.00
249.0070, 12950.00
250.2220, 13075.00
251.4370, 13192.00
252.6510, 13575.00
253.8660, 13823.00
255.0800, 14226.00
256.2940, 13926.00
257.5080, 14190.00
258.7220, 14422.00
259.9360, 15090.00
261.1490, 15370.00
262.3630, 15319.00
263.5760, 15640.00
264.7890, 15694.00
266.0020, 15661.00
267.2150, 15624.00
268.4270, 15481.00
269.6400, 15584.00
270.8520, 15745.00
272.0640, 16351.00
273.2760, 17132.00
274.4880, 17671.00
275.7000, 18651.00
276.9120, 19631.00
278.1230, 20868.00
279.3340, 22189.00
280.5450, 23833.00
281.7560, 25004.00
282.9670, 26447.00
284.1780, 27750.00
285.3880, 28968.00
286.5980, 30208.00
287.8090, 30998.00
289.0190, 31487.00
290.2290, 31858.00
291.4380, 31353.00
292.6480, 30202.00
293.8570, 28449.00
295.0670, 26460.00
296.2760, 24335.00
297.4850, 22121.00
298.6930, 20802.00
299.9020, 19475.00
301.1110, 18423.00
302.3190, 17954.00
303.5270, 17501.00
304.7350, 17529.00
305.9430, 17575.00
307.1510, 18082.00
308.3580, 18694.00
309.5660, 19954.00
310.7730, 20995.00
311.9800, 21709.00
313.1870, 22477.00
314.3940, 23435.00
315.6010, 24242.00
316.8070, 24933.00
318.0130, 25505.00
319.2200, 26072.00
320.4260, 25876.00
321.6310, 25187.00
322.8370, 23963.00
324.0430, 22707.00
325.2480, 21161.00
326.4540, 20027.00
327.6590, 18832.00
328.8640, 18461.00
330.0680, 18100.00
331.2730, 17785.00
332.4780, 17458.00
333.6820, 17522.00
334.8860, 17603.00
336.0900, 17450.00
337.2940, 17672.00
338.4980, 17740.00
339.7010, 17885.00
340.9050, 18227.00
342.1080, 18467.00
343.3110, 18969.00
344.5140, 19630.00
345.7170, 20502.00
346.9200, 21468.00
348.1220, 22543.00
349.3240, 23556.00
350.5270, 24575.00
351.7290, 25633.00
352.9310, 26488.00
354.1320, 27128.00
355.3340, 27463.00
356.5350, 27907.00
357.7370, 27977.00
358.9380, 27679.00
360.1390, 26699.00
361.3400, 25572.00
362.5400, 24311.00
363.7410, 22785.00
364.9410, 21436.00
366.1410, 20426.00
367.3410, 19483.00
368.5410, 18628.00
369.7410, 18108.00
370.9400, 17712.00
372.1400, 17525.00
373.3390, 17365.00
374.5380, 17063.00
375.7370, 16796.00
376.9360, 16560.00
378.1350, 16485.00
379.3330, 16484.00
380.5310, 16545.00
381.7300, 16467.00
382.9280, 16271.00
384.1260, 16307.00
385.3230, 16322.00
386.5210, 16195.00
387.7180, 16260.00
388.9160, 16279.00
390.1130, 16119.00
391.3100, 16139.00
392.5060, 16153.00
393.7030, 15972.00
394.9000, 16001.00
396.0960, 15916.00
397.2920, 15745.00
398.4880, 15636.00
399.6840, 15634.37
400.8800, 15726.00
402.0750, 15696.00
403.2710, 15740.00
404.4660, 15845.00
405.6610, 15709.00
406.8560, 15813.00
408.0510, 15984.00
409.2450, 15941.00
410.4400, 16001.00
411.6340, 15900.00
412.8280, 15857.00
414.0220, 16231.00
415.2160, 16254.00
416.4100, 16265.00
417.6030, 16489.00
418.7970, 16354.00
419.9900, 16398.00
421.1830, 16330.00
422.3760, 16353.00
423.5690, 16387.00
424.7610, 16324.00
425.9540, 16230.00
427.1460, 16284.00
428.3380, 16212.00
429.5300, 16299.00
430.7220, 16350.00
431.9140, 16278.00
433.1050, 16356.00
434.2970, 16288.00
435.4880, 16373.00
436.6790, 16390.00
437.8700, 16451.00
439.0610, 16655.00
440.2510, 16838.00
441.4420, 16891.00
442.6320, 17270.00
443.8220, 17245.00
445.0120, 17698.00
446.2020, 17347.00
447.3910, 17837.00
448.5810, 17841.00
449.7700, 17960.00
450.9600, 18043.00
452.1490, 17977.00
453.3370, 17795.00
454.5260, 17669.00
455.7150, 17311.00
456.9030, 17289.00
458.0910, 17101.00
459.2800, 16986.00
460.4670, 17202.00
461.6550, 17110.00
462.8430, 17214.00
464.0300, 17363.00
465.2180, 17619.00
466.4050, 17549.00
467.5920, 17712.00
468.7790, 17789.00
469.9650, 17867.00
471.1520, 17993.17
472.3380, 18173.00
473.5250, 18173.00
474.7110, 18275.00
475.8970, 18304.00
477.0820, 18319.00
478.2680, 18406.00
479.4540, 18170.00
480.6390, 18189.00
481.8240, 18194.00
483.0090, 18205.00
484.1940, 18014.00
485.3780, 17898.00
486.5630, 18059.00
487.7470, 17535.00
488.9320, 17478.00
490.1160, 17613.00
491.3000, 17435.00
492.4830, 17349.00
493.6670, 17256.00
494.8500, 17201.00
496.0340, 17270.00
497.2170, 17218.00
498.4000, 17314.00
499.5820, 17349.00
500.7650, 17338.00
501.9480, 17311.00
503.1300, 17502.00
504.3120, 17677.00
505.4940, 17695.00
506.6760, 17817.00
507.8580, 17786.00
509.0390, 17639.00
510.2210, 17728.00
511.4020, 17936.00
512.5830, 17802.00
513.7640, 17924.00
514.9450, 17907.00
516.1250, 17779.00
517.3060, 17844.00
518.4860, 17917.00
519.6660, 18073.00
520.8460, 17868.00
522.0260, 17866.00
523.2060, 17880.00
524.3850, 17870.00
525.5650, 17881.00
526.7440, 17798.00
527.9230, 17855.00
529.1020, 17869.00
530.2810, 17871.09
531.4590, 17977.00
532.6380, 17957.00
533.8160, 18090.00
534.9940, 18215.00
536.1720, 18423.00
537.3500, 18628.00
538.5270, 18814.00
539.7050, 19025.00
540.8820, 19628.00
542.0590, 19934.00
543.2360, 20558.00
544.4130, 20684.00
545.5900, 20968.00
546.7660, 21379.00
547.9430, 21287.00
549.1190, 21568.00
550.2950, 21522.00
551.4710, 21288.00
552.6470, 20921.00
553.8220, 20661.00
554.9980, 20417.00
556.1730, 20124.00
557.3480, 19842.00
558.5230, 19731.56
559.6980, 19485.00
560.8730, 19567.00
562.0470, 19529.00
563.2220, 19526.00
564.3960, 19426.00
565.5700, 19691.00
566.7440, 19888.00
567.9170, 19826.00
569.0910, 20101.00
570.2640, 20005.00
571.4380, 20177.00
572.6110, 20066.00
573.7840, 19959.00
574.9570, 20234.00
576.1290, 20090.00
577.3020, 20117.00
578.4740, 19723.00
579.6460, 19795.41
580.8180, 19794.00
581.9900, 19816.00
583.1620, 19811.00
584.3330, 19955.00
585.5040, 20081.00
586.6760, 20163.00
587.8470, 20236.00
589.0180, 20112.00
590.1880, 20146.00
591.3590, 20225.00
592.5290, 20269.00
593.7000, 20340.97
594.8700, 20434.00
596.0400, 20450.00
597.2090, 20550.00
598.3790, 20527.00
599.5490, 20536.00
600.7180, 20492.00
601.8870, 20525.00
603.0560, 20380.00
604.2250, 20308.00
605.3940, 20300.00
606.5620, 20261.00
607.7300, 20310.00
608.8990, 20076.00
610.0670, 20229.00
611.2350, 20053.00
612.4020, 20117.00
613.5700, 20025.00
614.7370, 20018.00
615.9050, 19786.00
617.0720, 19895.00
618.2390, 20008.00
619.4060, 19678.00
620.5720, 20079.00
621.7390, 19878.00
622.9050, 19846.00
624.0710, 19577.00
625.2370, 19528.00
626.4030, 19733.00
627.5690, 19685.00
628.7340, 19496.00
629.9000, 19705.00
631.0650, 19647.00
632.2300, 19601.00
633.3950, 19582.00
634.5600, 19586.64
635.7240, 19622.81
636.8890, 19668.00
638.0530, 19757.00
639.2170, 19870.00
640.3810, 19968.00
641.5450, 19923.00
642.7080, 19952.00
643.8720, 20089.00
645.0350, 20157.00
646.1980, 20225.00
647.3610, 19880.00
648.5240, 20192.00
649.6870, 19919.00
650.8490, 20154.00
652.0120, 20146.00
653.1740, 20320.00
654.3360, 20112.00
655.4980, 20175.00
656.6600, 20370.00
657.8210, 20274.00
658.9830, 20425.00
660.1440, 20621.00
661.3050, 20406.00
662.4660, 20631.00
663.6270, 20756.00
664.7870, 21021.00
665.9480, 21039.00
667.1080, 21110.00
668.2680, 21158.00
669.4280, 21250.00
670.5880, 21361.71
671.7480, 21519.00
672.9070, 21728.00
674.0670, 21861.00
675.2260, 22028.59
676.3850, 22128.00
677.5440, 22332.00
678.7030, 22333.00
679.8610, 22473.00
681.0200, 22632.00
682.1780, 22874.00
683.3360, 23100.00
684.4940, 23256.00
685.6520, 23394.00
686.8090, 23326.00
687.9670, 23554.00
689.1240, 23607.00
690.2810, 23645.00
691.4380, 23856.00
692.5950, 23832.00
693.7520, 24095.00
694.9080, 24120.00
696.0650, 24316.00
697.2210, 24591.00
698.3770, 24267.00
699.5330, 24820.00
700.6880, 24818.00
701.8440, 24883.00
702.9990, 25364.00
704.1550, 25484.00
705.3100, 25429.00
706.4650, 25503.00
707.6190, 25524.00
708.7740, 25692.00
709.9290, 25495.00
711.0830, 25337.00
712.2370, 25066.00
713.3910, 24939.00
714.5450, 24546.00
715.6980, 24267.00
716.8520, 23806.00
718.0050, 23618.00
719.1580, 23053.00
720.3110, 22881.00
721.4640, 22418.00
722.6170, 22107.00
723.7700, 21844.00
724.9220, 21623.00
726.0740, 21582.00
727.2260, 21375.00
728.3780, 21208.00
729.5300, 20922.00
730.6810, 21211.00
731.8330, 21030.00
732.9840, 21141.00
734.1350, 21359.00
735.2860, 21386.00
736.4370, 21275.00
737.5880, 21608.00
738.7380, 21761.00
739.8880, 21625.00
741.0390, 21698.00
742.1890, 21724.00
743.3380, 22134.00
744.4880, 21939.00
745.6380, 22289.00
746.7870, 22299.00
747.9360, 22288.00
749.0850, 22414.00
750.2340, 22423.00
751.3830, 22248.00
752.5310, 22500.00
753.6800, 22603.00
754.8280, 22356.00
755.9760, 22561.00
757.1240, 22606.00
758.2720, 22448.00
759.4190, 22307.00
760.5670, 22395.00
761.7140, 22404.00
762.8610, 22313.00
764.0080, 22183.00
765.1550, 22198.00
766.3020, 22242.00
767.4480, 22139.00
768.5950, 22246.00
769.7410, 22148.00
770.8870, 22191.00
772.0330, 22261.00
773.1780, 22511.00
774.3240, 22476.00
775.4690, 22736.00
776.6140, 22699.00
777.7590, 22977.00
778.9040, 23303.00
780.0490, 23800.00
781.1940, 24095.00
782.3380, 24902.00
783.4820, 25600.00
784.6260, 26432.00
785.7700, 26750.00
786.9140, 26341.00
788.0580, 26318.00
789.2010, 26718.00
790.3450, 26723.00
791.4880, 26816.00
792.6310, 26861.00
793.7730, 26390.00
794.9160, 26129.00
796.0590, 25707.00
797.2010, 25229.00
798.3430, 25107.00
799.4850, 24600.00
800.6270, 24268.00
801.7690, 24012.00
802.9100, 23531.00
804.0520, 23521.00
805.1930, 23489.00
806.3340, 23085.00
807.4750, 22999.00
808.6160, 22759.00
809.7560, 22720.00
810.8970, 22699.00
812.0370, 22627.00
813.1770, 22491.00
814.3170, 22355.00
815.4570, 22340.00
816.5960, 22276.00
817.7360, 22244.00
818.8750, 22236.00
820.0140, 22228.00
821.1530, 22121.00
822.2920, 22412.00
823.4310, 22380.00
824.5690, 22171.00
825.7070, 22189.00
826.8460, 22557.00
827.9840, 22436.00
829.1220, 22529.00
830.2590, 22531.00
831.3970, 22402.00
832.5340, 22578.00
833.6710, 22618.00
834.8080, 22589.00
835.9450, 22327.00
837.0820, 22484.00
838.2190, 22598.00
839.3550, 22262.00
840.4910, 22391.00
841.6270, 22319.00
842.7630, 22555.00
843.8990, 22470.00
845.0350, 22399.00
846.1700, 22440.00
847.3060, 22556.00
848.4410, 22535.00
849.5760, 22578.81
850.7100, 22541.00
851.8450, 22565.00
852.9800, 22562.00
854.1140, 22486.00
855.2480, 22771.00
856.3820, 22635.00
857.5160, 22843.00
858.6500, 22891.00
859.7830, 22984.00
860.9170, 22942.00
862.0500, 23078.00
863.1830, 23110.40
864.3160, 23232.00
865.4480, 23299.00
866.5810, 23461.00
867.7130, 23699.00
868.8460, 23506.00
869.9780, 23547.00
871.1100, 23802.00
872.2410, 23588.00
873.3730, 23622.00
874.5050, 23905.00
875.6360, 23820.00
876.7670, 23737.00
877.8980, 23676.00
879.0290, 23713.00
880.1590, 23718.41
881.2900, 23770.32
882.4200, 23833.00
883.5500, 23905.00
884.6800, 23963.00
885.8100, 23997.00
886.9400, 23893.00
888.0690, 24028.00
889.1990, 24227.00
890.3280, 24501.00
891.4570, 24252.00
892.5860, 24755.00
893.7140, 24726.00
894.8430, 24782.00
895.9710, 25019.00
897.1000, 25144.00
898.2280, 25562.00
899.3560, 25775.00
900.4830, 26138.00
901.6110, 26457.00
902.7380, 26850.00
903.8660, 27569.00
904.9930, 28562.00
906.1200, 29379.00
907.2460, 30589.00
908.3730, 32393.00
909.5000, 34496.00
910.6260, 37583.00
911.7520, 41093.00
912.8780, 44499.00
914.0040, 47330.00
915.1290, 50351.00
916.2550, 52719.00
917.3800, 53852.00
918.5050, 53810.00
919.6300, 52523.00
920.7550, 49652.00
921.8800, 46453.00
923.0040, 43445.00
924.1290, 40379.00
925.2530, 38065.00
926.3770, 35971.00
927.5010, 34525.00
928.6250, 33525.00
929.7480, 32319.00
930.8720, 31865.00
931.9950, 30954.00
933.1180, 30621.00
934.2410, 29828.00
935.3640, 29820.00
936.4860, 29634.00
937.6090, 29426.00
938.7310, 29383.00
939.8530, 29356.00
940.9750, 29432.00
942.0970, 29993.00
943.2180, 30215.00
944.3400, 30776.00
945.4610, 31178.00
946.5820, 31465.00
947.7030, 31664.77
948.8240, 31804.00
949.9450, 31642.00
951.0650, 31589.00
952.1860, 31181.00
953.3060, 30783.00
954.4260, 30278.00
955.5460, 29634.00
956.6650, 29230.00
957.7850, 28802.44
958.9040, 28383.00
960.0230, 28188.00
961.1420, 27903.00
962.2610, 27818.00
963.3800, 27693.00
964.4990, 27519.00
965.6170, 27679.00
966.7350, 27471.00
967.8530, 27388.00
968.9710, 27107.00
970.0890, 27168.00
971.2070, 27178.00
972.3240, 27344.00
973.4410, 27145.00
974.5580, 27013.00
975.6750, 26727.00
976.7920, 26612.00
977.9090, 26879.00
979.0250, 26597.00
980.1410, 26700.00
981.2580, 26595.00
982.3740, 26404.00
983.4890, 26502.00
984.6050, 26151.00
985.7200, 26551.00
986.8360, 26380.00
987.9510, 26251.00
989.0660, 26209.00
990.1810, 26259.00
991.2950, 26295.00
992.4100, 26263.00
993.5240, 26372.00
994.6390, 26266.00
995.7530, 26167.00
996.8660, 26278.00
997.9800, 26322.00
999.0940, 26434.00
1000.207, 26229.00
1001.320, 26560.00
1002.433, 26568.00
1003.546, 26871.00
1004.659, 26949.00
1005.772, 26894.00
1006.884, 27338.00
1007.996, 27336.00
1009.108, 27901.00
1010.220, 28114.00
1011.332, 28208.00
1012.444, 28723.00
1013.555, 29216.00
1014.666, 29533.00
1015.777, 29827.99
1016.888, 29986.00
1017.999, 30197.00
1019.110, 30004.00
1020.220, 30100.00
1021.331, 29676.00
1022.441, 29678.00
1023.551, 29335.00
1024.661, 29302.00
1025.770, 28965.00
1026.880, 28854.00
1027.989, 28737.00
1029.098, 28547.00
1030.207, 28312.00
1031.316, 28452.00
1032.425, 28471.00
1033.533, 28558.00
1034.642, 28380.43
1035.750, 28006.00
1036.858, 28002.00
1037.966, 27875.00
1039.073, 27815.00
1040.181, 27901.00
1041.288, 27886.00
1042.396, 27958.00
1043.503, 28064.00
1044.610, 28010.00
1045.716, 28031.00
1046.823, 28434.00
1047.929, 28214.00
1049.036, 28328.00
1050.142, 28633.00
1051.248, 28996.00
1052.353, 29071.00
1053.459, 29422.00
1054.564, 29992.00
1055.670, 30519.00
1056.775, 30741.00
1057.880, 31061.00
1058.985, 31472.00
1060.089, 31505.00
1061.194, 31320.00
1062.298, 31204.00
1063.402, 30683.00
1064.506, 30532.00
1065.610, 30338.00
1066.713, 29892.00
1067.817, 29914.00
1068.920, 29596.00
1070.023, 29502.00
1071.126, 29486.00
1072.229, 29387.00
1073.332, 29292.00
1074.435, 29453.00
1075.537, 29514.00
1076.639, 29410.00
1077.741, 29345.00
1078.843, 29492.00
1079.945, 29608.00
1081.046, 29510.00
1082.148, 29491.00
1083.249, 29506.00
1084.350, 29577.00
1085.451, 29590.59
1086.551, 29720.00
1087.652, 29674.00
1088.752, 29666.00
1089.853, 29687.00
1090.953, 29800.00
1092.053, 29858.00
1093.152, 30066.00
1094.252, 29963.00
1095.351, 29959.00
1096.451, 30131.00
1097.550, 30127.00
1098.649, 30407.00
1099.748, 30495.00
1100.846, 30699.00
1101.945, 30809.00
1103.043, 30787.00
1104.141, 30981.00
1105.239, 31292.00
1106.337, 31174.00
1107.434, 30984.00
1108.532, 31173.00
1109.629, 30719.00
1110.726, 30567.00
1111.823, 30613.00
1112.920, 30235.00
1114.017, 30077.00
1115.113, 30110.00
1116.210, 29951.00
1117.306, 29986.00
1118.402, 29843.00
1119.498, 29566.00
1120.593, 29640.00
1121.689, 29595.00
1122.784, 29757.00
1123.879, 29529.00
1124.974, 29623.00
1126.069, 29596.00
1127.164, 29631.00
1128.259, 29532.00
1129.353, 29520.00
1130.447, 29541.00
1131.541, 29699.00
1132.635, 29579.00
1133.729, 29752.00
1134.822, 29566.00
1135.916, 29530.00
1137.009, 29639.00
1138.102, 29786.00
1139.195, 29525.00
1140.288, 29745.00
1141.380, 29660.00
1142.473, 29653.00
1143.565, 29750.00
1144.657, 29524.00
1145.749, 29628.00
1146.841, 29813.00
1147.932, 29683.00
1149.024, 29878.00
1150.115, 29984.00
1151.206, 29821.00
1152.297, 29633.00
1153.388, 30025.00
1154.479, 29862.00
1155.569, 29782.00
1156.659, 29739.00
1157.750, 29903.00
1158.839, 30011.00
1159.929, 30122.00
1161.019, 29791.00
1162.108, 30177.00
1163.198, 29831.00
1164.287, 30143.00
1165.376, 30125.00
1166.465, 30240.00
1167.553, 30204.00
1168.642, 30271.00
1169.730, 30616.00
1170.818, 30922.00
1171.906, 30825.84
1172.994, 30676.00
1174.082, 30868.00
1175.170, 30270.00
1176.257, 30653.00
1177.344, 30447.00
1178.431, 30402.00
1179.518, 30398.00
1180.605, 30633.00
1181.691, 30457.00
1182.778, 30570.00
1183.864, 30470.00
1184.950, 30693.00
1186.036, 30649.00
1187.122, 30770.00
1188.207, 30875.00
1189.292, 30841.00
1190.378, 30857.00
1191.463, 30867.00
1192.548, 31022.00
1193.632, 31074.00
1194.717, 31135.84
1195.801, 31149.55
1196.886, 31189.00
1197.970, 31204.88
1199.054, 31188.88
1200.137, 31249.12
1201.221, 31300.00
1202.305, 31379.00
1203.388, 31447.00
1204.471, 31359.00
1205.554, 31495.00
1206.637, 31421.00
1207.719, 31336.00
1208.802, 31503.00
1209.884, 31788.00
1210.966, 31630.00
1212.048, 32041.00
1213.130, 32078.00
1214.212, 32318.00
1215.293, 32546.00
1216.374, 32958.00
1217.456, 32769.00
1218.536, 32963.00
1219.617, 33236.00
1220.698, 33785.00
1221.778, 33900.00
1222.859, 34142.00
1223.939, 34720.00
1225.019, 35057.00
1226.099, 35355.00
1227.178, 35834.00
1228.258, 36112.00
1229.337, 36662.00
1230.417, 36817.00
1231.496, 37303.00
1232.574, 37433.00
1233.653, 37811.00
1234.732, 37778.00
1235.810, 38036.65
1236.888, 38269.00
1237.966, 38430.00
1239.044, 38910.00
1240.122, 39229.00
1241.199, 39276.00
1242.277, 39744.00
1243.354, 39781.00
1244.431, 40066.00
1245.508, 40479.00
1246.585, 40429.00
1247.661, 40502.00
1248.738, 40771.00
1249.814, 40593.00
1250.890, 40489.00
1251.966, 40485.00
1253.042, 40552.00
1254.117, 40388.00
1255.193, 40227.00
1256.268, 40128.00
1257.343, 40000.70
1258.418, 39893.65
1259.493, 39784.00
1260.567, 39665.00
1261.642, 39515.28
1262.716, 39326.00
1263.790, 39328.00
1264.864, 39047.00
1265.938, 39038.00
1267.011, 38715.00
1268.085, 38616.00
1269.158, 38052.00
1270.231, 37976.00
1271.304, 37721.00
1272.377, 37762.00
1273.450, 37289.00
1274.522, 36991.00
1275.594, 36877.00
