##NAMES=Andalusite
##RRUFFID=R060197
##IDEAL CHEMISTRY=Al_2_SiO_5_
##LOCALITY=Brazil
##OWNER=RRUFF
##SOURCE=Marcus Origlieri
##DESCRIPTION=Green colored water worn pebble
##STATUS=The identification of this mineral has been confirmed by X-ray diffraction and chemical analysis
##URL=rruff.info/R060197
##MEASURED CHEMISTRY=(Al_1.97_Mn^3+^_0.03_)_Î£=2_Si_1.00_O_5_
##PIN_ID=M00401
##ORIENTATION=Laser parallel to c* (0 0 1). Fiducial mark perpendicular to laser is parallel to a [1 0 0]
91.01200, 4039.000
92.24600, 4088.985
93.48000, 4226.000
94.71400, 4203.000
95.94800, 4238.000
97.18200, 4129.000
98.41600, 4100.000
99.64900, 4265.000
100.8830, 4281.000
102.1160, 4156.000
103.3490, 4318.000
104.5820, 4600.000
105.8150, 4948.000
107.0470, 5425.000
108.2800, 6029.000
109.5120, 6784.000
110.7440, 6397.000
111.9760, 5367.000
113.2080, 5189.000
114.4400, 5509.000
115.6710, 5975.000
116.9030, 5781.000
118.1340, 5482.000
119.3650, 5017.000
120.5960, 4890.000
121.8270, 5008.000
123.0580, 5301.000
124.2880, 5257.000
125.5190, 5044.000
126.7490, 5077.000
127.9790, 5058.000
129.2090, 5259.000
130.4390, 5324.000
131.6680, 5350.000
132.8980, 5231.000
134.1270, 5209.000
135.3560, 5305.000
136.5850, 5323.000
137.8140, 5509.000
139.0430, 5696.000
140.2710, 5702.000
141.5000, 5532.000
142.7280, 5440.000
143.9560, 5534.000
145.1840, 5528.000
146.4120, 5619.000
147.6390, 5632.844
148.8670, 5749.711
150.0940, 5754.000
151.3210, 5856.000
152.5490, 5908.679
153.7750, 5862.312
155.0020, 5995.291
156.2290, 6008.000
157.4550, 5987.000
158.6810, 5974.000
159.9080, 6008.000
161.1340, 6050.000
162.3590, 6095.000
163.5850, 6389.000
164.8110, 6407.000
166.0360, 6533.000
167.2610, 6531.000
168.4860, 6583.000
169.7110, 6560.000
170.9360, 6586.000
172.1610, 6538.000
173.3850, 6467.000
174.6100, 6491.000
175.8340, 6450.000
177.0580, 6441.000
178.2820, 6518.000
179.5050, 6467.000
180.7290, 6406.000
181.9520, 6465.000
183.1760, 6465.000
184.3990, 6555.000
185.6220, 6635.000
186.8450, 6926.000
188.0670, 7101.000
189.2900, 7217.000
190.5120, 7405.000
191.7340, 7577.000
192.9560, 7687.000
194.1780, 7945.000
195.4000, 8013.000
196.6220, 8411.000
197.8430, 8332.000
199.0640, 8237.000
200.2860, 8039.000
201.5070, 7909.000
202.7270, 7816.000
203.9480, 7351.000
205.1690, 6727.000
206.3890, 6243.000
207.6090, 5982.000
208.8290, 5940.000
210.0490, 5926.000
211.2690, 5913.000
212.4890, 5931.000
213.7080, 5969.000
214.9280, 5974.000
216.1470, 5994.183
217.3660, 5971.000
218.5850, 6008.000
219.8030, 6015.000
221.0220, 5998.000
222.2400, 5935.000
223.4590, 5920.000
224.6770, 5945.000
225.8950, 6052.000
227.1120, 6020.000
228.3300, 6095.000
229.5480, 6135.000
230.7650, 6186.000
231.9820, 6403.000
233.1990, 6733.000
234.4160, 6781.000
235.6330, 7075.000
236.8490, 7227.000
238.0660, 7318.000
239.2820, 7311.000
240.4980, 7444.000
241.7140, 7475.000
242.9300, 7522.000
244.1460, 7491.000
245.3610, 7366.000
246.5770, 7321.000
247.7920, 7287.000
249.0070, 7240.000
250.2220, 7164.000
251.4370, 7294.000
252.6510, 7389.000
253.8660, 7414.000
255.0800, 7689.000
256.2940, 7693.000
257.5080, 7955.000
258.7220, 8597.000
259.9360, 9517.000
261.1490, 10121.00
262.3630, 10694.00
263.5760, 11589.00
264.7890, 11837.00
266.0020, 11822.00
267.2150, 11295.00
268.4270, 10849.00
269.6400, 10973.00
270.8520, 11193.00
272.0640, 12062.00
273.2760, 12698.00
274.4880, 13933.00
275.7000, 14990.00
276.9120, 16735.00
278.1230, 18855.00
279.3340, 20443.00
280.5450, 22399.00
281.7560, 24217.00
282.9670, 26602.00
284.1780, 28724.00
285.3880, 29971.00
286.5980, 31401.00
287.8090, 32314.00
289.0190, 32850.00
290.2290, 32377.00
291.4380, 31441.00
292.6480, 29599.00
293.8570, 27387.00
295.0670, 24492.00
296.2760, 21831.00
297.4850, 19226.00
298.6930, 17458.00
299.9020, 15593.00
301.1110, 14289.00
302.3190, 13346.00
303.5270, 12806.00
304.7350, 12929.00
305.9430, 13174.00
307.1510, 13749.00
308.3580, 14426.00
309.5660, 15942.00
310.7730, 17410.00
311.9800, 18870.00
313.1870, 20267.00
314.3940, 21369.00
315.6010, 22513.00
316.8070, 23092.00
318.0130, 23415.00
319.2200, 23276.00
320.4260, 22675.00
321.6310, 21708.00
322.8370, 20203.00
324.0430, 18379.00
325.2480, 16808.00
326.4540, 15441.00
327.6590, 14365.00
328.8640, 13574.00
330.0680, 13067.00
331.2730, 12762.00
332.4780, 12480.00
333.6820, 12345.00
334.8860, 12261.00
336.0900, 12400.00
337.2940, 12424.00
338.4980, 12581.00
339.7010, 13025.00
340.9050, 13313.00
342.1080, 13771.00
343.3110, 14364.00
344.5140, 15504.00
345.7170, 16684.00
346.9200, 17801.00
348.1220, 19447.00
349.3240, 21063.00
350.5270, 22498.00
351.7290, 23994.00
352.9310, 25302.00
354.1320, 25939.00
355.3340, 26350.00
356.5350, 26363.67
357.7370, 26210.00
358.9380, 25127.00
360.1390, 23950.00
361.3400, 22211.00
362.5400, 20586.00
363.7410, 18729.00
364.9410, 17038.00
366.1410, 15623.00
367.3410, 14428.00
368.5410, 13392.00
369.7410, 12908.00
370.9400, 12164.00
372.1400, 11815.00
373.3390, 11492.00
374.5380, 11215.00
375.7370, 10983.00
376.9360, 10806.00
378.1350, 10834.00
379.3330, 10729.00
380.5310, 10725.63
381.7300, 10747.00
382.9280, 10776.00
384.1260, 10769.00
385.3230, 10850.00
386.5210, 11004.00
387.7180, 10946.00
388.9160, 10876.00
390.1130, 10713.00
391.3100, 10623.00
392.5060, 10354.00
393.7030, 10160.00
394.9000, 10030.00
396.0960, 9880.000
397.2920, 9827.000
398.4880, 9720.495
399.6840, 9680.596
400.8800, 9630.000
402.0750, 9661.000
403.2710, 9738.000
404.4660, 9805.000
405.6610, 9823.000
406.8560, 9808.000
408.0510, 9920.000
409.2450, 10136.00
410.4400, 10072.00
411.6340, 10270.00
412.8280, 9987.000
414.0220, 10120.00
415.2160, 10191.00
416.4100, 10113.00
417.6030, 10256.00
418.7970, 10213.00
419.9900, 10145.00
421.1830, 10058.00
422.3760, 10050.00
423.5690, 9913.000
424.7610, 9908.000
425.9540, 9697.000
427.1460, 9650.000
428.3380, 9731.000
429.5300, 9589.000
430.7220, 9632.000
431.9140, 9704.000
433.1050, 9597.000
434.2970, 9673.000
435.4880, 9806.000
436.6790, 9951.000
437.8700, 10029.00
439.0610, 10086.00
440.2510, 10241.00
441.4420, 10672.00
442.6320, 11097.00
443.8220, 11333.00
445.0120, 11323.00
446.2020, 11501.00
447.3910, 11622.00
448.5810, 11676.00
449.7700, 11744.00
450.9600, 11706.97
452.1490, 11608.00
453.3370, 11484.00
454.5260, 11283.00
455.7150, 10964.00
456.9030, 10772.00
458.0910, 10698.00
459.2800, 10668.00
460.4670, 10889.00
461.6550, 11005.00
462.8430, 11186.00
464.0300, 11409.00
465.2180, 11524.00
466.4050, 11735.00
467.5920, 11884.00
468.7790, 12016.00
469.9650, 12309.00
471.1520, 12370.00
472.3380, 12626.00
473.5250, 12805.00
474.7110, 12755.00
475.8970, 13039.00
477.0820, 12904.00
478.2680, 13087.00
479.4540, 13050.00
480.6390, 13044.00
481.8240, 12873.00
483.0090, 12837.00
484.1940, 12609.00
485.3780, 12256.00
486.5630, 12158.00
487.7470, 11869.00
488.9320, 11461.00
490.1160, 11241.00
491.3000, 11167.00
492.4830, 10995.00
493.6670, 10900.00
494.8500, 10954.00
496.0340, 10831.00
497.2170, 10871.00
498.4000, 10891.00
499.5820, 10902.00
500.7650, 11007.00
501.9480, 11064.00
503.1300, 11149.00
504.3120, 11128.00
505.4940, 11313.00
506.6760, 11193.00
507.8580, 11544.00
509.0390, 11554.00
510.2210, 11515.00
511.4020, 11458.00
512.5830, 11610.00
513.7640, 11592.00
514.9450, 11490.00
516.1250, 11350.00
517.3060, 11454.00
518.4860, 11224.00
519.6660, 11196.00
520.8460, 11268.00
522.0260, 11048.00
523.2060, 10966.00
524.3850, 11026.00
525.5650, 10827.00
526.7440, 10904.00
527.9230, 10831.00
529.1020, 10854.00
530.2810, 11051.00
531.4590, 11128.00
532.6380, 11099.00
533.8160, 11092.00
534.9940, 11274.00
536.1720, 11418.00
537.3500, 11795.00
538.5270, 11958.00
539.7050, 12510.00
540.8820, 12968.00
542.0590, 13416.00
543.2360, 14014.00
544.4130, 14332.00
545.5900, 14820.00
546.7660, 15119.00
547.9430, 15196.00
549.1190, 15353.00
550.2950, 14967.00
551.4710, 14789.00
552.6470, 14499.00
553.8220, 13891.42
554.9980, 13471.48
556.1730, 12796.00
557.3480, 12481.00
558.5230, 12330.00
559.6980, 12283.00
560.8730, 12269.00
562.0470, 12307.00
563.2220, 12415.00
564.3960, 12507.00
565.5700, 12550.00
566.7440, 12693.00
567.9170, 12755.00
569.0910, 12749.00
570.2640, 12940.00
571.4380, 12981.00
572.6110, 12888.00
573.7840, 12796.00
574.9570, 12800.00
576.1290, 12616.00
577.3020, 12453.00
578.4740, 12524.00
579.6460, 12512.00
580.8180, 12328.00
581.9900, 12542.00
583.1620, 12263.00
584.3330, 12328.00
585.5040, 12423.00
586.6760, 12362.00
587.8470, 12656.00
589.0180, 12641.00
590.1880, 12703.00
591.3590, 12864.00
592.5290, 12873.00
593.7000, 12836.00
594.8700, 12871.00
596.0400, 12987.00
597.2090, 13061.00
598.3790, 13082.00
599.5490, 13085.00
600.7180, 12949.00
601.8870, 12999.00
603.0560, 12927.00
604.2250, 12939.00
605.3940, 12732.00
606.5620, 12728.00
607.7300, 12574.00
608.8990, 12530.00
610.0670, 12387.00
611.2350, 12475.00
612.4020, 12198.00
613.5700, 12291.00
614.7370, 12189.00
615.9050, 12043.00
617.0720, 12172.00
618.2390, 12033.00
619.4060, 11962.00
620.5720, 12172.00
621.7390, 11983.53
622.9050, 11817.00
624.0710, 11840.00
625.2370, 11665.00
626.4030, 11606.00
627.5690, 11616.00
628.7340, 11473.00
629.9000, 11553.00
631.0650, 11708.00
632.2300, 11670.00
633.3950, 11675.00
634.5600, 11690.00
635.7240, 11873.00
636.8890, 12040.00
638.0530, 12125.00
639.2170, 12196.00
640.3810, 12277.00
641.5450, 12450.00
642.7080, 12416.00
643.8720, 12433.00
645.0350, 12570.00
646.1980, 12462.00
647.3610, 12342.00
648.5240, 12302.00
649.6870, 12105.00
650.8490, 12008.00
652.0120, 12010.00
653.1740, 12061.00
654.3360, 12025.00
655.4980, 12080.00
656.6600, 12097.00
657.8210, 12204.00
658.9830, 12226.53
660.1440, 12285.00
661.3050, 12368.00
662.4660, 12403.00
663.6270, 12588.00
664.7870, 12740.00
665.9480, 12804.00
667.1080, 12950.60
668.2680, 12952.00
669.4280, 13110.00
670.5880, 13299.00
671.7480, 13289.00
672.9070, 13749.00
674.0670, 13807.00
675.2260, 13904.00
676.3850, 14083.00
677.5440, 14191.00
678.7030, 14446.00
679.8610, 14425.00
681.0200, 14638.00
682.1780, 14708.00
683.3360, 14829.00
684.4940, 15081.00
685.6520, 15058.00
686.8090, 15318.00
687.9670, 15275.00
689.1240, 15410.00
690.2810, 15553.00
691.4380, 15766.00
692.5950, 15763.00
693.7520, 15795.00
694.9080, 15881.00
696.0650, 16057.00
697.2210, 16241.00
698.3770, 16204.00
699.5330, 16559.00
700.6880, 16639.00
701.8440, 16825.00
702.9990, 17129.00
704.1550, 17439.00
705.3100, 17492.00
706.4650, 18006.00
707.6190, 18028.00
708.7740, 18109.00
709.9290, 17837.00
711.0830, 17639.00
712.2370, 17282.00
713.3910, 16813.00
714.5450, 16490.00
715.6980, 16048.00
716.8520, 15435.00
718.0050, 15013.00
719.1580, 14637.00
720.3110, 14090.00
721.4640, 13645.00
722.6170, 13257.00
723.7700, 12913.00
724.9220, 12686.00
726.0740, 12444.00
727.2260, 12162.00
728.3780, 12183.00
729.5300, 11901.00
730.6810, 11995.00
731.8330, 12050.00
732.9840, 12209.00
734.1350, 12240.00
735.2860, 12406.00
736.4370, 12355.00
737.5880, 12557.00
738.7380, 12715.00
739.8880, 12720.00
741.0390, 13064.00
742.1890, 13233.00
743.3380, 13232.00
744.4880, 13293.00
745.6380, 13507.00
746.7870, 13429.00
747.9360, 13495.00
749.0850, 13737.00
750.2340, 13729.00
751.3830, 13598.00
752.5310, 13797.00
753.6800, 13762.00
754.8280, 13587.00
755.9760, 13465.00
757.1240, 13520.00
758.2720, 13411.00
759.4190, 13373.00
760.5670, 13300.00
761.7140, 13357.00
762.8610, 13357.00
764.0080, 13148.00
765.1550, 13104.00
766.3020, 13367.00
767.4480, 13060.00
768.5950, 13276.00
769.7410, 13210.00
770.8870, 13068.00
772.0330, 13249.00
773.1780, 13494.00
774.3240, 13584.00
775.4690, 13669.00
776.6140, 13887.00
777.7590, 14307.00
778.9040, 14457.00
780.0490, 15013.00
781.1940, 15568.00
782.3380, 16006.00
783.4820, 16569.17
784.6260, 16976.00
785.7700, 17519.00
786.9140, 18059.00
788.0580, 18340.00
789.2010, 18523.00
790.3450, 18713.00
791.4880, 18526.00
792.6310, 18382.00
793.7730, 18168.00
794.9160, 17429.00
796.0590, 17095.00
797.2010, 16560.00
798.3430, 15955.00
799.4850, 15587.00
800.6270, 15028.00
801.7690, 14823.00
802.9100, 14203.00
804.0520, 13945.00
805.1930, 13823.00
806.3340, 13399.00
807.4750, 13320.00
808.6160, 13089.00
809.7560, 12942.00
810.8970, 12892.00
812.0370, 12676.00
813.1770, 12669.00
814.3170, 12531.00
815.4570, 12622.00
816.5960, 12425.00
817.7360, 12543.00
818.8750, 12216.00
820.0140, 12397.00
821.1530, 12371.00
822.2920, 12296.00
823.4310, 12472.00
824.5690, 12423.00
825.7070, 12618.00
826.8460, 12470.00
827.9840, 12498.00
829.1220, 12559.00
830.2590, 12587.00
831.3970, 12553.05
832.5340, 12433.00
833.6710, 12450.00
834.8080, 12417.00
835.9450, 12348.00
837.0820, 12342.00
838.2190, 12318.00
839.3550, 12343.00
840.4910, 12383.00
841.6270, 12344.46
842.7630, 12327.25
843.8990, 12284.00
845.0350, 12259.00
846.1700, 12205.00
847.3060, 12232.00
848.4410, 12140.00
849.5760, 12359.00
850.7100, 12344.00
851.8450, 12407.00
852.9800, 12408.00
854.1140, 12523.00
855.2480, 12616.00
856.3820, 12791.00
857.5160, 12926.00
858.6500, 13119.00
859.7830, 13209.00
860.9170, 13367.00
862.0500, 13333.00
863.1830, 13614.00
864.3160, 13714.00
865.4480, 13932.00
866.5810, 13956.00
867.7130, 14052.00
868.8460, 13970.00
869.9780, 14008.00
871.1100, 14134.00
872.2410, 14145.00
873.3730, 14214.00
874.5050, 14052.00
875.6360, 14057.00
876.7670, 14192.00
877.8980, 13973.00
879.0290, 14096.00
880.1590, 13973.00
881.2900, 13989.00
882.4200, 14198.00
883.5500, 14065.00
884.6800, 13993.00
885.8100, 14102.00
886.9400, 14245.00
888.0690, 14002.00
889.1990, 14242.00
890.3280, 14223.00
891.4570, 14366.00
892.5860, 14592.00
893.7140, 14676.00
894.8430, 14901.00
895.9710, 15274.00
897.1000, 15375.00
898.2280, 15833.00
899.3560, 16218.00
900.4830, 16515.00
901.6110, 17277.00
902.7380, 17922.00
903.8660, 18714.00
904.9930, 19696.00
906.1200, 21320.00
907.2460, 23170.00
908.3730, 25677.00
909.5000, 29476.00
910.6260, 33538.00
911.7520, 38254.00
912.8780, 43209.00
914.0040, 47721.00
915.1290, 51854.00
916.2550, 54360.00
917.3800, 55319.00
918.5050, 54855.00
919.6300, 52743.00
920.7550, 49510.00
921.8800, 45270.00
923.0040, 40998.00
924.1290, 37311.00
925.2530, 34113.00
926.3770, 31560.00
927.5010, 29602.00
928.6250, 27734.00
929.7480, 26545.00
930.8720, 24992.00
931.9950, 24241.00
933.1180, 22974.00
934.2410, 22653.00
935.3640, 22171.00
936.4860, 21643.00
937.6090, 21393.00
938.7310, 21359.00
939.8530, 21484.00
940.9750, 21657.00
942.0970, 22189.00
943.2180, 22540.00
944.3400, 23278.00
945.4610, 24115.00
946.5820, 24313.00
947.7030, 24771.00
948.8240, 25015.00
949.9450, 24503.00
951.0650, 24261.00
952.1860, 23738.00
953.3060, 22848.00
954.4260, 21898.00
955.5460, 21254.00
956.6650, 20524.00
957.7850, 19703.00
958.9040, 19247.00
960.0230, 18988.00
961.1420, 18645.00
962.2610, 18188.00
963.3800, 18200.00
964.4990, 17981.00
965.6170, 17984.00
966.7350, 17670.00
967.8530, 17545.00
968.9710, 17400.00
970.0890, 17235.44
971.2070, 17104.11
972.3240, 17067.00
973.4410, 16797.00
974.5580, 16827.00
975.6750, 16645.00
976.7920, 16506.00
977.9090, 16328.00
979.0250, 16117.00
980.1410, 16026.00
981.2580, 16058.00
982.3740, 15814.00
983.4890, 15840.00
984.6050, 15633.00
985.7200, 15603.00
986.8360, 15502.00
987.9510, 15639.00
989.0660, 15497.00
990.1810, 15279.00
991.2950, 15458.00
992.4100, 15475.00
993.5240, 15293.00
994.6390, 15239.00
995.7530, 15336.00
996.8660, 15364.00
997.9800, 15462.00
999.0940, 15438.00
1000.207, 15406.00
1001.320, 15788.00
1002.433, 15806.00
1003.546, 16176.00
1004.659, 16227.00
1005.772, 16490.00
1006.884, 16677.00
1007.996, 16947.00
1009.108, 17461.00
1010.220, 17937.00
1011.332, 18519.00
1012.444, 19040.00
1013.555, 19430.00
1014.666, 19825.34
1015.777, 20093.15
1016.888, 20382.00
1017.999, 20432.00
1019.110, 20550.00
1020.220, 20535.00
1021.331, 20091.00
1022.441, 19687.00
1023.551, 19547.00
1024.661, 19050.00
1025.770, 18666.00
1026.880, 18542.00
1027.989, 18186.00
1029.098, 18009.00
1030.207, 17822.00
1031.316, 17617.00
1032.425, 17391.00
1033.533, 17287.00
1034.642, 17177.00
1035.750, 17110.00
1036.858, 16709.00
1037.966, 16836.00
1039.073, 16798.00
1040.181, 16797.00
1041.288, 16928.00
1042.396, 16862.00
1043.503, 16829.00
1044.610, 16957.00
1045.716, 17019.00
1046.823, 17178.00
1047.929, 17474.00
1049.036, 17327.00
1050.142, 17752.00
1051.248, 18149.00
1052.353, 18547.00
1053.459, 19240.00
1054.564, 19627.00
1055.670, 20416.00
1056.775, 20721.00
1057.880, 21149.00
1058.985, 21426.00
1060.089, 21308.00
1061.194, 21255.00
1062.298, 21101.00
1063.402, 20642.00
1064.506, 20116.00
1065.610, 19621.00
1066.713, 19270.00
1067.817, 18958.58
1068.920, 18750.00
1070.023, 18623.00
1071.126, 18503.00
1072.229, 18587.14
1073.332, 19131.00
1074.435, 18526.00
1075.537, 18688.00
1076.639, 18247.00
1077.741, 18186.00
1078.843, 18234.00
1079.945, 18515.00
1081.046, 18323.00
1082.148, 18442.00
1083.249, 18411.00
1084.350, 18306.00
1085.451, 18457.00
1086.551, 18499.00
1087.652, 18570.00
1088.752, 18588.00
1089.853, 18420.00
1090.953, 18513.00
1092.053, 18556.00
1093.152, 18820.00
1094.252, 18773.00
1095.351, 18802.00
1096.451, 18846.00
1097.550, 19049.00
1098.649, 19203.00
1099.748, 19382.03
1100.846, 19456.00
1101.945, 19792.00
1103.043, 19887.00
1104.141, 20057.00
1105.239, 20041.00
1106.337, 20092.00
1107.434, 19920.00
1108.532, 19769.00
1109.629, 19577.00
1110.726, 19302.00
1111.823, 19146.00
1112.920, 18772.00
1114.017, 18383.00
1115.113, 18258.00
1116.210, 18219.00
1117.306, 17996.00
1118.402, 18021.00
1119.498, 18106.00
1120.593, 18114.00
1121.689, 18103.10
1122.784, 18091.41
1123.879, 18038.00
1124.974, 17994.00
1126.069, 17956.00
1127.164, 17900.00
1128.259, 17648.00
1129.353, 17594.00
1130.447, 17237.00
1131.541, 17199.00
1132.635, 17093.00
1133.729, 17013.00
1134.822, 17075.00
1135.916, 17043.00
1137.009, 17003.00
1138.102, 17099.00
1139.195, 16905.00
1140.288, 16973.00
1141.380, 16925.00
1142.473, 16867.00
1143.565, 16936.00
1144.657, 16896.00
1145.749, 16753.00
1146.841, 16814.00
1147.932, 16820.00
1149.024, 16910.00
1150.115, 16970.00
1151.206, 16901.00
1152.297, 17009.00
1153.388, 16825.00
1154.479, 16860.00
1155.569, 16915.00
1156.659, 16797.00
1157.750, 16949.00
1158.839, 16763.00
1159.929, 16942.00
1161.019, 16997.00
1162.108, 16808.00
1163.198, 16881.00
1164.287, 16770.00
1165.376, 16952.00
1166.465, 16777.00
1167.553, 16858.00
1168.642, 16878.00
1169.730, 16906.00
1170.818, 16935.64
1171.906, 16858.00
1172.994, 16933.00
1174.082, 16861.00
1175.170, 16789.00
1176.257, 17028.00
1177.344, 17065.00
1178.431, 16979.00
1179.518, 17074.00
1180.605, 17306.00
1181.691, 17216.00
1182.778, 17055.00
1183.864, 17254.00
1184.950, 17062.00
1186.036, 17209.00
1187.122, 17375.00
1188.207, 17311.00
1189.292, 17427.00
1190.378, 17474.00
1191.463, 17526.00
1192.548, 17379.00
1193.632, 17483.00
1194.717, 17531.00
1195.801, 17576.00
1196.886, 17720.00
1197.970, 17741.00
1199.054, 17606.00
1200.137, 17886.00
1201.221, 17644.00
1202.305, 17758.00
1203.388, 17807.00
1204.471, 17822.00
1205.554, 18029.00
1206.637, 18275.00
1207.719, 18064.00
1208.802, 18285.00
1209.884, 18543.00
1210.966, 18580.00
1212.048, 18763.00
1213.130, 18997.00
1214.212, 19163.00
1215.293, 19282.00
1216.374, 19618.00
1217.456, 19843.00
1218.536, 20257.00
1219.617, 20629.00
1220.698, 21206.00
1221.778, 21698.00
1222.859, 22205.00
1223.939, 22794.00
1225.019, 23473.00
1226.099, 23899.00
1227.178, 24748.00
1228.258, 25164.00
1229.337, 25786.00
1230.417, 26325.00
1231.496, 26513.00
1232.574, 26895.00
1233.653, 27222.00
1234.732, 27472.00
1235.810, 27898.00
1236.888, 28324.00
1237.966, 28661.00
1239.044, 28937.00
1240.122, 29632.00
1241.199, 29827.00
1242.277, 30341.00
1243.354, 30598.00
1244.431, 30954.00
1245.508, 31266.00
1246.585, 31313.00
1247.661, 31543.00
1248.738, 31572.00
1249.814, 31491.00
1250.890, 31456.00
1251.966, 31380.00
1253.042, 31221.30
1254.117, 31166.00
1255.193, 30870.00
1256.268, 30837.00
1257.343, 30667.00
1258.418, 30453.00
1259.493, 30076.00
1260.567, 29828.00
1261.642, 29746.00
1262.716, 29463.00
1263.790, 28865.00
1264.864, 28702.00
1265.938, 28208.00
1267.011, 27756.00
1268.085, 27384.00
1269.158, 27055.00
1270.231, 26496.00
1271.304, 26101.00
1272.377, 25569.00
1273.450, 25293.00
1274.522, 24956.00
1275.594, 24396.00
