##NAMES=Andalusite
##RRUFFID=R060197
##IDEAL CHEMISTRY=Al_2_SiO_5_
##LOCALITY=Brazil
##OWNER=RRUFF
##SOURCE=Marcus Origlieri
##DESCRIPTION=Green colored water worn pebble
##STATUS=The identification of this mineral has been confirmed by X-ray diffraction and chemical analysis
##URL=rruff.info/R060197
##MEASURED CHEMISTRY=(Al_1.97_Mn^3+^_0.03_)_Î£=2_Si_1.00_O_5_
##PIN_ID=L01138
##ORIENTATION=Laser parallel to -b* (0 -1 0). Fiducial mark perpendicular to laser is parallel to -c [0 0 -1]
123.0580, 10034.00
124.2880, 9988.959
125.5190, 10109.00
126.7490, 10073.00
127.9790, 10079.00
129.2090, 10216.00
130.4390, 10309.00
131.6680, 10425.00
132.8980, 10416.00
134.1270, 10461.00
135.3560, 10441.00
136.5850, 10461.00
137.8140, 10501.00
139.0430, 10750.00
140.2710, 10883.00
141.5000, 10920.00
142.7280, 10933.00
143.9560, 11025.00
145.1840, 10882.00
146.4120, 10840.00
147.6390, 11008.00
148.8670, 10916.00
150.0940, 10940.00
151.3210, 11020.83
152.5490, 10943.00
153.7750, 11105.00
155.0020, 11084.00
156.2290, 11047.00
157.4550, 11088.00
158.6810, 11052.00
159.9080, 11134.00
161.1340, 11184.88
162.3590, 11252.00
163.5850, 11369.00
164.8110, 11423.00
166.0360, 11565.00
167.2610, 11549.00
168.4860, 11395.00
169.7110, 11481.00
170.9360, 11499.00
172.1610, 11604.00
173.3850, 11319.00
174.6100, 11658.00
175.8340, 11392.00
177.0580, 11317.00
178.2820, 11503.00
179.5050, 11457.00
180.7290, 11573.00
181.9520, 11590.00
183.1760, 11637.00
184.3990, 11731.00
185.6220, 11797.00
186.8450, 12135.00
188.0670, 12353.00
189.2900, 12251.00
190.5120, 12555.00
191.7340, 12666.00
192.9560, 12703.00
194.1780, 12774.00
195.4000, 12775.00
196.6220, 12794.00
197.8430, 12635.00
199.0640, 12586.00
200.2860, 12436.00
201.5070, 12533.00
202.7270, 12562.00
203.9480, 12454.00
205.1690, 12045.00
206.3890, 11848.00
207.6090, 11616.00
208.8290, 11538.00
210.0490, 11664.00
211.2690, 11555.00
212.4890, 11734.00
213.7080, 11683.00
214.9280, 11798.00
216.1470, 11750.00
217.3660, 11690.00
218.5850, 11842.00
219.8030, 11631.00
221.0220, 11798.00
222.2400, 11615.00
223.4590, 11666.00
224.6770, 11689.00
225.8950, 11687.00
227.1120, 11765.66
228.3300, 11919.00
229.5480, 11911.00
230.7650, 12092.00
231.9820, 12198.00
233.1990, 12538.00
234.4160, 12919.00
235.6330, 13263.00
236.8490, 13436.13
238.0660, 13775.00
239.2820, 13707.00
240.4980, 13691.00
241.7140, 13764.00
242.9300, 13726.00
244.1460, 13610.00
245.3610, 13509.00
246.5770, 13412.00
247.7920, 13487.00
249.0070, 13386.00
250.2220, 13437.00
251.4370, 13641.00
252.6510, 13858.00
253.8660, 14081.15
255.0800, 14357.08
256.2940, 14714.00
257.5080, 14883.00
258.7220, 15340.00
259.9360, 15501.23
261.1490, 15537.72
262.3630, 16002.00
263.5760, 15530.00
264.7890, 15454.00
266.0020, 15559.00
267.2150, 15577.00
268.4270, 15858.00
269.6400, 16014.00
270.8520, 16527.00
272.0640, 17132.00
273.2760, 17689.00
274.4880, 18498.00
275.7000, 19728.00
276.9120, 20553.00
278.1230, 22065.00
279.3340, 23938.00
280.5450, 25812.00
281.7560, 28091.00
282.9670, 30656.00
284.1780, 33504.00
285.3880, 35706.00
286.5980, 38202.00
287.8090, 39116.00
289.0190, 38638.00
290.2290, 37174.00
291.4380, 34229.00
292.6480, 31054.00
293.8570, 28323.00
295.0670, 25545.00
296.2760, 23305.00
297.4850, 21495.00
298.6930, 20073.00
299.9020, 19075.00
301.1110, 18120.00
302.3190, 17631.00
303.5270, 17450.00
304.7350, 17119.00
305.9430, 17386.00
307.1510, 17791.00
308.3580, 18341.00
309.5660, 19405.00
310.7730, 20481.00
311.9800, 21705.00
313.1870, 23489.00
314.3940, 25388.00
315.6010, 27082.00
316.8070, 28300.00
318.0130, 27976.00
319.2200, 26881.00
320.4260, 24701.00
321.6310, 22955.00
322.8370, 21029.00
324.0430, 19675.00
325.2480, 18861.00
326.4540, 18148.00
327.6590, 17694.00
328.8640, 17276.00
330.0680, 16960.00
331.2730, 16920.00
332.4780, 16994.00
333.6820, 16931.00
334.8860, 17040.00
336.0900, 17118.00
337.2940, 17221.00
338.4980, 17630.00
339.7010, 17737.00
340.9050, 18136.00
342.1080, 18921.00
343.3110, 19597.00
344.5140, 20305.00
345.7170, 21360.00
346.9200, 22667.00
348.1220, 24246.00
349.3240, 26179.00
350.5270, 28051.00
351.7290, 30412.00
352.9310, 32194.00
354.1320, 33651.00
355.3340, 34627.00
356.5350, 34292.00
357.7370, 33396.00
358.9380, 31419.00
360.1390, 29047.00
361.3400, 26436.00
362.5400, 24641.00
363.7410, 22973.00
364.9410, 21505.00
366.1410, 20283.00
367.3410, 19370.00
368.5410, 18935.00
369.7410, 18188.00
370.9400, 17829.00
372.1400, 17430.00
373.3390, 17144.00
374.5380, 17091.00
375.7370, 16948.00
376.9360, 16623.00
378.1350, 16692.00
379.3330, 16515.00
380.5310, 16791.00
381.7300, 16602.00
382.9280, 16746.00
384.1260, 16782.00
385.3230, 16696.00
386.5210, 16666.00
387.7180, 16872.00
388.9160, 16807.00
390.1130, 16530.00
391.3100, 16551.00
392.5060, 16298.00
393.7030, 16018.00
394.9000, 16009.00
396.0960, 15885.00
397.2920, 15823.00
398.4880, 15846.00
399.6840, 15882.00
400.8800, 15845.00
402.0750, 15891.00
403.2710, 15946.00
404.4660, 15941.00
405.6610, 15998.00
406.8560, 16088.00
408.0510, 15945.00
409.2450, 15877.00
410.4400, 15926.00
411.6340, 15965.00
412.8280, 15935.00
414.0220, 15867.00
415.2160, 16019.00
416.4100, 15795.00
417.6030, 15963.00
418.7970, 15865.00
419.9900, 15890.00
421.1830, 15975.00
422.3760, 15940.00
423.5690, 15889.00
424.7610, 15905.00
425.9540, 15954.00
427.1460, 15925.00
428.3380, 15961.00
429.5300, 15930.00
430.7220, 15760.00
431.9140, 15858.00
433.1050, 15925.00
434.2970, 16033.00
435.4880, 15891.00
436.6790, 16081.00
437.8700, 16026.00
439.0610, 16261.00
440.2510, 16256.00
441.4420, 16222.00
442.6320, 16407.00
443.8220, 16433.00
445.0120, 16371.00
446.2020, 16419.00
447.3910, 16653.00
448.5810, 16811.00
449.7700, 16820.00
450.9600, 16696.00
452.1490, 16599.00
453.3370, 16477.00
454.5260, 16467.00
455.7150, 16649.00
456.9030, 16585.00
458.0910, 16700.00
459.2800, 16669.00
460.4670, 16750.17
461.6550, 16778.00
462.8430, 16942.00
464.0300, 16998.00
465.2180, 17149.00
466.4050, 17222.00
467.5920, 17346.00
468.7790, 17282.00
469.9650, 17357.00
471.1520, 17301.00
472.3380, 17537.00
473.5250, 17652.00
474.7110, 17520.00
475.8970, 17460.00
477.0820, 17717.00
478.2680, 17662.00
479.4540, 17676.00
480.6390, 17740.00
481.8240, 17889.00
483.0090, 17901.00
484.1940, 17981.00
485.3780, 17933.00
486.5630, 17683.00
487.7470, 17626.00
488.9320, 17506.00
490.1160, 17583.00
491.3000, 17495.00
492.4830, 17414.00
493.6670, 17511.00
494.8500, 17438.00
496.0340, 17397.00
497.2170, 17461.00
498.4000, 17500.00
499.5820, 17372.00
500.7650, 17589.00
501.9480, 17520.00
503.1300, 17715.00
504.3120, 17731.00
505.4940, 17691.00
506.6760, 17746.00
507.8580, 17887.00
509.0390, 18032.00
510.2210, 18062.00
511.4020, 17930.00
512.5830, 17806.00
513.7640, 17936.00
514.9450, 17995.00
516.1250, 18018.00
517.3060, 17980.00
518.4860, 17981.00
519.6660, 17950.54
520.8460, 17941.00
522.0260, 17881.00
523.2060, 17929.00
524.3850, 17904.00
525.5650, 18190.00
526.7440, 18119.00
527.9230, 18147.00
529.1020, 18222.00
530.2810, 18193.00
531.4590, 18329.00
532.6380, 18328.00
533.8160, 18448.00
534.9940, 18429.00
536.1720, 18483.00
537.3500, 18803.00
538.5270, 19040.00
539.7050, 19435.00
540.8820, 19907.00
542.0590, 20222.00
543.2360, 20776.00
544.4130, 21203.00
545.5900, 21805.00
546.7660, 22148.00
547.9430, 22145.00
549.1190, 21968.00
550.2950, 21653.00
551.4710, 21096.00
552.6470, 20544.00
553.8220, 20361.00
554.9980, 20108.00
556.1730, 19807.00
557.3480, 19750.00
558.5230, 19592.00
559.6980, 19782.00
560.8730, 19896.00
562.0470, 19865.00
563.2220, 19930.00
564.3960, 20234.00
565.5700, 20478.00
566.7440, 20577.00
567.9170, 20916.00
569.0910, 21013.00
570.2640, 20920.00
571.4380, 20849.00
572.6110, 20589.00
573.7840, 20321.00
574.9570, 20282.00
576.1290, 20054.00
577.3020, 19907.00
578.4740, 19834.00
579.6460, 19701.00
580.8180, 19674.00
581.9900, 19701.00
583.1620, 19654.00
584.3330, 19672.00
585.5040, 19527.00
586.6760, 19734.00
587.8470, 19915.00
589.0180, 19762.00
590.1880, 19821.00
591.3590, 19929.00
592.5290, 19991.00
593.7000, 19954.00
594.8700, 20107.00
596.0400, 20007.00
597.2090, 20261.00
598.3790, 20015.00
599.5490, 20133.00
600.7180, 20031.00
601.8870, 20239.00
603.0560, 20108.00
604.2250, 19878.00
605.3940, 19987.00
606.5620, 20002.00
607.7300, 19898.00
608.8990, 20021.00
610.0670, 20071.00
611.2350, 19883.00
612.4020, 19905.00
613.5700, 19973.00
614.7370, 19942.00
615.9050, 19946.41
617.0720, 19992.00
618.2390, 19932.00
619.4060, 19962.05
620.5720, 19875.92
621.7390, 19992.00
622.9050, 20015.00
624.0710, 20084.00
625.2370, 20097.00
626.4030, 20063.00
627.5690, 20116.00
628.7340, 19965.00
629.9000, 19700.00
631.0650, 19892.00
632.2300, 19819.00
633.3950, 20078.00
634.5600, 19969.00
635.7240, 20107.00
636.8890, 20186.00
638.0530, 20481.00
639.2170, 20280.00
640.3810, 20642.00
641.5450, 20605.00
642.7080, 20681.00
643.8720, 20410.00
645.0350, 20867.00
646.1980, 20459.00
647.3610, 20486.00
648.5240, 20569.00
649.6870, 20335.00
650.8490, 20463.00
652.0120, 20406.00
653.1740, 20175.00
654.3360, 20134.00
655.4980, 20087.00
656.6600, 20046.00
657.8210, 20233.00
658.9830, 20212.00
660.1440, 20271.00
661.3050, 20130.00
662.4660, 20160.00
663.6270, 20097.00
664.7870, 20124.14
665.9480, 20284.00
667.1080, 20277.00
668.2680, 20406.00
669.4280, 20605.00
670.5880, 20604.00
671.7480, 20645.00
672.9070, 20663.00
674.0670, 20626.00
675.2260, 20845.00
676.3850, 21023.00
677.5440, 20909.00
678.7030, 21023.00
679.8610, 21197.00
681.0200, 21078.00
682.1780, 21097.00
683.3360, 21210.00
684.4940, 21408.00
685.6520, 21373.00
686.8090, 21467.00
687.9670, 21439.00
689.1240, 21351.00
690.2810, 21725.00
691.4380, 21793.00
692.5950, 21680.00
693.7520, 21740.00
694.9080, 21680.00
696.0650, 22060.00
697.2210, 22080.00
698.3770, 22071.00
699.5330, 22425.00
700.6880, 22501.00
701.8440, 22972.00
702.9990, 22715.00
704.1550, 23070.00
705.3100, 23281.00
706.4650, 23093.00
707.6190, 23028.00
708.7740, 22842.00
709.9290, 22791.00
711.0830, 22640.00
712.2370, 22496.00
713.3910, 22495.00
714.5450, 22382.00
715.6980, 22260.00
716.8520, 21985.00
718.0050, 21998.00
719.1580, 21758.00
720.3110, 21571.00
721.4640, 21405.00
722.6170, 21387.00
723.7700, 21195.00
724.9220, 21286.00
726.0740, 20984.00
727.2260, 20902.00
728.3780, 21116.00
729.5300, 20906.00
730.6810, 21181.00
731.8330, 21128.00
732.9840, 21223.00
734.1350, 21274.00
735.2860, 21346.00
736.4370, 21504.00
737.5880, 21400.00
738.7380, 21460.00
739.8880, 21682.00
741.0390, 21807.00
742.1890, 21970.00
743.3380, 21858.00
744.4880, 22078.00
745.6380, 22239.00
746.7870, 22187.00
747.9360, 22374.00
749.0850, 22248.00
750.2340, 22423.00
751.3830, 22638.00
752.5310, 22494.00
753.6800, 22483.00
754.8280, 22366.00
755.9760, 22336.00
757.1240, 22423.00
758.2720, 22439.00
759.4190, 22470.00
760.5670, 22548.00
761.7140, 22276.00
762.8610, 22330.00
764.0080, 22235.00
765.1550, 22431.00
766.3020, 22304.00
767.4480, 22428.00
768.5950, 22419.00
769.7410, 22429.33
770.8870, 22496.00
772.0330, 22563.00
773.1780, 22500.00
774.3240, 22715.00
775.4690, 22862.00
776.6140, 22609.00
777.7590, 23043.00
778.9040, 23147.00
780.0490, 23497.00
781.1940, 23776.00
782.3380, 23953.00
783.4820, 24182.00
784.6260, 24499.00
785.7700, 25061.00
786.9140, 25373.00
788.0580, 25526.00
789.2010, 25712.00
790.3450, 25749.10
791.4880, 25994.00
792.6310, 25637.00
793.7730, 25506.00
794.9160, 25279.00
796.0590, 24617.00
797.2010, 24503.00
798.3430, 24493.00
799.4850, 24017.00
800.6270, 23945.00
801.7690, 23860.00
802.9100, 23480.00
804.0520, 23472.00
805.1930, 23144.00
806.3340, 23523.00
807.4750, 23225.00
808.6160, 22965.00
809.7560, 23172.00
810.8970, 23003.00
812.0370, 22988.00
813.1770, 23011.00
814.3170, 22910.00
815.4570, 22858.00
816.5960, 22806.00
817.7360, 22776.00
818.8750, 22767.85
820.0140, 22732.00
821.1530, 22787.00
822.2920, 22866.00
823.4310, 22899.00
824.5690, 22858.00
825.7070, 22889.00
826.8460, 22917.00
827.9840, 22849.00
829.1220, 23023.00
830.2590, 23026.00
831.3970, 23039.00
832.5340, 23138.00
833.6710, 22892.00
834.8080, 23213.00
835.9450, 22984.00
837.0820, 23091.00
838.2190, 23065.00
839.3550, 22905.00
840.4910, 23065.00
841.6270, 22983.00
842.7630, 22725.00
843.8990, 23192.00
845.0350, 22913.00
846.1700, 22919.00
847.3060, 23088.00
848.4410, 23015.00
849.5760, 22916.00
850.7100, 23155.00
851.8450, 23047.00
852.9800, 23092.00
854.1140, 23376.00
855.2480, 23211.00
856.3820, 23758.00
857.5160, 23447.00
858.6500, 23750.00
859.7830, 23552.00
860.9170, 23713.00
862.0500, 23696.00
863.1830, 23638.00
864.3160, 23671.00
865.4480, 23785.00
866.5810, 23880.00
867.7130, 23784.00
868.8460, 24080.00
869.9780, 24011.00
871.1100, 24028.00
872.2410, 23853.00
873.3730, 24090.00
874.5050, 24253.00
875.6360, 24080.00
876.7670, 24203.00
877.8980, 24199.00
879.0290, 24128.00
880.1590, 24251.00
881.2900, 24237.00
882.4200, 23890.00
883.5500, 24228.00
884.6800, 24182.00
885.8100, 24455.00
886.9400, 24639.00
888.0690, 24457.00
889.1990, 24583.00
890.3280, 24503.00
891.4570, 24825.00
892.5860, 24916.00
893.7140, 24880.00
894.8430, 25026.00
895.9710, 25472.00
897.1000, 25202.00
898.2280, 25600.00
899.3560, 25646.00
900.4830, 25867.00
901.6110, 26512.00
902.7380, 26740.00
903.8660, 27377.00
904.9930, 28060.00
906.1200, 28731.00
907.2460, 29797.00
908.3730, 31230.00
909.5000, 33433.00
910.6260, 35714.00
911.7520, 38695.00
912.8780, 42299.00
914.0040, 46052.00
915.1290, 49668.00
916.2550, 52151.00
917.3800, 52250.00
918.5050, 50153.00
919.6300, 46701.00
920.7550, 42903.00
921.8800, 39422.00
923.0040, 36841.00
924.1290, 34565.00
925.2530, 33048.47
926.3770, 32210.00
927.5010, 31227.00
928.6250, 30478.00
929.7480, 29835.00
930.8720, 29730.00
931.9950, 29424.00
933.1180, 29160.00
934.2410, 29047.00
935.3640, 29018.39
936.4860, 29123.05
937.6090, 29273.00
938.7310, 29603.00
939.8530, 29993.00
940.9750, 30360.00
942.0970, 30895.00
943.2180, 31878.00
944.3400, 32664.00
945.4610, 33331.00
946.5820, 34050.00
947.7030, 34648.00
948.8240, 34827.00
949.9450, 34508.00
951.0650, 34171.00
952.1860, 33325.00
953.3060, 32281.00
954.4260, 31999.00
955.5460, 31316.00
956.6650, 30322.00
957.7850, 30159.00
958.9040, 29455.00
960.0230, 29294.00
961.1420, 28911.00
962.2610, 29081.00
963.3800, 28835.00
964.4990, 28617.00
965.6170, 28272.00
966.7350, 28606.00
967.8530, 28467.00
968.9710, 28176.00
970.0890, 28327.00
971.2070, 28172.00
972.3240, 28070.00
973.4410, 28023.00
974.5580, 27618.00
975.6750, 27628.00
976.7920, 27216.00
977.9090, 27365.00
979.0250, 27277.00
980.1410, 27124.00
981.2580, 26996.00
982.3740, 26978.00
983.4890, 26844.97
984.6050, 26800.00
985.7200, 26670.00
986.8360, 26654.00
987.9510, 26560.00
989.0660, 26535.00
990.1810, 26527.00
991.2950, 26492.00
992.4100, 26549.00
993.5240, 26520.00
994.6390, 26692.00
995.7530, 26515.00
996.8660, 26662.00
997.9800, 26578.00
999.0940, 26673.00
1000.207, 26764.00
1001.320, 27009.00
1002.433, 26963.00
1003.546, 27168.00
1004.659, 27203.00
1005.772, 27160.00
1006.884, 27354.00
1007.996, 27397.00
1009.108, 27655.00
1010.220, 27905.00
1011.332, 28133.00
1012.444, 28698.00
1013.555, 28709.00
1014.666, 28778.00
1015.777, 29276.00
1016.888, 29021.00
1017.999, 29422.00
1019.110, 29154.00
1020.220, 28976.00
1021.331, 29040.00
1022.441, 29139.00
1023.551, 28864.00
1024.661, 28593.00
1025.770, 28438.00
1026.880, 28320.00
1027.989, 28255.00
1029.098, 28055.00
1030.207, 27912.00
1031.316, 28031.00
1032.425, 28110.00
1033.533, 27814.00
1034.642, 27844.00
1035.750, 28053.00
1036.858, 27895.00
1037.966, 28026.00
1039.073, 27930.00
1040.181, 27945.00
1041.288, 27950.00
1042.396, 27943.77
1043.503, 28026.00
1044.610, 28034.00
1045.716, 28119.00
1046.823, 28258.00
1047.929, 28471.00
1049.036, 28697.00
1050.142, 28543.00
1051.248, 29099.00
1052.353, 29203.00
1053.459, 29654.00
1054.564, 29972.00
1055.670, 30601.00
1056.775, 31035.00
1057.880, 31286.00
1058.985, 31399.00
1060.089, 31414.00
1061.194, 30797.00
1062.298, 30573.00
1063.402, 30272.00
1064.506, 30061.00
1065.610, 29602.00
1066.713, 29286.00
1067.817, 29210.00
1068.920, 29075.00
1070.023, 28865.00
1071.126, 29116.00
1072.229, 29162.00
1073.332, 28973.00
1074.435, 28920.00
1075.537, 28961.00
1076.639, 28958.00
1077.741, 29151.00
1078.843, 28991.00
1079.945, 29318.00
1081.046, 29143.00
1082.148, 29314.00
1083.249, 29293.00
1084.350, 29115.00
1085.451, 29097.00
1086.551, 29279.00
1087.652, 29352.00
1088.752, 29279.00
1089.853, 29415.00
1090.953, 29265.00
1092.053, 29430.00
1093.152, 29473.00
1094.252, 29505.00
1095.351, 29522.00
1096.451, 29471.00
1097.550, 29709.00
1098.649, 29840.00
1099.748, 29760.00
1100.846, 30025.00
1101.945, 29955.00
1103.043, 30165.00
1104.141, 30317.00
1105.239, 30448.00
1106.337, 30484.00
1107.434, 30395.00
1108.532, 30480.00
1109.629, 30174.00
1110.726, 30164.00
1111.823, 30091.00
1112.920, 30034.00
1114.017, 29846.00
1115.113, 29915.00
1116.210, 29681.00
1117.306, 29697.00
1118.402, 29764.00
1119.498, 29971.00
1120.593, 29924.00
1121.689, 29667.00
1122.784, 29861.00
1123.879, 29658.00
1124.974, 29607.00
1126.069, 29749.00
1127.164, 29758.00
1128.259, 29766.00
1129.353, 29703.49
1130.447, 29590.00
1131.541, 29499.00
1132.635, 29410.00
1133.729, 29370.00
1134.822, 29309.00
1135.916, 29330.10
1137.009, 29412.00
1138.102, 29376.00
1139.195, 29425.00
1140.288, 29387.00
1141.380, 29291.00
1142.473, 29453.00
1143.565, 29521.00
1144.657, 29632.00
1145.749, 29387.00
1146.841, 29464.00
1147.932, 29409.00
1149.024, 29762.00
1150.115, 29735.00
1151.206, 29739.00
1152.297, 29602.00
1153.388, 29846.00
1154.479, 29560.00
1155.569, 29824.00
1156.659, 29884.00
1157.750, 29722.00
1158.839, 29793.00
1159.929, 29697.00
1161.019, 29714.00
1162.108, 29605.00
1163.198, 29867.00
1164.287, 29882.00
1165.376, 29726.00
1166.465, 30013.00
1167.553, 29749.00
1168.642, 29927.00
1169.730, 29820.00
1170.818, 30036.00
1171.906, 29899.00
1172.994, 30115.00
1174.082, 30156.00
1175.170, 30144.00
1176.257, 30002.00
1177.344, 30301.00
1178.431, 30048.00
1179.518, 30455.00
1180.605, 30198.00
1181.691, 30211.00
1182.778, 30385.00
1183.864, 30454.00
1184.950, 30333.00
1186.036, 30699.00
1187.122, 30721.00
1188.207, 30401.00
1189.292, 30527.00
1190.378, 30776.00
1191.463, 30660.00
1192.548, 30797.00
1193.632, 30561.00
1194.717, 30694.00
1195.801, 30959.00
1196.886, 30624.00
1197.970, 30647.00
1199.054, 30849.00
1200.137, 30906.00
1201.221, 30844.00
1202.305, 31040.00
1203.388, 30901.00
1204.471, 31181.00
1205.554, 31257.00
1206.637, 31141.00
1207.719, 31447.00
1208.802, 31432.00
1209.884, 31574.00
1210.966, 31731.00
1212.048, 31720.00
1213.130, 31981.00
1214.212, 31935.00
1215.293, 32242.00
1216.374, 32256.00
1217.456, 32519.00
1218.536, 32718.00
1219.617, 32805.00
1220.698, 33162.00
1221.778, 33195.00
1222.859, 33574.00
1223.939, 33795.00
1225.019, 34096.85
1226.099, 34332.28
1227.178, 34835.00
1228.258, 34684.00
1229.337, 35097.00
1230.417, 35124.00
1231.496, 35285.00
1232.574, 35567.00
1233.653, 35708.00
1234.732, 36069.00
1235.810, 36396.00
1236.888, 36273.00
1237.966, 36542.00
1239.044, 36822.00
1240.122, 37094.00
1241.199, 37276.00
1242.277, 37533.85
1243.354, 37668.00
1244.431, 37935.00
1245.508, 38073.00
1246.585, 38183.00
1247.661, 38157.00
1248.738, 37774.00
1249.814, 38638.00
1250.890, 38392.00
1251.966, 37927.00
1253.042, 38259.00
1254.117, 38057.00
1255.193, 37906.00
1256.268, 37984.00
1257.343, 37835.00
1258.418, 37590.00
1259.493, 37898.00
1260.567, 37478.00
1261.642, 36999.00
1262.716, 36999.00
1263.790, 37023.00
1264.864, 36926.00
1265.938, 36809.00
1267.011, 36875.00
1268.085, 36490.00
1269.158, 36122.00
1270.231, 36172.00
1271.304, 36010.00
1272.377, 35671.00
1273.450, 35557.00
1274.522, 35452.00
1275.594, 35462.00
1276.666, 35220.00
1277.738, 35218.00
1278.810, 34907.00
1279.882, 34848.00
1280.953, 34884.00
1282.025, 34659.00
1283.096, 34725.00
1284.167, 34479.00
1285.238, 34519.00
1286.308, 34377.00
1287.379, 34362.00
1288.449, 34221.00
1289.519, 34409.00
1290.589, 34376.00
1291.659, 34202.00
1292.729, 34388.00
1293.798, 34146.00
1294.868, 34196.00
1295.937, 34474.00
1297.006, 34413.00
1298.075, 34357.00
1299.143, 34204.00
1300.212, 34256.00
1301.280, 34233.00
1302.348, 34284.00
