##NAMES=Andalusite
##RRUFFID=R060197
##IDEAL CHEMISTRY=Al_2_SiO_5_
##LOCALITY=Brazil
##OWNER=RRUFF
##SOURCE=Marcus Origlieri
##DESCRIPTION=Green colored water worn pebble
##STATUS=The identification of this mineral has been confirmed by X-ray diffraction and chemical analysis
##URL=rruff.info/R060197
##MEASURED CHEMISTRY=(Al_1.97_Mn^3+^_0.03_)_Î£=2_Si_1.00_O_5_
##PIN_ID=M00466
##ORIENTATION=Laser parallel to a* (1 0 0). Fiducial mark perpendicular to laser is parallel to -b [0 -1 0]
91.01200, 5548.000
92.24600, 5669.557
93.48000, 5974.000
94.71400, 5940.000
95.94800, 6062.000
97.18200, 6004.000
98.41600, 5976.000
99.64900, 6143.000
100.8830, 6329.000
102.1160, 6166.000
103.3490, 6292.000
104.5820, 6423.000
105.8150, 6781.000
107.0470, 7360.000
108.2800, 8170.000
109.5120, 9168.000
110.7440, 8612.000
111.9760, 7352.000
113.2080, 7149.000
114.4400, 7164.000
115.6710, 7445.000
116.9030, 7462.000
118.1340, 7451.000
119.3650, 7211.000
120.5960, 7111.000
121.8270, 7082.000
123.0580, 7403.000
124.2880, 7587.000
125.5190, 7325.000
126.7490, 7328.000
127.9790, 7359.000
129.2090, 7550.000
130.4390, 7716.000
131.6680, 7781.000
132.8980, 7792.000
134.1270, 7835.000
135.3560, 8005.000
136.5850, 8228.000
137.8140, 8453.000
139.0430, 9054.000
140.2710, 9499.000
141.5000, 9805.000
142.7280, 10038.00
143.9560, 9954.000
145.1840, 9738.000
146.4120, 9312.000
147.6390, 9151.000
148.8670, 8821.000
150.0940, 8586.000
151.3210, 8563.000
152.5490, 8566.000
153.7750, 8336.000
155.0020, 8449.000
156.2290, 8372.000
157.4550, 8297.000
158.6810, 8251.000
159.9080, 8219.000
161.1340, 8294.000
162.3590, 8260.000
163.5850, 8451.000
164.8110, 8601.000
166.0360, 8758.000
167.2610, 8861.000
168.4860, 8731.000
169.7110, 8814.000
170.9360, 8814.000
172.1610, 8819.000
173.3850, 8583.000
174.6100, 8630.000
175.8340, 8549.000
177.0580, 8734.000
178.2820, 8547.000
179.5050, 8734.000
180.7290, 8614.000
181.9520, 8680.000
183.1760, 8790.000
184.3990, 8885.000
185.6220, 9067.000
186.8450, 9303.000
188.0670, 9638.000
189.2900, 9807.000
190.5120, 9882.000
191.7340, 10155.00
192.9560, 10128.00
194.1780, 10192.00
195.4000, 10341.00
196.6220, 10271.00
197.8430, 10162.00
199.0640, 10065.00
200.2860, 10222.00
201.5070, 10491.00
202.7270, 10383.00
203.9480, 10096.00
205.1690, 9421.000
206.3890, 8932.000
207.6090, 8575.000
208.8290, 8632.000
210.0490, 8346.000
211.2690, 8679.000
212.4890, 8561.000
213.7080, 8585.000
214.9280, 8677.000
216.1470, 8615.000
217.3660, 8673.000
218.5850, 8604.000
219.8030, 8514.000
221.0220, 8458.000
222.2400, 8466.000
223.4590, 8443.971
224.6770, 8484.021
225.8950, 8503.000
227.1120, 8593.000
228.3300, 8681.000
229.5480, 8739.000
230.7650, 8842.766
231.9820, 8864.000
233.1990, 9020.000
234.4160, 9119.000
235.6330, 9185.000
236.8490, 9404.000
238.0660, 9466.000
239.2820, 9448.000
240.4980, 9624.000
241.7140, 9564.935
242.9300, 9662.000
244.1460, 9463.000
245.3610, 9554.000
246.5770, 9376.000
247.7920, 9386.000
249.0070, 9306.000
250.2220, 9379.000
251.4370, 9504.000
252.6510, 9746.000
253.8660, 9758.000
255.0800, 10074.00
256.2940, 10013.00
257.5080, 10186.00
258.7220, 10733.00
259.9360, 10751.22
261.1490, 10976.92
262.3630, 11082.00
263.5760, 11193.00
264.7890, 11137.00
266.0020, 11205.00
267.2150, 11407.00
268.4270, 11620.00
269.6400, 11958.00
270.8520, 12574.00
272.0640, 13344.00
273.2760, 14254.00
274.4880, 15175.00
275.7000, 15467.00
276.9120, 15883.00
278.1230, 16797.00
279.3340, 18462.00
280.5450, 20277.00
281.7560, 22240.00
282.9670, 24371.00
284.1780, 26922.00
285.3880, 29482.00
286.5980, 32237.00
287.8090, 34141.00
289.0190, 34863.00
290.2290, 34294.00
291.4380, 32151.00
292.6480, 29124.00
293.8570, 25819.00
295.0670, 22806.00
296.2760, 20270.00
297.4850, 18237.00
298.6930, 16866.00
299.9020, 15773.00
301.1110, 14912.00
302.3190, 14464.00
303.5270, 14049.00
304.7350, 13911.00
305.9430, 13770.00
307.1510, 14353.00
308.3580, 14830.00
309.5660, 15847.00
310.7730, 16956.00
311.9800, 18272.00
313.1870, 19647.00
314.3940, 21762.00
315.6010, 23810.00
316.8070, 26188.00
318.0130, 27663.00
319.2200, 27523.00
320.4260, 25718.00
321.6310, 26292.00
322.8370, 21404.00
324.0430, 20033.00
325.2480, 18259.00
326.4540, 17136.00
327.6590, 16151.00
328.8640, 15508.00
330.0680, 15114.00
331.2730, 14858.00
332.4780, 14753.00
333.6820, 14366.00
334.8860, 14523.00
336.0900, 14579.00
337.2940, 14432.00
338.4980, 14572.00
339.7010, 14608.00
340.9050, 14716.00
342.1080, 15119.00
343.3110, 15427.00
344.5140, 15825.00
345.7170, 16414.00
346.9200, 17254.00
348.1220, 18069.00
349.3240, 19329.00
350.5270, 20495.00
351.7290, 21762.00
352.9310, 22806.00
354.1320, 23910.00
355.3340, 24486.00
356.5350, 24731.00
357.7370, 24179.00
358.9380, 23043.00
360.1390, 21428.00
361.3400, 19856.00
362.5400, 18547.00
363.7410, 17239.00
364.9410, 16317.00
366.1410, 15407.00
367.3410, 14853.00
368.5410, 14515.00
369.7410, 14135.00
370.9400, 13687.00
372.1400, 13582.00
373.3390, 13342.00
374.5380, 13079.00
375.7370, 12930.00
376.9360, 12896.00
378.1350, 12802.00
379.3330, 12816.00
380.5310, 12787.00
381.7300, 12905.00
382.9280, 12862.33
384.1260, 12821.00
385.3230, 12859.00
386.5210, 12822.00
387.7180, 12829.00
388.9160, 12950.00
390.1130, 12847.00
391.3100, 12774.00
392.5060, 12679.00
393.7030, 12556.25
394.9000, 12277.00
396.0960, 12329.00
397.2920, 12220.00
398.4880, 12166.00
399.6840, 12241.00
400.8800, 12350.00
402.0750, 12302.00
403.2710, 12348.00
404.4660, 12458.00
405.6610, 12428.00
406.8560, 12597.00
408.0510, 12690.00
409.2450, 12851.00
410.4400, 12825.00
411.6340, 12906.00
412.8280, 13173.00
414.0220, 13516.00
415.2160, 13579.00
416.4100, 13846.00
417.6030, 13784.00
418.7970, 13737.00
419.9900, 13550.00
421.1830, 13316.00
422.3760, 13164.00
423.5690, 12944.00
424.7610, 12820.00
425.9540, 12818.00
427.1460, 12496.00
428.3380, 12617.00
429.5300, 12510.00
430.7220, 12387.00
431.9140, 12472.00
433.1050, 12342.00
434.2970, 12455.00
435.4880, 12469.00
436.6790, 12589.00
437.8700, 12646.00
439.0610, 12793.00
440.2510, 12735.00
441.4420, 13009.00
442.6320, 12986.00
443.8220, 13196.00
445.0120, 13126.00
446.2020, 13365.00
447.3910, 13289.00
448.5810, 13461.00
449.7700, 13499.00
450.9600, 13409.00
452.1490, 13362.00
453.3370, 13219.00
454.5260, 13202.00
455.7150, 13103.00
456.9030, 13151.00
458.0910, 13233.00
459.2800, 13443.00
460.4670, 13557.00
461.6550, 13674.00
462.8430, 13937.00
464.0300, 14146.00
465.2180, 14204.00
466.4050, 14453.00
467.5920, 14587.00
468.7790, 14900.00
469.9650, 15099.00
471.1520, 15268.00
472.3380, 15386.00
473.5250, 15700.00
474.7110, 15821.00
475.8970, 15981.00
477.0820, 15994.00
478.2680, 16247.00
479.4540, 16187.00
480.6390, 15981.00
481.8240, 16239.00
483.0090, 16193.00
484.1940, 15205.00
485.3780, 15054.00
486.5630, 14672.00
487.7470, 14505.00
488.9320, 14211.00
490.1160, 13881.00
491.3000, 13733.00
492.4830, 13547.00
493.6670, 13590.00
494.8500, 13617.00
496.0340, 13562.00
497.2170, 13534.00
498.4000, 13752.00
499.5820, 13733.00
500.7650, 13669.00
501.9480, 14153.00
503.1300, 14713.00
504.3120, 14178.00
505.4940, 14483.00
506.6760, 14534.00
507.8580, 14400.00
509.0390, 14598.00
510.2210, 14472.00
511.4020, 14719.00
512.5830, 14651.00
513.7640, 14593.00
514.9450, 14556.00
516.1250, 14457.52
517.3060, 14350.00
518.4860, 14277.00
519.6660, 14264.00
520.8460, 14190.00
522.0260, 14169.00
523.2060, 14058.00
524.3850, 14141.00
525.5650, 14013.00
526.7440, 14137.00
527.9230, 14096.00
529.1020, 14284.00
530.2810, 14227.00
531.4590, 14273.00
532.6380, 14243.00
533.8160, 14374.00
534.9940, 14311.00
536.1720, 14578.00
537.3500, 14848.00
538.5270, 15091.00
539.7050, 15501.00
540.8820, 16126.00
542.0590, 16631.00
543.2360, 17228.00
544.4130, 17892.00
545.5900, 18350.00
546.7660, 18859.00
547.9430, 19299.00
549.1190, 19056.00
550.2950, 18700.00
551.4710, 18008.00
552.6470, 17310.00
553.8220, 16804.00
554.9980, 16160.00
556.1730, 15805.56
557.3480, 15420.00
558.5230, 15250.00
559.6980, 15130.00
560.8730, 15060.00
562.0470, 15071.00
563.2220, 15170.00
564.3960, 15186.00
565.5700, 15204.00
566.7440, 15338.00
567.9170, 15430.00
569.0910, 15558.00
570.2640, 15518.00
571.4380, 15538.46
572.6110, 15369.00
573.7840, 15423.00
574.9570, 15291.00
576.1290, 15164.00
577.3020, 15211.00
578.4740, 15081.00
579.6460, 15041.00
580.8180, 15033.00
581.9900, 15003.21
583.1620, 15011.00
584.3330, 15064.00
585.5040, 15132.00
586.6760, 15240.00
587.8470, 15382.00
589.0180, 15510.00
590.1880, 15476.00
591.3590, 15466.00
592.5290, 15619.00
593.7000, 15828.00
594.8700, 15735.00
596.0400, 15790.00
597.2090, 15901.00
598.3790, 15885.00
599.5490, 15899.00
600.7180, 15920.00
601.8870, 16010.00
603.0560, 15856.00
604.2250, 15983.00
605.3940, 15950.00
606.5620, 15795.00
607.7300, 15688.00
608.8990, 15717.00
610.0670, 15541.00
611.2350, 15406.00
612.4020, 15330.00
613.5700, 15103.00
614.7370, 15402.00
615.9050, 15273.00
617.0720, 15107.00
618.2390, 15223.00
619.4060, 15016.00
620.5720, 14982.00
621.7390, 14984.00
622.9050, 14839.00
624.0710, 15040.00
625.2370, 14820.00
626.4030, 14676.00
627.5690, 14704.00
628.7340, 14778.00
629.9000, 14657.00
631.0650, 14757.00
632.2300, 14698.00
633.3950, 14701.00
634.5600, 14926.00
635.7240, 14853.00
636.8890, 14983.00
638.0530, 15121.00
639.2170, 15220.00
640.3810, 15243.00
641.5450, 15391.00
642.7080, 15353.00
643.8720, 15436.00
645.0350, 15383.25
646.1980, 15361.00
647.3610, 15212.00
648.5240, 15160.00
649.6870, 15017.00
650.8490, 14879.00
652.0120, 15159.00
653.1740, 15142.00
654.3360, 15037.00
655.4980, 15268.00
656.6600, 15285.00
657.8210, 15555.00
658.9830, 15786.00
660.1440, 16020.00
661.3050, 16155.00
662.4660, 16169.00
663.6270, 16130.00
664.7870, 16011.00
665.9480, 15990.00
667.1080, 15803.00
668.2680, 15688.00
669.4280, 15741.00
670.5880, 16025.00
671.7480, 16098.00
672.9070, 16247.00
674.0670, 16238.00
675.2260, 16393.00
676.3850, 16416.00
677.5440, 16756.00
678.7030, 16639.00
679.8610, 16857.00
681.0200, 16851.00
682.1780, 17119.00
683.3360, 17060.00
684.4940, 17059.00
685.6520, 17003.00
686.8090, 17333.00
687.9670, 17412.00
689.1240, 17373.00
690.2810, 17652.00
691.4380, 17598.00
692.5950, 17569.00
693.7520, 17878.00
694.9080, 17925.00
696.0650, 17950.00
697.2210, 18052.00
698.3770, 18171.00
699.5330, 18122.00
700.6880, 18254.00
701.8440, 18485.00
702.9990, 18738.00
704.1550, 18777.00
705.3100, 18894.00
706.4650, 19001.00
707.6190, 19088.00
708.7740, 19060.00
709.9290, 19128.00
711.0830, 19056.00
712.2370, 18834.00
713.3910, 18667.00
714.5450, 18549.00
715.6980, 18316.00
716.8520, 18028.00
718.0050, 17610.00
719.1580, 17405.00
720.3110, 16985.00
721.4640, 16690.00
722.6170, 16341.00
723.7700, 16150.00
724.9220, 15699.00
726.0740, 15462.00
727.2260, 15427.00
728.3780, 15373.00
729.5300, 15476.00
730.6810, 15439.00
731.8330, 15509.00
732.9840, 15371.00
734.1350, 15589.00
735.2860, 15671.00
736.4370, 16108.00
737.5880, 16023.17
738.7380, 16045.00
739.8880, 16142.00
741.0390, 16144.00
742.1890, 16286.83
743.3380, 16571.00
744.4880, 16502.00
745.6380, 16700.00
746.7870, 16680.00
747.9360, 16929.00
749.0850, 16993.00
750.2340, 16992.00
751.3830, 16866.00
752.5310, 16831.00
753.6800, 16981.00
754.8280, 16927.00
755.9760, 16934.00
757.1240, 16874.00
758.2720, 16982.00
759.4190, 16805.00
760.5670, 16848.00
761.7140, 16855.00
762.8610, 16650.00
764.0080, 16637.00
765.1550, 16693.00
766.3020, 16524.00
767.4480, 16841.00
768.5950, 16754.00
769.7410, 16550.00
770.8870, 16761.00
772.0330, 16913.00
773.1780, 16977.00
774.3240, 17032.00
775.4690, 17197.49
776.6140, 17341.18
777.7590, 17588.00
778.9040, 17751.00
780.0490, 18160.00
781.1940, 18435.00
782.3380, 18880.00
783.4820, 19344.94
784.6260, 19969.00
785.7700, 20374.00
786.9140, 20967.00
788.0580, 21520.00
789.2010, 21790.00
790.3450, 21782.00
791.4880, 21745.00
792.6310, 21550.00
793.7730, 21043.00
794.9160, 20609.00
796.0590, 20074.00
797.2010, 19746.00
798.3430, 19324.39
799.4850, 18766.00
800.6270, 18560.00
801.7690, 18169.00
802.9100, 17708.00
804.0520, 17535.00
805.1930, 17442.00
806.3340, 17153.00
807.4750, 17088.00
808.6160, 16831.00
809.7560, 16793.00
810.8970, 16713.00
812.0370, 16525.00
813.1770, 16477.00
814.3170, 16275.00
815.4570, 16172.00
816.5960, 16044.00
817.7360, 16194.00
818.8750, 16102.00
820.0140, 16149.00
821.1530, 16019.00
822.2920, 16275.00
823.4310, 16134.00
824.5690, 16233.00
825.7070, 16297.00
826.8460, 16275.00
827.9840, 16452.00
829.1220, 16355.00
830.2590, 16166.00
831.3970, 16233.00
832.5340, 16247.00
833.6710, 16337.00
834.8080, 16317.54
835.9450, 16190.00
837.0820, 16304.00
838.2190, 16280.00
839.3550, 16300.00
840.4910, 16056.00
841.6270, 16143.00
842.7630, 16126.00
843.8990, 16093.00
845.0350, 16156.00
846.1700, 16212.00
847.3060, 16162.00
848.4410, 16444.00
849.5760, 16333.00
850.7100, 16366.00
851.8450, 16288.00
852.9800, 16405.00
854.1140, 16477.00
855.2480, 16683.00
856.3820, 16729.00
857.5160, 17045.00
858.6500, 16977.00
859.7830, 17161.00
860.9170, 17411.00
862.0500, 17409.00
863.1830, 17400.00
864.3160, 17605.00
865.4480, 17624.00
866.5810, 17917.00
867.7130, 17981.00
868.8460, 18039.00
869.9780, 18150.00
871.1100, 18188.00
872.2410, 17924.00
873.3730, 18091.00
874.5050, 17970.00
875.6360, 18069.00
876.7670, 17803.00
877.8980, 17935.00
879.0290, 17961.00
880.1590, 18079.00
881.2900, 17862.00
882.4200, 17800.00
883.5500, 17981.00
884.6800, 18116.00
885.8100, 17860.00
886.9400, 18002.00
888.0690, 17968.00
889.1990, 18148.00
890.3280, 18272.37
891.4570, 18354.00
892.5860, 18590.00
893.7140, 18547.00
894.8430, 18662.00
895.9710, 18828.00
897.1000, 19068.00
898.2280, 19487.00
899.3560, 19676.00
900.4830, 20273.00
901.6110, 20681.93
902.7380, 21716.00
903.8660, 21968.00
904.9930, 22596.00
906.1200, 23814.00
907.2460, 25374.00
908.3730, 27720.00
909.5000, 30439.00
910.6260, 33693.00
911.7520, 38261.00
912.8780, 43371.00
914.0040, 48529.00
915.1290, 54178.00
916.2550, 58746.00
917.3800, 60620.00
918.5050, 59385.00
919.6300, 55675.00
920.7550, 50707.00
921.8800, 46132.00
923.0040, 42856.00
924.1290, 40182.00
925.2530, 38110.00
926.3770, 36543.00
927.5010, 34698.00
928.6250, 33182.00
929.7480, 31456.00
930.8720, 29583.00
931.9950, 28091.00
933.1180, 27013.00
934.2410, 25834.00
935.3640, 25003.54
936.4860, 24446.00
937.6090, 23839.00
938.7310, 23739.00
939.8530, 23705.00
940.9750, 23674.00
942.0970, 23845.00
943.2180, 24421.00
944.3400, 24718.00
945.4610, 24792.00
946.5820, 25024.00
947.7030, 25257.00
948.8240, 25211.00
949.9450, 25001.00
951.0650, 24440.00
952.1860, 24001.00
953.3060, 23340.00
954.4260, 22674.00
955.5460, 22178.00
956.6650, 21739.98
957.7850, 21357.00
958.9040, 21139.00
960.0230, 20827.00
961.1420, 20732.57
962.2610, 20690.00
963.3800, 20569.00
964.4990, 20528.00
965.6170, 20603.00
966.7350, 20506.00
967.8530, 20372.00
968.9710, 20250.00
970.0890, 20507.00
971.2070, 20264.00
972.3240, 20357.00
973.4410, 20117.00
974.5580, 20114.00
975.6750, 20024.00
976.7920, 19829.00
977.9090, 19703.00
979.0250, 19529.00
980.1410, 19670.00
981.2580, 19449.00
982.3740, 19578.00
983.4890, 19493.00
984.6050, 19333.00
985.7200, 19340.00
986.8360, 19427.00
987.9510, 19400.00
989.0660, 19488.00
990.1810, 19447.58
991.2950, 19433.92
992.4100, 19391.00
993.5240, 19325.00
994.6390, 19334.00
995.7530, 19203.00
996.8660, 19333.00
997.9800, 19294.00
999.0940, 19491.00
1000.207, 19374.00
1001.320, 19650.00
1002.433, 19877.00
1003.546, 20023.00
1004.659, 19909.00
1005.772, 20403.00
1006.884, 20500.00
1007.996, 21014.00
1009.108, 21183.00
1010.220, 21794.00
1011.332, 22286.00
1012.444, 22914.00
1013.555, 23656.00
1014.666, 23927.00
1015.777, 24276.00
1016.888, 24613.00
1017.999, 24730.00
1019.110, 24571.00
1020.220, 24473.00
1021.331, 24010.00
1022.441, 23664.00
1023.551, 23140.00
1024.661, 22758.00
1025.770, 22405.00
1026.880, 22125.00
1027.989, 21910.00
1029.098, 21580.00
1030.207, 21599.00
1031.316, 21367.00
1032.425, 21191.00
1033.533, 21063.00
1034.642, 21006.00
1035.750, 20891.00
1036.858, 20747.00
1037.966, 20665.00
1039.073, 20712.00
1040.181, 20696.00
1041.288, 20772.00
1042.396, 20748.15
1043.503, 20524.00
1044.610, 20754.00
1045.716, 20731.00
1046.823, 20796.00
1047.929, 21170.00
1049.036, 21265.00
1050.142, 21404.00
1051.248, 21580.00
1052.353, 22049.00
1053.459, 22450.00
1054.564, 23214.00
1055.670, 23751.00
1056.775, 24384.00
1057.880, 25208.00
1058.985, 25808.00
1060.089, 25958.00
1061.194, 25899.00
1062.298, 25464.00
1063.402, 24748.00
1064.506, 23898.00
1065.610, 23516.00
1066.713, 22881.00
1067.817, 22461.00
1068.920, 22497.00
1070.023, 22241.00
1071.126, 22203.00
1072.229, 21974.00
1073.332, 21877.00
1074.435, 21974.00
1075.537, 21794.00
1076.639, 22050.00
1077.741, 21837.00
1078.843, 21834.00
1079.945, 21775.00
1081.046, 22006.00
1082.148, 22024.00
1083.249, 22112.00
1084.350, 22241.00
1085.451, 22221.98
1086.551, 22154.00
1087.652, 22156.00
1088.752, 22159.00
1089.853, 21959.00
1090.953, 22085.00
1092.053, 22285.00
1093.152, 22195.00
1094.252, 22437.00
1095.351, 22409.00
1096.451, 22325.00
1097.550, 22540.00
1098.649, 22603.00
1099.748, 22830.00
1100.846, 22848.00
1101.945, 23185.00
1103.043, 23296.00
1104.141, 23594.00
1105.239, 23780.00
1106.337, 23682.00
1107.434, 23769.00
1108.532, 23825.00
1109.629, 23310.00
1110.726, 23086.00
1111.823, 22730.00
1112.920, 22376.00
1114.017, 22282.00
1115.113, 22331.00
1116.210, 22086.00
1117.306, 21917.00
1118.402, 22220.00
1119.498, 21926.00
1120.593, 22104.00
1121.689, 21865.00
1122.784, 22166.00
1123.879, 22063.00
1124.974, 22080.00
1126.069, 22088.00
1127.164, 22047.00
1128.259, 21600.00
1129.353, 21449.00
1130.447, 21394.00
1131.541, 21126.00
1132.635, 21138.00
1133.729, 21023.00
1134.822, 21139.00
1135.916, 21194.00
1137.009, 20956.00
1138.102, 20994.00
1139.195, 21043.00
1140.288, 21036.00
1141.380, 20988.00
1142.473, 20985.70
1143.565, 21027.00
1144.657, 20945.00
1145.749, 20961.00
1146.841, 21010.00
1147.932, 20938.00
1149.024, 20834.00
1150.115, 21040.00
1151.206, 21000.00
1152.297, 20955.00
1153.388, 21041.00
1154.479, 21008.00
1155.569, 21035.26
1156.659, 21209.00
1157.750, 21050.00
1158.839, 21063.00
1159.929, 21018.00
1161.019, 20871.00
1162.108, 21014.00
1163.198, 21034.00
1164.287, 20981.00
1165.376, 21136.00
1166.465, 21072.00
1167.553, 21097.00
1168.642, 21006.00
1169.730, 21211.00
1170.818, 21211.00
1171.906, 21044.00
1172.994, 21146.00
1174.082, 20982.00
1175.170, 21220.00
1176.257, 21194.00
1177.344, 21311.00
1178.431, 21190.00
1179.518, 21346.00
1180.605, 21308.00
1181.691, 21304.00
1182.778, 21265.00
1183.864, 21440.00
1184.950, 21586.00
1186.036, 21373.00
1187.122, 21344.00
1188.207, 21603.00
1189.292, 21593.00
1190.378, 21661.00
1191.463, 21588.00
1192.548, 21653.00
1193.632, 21497.00
1194.717, 21652.00
1195.801, 21931.00
1196.886, 21887.00
1197.970, 21709.00
1199.054, 22052.00
1200.137, 21718.00
1201.221, 21857.00
1202.305, 22016.00
1203.388, 22003.00
1204.471, 22127.00
1205.554, 22106.00
1206.637, 22092.00
1207.719, 22338.00
1208.802, 22288.00
1209.884, 22298.00
1210.966, 22572.00
1212.048, 22569.00
1213.130, 22428.00
1214.212, 22738.00
1215.293, 22919.00
1216.374, 23164.00
1217.456, 23462.00
1218.536, 23567.00
1219.617, 23826.00
1220.698, 24077.00
1221.778, 24484.00
1222.859, 24870.00
1223.939, 25045.00
1225.019, 25549.00
1226.099, 25838.00
1227.178, 26391.00
1228.258, 26879.00
1229.337, 26946.00
1230.417, 27602.00
1231.496, 27651.00
1232.574, 27790.00
1233.653, 28035.00
1234.732, 27896.00
1235.810, 28491.00
1236.888, 28629.00
1237.966, 29176.00
1239.044, 29225.00
1240.122, 29515.00
1241.199, 29652.00
1242.277, 29718.00
1243.354, 30240.00
1244.431, 30675.00
1245.508, 30615.00
1246.585, 30869.00
1247.661, 30847.00
1248.738, 30783.00
1249.814, 30846.00
1250.890, 30759.12
1251.966, 30610.00
1253.042, 30617.00
1254.117, 30481.00
1255.193, 30342.00
1256.268, 30285.00
1257.343, 30250.00
1258.418, 29835.00
1259.493, 29903.00
1260.567, 29330.00
1261.642, 29436.00
1262.716, 29290.00
1263.790, 29111.00
1264.864, 28734.00
1265.938, 28370.00
1267.011, 28260.00
1268.085, 27796.00
1269.158, 27723.00
1270.231, 27382.00
1271.304, 27263.00
1272.377, 26971.00
1273.450, 26772.00
1274.522, 26469.00
