##NAMES=Andalusite
##RRUFFID=R060212
##IDEAL CHEMISTRY=Al_2_SiO_5_
##LOCALITY=Brazil
##OWNER=RRUFF
##SOURCE=Marcus Origlieri
##DESCRIPTION=Transparent yellow-green water-worn pebble
##STATUS=The identification of this mineral is confirmed by single-crystal X-ray diffraction and chemical analysis.
##URL=rruff.info/R060212
##MEASURED CHEMISTRY=(Al_1.98_Fe^3+^_0.02_)_Î£=2_Si_1.00_O_5_
##PIN_ID=M00061
##ORIENTATION=Laser parallel to -a* (-1 0 0). Fiducial mark perpendicular to laser is parallel to -b [0 -1 0]
99.64900, 10430.45
100.8830, 10486.00
102.1160, 10588.00
103.3490, 10589.00
104.5820, 10660.00
105.8150, 10928.00
107.0470, 11197.00
108.2800, 11287.00
109.5120, 11492.00
110.7440, 11121.00
111.9760, 10875.00
113.2080, 10946.00
114.4400, 11030.00
115.6710, 11182.00
116.9030, 11037.00
118.1340, 11173.00
119.3650, 10979.00
120.5960, 11006.00
121.8270, 11117.00
123.0580, 11121.00
124.2880, 11160.00
125.5190, 11139.00
126.7490, 11279.00
127.9790, 11256.96
129.2090, 11293.00
130.4390, 11229.00
131.6680, 11322.00
132.8980, 11180.00
134.1270, 11179.00
135.3560, 11288.00
136.5850, 11161.00
137.8140, 11486.00
139.0430, 11406.00
140.2710, 11372.00
141.5000, 11380.00
142.7280, 11386.00
143.9560, 11427.00
145.1840, 11359.00
146.4120, 11409.00
147.6390, 11459.00
148.8670, 11569.00
150.0940, 11597.00
151.3210, 11649.00
152.5490, 11589.00
153.7750, 11610.00
155.0020, 11685.00
156.2290, 11728.00
157.4550, 11659.00
158.6810, 11715.00
159.9080, 11771.00
161.1340, 11843.00
162.3590, 11888.00
163.5850, 11781.00
164.8110, 12022.00
166.0360, 11879.00
167.2610, 11996.00
168.4860, 12059.00
169.7110, 12031.00
170.9360, 12053.21
172.1610, 12148.00
173.3850, 11985.00
174.6100, 12020.00
175.8340, 11994.00
177.0580, 11887.00
178.2820, 12043.00
179.5050, 12108.00
180.7290, 12174.00
181.9520, 12149.00
183.1760, 12083.00
184.3990, 12376.00
185.6220, 12429.00
186.8450, 12829.00
188.0670, 13007.00
189.2900, 13148.00
190.5120, 13290.00
191.7340, 13026.00
192.9560, 12962.00
194.1780, 12822.00
195.4000, 12799.00
196.6220, 12729.00
197.8430, 12661.00
199.0640, 12562.00
200.2860, 12737.00
201.5070, 12686.00
202.7270, 12764.00
203.9480, 12496.00
205.1690, 12336.00
206.3890, 12201.00
207.6090, 12171.00
208.8290, 12126.00
210.0490, 12133.00
211.2690, 12065.00
212.4890, 12190.00
213.7080, 12111.00
214.9280, 12239.00
216.1470, 12259.00
217.3660, 12147.00
218.5850, 12357.00
219.8030, 12344.00
221.0220, 12229.00
222.2400, 12233.00
223.4590, 12287.00
224.6770, 12167.00
225.8950, 12411.00
227.1120, 12387.00
228.3300, 12639.00
229.5480, 12768.00
230.7650, 12967.00
231.9820, 13108.00
233.1990, 13444.00
234.4160, 13790.00
235.6330, 14407.00
236.8490, 14746.00
238.0660, 15453.00
239.2820, 15767.00
240.4980, 15740.00
241.7140, 15535.00
242.9300, 15227.00
244.1460, 14722.00
245.3610, 14463.00
246.5770, 14235.00
247.7920, 14063.00
249.0070, 14005.00
250.2220, 13974.00
251.4370, 13804.00
252.6510, 13975.00
253.8660, 13885.00
255.0800, 13961.00
256.2940, 13961.00
257.5080, 14090.00
258.7220, 14337.00
259.9360, 14394.00
261.1490, 14281.00
262.3630, 14249.00
263.5760, 14505.00
264.7890, 14504.00
266.0020, 14662.00
267.2150, 14947.00
268.4270, 15231.00
269.6400, 15516.00
270.8520, 15772.00
272.0640, 16247.00
273.2760, 16640.00
274.4880, 17440.00
275.7000, 17969.00
276.9120, 18835.00
278.1230, 20332.81
279.3340, 22229.38
280.5450, 24084.00
281.7560, 26458.00
282.9670, 29339.85
284.1780, 34185.00
285.3880, 36599.00
286.5980, 41425.00
287.8090, 45974.00
289.0190, 49652.00
290.2290, 51466.00
291.4380, 50061.00
292.6480, 45585.00
293.8570, 39326.00
295.0670, 33451.00
296.2760, 28432.00
297.4850, 24672.00
298.6930, 21532.00
299.9020, 19576.00
301.1110, 18263.00
302.3190, 17251.00
303.5270, 16665.00
304.7350, 16021.00
305.9430, 16029.00
307.1510, 16072.00
308.3580, 16103.00
309.5660, 16979.00
310.7730, 17844.00
311.9800, 19005.00
313.1870, 20379.00
314.3940, 21668.00
315.6010, 23992.00
316.8070, 26549.00
318.0130, 29022.00
319.2200, 30254.00
320.4260, 29860.00
321.6310, 27748.00
322.8370, 25191.00
324.0430, 22658.00
325.2480, 20538.00
326.4540, 18978.00
327.6590, 17873.00
328.8640, 17222.00
330.0680, 16763.00
331.2730, 16407.00
332.4780, 16007.00
333.6820, 16095.00
334.8860, 15927.00
336.0900, 15845.00
337.2940, 15968.00
338.4980, 15975.00
339.7010, 15957.00
340.9050, 16406.00
342.1080, 16497.00
343.3110, 16971.00
344.5140, 17566.00
345.7170, 18683.00
346.9200, 19745.00
348.1220, 21298.00
349.3240, 23274.00
350.5270, 25575.00
351.7290, 28257.00
352.9310, 30930.00
354.1320, 34069.00
355.3340, 37021.00
356.5350, 38513.00
357.7370, 38432.00
358.9380, 36655.00
360.1390, 33930.00
361.3400, 30521.00
362.5400, 27484.00
363.7410, 24672.00
364.9410, 22720.00
366.1410, 20897.00
367.3410, 19604.00
368.5410, 18636.00
369.7410, 17757.00
370.9400, 17300.00
372.1400, 16760.00
373.3390, 16380.00
374.5380, 16038.00
375.7370, 16050.00
376.9360, 15839.00
378.1350, 15760.00
379.3330, 15676.00
380.5310, 15598.00
381.7300, 15575.98
382.9280, 15620.00
384.1260, 15527.00
385.3230, 15526.00
386.5210, 15456.00
387.7180, 15595.00
388.9160, 15627.00
390.1130, 15765.00
391.3100, 15838.00
392.5060, 15543.00
393.7030, 15370.00
394.9000, 15213.00
396.0960, 15100.00
397.2920, 15000.00
398.4880, 14866.00
399.6840, 14829.00
400.8800, 14925.00
402.0750, 14858.00
403.2710, 14939.00
404.4660, 14915.00
405.6610, 14921.00
406.8560, 14881.00
408.0510, 14838.00
409.2450, 15012.00
410.4400, 14861.00
411.6340, 14749.00
412.8280, 14808.00
414.0220, 14944.00
415.2160, 14900.00
416.4100, 15010.00
417.6030, 14877.00
418.7970, 14922.00
419.9900, 14861.00
421.1830, 14784.00
422.3760, 14788.00
423.5690, 14820.00
424.7610, 14746.00
425.9540, 14761.34
427.1460, 14749.00
428.3380, 14765.00
429.5300, 14808.00
430.7220, 14894.00
431.9140, 14754.00
433.1050, 14827.00
434.2970, 14762.00
435.4880, 14911.00
436.6790, 14832.00
437.8700, 14865.00
439.0610, 15082.00
440.2510, 15017.00
441.4420, 15038.00
442.6320, 15253.00
443.8220, 15500.00
445.0120, 15750.00
446.2020, 15823.00
447.3910, 16025.00
448.5810, 16413.00
449.7700, 16889.00
450.9600, 16919.00
452.1490, 16695.00
453.3370, 16147.00
454.5260, 15976.00
455.7150, 15703.00
456.9030, 15402.00
458.0910, 15442.00
459.2800, 15348.00
460.4670, 15280.00
461.6550, 15383.00
462.8430, 15599.00
464.0300, 15400.00
465.2180, 15429.00
466.4050, 15581.00
467.5920, 15451.00
468.7790, 15413.00
469.9650, 15661.00
471.1520, 15653.00
472.3380, 15869.00
473.5250, 15751.00
474.7110, 15911.00
475.8970, 15979.00
477.0820, 16013.00
478.2680, 16202.00
479.4540, 16390.00
480.6390, 16205.00
481.8240, 16431.00
483.0090, 16502.00
484.1940, 16369.00
485.3780, 16297.00
486.5630, 16024.00
487.7470, 15969.00
488.9320, 15839.00
490.1160, 15814.00
491.3000, 16030.00
492.4830, 15720.00
493.6670, 15824.00
494.8500, 15650.00
496.0340, 15703.00
497.2170, 15662.00
498.4000, 15846.00
499.5820, 15718.00
500.7650, 15844.00
501.9480, 15794.00
503.1300, 15871.00
504.3120, 15750.00
505.4940, 15880.00
506.6760, 15977.00
507.8580, 16080.00
509.0390, 15973.00
510.2210, 16155.00
511.4020, 16140.00
512.5830, 15922.00
513.7640, 16260.00
514.9450, 16113.00
516.1250, 16327.00
517.3060, 16095.00
518.4860, 16130.00
519.6660, 16171.00
520.8460, 16074.00
522.0260, 16126.00
523.2060, 16197.00
524.3850, 16327.00
525.5650, 16269.00
526.7440, 16129.00
527.9230, 16383.00
529.1020, 16449.00
530.2810, 16205.00
531.4590, 16315.00
532.6380, 16373.00
533.8160, 16516.00
534.9940, 16535.00
536.1720, 16527.00
537.3500, 16719.00
538.5270, 16813.00
539.7050, 16986.00
540.8820, 17253.00
542.0590, 17597.00
543.2360, 17946.00
544.4130, 18374.00
545.5900, 18835.00
546.7660, 19109.00
547.9430, 19558.00
549.1190, 19795.00
550.2950, 19802.00
551.4710, 19700.00
552.6470, 19347.00
553.8220, 19062.00
554.9980, 18623.00
556.1730, 18403.00
557.3480, 17903.00
558.5230, 17676.00
559.6980, 17791.00
560.8730, 17847.00
562.0470, 17607.00
563.2220, 17747.00
564.3960, 17831.00
565.5700, 17975.00
566.7440, 18197.00
567.9170, 18349.00
569.0910, 18525.00
570.2640, 18789.00
571.4380, 18768.00
572.6110, 18873.00
573.7840, 18373.00
574.9570, 18343.00
576.1290, 17999.00
577.3020, 17666.00
578.4740, 17676.00
579.6460, 17618.00
580.8180, 17524.00
581.9900, 17475.00
583.1620, 17315.00
584.3330, 17188.00
585.5040, 17578.00
586.6760, 17459.00
587.8470, 17414.00
589.0180, 17446.00
590.1880, 17413.00
591.3590, 17432.77
592.5290, 17397.00
593.7000, 17466.00
594.8700, 17548.00
596.0400, 17556.00
597.2090, 17614.75
598.3790, 17614.68
599.5490, 17696.00
600.7180, 17583.00
601.8870, 17645.00
603.0560, 17597.00
604.2250, 17578.00
605.3940, 17661.00
606.5620, 17680.00
607.7300, 17702.00
608.8990, 17643.00
610.0670, 17695.00
611.2350, 17573.00
612.4020, 17492.00
613.5700, 17594.12
614.7370, 17683.00
615.9050, 17834.00
617.0720, 17944.00
618.2390, 18204.00
619.4060, 18149.00
620.5720, 18122.00
621.7390, 18370.00
622.9050, 18471.00
624.0710, 18583.00
625.2370, 18866.00
626.4030, 18979.00
627.5690, 19032.00
628.7340, 18642.00
629.9000, 18494.00
631.0650, 18508.00
632.2300, 18238.00
633.3950, 18169.00
634.5600, 18252.00
635.7240, 18213.00
636.8890, 18224.00
638.0530, 18173.00
639.2170, 18330.00
640.3810, 18396.00
641.5450, 18572.00
642.7080, 18573.00
643.8720, 18763.00
645.0350, 18872.00
646.1980, 18735.00
647.3610, 18528.00
648.5240, 18553.00
649.6870, 18576.00
650.8490, 18394.00
652.0120, 18546.00
653.1740, 18197.00
654.3360, 18341.00
655.4980, 18276.00
656.6600, 18258.00
657.8210, 18269.00
658.9830, 18172.00
660.1440, 18190.00
661.3050, 18207.00
662.4660, 18194.00
663.6270, 18022.00
664.7870, 18024.00
665.9480, 18120.00
667.1080, 18242.00
668.2680, 18065.00
669.4280, 18107.00
670.5880, 18199.00
671.7480, 18216.00
672.9070, 18341.00
674.0670, 18211.00
675.2260, 18308.00
676.3850, 18508.00
677.5440, 18360.00
678.7030, 18553.00
679.8610, 18291.00
681.0200, 18599.00
682.1780, 18377.00
683.3360, 18384.00
684.4940, 18596.00
685.6520, 18576.00
686.8090, 18483.00
687.9670, 18602.00
689.1240, 18518.00
690.2810, 18627.00
691.4380, 18674.00
692.5950, 18656.00
693.7520, 18588.00
694.9080, 18785.00
696.0650, 18615.00
697.2210, 18801.00
698.3770, 18740.00
699.5330, 18810.00
700.6880, 18812.00
701.8440, 18962.00
702.9990, 18948.00
704.1550, 19018.00
705.3100, 19042.00
706.4650, 19084.00
707.6190, 19039.00
708.7740, 19158.00
709.9290, 19375.00
711.0830, 19345.00
712.2370, 19410.00
713.3910, 19692.00
714.5450, 19558.00
715.6980, 19630.00
716.8520, 19644.00
718.0050, 19621.00
719.1580, 19642.00
720.3110, 19513.00
721.4640, 19485.21
722.6170, 19396.00
723.7700, 19349.00
724.9220, 19303.56
726.0740, 19239.58
727.2260, 19241.00
728.3780, 19156.00
729.5300, 19179.00
730.6810, 19185.00
731.8330, 19305.00
732.9840, 19268.00
734.1350, 19311.00
735.2860, 19318.00
736.4370, 19416.00
737.5880, 19327.00
738.7380, 19442.00
739.8880, 19418.00
741.0390, 19382.00
742.1890, 19529.00
743.3380, 19507.00
744.4880, 19439.00
745.6380, 19544.00
746.7870, 19406.00
747.9360, 19651.00
749.0850, 19416.00
750.2340, 19723.00
751.3830, 19503.00
752.5310, 19581.00
753.6800, 19693.00
754.8280, 19593.00
755.9760, 19668.00
757.1240, 19398.00
758.2720, 19664.00
759.4190, 19608.00
760.5670, 19421.00
761.7140, 19740.00
762.8610, 19628.00
764.0080, 19663.00
765.1550, 20063.00
766.3020, 19798.00
767.4480, 19783.00
768.5950, 19975.00
769.7410, 19769.00
770.8870, 19706.00
772.0330, 19907.00
773.1780, 20020.00
774.3240, 19892.00
775.4690, 19972.00
776.6140, 19833.00
777.7590, 20033.00
778.9040, 20163.00
780.0490, 20218.00
781.1940, 20141.00
782.3380, 20284.00
783.4820, 20031.00
784.6260, 20292.00
785.7700, 20427.00
786.9140, 20383.00
788.0580, 20287.00
789.2010, 20617.00
790.3450, 20418.00
791.4880, 20623.00
792.6310, 20785.00
793.7730, 20701.00
794.9160, 20767.00
796.0590, 20725.00
797.2010, 20667.00
798.3430, 21025.00
799.4850, 20853.00
800.6270, 21161.00
801.7690, 21049.00
802.9100, 21158.00
804.0520, 21178.00
805.1930, 21199.00
806.3340, 21247.48
807.4750, 21218.19
808.6160, 21178.00
809.7560, 21203.00
810.8970, 20922.00
812.0370, 20968.00
813.1770, 21098.00
814.3170, 20790.00
815.4570, 20962.00
816.5960, 21115.00
817.7360, 21267.00
818.8750, 20887.00
820.0140, 21062.00
821.1530, 20903.00
822.2920, 21118.00
823.4310, 21203.00
824.5690, 21143.00
825.7070, 21269.53
826.8460, 21323.00
827.9840, 21340.00
829.1220, 21338.00
830.2590, 21372.00
831.3970, 21609.00
832.5340, 21483.00
833.6710, 21599.00
834.8080, 21507.00
835.9450, 21489.00
837.0820, 21597.00
838.2190, 21418.00
839.3550, 21478.00
840.4910, 21556.00
841.6270, 21414.00
842.7630, 21462.00
843.8990, 21685.00
845.0350, 21592.00
846.1700, 21676.00
847.3060, 21638.00
848.4410, 21507.00
849.5760, 21734.00
850.7100, 21754.00
851.8450, 21858.00
852.9800, 21851.00
854.1140, 21897.71
855.2480, 21980.53
856.3820, 21977.00
857.5160, 22105.00
858.6500, 22210.00
859.7830, 22211.00
860.9170, 22395.00
862.0500, 22278.00
863.1830, 22334.00
864.3160, 22265.00
865.4480, 22281.00
866.5810, 22486.00
867.7130, 22340.00
868.8460, 22397.00
869.9780, 22460.00
871.1100, 22400.00
872.2410, 22406.00
873.3730, 22492.00
874.5050, 22489.00
875.6360, 22239.00
876.7670, 22577.00
877.8980, 22455.00
879.0290, 22732.00
880.1590, 22743.00
881.2900, 22815.00
882.4200, 22748.00
883.5500, 22709.00
884.6800, 23033.00
885.8100, 22927.00
886.9400, 23118.00
888.0690, 23035.00
889.1990, 23040.00
890.3280, 23384.00
891.4570, 23334.00
892.5860, 23484.00
893.7140, 23551.00
894.8430, 23636.00
895.9710, 23817.16
897.1000, 24160.00
898.2280, 24264.00
899.3560, 24493.00
900.4830, 24930.00
901.6110, 25129.00
902.7380, 25415.00
903.8660, 25792.00
904.9930, 26309.00
906.1200, 27264.00
907.2460, 28144.00
908.3730, 29479.00
909.5000, 31114.00
910.6260, 33579.00
911.7520, 36633.00
912.8780, 40438.00
914.0040, 44511.00
915.1290, 49217.00
916.2550, 53235.00
917.3800, 56302.00
918.5050, 56277.00
919.6300, 53363.00
920.7550, 48635.00
921.8800, 43446.00
923.0040, 39086.00
924.1290, 35797.00
925.2530, 33631.00
926.3770, 31639.00
927.5010, 30638.00
928.6250, 29647.00
929.7480, 29095.00
930.8720, 28706.00
931.9950, 28689.00
933.1180, 28357.00
934.2410, 28588.00
935.3640, 28770.00
936.4860, 29276.00
937.6090, 29597.00
938.7310, 30322.00
939.8530, 30935.00
940.9750, 32006.00
942.0970, 33454.00
943.2180, 35271.00
944.3400, 37625.00
945.4610, 40055.00
946.5820, 42406.00
947.7030, 45142.00
948.8240, 47188.00
949.9450, 47184.00
951.0650, 46199.00
952.1860, 43638.00
953.3060, 40617.00
954.4260, 38138.00
955.5460, 35200.00
956.6650, 32994.00
957.7850, 31081.00
958.9040, 29917.00
960.0230, 28907.00
961.1420, 28167.00
962.2610, 27631.00
963.3800, 27237.00
964.4990, 26698.00
965.6170, 26381.00
966.7350, 26178.00
967.8530, 25940.00
968.9710, 25632.00
970.0890, 25531.22
971.2070, 25381.00
972.3240, 25333.00
973.4410, 25206.00
974.5580, 25200.00
975.6750, 25082.00
976.7920, 25112.00
977.9090, 25049.00
979.0250, 25096.00
980.1410, 24902.00
981.2580, 24895.00
982.3740, 24996.00
983.4890, 24883.00
984.6050, 25050.00
985.7200, 25003.00
986.8360, 25153.00
987.9510, 25137.00
989.0660, 24978.00
990.1810, 25043.00
991.2950, 25030.00
992.4100, 25205.00
993.5240, 24939.00
994.6390, 25220.00
995.7530, 25114.00
996.8660, 25307.00
997.9800, 25272.00
999.0940, 25298.00
1000.207, 25602.00
1001.320, 25840.00
1002.433, 25612.00
1003.546, 25903.00
1004.659, 25612.00
1005.772, 25656.00
1006.884, 25681.00
1007.996, 25732.00
1009.108, 25947.00
1010.220, 26023.00
1011.332, 26187.00
1012.444, 26683.00
1013.555, 26923.00
1014.666, 27033.00
1015.777, 27614.00
1016.888, 27511.00
1017.999, 27993.00
1019.110, 27765.00
1020.220, 27791.00
1021.331, 27772.00
1022.441, 27714.00
1023.551, 27255.00
1024.661, 27018.00
1025.770, 26760.00
1026.880, 26593.00
1027.989, 26647.00
1029.098, 26789.00
1030.207, 26397.00
1031.316, 26473.00
1032.425, 26187.00
1033.533, 26369.00
1034.642, 26210.00
1035.750, 26367.00
1036.858, 26287.00
1037.966, 26473.00
1039.073, 26297.00
1040.181, 26406.00
1041.288, 26400.00
1042.396, 26598.00
1043.503, 26646.00
1044.610, 26358.00
1045.716, 26457.00
1046.823, 26677.00
1047.929, 26583.00
1049.036, 26919.00
1050.142, 26974.00
1051.248, 27102.00
1052.353, 27382.00
1053.459, 27448.00
1054.564, 27791.00
1055.670, 28168.00
1056.775, 28538.00
1057.880, 29014.00
1058.985, 29763.00
1060.089, 30593.00
1061.194, 31498.00
1062.298, 32102.00
1063.402, 32661.00
1064.506, 32493.00
1065.610, 31767.00
1066.713, 30786.00
1067.817, 30013.00
1068.920, 29459.00
1070.023, 28842.00
1071.126, 28334.00
1072.229, 28283.00
1073.332, 28061.00
1074.435, 27704.00
1075.537, 27765.00
1076.639, 27589.00
1077.741, 27269.00
1078.843, 27555.00
1079.945, 27726.00
1081.046, 27504.00
1082.148, 27640.00
1083.249, 27458.00
1084.350, 27777.00
1085.451, 27425.00
1086.551, 27520.00
1087.652, 27653.00
1088.752, 27581.00
1089.853, 27505.00
1090.953, 27406.00
1092.053, 27487.00
1093.152, 27516.00
1094.252, 27501.00
1095.351, 27616.00
1096.451, 27624.00
1097.550, 27865.00
1098.649, 27688.00
1099.748, 27839.00
1100.846, 28024.00
1101.945, 27989.00
1103.043, 28220.95
1104.141, 28029.00
1105.239, 28512.00
1106.337, 28644.00
1107.434, 28691.00
1108.532, 28536.00
1109.629, 28595.18
1110.726, 28625.00
1111.823, 28486.00
1112.920, 28539.00
1114.017, 28440.00
1115.113, 28294.00
1116.210, 28419.00
1117.306, 28370.00
1118.402, 28388.00
1119.498, 28578.00
1120.593, 28392.00
1121.689, 28482.00
1122.784, 28448.00
1123.879, 28440.00
1124.974, 28522.00
1126.069, 28600.00
1127.164, 28599.00
1128.259, 28450.00
1129.353, 28795.00
1130.447, 28284.00
1131.541, 28375.00
1132.635, 28281.00
1133.729, 28517.00
1134.822, 28332.00
1135.916, 28437.00
1137.009, 28376.00
1138.102, 28418.00
1139.195, 28660.00
1140.288, 28675.00
1141.380, 28745.10
1142.473, 28632.00
1143.565, 28733.00
1144.657, 28797.00
1145.749, 28635.00
1146.841, 28596.00
1147.932, 28738.00
1149.024, 29027.00
1150.115, 28985.00
1151.206, 28972.00
1152.297, 28533.00
1153.388, 29276.00
1154.479, 28753.00
1155.569, 29057.00
1156.659, 28787.00
1157.750, 28851.00
1158.839, 29132.00
1159.929, 29074.00
1161.019, 29143.42
1162.108, 28991.00
1163.198, 29118.00
1164.287, 29230.00
1165.376, 29218.00
1166.465, 29126.00
1167.553, 29267.00
1168.642, 29107.00
1169.730, 29394.00
1170.818, 29073.00
1171.906, 29465.00
1172.994, 29397.00
1174.082, 29511.00
1175.170, 29297.00
1176.257, 29209.00
1177.344, 29625.00
1178.431, 29376.00
1179.518, 29359.00
1180.605, 29450.00
1181.691, 29478.00
1182.778, 29513.19
1183.864, 29708.00
1184.950, 29568.00
1186.036, 29716.00
1187.122, 29695.00
1188.207, 29699.00
1189.292, 29990.00
1190.378, 29752.00
1191.463, 29748.00
1192.548, 29792.00
1193.632, 29984.00
1194.717, 29990.21
1195.801, 30080.78
1196.886, 30095.00
1197.970, 30125.00
1199.054, 30089.00
1200.137, 29948.00
1201.221, 30362.00
1202.305, 30318.00
1203.388, 30129.00
1204.471, 30362.00
1205.554, 30311.00
1206.637, 30495.00
1207.719, 30174.00
1208.802, 30192.00
1209.884, 30401.00
1210.966, 30254.00
1212.048, 30486.00
1213.130, 30513.00
1214.212, 30387.00
1215.293, 30700.00
1216.374, 30578.00
1217.456, 30429.00
1218.536, 30700.00
1219.617, 30955.00
1220.698, 31035.00
1221.778, 30683.00
1222.859, 30879.00
1223.939, 30768.00
1225.019, 31008.00
1226.099, 31207.00
1227.178, 31254.00
1228.258, 31112.00
1229.337, 31816.00
1230.417, 32079.00
1231.496, 31938.00
1232.574, 31353.00
1233.653, 31489.00
1234.732, 31523.00
1235.810, 31584.00
1236.888, 31662.00
1237.966, 31649.00
1239.044, 31844.00
1240.122, 31598.00
1241.199, 31797.00
1242.277, 31906.00
1243.354, 31835.00
1244.431, 32080.00
1245.508, 32058.00
1246.585, 32093.00
1247.661, 32147.00
1248.738, 32184.00
1249.814, 32060.00
1250.890, 32137.00
1251.966, 32300.00
1253.042, 32082.00
1254.117, 32322.00
1255.193, 32100.00
1256.268, 32258.00
1257.343, 32317.00
1258.418, 32042.00
1259.493, 32411.00
1260.567, 32324.00
1261.642, 32325.00
1262.716, 32540.00
1263.790, 32455.00
1264.864, 32757.00
1265.938, 32344.00
1267.011, 32570.00
1268.085, 32641.00
1269.158, 32488.00
1270.231, 32669.00
1271.304, 32677.00
1272.377, 32528.00
1273.450, 32808.00
1274.522, 32696.00
1275.594, 32952.00
1276.666, 32764.00
1277.738, 32648.00
1278.810, 32865.00
1279.882, 32808.00
1280.953, 32767.00
