##NAMES=Andalusite
##RRUFFID=R050449
##IDEAL CHEMISTRY=Al_2_SiO_5_
##LOCALITY=Itinga, Minas Gerais, Brazil
##OWNER=RRUFF
##SOURCE=Marcus Origlieri
##DESCRIPTION=Green fragment
##STATUS=The identification of this mineral has been confirmed by X-ray diffraction and chemical analysis
##URL=rruff.info/R050449
##MEASURED CHEMISTRY=Al_2.00_Fe^3+^_0.01_Si_0.99_O_5_
##PIN_ID=L00614
##ORIENTATION=Laser parallel to a* (1 0 0). Fiducial mark perpendicular to laser is parallel to b [0 1 0]
121.8270, 5259.000
123.0580, 5197.841
124.2880, 5210.488
125.5190, 5331.000
126.7490, 5319.000
127.9790, 5482.000
129.2090, 5784.000
130.4390, 5811.000
131.6680, 5895.000
132.8980, 5911.000
134.1270, 5981.000
135.3560, 6119.000
136.5850, 6176.000
137.8140, 6292.000
139.0430, 6283.911
140.2710, 6264.601
141.5000, 6271.000
142.7280, 6108.000
143.9560, 6154.000
145.1840, 6018.000
146.4120, 5966.000
147.6390, 5955.000
148.8670, 5823.000
150.0940, 5760.000
151.3210, 5891.000
152.5490, 6026.000
153.7750, 5989.000
155.0020, 5810.000
156.2290, 5801.000
157.4550, 5715.000
158.6810, 5694.000
159.9080, 5728.000
161.1340, 5846.000
162.3590, 5858.000
163.5850, 6051.000
164.8110, 6140.000
166.0360, 6332.000
167.2610, 6377.000
168.4860, 6406.000
169.7110, 6468.000
170.9360, 6494.000
172.1610, 6492.000
173.3850, 6540.000
174.6100, 6612.000
175.8340, 6504.000
177.0580, 6593.000
178.2820, 6647.000
179.5050, 6828.000
180.7290, 7004.000
181.9520, 7218.000
183.1760, 7379.000
184.3990, 7605.211
185.6220, 7818.046
186.8450, 8056.000
188.0670, 8253.000
189.2900, 8496.000
190.5120, 8679.000
191.7340, 8776.000
192.9560, 8779.000
194.1780, 8886.000
195.4000, 9000.000
196.6220, 8998.000
197.8430, 8841.000
199.0640, 8782.000
200.2860, 8891.000
201.5070, 9035.000
202.7270, 9076.000
203.9480, 8757.000
205.1690, 7984.000
206.3890, 7555.000
207.6090, 7391.000
208.8290, 7325.000
210.0490, 7294.000
211.2690, 7197.000
212.4890, 7332.000
213.7080, 7340.000
214.9280, 7406.000
216.1470, 7377.000
217.3660, 7366.000
218.5850, 7468.000
219.8030, 7505.000
221.0220, 7448.000
222.2400, 7611.000
223.4590, 7588.000
224.6770, 7625.000
225.8950, 7564.000
227.1120, 7679.000
228.3300, 7673.000
229.5480, 7695.000
230.7650, 7643.000
231.9820, 7740.000
233.1990, 7813.000
234.4160, 7940.000
235.6330, 8068.186
236.8490, 8279.000
238.0660, 8355.000
239.2820, 8581.000
240.4980, 8715.000
241.7140, 8706.000
242.9300, 8744.000
244.1460, 8774.000
245.3610, 8576.000
246.5770, 8308.000
247.7920, 8344.000
249.0070, 8212.000
250.2220, 8052.000
251.4370, 7933.000
252.6510, 7775.000
253.8660, 7805.000
255.0800, 7686.000
256.2940, 7748.000
257.5080, 7804.000
258.7220, 8112.000
259.9360, 7982.043
261.1490, 8462.000
262.3630, 7915.000
263.5760, 7871.000
264.7890, 7962.000
266.0020, 8045.000
267.2150, 8144.000
268.4270, 8217.000
269.6400, 8402.000
270.8520, 8409.000
272.0640, 8649.000
273.2760, 8679.000
274.4880, 9062.000
275.7000, 9422.000
276.9120, 9926.000
278.1230, 10389.00
279.3340, 11445.00
280.5450, 12602.00
281.7560, 14186.00
282.9670, 16177.00
284.1780, 17804.00
285.3880, 19084.00
286.5980, 20620.00
287.8090, 21917.00
289.0190, 23220.00
290.2290, 23914.00
291.4380, 23966.00
292.6480, 23205.00
293.8570, 22277.00
295.0670, 20448.00
296.2760, 18262.00
297.4850, 15489.00
298.6930, 13340.00
299.9020, 11582.00
301.1110, 10547.00
302.3190, 9808.000
303.5270, 9152.000
304.7350, 8783.000
305.9430, 8863.000
307.1510, 9013.000
308.3580, 9767.412
309.5660, 10609.00
310.7730, 12083.00
311.9800, 13906.00
313.1870, 15742.00
314.3940, 17090.00
315.6010, 18469.00
316.8070, 19867.00
318.0130, 20819.00
319.2200, 21150.00
320.4260, 20411.00
321.6310, 19670.00
322.8370, 18438.00
324.0430, 17035.00
325.2480, 15158.00
326.4540, 13395.00
327.6590, 11980.00
328.8640, 10950.00
330.0680, 10139.00
331.2730, 9906.000
332.4780, 9602.000
333.6820, 9521.000
334.8860, 9306.000
336.0900, 9431.000
337.2940, 9475.000
338.4980, 9702.000
339.7010, 9783.000
340.9050, 9952.000
342.1080, 10101.00
343.3110, 10526.00
344.5140, 11234.00
345.7170, 12009.00
346.9200, 12976.00
348.1220, 14410.00
349.3240, 15861.00
350.5270, 17611.00
351.7290, 19246.00
352.9310, 20727.00
354.1320, 22411.00
355.3340, 23720.00
356.5350, 24255.00
357.7370, 24715.00
358.9380, 24483.00
360.1390, 23837.00
361.3400, 22574.00
362.5400, 21277.00
363.7410, 19605.00
364.9410, 18230.00
366.1410, 16838.00
367.3410, 15682.00
368.5410, 14785.00
369.7410, 14196.00
370.9400, 13732.00
372.1400, 13502.00
373.3390, 13063.00
374.5380, 12854.00
375.7370, 12685.00
376.9360, 12544.00
378.1350, 12416.00
379.3330, 12376.00
380.5310, 12609.00
381.7300, 12574.00
382.9280, 12878.00
384.1260, 13032.00
385.3230, 13186.00
386.5210, 13388.00
387.7180, 13534.00
388.9160, 13656.00
390.1130, 13682.00
391.3100, 13665.00
392.5060, 13521.00
393.7030, 13326.00
394.9000, 13151.00
396.0960, 13055.00
397.2920, 12901.57
398.4880, 12777.73
399.6840, 12666.00
400.8800, 12594.00
402.0750, 12467.00
403.2710, 12505.00
404.4660, 12517.00
405.6610, 12434.00
406.8560, 12545.00
408.0510, 12638.00
409.2450, 12490.00
410.4400, 12550.00
411.6340, 12532.00
412.8280, 12659.00
414.0220, 12535.00
415.2160, 12655.00
416.4100, 12617.00
417.6030, 12583.00
418.7970, 12543.00
419.9900, 12371.00
421.1830, 12314.00
422.3760, 12071.00
423.5690, 11958.00
424.7610, 11889.00
425.9540, 11675.00
427.1460, 11722.00
428.3380, 11475.00
429.5300, 11509.00
430.7220, 11407.00
431.9140, 11379.00
433.1050, 11491.00
434.2970, 11478.00
435.4880, 11738.00
436.6790, 11976.00
437.8700, 11986.00
439.0610, 12240.00
440.2510, 12463.00
441.4420, 12730.00
442.6320, 13012.00
443.8220, 13281.00
445.0120, 13688.00
446.2020, 13755.00
447.3910, 13660.00
448.5810, 13694.00
449.7700, 13484.00
450.9600, 13079.00
452.1490, 12910.00
453.3370, 12437.00
454.5260, 12024.00
455.7150, 11835.00
456.9030, 11208.00
458.0910, 10872.00
459.2800, 10559.00
460.4670, 10301.00
461.6550, 10335.00
462.8430, 10286.00
464.0300, 10106.00
465.2180, 9968.000
466.4050, 10099.00
467.5920, 10006.00
468.7790, 10143.00
469.9650, 10119.00
471.1520, 10221.00
472.3380, 10174.00
473.5250, 10194.00
474.7110, 10231.00
475.8970, 10439.00
477.0820, 10382.00
478.2680, 10526.00
479.4540, 10604.00
480.6390, 10590.00
481.8240, 10681.00
483.0090, 10639.00
484.1940, 10729.00
485.3780, 10770.00
486.5630, 10616.00
487.7470, 10783.00
488.9320, 10737.00
490.1160, 11011.00
491.3000, 11100.00
492.4830, 11199.00
493.6670, 11304.00
494.8500, 11618.00
496.0340, 11792.00
497.2170, 12230.00
498.4000, 12543.00
499.5820, 12751.00
500.7650, 13080.00
501.9480, 13562.00
503.1300, 13600.00
504.3120, 14062.00
505.4940, 14218.00
506.6760, 14406.00
507.8580, 14665.00
509.0390, 14849.00
510.2210, 14903.00
511.4020, 14899.00
512.5830, 14894.00
513.7640, 14882.88
514.9450, 14893.00
516.1250, 14808.00
517.3060, 14740.00
518.4860, 14675.00
519.6660, 14703.21
520.8460, 14738.98
522.0260, 14823.00
523.2060, 14949.00
524.3850, 15070.00
525.5650, 15268.00
526.7440, 15548.00
527.9230, 15783.00
529.1020, 16164.06
530.2810, 16510.00
531.4590, 16996.00
532.6380, 17413.00
533.8160, 17879.00
534.9940, 18434.00
536.1720, 19053.00
537.3500, 19600.00
538.5270, 20200.00
539.7050, 20650.00
540.8820, 21442.00
542.0590, 21984.00
543.2360, 22427.00
544.4130, 23102.00
545.5900, 23468.00
546.7660, 23981.00
547.9430, 24404.00
549.1190, 24584.00
550.2950, 24605.00
551.4710, 24599.00
552.6470, 24316.00
553.8220, 24005.00
554.9980, 23439.00
556.1730, 23164.00
557.3480, 22775.00
558.5230, 22406.00
559.6980, 21922.00
560.8730, 21688.00
562.0470, 21529.00
563.2220, 21493.00
564.3960, 21558.00
565.5700, 21652.00
566.7440, 21760.00
567.9170, 21729.00
569.0910, 21780.00
570.2640, 21847.00
571.4380, 21825.00
572.6110, 21529.00
573.7840, 21403.00
574.9570, 20912.00
576.1290, 20530.00
577.3020, 19974.00
578.4740, 19328.00
579.6460, 19105.00
580.8180, 18568.00
581.9900, 18077.00
583.1620, 17752.00
584.3330, 17456.00
585.5040, 17234.00
586.6760, 16936.13
587.8470, 16489.00
589.0180, 16423.00
590.1880, 16249.00
591.3590, 16019.00
592.5290, 16077.00
593.7000, 16060.00
594.8700, 15953.00
596.0400, 15981.60
597.2090, 16003.00
598.3790, 16037.00
599.5490, 16146.00
600.7180, 16406.00
601.8870, 16605.00
603.0560, 16999.00
604.2250, 17323.00
605.3940, 17750.00
606.5620, 17937.00
607.7300, 18449.00
608.8990, 18818.00
610.0670, 19470.00
611.2350, 19661.00
612.4020, 20389.00
613.5700, 20746.00
614.7370, 20735.00
615.9050, 21402.00
617.0720, 21659.00
618.2390, 21756.00
619.4060, 21966.00
620.5720, 22196.20
621.7390, 22493.00
622.9050, 22671.00
624.0710, 22926.00
625.2370, 23173.00
626.4030, 23350.00
627.5690, 23622.00
628.7340, 23555.00
629.9000, 23688.00
631.0650, 23651.00
632.2300, 23484.00
633.3950, 23273.00
634.5600, 23020.00
635.7240, 22667.00
636.8890, 22440.00
638.0530, 22121.00
639.2170, 22023.00
640.3810, 21779.00
641.5450, 21700.00
642.7080, 21556.00
643.8720, 21549.00
645.0350, 21269.00
646.1980, 20699.00
647.3610, 20229.00
648.5240, 19500.00
649.6870, 18848.00
650.8490, 18152.00
652.0120, 17545.00
653.1740, 16502.00
654.3360, 15944.00
655.4980, 15308.00
656.6600, 14601.00
657.8210, 14201.00
658.9830, 13691.00
660.1440, 13128.00
661.3050, 12573.00
662.4660, 12097.00
663.6270, 11706.88
664.7870, 11570.00
665.9480, 11087.00
667.1080, 10851.00
668.2680, 10667.00
669.4280, 10348.00
670.5880, 10336.00
671.7480, 10360.00
672.9070, 10216.00
674.0670, 10165.00
675.2260, 10024.00
676.3850, 9910.000
677.5440, 9987.000
678.7030, 9786.000
679.8610, 9774.000
681.0200, 9863.000
682.1780, 9882.000
683.3360, 9727.000
684.4940, 9710.000
685.6520, 9721.000
686.8090, 9722.000
687.9670, 9898.000
689.1240, 9754.000
690.2810, 9903.000
691.4380, 9896.000
692.5950, 9919.000
693.7520, 10025.00
694.9080, 10100.00
696.0650, 10108.00
697.2210, 10293.00
698.3770, 10319.00
699.5330, 10384.37
700.6880, 10399.00
701.8440, 10514.00
702.9990, 10546.00
704.1550, 10671.00
705.3100, 10863.00
706.4650, 10949.00
707.6190, 11145.00
708.7740, 11291.00
709.9290, 11526.00
711.0830, 11492.00
712.2370, 11748.00
713.3910, 11870.00
714.5450, 11807.00
715.6980, 11709.00
716.8520, 11412.00
718.0050, 11247.00
719.1580, 10937.00
720.3110, 10678.00
721.4640, 10420.00
722.6170, 10149.00
723.7700, 9990.000
724.9220, 9925.000
726.0740, 10014.00
727.2260, 9913.000
728.3780, 9913.000
729.5300, 9823.000
730.6810, 9832.000
731.8330, 10107.00
732.9840, 9973.000
734.1350, 10039.40
735.2860, 10041.00
736.4370, 9997.000
737.5880, 9819.000
738.7380, 9791.000
739.8880, 9794.000
741.0390, 9784.000
742.1890, 9454.000
743.3380, 9649.000
744.4880, 9456.000
745.6380, 9541.000
746.7870, 9587.000
747.9360, 9600.000
749.0850, 9634.000
750.2340, 9539.000
751.3830, 9642.000
752.5310, 9724.000
753.6800, 9765.000
754.8280, 9670.000
755.9760, 9595.000
757.1240, 9482.000
758.2720, 9598.000
759.4190, 9583.000
760.5670, 9493.000
761.7140, 9451.000
762.8610, 9462.000
764.0080, 9427.000
765.1550, 9405.000
766.3020, 9465.000
767.4480, 9419.000
768.5950, 9332.000
769.7410, 9394.000
770.8870, 9362.000
772.0330, 9528.000
773.1780, 9555.000
774.3240, 9732.000
775.4690, 9681.000
776.6140, 9746.000
777.7590, 9845.000
778.9040, 10068.00
780.0490, 9993.000
781.1940, 10278.00
782.3380, 10288.00
783.4820, 10314.00
784.6260, 10434.00
785.7700, 10585.00
786.9140, 10745.00
788.0580, 10872.00
789.2010, 11121.00
790.3450, 11336.00
791.4880, 11324.00
792.6310, 11724.00
793.7730, 11897.00
794.9160, 12308.00
796.0590, 12535.00
797.2010, 12858.00
798.3430, 13402.00
799.4850, 13594.00
800.6270, 14357.00
801.7690, 14829.00
802.9100, 15612.00
804.0520, 16197.00
805.1930, 17088.00
806.3340, 17803.00
807.4750, 18745.00
808.6160, 19849.00
809.7560, 20933.00
810.8970, 21911.00
812.0370, 23195.00
813.1770, 24513.00
814.3170, 25772.00
815.4570, 26720.00
816.5960, 27461.00
817.7360, 27780.00
818.8750, 27774.00
820.0140, 27435.00
821.1530, 26719.00
822.2920, 25523.00
823.4310, 24302.00
824.5690, 23081.00
825.7070, 21615.00
826.8460, 20580.00
827.9840, 19397.00
829.1220, 18213.00
830.2590, 17312.00
831.3970, 16572.00
832.5340, 15749.00
833.6710, 14938.00
834.8080, 14362.00
835.9450, 13696.00
837.0820, 13126.00
838.2190, 12526.00
839.3550, 12022.00
840.4910, 11539.00
841.6270, 11136.00
842.7630, 10771.81
843.8990, 10535.00
845.0350, 10176.00
846.1700, 9996.000
847.3060, 9772.000
848.4410, 9773.000
849.5760, 9535.000
850.7100, 9407.000
851.8450, 9443.000
852.9800, 9194.000
854.1140, 9231.000
855.2480, 9185.000
856.3820, 9238.000
857.5160, 9210.000
858.6500, 9171.000
859.7830, 9251.000
860.9170, 9163.000
862.0500, 9338.000
863.1830, 9411.000
864.3160, 9401.000
865.4480, 9454.000
866.5810, 9484.000
867.7130, 9506.000
868.8460, 9619.000
869.9780, 9665.000
871.1100, 9617.000
872.2410, 9756.000
873.3730, 9759.000
874.5050, 9810.000
875.6360, 9752.000
876.7670, 9804.000
877.8980, 9825.000
879.0290, 9862.740
880.1590, 9941.301
881.2900, 10014.00
882.4200, 10126.00
883.5500, 10268.00
884.6800, 10411.00
885.8100, 10537.00
886.9400, 10633.00
888.0690, 10693.00
889.1990, 10990.00
890.3280, 11096.00
891.4570, 11543.00
892.5860, 11872.00
893.7140, 12045.00
894.8430, 12691.00
895.9710, 12972.00
897.1000, 13622.00
898.2280, 14209.00
899.3560, 14660.00
900.4830, 15571.00
901.6110, 16195.00
902.7380, 17059.00
903.8660, 17977.00
904.9930, 19147.00
906.1200, 20327.00
907.2460, 22292.00
908.3730, 24062.00
909.5000, 26448.00
910.6260, 29669.00
911.7520, 33712.00
912.8780, 38336.00
914.0040, 42785.00
915.1290, 47195.00
916.2550, 50415.00
917.3800, 51953.00
918.5050, 51748.00
919.6300, 49304.00
920.7550, 46427.00
921.8800, 42627.00
923.0040, 38398.00
924.1290, 34806.00
925.2530, 31345.00
926.3770, 28548.00
927.5010, 26166.00
928.6250, 24317.00
929.7480, 22834.00
930.8720, 21073.00
931.9950, 20085.00
933.1180, 18969.00
934.2410, 18400.00
935.3640, 17749.00
936.4860, 17329.00
937.6090, 17147.00
938.7310, 17014.00
939.8530, 16747.00
940.9750, 17058.00
942.0970, 17152.00
943.2180, 17458.00
944.3400, 18254.00
945.4610, 18774.00
946.5820, 19675.00
947.7030, 20853.00
948.8240, 21529.00
949.9450, 22039.00
951.0650, 22332.00
952.1860, 22221.00
953.3060, 21365.00
954.4260, 20348.00
955.5460, 19146.00
956.6650, 17946.00
957.7850, 17096.00
958.9040, 16228.00
960.0230, 15535.00
961.1420, 15237.00
962.2610, 14712.00
963.3800, 14588.00
964.4990, 14333.00
965.6170, 14173.00
966.7350, 14165.00
967.8530, 14214.00
968.9710, 14314.00
970.0890, 14208.00
971.2070, 14236.00
972.3240, 14063.00
973.4410, 14264.00
974.5580, 14194.00
975.6750, 14364.00
976.7920, 14346.00
977.9090, 14327.00
979.0250, 14338.00
980.1410, 14278.00
981.2580, 14357.00
982.3740, 14286.00
983.4890, 14501.00
984.6050, 14466.00
985.7200, 14510.00
986.8360, 14666.00
987.9510, 14899.00
989.0660, 15089.00
990.1810, 15327.00
991.2950, 15641.00
992.4100, 16124.00
993.5240, 16863.00
994.6390, 17633.00
995.7530, 18811.00
996.8660, 20365.00
997.9800, 21960.00
999.0940, 23996.00
1000.207, 25965.00
1001.320, 27557.00
1002.433, 28862.00
1003.546, 29113.71
1004.659, 29048.00
1005.772, 28173.00
1006.884, 26640.00
1007.996, 24680.00
1009.108, 23050.00
1010.220, 21638.00
1011.332, 19966.00
1012.444, 18997.00
1013.555, 18330.00
1014.666, 17850.00
1015.777, 17128.00
1016.888, 17254.00
1017.999, 16847.00
1019.110, 16635.00
1020.220, 16377.00
1021.331, 16059.00
1022.441, 15953.00
1023.551, 15612.00
1024.661, 15432.00
1025.770, 15067.00
1026.880, 15002.00
1027.989, 15169.00
1029.098, 14912.00
1030.207, 14942.00
1031.316, 14974.00
1032.425, 14925.00
1033.533, 14780.00
1034.642, 14642.00
1035.750, 14595.00
1036.858, 14497.00
1037.966, 14342.00
1039.073, 14301.00
1040.181, 14163.00
1041.288, 13835.00
1042.396, 13911.00
1043.503, 13616.00
1044.610, 13474.00
1045.716, 13364.00
1046.823, 13237.00
1047.929, 13123.00
1049.036, 13242.00
1050.142, 13061.00
1051.248, 13035.00
1052.353, 13191.00
1053.459, 13201.00
1054.564, 13241.00
1055.670, 13351.00
1056.775, 13657.00
1057.880, 14028.00
1058.985, 14347.00
1060.089, 14671.00
1061.194, 15220.00
1062.298, 15388.00
1063.402, 15511.00
1064.506, 15629.00
1065.610, 15479.00
1066.713, 15382.00
1067.817, 14949.00
1068.920, 14779.00
1070.023, 14553.00
1071.126, 14380.00
1072.229, 14097.00
1073.332, 14037.00
1074.435, 13825.00
1075.537, 13797.00
1076.639, 13586.00
1077.741, 13673.00
1078.843, 13702.00
1079.945, 13545.00
1081.046, 13546.00
1082.148, 13379.00
1083.249, 13301.00
1084.350, 13222.00
1085.451, 13150.85
1086.551, 13121.45
1087.652, 13068.00
1088.752, 13114.00
1089.853, 13078.00
1090.953, 13145.00
1092.053, 12992.00
1093.152, 12942.00
1094.252, 12943.00
1095.351, 12991.00
1096.451, 12831.00
1097.550, 13021.00
1098.649, 12927.00
1099.748, 12845.00
1100.846, 12888.00
1101.945, 12968.00
1103.043, 12955.00
1104.141, 12982.00
1105.239, 12960.00
1106.337, 13092.00
1107.434, 12964.00
1108.532, 13153.00
1109.629, 13111.00
1110.726, 13063.00
1111.823, 13080.00
1112.920, 13027.36
1114.017, 13029.00
1115.113, 12936.00
1116.210, 12903.00
1117.306, 12795.00
1118.402, 12892.00
1119.498, 12868.00
1120.593, 12969.00
1121.689, 12993.00
1122.784, 12988.65
1123.879, 13096.00
1124.974, 12971.00
1126.069, 12899.00
1127.164, 12866.00
1128.259, 12696.00
1129.353, 12842.00
1130.447, 12844.00
1131.541, 12818.00
1132.635, 12767.00
1133.729, 12929.00
1134.822, 12765.00
1135.916, 12911.00
1137.009, 12718.00
1138.102, 12806.00
1139.195, 12877.00
1140.288, 13052.00
1141.380, 12884.00
1142.473, 13083.00
1143.565, 13077.00
1144.657, 12948.00
1145.749, 13086.00
1146.841, 12937.00
1147.932, 13140.00
1149.024, 13161.00
1150.115, 13079.00
1151.206, 13168.00
1152.297, 13064.00
1153.388, 13176.00
1154.479, 13063.00
1155.569, 13235.00
1156.659, 13315.00
1157.750, 13140.00
1158.839, 13082.00
1159.929, 13236.00
1161.019, 13225.00
1162.108, 13174.00
1163.198, 13327.00
1164.287, 13203.00
1165.376, 13300.00
1166.465, 13432.00
1167.553, 13281.00
1168.642, 13239.00
1169.730, 13540.00
1170.818, 13356.00
1171.906, 13451.00
1172.994, 13343.00
1174.082, 13415.00
1175.170, 13350.00
1176.257, 13371.00
1177.344, 13455.00
1178.431, 13441.00
1179.518, 13447.00
1180.605, 13415.00
1181.691, 13425.00
1182.778, 13455.30
1183.864, 13462.00
1184.950, 13518.00
1186.036, 13515.00
1187.122, 13501.00
1188.207, 13396.00
1189.292, 13480.00
1190.378, 13368.00
1191.463, 13446.00
1192.548, 13428.00
1193.632, 13373.00
1194.717, 13499.00
1195.801, 13515.00
1196.886, 13496.55
1197.970, 13389.00
1199.054, 13463.00
1200.137, 13308.00
1201.221, 13281.00
1202.305, 13249.00
1203.388, 13184.51
1204.471, 13245.00
1205.554, 13149.00
1206.637, 13169.00
1207.719, 13201.00
1208.802, 13070.00
1209.884, 13094.00
1210.966, 13043.00
1212.048, 13000.00
1213.130, 13112.00
1214.212, 12922.00
1215.293, 13000.00
1216.374, 12879.00
1217.456, 12859.00
1218.536, 12824.00
1219.617, 12617.00
1220.698, 12897.00
1221.778, 12898.00
1222.859, 12730.00
1223.939, 12712.00
1225.019, 12649.00
1226.099, 12697.00
1227.178, 12613.00
1228.258, 12599.00
1229.337, 12635.00
1230.417, 12592.00
1231.496, 12569.00
1232.574, 12612.00
1233.653, 12552.00
1234.732, 12495.00
1235.810, 12631.00
1236.888, 12624.00
1237.966, 12396.00
1239.044, 12636.00
1240.122, 12501.00
1241.199, 12379.00
1242.277, 12425.00
1243.354, 12421.00
1244.431, 12464.00
1245.508, 12367.00
1246.585, 12504.00
1247.661, 12495.00
1248.738, 12436.00
1249.814, 12527.00
1250.890, 12510.00
1251.966, 12430.00
1253.042, 12451.00
1254.117, 12536.00
1255.193, 12479.00
1256.268, 12504.00
1257.343, 12687.00
1258.418, 12445.00
1259.493, 12518.00
1260.567, 12622.00
1261.642, 12492.00
1262.716, 12377.00
1263.790, 12469.00
1264.864, 12489.00
1265.938, 12583.00
1267.011, 12627.00
1268.085, 12484.00
1269.158, 12384.00
1270.231, 12544.00
1271.304, 12286.00
1272.377, 12486.00
1273.450, 12438.00
1274.522, 12419.00
1275.594, 12445.00
1276.666, 12416.00
1277.738, 12265.00
1278.810, 12266.00
1279.882, 12165.00
1280.953, 12188.00
1282.025, 12096.00
1283.096, 12227.00
1284.167, 12027.00
1285.238, 12130.00
1286.308, 12108.00
1287.379, 12020.00
1288.449, 12015.00
1289.519, 11968.65
1290.589, 11935.96
1291.659, 11921.00
1292.729, 11892.00
1293.798, 11905.00
1294.868, 11894.00
1295.937, 11926.00
1297.006, 11959.00
1298.075, 11934.00
1299.143, 11886.00
1300.212, 12011.00
1301.280, 11954.00
1302.348, 11803.00
