##NAMES=Andalusite
##RRUFFID=R060212
##IDEAL CHEMISTRY=Al_2_SiO_5_
##LOCALITY=Brazil
##OWNER=RRUFF
##SOURCE=Marcus Origlieri
##DESCRIPTION=Transparent yellow-green water-worn pebble
##STATUS=The identification of this mineral is confirmed by single-crystal X-ray diffraction and chemical analysis.
##URL=rruff.info/R060212
##MEASURED CHEMISTRY=(Al_1.98_Fe^3+^_0.02_)_Î£=2_Si_1.00_O_5_
##PIN_ID=M00061
##ORIENTATION=Laser parallel to -a* (-1 0 0). Fiducial mark perpendicular to laser is parallel to -b [0 -1 0]
99.64900, 8972.523
100.8830, 9091.000
102.1160, 9058.000
103.3490, 9202.000
104.5820, 9278.000
105.8150, 9658.000
107.0470, 9960.000
108.2800, 10159.00
109.5120, 10432.00
110.7440, 10324.00
111.9760, 9566.000
113.2080, 9446.000
114.4400, 9642.000
115.6710, 9667.000
116.9030, 9580.000
118.1340, 9451.000
119.3650, 9354.000
120.5960, 9243.000
121.8270, 9350.000
123.0580, 9524.000
124.2880, 9336.000
125.5190, 9269.000
126.7490, 9130.000
127.9790, 9375.000
129.2090, 9304.000
130.4390, 9271.000
131.6680, 9309.000
132.8980, 9101.000
134.1270, 9196.000
135.3560, 9211.000
136.5850, 9221.000
137.8140, 9347.000
139.0430, 9292.522
140.2710, 9369.000
141.5000, 9274.000
142.7280, 9186.000
143.9560, 9223.000
145.1840, 9205.000
146.4120, 9208.000
147.6390, 9340.000
148.8670, 9349.000
150.0940, 9302.000
151.3210, 9295.000
152.5490, 9559.000
153.7750, 9493.000
155.0020, 9460.000
156.2290, 9412.000
157.4550, 9360.000
158.6810, 9462.000
159.9080, 9380.000
161.1340, 9528.000
162.3590, 9569.000
163.5850, 9566.000
164.8110, 9805.000
166.0360, 9859.000
167.2610, 9608.000
168.4860, 9815.000
169.7110, 9944.000
170.9360, 9806.000
172.1610, 9894.000
173.3850, 9751.000
174.6100, 9716.000
175.8340, 9887.000
177.0580, 9717.000
178.2820, 9722.000
179.5050, 9832.000
180.7290, 9883.000
181.9520, 9716.000
183.1760, 9862.000
184.3990, 10003.00
185.6220, 10155.00
186.8450, 10049.00
188.0670, 10340.00
189.2900, 10490.00
190.5120, 10806.00
191.7340, 10827.00
192.9560, 10912.00
194.1780, 10875.00
195.4000, 10879.00
196.6220, 10824.00
197.8430, 10665.00
199.0640, 10635.00
200.2860, 10704.00
201.5070, 10773.00
202.7270, 10668.00
203.9480, 10542.00
205.1690, 10046.00
206.3890, 9769.000
207.6090, 9590.000
208.8290, 9551.000
210.0490, 9768.000
211.2690, 9738.000
212.4890, 9623.000
213.7080, 9719.000
214.9280, 9752.000
216.1470, 9747.000
217.3660, 9760.000
218.5850, 9799.000
219.8030, 9651.000
221.0220, 9742.000
222.2400, 9727.000
223.4590, 9791.000
224.6770, 9678.000
225.8950, 9838.000
227.1120, 9863.000
228.3300, 9940.000
229.5480, 10043.00
230.7650, 10163.00
231.9820, 10174.00
233.1990, 10278.00
234.4160, 10650.00
235.6330, 10815.00
236.8490, 11200.00
238.0660, 11718.00
239.2820, 12496.00
240.4980, 12905.00
241.7140, 13222.00
242.9300, 13136.00
244.1460, 12988.00
245.3610, 12595.00
246.5770, 12012.00
247.7920, 11962.00
249.0070, 11580.00
250.2220, 11562.00
251.4370, 11313.00
252.6510, 11338.00
253.8660, 11351.00
255.0800, 11397.00
256.2940, 11272.00
257.5080, 11478.00
258.7220, 11521.71
259.9360, 11483.39
261.1490, 11760.00
262.3630, 11508.00
263.5760, 11546.00
264.7890, 11697.00
266.0020, 11754.00
267.2150, 11961.00
268.4270, 12106.00
269.6400, 12167.00
270.8520, 12464.00
272.0640, 12709.00
273.2760, 13208.00
274.4880, 13666.00
275.7000, 14173.00
276.9120, 14913.00
278.1230, 15561.00
279.3340, 16559.00
280.5450, 17137.00
281.7560, 18515.00
282.9670, 20465.00
284.1780, 22672.00
285.3880, 25056.00
286.5980, 28781.00
287.8090, 33169.00
289.0190, 38343.00
290.2290, 44467.00
291.4380, 50107.00
292.6480, 52128.00
293.8570, 50172.00
295.0670, 43968.00
296.2760, 36614.00
297.4850, 29614.00
298.6930, 24132.00
299.9020, 20389.00
301.1110, 17836.00
302.3190, 16210.00
303.5270, 14922.00
304.7350, 14041.00
305.9430, 13759.00
307.1510, 13335.00
308.3580, 13109.00
309.5660, 13264.00
310.7730, 13575.00
311.9800, 13867.00
313.1870, 14460.00
314.3940, 15228.00
315.6010, 16143.00
316.8070, 17944.00
318.0130, 20465.00
319.2200, 23638.00
320.4260, 26476.00
321.6310, 28249.00
322.8370, 27665.00
324.0430, 25152.00
325.2480, 21834.00
326.4540, 19155.00
327.6590, 17032.00
328.8640, 15630.00
330.0680, 14611.00
331.2730, 14076.00
332.4780, 13721.00
333.6820, 13553.00
334.8860, 13341.00
336.0900, 13427.00
337.2940, 13245.00
338.4980, 13237.00
339.7010, 13251.00
340.9050, 13218.00
342.1080, 13396.00
343.3110, 13502.00
344.5140, 13892.00
345.7170, 14397.00
346.9200, 14832.00
348.1220, 15643.00
349.3240, 16663.00
350.5270, 17812.00
351.7290, 19391.00
352.9310, 21482.00
354.1320, 24379.00
355.3340, 27462.00
356.5350, 31152.00
357.7370, 34594.00
358.9380, 36239.00
360.1390, 36101.00
361.3400, 33907.00
362.5400, 30479.00
363.7410, 26949.00
364.9410, 23438.00
366.1410, 20833.00
367.3410, 18874.00
368.5410, 17237.00
369.7410, 16056.00
370.9400, 15263.00
372.1400, 14589.00
373.3390, 14332.00
374.5380, 13852.00
375.7370, 13493.00
376.9360, 13204.00
378.1350, 12995.00
379.3330, 12830.47
380.5310, 12733.00
381.7300, 12723.00
382.9280, 12739.00
384.1260, 12875.00
385.3230, 12637.00
386.5210, 12734.00
387.7180, 12636.00
388.9160, 12558.00
390.1130, 12556.00
391.3100, 12705.00
392.5060, 12671.00
393.7030, 12599.00
394.9000, 12451.00
396.0960, 12376.00
397.2920, 12161.00
398.4880, 12046.00
399.6840, 12140.00
400.8800, 11859.00
402.0750, 11860.00
403.2710, 11917.00
404.4660, 11871.00
405.6610, 11858.00
406.8560, 11879.00
408.0510, 11875.00
409.2450, 11885.00
410.4400, 11837.00
411.6340, 11827.00
412.8280, 11854.00
414.0220, 11949.00
415.2160, 11823.00
416.4100, 11932.00
417.6030, 11919.00
418.7970, 11859.00
419.9900, 11961.00
421.1830, 12017.00
422.3760, 11915.00
423.5690, 11892.00
424.7610, 11736.00
425.9540, 11891.00
427.1460, 11824.00
428.3380, 11728.00
429.5300, 12024.00
430.7220, 11875.00
431.9140, 11674.00
433.1050, 11889.00
434.2970, 11947.00
435.4880, 12009.00
436.6790, 11918.00
437.8700, 11993.00
439.0610, 11978.00
440.2510, 12100.00
441.4420, 11953.00
442.6320, 12162.00
443.8220, 12172.00
445.0120, 12355.00
446.2020, 12580.00
447.3910, 12507.00
448.5810, 12880.00
449.7700, 13163.00
450.9600, 13595.00
452.1490, 14060.00
453.3370, 13889.00
454.5260, 13525.00
455.7150, 13017.00
456.9030, 12694.00
458.0910, 12463.00
459.2800, 12438.00
460.4670, 12509.00
461.6550, 12446.00
462.8430, 12291.00
464.0300, 12411.00
465.2180, 12323.00
466.4050, 12438.00
467.5920, 12407.00
468.7790, 12527.00
469.9650, 12549.00
471.1520, 12516.00
472.3380, 12479.00
473.5250, 12566.00
474.7110, 12551.40
475.8970, 12615.09
477.0820, 12643.00
478.2680, 12741.00
479.4540, 12848.00
480.6390, 12908.00
481.8240, 12953.00
483.0090, 13062.00
484.1940, 13075.00
485.3780, 13014.00
486.5630, 12845.00
487.7470, 12940.00
488.9320, 12849.00
490.1160, 12688.00
491.3000, 12765.00
492.4830, 12695.00
493.6670, 12719.00
494.8500, 12651.00
496.0340, 12656.00
497.2170, 12627.00
498.4000, 12612.92
499.5820, 12830.00
500.7650, 12629.00
501.9480, 12686.00
503.1300, 12754.00
504.3120, 12606.00
505.4940, 12751.00
506.6760, 12815.00
507.8580, 12795.00
509.0390, 12878.00
510.2210, 12791.00
511.4020, 12910.00
512.5830, 13031.00
513.7640, 12860.00
514.9450, 12963.00
516.1250, 13004.00
517.3060, 12961.00
518.4860, 13024.00
519.6660, 13061.00
520.8460, 13130.00
522.0260, 13136.00
523.2060, 13056.00
524.3850, 13120.00
525.5650, 12976.00
526.7440, 12991.00
527.9230, 13206.00
529.1020, 13200.00
530.2810, 13185.00
531.4590, 13267.00
532.6380, 13338.00
533.8160, 13233.00
534.9940, 13244.00
536.1720, 13314.00
537.3500, 13365.00
538.5270, 13379.00
539.7050, 13355.00
540.8820, 13747.00
542.0590, 13809.00
543.2360, 14131.00
544.4130, 14251.00
545.5900, 14821.00
546.7660, 15241.00
547.9430, 15677.00
549.1190, 16184.00
550.2950, 16585.00
551.4710, 16741.00
552.6470, 16978.00
553.8220, 16591.00
554.9980, 16060.00
556.1730, 15627.00
557.3480, 15209.00
558.5230, 14856.00
559.6980, 14633.10
560.8730, 14532.00
562.0470, 14362.00
563.2220, 14450.00
564.3960, 14480.00
565.5700, 14559.00
566.7440, 14567.00
567.9170, 14762.00
569.0910, 14948.00
570.2640, 15166.00
571.4380, 15511.00
572.6110, 15583.00
573.7840, 15434.00
574.9570, 15408.00
576.1290, 15164.00
577.3020, 14890.00
578.4740, 14745.00
579.6460, 14501.00
580.8180, 14335.00
581.9900, 14132.00
583.1620, 14247.00
584.3330, 14001.00
585.5040, 14248.00
586.6760, 14054.00
587.8470, 14068.00
589.0180, 13968.00
590.1880, 13954.00
591.3590, 14161.00
592.5290, 14039.00
593.7000, 14101.00
594.8700, 14135.00
596.0400, 14121.00
597.2090, 14230.00
598.3790, 14065.00
599.5490, 14194.00
600.7180, 14172.00
601.8870, 14196.00
603.0560, 14225.00
604.2250, 14175.00
605.3940, 14341.00
606.5620, 14175.00
607.7300, 14403.00
608.8990, 14189.00
610.0670, 14266.00
611.2350, 14345.00
612.4020, 14287.00
613.5700, 14293.00
614.7370, 14405.00
615.9050, 14301.00
617.0720, 14410.00
618.2390, 14550.00
619.4060, 14643.00
620.5720, 14691.00
621.7390, 14758.00
622.9050, 15142.00
624.0710, 15168.00
625.2370, 15328.00
626.4030, 15241.00
627.5690, 15472.00
628.7340, 15315.00
629.9000, 15397.00
631.0650, 15188.00
632.2300, 15000.00
633.3950, 14804.00
634.5600, 14698.60
635.7240, 14696.00
636.8890, 14548.00
638.0530, 14570.00
639.2170, 14571.00
640.3810, 14750.00
641.5450, 14696.00
642.7080, 14879.00
643.8720, 14966.00
645.0350, 15031.00
646.1980, 15070.00
647.3610, 15086.00
648.5240, 15085.00
649.6870, 14832.00
650.8490, 14945.00
652.0120, 14778.00
653.1740, 14777.00
654.3360, 14879.00
655.4980, 14563.00
656.6600, 14647.00
657.8210, 14533.00
658.9830, 14482.00
660.1440, 14539.00
661.3050, 14460.00
662.4660, 14361.00
663.6270, 14464.00
664.7870, 14489.00
665.9480, 14398.00
667.1080, 14454.00
668.2680, 14415.00
669.4280, 14415.37
670.5880, 14442.21
671.7480, 14422.00
672.9070, 14503.00
674.0670, 14496.00
675.2260, 14577.00
676.3850, 14373.00
677.5440, 14597.00
678.7030, 14523.00
679.8610, 14632.00
681.0200, 14437.00
682.1780, 14524.00
683.3360, 14554.00
684.4940, 14575.00
685.6520, 14512.00
686.8090, 14395.00
687.9670, 14621.00
689.1240, 14661.00
690.2810, 14727.00
691.4380, 14530.00
692.5950, 14652.00
693.7520, 14660.00
694.9080, 14725.00
696.0650, 14728.00
697.2210, 14780.00
698.3770, 14815.00
699.5330, 14820.00
700.6880, 14913.00
701.8440, 14829.00
702.9990, 14905.00
704.1550, 14925.00
705.3100, 14852.00
706.4650, 14882.00
707.6190, 15041.00
708.7740, 15014.00
709.9290, 15209.00
711.0830, 15191.00
712.2370, 15341.00
713.3910, 15321.00
714.5450, 15367.00
715.6980, 15438.00
716.8520, 15380.00
718.0050, 15449.00
719.1580, 15556.00
720.3110, 15660.00
721.4640, 15467.00
722.6170, 15349.00
723.7700, 15243.00
724.9220, 15153.16
726.0740, 15306.00
727.2260, 15105.00
728.3780, 15082.00
729.5300, 15201.00
730.6810, 15072.00
731.8330, 15169.00
732.9840, 15152.00
734.1350, 15142.00
735.2860, 15150.00
736.4370, 15137.00
737.5880, 15481.00
738.7380, 15338.00
739.8880, 15147.00
741.0390, 15424.00
742.1890, 15139.00
743.3380, 15290.00
744.4880, 15353.00
745.6380, 15367.00
746.7870, 15226.00
747.9360, 15332.00
749.0850, 15438.00
750.2340, 15516.00
751.3830, 15655.00
752.5310, 15405.00
753.6800, 15414.00
754.8280, 15444.00
755.9760, 15332.00
757.1240, 15375.00
758.2720, 15384.76
759.4190, 15471.00
760.5670, 15454.00
761.7140, 15571.00
762.8610, 15610.00
764.0080, 15644.00
765.1550, 15548.00
766.3020, 15473.00
767.4480, 15672.00
768.5950, 15527.00
769.7410, 15606.00
770.8870, 15502.00
772.0330, 15661.00
773.1780, 15595.00
774.3240, 15641.00
775.4690, 15745.00
776.6140, 15549.00
777.7590, 15711.00
778.9040, 15782.00
780.0490, 15963.00
781.1940, 15877.00
782.3380, 15966.39
783.4820, 15900.00
784.6260, 15901.00
785.7700, 16021.00
786.9140, 15983.47
788.0580, 16046.32
789.2010, 16050.00
790.3450, 16086.00
791.4880, 16159.54
792.6310, 16109.00
793.7730, 16175.00
794.9160, 16244.00
796.0590, 16114.00
797.2010, 16240.00
798.3430, 16332.00
799.4850, 16235.00
800.6270, 16319.00
801.7690, 16563.00
802.9100, 16389.00
804.0520, 16653.00
805.1930, 16559.00
806.3340, 16535.00
807.4750, 16621.00
808.6160, 16696.00
809.7560, 16440.00
810.8970, 16644.00
812.0370, 16660.00
813.1770, 16406.00
814.3170, 16425.00
815.4570, 16345.00
816.5960, 16259.00
817.7360, 16351.00
818.8750, 16426.00
820.0140, 16381.00
821.1530, 16360.00
822.2920, 16331.00
823.4310, 16353.00
824.5690, 16455.00
825.7070, 16402.00
826.8460, 16543.00
827.9840, 16550.00
829.1220, 16619.00
830.2590, 16547.00
831.3970, 16648.00
832.5340, 16618.00
833.6710, 16698.00
834.8080, 16677.00
835.9450, 16764.00
837.0820, 16486.00
838.2190, 16769.00
839.3550, 16612.00
840.4910, 16710.00
841.6270, 16932.00
842.7630, 16793.00
843.8990, 16707.00
845.0350, 16793.00
846.1700, 16820.00
847.3060, 16813.00
848.4410, 16718.00
849.5760, 16784.00
850.7100, 16820.00
851.8450, 17016.00
852.9800, 17033.00
854.1140, 17074.00
855.2480, 17075.00
856.3820, 17221.00
857.5160, 17194.00
858.6500, 17295.00
859.7830, 17455.00
860.9170, 17399.00
862.0500, 17334.00
863.1830, 17447.00
864.3160, 17292.00
865.4480, 17406.00
866.5810, 17259.00
867.7130, 17279.00
868.8460, 17332.00
869.9780, 17213.00
871.1100, 17352.00
872.2410, 17324.00
873.3730, 17355.00
874.5050, 17226.00
875.6360, 17279.00
876.7670, 17279.00
877.8980, 17429.00
879.0290, 17290.00
880.1590, 17493.00
881.2900, 17398.00
882.4200, 17412.00
883.5500, 17678.00
884.6800, 17717.00
885.8100, 17760.13
886.9400, 17742.00
888.0690, 17833.00
889.1990, 17853.28
890.3280, 17880.00
891.4570, 17943.00
892.5860, 18015.00
893.7140, 18061.00
894.8430, 18138.00
895.9710, 18235.00
897.1000, 18455.00
898.2280, 18608.00
899.3560, 18673.00
900.4830, 19032.00
901.6110, 19019.00
902.7380, 19540.00
903.8660, 19673.00
904.9930, 20180.00
906.1200, 20638.00
907.2460, 21054.00
908.3730, 21854.00
909.5000, 22586.00
910.6260, 24290.00
911.7520, 26231.00
912.8780, 28271.00
914.0040, 31373.00
915.1290, 34900.00
916.2550, 39828.00
917.3800, 44810.00
918.5050, 48471.00
919.6300, 49542.00
920.7550, 47546.00
921.8800, 43019.00
923.0040, 37594.00
924.1290, 32774.00
925.2530, 29818.00
926.3770, 27277.00
927.5010, 25438.00
928.6250, 24366.00
929.7480, 23406.00
930.8720, 22943.00
931.9950, 22435.00
933.1180, 22366.00
934.2410, 22302.00
935.3640, 22161.00
936.4860, 22413.00
937.6090, 22799.00
938.7310, 23085.00
939.8530, 23697.00
940.9750, 24603.00
942.0970, 25356.00
943.2180, 26554.00
944.3400, 28359.00
945.4610, 30585.00
946.5820, 32932.00
947.7030, 35728.00
948.8240, 38238.00
949.9450, 40724.00
951.0650, 41628.00
952.1860, 40687.00
953.3060, 38331.00
954.4260, 35684.00
955.5460, 32278.00
956.6650, 29415.00
957.7850, 27100.00
958.9040, 25424.00
960.0230, 23687.00
961.1420, 22958.00
962.2610, 22023.00
963.3800, 21536.00
964.4990, 20982.00
965.6170, 20358.00
966.7350, 20098.00
967.8530, 19851.00
968.9710, 19781.00
970.0890, 19601.00
971.2070, 19627.00
972.3240, 19180.00
973.4410, 19213.00
974.5580, 19006.00
975.6750, 18891.00
976.7920, 18853.00
977.9090, 18879.00
979.0250, 18737.00
980.1410, 18640.00
981.2580, 18729.00
982.3740, 18532.00
983.4890, 18628.00
984.6050, 18513.00
985.7200, 18597.00
986.8360, 18571.00
987.9510, 18605.00
989.0660, 18689.00
990.1810, 18649.00
991.2950, 18570.00
992.4100, 18599.00
993.5240, 18579.00
994.6390, 18645.00
995.7530, 18704.00
996.8660, 18673.00
997.9800, 18875.00
999.0940, 18952.00
1000.207, 19094.00
1001.320, 19156.00
1002.433, 19193.33
1003.546, 19211.21
1004.659, 19222.00
1005.772, 19161.00
1006.884, 19161.00
1007.996, 19131.00
1009.108, 19246.00
1010.220, 19327.49
1011.332, 19528.00
1012.444, 19686.00
1013.555, 19867.00
1014.666, 20221.00
1015.777, 20423.00
1016.888, 20765.00
1017.999, 21130.00
1019.110, 21709.00
1020.220, 21542.00
1021.331, 21350.00
1022.441, 21280.00
1023.551, 20822.00
1024.661, 20715.00
1025.770, 20508.00
1026.880, 20292.00
1027.989, 20033.00
1029.098, 19866.00
1030.207, 19786.00
1031.316, 19668.00
1032.425, 19559.58
1033.533, 19392.00
1034.642, 19394.00
1035.750, 19364.00
1036.858, 19348.00
1037.966, 19396.00
1039.073, 19312.52
1040.181, 19293.96
1041.288, 19265.00
1042.396, 19164.00
1043.503, 19308.00
1044.610, 19214.00
1045.716, 19423.00
1046.823, 19339.00
1047.929, 19505.00
1049.036, 19475.00
1050.142, 19548.00
1051.248, 19676.00
1052.353, 19742.25
1053.459, 19831.00
1054.564, 20068.00
1055.670, 20353.00
1056.775, 20713.00
1057.880, 21073.00
1058.985, 21652.21
1060.089, 22166.00
1061.194, 22985.00
1062.298, 23844.00
1063.402, 24677.00
1064.506, 25277.00
1065.610, 25011.00
1066.713, 24466.00
1067.817, 23660.00
1068.920, 22583.00
1070.023, 21784.00
1071.126, 21236.00
1072.229, 20906.00
1073.332, 20703.00
1074.435, 20319.00
1075.537, 20337.00
1076.639, 20104.00
1077.741, 20118.00
1078.843, 20028.00
1079.945, 19906.00
1081.046, 19973.00
1082.148, 19970.00
1083.249, 19891.00
1084.350, 19883.90
1085.451, 19774.00
1086.551, 19787.00
1087.652, 19692.00
1088.752, 19686.00
1089.853, 19543.00
1090.953, 19665.00
1092.053, 19772.00
1093.152, 19577.00
1094.252, 19734.00
1095.351, 19640.00
1096.451, 19733.00
1097.550, 19767.00
1098.649, 19764.00
1099.748, 19659.00
1100.846, 19707.00
1101.945, 20022.00
1103.043, 20015.00
1104.141, 20231.00
1105.239, 20128.00
1106.337, 20305.00
1107.434, 20388.00
1108.532, 20675.00
1109.629, 20642.00
1110.726, 20692.00
1111.823, 20656.00
1112.920, 20591.00
1114.017, 20418.00
1115.113, 20363.00
1116.210, 20343.00
1117.306, 20366.00
1118.402, 20416.00
1119.498, 20517.00
1120.593, 20399.00
1121.689, 20400.00
1122.784, 20504.00
1123.879, 20547.00
1124.974, 20576.00
1126.069, 20754.00
1127.164, 20384.00
1128.259, 20172.00
1129.353, 20207.00
1130.447, 20052.00
1131.541, 19862.00
1132.635, 19793.00
1133.729, 19803.00
1134.822, 19779.00
1135.916, 19728.00
1137.009, 19794.00
1138.102, 19752.00
1139.195, 19803.00
1140.288, 19807.34
1141.380, 19815.00
1142.473, 19849.00
1143.565, 19797.00
1144.657, 19865.00
1145.749, 19824.00
1146.841, 19906.00
1147.932, 19835.00
1149.024, 19843.00
1150.115, 19953.00
1151.206, 19843.00
1152.297, 19822.00
1153.388, 19846.00
1154.479, 19877.00
1155.569, 19864.36
1156.659, 19918.00
1157.750, 19849.00
1158.839, 19884.00
1159.929, 19845.00
1161.019, 20053.00
1162.108, 20083.00
1163.198, 20114.00
1164.287, 20092.62
1165.376, 20132.00
1166.465, 19927.00
1167.553, 19953.00
1168.642, 19897.00
1169.730, 20166.00
1170.818, 20174.00
1171.906, 20196.00
1172.994, 20261.83
1174.082, 20205.35
1175.170, 20190.00
1176.257, 20177.00
1177.344, 20168.00
1178.431, 20135.00
1179.518, 20155.00
1180.605, 20099.00
1181.691, 20032.00
1182.778, 20044.43
1183.864, 20020.05
1184.950, 20044.00
1186.036, 20066.00
1187.122, 20103.00
1188.207, 20198.00
1189.292, 20237.00
1190.378, 20215.00
1191.463, 20196.00
1192.548, 20177.00
1193.632, 20065.00
1194.717, 20126.00
1195.801, 20321.00
1196.886, 20187.00
1197.970, 20197.00
1199.054, 20129.00
1200.137, 20320.00
1201.221, 20281.00
1202.305, 20493.00
1203.388, 20327.00
1204.471, 20217.00
1205.554, 20694.00
1206.637, 20248.00
1207.719, 20320.00
1208.802, 20420.00
1209.884, 20299.00
1210.966, 20366.00
1212.048, 20662.00
1213.130, 20488.00
1214.212, 20514.00
1215.293, 20339.00
1216.374, 20628.00
1217.456, 20565.00
1218.536, 20425.00
1219.617, 20565.00
1220.698, 20532.00
1221.778, 20629.00
1222.859, 20629.00
1223.939, 20627.00
1225.019, 20591.00
1226.099, 20509.00
1227.178, 20616.00
1228.258, 20627.00
1229.337, 20674.33
1230.417, 20842.00
1231.496, 20826.00
1232.574, 20970.00
1233.653, 21089.00
1234.732, 21030.00
1235.810, 21052.00
1236.888, 20929.00
1237.966, 21136.00
1239.044, 21098.00
1240.122, 20906.00
1241.199, 21010.00
1242.277, 21275.00
1243.354, 20892.00
1244.431, 21159.00
1245.508, 21151.00
1246.585, 21235.00
1247.661, 21257.00
1248.738, 21359.00
1249.814, 21316.00
1250.890, 21186.00
1251.966, 21305.00
1253.042, 21155.00
1254.117, 21277.00
1255.193, 21280.00
1256.268, 21303.00
1257.343, 21358.00
1258.418, 21336.00
1259.493, 21164.00
1260.567, 21155.00
1261.642, 21070.00
1262.716, 21198.00
1263.790, 21342.00
1264.864, 21234.00
1265.938, 21232.00
1267.011, 21340.00
1268.085, 21234.00
1269.158, 21382.00
1270.231, 21511.00
1271.304, 21502.00
1272.377, 21537.00
1273.450, 21601.00
1274.522, 21399.00
1275.594, 21342.00
1276.666, 21444.00
1277.738, 21374.00
1278.810, 21406.00
1279.882, 21444.00
1280.953, 21274.00
