##NAMES=Andalusite
##RRUFFID=R060197
##IDEAL CHEMISTRY=Al_2_SiO_5_
##LOCALITY=Brazil
##OWNER=RRUFF
##SOURCE=Marcus Origlieri
##DESCRIPTION=Green colored water worn pebble
##STATUS=The identification of this mineral has been confirmed by X-ray diffraction and chemical analysis
##URL=rruff.info/R060197
##MEASURED CHEMISTRY=(Al_1.97_Mn^3+^_0.03_)_Î£=2_Si_1.00_O_5_
##PIN_ID=M00466
##ORIENTATION=Laser parallel to a* (1 0 0). Fiducial mark perpendicular to laser is parallel to -b [0 -1 0]
91.01200, 9766.000
92.24600, 10358.00
93.48000, 10350.00
94.71400, 10541.00
95.94800, 10805.00
97.18200, 10737.00
98.41600, 10954.00
99.64900, 11199.00
100.8830, 11358.00
102.1160, 11457.00
103.3490, 11641.00
104.5820, 11943.17
105.8150, 12081.00
107.0470, 12750.00
108.2800, 13269.00
109.5120, 13962.00
110.7440, 13647.00
111.9760, 13049.00
113.2080, 12645.00
114.4400, 12878.00
115.6710, 13111.00
116.9030, 13080.00
118.1340, 13004.00
119.3650, 12981.00
120.5960, 12781.00
121.8270, 13017.00
123.0580, 13170.00
124.2880, 13278.00
125.5190, 13191.00
126.7490, 13182.00
127.9790, 13257.00
129.2090, 13330.00
130.4390, 13531.00
131.6680, 13511.00
132.8980, 13593.00
134.1270, 13647.00
135.3560, 13668.00
136.5850, 13890.00
137.8140, 13924.00
139.0430, 14309.00
140.2710, 14556.00
141.5000, 14547.00
142.7280, 14758.00
143.9560, 14725.00
145.1840, 14724.00
146.4120, 14650.00
147.6390, 14577.00
148.8670, 14304.00
150.0940, 14360.00
151.3210, 14171.00
152.5490, 14439.00
153.7750, 14384.00
155.0020, 14254.00
156.2290, 14319.00
157.4550, 14247.00
158.6810, 14187.00
159.9080, 14265.00
161.1340, 14267.00
162.3590, 14231.00
163.5850, 14436.00
164.8110, 14582.00
166.0360, 14773.00
167.2610, 14766.00
168.4860, 14832.00
169.7110, 14837.00
170.9360, 14868.00
172.1610, 14901.00
173.3850, 14828.00
174.6100, 14797.00
175.8340, 14894.00
177.0580, 14809.00
178.2820, 14875.00
179.5050, 14869.00
180.7290, 14913.00
181.9520, 14929.00
183.1760, 15005.15
184.3990, 15044.00
185.6220, 15196.00
186.8450, 15336.00
188.0670, 15474.00
189.2900, 15821.00
190.5120, 15869.00
191.7340, 16123.00
192.9560, 16653.00
194.1780, 16787.00
195.4000, 16705.00
196.6220, 16637.00
197.8430, 16250.00
199.0640, 16428.00
200.2860, 16336.00
201.5070, 16279.00
202.7270, 16363.00
203.9480, 16119.00
205.1690, 15698.00
206.3890, 15176.00
207.6090, 15162.00
208.8290, 15113.00
210.0490, 15098.00
211.2690, 15166.00
212.4890, 15444.00
213.7080, 15446.00
214.9280, 15374.00
216.1470, 15371.00
217.3660, 15341.00
218.5850, 15226.00
219.8030, 15241.00
221.0220, 15315.00
222.2400, 15164.00
223.4590, 15305.00
224.6770, 15254.00
225.8950, 15083.00
227.1120, 15479.00
228.3300, 15333.00
229.5480, 15420.00
230.7650, 15360.00
231.9820, 15502.00
233.1990, 15743.00
234.4160, 15755.00
235.6330, 15827.00
236.8490, 15997.00
238.0660, 16091.11
239.2820, 16353.00
240.4980, 16329.00
241.7140, 16478.00
242.9300, 16450.00
244.1460, 16521.00
245.3610, 16490.00
246.5770, 16496.63
247.7920, 16309.00
249.0070, 16450.00
250.2220, 16330.00
251.4370, 16224.00
252.6510, 16607.00
253.8660, 16584.00
255.0800, 16885.00
256.2940, 16975.00
257.5080, 17159.00
258.7220, 18051.00
259.9360, 19071.00
261.1490, 19262.00
262.3630, 18970.00
263.5760, 18781.00
264.7890, 18487.00
266.0020, 18149.00
267.2150, 18133.00
268.4270, 18099.00
269.6400, 18225.00
270.8520, 18634.00
272.0640, 19185.00
273.2760, 19887.00
274.4880, 20341.00
275.7000, 20702.00
276.9120, 21297.00
278.1230, 21977.00
279.3340, 22964.00
280.5450, 24105.00
281.7560, 25668.00
282.9670, 27247.00
284.1780, 29577.00
285.3880, 31514.00
286.5980, 33948.00
287.8090, 35848.00
289.0190, 36875.00
290.2290, 36886.00
291.4380, 35622.00
292.6480, 33306.00
293.8570, 30837.00
295.0670, 28364.00
296.2760, 25933.00
297.4850, 24395.00
298.6930, 22917.00
299.9020, 22087.00
301.1110, 21022.00
302.3190, 20700.00
303.5270, 20150.00
304.7350, 19997.00
305.9430, 19829.00
307.1510, 19939.00
308.3580, 20150.00
309.5660, 20748.00
310.7730, 21238.00
311.9800, 22109.00
313.1870, 23411.00
314.3940, 24777.00
315.6010, 26426.00
316.8070, 28266.00
318.0130, 29569.00
319.2200, 29777.00
320.4260, 28864.00
321.6310, 27559.00
322.8370, 26068.00
324.0430, 24613.00
325.2480, 23359.00
326.4540, 22438.00
327.6590, 21643.00
328.8640, 21106.00
330.0680, 20722.00
331.2730, 20646.00
332.4780, 20544.00
333.6820, 20195.00
334.8860, 20451.00
336.0900, 20335.00
337.2940, 20359.00
338.4980, 20409.00
339.7010, 20522.00
340.9050, 20805.00
342.1080, 20819.00
343.3110, 20988.00
344.5140, 21314.00
345.7170, 22049.00
346.9200, 22601.00
348.1220, 23200.00
349.3240, 24383.00
350.5270, 25380.00
351.7290, 26655.00
352.9310, 27872.00
354.1320, 29155.00
355.3340, 30095.00
356.5350, 30751.00
357.7370, 30533.00
358.9380, 29826.00
360.1390, 28478.00
361.3400, 27201.00
362.5400, 25649.00
363.7410, 24329.00
364.9410, 23718.00
366.1410, 22648.00
367.3410, 22130.00
368.5410, 21381.00
369.7410, 21111.00
370.9400, 20917.00
372.1400, 20513.00
373.3390, 20355.00
374.5380, 20148.00
375.7370, 20024.00
376.9360, 19942.00
378.1350, 19889.13
379.3330, 19840.00
380.5310, 19878.00
381.7300, 19968.00
382.9280, 19949.00
384.1260, 19958.00
385.3230, 19911.00
386.5210, 19981.00
387.7180, 19933.00
388.9160, 19780.00
390.1130, 20036.00
391.3100, 19930.00
392.5060, 19664.00
393.7030, 19921.00
394.9000, 19602.00
396.0960, 19607.00
397.2920, 19696.00
398.4880, 19558.00
399.6840, 19597.00
400.8800, 19634.00
402.0750, 19536.00
403.2710, 19524.00
404.4660, 19793.00
405.6610, 19799.00
406.8560, 19825.00
408.0510, 19763.00
409.2450, 19824.18
410.4400, 19887.68
411.6340, 19930.00
412.8280, 20061.00
414.0220, 20178.00
415.2160, 20228.00
416.4100, 20518.00
417.6030, 20537.00
418.7970, 20427.00
419.9900, 20524.00
421.1830, 20346.00
422.3760, 20375.00
423.5690, 20204.00
424.7610, 20229.00
425.9540, 20171.00
427.1460, 20166.00
428.3380, 20175.00
429.5300, 20228.00
430.7220, 20125.00
431.9140, 20149.00
433.1050, 20071.00
434.2970, 20046.00
435.4880, 20160.00
436.6790, 20136.66
437.8700, 20161.00
439.0610, 20229.00
440.2510, 20406.00
441.4420, 20464.00
442.6320, 20512.00
443.8220, 20724.00
445.0120, 20771.00
446.2020, 20758.00
447.3910, 20899.00
448.5810, 21094.00
449.7700, 21286.00
450.9600, 21170.00
452.1490, 21022.00
453.3370, 20816.00
454.5260, 20821.02
455.7150, 20893.00
456.9030, 20844.00
458.0910, 20850.00
459.2800, 20945.00
460.4670, 20988.00
461.6550, 21289.00
462.8430, 21097.00
464.0300, 21363.00
465.2180, 21330.00
466.4050, 21541.00
467.5920, 21698.00
468.7790, 21931.00
469.9650, 21884.00
471.1520, 22036.00
472.3380, 22347.00
473.5250, 22257.00
474.7110, 22165.00
475.8970, 22447.00
477.0820, 22420.00
478.2680, 22734.00
479.4540, 22591.00
480.6390, 22395.00
481.8240, 22668.00
483.0090, 22337.00
484.1940, 22248.00
485.3780, 22078.00
486.5630, 21867.00
487.7470, 21647.00
488.9320, 21598.94
490.1160, 21733.00
491.3000, 21495.00
492.4830, 21526.00
493.6670, 21448.04
494.8500, 21411.00
496.0340, 21441.00
497.2170, 21511.00
498.4000, 21515.00
499.5820, 21574.49
500.7650, 21573.00
501.9480, 21655.00
503.1300, 21678.00
504.3120, 21687.00
505.4940, 21796.00
506.6760, 21673.00
507.8580, 22050.00
509.0390, 22261.00
510.2210, 22156.00
511.4020, 22318.00
512.5830, 22328.00
513.7640, 22348.00
514.9450, 22225.00
516.1250, 22295.00
517.3060, 22160.00
518.4860, 22184.00
519.6660, 22333.00
520.8460, 22124.00
522.0260, 22096.00
523.2060, 22186.00
524.3850, 22286.00
525.5650, 22196.00
526.7440, 22287.00
527.9230, 22248.00
529.1020, 22246.00
530.2810, 22148.00
531.4590, 22337.00
532.6380, 22246.00
533.8160, 22356.00
534.9940, 22435.00
536.1720, 22623.00
537.3500, 22698.00
538.5270, 23038.00
539.7050, 23241.00
540.8820, 23355.00
542.0590, 23598.00
543.2360, 24265.00
544.4130, 24804.00
545.5900, 25102.00
546.7660, 25533.00
547.9430, 25875.00
549.1190, 25978.00
550.2950, 25788.00
551.4710, 25452.00
552.6470, 25113.00
553.8220, 24927.00
554.9980, 24189.00
556.1730, 23906.00
557.3480, 23703.00
558.5230, 23527.00
559.6980, 23405.00
560.8730, 23424.00
562.0470, 23387.00
563.2220, 23462.00
564.3960, 23578.00
565.5700, 23819.00
566.7440, 23911.00
567.9170, 24097.00
569.0910, 24168.00
570.2640, 24156.00
571.4380, 24135.00
572.6110, 24074.00
573.7840, 23957.00
574.9570, 23866.00
576.1290, 23776.00
577.3020, 23699.83
578.4740, 23653.39
579.6460, 23594.00
580.8180, 23601.00
581.9900, 23607.00
583.1620, 23624.00
584.3330, 23718.00
585.5040, 23784.00
586.6760, 23803.00
587.8470, 23827.00
589.0180, 24009.00
590.1880, 23963.00
591.3590, 23777.00
592.5290, 23860.00
593.7000, 23934.00
594.8700, 24044.00
596.0400, 24330.00
597.2090, 24223.00
598.3790, 24293.00
599.5490, 24175.00
600.7180, 24210.00
601.8870, 24397.00
603.0560, 24134.00
604.2250, 24339.00
605.3940, 24186.00
606.5620, 24150.00
607.7300, 24231.00
608.8990, 24226.00
610.0670, 24036.00
611.2350, 23931.00
612.4020, 24166.00
613.5700, 24158.00
614.7370, 24062.24
615.9050, 24334.31
617.0720, 24457.30
618.2390, 24439.16
619.4060, 23857.17
620.5720, 24003.33
621.7390, 23857.64
622.9050, 23960.00
624.0710, 23982.00
625.2370, 23922.00
626.4030, 23861.00
627.5690, 23886.83
628.7340, 23773.00
629.9000, 23907.00
631.0650, 24050.00
632.2300, 24076.00
633.3950, 24005.00
634.5600, 24003.00
635.7240, 23991.00
636.8890, 23999.00
638.0530, 24054.98
639.2170, 24192.00
640.3810, 24209.00
641.5450, 24316.00
642.7080, 24432.00
643.8720, 24431.00
645.0350, 24408.00
646.1980, 24381.05
647.3610, 24474.00
648.5240, 24243.00
649.6870, 24288.00
650.8490, 24265.00
652.0120, 24333.00
653.1740, 24410.00
654.3360, 24527.00
655.4980, 24529.00
656.6600, 24550.00
657.8210, 24741.00
658.9830, 24859.00
660.1440, 24966.00
661.3050, 25080.00
662.4660, 25068.00
663.6270, 24831.00
664.7870, 24951.00
665.9480, 24965.00
667.1080, 24968.00
668.2680, 24989.00
669.4280, 25015.00
670.5880, 25150.00
671.7480, 25249.00
672.9070, 25256.00
674.0670, 25167.00
675.2260, 25499.00
676.3850, 25475.00
677.5440, 25920.00
678.7030, 25676.00
679.8610, 25745.00
681.0200, 25771.00
682.1780, 25898.00
683.3360, 25921.00
684.4940, 26017.74
685.6520, 26004.00
686.8090, 26173.00
687.9670, 26181.00
689.1240, 26207.00
690.2810, 26409.00
691.4380, 26513.00
692.5950, 26463.00
693.7520, 26545.00
694.9080, 26709.00
696.0650, 26649.00
697.2210, 26786.00
698.3770, 27047.00
699.5330, 27137.16
700.6880, 27516.00
701.8440, 27594.00
702.9990, 27810.77
704.1550, 27745.00
705.3100, 28090.00
706.4650, 28228.00
707.6190, 28186.00
708.7740, 28084.00
709.9290, 28073.00
711.0830, 28022.00
712.2370, 27730.00
713.3910, 27749.00
714.5450, 27502.00
715.6980, 27329.00
716.8520, 27303.00
718.0050, 27058.00
719.1580, 26643.00
720.3110, 26430.00
721.4640, 26180.00
722.6170, 26051.00
723.7700, 25890.00
724.9220, 25718.00
726.0740, 25774.00
727.2260, 25765.00
728.3780, 25460.00
729.5300, 25633.00
730.6810, 25449.00
731.8330, 25377.00
732.9840, 25732.00
734.1350, 25643.00
735.2860, 25688.00
736.4370, 25658.00
737.5880, 26034.00
738.7380, 26007.00
739.8880, 25993.00
741.0390, 26216.00
742.1890, 26229.00
743.3380, 26481.00
744.4880, 26335.00
745.6380, 26546.00
746.7870, 26412.00
747.9360, 26623.00
749.0850, 26732.00
750.2340, 26613.00
751.3830, 26745.00
752.5310, 26712.00
753.6800, 26664.59
754.8280, 26627.00
755.9760, 26569.00
757.1240, 26700.00
758.2720, 26666.00
759.4190, 26849.00
760.5670, 26776.00
761.7140, 26757.00
762.8610, 26788.04
764.0080, 26758.00
765.1550, 26770.00
766.3020, 26632.00
767.4480, 26665.00
768.5950, 26680.00
769.7410, 26753.00
770.8870, 26786.18
772.0330, 26854.75
773.1780, 26903.00
774.3240, 27009.00
775.4690, 27104.00
776.6140, 27202.29
777.7590, 27485.00
778.9040, 27500.00
780.0490, 27745.00
781.1940, 27925.00
782.3380, 28006.00
783.4820, 28521.00
784.6260, 28630.00
785.7700, 29270.00
786.9140, 29526.50
788.0580, 29996.00
789.2010, 30026.00
790.3450, 30328.00
791.4880, 30204.00
792.6310, 29980.00
793.7730, 29802.00
794.9160, 29576.57
796.0590, 29362.14
797.2010, 29046.00
798.3430, 28904.00
799.4850, 28547.00
800.6270, 28273.00
801.7690, 28330.00
802.9100, 27996.00
804.0520, 27985.00
805.1930, 27877.00
806.3340, 27606.00
807.4750, 27531.00
808.6160, 27321.00
809.7560, 27649.00
810.8970, 27396.00
812.0370, 27510.00
813.1770, 27484.00
814.3170, 27352.00
815.4570, 27329.00
816.5960, 27246.00
817.7360, 27416.00
818.8750, 27269.00
820.0140, 27339.00
821.1530, 27306.00
822.2920, 27157.00
823.4310, 27108.00
824.5690, 27325.00
825.7070, 27413.00
826.8460, 27181.00
827.9840, 27567.00
829.1220, 27355.00
830.2590, 27535.00
831.3970, 27212.00
832.5340, 27431.00
833.6710, 27580.00
834.8080, 27547.00
835.9450, 27438.00
837.0820, 27481.00
838.2190, 27410.00
839.3550, 27513.00
840.4910, 27483.00
841.6270, 27487.00
842.7630, 27386.00
843.8990, 27434.68
845.0350, 27587.00
846.1700, 27478.00
847.3060, 27581.95
848.4410, 27588.00
849.5760, 27628.00
850.7100, 27611.00
851.8450, 27739.00
852.9800, 27774.14
854.1140, 27830.00
855.2480, 27938.00
856.3820, 28031.00
857.5160, 28138.00
858.6500, 28330.00
859.7830, 28104.00
860.9170, 28021.00
862.0500, 28316.00
863.1830, 28425.00
864.3160, 28455.00
865.4480, 28535.00
866.5810, 28628.00
867.7130, 28669.00
868.8460, 28764.00
869.9780, 28800.00
871.1100, 28862.00
872.2410, 28884.00
873.3730, 28856.00
874.5050, 28867.00
875.6360, 28893.31
876.7670, 29031.00
877.8980, 28967.00
879.0290, 28915.00
880.1590, 28970.00
881.2900, 28855.00
882.4200, 28933.00
883.5500, 28982.00
884.6800, 28927.00
885.8100, 29133.00
886.9400, 29110.00
888.0690, 29149.00
889.1990, 29275.00
890.3280, 29417.00
891.4570, 29417.00
892.5860, 29560.00
893.7140, 29546.00
894.8430, 29595.00
895.9710, 29793.00
897.1000, 30022.00
898.2280, 30143.00
899.3560, 30485.00
900.4830, 30643.00
901.6110, 30781.00
902.7380, 31241.00
903.8660, 31510.00
904.9930, 32296.00
906.1200, 32806.00
907.2460, 33945.00
908.3730, 35288.00
909.5000, 36602.00
910.6260, 38685.00
911.7520, 41301.00
912.8780, 44628.00
914.0040, 47839.00
915.1290, 52063.00
916.2550, 55296.00
917.3800, 57786.00
918.5050, 57497.00
919.6300, 55524.00
920.7550, 52634.00
921.8800, 49568.00
923.0040, 46776.00
924.1290, 44350.00
925.2530, 42632.00
926.3770, 41254.00
927.5010, 39955.00
928.6250, 39061.00
929.7480, 38150.00
930.8720, 37354.00
931.9950, 36195.00
933.1180, 35647.00
934.2410, 35133.00
935.3640, 34504.00
936.4860, 34438.00
937.6090, 34058.00
938.7310, 34161.00
939.8530, 34049.00
940.9750, 34352.00
942.0970, 34690.00
943.2180, 34870.00
944.3400, 35625.00
945.4610, 36220.00
946.5820, 36702.00
947.7030, 36990.00
948.8240, 37133.00
949.9450, 37268.00
951.0650, 36887.00
952.1860, 36546.00
953.3060, 35751.00
954.4260, 35378.00
955.5460, 35361.00
956.6650, 34858.00
957.7850, 33679.00
958.9040, 33068.00
960.0230, 32966.00
961.1420, 32874.00
962.2610, 32765.00
963.3800, 32499.00
964.4990, 32381.00
965.6170, 32433.00
966.7350, 32517.00
967.8530, 32598.00
968.9710, 32346.00
970.0890, 32556.00
971.2070, 32102.00
972.3240, 32287.00
973.4410, 32020.00
974.5580, 31941.00
975.6750, 32134.00
976.7920, 32049.00
977.9090, 31971.27
979.0250, 31857.00
980.1410, 31726.00
981.2580, 31637.00
982.3740, 31524.00
983.4890, 31730.00
984.6050, 31484.00
985.7200, 31581.00
986.8360, 31331.00
987.9510, 31501.00
989.0660, 31657.00
990.1810, 31646.00
991.2950, 31419.00
992.4100, 31424.00
993.5240, 31580.00
994.6390, 31425.00
995.7530, 31448.00
996.8660, 31524.00
997.9800, 31624.00
999.0940, 31679.35
1000.207, 31591.00
1001.320, 31768.00
1002.433, 31936.00
1003.546, 31838.00
1004.659, 32188.00
1005.772, 32131.00
1006.884, 32201.00
1007.996, 32562.00
1009.108, 32938.00
1010.220, 33029.00
1011.332, 33211.00
1012.444, 33891.00
1013.555, 34013.00
1014.666, 34355.00
1015.777, 34760.00
1016.888, 34812.00
1017.999, 35092.00
1019.110, 34840.00
1020.220, 34966.00
1021.331, 34669.00
1022.441, 34661.00
1023.551, 34189.00
1024.661, 33892.00
1025.770, 33741.00
1026.880, 33385.00
1027.989, 33525.00
1029.098, 33670.00
1030.207, 33498.00
1031.316, 33263.00
1032.425, 33194.00
1033.533, 33055.00
1034.642, 33004.00
1035.750, 32976.00
1036.858, 33024.00
1037.966, 33159.00
1039.073, 33145.00
1040.181, 33228.00
1041.288, 33046.00
1042.396, 33163.00
1043.503, 33523.00
1044.610, 33101.00
1045.716, 33256.00
1046.823, 33513.00
1047.929, 33467.00
1049.036, 33845.00
1050.142, 33766.00
1051.248, 33917.00
1052.353, 34186.00
1053.459, 34207.00
1054.564, 34833.00
1055.670, 35442.00
1056.775, 35838.00
1057.880, 36298.00
1058.985, 36898.00
1060.089, 37341.00
1061.194, 36889.00
1062.298, 37042.00
1063.402, 36466.00
1064.506, 36271.00
1065.610, 35722.00
1066.713, 35394.00
1067.817, 35210.00
1068.920, 34674.00
1070.023, 34746.00
1071.126, 34582.00
1072.229, 34748.00
1073.332, 34467.00
1074.435, 34323.00
1075.537, 34634.00
1076.639, 34410.00
1077.741, 34477.00
1078.843, 34389.00
1079.945, 34556.00
1081.046, 34636.00
1082.148, 34478.00
1083.249, 34564.00
1084.350, 34465.00
1085.451, 34678.00
1086.551, 34819.00
1087.652, 34854.00
1088.752, 34652.00
1089.853, 34890.00
1090.953, 34468.00
1092.053, 34607.00
1093.152, 34926.00
1094.252, 34789.00
1095.351, 34856.00
1096.451, 34791.00
1097.550, 34981.00
1098.649, 35201.00
1099.748, 35230.00
1100.846, 35394.00
1101.945, 35673.00
1103.043, 35519.00
1104.141, 35812.00
1105.239, 35849.27
1106.337, 35825.00
1107.434, 35955.00
1108.532, 36042.00
1109.629, 35968.00
1110.726, 35548.00
1111.823, 35699.00
1112.920, 35329.00
1114.017, 35272.00
1115.113, 35178.00
1116.210, 35317.00
1117.306, 35174.00
1118.402, 35411.00
1119.498, 35303.00
1120.593, 35340.00
1121.689, 35393.00
1122.784, 35552.00
1123.879, 35310.00
1124.974, 35402.00
1126.069, 35288.00
1127.164, 35413.00
1128.259, 35331.00
1129.353, 35074.00
1130.447, 35240.00
1131.541, 34930.00
1132.635, 34804.00
1133.729, 34896.00
1134.822, 34817.00
1135.916, 34844.87
1137.009, 34904.00
1138.102, 34944.00
1139.195, 34926.00
1140.288, 35059.00
1141.380, 34966.00
1142.473, 35017.00
1143.565, 35138.00
1144.657, 34876.00
1145.749, 34975.12
1146.841, 35132.00
1147.932, 34940.00
1149.024, 34970.00
1150.115, 34976.00
1151.206, 35023.00
1152.297, 35110.00
1153.388, 35065.00
1154.479, 35262.00
1155.569, 35193.00
1156.659, 35105.00
1157.750, 35197.00
1158.839, 35131.00
1159.929, 35372.00
1161.019, 35264.00
1162.108, 35357.00
1163.198, 35160.00
1164.287, 35550.00
1165.376, 35501.00
1166.465, 35415.00
1167.553, 35658.00
1168.642, 35361.00
1169.730, 35537.00
1170.818, 35467.00
1171.906, 35561.00
1172.994, 35529.00
1174.082, 35619.00
1175.170, 35767.00
1176.257, 35508.00
1177.344, 35916.00
1178.431, 35903.00
1179.518, 36115.00
1180.605, 35857.00
1181.691, 35844.00
1182.778, 35968.00
1183.864, 36149.00
1184.950, 36269.00
1186.036, 36205.00
1187.122, 36293.51
1188.207, 36049.00
1189.292, 36278.00
1190.378, 36207.00
1191.463, 36177.00
1192.548, 36397.00
1193.632, 36381.00
1194.717, 36374.00
1195.801, 36588.00
1196.886, 36579.00
1197.970, 36378.00
1199.054, 36880.00
1200.137, 36649.00
1201.221, 36678.00
1202.305, 36840.00
1203.388, 36558.00
1204.471, 36769.00
1205.554, 37118.00
1206.637, 36810.00
1207.719, 36962.00
1208.802, 36955.00
1209.884, 37082.00
1210.966, 37106.00
1212.048, 37362.00
1213.130, 37401.00
1214.212, 37282.00
1215.293, 37543.00
1216.374, 37500.00
1217.456, 37714.00
1218.536, 37816.00
1219.617, 38017.00
1220.698, 38434.00
1221.778, 38360.00
1222.859, 39000.00
1223.939, 39138.00
1225.019, 39255.00
1226.099, 39580.00
1227.178, 39744.00
1228.258, 39902.00
1229.337, 40405.00
1230.417, 40700.00
1231.496, 40608.00
1232.574, 40693.00
1233.653, 41124.00
1234.732, 41142.00
1235.810, 41319.00
1236.888, 41451.00
1237.966, 41432.00
1239.044, 41749.00
1240.122, 41812.00
1241.199, 42286.00
1242.277, 42382.00
1243.354, 42833.00
1244.431, 42797.00
1245.508, 42984.00
1246.585, 43122.00
1247.661, 43140.00
1248.738, 43380.00
1249.814, 43363.00
1250.890, 43573.00
1251.966, 43582.00
1253.042, 43226.00
1254.117, 43273.00
1255.193, 43101.00
1256.268, 43070.00
1257.343, 43064.00
1258.418, 42957.00
1259.493, 42928.00
1260.567, 42873.00
1261.642, 42734.71
1262.716, 42650.00
1263.790, 42432.00
1264.864, 42264.00
1265.938, 42043.00
1267.011, 42061.00
1268.085, 41880.00
1269.158, 41830.00
1270.231, 41684.00
1271.304, 41510.00
1272.377, 41179.00
1273.450, 41338.00
1274.522, 40850.00
