##NAMES=Andalusite
##RRUFFID=R050258
##IDEAL CHEMISTRY=Al_2_SiO_5_
##LOCALITY=Bautista Canyon, near Hemet, Riverside County, California, USA
##OWNER=RRUFF
##SOURCE=Marcus Origlieri
##DESCRIPTION=Brown fragment
##STATUS=The identification of this mineral has been confirmed by X-ray diffraction and chemical analysis
##URL=rruff.info/R050258
##MEASURED CHEMISTRY=Al_2.00_Si_1.00_O_5_
##PIN_ID=M00208
##ORIENTATION=Laser parallel to -c* (0 0 -1). Fiducial mark perpendicular to laser is parallel to a [1 0 0]
99.64900, 8956.000
100.8830, 9024.000
102.1160, 9182.000
103.3490, 9097.000
104.5820, 9204.000
105.8150, 9457.000
107.0470, 9584.000
108.2800, 9835.000
109.5120, 9813.433
110.7440, 10236.00
111.9760, 9787.000
113.2080, 9710.000
114.4400, 9793.000
115.6710, 10111.00
116.9030, 9953.000
118.1340, 10029.00
119.3650, 10148.00
120.5960, 10074.00
121.8270, 10140.00
123.0580, 10239.00
124.2880, 10262.00
125.5190, 10285.00
126.7490, 10348.00
127.9790, 10329.00
129.2090, 10257.00
130.4390, 10426.00
131.6680, 10564.00
132.8980, 10642.00
134.1270, 10611.00
135.3560, 10694.00
136.5850, 10738.00
137.8140, 10763.41
139.0430, 10827.42
140.2710, 10846.00
141.5000, 10881.00
142.7280, 10920.00
143.9560, 10861.00
145.1840, 10948.00
146.4120, 10828.00
147.6390, 10873.00
148.8670, 10899.00
150.0940, 10924.00
151.3210, 10959.38
152.5490, 10974.53
153.7750, 11033.00
155.0020, 11021.00
156.2290, 11084.00
157.4550, 11136.00
158.6810, 11075.00
159.9080, 11138.00
161.1340, 11150.00
162.3590, 11282.00
163.5850, 11354.00
164.8110, 11417.00
166.0360, 11618.00
167.2610, 11579.00
168.4860, 11465.00
169.7110, 11668.00
170.9360, 11674.00
172.1610, 11505.00
173.3850, 11593.00
174.6100, 11476.00
175.8340, 11492.00
177.0580, 11592.00
178.2820, 11561.00
179.5050, 11801.00
180.7290, 11638.00
181.9520, 11725.00
183.1760, 12006.00
184.3990, 11917.00
185.6220, 12133.00
186.8450, 12275.00
188.0670, 12455.00
189.2900, 12502.83
190.5120, 12570.44
191.7340, 12531.00
192.9560, 12616.00
194.1780, 12587.00
195.4000, 12630.00
196.6220, 12538.00
197.8430, 12669.00
199.0640, 12598.00
200.2860, 12662.00
201.5070, 12654.00
202.7270, 12647.38
203.9480, 12783.00
205.1690, 12646.00
206.3890, 12348.00
207.6090, 12307.00
208.8290, 12342.00
210.0490, 12235.00
211.2690, 12196.00
212.4890, 12282.00
213.7080, 12229.00
214.9280, 12076.00
216.1470, 12158.00
217.3660, 12199.00
218.5850, 12223.00
219.8030, 12340.00
221.0220, 12326.00
222.2400, 12391.64
223.4590, 12413.00
224.6770, 12458.00
225.8950, 12454.00
227.1120, 12447.00
228.3300, 12544.00
229.5480, 12603.00
230.7650, 12798.00
231.9820, 12988.00
233.1990, 12986.00
234.4160, 13299.00
235.6330, 13486.00
236.8490, 13829.00
238.0660, 14242.00
239.2820, 14480.00
240.4980, 14502.00
241.7140, 14413.00
242.9300, 14296.00
244.1460, 14078.00
245.3610, 14038.00
246.5770, 13936.00
247.7920, 13690.00
249.0070, 13664.00
250.2220, 13681.00
251.4370, 13653.00
252.6510, 13631.00
253.8660, 13719.00
255.0800, 13517.00
256.2940, 13713.00
257.5080, 13714.00
258.7220, 13679.00
259.9360, 13955.00
261.1490, 14062.00
262.3630, 13869.00
263.5760, 14042.00
264.7890, 14051.00
266.0020, 14177.00
267.2150, 14216.00
268.4270, 14403.80
269.6400, 14760.00
270.8520, 14908.00
272.0640, 15302.00
273.2760, 15783.00
274.4880, 16242.00
275.7000, 16663.00
276.9120, 17204.00
278.1230, 17991.00
279.3340, 18972.00
280.5450, 20234.00
281.7560, 22095.00
282.9670, 24269.86
284.1780, 27289.00
285.3880, 29915.00
286.5980, 33490.00
287.8090, 37323.00
289.0190, 41317.00
290.2290, 44126.00
291.4380, 44263.00
292.6480, 41254.00
293.8570, 36948.00
295.0670, 32010.00
296.2760, 27960.00
297.4850, 24002.00
298.6930, 21124.00
299.9020, 19315.00
301.1110, 18054.00
302.3190, 16961.00
303.5270, 16487.00
304.7350, 15972.00
305.9430, 15806.00
307.1510, 15774.00
308.3580, 15897.00
309.5660, 16503.00
310.7730, 17249.00
311.9800, 18183.00
313.1870, 19665.00
314.3940, 21337.00
315.6010, 23369.00
316.8070, 26030.00
318.0130, 29196.00
319.2200, 32012.00
320.4260, 32830.00
321.6310, 31075.00
322.8370, 28597.00
324.0430, 25648.00
325.2480, 23004.00
326.4540, 20678.00
327.6590, 19168.00
328.8640, 18391.00
330.0680, 17602.00
331.2730, 17315.00
332.4780, 17027.00
333.6820, 16861.00
334.8860, 16821.00
336.0900, 16710.00
337.2940, 16460.00
338.4980, 16574.00
339.7010, 16616.00
340.9050, 16510.00
342.1080, 16654.00
343.3110, 16860.00
344.5140, 17043.00
345.7170, 17494.00
346.9200, 17998.00
348.1220, 19287.00
349.3240, 20665.00
350.5270, 22326.00
351.7290, 24271.00
352.9310, 26658.00
354.1320, 29635.00
355.3340, 32290.00
356.5350, 34419.00
357.7370, 35101.00
358.9380, 34683.00
360.1390, 32680.00
361.3400, 30225.00
362.5400, 27559.00
363.7410, 25003.00
364.9410, 23033.00
366.1410, 21636.00
367.3410, 20320.00
368.5410, 19545.00
369.7410, 18793.00
370.9400, 18300.00
372.1400, 17796.00
373.3390, 17557.00
374.5380, 17237.00
375.7370, 16966.00
376.9360, 16813.00
378.1350, 16778.00
379.3330, 16589.00
380.5310, 16499.00
381.7300, 16713.00
382.9280, 16543.00
384.1260, 16591.00
385.3230, 16503.00
386.5210, 16441.00
387.7180, 16506.00
388.9160, 16519.00
390.1130, 16736.00
391.3100, 16734.00
392.5060, 16717.00
393.7030, 16571.00
394.9000, 16283.00
396.0960, 16258.00
397.2920, 16125.00
398.4880, 16125.00
399.6840, 16065.00
400.8800, 16137.00
402.0750, 16046.00
403.2710, 16270.00
404.4660, 16155.00
405.6610, 16078.00
406.8560, 16343.00
408.0510, 16392.00
409.2450, 16310.00
410.4400, 16397.00
411.6340, 16666.00
412.8280, 16564.00
414.0220, 16893.00
415.2160, 16987.00
416.4100, 17105.00
417.6030, 17092.00
418.7970, 16931.00
419.9900, 16966.00
421.1830, 16793.00
422.3760, 16591.00
423.5690, 16528.00
424.7610, 16237.00
425.9540, 16183.00
427.1460, 16256.00
428.3380, 16100.00
429.5300, 16321.00
430.7220, 16281.00
431.9140, 16197.00
433.1050, 16261.00
434.2970, 16146.00
435.4880, 16235.00
436.6790, 16261.00
437.8700, 16178.00
439.0610, 16380.00
440.2510, 16295.00
441.4420, 16562.00
442.6320, 16711.00
443.8220, 16891.00
445.0120, 17041.00
446.2020, 17048.00
447.3910, 17361.00
448.5810, 17916.00
449.7700, 18280.00
450.9600, 18370.00
452.1490, 18380.00
453.3370, 17793.00
454.5260, 17078.00
455.7150, 16958.00
456.9030, 16739.00
458.0910, 16677.00
459.2800, 16627.00
460.4670, 16469.00
461.6550, 16607.00
462.8430, 16558.00
464.0300, 16432.00
465.2180, 16375.00
466.4050, 16570.00
467.5920, 16392.00
468.7790, 16710.00
469.9650, 16559.00
471.1520, 16685.00
472.3380, 16795.00
473.5250, 16867.00
474.7110, 16844.00
475.8970, 17057.00
477.0820, 16860.00
478.2680, 17007.00
479.4540, 17079.00
480.6390, 17291.00
481.8240, 17345.00
483.0090, 17301.00
484.1940, 17249.00
485.3780, 17234.00
486.5630, 17150.00
487.7470, 17005.00
488.9320, 16974.00
490.1160, 16874.00
491.3000, 17178.00
492.4830, 16983.00
493.6670, 17063.00
494.8500, 17088.00
496.0340, 17036.00
497.2170, 17182.00
498.4000, 17184.00
499.5820, 17168.00
500.7650, 17356.00
501.9480, 17209.00
503.1300, 17244.00
504.3120, 17523.00
505.4940, 17521.00
506.6760, 17609.00
507.8580, 17747.00
509.0390, 17737.00
510.2210, 17750.00
511.4020, 17754.00
512.5830, 17950.00
513.7640, 17859.00
514.9450, 17925.00
516.1250, 17912.00
517.3060, 17902.00
518.4860, 17744.00
519.6660, 17866.00
520.8460, 17973.00
522.0260, 17980.00
523.2060, 18229.00
524.3850, 18047.00
525.5650, 18106.00
526.7440, 18007.00
527.9230, 18189.00
529.1020, 18259.00
530.2810, 18271.00
531.4590, 18474.00
532.6380, 18552.00
533.8160, 18669.00
534.9940, 18875.00
536.1720, 18945.00
537.3500, 19097.00
538.5270, 19244.00
539.7050, 19537.00
540.8820, 20003.00
542.0590, 20050.00
543.2360, 20739.00
544.4130, 20958.00
545.5900, 21738.00
546.7660, 22108.00
547.9430, 22535.00
549.1190, 22854.00
550.2950, 23243.00
551.4710, 23093.00
552.6470, 22709.00
553.8220, 22549.00
554.9980, 21917.00
556.1730, 21544.00
557.3480, 20999.00
558.5230, 20777.00
559.6980, 20417.00
560.8730, 20228.17
562.0470, 20403.00
563.2220, 20084.00
564.3960, 20199.00
565.5700, 20387.00
566.7440, 20269.00
567.9170, 20481.00
569.0910, 20480.00
570.2640, 20715.00
571.4380, 20647.00
572.6110, 20645.00
573.7840, 20470.00
574.9570, 20296.00
576.1290, 20064.00
577.3020, 19947.97
578.4740, 19928.00
579.6460, 19762.00
580.8180, 19588.00
581.9900, 19649.00
583.1620, 19516.91
584.3330, 19497.00
585.5040, 19447.00
586.6760, 19413.00
587.8470, 19411.00
589.0180, 19372.00
590.1880, 19479.00
591.3590, 19310.00
592.5290, 19330.00
593.7000, 19319.00
594.8700, 19482.00
596.0400, 19424.00
597.2090, 19482.00
598.3790, 19504.00
599.5490, 19461.00
600.7180, 19553.00
601.8870, 19623.70
603.0560, 19626.00
604.2250, 19832.00
605.3940, 19927.00
606.5620, 19990.00
607.7300, 19993.00
608.8990, 20174.00
610.0670, 20083.00
611.2350, 20284.00
612.4020, 20228.00
613.5700, 20239.00
614.7370, 20302.00
615.9050, 20207.00
617.0720, 20560.00
618.2390, 20721.00
619.4060, 20404.00
620.5720, 20716.00
621.7390, 20631.00
622.9050, 20873.00
624.0710, 20921.00
625.2370, 21066.00
626.4030, 21074.00
627.5690, 21257.00
628.7340, 21420.00
629.9000, 21306.00
631.0650, 21144.00
632.2300, 20963.00
633.3950, 21063.00
634.5600, 20978.00
635.7240, 20831.00
636.8890, 20916.00
638.0530, 20991.00
639.2170, 20853.00
640.3810, 20888.00
641.5450, 20987.00
642.7080, 20854.00
643.8720, 21029.00
645.0350, 21073.00
646.1980, 20777.00
647.3610, 20860.00
648.5240, 20910.00
649.6870, 20867.00
650.8490, 20728.00
652.0120, 20403.00
653.1740, 20489.00
654.3360, 20427.00
655.4980, 20157.00
656.6600, 20238.00
657.8210, 20163.00
658.9830, 20319.00
660.1440, 20327.00
661.3050, 20129.00
662.4660, 20080.00
663.6270, 19985.00
664.7870, 19978.00
665.9480, 19790.00
667.1080, 19865.00
668.2680, 19672.00
669.4280, 19779.00
670.5880, 19668.00
671.7480, 19560.00
672.9070, 19751.00
674.0670, 19692.00
675.2260, 19653.00
676.3850, 19720.00
677.5440, 19633.00
678.7030, 19426.00
679.8610, 19804.00
681.0200, 19587.00
682.1780, 19674.00
683.3360, 19793.00
684.4940, 19821.00
685.6520, 19878.00
686.8090, 19610.00
687.9670, 19886.00
689.1240, 19792.00
690.2810, 19717.00
691.4380, 19851.00
692.5950, 19817.00
693.7520, 19849.00
694.9080, 19993.00
696.0650, 20163.00
697.2210, 20181.00
698.3770, 20260.00
699.5330, 20173.00
700.6880, 20295.00
701.8440, 20347.00
702.9990, 20303.00
704.1550, 20467.00
705.3100, 20494.00
706.4650, 20644.00
707.6190, 20713.00
708.7740, 20850.00
709.9290, 21011.00
711.0830, 21176.00
712.2370, 21389.27
713.3910, 21564.00
714.5450, 21813.00
715.6980, 21985.00
716.8520, 22117.00
718.0050, 22051.00
719.1580, 21711.00
720.3110, 21652.00
721.4640, 21300.00
722.6170, 21222.00
723.7700, 20929.00
724.9220, 21034.00
726.0740, 20796.00
727.2260, 20709.00
728.3780, 20646.00
729.5300, 20663.00
730.6810, 20568.00
731.8330, 20646.00
732.9840, 20829.00
734.1350, 20592.00
735.2860, 20789.00
736.4370, 20805.00
737.5880, 20710.00
738.7380, 20664.00
739.8880, 20663.00
741.0390, 20598.99
742.1890, 20619.23
743.3380, 20556.00
744.4880, 20641.00
745.6380, 20680.00
746.7870, 20677.00
747.9360, 20756.00
749.0850, 20637.00
750.2340, 20690.00
751.3830, 20767.00
752.5310, 20703.00
753.6800, 20873.00
754.8280, 20793.00
755.9760, 20962.00
757.1240, 20857.00
758.2720, 20812.00
759.4190, 20731.00
760.5670, 20795.00
761.7140, 20792.54
762.8610, 20768.00
764.0080, 20895.00
765.1550, 20990.00
766.3020, 21054.00
767.4480, 21036.00
768.5950, 20962.00
769.7410, 21065.00
770.8870, 21047.00
772.0330, 20764.00
773.1780, 21024.00
774.3240, 21117.00
775.4690, 20968.00
776.6140, 21282.00
777.7590, 21397.00
778.9040, 21079.00
780.0490, 21334.00
781.1940, 21510.00
782.3380, 21265.00
783.4820, 21455.00
784.6260, 21535.00
785.7700, 21613.00
786.9140, 21608.00
788.0580, 21662.47
789.2010, 21743.00
790.3450, 21726.00
791.4880, 21620.00
792.6310, 21691.00
793.7730, 21862.00
794.9160, 21898.00
796.0590, 21773.00
797.2010, 22126.00
798.3430, 22110.00
799.4850, 22400.00
800.6270, 22118.00
801.7690, 22358.00
802.9100, 22482.00
804.0520, 22665.00
805.1930, 22743.00
806.3340, 22865.00
807.4750, 22907.00
808.6160, 23120.00
809.7560, 23125.00
810.8970, 23293.01
812.0370, 23593.00
813.1770, 23610.00
814.3170, 23828.00
815.4570, 24062.00
816.5960, 24315.00
817.7360, 24439.00
818.8750, 24362.00
820.0140, 24351.00
821.1530, 24406.00
822.2920, 24447.00
823.4310, 24353.00
824.5690, 24209.00
825.7070, 24035.19
826.8460, 23990.00
827.9840, 23624.00
829.1220, 23383.00
830.2590, 23357.00
831.3970, 23134.00
832.5340, 22972.00
833.6710, 23119.00
834.8080, 22945.00
835.9450, 23112.00
837.0820, 22885.00
838.2190, 22766.00
839.3550, 22723.00
840.4910, 22991.00
841.6270, 22508.00
842.7630, 22849.00
843.8990, 22655.00
845.0350, 22595.00
846.1700, 22467.00
847.3060, 22377.00
848.4410, 22331.00
849.5760, 22533.00
850.7100, 22283.00
851.8450, 22245.00
852.9800, 22478.00
854.1140, 22334.00
855.2480, 22374.00
856.3820, 22500.00
857.5160, 22512.00
858.6500, 22566.50
859.7830, 22499.00
860.9170, 22629.00
862.0500, 22634.00
863.1830, 22660.00
864.3160, 22804.00
865.4480, 22702.00
866.5810, 22862.00
867.7130, 22812.00
868.8460, 22867.00
869.9780, 22801.00
871.1100, 22720.00
872.2410, 22845.00
873.3730, 23044.00
874.5050, 23104.00
875.6360, 23041.00
876.7670, 23120.00
877.8980, 23137.00
879.0290, 22929.00
880.1590, 23310.00
881.2900, 23292.00
882.4200, 23193.00
883.5500, 23459.00
884.6800, 23486.00
885.8100, 23535.00
886.9400, 23512.00
888.0690, 23435.00
889.1990, 23834.00
890.3280, 23860.00
891.4570, 24149.00
892.5860, 24088.00
893.7140, 24270.00
894.8430, 24639.00
895.9710, 24462.00
897.1000, 24890.00
898.2280, 24989.00
899.3560, 25298.00
900.4830, 25941.00
901.6110, 26126.00
902.7380, 26568.00
903.8660, 26878.00
904.9930, 27398.00
906.1200, 28047.00
907.2460, 28870.00
908.3730, 30237.00
909.5000, 31872.00
910.6260, 33895.00
911.7520, 36937.00
912.8780, 40222.00
914.0040, 44441.00
915.1290, 49837.00
916.2550, 55079.00
917.3800, 59850.00
918.5050, 61414.00
919.6300, 60577.00
920.7550, 56178.00
921.8800, 50884.00
923.0040, 45937.00
924.1290, 42022.00
925.2530, 39247.00
926.3770, 37158.00
927.5010, 35485.00
928.6250, 34479.00
929.7480, 32763.00
930.8720, 31975.00
931.9950, 31169.00
933.1180, 30387.00
934.2410, 29832.00
935.3640, 29327.00
936.4860, 29131.36
937.6090, 29094.39
938.7310, 29242.00
939.8530, 29578.00
940.9750, 30143.00
942.0970, 30798.00
943.2180, 31611.00
944.3400, 32817.00
945.4610, 34339.00
946.5820, 35873.00
947.7030, 37390.00
948.8240, 38329.00
949.9450, 38908.00
951.0650, 38442.00
952.1860, 37391.00
953.3060, 35615.00
954.4260, 33619.00
955.5460, 31993.00
956.6650, 30789.00
957.7850, 29582.00
958.9040, 28827.00
960.0230, 27975.00
961.1420, 27631.00
962.2610, 27083.00
963.3800, 26803.00
964.4990, 26560.00
965.6170, 26238.00
966.7350, 26123.00
967.8530, 25854.00
968.9710, 25942.00
970.0890, 25831.00
971.2070, 25841.00
972.3240, 25909.00
973.4410, 25724.00
974.5580, 25662.00
975.6750, 25868.00
976.7920, 25753.00
977.9090, 25645.00
979.0250, 25846.00
980.1410, 25856.00
981.2580, 25759.00
982.3740, 25824.00
983.4890, 25844.00
984.6050, 25883.00
985.7200, 25850.00
986.8360, 25920.00
987.9510, 25963.00
989.0660, 25922.00
990.1810, 26052.00
991.2950, 25996.00
992.4100, 25946.00
993.5240, 26250.00
994.6390, 26234.00
995.7530, 26518.00
996.8660, 26603.00
997.9800, 26851.00
999.0940, 27073.00
1000.207, 27273.00
1001.320, 27761.00
1002.433, 28065.00
1003.546, 28461.00
1004.659, 28527.00
1005.772, 28563.00
1006.884, 28824.00
1007.996, 28193.00
1009.108, 28293.00
1010.220, 28390.00
1011.332, 28240.00
1012.444, 28476.00
1013.555, 28696.00
1014.666, 28830.00
1015.777, 29586.00
1016.888, 29869.00
1017.999, 30016.00
1019.110, 30147.00
1020.220, 30036.00
1021.331, 29523.00
1022.441, 29150.00
1023.551, 28924.00
1024.661, 28325.00
1025.770, 27955.00
1026.880, 27831.00
1027.989, 27572.00
1029.098, 27506.00
1030.207, 27413.00
1031.316, 27273.00
1032.425, 27161.00
1033.533, 27164.00
1034.642, 27126.00
1035.750, 27072.00
1036.858, 27145.00
1037.966, 26985.00
1039.073, 26843.00
1040.181, 27103.00
1041.288, 27150.00
1042.396, 26908.00
1043.503, 26936.00
1044.610, 27015.00
1045.716, 27009.00
1046.823, 27179.00
1047.929, 27086.00
1049.036, 27217.00
1050.142, 27096.00
1051.248, 27089.00
1052.353, 27425.00
1053.459, 27595.00
1054.564, 27782.00
1055.670, 27806.00
1056.775, 28288.00
1057.880, 28545.00
1058.985, 29064.00
1060.089, 29691.00
1061.194, 30624.00
1062.298, 31203.00
1063.402, 31736.00
1064.506, 31904.55
1065.610, 32077.00
1066.713, 31520.00
1067.817, 30908.00
1068.920, 29921.00
1070.023, 29294.00
1071.126, 28932.00
1072.229, 28739.00
1073.332, 28145.00
1074.435, 28175.00
1075.537, 27862.00
1076.639, 27727.00
1077.741, 27644.00
1078.843, 27648.00
1079.945, 27672.00
1081.046, 27637.60
1082.148, 27513.00
1083.249, 27632.00
1084.350, 27518.00
1085.451, 27506.00
1086.551, 27592.00
1087.652, 27388.00
1088.752, 27502.00
1089.853, 27804.00
1090.953, 27679.00
1092.053, 27821.00
1093.152, 27497.00
1094.252, 27567.00
1095.351, 27702.00
1096.451, 27606.54
1097.550, 27801.00
1098.649, 27700.00
1099.748, 27978.00
1100.846, 28078.00
1101.945, 28217.00
1103.043, 28362.00
1104.141, 28487.00
1105.239, 28529.00
1106.337, 28674.00
1107.434, 28978.00
1108.532, 28989.00
1109.629, 29098.00
1110.726, 28992.00
1111.823, 29206.00
1112.920, 28895.00
1114.017, 28738.00
1115.113, 28754.00
1116.210, 28704.00
1117.306, 28440.00
1118.402, 28498.00
1119.498, 28409.00
1120.593, 28585.00
1121.689, 28614.00
1122.784, 28667.00
1123.879, 28810.00
1124.974, 28624.00
1126.069, 28497.00
1127.164, 28560.00
1128.259, 28525.00
1129.353, 28438.00
1130.447, 28525.00
1131.541, 28429.00
1132.635, 28231.00
1133.729, 28262.00
1134.822, 28143.00
1135.916, 28184.95
1137.009, 28386.00
1138.102, 28306.00
1139.195, 28348.00
1140.288, 28391.00
1141.380, 28339.00
1142.473, 28340.00
1143.565, 28491.00
1144.657, 28518.00
1145.749, 28402.00
1146.841, 28281.00
1147.932, 28218.00
1149.024, 28467.00
1150.115, 28648.00
1151.206, 28629.00
1152.297, 28482.00
1153.388, 28822.00
1154.479, 28631.00
1155.569, 28591.00
1156.659, 28862.00
1157.750, 28646.00
1158.839, 28820.00
1159.929, 28754.00
1161.019, 28829.00
1162.108, 28893.00
1163.198, 28844.00
1164.287, 28749.00
1165.376, 28827.00
1166.465, 28774.00
1167.553, 28842.00
1168.642, 29039.00
1169.730, 28868.00
1170.818, 29106.00
1171.906, 28988.00
1172.994, 29148.00
1174.082, 29148.00
1175.170, 29017.00
1176.257, 29079.00
1177.344, 29117.00
1178.431, 29316.00
1179.518, 29017.00
1180.605, 29388.00
1181.691, 29099.00
1182.778, 29046.00
1183.864, 28949.00
1184.950, 29132.00
1186.036, 29096.00
1187.122, 29291.00
1188.207, 29389.00
1189.292, 29574.00
1190.378, 29543.47
1191.463, 29463.00
1192.548, 29412.00
1193.632, 29428.00
1194.717, 29418.63
1195.801, 29456.00
1196.886, 29484.00
1197.970, 29456.00
1199.054, 29493.00
1200.137, 29559.00
1201.221, 29422.00
1202.305, 29678.00
1203.388, 29560.00
1204.471, 29601.00
1205.554, 29441.00
1206.637, 29593.00
1207.719, 29649.00
1208.802, 29646.00
1209.884, 29676.00
1210.966, 29753.00
1212.048, 29622.00
1213.130, 29925.00
1214.212, 29697.00
1215.293, 29860.00
1216.374, 29796.00
1217.456, 29774.00
1218.536, 29903.00
1219.617, 29773.00
1220.698, 30027.00
1221.778, 29901.00
1222.859, 29855.00
1223.939, 30030.00
1225.019, 30163.00
1226.099, 29962.00
1227.178, 29978.00
1228.258, 29992.00
1229.337, 30096.00
1230.417, 29955.00
1231.496, 30040.00
1232.574, 30155.00
1233.653, 30194.00
1234.732, 30053.00
1235.810, 30033.00
1236.888, 30279.00
1237.966, 30320.00
1239.044, 29992.00
1240.122, 30108.00
1241.199, 30368.00
1242.277, 30307.00
1243.354, 30625.00
1244.431, 30351.00
1245.508, 30379.00
1246.585, 30386.00
1247.661, 30298.00
1248.738, 30504.00
1249.814, 30481.15
1250.890, 30556.00
1251.966, 30571.00
1253.042, 30580.00
1254.117, 30545.00
1255.193, 30603.12
1256.268, 30602.00
1257.343, 30677.00
1258.418, 30689.00
1259.493, 30684.00
1260.567, 30715.00
1261.642, 30801.00
1262.716, 30896.00
1263.790, 30988.00
1264.864, 30951.21
1265.938, 30895.00
1267.011, 30884.00
1268.085, 30840.00
1269.158, 30884.00
1270.231, 30878.17
1271.304, 30928.45
1272.377, 30938.00
1273.450, 31007.00
1274.522, 31081.00
1275.594, 31024.00
1276.666, 31140.00
1277.738, 31335.00
1278.810, 30921.00
1279.882, 31176.00
1280.953, 31177.00
