##NAMES=Andalusite
##RRUFFID=R050258
##IDEAL CHEMISTRY=Al_2_SiO_5_
##LOCALITY=Bautista Canyon, near Hemet, Riverside County, California, USA
##OWNER=RRUFF
##SOURCE=Marcus Origlieri
##DESCRIPTION=Brown fragment
##STATUS=The identification of this mineral has been confirmed by X-ray diffraction and chemical analysis
##URL=rruff.info/R050258
##MEASURED CHEMISTRY=Al_2.00_Si_1.00_O_5_
##PIN_ID=M00252
##ORIENTATION=Laser parallel to b* (0 1 0). Fiducial mark perpendicular to laser is parallel to c [0 0 1]
111.9760, 16835.00
113.2080, 17134.00
114.4400, 17227.00
115.6710, 17499.00
116.9030, 17378.00
118.1340, 17559.00
119.3650, 17568.00
120.5960, 17567.00
121.8270, 17559.00
123.0580, 17675.00
124.2880, 17961.00
125.5190, 18033.00
126.7490, 18211.58
127.9790, 18070.00
129.2090, 18465.00
130.4390, 18403.00
131.6680, 18445.00
132.8980, 18583.00
134.1270, 18584.00
135.3560, 18506.00
136.5850, 18650.00
137.8140, 18497.00
139.0430, 18717.00
140.2710, 18748.00
141.5000, 19005.00
142.7280, 18893.00
143.9560, 19042.00
145.1840, 19081.00
146.4120, 19196.00
147.6390, 19280.03
148.8670, 19310.00
150.0940, 19396.00
151.3210, 19387.00
152.5490, 19338.00
153.7750, 19612.00
155.0020, 19413.00
156.2290, 19423.00
157.4550, 19599.00
158.6810, 19664.00
159.9080, 19675.00
161.1340, 19848.00
162.3590, 19839.00
163.5850, 20034.00
164.8110, 19842.00
166.0360, 19988.00
167.2610, 20011.00
168.4860, 20171.00
169.7110, 20126.00
170.9360, 20141.00
172.1610, 20235.00
173.3850, 20389.00
174.6100, 20375.00
175.8340, 20341.00
177.0580, 20464.00
178.2820, 20413.00
179.5050, 20331.00
180.7290, 20476.00
181.9520, 20549.00
183.1760, 20607.00
184.3990, 20677.00
185.6220, 20710.00
186.8450, 20986.00
188.0670, 20889.00
189.2900, 21018.00
190.5120, 21013.00
191.7340, 21036.00
192.9560, 21266.00
194.1780, 21218.00
195.4000, 21331.00
196.6220, 21135.00
197.8430, 21163.00
199.0640, 21430.00
200.2860, 21463.00
201.5070, 21556.00
202.7270, 21474.00
203.9480, 21448.00
205.1690, 21368.00
206.3890, 21502.00
207.6090, 21590.00
208.8290, 21326.00
210.0490, 21446.00
211.2690, 21372.00
212.4890, 21444.00
213.7080, 21825.00
214.9280, 21724.00
216.1470, 21991.00
217.3660, 21640.00
218.5850, 21953.00
219.8030, 21845.00
221.0220, 21805.00
222.2400, 21995.00
223.4590, 21852.00
224.6770, 21815.00
225.8950, 22101.00
227.1120, 22045.00
228.3300, 22132.00
229.5480, 22354.00
230.7650, 22239.00
231.9820, 22323.00
233.1990, 22547.00
234.4160, 22692.00
235.6330, 22680.00
236.8490, 22877.00
238.0660, 23139.00
239.2820, 22889.00
240.4980, 23080.00
241.7140, 23007.00
242.9300, 23064.00
244.1460, 23031.00
245.3610, 23035.00
246.5770, 23105.00
247.7920, 23123.00
249.0070, 22986.00
250.2220, 23140.00
251.4370, 23297.00
252.6510, 23180.00
253.8660, 23096.00
255.0800, 23451.00
256.2940, 23225.00
257.5080, 23413.00
258.7220, 23462.00
259.9360, 23678.00
261.1490, 23570.00
262.3630, 23714.00
263.5760, 23779.00
264.7890, 23990.00
266.0020, 24001.00
267.2150, 24178.00
268.4270, 24233.00
269.6400, 24364.00
270.8520, 24588.00
272.0640, 24749.00
273.2760, 24992.00
274.4880, 25077.00
275.7000, 25436.00
276.9120, 25600.00
278.1230, 25745.00
279.3340, 26695.00
280.5450, 27377.00
281.7560, 28229.00
282.9670, 29351.00
284.1780, 30410.00
285.3880, 31689.00
286.5980, 32819.00
287.8090, 34266.00
289.0190, 35157.00
290.2290, 35845.00
291.4380, 35557.00
292.6480, 34567.00
293.8570, 33459.00
295.0670, 32090.00
296.2760, 30519.00
297.4850, 28928.00
298.6930, 27675.00
299.9020, 26853.00
301.1110, 26250.00
302.3190, 26078.00
303.5270, 25872.00
304.7350, 25969.00
305.9430, 25730.00
307.1510, 25545.00
308.3580, 25475.00
309.5660, 25797.00
310.7730, 26222.00
311.9800, 26502.00
313.1870, 27123.00
314.3940, 27685.00
315.6010, 28283.00
316.8070, 28713.00
318.0130, 29542.00
319.2200, 30008.00
320.4260, 29963.00
321.6310, 29593.00
322.8370, 29335.00
324.0430, 28816.00
325.2480, 28419.00
326.4540, 27728.00
327.6590, 27499.00
328.8640, 27115.00
330.0680, 27201.00
331.2730, 26903.00
332.4780, 26845.00
333.6820, 26718.00
334.8860, 26929.00
336.0900, 26932.00
337.2940, 26932.00
338.4980, 26979.00
339.7010, 26739.00
340.9050, 26830.00
342.1080, 26929.00
343.3110, 27123.00
344.5140, 27106.00
345.7170, 27330.00
346.9200, 27581.61
348.1220, 27822.00
349.3240, 28286.00
350.5270, 28690.00
351.7290, 29255.00
352.9310, 29819.00
354.1320, 30755.00
355.3340, 31171.00
356.5350, 31460.00
357.7370, 31675.00
358.9380, 31836.00
360.1390, 31359.00
361.3400, 30698.00
362.5400, 30319.00
363.7410, 29527.00
364.9410, 29091.00
366.1410, 28260.00
367.3410, 28188.00
368.5410, 27749.00
369.7410, 27773.00
370.9400, 27514.00
372.1400, 27352.00
373.3390, 27391.00
374.5380, 27345.00
375.7370, 27337.00
376.9360, 27316.00
378.1350, 27472.00
379.3330, 27314.00
380.5310, 27163.00
381.7300, 27632.00
382.9280, 27602.00
384.1260, 27326.00
385.3230, 27563.00
386.5210, 27389.00
387.7180, 27673.00
388.9160, 27396.00
390.1130, 27371.00
391.3100, 27433.00
392.5060, 27620.00
393.7030, 27603.00
394.9000, 27471.00
396.0960, 27495.00
397.2920, 27565.00
398.4880, 27582.00
399.6840, 27653.00
400.8800, 27590.00
402.0750, 27532.00
403.2710, 27718.00
404.4660, 27748.00
405.6610, 27833.00
406.8560, 27832.00
408.0510, 27896.08
409.2450, 27916.00
410.4400, 27951.00
411.6340, 27967.00
412.8280, 27904.00
414.0220, 28261.00
415.2160, 28057.00
416.4100, 28371.00
417.6030, 28022.00
418.7970, 28254.00
419.9900, 28347.00
421.1830, 28285.00
422.3760, 28492.00
423.5690, 28507.00
424.7610, 28177.00
425.9540, 28410.00
427.1460, 28129.00
428.3380, 28550.00
429.5300, 28585.00
430.7220, 28509.00
431.9140, 28577.00
433.1050, 28439.00
434.2970, 28768.00
435.4880, 28547.00
436.6790, 28619.00
437.8700, 28885.00
439.0610, 28743.00
440.2510, 28765.00
441.4420, 28981.00
442.6320, 29033.00
443.8220, 29059.00
445.0120, 29137.00
446.2020, 29182.00
447.3910, 29162.00
448.5810, 29272.11
449.7700, 29615.00
450.9600, 29428.00
452.1490, 29666.00
453.3370, 29734.00
454.5260, 29524.00
455.7150, 29472.00
456.9030, 29282.00
458.0910, 29297.00
459.2800, 29394.00
460.4670, 29186.00
461.6550, 29478.00
462.8430, 29414.00
464.0300, 29401.00
465.2180, 29382.00
466.4050, 29694.00
467.5920, 29588.00
468.7790, 29699.00
469.9650, 29490.00
471.1520, 29793.00
472.3380, 29644.00
473.5250, 29645.00
474.7110, 29831.00
475.8970, 29959.00
477.0820, 29933.00
478.2680, 29789.00
479.4540, 30135.00
480.6390, 29948.00
481.8240, 30096.00
483.0090, 29974.00
484.1940, 29970.00
485.3780, 30304.00
486.5630, 30100.00
487.7470, 30320.00
488.9320, 30274.00
490.1160, 30250.00
491.3000, 30368.00
492.4830, 30126.00
493.6670, 30193.00
494.8500, 30261.00
496.0340, 30075.00
497.2170, 30392.00
498.4000, 30330.00
499.5820, 30342.00
500.7650, 30508.00
501.9480, 30616.00
503.1300, 30550.00
504.3120, 30811.00
505.4940, 30640.00
506.6760, 30693.00
507.8580, 30556.00
509.0390, 30659.00
510.2210, 30786.00
511.4020, 30806.00
512.5830, 30832.96
513.7640, 30908.00
514.9450, 30753.00
516.1250, 30809.00
517.3060, 30678.00
518.4860, 30918.00
519.6660, 30910.00
520.8460, 31139.00
522.0260, 30983.00
523.2060, 31088.00
524.3850, 31297.00
525.5650, 30998.00
526.7440, 31287.00
527.9230, 31265.00
529.1020, 31264.00
530.2810, 31506.00
531.4590, 31338.00
532.6380, 31416.00
533.8160, 31585.00
534.9940, 31563.00
536.1720, 31627.00
537.3500, 31753.00
538.5270, 31790.00
539.7050, 31813.00
540.8820, 31852.00
542.0590, 32202.00
543.2360, 32315.00
544.4130, 32676.00
545.5900, 32785.00
546.7660, 32939.00
547.9430, 33222.00
549.1190, 33151.00
550.2950, 33059.00
551.4710, 33136.00
552.6470, 33141.00
553.8220, 33048.00
554.9980, 32751.00
556.1730, 32815.00
557.3480, 32390.00
558.5230, 32245.00
559.6980, 32506.00
560.8730, 32493.00
562.0470, 32337.00
563.2220, 32558.00
564.3960, 32527.00
565.5700, 32365.00
566.7440, 32481.00
567.9170, 32413.00
569.0910, 32659.00
570.2640, 32551.00
571.4380, 32681.00
572.6110, 32843.00
573.7840, 32712.00
574.9570, 32967.00
576.1290, 32702.00
577.3020, 32648.00
578.4740, 32681.00
579.6460, 32849.00
580.8180, 32710.00
581.9900, 32909.00
583.1620, 32769.00
584.3330, 32570.00
585.5040, 32923.00
586.6760, 32724.00
587.8470, 33071.00
589.0180, 32758.00
590.1880, 33136.00
591.3590, 33161.00
592.5290, 32848.00
593.7000, 33246.00
594.8700, 33124.00
596.0400, 33086.00
597.2090, 33089.00
598.3790, 33085.63
599.5490, 33450.00
600.7180, 33185.00
601.8870, 33476.00
603.0560, 33570.00
604.2250, 33120.00
605.3940, 33313.00
606.5620, 33378.00
607.7300, 33503.00
608.8990, 33318.00
610.0670, 33313.00
611.2350, 33294.00
612.4020, 33310.00
613.5700, 33532.00
614.7370, 33635.00
615.9050, 33604.00
617.0720, 33763.00
618.2390, 33801.00
619.4060, 33792.00
620.5720, 33733.00
621.7390, 34080.00
622.9050, 33834.00
624.0710, 33923.00
625.2370, 33789.00
626.4030, 34116.00
627.5690, 33793.00
628.7340, 34143.00
629.9000, 34204.00
631.0650, 34131.00
632.2300, 33885.00
633.3950, 33912.00
634.5600, 34055.00
635.7240, 34117.00
636.8890, 33994.00
638.0530, 34358.00
639.2170, 34061.00
640.3810, 33930.00
641.5450, 34149.00
642.7080, 34096.00
643.8720, 34323.00
645.0350, 34240.00
646.1980, 34284.00
647.3610, 34343.00
648.5240, 34382.00
649.6870, 34372.00
650.8490, 34441.00
652.0120, 34439.00
653.1740, 34496.00
654.3360, 34294.00
655.4980, 34472.00
656.6600, 34437.00
657.8210, 34581.00
658.9830, 34668.00
660.1440, 34812.00
661.3050, 34479.00
662.4660, 34572.00
663.6270, 34631.00
664.7870, 34585.00
665.9480, 34755.00
667.1080, 34921.00
668.2680, 34790.00
669.4280, 34945.00
670.5880, 34653.00
671.7480, 34787.00
672.9070, 34689.00
674.0670, 34928.00
675.2260, 35023.00
676.3850, 34638.00
677.5440, 35022.00
678.7030, 34834.00
679.8610, 35258.00
681.0200, 35028.00
682.1780, 35228.00
683.3360, 35060.00
684.4940, 35236.00
685.6520, 35242.00
686.8090, 35228.00
687.9670, 35284.00
689.1240, 35277.54
690.2810, 35274.55
691.4380, 35325.00
692.5950, 35238.00
693.7520, 35296.00
694.9080, 35249.00
696.0650, 35301.98
697.2210, 35457.00
698.3770, 35466.00
699.5330, 35547.00
700.6880, 35717.00
701.8440, 35839.00
702.9990, 35729.00
704.1550, 35781.00
705.3100, 35792.00
706.4650, 35792.27
707.6190, 35797.00
708.7740, 35912.00
709.9290, 35959.00
711.0830, 36137.00
712.2370, 36024.00
713.3910, 36077.00
714.5450, 36067.00
715.6980, 36382.00
716.8520, 36295.00
718.0050, 36498.00
719.1580, 36556.00
720.3110, 36326.00
721.4640, 36433.00
722.6170, 36588.00
723.7700, 36516.00
724.9220, 36399.00
726.0740, 36322.00
727.2260, 36072.00
728.3780, 36419.00
729.5300, 36565.00
730.6810, 36498.00
731.8330, 36342.00
732.9840, 36429.00
734.1350, 36309.00
735.2860, 36581.00
736.4370, 36362.00
737.5880, 36489.00
738.7380, 36819.00
739.8880, 36459.00
741.0390, 36517.00
742.1890, 36604.00
743.3380, 36483.00
744.4880, 36667.00
745.6380, 36612.00
746.7870, 36521.00
747.9360, 36926.00
749.0850, 36832.00
750.2340, 36725.00
751.3830, 36669.00
752.5310, 36847.00
753.6800, 36818.00
754.8280, 36964.00
755.9760, 36781.00
757.1240, 36960.00
758.2720, 36791.00
759.4190, 37036.00
760.5670, 36896.00
761.7140, 37032.00
762.8610, 37005.00
764.0080, 36885.00
765.1550, 37237.00
766.3020, 37016.00
767.4480, 36982.00
768.5950, 36898.00
769.7410, 36957.00
770.8870, 37193.00
772.0330, 37223.00
773.1780, 37246.00
774.3240, 37450.00
775.4690, 37416.00
776.6140, 37278.00
777.7590, 37547.00
778.9040, 37088.00
780.0490, 37280.00
781.1940, 37405.00
782.3380, 37258.00
783.4820, 37498.00
784.6260, 37582.00
785.7700, 37691.00
786.9140, 37668.00
788.0580, 37678.00
789.2010, 37572.00
790.3450, 37660.00
791.4880, 37496.00
792.6310, 37515.40
793.7730, 37800.00
794.9160, 37579.00
796.0590, 37698.00
797.2010, 37954.00
798.3430, 37863.00
799.4850, 37975.00
800.6270, 38020.00
801.7690, 38078.00
802.9100, 38288.00
804.0520, 38038.00
805.1930, 38196.00
806.3340, 38327.00
807.4750, 37893.00
808.6160, 38273.00
809.7560, 38015.00
810.8970, 38133.00
812.0370, 38284.00
813.1770, 38203.00
814.3170, 38425.00
815.4570, 38153.00
816.5960, 38395.00
817.7360, 38430.00
818.8750, 38084.00
820.0140, 38262.00
821.1530, 38526.00
822.2920, 38210.00
823.4310, 38273.00
824.5690, 38526.00
825.7070, 38582.00
826.8460, 38810.00
827.9840, 38690.00
829.1220, 38511.00
830.2590, 38694.00
831.3970, 38581.11
832.5340, 38709.00
833.6710, 38665.00
834.8080, 38643.00
835.9450, 38820.00
837.0820, 38797.00
838.2190, 38747.00
839.3550, 38628.00
840.4910, 38947.00
841.6270, 38740.00
842.7630, 38851.00
843.8990, 39223.00
845.0350, 38802.00
846.1700, 38752.00
847.3060, 38936.00
848.4410, 39203.00
849.5760, 38838.00
850.7100, 39092.00
851.8450, 39038.00
852.9800, 39131.00
854.1140, 39195.00
855.2480, 39108.00
856.3820, 39192.00
857.5160, 39180.39
858.6500, 39263.00
859.7830, 39266.00
860.9170, 39390.00
862.0500, 39579.00
863.1830, 39548.00
864.3160, 39289.00
865.4480, 39303.00
866.5810, 39396.00
867.7130, 39302.00
868.8460, 39578.00
869.9780, 39542.00
871.1100, 39685.00
872.2410, 39424.00
873.3730, 39674.00
874.5050, 39761.00
875.6360, 39504.00
876.7670, 39740.00
877.8980, 39980.00
879.0290, 39891.00
880.1590, 39822.00
881.2900, 39605.00
882.4200, 39655.00
883.5500, 39937.00
884.6800, 40019.00
885.8100, 39893.00
886.9400, 40084.00
888.0690, 40176.00
889.1990, 40068.00
890.3280, 40062.00
891.4570, 40089.00
892.5860, 40107.00
893.7140, 40287.00
894.8430, 40367.00
895.9710, 40421.00
897.1000, 40617.00
898.2280, 40504.00
899.3560, 40898.00
900.4830, 40794.00
901.6110, 40610.00
902.7380, 41036.00
903.8660, 41158.00
904.9930, 41257.00
906.1200, 41582.00
907.2460, 41782.00
908.3730, 42292.00
909.5000, 42604.00
910.6260, 43244.00
911.7520, 44628.00
912.8780, 45317.00
914.0040, 46750.00
915.1290, 47900.00
916.2550, 49328.00
917.3800, 49975.00
918.5050, 50286.00
919.6300, 49396.00
920.7550, 48578.00
921.8800, 47232.00
923.0040, 46211.00
924.1290, 45047.00
925.2530, 44095.00
926.3770, 43730.00
927.5010, 43269.00
928.6250, 42892.00
929.7480, 42642.00
930.8720, 42374.00
931.9950, 42483.00
933.1180, 42169.00
934.2410, 42446.00
935.3640, 42158.00
936.4860, 42251.00
937.6090, 42644.00
938.7310, 42877.00
939.8530, 42836.00
940.9750, 43276.00
942.0970, 43499.00
943.2180, 43957.00
944.3400, 44445.00
945.4610, 45084.00
946.5820, 45705.00
947.7030, 46283.00
948.8240, 46347.00
949.9450, 46702.00
951.0650, 46416.00
952.1860, 46073.00
953.3060, 45312.00
954.4260, 44866.00
955.5460, 44514.00
956.6650, 43963.57
957.7850, 43459.00
958.9040, 43169.00
960.0230, 42906.00
961.1420, 42636.00
962.2610, 42186.00
963.3800, 42614.00
964.4990, 42582.00
965.6170, 42090.00
966.7350, 42264.00
967.8530, 42065.00
968.9710, 42262.00
970.0890, 42275.00
971.2070, 42189.00
972.3240, 42132.00
973.4410, 42136.89
974.5580, 42247.00
975.6750, 42179.00
976.7920, 42264.00
977.9090, 42408.00
979.0250, 42455.00
980.1410, 42304.00
981.2580, 42370.00
982.3740, 42052.00
983.4890, 42359.00
984.6050, 42126.00
985.7200, 42131.00
986.8360, 42244.00
987.9510, 42304.00
989.0660, 42335.00
990.1810, 42528.00
991.2950, 42612.00
992.4100, 42590.26
993.5240, 42423.00
994.6390, 42513.00
995.7530, 42622.00
996.8660, 42581.00
997.9800, 42813.00
999.0940, 42725.00
1000.207, 42615.00
1001.320, 42765.00
1002.433, 42625.00
1003.546, 42980.00
1004.659, 42895.00
1005.772, 43023.00
1006.884, 43171.00
1007.996, 43200.00
1009.108, 43140.00
1010.220, 43502.00
1011.332, 43666.00
1012.444, 43858.00
1013.555, 44355.00
1014.666, 44434.00
1015.777, 44721.00
1016.888, 44737.00
1017.999, 44859.58
1019.110, 45213.00
1020.220, 44951.00
1021.331, 44843.00
1022.441, 44766.00
1023.551, 44398.00
1024.661, 44138.00
1025.770, 44251.00
1026.880, 43813.00
1027.989, 43657.00
1029.098, 43809.00
1030.207, 43702.00
1031.316, 43733.00
1032.425, 43698.00
1033.533, 43663.82
1034.642, 43634.00
1035.750, 43612.00
1036.858, 43540.00
1037.966, 43488.00
1039.073, 43463.00
1040.181, 43526.00
1041.288, 43535.00
1042.396, 43595.00
1043.503, 43611.00
1044.610, 43743.00
1045.716, 43714.00
1046.823, 44092.00
1047.929, 43941.00
1049.036, 44053.00
1050.142, 43999.00
1051.248, 43945.00
1052.353, 44139.00
1053.459, 44196.00
1054.564, 44254.00
1055.670, 44532.00
1056.775, 44636.00
1057.880, 44889.00
1058.985, 45009.00
1060.089, 45440.00
1061.194, 45920.00
1062.298, 46261.00
1063.402, 46590.00
1064.506, 46473.00
1065.610, 46137.00
1066.713, 46136.00
1067.817, 45945.00
1068.920, 45666.00
1070.023, 45449.00
1071.126, 45252.00
1072.229, 44759.00
1073.332, 44898.00
1074.435, 44824.00
1075.537, 44544.00
1076.639, 44673.00
1077.741, 44848.00
1078.843, 44447.00
1079.945, 44697.00
1081.046, 44789.00
1082.148, 44642.00
1083.249, 44819.00
1084.350, 44758.00
1085.451, 44643.00
1086.551, 44729.00
1087.652, 44599.00
1088.752, 44649.05
1089.853, 44861.00
1090.953, 44813.00
1092.053, 44804.00
1093.152, 45094.00
1094.252, 44899.00
1095.351, 45174.00
1096.451, 45156.00
1097.550, 45151.00
1098.649, 45299.00
1099.748, 45327.00
1100.846, 45423.42
1101.945, 45441.00
1103.043, 45588.00
1104.141, 45763.00
1105.239, 45791.00
1106.337, 45931.15
1107.434, 45826.00
1108.532, 46027.00
1109.629, 46192.00
1110.726, 46063.00
1111.823, 45827.00
1112.920, 45935.00
1114.017, 45568.00
1115.113, 45802.00
1116.210, 45759.00
1117.306, 45539.00
1118.402, 45467.00
1119.498, 45553.00
1120.593, 45863.00
1121.689, 45540.00
1122.784, 45640.00
1123.879, 45822.00
1124.974, 45789.00
1126.069, 45901.34
1127.164, 46009.00
1128.259, 45964.00
1129.353, 45782.00
1130.447, 45708.00
1131.541, 45660.00
1132.635, 45678.00
1133.729, 45848.00
1134.822, 45659.00
1135.916, 45835.00
1137.009, 45996.00
1138.102, 45844.00
1139.195, 45647.00
1140.288, 46017.00
1141.380, 45981.00
1142.473, 46441.00
1143.565, 46193.00
1144.657, 46133.00
1145.749, 46117.00
1146.841, 46368.00
1147.932, 46250.00
1149.024, 46243.00
1150.115, 46474.00
1151.206, 46242.00
1152.297, 46216.00
1153.388, 46296.00
1154.479, 46251.00
1155.569, 46147.00
1156.659, 46249.70
1157.750, 46725.00
1158.839, 46379.00
1159.929, 46478.00
1161.019, 46575.00
1162.108, 46402.00
1163.198, 46676.00
1164.287, 46704.00
1165.376, 46863.00
1166.465, 46925.75
1167.553, 46726.00
1168.642, 46888.00
1169.730, 46825.00
1170.818, 46573.00
1171.906, 46959.00
1172.994, 47044.00
1174.082, 46887.00
1175.170, 47194.00
1176.257, 46959.00
1177.344, 46854.00
1178.431, 46924.00
1179.518, 47105.00
1180.605, 46799.00
1181.691, 47129.00
1182.778, 46982.00
1183.864, 47094.00
1184.950, 47153.00
1186.036, 46953.00
1187.122, 47207.00
1188.207, 47072.00
1189.292, 47187.00
1190.378, 46886.00
1191.463, 47397.00
1192.548, 47363.00
1193.632, 47273.00
1194.717, 47387.00
1195.801, 47148.00
1196.886, 47229.00
1197.970, 47389.00
1199.054, 47282.00
1200.137, 47378.00
1201.221, 47464.00
1202.305, 47480.00
1203.388, 47395.00
1204.471, 47578.00
1205.554, 47443.00
1206.637, 47523.00
1207.719, 47662.00
1208.802, 47381.00
1209.884, 47764.00
1210.966, 48074.00
1212.048, 47889.00
1213.130, 47793.00
1214.212, 47795.00
1215.293, 48017.00
1216.374, 48054.00
1217.456, 47733.00
1218.536, 48131.00
1219.617, 47941.00
1220.698, 48147.00
1221.778, 47991.00
1222.859, 48032.00
1223.939, 47962.00
1225.019, 48254.00
1226.099, 48375.00
1227.178, 48074.00
1228.258, 48385.00
1229.337, 48143.00
1230.417, 48148.00
1231.496, 48448.00
1232.574, 48092.00
1233.653, 48219.00
1234.732, 48610.00
1235.810, 48465.00
1236.888, 48329.00
1237.966, 48458.00
1239.044, 48337.00
1240.122, 48460.00
1241.199, 48733.00
1242.277, 48620.00
1243.354, 48436.00
1244.431, 48592.00
1245.508, 48714.00
1246.585, 48850.00
1247.661, 48885.46
1248.738, 48870.00
1249.814, 48932.00
1250.890, 49054.00
1251.966, 49107.00
1253.042, 48876.00
1254.117, 48978.00
1255.193, 49151.00
1256.268, 48695.00
1257.343, 49031.00
1258.418, 49227.00
1259.493, 49130.00
1260.567, 49348.00
1261.642, 49291.00
1262.716, 49147.00
1263.790, 49313.00
1264.864, 49321.00
1265.938, 49276.00
1267.011, 49518.00
1268.085, 49112.00
1269.158, 49427.00
1270.231, 49343.00
1271.304, 49692.00
1272.377, 49519.00
1273.450, 49609.00
1274.522, 49309.00
1275.594, 49474.00
1276.666, 49568.00
1277.738, 49768.00
1278.810, 49463.00
1279.882, 49671.00
1280.953, 49358.00
1282.025, 49498.00
1283.096, 49842.00
1284.167, 50038.00
1285.238, 49695.00
1286.308, 49845.00
1287.379, 49850.00
1288.449, 49857.00
1289.519, 50066.00
1290.589, 49961.00
1291.659, 49954.00
1292.729, 49954.00
