##NAMES=Andalusite
##RRUFFID=R060197
##IDEAL CHEMISTRY=Al_2_SiO_5_
##LOCALITY=Brazil
##OWNER=RRUFF
##SOURCE=Marcus Origlieri
##DESCRIPTION=Green colored water worn pebble
##STATUS=The identification of this mineral has been confirmed by X-ray diffraction and chemical analysis
##URL=rruff.info/R060197
##MEASURED CHEMISTRY=(Al_1.97_Mn^3+^_0.03_)_Î£=2_Si_1.00_O_5_
##PIN_ID=M00401
##ORIENTATION=Laser parallel to c* (0 0 1). Fiducial mark perpendicular to laser is parallel to a [1 0 0]
91.01200, 4317.000
92.24600, 4394.581
93.48000, 4457.000
94.71400, 4575.000
95.94800, 4654.000
97.18200, 4629.000
98.41600, 4770.000
99.64900, 4972.000
100.8830, 5088.000
102.1160, 5375.734
103.3490, 5546.000
104.5820, 6072.000
105.8150, 6495.000
107.0470, 7116.000
108.2800, 7590.000
109.5120, 8327.000
110.7440, 7953.000
111.9760, 6975.000
113.2080, 6654.000
114.4400, 6871.000
115.6710, 7086.000
116.9030, 6639.000
118.1340, 5927.000
119.3650, 5417.000
120.5960, 5126.000
121.8270, 5105.000
123.0580, 5460.000
124.2880, 5427.000
125.5190, 5137.000
126.7490, 5044.000
127.9790, 5061.000
129.2090, 5306.000
130.4390, 5244.000
131.6680, 5407.000
132.8980, 5238.000
134.1270, 5259.000
135.3560, 5285.000
136.5850, 5405.000
137.8140, 5483.000
139.0430, 5519.166
140.2710, 5694.000
141.5000, 5576.000
142.7280, 5451.000
143.9560, 5410.000
145.1840, 5568.000
146.4120, 5695.000
147.6390, 5612.000
148.8670, 5603.000
150.0940, 5679.000
151.3210, 5796.000
152.5490, 6084.000
153.7750, 6111.000
155.0020, 6015.000
156.2290, 5943.000
157.4550, 5902.000
158.6810, 5926.000
159.9080, 6064.000
161.1340, 6176.000
162.3590, 6328.000
163.5850, 6556.000
164.8110, 6780.000
166.0360, 6985.000
167.2610, 7154.000
168.4860, 7191.387
169.7110, 7055.000
170.9360, 7164.000
172.1610, 7059.000
173.3850, 6993.000
174.6100, 6948.000
175.8340, 6926.000
177.0580, 6906.000
178.2820, 6925.000
179.5050, 6840.000
180.7290, 6900.000
181.9520, 6981.000
183.1760, 7151.000
184.3990, 7600.000
185.6220, 8413.000
186.8450, 8932.000
188.0670, 9432.000
189.2900, 9587.000
190.5120, 9529.000
191.7340, 9698.000
192.9560, 10187.00
194.1780, 10657.00
195.4000, 11091.00
196.6220, 11025.37
197.8430, 11089.00
199.0640, 10612.00
200.2860, 10178.00
201.5070, 9718.000
202.7270, 9494.000
203.9480, 8836.000
205.1690, 8173.000
206.3890, 7842.000
207.6090, 7606.000
208.8290, 7703.000
210.0490, 7681.000
211.2690, 7644.000
212.4890, 7651.000
213.7080, 7849.000
214.9280, 8028.000
216.1470, 7969.000
217.3660, 7999.000
218.5850, 7677.000
219.8030, 7387.000
221.0220, 7109.000
222.2400, 6772.000
223.4590, 6581.000
224.6770, 6411.000
225.8950, 6437.000
227.1120, 6407.000
228.3300, 6445.000
229.5480, 6448.000
230.7650, 6541.000
231.9820, 6644.000
233.1990, 6730.000
234.4160, 6719.000
235.6330, 7000.000
236.8490, 7080.000
238.0660, 7089.000
239.2820, 7287.000
240.4980, 7365.000
241.7140, 7335.000
242.9300, 7332.000
244.1460, 7405.000
245.3610, 7489.000
246.5770, 7527.000
247.7920, 7737.000
249.0070, 7902.000
250.2220, 8349.000
251.4370, 9539.000
252.6510, 11587.00
253.8660, 13885.00
255.0800, 14866.00
256.2940, 14045.00
257.5080, 13239.00
258.7220, 14059.00
259.9360, 16156.00
261.1490, 18084.00
262.3630, 19216.00
263.5760, 19605.00
264.7890, 18694.00
266.0020, 16550.00
267.2150, 14462.00
268.4270, 12602.00
269.6400, 11901.00
270.8520, 11734.00
272.0640, 12160.00
273.2760, 12867.00
274.4880, 13881.00
275.7000, 14956.00
276.9120, 16613.00
278.1230, 18160.00
279.3340, 19942.00
280.5450, 22178.00
281.7560, 24149.00
282.9670, 25922.00
284.1780, 27341.09
285.3880, 28697.00
286.5980, 29400.00
287.8090, 30161.00
289.0190, 30477.00
290.2290, 29751.00
291.4380, 28927.00
292.6480, 26949.00
293.8570, 25210.00
295.0670, 22462.00
296.2760, 20295.00
297.4850, 17919.00
298.6930, 16192.00
299.9020, 14846.00
301.1110, 13765.00
302.3190, 13149.00
303.5270, 12707.00
304.7350, 12631.00
305.9430, 13061.00
307.1510, 13820.00
308.3580, 14887.00
309.5660, 16527.00
310.7730, 17907.00
311.9800, 19241.00
313.1870, 20294.00
314.3940, 21261.00
315.6010, 22382.00
316.8070, 22954.00
318.0130, 23574.00
319.2200, 23575.00
320.4260, 22970.00
321.6310, 21839.00
322.8370, 20287.00
324.0430, 18638.00
325.2480, 16981.00
326.4540, 15677.00
327.6590, 14498.00
328.8640, 13903.00
330.0680, 13392.00
331.2730, 12964.00
332.4780, 12761.00
333.6820, 12499.00
334.8860, 12661.00
336.0900, 12684.00
337.2940, 12776.00
338.4980, 12838.00
339.7010, 13215.00
340.9050, 13384.00
342.1080, 14108.00
343.3110, 14603.00
344.5140, 15478.00
345.7170, 16574.00
346.9200, 17506.00
348.1220, 18958.00
349.3240, 20275.00
350.5270, 21466.00
351.7290, 22625.00
352.9310, 23584.00
354.1320, 24139.00
355.3340, 24430.00
356.5350, 24560.00
357.7370, 24084.00
358.9380, 23483.00
360.1390, 22394.00
361.3400, 20675.00
362.5400, 19501.00
363.7410, 17628.00
364.9410, 16445.00
366.1410, 15266.00
367.3410, 14143.00
368.5410, 13424.00
369.7410, 12844.00
370.9400, 12566.00
372.1400, 12128.00
373.3390, 11766.00
374.5380, 11698.00
375.7370, 11276.00
376.9360, 11248.00
378.1350, 11063.00
379.3330, 10920.00
380.5310, 10995.00
381.7300, 10964.00
382.9280, 10918.00
384.1260, 10891.00
385.3230, 10839.00
386.5210, 10890.00
387.7180, 10767.00
388.9160, 10653.00
390.1130, 10531.00
391.3100, 10622.00
392.5060, 10441.00
393.7030, 10201.00
394.9000, 10125.00
396.0960, 9847.000
397.2920, 9854.000
398.4880, 9782.000
399.6840, 9836.000
400.8800, 9924.000
402.0750, 9920.628
403.2710, 10002.48
404.4660, 9983.000
405.6610, 10092.00
406.8560, 10074.00
408.0510, 10053.00
409.2450, 10203.00
410.4400, 10411.00
411.6340, 10537.00
412.8280, 10547.00
414.0220, 10602.00
415.2160, 10637.00
416.4100, 10762.00
417.6030, 10706.00
418.7970, 10740.00
419.9900, 10689.00
421.1830, 10699.00
422.3760, 10655.00
423.5690, 10534.00
424.7610, 10441.00
425.9540, 10393.00
427.1460, 10444.00
428.3380, 10383.00
429.5300, 10303.00
430.7220, 10434.00
431.9140, 10344.00
433.1050, 10525.00
434.2970, 10524.00
435.4880, 10462.00
436.6790, 10682.00
437.8700, 10769.00
439.0610, 10827.00
440.2510, 11009.00
441.4420, 11176.00
442.6320, 11514.00
443.8220, 11880.00
445.0120, 11891.00
446.2020, 11765.00
447.3910, 11986.00
448.5810, 12239.00
449.7700, 12481.00
450.9600, 12468.00
452.1490, 12599.00
453.3370, 12233.00
454.5260, 12189.00
455.7150, 11828.00
456.9030, 11644.00
458.0910, 11589.00
459.2800, 11819.00
460.4670, 11781.00
461.6550, 12057.00
462.8430, 12283.00
464.0300, 12456.00
465.2180, 12772.00
466.4050, 12908.00
467.5920, 13329.00
468.7790, 13493.00
469.9650, 13705.00
471.1520, 13723.00
472.3380, 13903.00
473.5250, 13907.00
474.7110, 13926.00
475.8970, 14051.00
477.0820, 14055.00
478.2680, 14069.00
479.4540, 13793.00
480.6390, 13611.00
481.8240, 13498.00
483.0090, 13316.00
484.1940, 12945.00
485.3780, 12710.00
486.5630, 12205.00
487.7470, 12054.00
488.9320, 11793.00
490.1160, 11539.00
491.3000, 11398.00
492.4830, 11261.00
493.6670, 11133.00
494.8500, 11093.00
496.0340, 11074.00
497.2170, 11099.00
498.4000, 11126.00
499.5820, 11157.00
500.7650, 11171.00
501.9480, 11372.00
503.1300, 11556.00
504.3120, 11601.00
505.4940, 11672.00
506.6760, 11764.00
507.8580, 11897.00
509.0390, 12062.00
510.2210, 11865.00
511.4020, 12079.00
512.5830, 11998.00
513.7640, 11890.00
514.9450, 11936.00
516.1250, 11803.00
517.3060, 11790.00
518.4860, 11542.00
519.6660, 11663.00
520.8460, 11519.00
522.0260, 11495.00
523.2060, 11408.00
524.3850, 11418.00
525.5650, 11407.00
526.7440, 11363.00
527.9230, 11357.00
529.1020, 11391.00
530.2810, 11356.00
531.4590, 11273.00
532.6380, 11415.00
533.8160, 11461.00
534.9940, 11603.00
536.1720, 11845.00
537.3500, 12133.00
538.5270, 12449.00
539.7050, 13060.00
540.8820, 13532.00
542.0590, 14028.00
543.2360, 14428.00
544.4130, 14847.00
545.5900, 15141.00
546.7660, 15481.00
547.9430, 15521.00
549.1190, 15545.00
550.2950, 15432.00
551.4710, 15049.00
552.6470, 14450.00
553.8220, 14090.00
554.9980, 13574.00
556.1730, 13310.00
557.3480, 12910.00
558.5230, 12778.00
559.6980, 12634.00
560.8730, 12719.00
562.0470, 12632.00
563.2220, 12717.00
564.3960, 12626.00
565.5700, 12773.00
566.7440, 12896.00
567.9170, 13004.00
569.0910, 13046.00
570.2640, 13127.00
571.4380, 13189.00
572.6110, 13218.00
573.7840, 13168.69
574.9570, 12933.00
576.1290, 12986.00
577.3020, 12912.00
578.4740, 12781.00
579.6460, 12869.00
580.8180, 13045.00
581.9900, 12889.00
583.1620, 12956.00
584.3330, 12982.00
585.5040, 13410.00
586.6760, 13270.69
587.8470, 13691.00
589.0180, 13278.00
590.1880, 13360.00
591.3590, 13496.00
592.5290, 13574.00
593.7000, 13595.00
594.8700, 13682.00
596.0400, 13676.00
597.2090, 13710.88
598.3790, 13834.00
599.5490, 13745.00
600.7180, 13522.00
601.8870, 13524.00
603.0560, 13495.00
604.2250, 13467.00
605.3940, 13281.00
606.5620, 13342.00
607.7300, 13078.00
608.8990, 13117.00
610.0670, 13022.95
611.2350, 12988.00
612.4020, 12900.00
613.5700, 12717.00
614.7370, 12677.00
615.9050, 12599.00
617.0720, 12539.00
618.2390, 12455.00
619.4060, 12534.00
620.5720, 12378.00
621.7390, 12254.00
622.9050, 12307.00
624.0710, 12168.00
625.2370, 12139.00
626.4030, 12008.00
627.5690, 12007.00
628.7340, 11988.00
629.9000, 11916.00
631.0650, 11936.00
632.2300, 12057.00
633.3950, 12001.00
634.5600, 11954.00
635.7240, 12209.00
636.8890, 12295.00
638.0530, 12300.00
639.2170, 12378.00
640.3810, 12510.00
641.5450, 12492.00
642.7080, 12549.00
643.8720, 12803.00
645.0350, 12554.00
646.1980, 12695.00
647.3610, 12532.00
648.5240, 12560.00
649.6870, 12425.00
650.8490, 12583.00
652.0120, 12333.00
653.1740, 12389.00
654.3360, 12394.00
655.4980, 12727.00
656.6600, 12779.00
657.8210, 12776.00
658.9830, 13080.00
660.1440, 13034.00
661.3050, 13278.00
662.4660, 13364.00
663.6270, 13386.00
664.7870, 13550.00
665.9480, 13658.00
667.1080, 13899.00
668.2680, 13772.00
669.4280, 13933.00
670.5880, 14079.00
671.7480, 14397.00
672.9070, 14598.00
674.0670, 14784.00
675.2260, 14948.00
676.3850, 15147.00
677.5440, 15382.00
678.7030, 15508.00
679.8610, 15769.00
681.0200, 15834.00
682.1780, 16139.00
683.3360, 16210.00
684.4940, 16391.00
685.6520, 16691.00
686.8090, 16860.00
687.9670, 17178.00
689.1240, 17156.00
690.2810, 17366.00
691.4380, 17497.00
692.5950, 17803.00
693.7520, 18106.00
694.9080, 18447.40
696.0650, 18886.00
697.2210, 19326.00
698.3770, 19927.00
699.5330, 20538.00
700.6880, 20939.00
701.8440, 21777.00
702.9990, 22136.44
704.1550, 22480.00
705.3100, 22947.00
706.4650, 23057.00
707.6190, 23260.00
708.7740, 22514.00
709.9290, 22067.00
711.0830, 21427.00
712.2370, 20689.00
713.3910, 19633.00
714.5450, 19040.00
715.6980, 18160.00
716.8520, 17432.00
718.0050, 16789.00
719.1580, 16096.00
720.3110, 15494.00
721.4640, 14811.00
722.6170, 14405.00
723.7700, 13837.00
724.9220, 13486.42
726.0740, 13243.00
727.2260, 12955.00
728.3780, 12833.00
729.5300, 12778.00
730.6810, 12751.00
731.8330, 12720.00
732.9840, 12773.00
734.1350, 12754.00
735.2860, 12928.00
736.4370, 13006.00
737.5880, 13047.00
738.7380, 13231.00
739.8880, 13562.00
741.0390, 13596.00
742.1890, 13875.00
743.3380, 14006.00
744.4880, 14037.00
745.6380, 14266.00
746.7870, 14304.00
747.9360, 14364.00
749.0850, 14397.00
750.2340, 14448.00
751.3830, 14468.00
752.5310, 14538.00
753.6800, 14479.00
754.8280, 14390.00
755.9760, 14370.00
757.1240, 14211.00
758.2720, 14182.00
759.4190, 14072.00
760.5670, 13860.00
761.7140, 14111.00
762.8610, 13950.00
764.0080, 13722.00
765.1550, 13892.00
766.3020, 13910.00
767.4480, 13785.00
768.5950, 13761.00
769.7410, 13757.00
770.8870, 13722.00
772.0330, 13778.00
773.1780, 14041.00
774.3240, 14177.00
775.4690, 14560.00
776.6140, 14689.00
777.7590, 15093.00
778.9040, 15446.00
780.0490, 15797.00
781.1940, 16409.00
782.3380, 17107.00
783.4820, 17526.00
784.6260, 18237.00
785.7700, 18923.00
786.9140, 19110.00
788.0580, 19777.00
789.2010, 19915.00
790.3450, 20222.00
791.4880, 19983.00
792.6310, 19804.00
793.7730, 19249.00
794.9160, 18567.00
796.0590, 18212.00
797.2010, 17613.00
798.3430, 17059.00
799.4850, 16437.00
800.6270, 15879.00
801.7690, 15605.00
802.9100, 15221.00
804.0520, 15011.00
805.1930, 14620.00
806.3340, 14498.00
807.4750, 14380.00
808.6160, 14315.00
809.7560, 14164.00
810.8970, 14152.00
812.0370, 14022.64
813.1770, 13820.00
814.3170, 13786.00
815.4570, 13686.00
816.5960, 13506.00
817.7360, 13323.00
818.8750, 13019.00
820.0140, 13013.00
821.1530, 12892.00
822.2920, 12865.00
823.4310, 12776.00
824.5690, 12810.00
825.7070, 12757.00
826.8460, 12939.00
827.9840, 13026.00
829.1220, 12847.00
830.2590, 12961.00
831.3970, 12855.00
832.5340, 12990.00
833.6710, 12835.00
834.8080, 13051.00
835.9450, 12879.00
837.0820, 12920.00
838.2190, 12842.00
839.3550, 12808.00
840.4910, 12634.00
841.6270, 12609.00
842.7630, 12634.00
843.8990, 12558.00
845.0350, 12569.00
846.1700, 12578.00
847.3060, 12519.00
848.4410, 12786.00
849.5760, 12629.00
850.7100, 12676.00
851.8450, 12545.00
852.9800, 12821.00
854.1140, 13012.00
855.2480, 13043.00
856.3820, 13165.00
857.5160, 13262.00
858.6500, 13474.00
859.7830, 13413.00
860.9170, 13892.00
862.0500, 13874.00
863.1830, 14093.00
864.3160, 14120.00
865.4480, 14243.00
866.5810, 14356.00
867.7130, 14440.00
868.8460, 14525.00
869.9780, 14471.00
871.1100, 14380.00
872.2410, 14435.00
873.3730, 14539.00
874.5050, 14506.00
875.6360, 14356.00
876.7670, 14494.00
877.8980, 14403.00
879.0290, 14576.00
880.1590, 14350.00
881.2900, 14447.00
882.4200, 14428.00
883.5500, 14487.00
884.6800, 14589.00
885.8100, 14558.00
886.9400, 14597.00
888.0690, 14629.00
889.1990, 14663.00
890.3280, 14842.00
891.4570, 14832.00
892.5860, 15219.00
893.7140, 15171.00
894.8430, 15269.00
895.9710, 15600.00
897.1000, 15729.00
898.2280, 16225.00
899.3560, 16512.00
900.4830, 16954.00
901.6110, 17628.00
902.7380, 18241.00
903.8660, 19063.00
904.9930, 20336.00
906.1200, 22055.00
907.2460, 24254.00
908.3730, 26895.00
909.5000, 30533.00
910.6260, 35018.00
911.7520, 39894.00
912.8780, 44631.00
914.0040, 49347.00
915.1290, 52780.00
916.2550, 55439.00
917.3800, 56521.00
918.5050, 55798.00
919.6300, 53846.00
920.7550, 50596.00
921.8800, 46577.00
923.0040, 42231.00
924.1290, 38623.00
925.2530, 35353.00
926.3770, 33437.00
927.5010, 31704.00
928.6250, 29379.00
929.7480, 27748.00
930.8720, 26413.00
931.9950, 25176.00
933.1180, 23908.00
934.2410, 23006.00
935.3640, 22410.00
936.4860, 21568.00
937.6090, 21120.00
938.7310, 21039.00
939.8530, 21207.00
940.9750, 21226.00
942.0970, 21594.00
943.2180, 21784.00
944.3400, 22227.00
945.4610, 22280.00
946.5820, 22927.00
947.7030, 22876.00
948.8240, 22740.00
949.9450, 22710.00
951.0650, 22422.00
952.1860, 21965.00
953.3060, 21427.00
954.4260, 20807.00
955.5460, 20295.00
956.6650, 19592.00
957.7850, 19261.00
958.9040, 18803.00
960.0230, 18746.00
961.1420, 18452.00
962.2610, 18256.00
963.3800, 18172.00
964.4990, 18026.00
965.6170, 17743.00
966.7350, 17845.00
967.8530, 17690.00
968.9710, 17424.00
970.0890, 17463.00
971.2070, 17275.00
972.3240, 17322.00
973.4410, 17020.00
974.5580, 17007.00
975.6750, 16767.00
976.7920, 16743.00
977.9090, 16698.00
979.0250, 16751.00
980.1410, 16579.89
981.2580, 16532.61
982.3740, 16256.00
983.4890, 16332.00
984.6050, 16172.00
985.7200, 16110.00
986.8360, 16126.00
987.9510, 16000.00
989.0660, 15880.00
990.1810, 15888.00
991.2950, 15830.00
992.4100, 15844.00
993.5240, 15900.00
994.6390, 15745.00
995.7530, 15853.00
996.8660, 15864.00
997.9800, 15820.00
999.0940, 15965.00
1000.207, 16013.00
1001.320, 16210.00
1002.433, 16477.00
1003.546, 16376.00
1004.659, 16538.00
1005.772, 16910.00
1006.884, 17097.00
1007.996, 17624.00
1009.108, 17919.00
1010.220, 18414.00
1011.332, 18717.00
1012.444, 19320.00
1013.555, 19848.00
1014.666, 20391.00
1015.777, 20596.00
1016.888, 20887.00
1017.999, 20823.00
1019.110, 21115.00
1020.220, 21241.00
1021.331, 20619.00
1022.441, 20247.00
1023.551, 19921.00
1024.661, 19584.00
1025.770, 19332.00
1026.880, 18958.00
1027.989, 18805.00
1029.098, 18448.00
1030.207, 18289.00
1031.316, 18082.00
1032.425, 17912.00
1033.533, 17749.00
1034.642, 17644.00
1035.750, 17569.00
1036.858, 17450.00
1037.966, 17520.00
1039.073, 17356.00
1040.181, 17508.00
1041.288, 17453.00
1042.396, 17418.00
1043.503, 17592.00
1044.610, 17596.00
1045.716, 17874.00
1046.823, 17861.00
1047.929, 18108.00
1049.036, 18278.00
1050.142, 18705.00
1051.248, 18998.00
1052.353, 19387.00
1053.459, 19977.00
1054.564, 20600.00
1055.670, 20964.00
1056.775, 21442.00
1057.880, 21898.00
1058.985, 22192.00
1060.089, 22150.00
1061.194, 22101.00
1062.298, 22144.00
1063.402, 21613.00
1064.506, 21313.00
1065.610, 21059.00
1066.713, 20844.00
1067.817, 20366.00
1068.920, 20234.00
1070.023, 20085.00
1071.126, 20130.00
1072.229, 19953.00
1073.332, 19785.00
1074.435, 19726.00
1075.537, 19445.00
1076.639, 19502.00
1077.741, 19377.00
1078.843, 19212.00
1079.945, 19245.00
1081.046, 19242.00
1082.148, 19332.00
1083.249, 19386.00
1084.350, 19237.00
1085.451, 19321.00
1086.551, 19300.00
1087.652, 19285.00
1088.752, 19346.32
1089.853, 19278.00
1090.953, 19436.00
1092.053, 19392.00
1093.152, 19455.00
1094.252, 19490.00
1095.351, 19589.00
1096.451, 19505.00
1097.550, 19732.00
1098.649, 19877.00
1099.748, 20211.00
1100.846, 20193.00
1101.945, 20332.00
1103.043, 20506.00
1104.141, 20494.00
1105.239, 20594.00
1106.337, 20686.00
1107.434, 20487.00
1108.532, 20489.00
1109.629, 20141.00
1110.726, 19782.00
1111.823, 19674.00
1112.920, 19276.00
1114.017, 19100.00
1115.113, 18967.00
1116.210, 18722.00
1117.306, 18994.00
1118.402, 18884.00
1119.498, 19040.00
1120.593, 19143.00
1121.689, 19394.00
1122.784, 19320.00
1123.879, 19206.00
1124.974, 19045.00
1126.069, 18729.00
1127.164, 18659.00
1128.259, 18347.00
1129.353, 18157.00
1130.447, 17940.00
1131.541, 17643.00
1132.635, 17569.00
1133.729, 17442.00
1134.822, 17349.35
1135.916, 17449.00
1137.009, 17341.00
1138.102, 17402.00
1139.195, 17561.00
1140.288, 17594.00
1141.380, 17570.78
1142.473, 17412.00
1143.565, 17447.00
1144.657, 17446.00
1145.749, 17382.00
1146.841, 17322.00
1147.932, 17252.00
1149.024, 17294.00
1150.115, 17244.00
1151.206, 17128.00
1152.297, 17361.00
1153.388, 17415.00
1154.479, 17346.00
1155.569, 17238.00
1156.659, 17256.00
1157.750, 17196.00
1158.839, 17293.00
1159.929, 17269.00
1161.019, 17186.00
1162.108, 17328.00
1163.198, 17280.00
1164.287, 17191.00
1165.376, 17233.00
1166.465, 17422.00
1167.553, 17315.00
1168.642, 17347.00
1169.730, 17357.00
1170.818, 17339.00
1171.906, 17427.00
1172.994, 17459.00
1174.082, 17306.00
1175.170, 17504.00
1176.257, 17438.00
1177.344, 17583.00
1178.431, 17473.00
1179.518, 17589.00
1180.605, 17562.00
1181.691, 17828.00
1182.778, 17552.00
1183.864, 17776.00
1184.950, 17566.00
1186.036, 17715.00
1187.122, 18089.00
1188.207, 17930.00
1189.292, 17714.00
1190.378, 17993.00
1191.463, 17769.00
1192.548, 18005.00
1193.632, 18134.00
1194.717, 17940.00
1195.801, 17988.00
1196.886, 18128.00
1197.970, 18199.00
1199.054, 18233.00
1200.137, 18329.26
1201.221, 18299.00
1202.305, 18437.00
1203.388, 18444.00
1204.471, 18455.00
1205.554, 18331.00
1206.637, 18492.00
1207.719, 18618.00
1208.802, 18790.00
1209.884, 19034.00
1210.966, 19153.00
1212.048, 19379.07
1213.130, 19557.00
1214.212, 19791.00
1215.293, 20006.00
1216.374, 20232.00
1217.456, 20650.00
1218.536, 20919.00
1219.617, 21418.00
1220.698, 21877.00
1221.778, 22190.00
1222.859, 22855.00
1223.939, 23749.00
1225.019, 24348.00
1226.099, 24960.00
1227.178, 25350.00
1228.258, 25932.00
1229.337, 26741.00
1230.417, 27168.00
1231.496, 27697.00
1232.574, 28004.00
1233.653, 28530.00
1234.732, 28703.00
1235.810, 28951.00
1236.888, 29337.00
1237.966, 29718.00
1239.044, 30225.00
1240.122, 30645.00
1241.199, 30994.00
1242.277, 31445.00
1243.354, 31866.00
1244.431, 32159.00
1245.508, 32561.00
1246.585, 32741.00
1247.661, 32721.00
1248.738, 32965.00
1249.814, 33140.00
1250.890, 32902.00
1251.966, 32727.00
1253.042, 32744.00
1254.117, 32196.00
1255.193, 32210.00
1256.268, 31947.00
1257.343, 31959.00
1258.418, 31718.00
1259.493, 31296.00
1260.567, 31087.00
1261.642, 30909.00
1262.716, 30247.00
1263.790, 30124.00
1264.864, 29910.00
1265.938, 29244.00
1267.011, 28768.00
1268.085, 28448.00
1269.158, 27888.00
1270.231, 27534.00
1271.304, 26978.00
1272.377, 26542.00
1273.450, 26203.00
1274.522, 25771.00
1275.594, 25236.00
