##NAMES=Andalusite
##RRUFFID=R060197
##IDEAL CHEMISTRY=Al_2_SiO_5_
##LOCALITY=Brazil
##OWNER=RRUFF
##SOURCE=Marcus Origlieri
##DESCRIPTION=Green colored water worn pebble
##STATUS=The identification of this mineral has been confirmed by X-ray diffraction and chemical analysis
##URL=rruff.info/R060197
##MEASURED CHEMISTRY=(Al_1.97_Mn^3+^_0.03_)_Î£=2_Si_1.00_O_5_
##PIN_ID=L01138
##ORIENTATION=Laser parallel to -b* (0 -1 0). Fiducial mark perpendicular to laser is parallel to -c [0 0 -1]
123.0580, 14321.00
124.2880, 14518.00
125.5190, 14299.00
126.7490, 14485.00
127.9790, 14546.00
129.2090, 14741.00
130.4390, 14927.00
131.6680, 14866.00
132.8980, 14850.00
134.1270, 14967.00
135.3560, 14994.00
136.5850, 15031.00
137.8140, 15175.00
139.0430, 15331.00
140.2710, 15461.00
141.5000, 15298.00
142.7280, 15415.00
143.9560, 15444.00
145.1840, 15527.00
146.4120, 15486.00
147.6390, 15592.00
148.8670, 15437.00
150.0940, 15514.00
151.3210, 15435.00
152.5490, 15784.00
153.7750, 15469.00
155.0020, 15619.00
156.2290, 15867.00
157.4550, 15843.00
158.6810, 15789.00
159.9080, 15808.00
161.1340, 15877.00
162.3590, 16144.00
163.5850, 16074.00
164.8110, 16318.00
166.0360, 16378.00
167.2610, 16262.00
168.4860, 16467.00
169.7110, 16544.00
170.9360, 16814.00
172.1610, 16489.00
173.3850, 16502.00
174.6100, 16682.00
175.8340, 16750.00
177.0580, 16666.00
178.2820, 16626.00
179.5050, 16689.00
180.7290, 16799.00
181.9520, 16588.00
183.1760, 16590.00
184.3990, 17027.00
185.6220, 16772.00
186.8450, 17102.00
188.0670, 17359.00
189.2900, 17385.00
190.5120, 17732.00
191.7340, 17977.00
192.9560, 18214.00
194.1780, 18273.00
195.4000, 18405.00
196.6220, 18259.00
197.8430, 18151.00
199.0640, 17905.00
200.2860, 17870.00
201.5070, 17891.00
202.7270, 17960.00
203.9480, 17889.00
205.1690, 17468.00
206.3890, 17394.00
207.6090, 17184.00
208.8290, 17173.00
210.0490, 17165.00
211.2690, 17446.00
212.4890, 17480.00
213.7080, 17684.00
214.9280, 17572.00
216.1470, 17667.00
217.3660, 17602.00
218.5850, 17367.00
219.8030, 17474.00
221.0220, 17489.00
222.2400, 17595.00
223.4590, 17429.00
224.6770, 17526.00
225.8950, 17541.00
227.1120, 17496.00
228.3300, 17676.00
229.5480, 17505.00
230.7650, 17607.00
231.9820, 17823.00
233.1990, 17838.00
234.4160, 17892.00
235.6330, 18012.00
236.8490, 18109.00
238.0660, 18104.00
239.2820, 18331.00
240.4980, 18419.00
241.7140, 18495.00
242.9300, 18326.00
244.1460, 18362.00
245.3610, 18603.00
246.5770, 18521.00
247.7920, 18730.00
249.0070, 18471.00
250.2220, 18528.00
251.4370, 18746.00
252.6510, 18905.00
253.8660, 19106.00
255.0800, 19322.00
256.2940, 19509.00
257.5080, 19881.00
258.7220, 20571.00
259.9360, 21541.00
261.1490, 21871.00
262.3630, 21537.00
263.5760, 21180.00
264.7890, 20874.00
266.0020, 20678.00
267.2150, 20589.00
268.4270, 20714.99
269.6400, 20836.00
270.8520, 21310.00
272.0640, 21685.00
273.2760, 22227.00
274.4880, 22496.00
275.7000, 22830.00
276.9120, 23230.00
278.1230, 24088.00
279.3340, 24963.00
280.5450, 25997.00
281.7560, 27286.00
282.9670, 28598.00
284.1780, 30109.00
285.3880, 31573.00
286.5980, 33100.00
287.8090, 34013.00
289.0190, 34343.00
290.2290, 33703.00
291.4380, 32716.00
292.6480, 30917.00
293.8570, 29366.00
295.0670, 27860.00
296.2760, 26434.00
297.4850, 25190.00
298.6930, 24427.00
299.9020, 23765.00
301.1110, 23139.00
302.3190, 22762.00
303.5270, 22560.00
304.7350, 22533.00
305.9430, 22299.00
307.1510, 22608.00
308.3580, 22382.00
309.5660, 23037.00
310.7730, 23342.00
311.9800, 24363.00
313.1870, 25215.00
314.3940, 26325.00
315.6010, 27155.00
316.8070, 28014.00
318.0130, 28650.00
319.2200, 28213.00
320.4260, 27578.00
321.6310, 26559.00
322.8370, 25848.00
324.0430, 24913.00
325.2480, 24480.00
326.4540, 23861.00
327.6590, 23624.00
328.8640, 23472.00
330.0680, 23215.00
331.2730, 23141.00
332.4780, 23084.00
333.6820, 23065.00
334.8860, 23063.00
336.0900, 23152.00
337.2940, 23141.00
338.4980, 23282.00
339.7010, 23260.00
340.9050, 23580.00
342.1080, 23499.00
343.3110, 23955.00
344.5140, 24149.00
345.7170, 24374.00
346.9200, 24873.00
348.1220, 25350.63
349.3240, 25997.00
350.5270, 26654.00
351.7290, 27422.00
352.9310, 28216.00
354.1320, 28721.00
355.3340, 29077.00
356.5350, 29224.00
357.7370, 29151.00
358.9380, 28697.00
360.1390, 27843.00
361.3400, 26949.00
362.5400, 26316.00
363.7410, 25658.00
364.9410, 25030.00
366.1410, 24641.96
367.3410, 24422.00
368.5410, 23994.00
369.7410, 23819.00
370.9400, 23626.00
372.1400, 23347.00
373.3390, 23359.00
374.5380, 23272.00
375.7370, 23094.00
376.9360, 23299.00
378.1350, 23134.00
379.3330, 23208.00
380.5310, 23258.00
381.7300, 23275.00
382.9280, 23287.79
384.1260, 23286.08
385.3230, 23228.00
386.5210, 23263.00
387.7180, 23161.00
388.9160, 23164.00
390.1130, 23283.00
391.3100, 23320.00
392.5060, 23137.00
393.7030, 23072.00
394.9000, 23240.00
396.0960, 23339.00
397.2920, 23033.00
398.4880, 23030.00
399.6840, 23003.00
400.8800, 23284.00
402.0750, 23181.00
403.2710, 23279.00
404.4660, 23418.00
405.6610, 23234.00
406.8560, 23292.00
408.0510, 23308.00
409.2450, 23325.00
410.4400, 23543.00
411.6340, 23515.00
412.8280, 23657.00
414.0220, 23681.00
415.2160, 23662.00
416.4100, 23829.00
417.6030, 23791.00
418.7970, 23831.00
419.9900, 23748.00
421.1830, 23883.00
422.3760, 23894.00
423.5690, 23994.00
424.7610, 24077.00
425.9540, 23840.00
427.1460, 23618.00
428.3380, 23957.00
429.5300, 23984.00
430.7220, 24022.00
431.9140, 23958.00
433.1050, 24023.31
434.2970, 24088.00
435.4880, 24087.00
436.6790, 24174.00
437.8700, 24198.00
439.0610, 24071.00
440.2510, 24466.00
441.4420, 24390.00
442.6320, 24431.00
443.8220, 24689.00
445.0120, 24632.00
446.2020, 24858.00
447.3910, 24866.00
448.5810, 24971.00
449.7700, 25252.00
450.9600, 25045.00
452.1490, 25182.00
453.3370, 24934.00
454.5260, 24884.00
455.7150, 25086.00
456.9030, 24904.00
458.0910, 25128.00
459.2800, 25136.00
460.4670, 25223.00
461.6550, 25285.00
462.8430, 25381.00
464.0300, 25377.00
465.2180, 25659.00
466.4050, 25838.00
467.5920, 25808.00
468.7790, 26137.00
469.9650, 25945.00
471.1520, 26040.00
472.3380, 26197.00
473.5250, 26477.00
474.7110, 26316.00
475.8970, 26369.00
477.0820, 26489.00
478.2680, 26585.00
479.4540, 26640.00
480.6390, 26435.00
481.8240, 26334.00
483.0090, 26348.00
484.1940, 26191.00
485.3780, 26157.00
486.5630, 25888.00
487.7470, 26046.00
488.9320, 25913.00
490.1160, 25951.00
491.3000, 26014.00
492.4830, 25790.00
493.6670, 26041.00
494.8500, 25745.00
496.0340, 25929.00
497.2170, 25915.00
498.4000, 25893.00
499.5820, 26053.00
500.7650, 25956.00
501.9480, 25975.00
503.1300, 26192.00
504.3120, 26122.00
505.4940, 26421.00
506.6760, 26405.00
507.8580, 26620.00
509.0390, 26627.00
510.2210, 26668.00
511.4020, 26690.00
512.5830, 26744.00
513.7640, 26970.00
514.9450, 26827.00
516.1250, 26785.00
517.3060, 26981.00
518.4860, 26847.00
519.6660, 26873.00
520.8460, 26860.00
522.0260, 26793.00
523.2060, 26822.00
524.3850, 26962.00
525.5650, 26970.00
526.7440, 26972.00
527.9230, 27214.00
529.1020, 27021.00
530.2810, 27315.00
531.4590, 27309.00
532.6380, 27166.00
533.8160, 27339.00
534.9940, 27417.00
536.1720, 27824.00
537.3500, 27855.00
538.5270, 27965.00
539.7050, 28236.00
540.8820, 28282.00
542.0590, 28877.00
543.2360, 29226.00
544.4130, 29755.00
545.5900, 30112.00
546.7660, 29953.00
547.9430, 30163.00
549.1190, 30299.00
550.2950, 30150.00
551.4710, 29787.00
552.6470, 29280.00
553.8220, 29445.00
554.9980, 28877.00
556.1730, 28771.00
557.3480, 28674.00
558.5230, 28482.00
559.6980, 28323.00
560.8730, 28339.00
562.0470, 28276.00
563.2220, 28568.00
564.3960, 28702.00
565.5700, 28724.00
566.7440, 28676.00
567.9170, 29058.00
569.0910, 29019.00
570.2640, 29040.00
571.4380, 29151.00
572.6110, 29168.00
573.7840, 29041.00
574.9570, 28993.00
576.1290, 28925.00
577.3020, 28753.00
578.4740, 29048.00
579.6460, 28934.00
580.8180, 28867.00
581.9900, 28713.00
583.1620, 28904.00
584.3330, 28861.00
585.5040, 28880.49
586.6760, 29055.00
587.8470, 28977.00
589.0180, 29185.00
590.1880, 29343.00
591.3590, 29393.00
592.5290, 29424.00
593.7000, 29676.00
594.8700, 29192.00
596.0400, 29513.00
597.2090, 29508.00
598.3790, 29838.00
599.5490, 29807.00
600.7180, 29712.00
601.8870, 29663.00
603.0560, 29523.00
604.2250, 29875.00
605.3940, 30012.00
606.5620, 29749.00
607.7300, 30004.00
608.8990, 29783.00
610.0670, 29800.00
611.2350, 29936.00
612.4020, 29731.00
613.5700, 29936.00
614.7370, 29900.00
615.9050, 29704.00
617.0720, 29814.00
618.2390, 30031.00
619.4060, 29782.00
620.5720, 30003.00
621.7390, 29952.00
622.9050, 29718.00
624.0710, 29709.00
625.2370, 29826.00
626.4030, 29972.00
627.5690, 30106.00
628.7340, 30100.00
629.9000, 29860.00
631.0650, 29925.00
632.2300, 29969.00
633.3950, 30025.00
634.5600, 30087.00
635.7240, 30065.00
636.8890, 30001.00
638.0530, 30106.00
639.2170, 30072.00
640.3810, 30340.00
641.5450, 30347.00
642.7080, 30343.00
643.8720, 30524.00
645.0350, 30494.00
646.1980, 30425.00
647.3610, 30380.00
648.5240, 30369.71
649.6870, 30234.00
650.8490, 30387.00
652.0120, 30481.00
653.1740, 30565.00
654.3360, 30470.00
655.4980, 30702.00
656.6600, 30851.00
657.8210, 30586.00
658.9830, 31005.00
660.1440, 30950.00
661.3050, 31031.00
662.4660, 30923.00
663.6270, 31213.00
664.7870, 31189.00
665.9480, 31278.00
667.1080, 31287.00
668.2680, 31003.00
669.4280, 31261.00
670.5880, 31213.00
671.7480, 31355.00
672.9070, 31478.00
674.0670, 31746.00
675.2260, 31599.00
676.3850, 31670.00
677.5440, 31909.00
678.7030, 31762.00
679.8610, 31937.00
681.0200, 31936.00
682.1780, 31966.00
683.3360, 32177.00
684.4940, 32158.00
685.6520, 32245.00
686.8090, 32355.00
687.9670, 32533.00
689.1240, 32577.94
690.2810, 32657.00
691.4380, 32765.00
692.5950, 32879.00
693.7520, 33079.00
694.9080, 32907.00
696.0650, 33044.00
697.2210, 32849.00
698.3770, 33473.00
699.5330, 33357.00
700.6880, 33557.00
701.8440, 33984.00
702.9990, 34234.00
704.1550, 34240.00
705.3100, 34413.00
706.4650, 34465.00
707.6190, 34566.00
708.7740, 34386.00
709.9290, 34520.00
711.0830, 34460.00
712.2370, 34181.00
713.3910, 34025.00
714.5450, 33785.00
715.6980, 33893.00
716.8520, 33610.00
718.0050, 33382.00
719.1580, 33529.00
720.3110, 33257.00
721.4640, 32964.00
722.6170, 33126.00
723.7700, 32977.00
724.9220, 32702.00
726.0740, 32669.00
727.2260, 32760.00
728.3780, 32594.00
729.5300, 32796.00
730.6810, 32713.00
731.8330, 32899.00
732.9840, 32676.00
734.1350, 32763.00
735.2860, 33045.00
736.4370, 32992.00
737.5880, 33323.00
738.7380, 33559.00
739.8880, 33363.00
741.0390, 33420.00
742.1890, 33888.00
743.3380, 33590.00
744.4880, 33839.00
745.6380, 33714.00
746.7870, 34017.00
747.9360, 34091.00
749.0850, 34043.00
750.2340, 34147.00
751.3830, 34305.00
752.5310, 34416.00
753.6800, 34280.00
754.8280, 34272.00
755.9760, 34213.00
757.1240, 34214.26
758.2720, 34512.00
759.4190, 34314.00
760.5670, 34304.00
761.7140, 34452.00
762.8610, 34317.00
764.0080, 34558.00
765.1550, 34580.00
766.3020, 34481.00
767.4480, 34366.00
768.5950, 34355.00
769.7410, 34516.00
770.8870, 34614.00
772.0330, 34547.00
773.1780, 34635.00
774.3240, 34598.00
775.4690, 34743.00
776.6140, 34670.00
777.7590, 35258.00
778.9040, 35171.00
780.0490, 35545.00
781.1940, 35699.00
782.3380, 36068.00
783.4820, 36150.00
784.6260, 36484.00
785.7700, 36694.00
786.9140, 37439.00
788.0580, 37598.00
789.2010, 37833.00
790.3450, 37707.00
791.4880, 37726.00
792.6310, 37625.00
793.7730, 37565.00
794.9160, 37291.00
796.0590, 37427.00
797.2010, 36578.00
798.3430, 36751.00
799.4850, 36342.00
800.6270, 36266.00
801.7690, 36260.00
802.9100, 36055.00
804.0520, 36260.00
805.1930, 35961.00
806.3340, 35725.00
807.4750, 35835.00
808.6160, 35725.00
809.7560, 35438.00
810.8970, 35486.00
812.0370, 35679.00
813.1770, 35739.00
814.3170, 35559.00
815.4570, 35722.00
816.5960, 35578.00
817.7360, 35451.00
818.8750, 35290.00
820.0140, 35282.18
821.1530, 35416.00
822.2920, 35403.00
823.4310, 35456.00
824.5690, 35778.00
825.7070, 35746.00
826.8460, 35744.00
827.9840, 36057.00
829.1220, 35619.00
830.2590, 35935.00
831.3970, 35902.00
832.5340, 35972.00
833.6710, 36013.00
834.8080, 35898.00
835.9450, 35937.00
837.0820, 35799.00
838.2190, 35907.00
839.3550, 35908.00
840.4910, 36017.00
841.6270, 36050.00
842.7630, 36197.00
843.8990, 36040.00
845.0350, 36193.00
846.1700, 36139.00
847.3060, 35953.00
848.4410, 36076.00
849.5760, 36018.00
850.7100, 36321.00
851.8450, 36368.00
852.9800, 36499.00
854.1140, 36357.00
855.2480, 36616.00
856.3820, 36648.00
857.5160, 36710.00
858.6500, 36527.00
859.7830, 36808.00
860.9170, 36696.00
862.0500, 37007.00
863.1830, 37099.00
864.3160, 37321.00
865.4480, 37050.00
866.5810, 37237.00
867.7130, 37179.00
868.8460, 37384.00
869.9780, 37535.00
871.1100, 37227.00
872.2410, 37576.00
873.3730, 37331.00
874.5050, 37414.00
875.6360, 37562.00
876.7670, 37553.00
877.8980, 37606.00
879.0290, 37665.00
880.1590, 37821.00
881.2900, 37380.00
882.4200, 37509.00
883.5500, 37763.00
884.6800, 37444.00
885.8100, 37611.00
886.9400, 37770.00
888.0690, 38045.00
889.1990, 37842.00
890.3280, 37957.00
891.4570, 38039.00
892.5860, 38231.00
893.7140, 38182.00
894.8430, 38336.00
895.9710, 38530.00
897.1000, 38436.00
898.2280, 38729.00
899.3560, 39032.00
900.4830, 38772.00
901.6110, 39316.00
902.7380, 39178.00
903.8660, 39877.00
904.9930, 40116.00
906.1200, 40815.00
907.2460, 41473.00
908.3730, 42548.00
909.5000, 43311.00
910.6260, 44756.00
911.7520, 46718.00
912.8780, 49015.00
914.0040, 51211.00
915.1290, 53774.00
916.2550, 55512.00
917.3800, 56381.00
918.5050, 55919.00
919.6300, 54359.00
920.7550, 52280.00
921.8800, 50391.00
923.0040, 48917.00
924.1290, 47506.23
925.2530, 46675.00
926.3770, 45521.00
927.5010, 44874.00
928.6250, 44525.00
929.7480, 43792.00
930.8720, 43300.00
931.9950, 42916.00
933.1180, 42342.00
934.2410, 42189.00
935.3640, 41795.00
936.4860, 41731.00
937.6090, 41772.00
938.7310, 41853.00
939.8530, 41735.00
940.9750, 41951.00
942.0970, 41856.00
943.2180, 42412.00
944.3400, 42461.00
945.4610, 42665.00
946.5820, 42890.00
947.7030, 43061.00
948.8240, 43235.00
949.9450, 43266.00
951.0650, 42875.00
952.1860, 42808.00
953.3060, 42547.00
954.4260, 42368.00
955.5460, 42178.63
956.6650, 42226.00
957.7850, 41810.00
958.9040, 41697.00
960.0230, 41651.00
961.1420, 41791.00
962.2610, 41494.00
963.3800, 41674.00
964.4990, 41693.00
965.6170, 41619.00
966.7350, 41545.00
967.8530, 41818.00
968.9710, 41530.00
970.0890, 41684.00
971.2070, 41611.00
972.3240, 41584.00
973.4410, 41746.00
974.5580, 41255.00
975.6750, 41634.00
976.7920, 41647.00
977.9090, 41791.00
979.0250, 41406.00
980.1410, 41418.00
981.2580, 41301.00
982.3740, 41465.00
983.4890, 41295.00
984.6050, 41297.00
985.7200, 41354.00
986.8360, 41542.00
987.9510, 41610.00
989.0660, 41247.00
990.1810, 41261.00
991.2950, 41117.00
992.4100, 41189.00
993.5240, 41417.00
994.6390, 41504.00
995.7530, 41257.00
996.8660, 41444.00
997.9800, 41211.00
999.0940, 41259.00
1000.207, 41622.00
1001.320, 41551.00
1002.433, 41913.00
1003.546, 42103.00
1004.659, 41767.00
1005.772, 42310.00
1006.884, 42220.00
1007.996, 42323.00
1009.108, 42421.00
1010.220, 43003.00
1011.332, 43176.00
1012.444, 43321.00
1013.555, 43612.00
1014.666, 43856.00
1015.777, 44000.00
1016.888, 44362.00
1017.999, 44182.00
1019.110, 44244.00
1020.220, 44045.00
1021.331, 44196.00
1022.441, 43987.00
1023.551, 43756.00
1024.661, 43624.00
1025.770, 43698.00
1026.880, 43269.00
1027.989, 43477.00
1029.098, 43350.00
1030.207, 43397.00
1031.316, 43014.00
1032.425, 43511.00
1033.533, 43214.00
1034.642, 43093.00
1035.750, 43252.00
1036.858, 43286.00
1037.966, 43058.00
1039.073, 43324.00
1040.181, 43128.00
1041.288, 43122.00
1042.396, 43360.00
1043.503, 43467.00
1044.610, 43357.00
1045.716, 43549.00
1046.823, 43601.00
1047.929, 43442.00
1049.036, 43760.00
1050.142, 44075.00
1051.248, 44510.00
1052.353, 44817.00
1053.459, 45113.00
1054.564, 45528.00
1055.670, 45867.00
1056.775, 46163.00
1057.880, 46665.00
1058.985, 46412.00
1060.089, 46665.00
1061.194, 46335.00
1062.298, 46118.00
1063.402, 45584.00
1064.506, 45529.00
1065.610, 45239.00
1066.713, 44939.00
1067.817, 44654.00
1068.920, 44887.00
1070.023, 44825.00
1071.126, 44909.00
1072.229, 44665.00
1073.332, 44662.00
1074.435, 44661.00
1075.537, 44734.00
1076.639, 44836.00
1077.741, 44865.00
1078.843, 44822.00
1079.945, 44614.00
1081.046, 45192.00
1082.148, 44597.00
1083.249, 44977.00
1084.350, 45100.00
1085.451, 44954.00
1086.551, 45175.00
1087.652, 45166.00
1088.752, 45185.00
1089.853, 45123.00
1090.953, 45346.00
1092.053, 45328.00
1093.152, 45168.00
1094.252, 45454.00
1095.351, 45476.00
1096.451, 45696.00
1097.550, 45679.00
1098.649, 45873.00
1099.748, 45737.00
1100.846, 45842.00
1101.945, 46108.00
1103.043, 46233.00
1104.141, 46602.00
1105.239, 46366.00
1106.337, 46514.00
1107.434, 46578.00
1108.532, 46393.00
1109.629, 46332.00
1110.726, 46142.00
1111.823, 46062.27
1112.920, 45911.00
1114.017, 45921.00
1115.113, 45953.00
1116.210, 45969.00
1117.306, 45825.00
1118.402, 46058.00
1119.498, 46295.00
1120.593, 46090.00
1121.689, 46307.00
1122.784, 46199.00
1123.879, 46286.00
1124.974, 46137.00
1126.069, 46073.00
1127.164, 46257.00
1128.259, 46255.00
1129.353, 46227.21
1130.447, 46266.00
1131.541, 46092.00
1132.635, 46178.00
1133.729, 46006.00
1134.822, 46017.00
1135.916, 45906.00
1137.009, 46032.00
1138.102, 46293.00
1139.195, 46061.00
1140.288, 45919.00
1141.380, 46273.00
1142.473, 46130.00
1143.565, 46174.00
1144.657, 46399.00
1145.749, 46206.00
1146.841, 46393.00
1147.932, 46311.00
1149.024, 46311.00
1150.115, 46324.00
1151.206, 46393.00
1152.297, 46413.04
1153.388, 46442.14
1154.479, 46492.00
1155.569, 46378.00
1156.659, 46376.00
1157.750, 46099.00
1158.839, 46353.00
1159.929, 46306.00
1161.019, 46528.00
1162.108, 46711.00
1163.198, 46339.00
1164.287, 46293.00
1165.376, 46360.00
1166.465, 46619.00
1167.553, 46406.00
1168.642, 46594.00
1169.730, 46737.00
1170.818, 46491.00
1171.906, 46363.00
1172.994, 46601.00
1174.082, 46630.00
1175.170, 46546.00
1176.257, 46628.00
1177.344, 46688.34
1178.431, 46897.00
1179.518, 46880.00
1180.605, 46867.00
1181.691, 46925.00
1182.778, 47295.00
1183.864, 47112.00
1184.950, 47505.00
1186.036, 47411.00
1187.122, 47365.00
1188.207, 47382.00
1189.292, 47714.00
1190.378, 47909.00
1191.463, 47957.91
1192.548, 48039.00
1193.632, 48101.00
1194.717, 47964.00
1195.801, 48036.00
1196.886, 47819.00
1197.970, 47989.00
1199.054, 48009.00
1200.137, 48280.00
1201.221, 48152.00
1202.305, 48240.00
1203.388, 48598.00
1204.471, 48315.00
1205.554, 48506.00
1206.637, 48659.00
1207.719, 48641.00
1208.802, 48707.00
1209.884, 48667.00
1210.966, 48760.00
1212.048, 48824.00
1213.130, 48775.00
1214.212, 49096.00
1215.293, 49158.00
1216.374, 49165.00
1217.456, 49598.00
1218.536, 49558.00
1219.617, 49767.49
1220.698, 49738.00
1221.778, 50018.00
1222.859, 50178.00
1223.939, 50206.00
1225.019, 50572.00
1226.099, 50142.00
1227.178, 50876.00
1228.258, 51033.00
1229.337, 50821.00
1230.417, 51200.00
1231.496, 51236.00
1232.574, 51169.00
1233.653, 51368.00
1234.732, 51698.00
1235.810, 51893.00
1236.888, 51926.00
1237.966, 51716.00
1239.044, 52260.00
1240.122, 52166.00
1241.199, 52520.00
1242.277, 52469.00
1243.354, 52480.00
1244.431, 52809.00
1245.508, 52588.00
1246.585, 52948.00
1247.661, 52736.00
1248.738, 53115.00
1249.814, 53044.00
1250.890, 53053.00
1251.966, 52705.00
1253.042, 52964.00
1254.117, 53310.00
1255.193, 52620.00
1256.268, 53152.00
1257.343, 52915.00
1258.418, 53312.00
1259.493, 52840.00
1260.567, 53048.00
1261.642, 52812.00
1262.716, 52931.00
1263.790, 52699.00
1264.864, 52845.00
1265.938, 52702.00
1267.011, 52698.00
1268.085, 52539.00
1269.158, 52468.26
1270.231, 52353.00
1271.304, 52208.00
1272.377, 52125.48
1273.450, 52089.00
1274.522, 51995.00
1275.594, 51908.00
1276.666, 52011.00
1277.738, 52069.00
1278.810, 51965.00
1279.882, 51924.00
1280.953, 51875.00
1282.025, 51774.00
1283.096, 52035.00
1284.167, 51806.00
1285.238, 52332.00
1286.308, 52017.00
1287.379, 51953.00
1288.449, 52078.00
1289.519, 51941.00
1290.589, 52158.00
1291.659, 52023.00
1292.729, 52220.00
1293.798, 52339.00
1294.868, 51709.00
1295.937, 52354.00
1297.006, 51960.00
1298.075, 52304.00
1299.143, 52283.00
1300.212, 52436.00
1301.280, 52509.00
1302.348, 52683.00
