##NAMES=Andalusite
##RRUFFID=R050258
##IDEAL CHEMISTRY=Al_2_SiO_5_
##LOCALITY=Bautista Canyon, near Hemet, Riverside County, California, USA
##OWNER=RRUFF
##SOURCE=Marcus Origlieri
##DESCRIPTION=Brown fragment
##STATUS=The identification of this mineral has been confirmed by X-ray diffraction and chemical analysis
##URL=rruff.info/R050258
##MEASURED CHEMISTRY=Al_2.00_Si_1.00_O_5_
##PIN_ID=L01170
##ORIENTATION=Laser parallel to a* (1 0 0). Fiducial mark perpendicular to laser is parallel to -b [0 -1 0]
113.2080, 10394.00
114.4400, 10470.00
115.6710, 10573.00
116.9030, 10635.00
118.1340, 10688.00
119.3650, 10626.00
120.5960, 10690.00
121.8270, 10751.00
123.0580, 10702.00
124.2880, 10894.00
125.5190, 10898.00
126.7490, 11058.00
127.9790, 10893.00
129.2090, 11039.00
130.4390, 11056.00
131.6680, 11157.00
132.8980, 11117.00
134.1270, 11228.00
135.3560, 11293.00
136.5850, 11359.00
137.8140, 11342.00
139.0430, 11277.00
140.2710, 11342.00
141.5000, 11410.00
142.7280, 11523.00
143.9560, 11571.00
145.1840, 11414.00
146.4120, 11586.00
147.6390, 11548.00
148.8670, 11867.00
150.0940, 11535.00
151.3210, 11679.00
152.5490, 11819.00
153.7750, 11761.00
155.0020, 11817.00
156.2290, 11842.00
157.4550, 11846.47
158.6810, 11676.00
159.9080, 11867.00
161.1340, 11875.00
162.3590, 11823.00
163.5850, 11947.00
164.8110, 12012.00
166.0360, 12083.00
167.2610, 12058.00
168.4860, 12054.00
169.7110, 12069.00
170.9360, 12131.00
172.1610, 12113.00
173.3850, 12037.00
174.6100, 12219.00
175.8340, 12220.00
177.0580, 12329.00
178.2820, 12239.00
179.5050, 12337.00
180.7290, 12447.00
181.9520, 12348.00
183.1760, 12330.00
184.3990, 12445.00
185.6220, 12527.00
186.8450, 12613.00
188.0670, 12533.00
189.2900, 12746.00
190.5120, 12674.00
191.7340, 12704.00
192.9560, 12881.00
194.1780, 12863.00
195.4000, 12861.00
196.6220, 12952.00
197.8430, 13007.00
199.0640, 13068.00
200.2860, 13069.00
201.5070, 13245.00
202.7270, 13181.00
203.9480, 13525.00
205.1690, 13456.00
206.3890, 13372.00
207.6090, 13179.00
208.8290, 13198.00
210.0490, 13134.00
211.2690, 13015.00
212.4890, 13131.00
213.7080, 13033.00
214.9280, 12989.00
216.1470, 12939.00
217.3660, 12967.00
218.5850, 13088.00
219.8030, 13087.00
221.0220, 13018.00
222.2400, 13177.00
223.4590, 13054.00
224.6770, 13079.00
225.8950, 13219.00
227.1120, 13083.00
228.3300, 13217.00
229.5480, 13347.00
230.7650, 13253.00
231.9820, 13234.00
233.1990, 13504.00
234.4160, 13229.00
235.6330, 13408.00
236.8490, 13416.00
238.0660, 13456.00
239.2820, 13407.00
240.4980, 13292.00
241.7140, 13527.00
242.9300, 13462.00
244.1460, 13421.00
245.3610, 13587.00
246.5770, 13658.00
247.7920, 13632.00
249.0070, 13711.00
250.2220, 13720.00
251.4370, 13878.00
252.6510, 13751.00
253.8660, 13881.00
255.0800, 13933.00
256.2940, 13953.00
257.5080, 14066.00
258.7220, 14125.01
259.9360, 14177.00
261.1490, 14267.00
262.3630, 14361.00
263.5760, 14361.00
264.7890, 14386.00
266.0020, 14337.00
267.2150, 14524.00
268.4270, 14598.08
269.6400, 14604.00
270.8520, 14902.00
272.0640, 15121.00
273.2760, 15277.00
274.4880, 15457.00
275.7000, 15815.00
276.9120, 16415.00
278.1230, 17013.00
279.3340, 17516.00
280.5450, 18649.00
281.7560, 19972.38
282.9670, 21405.00
284.1780, 23556.00
285.3880, 25903.00
286.5980, 28454.00
287.8090, 31854.00
289.0190, 35496.00
290.2290, 39915.00
291.4380, 43381.00
292.6480, 45046.00
293.8570, 43351.00
295.0670, 39813.00
296.2760, 35167.00
297.4850, 30853.00
298.6930, 26543.00
299.9020, 23537.00
301.1110, 21210.00
302.3190, 19365.00
303.5270, 18425.00
304.7350, 17637.00
305.9430, 16966.00
307.1510, 16672.62
308.3580, 16628.00
309.5660, 16626.00
310.7730, 16883.00
311.9800, 17379.00
313.1870, 18111.00
314.3940, 19333.00
315.6010, 20079.00
316.8070, 21568.00
318.0130, 23532.00
319.2200, 26228.00
320.4260, 28580.00
321.6310, 29825.00
322.8370, 29807.00
324.0430, 28291.00
325.2480, 26210.00
326.4540, 24025.00
327.6590, 21838.00
328.8640, 19986.00
330.0680, 19008.00
331.2730, 18072.00
332.4780, 17384.00
333.6820, 17143.00
334.8860, 16892.00
336.0900, 16889.00
337.2940, 16519.00
338.4980, 16447.00
339.7010, 16447.00
340.9050, 16300.00
342.1080, 16254.00
343.3110, 16206.00
344.5140, 16090.00
345.7170, 16241.00
346.9200, 16195.00
348.1220, 16405.00
349.3240, 16461.00
350.5270, 16757.00
351.7290, 16923.00
352.9310, 17560.00
354.1320, 18191.00
355.3340, 18802.00
356.5350, 19447.00
357.7370, 20466.00
358.9380, 20867.00
360.1390, 21143.00
361.3400, 20847.00
362.5400, 20658.00
363.7410, 19832.00
364.9410, 19476.00
366.1410, 18821.00
367.3410, 18391.00
368.5410, 17818.00
369.7410, 17650.00
370.9400, 17406.00
372.1400, 17239.00
373.3390, 17080.00
374.5380, 16970.00
375.7370, 16885.00
376.9360, 16849.78
378.1350, 16886.00
379.3330, 16875.00
380.5310, 16836.00
381.7300, 16900.06
382.9280, 16878.00
384.1260, 16836.00
385.3230, 16737.00
386.5210, 16691.00
387.7180, 16680.00
388.9160, 16438.00
390.1130, 16514.00
391.3100, 16556.00
392.5060, 16422.00
393.7030, 16522.00
394.9000, 16622.00
396.0960, 16607.00
397.2920, 16508.00
398.4880, 16437.00
399.6840, 16459.00
400.8800, 16527.00
402.0750, 16446.00
403.2710, 16573.00
404.4660, 16495.00
405.6610, 16629.00
406.8560, 16704.00
408.0510, 16787.00
409.2450, 16841.00
410.4400, 17116.00
411.6340, 17035.00
412.8280, 17440.00
414.0220, 17563.00
415.2160, 17630.00
416.4100, 18020.00
417.6030, 18261.00
418.7970, 18480.00
419.9900, 18241.00
421.1830, 18114.00
422.3760, 17847.00
423.5690, 17697.00
424.7610, 17486.00
425.9540, 17319.04
427.1460, 17040.00
428.3380, 17045.00
429.5300, 16892.00
430.7220, 16822.00
431.9140, 16934.00
433.1050, 16766.00
434.2970, 16764.00
435.4880, 16829.00
436.6790, 16880.00
437.8700, 16971.00
439.0610, 16926.00
440.2510, 16920.00
441.4420, 17008.00
442.6320, 17052.00
443.8220, 17111.00
445.0120, 17208.00
446.2020, 17366.00
447.3910, 17416.00
448.5810, 17540.00
449.7700, 17719.00
450.9600, 18136.00
452.1490, 18170.00
453.3370, 18164.00
454.5260, 18017.00
455.7150, 17851.00
456.9030, 17694.00
458.0910, 17590.87
459.2800, 17363.00
460.4670, 17403.00
461.6550, 17326.00
462.8430, 17252.00
464.0300, 17307.00
465.2180, 17268.00
466.4050, 17360.00
467.5920, 17144.00
468.7790, 17334.00
469.9650, 17512.00
471.1520, 17358.00
472.3380, 17512.00
473.5250, 17503.00
474.7110, 17569.00
475.8970, 17627.00
477.0820, 17668.00
478.2680, 17628.00
479.4540, 17756.00
480.6390, 17620.00
481.8240, 17734.00
483.0090, 17662.00
484.1940, 17792.00
485.3780, 17865.00
486.5630, 17850.00
487.7470, 17930.30
488.9320, 17982.00
490.1160, 17962.00
491.3000, 17960.00
492.4830, 17914.00
493.6670, 17941.00
494.8500, 17928.00
496.0340, 17879.00
497.2170, 17856.00
498.4000, 17854.40
499.5820, 17893.00
500.7650, 17885.00
501.9480, 17968.00
503.1300, 18047.00
504.3120, 17922.00
505.4940, 17999.00
506.6760, 18029.00
507.8580, 18017.00
509.0390, 18273.00
510.2210, 18200.00
511.4020, 18407.00
512.5830, 18452.00
513.7640, 18269.00
514.9450, 18266.00
516.1250, 18454.00
517.3060, 18486.00
518.4860, 18380.00
519.6660, 18357.00
520.8460, 18366.00
522.0260, 18453.00
523.2060, 18512.00
524.3850, 18531.00
525.5650, 18482.00
526.7440, 18464.00
527.9230, 18500.39
529.1020, 18509.00
530.2810, 18594.00
531.4590, 18677.00
532.6380, 18774.00
533.8160, 18821.00
534.9940, 18923.00
536.1720, 19027.84
537.3500, 19156.00
538.5270, 19299.00
539.7050, 19414.00
540.8820, 19634.00
542.0590, 19896.17
543.2360, 20191.02
544.4130, 20580.00
545.5900, 20971.00
546.7660, 21455.00
547.9430, 22006.00
549.1190, 22780.00
550.2950, 23381.00
551.4710, 24027.00
552.6470, 24183.00
553.8220, 23977.00
554.9980, 23665.00
556.1730, 22906.00
557.3480, 22126.00
558.5230, 21583.00
559.6980, 21053.74
560.8730, 20612.00
562.0470, 20281.00
563.2220, 20101.00
564.3960, 19865.00
565.5700, 19792.00
566.7440, 19797.00
567.9170, 19655.00
569.0910, 19606.00
570.2640, 19590.00
571.4380, 19496.00
572.6110, 19607.00
573.7840, 19602.00
574.9570, 19671.00
576.1290, 19627.00
577.3020, 19612.00
578.4740, 19706.00
579.6460, 19603.00
580.8180, 19440.00
581.9900, 19719.00
583.1620, 19538.00
584.3330, 19309.00
585.5040, 19608.00
586.6760, 19548.00
587.8470, 19301.00
589.0180, 19485.00
590.1880, 19842.00
591.3590, 19505.00
592.5290, 19677.00
593.7000, 19741.00
594.8700, 19512.00
596.0400, 19696.00
597.2090, 19731.00
598.3790, 19663.00
599.5490, 19773.00
600.7180, 19742.00
601.8870, 19708.00
603.0560, 20111.00
604.2250, 19990.00
605.3940, 20075.00
606.5620, 20004.00
607.7300, 20178.00
608.8990, 20147.00
610.0670, 20008.00
611.2350, 20102.00
612.4020, 20064.00
613.5700, 20137.00
614.7370, 19994.00
615.9050, 20099.00
617.0720, 20152.00
618.2390, 20124.00
619.4060, 20283.00
620.5720, 20204.00
621.7390, 20260.00
622.9050, 20300.00
624.0710, 20382.00
625.2370, 20304.00
626.4030, 20532.00
627.5690, 20407.00
628.7340, 20539.00
629.9000, 20582.00
631.0650, 20413.00
632.2300, 20413.00
633.3950, 20284.00
634.5600, 20370.00
635.7240, 20505.00
636.8890, 20568.00
638.0530, 20608.00
639.2170, 20507.00
640.3810, 20405.00
641.5450, 20611.00
642.7080, 20517.00
643.8720, 20620.00
645.0350, 20709.00
646.1980, 20612.00
647.3610, 20611.00
648.5240, 20778.00
649.6870, 20574.00
650.8490, 20740.00
652.0120, 20836.00
653.1740, 20887.00
654.3360, 20727.00
655.4980, 20842.00
656.6600, 20838.00
657.8210, 20949.00
658.9830, 21083.00
660.1440, 21201.00
661.3050, 21226.00
662.4660, 21162.00
663.6270, 21378.00
664.7870, 21347.00
665.9480, 21357.00
667.1080, 21117.00
668.2680, 21016.00
669.4280, 21127.00
670.5880, 20924.00
671.7480, 20984.00
672.9070, 21051.00
674.0670, 20911.00
675.2260, 21013.00
676.3850, 21010.00
677.5440, 20922.00
678.7030, 21052.00
679.8610, 21078.00
681.0200, 21068.00
682.1780, 21211.00
683.3360, 21064.00
684.4940, 21252.00
685.6520, 21109.00
686.8090, 21100.00
687.9670, 21289.00
689.1240, 21232.00
690.2810, 21206.00
691.4380, 21426.00
692.5950, 21319.00
693.7520, 21356.00
694.9080, 21343.00
696.0650, 21339.00
697.2210, 21335.00
698.3770, 21313.00
699.5330, 21575.00
700.6880, 21411.00
701.8440, 21609.00
702.9990, 21563.00
704.1550, 21738.00
705.3100, 21655.00
706.4650, 21650.00
707.6190, 21734.00
708.7740, 21948.00
709.9290, 21958.00
711.0830, 22233.00
712.2370, 22221.00
713.3910, 22411.00
714.5450, 22673.00
715.6980, 22785.00
716.8520, 22855.78
718.0050, 23044.00
719.1580, 22819.00
720.3110, 22677.00
721.4640, 22502.00
722.6170, 22393.86
723.7700, 22480.00
724.9220, 22251.00
726.0740, 22243.00
727.2260, 22251.00
728.3780, 22139.00
729.5300, 22174.00
730.6810, 22088.00
731.8330, 22163.00
732.9840, 22045.00
734.1350, 22063.00
735.2860, 22086.00
736.4370, 22036.36
737.5880, 22082.00
738.7380, 22036.00
739.8880, 22224.00
741.0390, 22287.00
742.1890, 22043.00
743.3380, 22286.00
744.4880, 22366.00
745.6380, 22157.00
746.7870, 22306.00
747.9360, 22282.00
749.0850, 22184.00
750.2340, 22328.00
751.3830, 22304.00
752.5310, 22267.00
753.6800, 22433.00
754.8280, 22328.00
755.9760, 22475.00
757.1240, 22602.00
758.2720, 22503.00
759.4190, 22573.00
760.5670, 22502.00
761.7140, 22535.00
762.8610, 22526.74
764.0080, 22423.00
765.1550, 22527.00
766.3020, 22607.00
767.4480, 22653.00
768.5950, 22623.00
769.7410, 22632.00
770.8870, 22803.00
772.0330, 22845.00
773.1780, 22605.00
774.3240, 22887.00
775.4690, 22793.00
776.6140, 22924.00
777.7590, 22823.00
778.9040, 22810.00
780.0490, 22897.00
781.1940, 22986.00
782.3380, 23042.00
783.4820, 23092.00
784.6260, 23083.00
785.7700, 23210.00
786.9140, 23084.00
788.0580, 23213.00
789.2010, 23044.00
790.3450, 23398.00
791.4880, 22981.00
792.6310, 23511.00
793.7730, 23066.00
794.9160, 23408.00
796.0590, 23501.00
797.2010, 23338.00
798.3430, 23593.00
799.4850, 23343.00
800.6270, 23485.00
801.7690, 23639.00
802.9100, 23506.00
804.0520, 23648.00
805.1930, 23686.00
806.3340, 23800.00
807.4750, 23889.00
808.6160, 23797.00
809.7560, 23794.00
810.8970, 23699.00
812.0370, 24055.00
813.1770, 24003.00
814.3170, 24210.00
815.4570, 24119.00
816.5960, 24083.00
817.7360, 24218.00
818.8750, 24219.00
820.0140, 24275.00
821.1530, 24311.00
822.2920, 24343.00
823.4310, 24343.00
824.5690, 24326.00
825.7070, 24404.00
826.8460, 24291.00
827.9840, 24437.00
829.1220, 24494.00
830.2590, 24658.00
831.3970, 24608.00
832.5340, 24722.00
833.6710, 24741.00
834.8080, 24726.00
835.9450, 24694.00
837.0820, 24620.00
838.2190, 24573.00
839.3550, 24352.00
840.4910, 24483.00
841.6270, 24343.00
842.7630, 24338.00
843.8990, 24432.00
845.0350, 24314.00
846.1700, 24191.00
847.3060, 24253.00
848.4410, 24232.00
849.5760, 24369.00
850.7100, 24215.00
851.8450, 24443.00
852.9800, 24220.00
854.1140, 24294.00
855.2480, 24458.00
856.3820, 24395.00
857.5160, 24523.00
858.6500, 24600.00
859.7830, 24343.00
860.9170, 24532.00
862.0500, 24559.00
863.1830, 24781.00
864.3160, 24799.18
865.4480, 24661.00
866.5810, 24861.00
867.7130, 24714.00
868.8460, 24711.00
869.9780, 24888.00
871.1100, 24829.00
872.2410, 24806.00
873.3730, 24921.00
874.5050, 24743.00
875.6360, 24901.00
876.7670, 24957.00
877.8980, 25096.00
879.0290, 25117.88
880.1590, 25186.73
881.2900, 25160.00
882.4200, 25268.00
883.5500, 25326.00
884.6800, 25352.00
885.8100, 25402.00
886.9400, 25461.00
888.0690, 25442.00
889.1990, 25573.05
890.3280, 25581.00
891.4570, 25812.00
892.5860, 25801.00
893.7140, 25932.00
894.8430, 25876.00
895.9710, 26135.00
897.1000, 26323.00
898.2280, 26386.00
899.3560, 26735.00
900.4830, 27078.00
901.6110, 27363.00
902.7380, 27517.00
903.8660, 28176.00
904.9930, 28016.00
906.1200, 28504.00
907.2460, 29323.00
908.3730, 30084.00
909.5000, 30971.00
910.6260, 32538.00
911.7520, 34510.00
912.8780, 37200.92
914.0040, 40383.00
915.1290, 44266.00
916.2550, 48767.00
917.3800, 53791.00
918.5050, 58171.00
919.6300, 60725.00
920.7550, 60351.00
921.8800, 58093.00
923.0040, 53738.00
924.1290, 48904.00
925.2530, 45196.00
926.3770, 42107.00
927.5010, 40158.00
928.6250, 38242.00
929.7480, 36911.00
930.8720, 35669.00
931.9950, 34345.00
933.1180, 32927.00
934.2410, 31866.00
935.3640, 30944.00
936.4860, 29995.00
937.6090, 29688.00
938.7310, 29099.00
939.8530, 28977.00
940.9750, 28609.00
942.0970, 28308.00
943.2180, 28301.00
944.3400, 28200.00
945.4610, 28247.00
946.5820, 28376.00
947.7030, 28235.00
948.8240, 28354.00
949.9450, 28225.00
951.0650, 28521.00
952.1860, 28415.00
953.3060, 28250.00
954.4260, 28034.00
955.5460, 27877.00
956.6650, 27638.00
957.7850, 27555.00
958.9040, 27428.68
960.0230, 27377.00
961.1420, 27325.00
962.2610, 27251.43
963.3800, 27328.00
964.4990, 27130.00
965.6170, 27170.00
966.7350, 27208.00
967.8530, 26985.00
968.9710, 27138.00
970.0890, 27110.00
971.2070, 27070.00
972.3240, 27133.00
973.4410, 27136.00
974.5580, 27101.00
975.6750, 27107.00
976.7920, 27138.00
977.9090, 27436.00
979.0250, 27160.00
980.1410, 27255.00
981.2580, 27371.00
982.3740, 27126.00
983.4890, 27297.00
984.6050, 27343.00
985.7200, 27533.00
986.8360, 27469.00
987.9510, 27645.00
989.0660, 27413.00
990.1810, 27407.00
991.2950, 27513.00
992.4100, 27530.00
993.5240, 27680.00
994.6390, 27724.00
995.7530, 27811.40
996.8660, 27821.00
997.9800, 27907.00
999.0940, 27859.00
1000.207, 27738.00
1001.320, 28135.00
1002.433, 27914.00
1003.546, 28105.00
1004.659, 28173.00
1005.772, 28358.00
1006.884, 28611.00
1007.996, 28370.00
1009.108, 28426.00
1010.220, 28764.00
1011.332, 28559.00
1012.444, 28899.00
1013.555, 29045.00
1014.666, 29248.00
1015.777, 29262.00
1016.888, 29542.00
1017.999, 29670.00
1019.110, 29838.00
1020.220, 29886.00
1021.331, 29873.12
1022.441, 29862.09
1023.551, 29721.00
1024.661, 29661.00
1025.770, 29546.00
1026.880, 29359.00
1027.989, 29219.00
1029.098, 29087.00
1030.207, 29046.00
1031.316, 29047.00
1032.425, 28944.00
1033.533, 28916.00
1034.642, 28945.00
1035.750, 29076.00
1036.858, 29211.00
1037.966, 28963.00
1039.073, 28845.00
1040.181, 29098.00
1041.288, 29116.00
1042.396, 29140.00
1043.503, 29079.00
1044.610, 29175.31
1045.716, 29229.00
1046.823, 29319.00
1047.929, 29396.00
1049.036, 29450.00
1050.142, 29604.14
1051.248, 29688.00
1052.353, 29894.00
1053.459, 30002.00
1054.564, 30117.00
1055.670, 30545.00
1056.775, 30923.00
1057.880, 31557.00
1058.985, 32311.70
1060.089, 33131.00
1061.194, 34262.00
1062.298, 35312.00
1063.402, 36707.00
1064.506, 38198.00
1065.610, 38685.00
1066.713, 38441.00
1067.817, 38143.00
1068.920, 36716.00
1070.023, 35514.00
1071.126, 34247.00
1072.229, 33126.00
1073.332, 32325.00
1074.435, 31738.00
1075.537, 31523.00
1076.639, 31169.00
1077.741, 30815.00
1078.843, 30456.00
1079.945, 30423.00
1081.046, 30338.00
1082.148, 30408.00
1083.249, 30347.00
1084.350, 30000.00
1085.451, 30151.00
1086.551, 29889.00
1087.652, 29809.00
1088.752, 29873.88
1089.853, 30004.00
1090.953, 30017.00
1092.053, 30052.00
1093.152, 30085.12
1094.252, 30086.00
1095.351, 30087.00
1096.451, 30098.00
1097.550, 30083.00
1098.649, 30150.00
1099.748, 30018.00
1100.846, 30349.00
1101.945, 30403.00
1103.043, 30637.00
1104.141, 30466.00
1105.239, 30615.00
1106.337, 30670.00
1107.434, 30809.00
1108.532, 30925.00
1109.629, 30829.00
1110.726, 30959.00
1111.823, 30906.00
1112.920, 30886.00
1114.017, 30806.00
1115.113, 31081.00
1116.210, 30743.00
1117.306, 30947.00
1118.402, 30676.00
1119.498, 30530.00
1120.593, 30742.00
1121.689, 30809.00
1122.784, 30821.00
1123.879, 30802.00
1124.974, 30858.00
1126.069, 30745.00
1127.164, 30720.00
1128.259, 30812.00
1129.353, 30760.00
1130.447, 30894.00
1131.541, 30850.00
1132.635, 30905.00
1133.729, 31075.00
1134.822, 31052.00
1135.916, 30783.00
1137.009, 30807.00
1138.102, 31120.00
1139.195, 30834.00
1140.288, 30930.00
1141.380, 30912.00
1142.473, 30952.00
1143.565, 31078.00
1144.657, 30922.00
1145.749, 31002.00
1146.841, 30986.00
1147.932, 30900.00
1149.024, 30945.00
1150.115, 31201.00
1151.206, 31244.00
1152.297, 31309.57
1153.388, 31285.00
1154.479, 31362.00
1155.569, 31239.00
1156.659, 31223.00
1157.750, 31425.00
1158.839, 31338.00
1159.929, 31264.00
1161.019, 31468.00
1162.108, 31230.00
1163.198, 31558.00
1164.287, 31477.00
1165.376, 31405.00
1166.465, 31675.00
1167.553, 31482.00
1168.642, 31521.00
1169.730, 31654.00
1170.818, 31509.00
1171.906, 31831.00
1172.994, 31718.00
1174.082, 31656.00
1175.170, 31583.00
1176.257, 31622.40
1177.344, 31673.00
1178.431, 31666.00
1179.518, 31726.35
1180.605, 31914.00
1181.691, 31883.00
1182.778, 31782.00
1183.864, 31995.00
1184.950, 31924.00
1186.036, 32026.00
1187.122, 32095.00
1188.207, 31986.00
1189.292, 32161.00
1190.378, 31891.00
1191.463, 32198.00
1192.548, 32047.00
1193.632, 31979.00
1194.717, 32349.00
1195.801, 32222.00
1196.886, 32431.00
1197.970, 32257.00
1199.054, 32256.00
1200.137, 32501.00
1201.221, 32292.00
1202.305, 32330.00
1203.388, 32535.00
1204.471, 32437.00
1205.554, 32450.00
1206.637, 32348.00
1207.719, 32407.25
1208.802, 32619.00
1209.884, 32491.00
1210.966, 32541.00
1212.048, 32506.29
1213.130, 32783.00
1214.212, 32504.00
1215.293, 32770.00
1216.374, 32753.00
1217.456, 32608.00
1218.536, 32766.00
1219.617, 32782.00
1220.698, 32628.00
1221.778, 32944.00
1222.859, 32891.00
1223.939, 32831.00
1225.019, 32749.00
1226.099, 33123.00
1227.178, 32932.00
1228.258, 33155.00
1229.337, 33129.00
1230.417, 32939.00
1231.496, 33058.00
1232.574, 33215.00
1233.653, 33188.00
1234.732, 33339.00
1235.810, 33302.00
1236.888, 33241.00
1237.966, 32974.00
1239.044, 33327.00
1240.122, 33451.00
1241.199, 33179.00
1242.277, 33307.00
1243.354, 33639.00
1244.431, 33586.00
1245.508, 33408.00
1246.585, 33433.00
1247.661, 33583.00
1248.738, 33360.00
1249.814, 33715.00
1250.890, 33688.00
1251.966, 33732.00
1253.042, 33518.00
1254.117, 33663.00
1255.193, 33811.00
1256.268, 33592.00
1257.343, 33693.00
1258.418, 33972.00
1259.493, 33989.00
1260.567, 33876.00
1261.642, 33915.00
1262.716, 33968.00
1263.790, 33605.00
1264.864, 33787.00
1265.938, 34129.00
1267.011, 33842.00
1268.085, 34108.00
1269.158, 34337.00
1270.231, 34006.00
1271.304, 34202.00
1272.377, 34146.00
1273.450, 34312.00
1274.522, 34468.00
1275.594, 34476.77
1276.666, 34466.88
1277.738, 34514.00
1278.810, 34421.00
1279.882, 34253.00
1280.953, 34505.00
1282.025, 34258.00
1283.096, 34446.00
1284.167, 34640.00
1285.238, 34382.00
1286.308, 34334.00
1287.379, 34683.00
1288.449, 34693.00
1289.519, 34346.00
1290.589, 34599.00
1291.659, 34591.00
1292.729, 34634.00
