##NAMES=Andalusite
##RRUFFID=R050626
##IDEAL CHEMISTRY=Al_2_SiO_5_
##LOCALITY=Minas Gerais, Brazil
##OWNER=RRUFF
##SOURCE=Gemological Center
##DESCRIPTION=Grayish brown fragment
##STATUS=The identification of this mineral has been confirmed by X-ray diffraction and chemical analysis
##URL=rruff.info/R050626
##MEASURED CHEMISTRY=(Al_1.99_Fe^3+^_0.01_)_Î£=1_Si_1.00_O_5_
##PIN_ID=L00621
##ORIENTATION=Laser parallel to -c* (0 0 -1). Fiducial mark perpendicular to laser is parallel to -a [-1 0 0]
123.0580, 14996.00
124.2880, 15344.00
125.5190, 14982.00
126.7490, 15016.00
127.9790, 15132.00
129.2090, 15563.00
130.4390, 15808.00
131.6680, 16110.00
132.8980, 16475.00
134.1270, 16618.00
135.3560, 17369.00
136.5850, 18033.00
137.8140, 19201.00
139.0430, 21112.00
140.2710, 23138.00
141.5000, 25126.00
142.7280, 26728.00
143.9560, 26955.00
145.1840, 25680.00
146.4120, 23580.00
147.6390, 21587.00
148.8670, 19626.00
150.0940, 18557.00
151.3210, 17659.00
152.5490, 17243.00
153.7750, 16619.00
155.0020, 16065.00
156.2290, 15607.00
157.4550, 15463.00
158.6810, 14966.00
159.9080, 14944.00
161.1340, 14736.00
162.3590, 14593.00
163.5850, 14803.00
164.8110, 14905.00
166.0360, 15169.00
167.2610, 15138.00
168.4860, 15260.13
169.7110, 14992.00
170.9360, 15231.00
172.1610, 15148.00
173.3850, 14850.00
174.6100, 14823.00
175.8340, 14755.00
177.0580, 14744.00
178.2820, 14766.78
179.5050, 14755.16
180.7290, 14883.00
181.9520, 14814.00
183.1760, 14933.00
184.3990, 15012.00
185.6220, 15187.00
186.8450, 15557.00
188.0670, 15885.00
189.2900, 16253.00
190.5120, 16543.00
191.7340, 16669.00
192.9560, 16900.00
194.1780, 17023.91
195.4000, 17010.00
196.6220, 17150.00
197.8430, 17054.00
199.0640, 16908.00
200.2860, 16925.00
201.5070, 17136.00
202.7270, 17306.00
203.9480, 16969.00
205.1690, 16241.06
206.3890, 15003.00
207.6090, 14494.00
208.8290, 14557.00
210.0490, 14502.00
211.2690, 14444.00
212.4890, 14597.00
213.7080, 14448.00
214.9280, 14543.00
216.1470, 14425.00
217.3660, 14433.00
218.5850, 14322.00
219.8030, 14217.00
221.0220, 14395.00
222.2400, 14415.00
223.4590, 14377.00
224.6770, 14395.00
225.8950, 14564.00
227.1120, 14588.00
228.3300, 14698.00
229.5480, 14826.00
230.7650, 14863.00
231.9820, 15083.00
233.1990, 15029.00
234.4160, 15141.00
235.6330, 15514.00
236.8490, 15824.00
238.0660, 16223.00
239.2820, 16397.00
240.4980, 16676.00
241.7140, 16723.00
242.9300, 16537.00
244.1460, 16467.00
245.3610, 16177.00
246.5770, 15852.00
247.7920, 15776.00
249.0070, 15769.00
250.2220, 15869.00
251.4370, 15699.00
252.6510, 15620.00
253.8660, 15570.00
255.0800, 15697.00
256.2940, 15629.00
257.5080, 15711.00
258.7220, 16045.00
259.9360, 15943.87
261.1490, 15974.97
262.3630, 15988.00
263.5760, 15872.00
264.7890, 15896.00
266.0020, 15994.00
267.2150, 16036.00
268.4270, 16191.00
269.6400, 16319.00
270.8520, 16487.00
272.0640, 16547.00
273.2760, 16842.00
274.4880, 17095.00
275.7000, 17787.00
276.9120, 18081.00
278.1230, 18795.00
279.3340, 19288.00
280.5450, 20226.00
281.7560, 21452.00
282.9670, 23094.00
284.1780, 24470.00
285.3880, 26766.00
286.5980, 28682.00
287.8090, 31539.00
289.0190, 34849.00
290.2290, 37823.00
291.4380, 39066.00
292.6480, 38328.00
293.8570, 35790.00
295.0670, 32030.00
296.2760, 28416.00
297.4850, 25626.00
298.6930, 22872.00
299.9020, 21080.00
301.1110, 20028.00
302.3190, 18739.00
303.5270, 18505.00
304.7350, 18033.00
305.9430, 17581.00
307.1510, 17618.00
308.3580, 17280.00
309.5660, 17724.00
310.7730, 18310.00
311.9800, 18682.00
313.1870, 19523.00
314.3940, 20340.00
315.6010, 21693.00
316.8070, 23517.00
318.0130, 25678.00
319.2200, 27947.00
320.4260, 29532.00
321.6310, 29533.00
322.8370, 27733.00
324.0430, 25710.00
325.2480, 23456.00
326.4540, 21585.00
327.6590, 20270.00
328.8640, 19197.00
330.0680, 18414.00
331.2730, 18219.00
332.4780, 17878.00
333.6820, 17709.00
334.8860, 17568.46
336.0900, 17498.60
337.2940, 17454.00
338.4980, 17606.00
339.7010, 17754.00
340.9050, 18004.00
342.1080, 17933.00
343.3110, 18123.00
344.5140, 18493.00
345.7170, 19096.00
346.9200, 19565.00
348.1220, 20590.00
349.3240, 21589.00
350.5270, 22782.00
351.7290, 24452.00
352.9310, 26251.00
354.1320, 28348.00
355.3340, 31105.00
356.5350, 33090.00
357.7370, 34757.00
358.9380, 34847.00
360.1390, 34047.00
361.3400, 32069.00
362.5400, 29887.00
363.7410, 27635.00
364.9410, 25863.00
366.1410, 23979.00
367.3410, 23174.00
368.5410, 21821.00
369.7410, 21330.00
370.9400, 20981.00
372.1400, 20733.00
373.3390, 20477.00
374.5380, 20259.00
375.7370, 19931.00
376.9360, 19721.00
378.1350, 19993.00
379.3330, 19699.00
380.5310, 20005.00
381.7300, 19906.00
382.9280, 20120.00
384.1260, 20150.00
385.3230, 20298.00
386.5210, 20367.00
387.7180, 20390.00
388.9160, 20705.00
390.1130, 21046.00
391.3100, 21008.00
392.5060, 21339.00
393.7030, 21183.00
394.9000, 21262.00
396.0960, 21207.00
397.2920, 21107.00
398.4880, 21142.00
399.6840, 21156.00
400.8800, 21103.00
402.0750, 21075.00
403.2710, 21155.00
404.4660, 21055.00
405.6610, 20910.00
406.8560, 20930.00
408.0510, 20687.00
409.2450, 20588.00
410.4400, 20386.00
411.6340, 20311.00
412.8280, 20158.00
414.0220, 20141.49
415.2160, 20141.89
416.4100, 20118.00
417.6030, 20108.00
418.7970, 20026.00
419.9900, 19935.29
421.1830, 19772.00
422.3760, 19690.00
423.5690, 19537.00
424.7610, 19413.00
425.9540, 19469.00
427.1460, 19321.69
428.3380, 19258.71
429.5300, 19220.00
430.7220, 19108.00
431.9140, 19153.00
433.1050, 19166.00
434.2970, 19057.00
435.4880, 19074.00
436.6790, 19289.00
437.8700, 19062.00
439.0610, 19444.00
440.2510, 19335.00
441.4420, 19396.00
442.6320, 19525.00
443.8220, 19818.00
445.0120, 19845.00
446.2020, 20133.00
447.3910, 20193.00
448.5810, 20475.00
449.7700, 20702.00
450.9600, 20715.57
452.1490, 20612.79
453.3370, 20620.00
454.5260, 20118.00
455.7150, 19678.00
456.9030, 19390.00
458.0910, 19308.00
459.2800, 19267.00
460.4670, 19104.45
461.6550, 18781.00
462.8430, 18882.00
464.0300, 18933.00
465.2180, 18738.00
466.4050, 18837.00
467.5920, 19062.00
468.7790, 19087.00
469.9650, 19211.00
471.1520, 19286.00
472.3380, 19710.00
473.5250, 19911.00
474.7110, 20084.00
475.8970, 20183.00
477.0820, 20277.00
478.2680, 20345.00
479.4540, 20522.00
480.6390, 20476.00
481.8240, 20568.00
483.0090, 20464.00
484.1940, 20330.00
485.3780, 20208.00
486.5630, 20117.36
487.7470, 20032.00
488.9320, 19960.85
490.1160, 19964.00
491.3000, 19947.00
492.4830, 19906.00
493.6670, 19822.00
494.8500, 19916.00
496.0340, 19936.00
497.2170, 19973.00
498.4000, 20107.00
499.5820, 20240.00
500.7650, 20272.00
501.9480, 20358.00
503.1300, 20418.00
504.3120, 20476.00
505.4940, 20616.00
506.6760, 20906.00
507.8580, 20740.00
509.0390, 21044.00
510.2210, 21164.00
511.4020, 21150.00
512.5830, 21199.00
513.7640, 21321.00
514.9450, 21258.00
516.1250, 21357.00
517.3060, 21401.00
518.4860, 21145.00
519.6660, 21322.00
520.8460, 21073.00
522.0260, 21257.00
523.2060, 21097.00
524.3850, 21304.00
525.5650, 21143.00
526.7440, 21375.00
527.9230, 21385.00
529.1020, 21633.00
530.2810, 21586.00
531.4590, 21656.00
532.6380, 21877.00
533.8160, 21876.00
534.9940, 21809.00
536.1720, 22106.00
537.3500, 22176.00
538.5270, 22616.00
539.7050, 22696.00
540.8820, 22990.00
542.0590, 23178.00
543.2360, 23616.00
544.4130, 23916.00
545.5900, 24123.64
546.7660, 24528.00
547.9430, 24610.00
549.1190, 25046.00
550.2950, 25447.00
551.4710, 25801.00
552.6470, 25801.00
553.8220, 25609.00
554.9980, 25417.00
556.1730, 25042.00
557.3480, 24816.00
558.5230, 24372.00
559.6980, 24287.00
560.8730, 24020.00
562.0470, 23838.00
563.2220, 23981.00
564.3960, 24040.00
565.5700, 23979.00
566.7440, 24098.00
567.9170, 24251.00
569.0910, 24517.00
570.2640, 24513.00
571.4380, 24559.00
572.6110, 24534.00
573.7840, 24482.00
574.9570, 24493.00
576.1290, 24217.00
577.3020, 23796.00
578.4740, 23676.00
579.6460, 23314.00
580.8180, 23287.00
581.9900, 22867.00
583.1620, 22850.00
584.3330, 22617.00
585.5040, 22514.00
586.6760, 22308.00
587.8470, 22205.00
589.0180, 22026.00
590.1880, 22100.00
591.3590, 22118.00
592.5290, 21821.00
593.7000, 21892.00
594.8700, 21752.00
596.0400, 21799.00
597.2090, 21952.00
598.3790, 22100.00
599.5490, 22101.00
600.7180, 21905.00
601.8870, 22070.00
603.0560, 21990.00
604.2250, 22012.00
605.3940, 22382.00
606.5620, 22404.00
607.7300, 22801.00
608.8990, 22829.00
610.0670, 22853.00
611.2350, 22931.00
612.4020, 23095.97
613.5700, 23265.00
614.7370, 23546.00
615.9050, 23678.00
617.0720, 23998.00
618.2390, 24000.00
619.4060, 24208.00
620.5720, 24237.00
621.7390, 24314.00
622.9050, 24495.00
624.0710, 24606.00
625.2370, 24691.00
626.4030, 24964.00
627.5690, 25195.00
628.7340, 25400.00
629.9000, 25380.00
631.0650, 25587.00
632.2300, 25500.00
633.3950, 25710.00
634.5600, 25696.00
635.7240, 25613.00
636.8890, 25452.00
638.0530, 25575.00
639.2170, 25300.00
640.3810, 25371.00
641.5450, 25322.00
642.7080, 24969.00
643.8720, 25126.00
645.0350, 25068.00
646.1980, 24749.00
647.3610, 24499.00
648.5240, 24428.00
649.6870, 24564.00
650.8490, 24369.00
652.0120, 23974.00
653.1740, 23712.00
654.3360, 23430.00
655.4980, 23116.00
656.6600, 22956.00
657.8210, 22838.00
658.9830, 22449.00
660.1440, 22414.00
661.3050, 22258.00
662.4660, 22398.00
663.6270, 21883.00
664.7870, 21941.00
665.9480, 21779.00
667.1080, 21786.00
668.2680, 21618.00
669.4280, 21755.00
670.5880, 21643.00
671.7480, 21649.00
672.9070, 21524.00
674.0670, 21390.00
675.2260, 21591.00
676.3850, 21465.00
677.5440, 21371.00
678.7030, 21422.00
679.8610, 21605.00
681.0200, 21338.00
682.1780, 21221.00
683.3360, 21538.00
684.4940, 21367.00
685.6520, 21455.78
686.8090, 21484.56
687.9670, 21615.00
689.1240, 21392.00
690.2810, 21689.00
691.4380, 21524.00
692.5950, 21455.00
693.7520, 21620.00
694.9080, 21700.00
696.0650, 21710.00
697.2210, 21680.00
698.3770, 21760.00
699.5330, 21806.00
700.6880, 21823.00
701.8440, 21904.00
702.9990, 21935.00
704.1550, 21993.00
705.3100, 22095.68
706.4650, 22183.00
707.6190, 22347.00
708.7740, 22467.00
709.9290, 22682.00
711.0830, 22743.00
712.2370, 23141.00
713.3910, 23035.00
714.5450, 22991.00
715.6980, 23156.00
716.8520, 22884.00
718.0050, 22969.00
719.1580, 22931.00
720.3110, 22787.00
721.4640, 22518.00
722.6170, 22387.00
723.7700, 22134.00
724.9220, 22106.00
726.0740, 21969.00
727.2260, 21798.00
728.3780, 21794.00
729.5300, 21844.00
730.6810, 21906.00
731.8330, 22004.00
732.9840, 21789.00
734.1350, 21914.00
735.2860, 21941.00
736.4370, 22060.00
737.5880, 22067.00
738.7380, 21996.00
739.8880, 21875.00
741.0390, 21786.00
742.1890, 22027.00
743.3380, 21889.00
744.4880, 21697.00
745.6380, 21917.00
746.7870, 21762.00
747.9360, 21784.00
749.0850, 21670.00
750.2340, 21657.17
751.3830, 21811.00
752.5310, 21695.00
753.6800, 21798.00
754.8280, 21944.00
755.9760, 21728.00
757.1240, 21795.00
758.2720, 22096.00
759.4190, 22054.00
760.5670, 22018.00
761.7140, 21991.00
762.8610, 21975.68
764.0080, 22019.00
765.1550, 21953.00
766.3020, 22009.00
767.4480, 21986.00
768.5950, 22005.00
769.7410, 21929.00
770.8870, 21894.00
772.0330, 22076.00
773.1780, 22170.00
774.3240, 22166.00
775.4690, 22147.00
776.6140, 22187.88
777.7590, 22228.00
778.9040, 22205.00
780.0490, 22184.00
781.1940, 22191.00
782.3380, 22248.80
783.4820, 22373.00
784.6260, 22393.00
785.7700, 22515.00
786.9140, 22562.00
788.0580, 22670.00
789.2010, 22798.00
790.3450, 22622.00
791.4880, 22690.00
792.6310, 22896.00
793.7730, 22873.00
794.9160, 23022.00
796.0590, 22940.00
797.2010, 23104.00
798.3430, 23275.00
799.4850, 23526.00
800.6270, 23554.00
801.7690, 23875.00
802.9100, 23991.00
804.0520, 24109.00
805.1930, 24364.00
806.3340, 24541.00
807.4750, 24723.00
808.6160, 25106.00
809.7560, 25176.00
810.8970, 25563.00
812.0370, 25941.00
813.1770, 26376.00
814.3170, 26738.63
815.4570, 27077.94
816.5960, 27451.00
817.7360, 27683.00
818.8750, 27930.00
820.0140, 28154.00
821.1530, 28250.00
822.2920, 27957.00
823.4310, 27951.00
824.5690, 27470.00
825.7070, 27257.00
826.8460, 26863.00
827.9840, 26387.00
829.1220, 26166.62
830.2590, 25793.00
831.3970, 25622.00
832.5340, 25256.00
833.6710, 25049.00
834.8080, 25088.00
835.9450, 24938.00
837.0820, 24811.00
838.2190, 24719.00
839.3550, 24530.00
840.4910, 24444.93
841.6270, 24249.00
842.7630, 24226.96
843.8990, 24112.02
845.0350, 24000.00
846.1700, 24010.00
847.3060, 23736.00
848.4410, 23856.00
849.5760, 23762.00
850.7100, 23763.00
851.8450, 23847.00
852.9800, 23872.00
854.1140, 23750.00
855.2480, 23735.00
856.3820, 23802.00
857.5160, 23976.00
858.6500, 23919.00
859.7830, 24055.00
860.9170, 24024.00
862.0500, 23885.00
863.1830, 24165.00
864.3160, 24192.00
865.4480, 24058.00
866.5810, 24111.00
867.7130, 24248.00
868.8460, 24140.00
869.9780, 24347.00
871.1100, 24490.00
872.2410, 24340.00
873.3730, 24395.00
874.5050, 24172.00
875.6360, 24373.00
876.7670, 24133.00
877.8980, 24267.00
879.0290, 24204.00
880.1590, 24224.00
881.2900, 24393.00
882.4200, 24276.00
883.5500, 24482.00
884.6800, 24321.00
885.8100, 24502.00
886.9400, 24387.00
888.0690, 24838.00
889.1990, 24718.00
890.3280, 24840.00
891.4570, 24811.00
892.5860, 25064.00
893.7140, 25244.00
894.8430, 25200.00
895.9710, 25578.00
897.1000, 25933.00
898.2280, 26239.00
899.3560, 26199.00
900.4830, 26392.00
901.6110, 26888.00
902.7380, 27340.00
903.8660, 27945.00
904.9930, 28397.00
906.1200, 28817.00
907.2460, 29928.00
908.3730, 30711.00
909.5000, 31836.00
910.6260, 33241.00
911.7520, 35439.00
912.8780, 37874.00
914.0040, 40475.00
915.1290, 44297.00
916.2550, 47902.00
917.3800, 52114.00
918.5050, 54313.00
919.6300, 54913.00
920.7550, 52619.00
921.8800, 48906.00
923.0040, 44598.00
924.1290, 40558.00
925.2530, 38339.00
926.3770, 36281.00
927.5010, 34776.00
928.6250, 33611.00
929.7480, 32632.00
930.8720, 32002.00
931.9950, 31378.00
933.1180, 30815.00
934.2410, 30748.00
935.3640, 30357.00
936.4860, 30273.00
937.6090, 30448.00
938.7310, 30751.00
939.8530, 31027.00
940.9750, 31512.00
942.0970, 31899.00
943.2180, 32788.00
944.3400, 33956.00
945.4610, 36029.00
946.5820, 36780.00
947.7030, 38389.00
948.8240, 39667.00
949.9450, 40831.00
951.0650, 40893.00
952.1860, 39955.00
953.3060, 38635.00
954.4260, 36874.00
955.5460, 34790.00
956.6650, 33546.00
957.7850, 31805.00
958.9040, 30734.00
960.0230, 30248.00
961.1420, 29171.00
962.2610, 28747.00
963.3800, 28540.00
964.4990, 28348.00
965.6170, 28076.27
966.7350, 27901.70
967.8530, 27722.00
968.9710, 27550.00
970.0890, 27482.00
971.2070, 27407.00
972.3240, 27422.61
973.4410, 27388.19
974.5580, 27388.15
975.6750, 27369.00
976.7920, 27382.00
977.9090, 27324.00
979.0250, 27260.55
980.1410, 27422.00
981.2580, 27259.00
982.3740, 27317.00
983.4890, 27500.00
984.6050, 27489.00
985.7200, 27597.25
986.8360, 27650.00
987.9510, 27744.00
989.0660, 27890.00
990.1810, 27990.00
991.2950, 27602.00
992.4100, 27763.00
993.5240, 27929.00
994.6390, 28085.00
995.7530, 28396.00
996.8660, 28860.00
997.9800, 28951.00
999.0940, 29606.00
1000.207, 30055.00
1001.320, 30884.00
1002.433, 31428.00
1003.546, 32090.00
1004.659, 32416.00
1005.772, 32502.00
1006.884, 32480.00
1007.996, 32164.00
1009.108, 31715.00
1010.220, 31036.00
1011.332, 30405.00
1012.444, 30168.00
1013.555, 29926.00
1014.666, 29499.00
1015.777, 29766.00
1016.888, 29589.00
1017.999, 29694.00
1019.110, 29678.00
1020.220, 29698.00
1021.331, 29772.00
1022.441, 29615.00
1023.551, 29590.00
1024.661, 29504.46
1025.770, 29562.00
1026.880, 29223.00
1027.989, 29229.00
1029.098, 28943.00
1030.207, 29177.00
1031.316, 29144.00
1032.425, 29190.00
1033.533, 29275.00
1034.642, 29460.11
1035.750, 29687.00
1036.858, 29978.00
1037.966, 30256.00
1039.073, 30584.00
1040.181, 30734.00
1041.288, 31147.00
1042.396, 31431.00
1043.503, 31760.00
1044.610, 32230.00
1045.716, 32399.00
1046.823, 32900.00
1047.929, 33180.00
1049.036, 33033.00
1050.142, 32788.00
1051.248, 32859.00
1052.353, 32593.00
1053.459, 32024.00
1054.564, 32169.00
1055.670, 31872.00
1056.775, 31550.00
1057.880, 31771.00
1058.985, 31749.00
1060.089, 33179.00
1061.194, 33190.00
1062.298, 33496.00
1063.402, 33603.00
1064.506, 33959.00
1065.610, 32826.00
1066.713, 32210.00
1067.817, 31799.00
1068.920, 31309.00
1070.023, 30908.79
1071.126, 30553.00
1072.229, 30223.00
1073.332, 30050.00
1074.435, 29884.06
1075.537, 29761.00
1076.639, 29809.00
1077.741, 29863.00
1078.843, 30012.00
1079.945, 30144.00
1081.046, 30231.00
1082.148, 30309.00
1083.249, 30848.00
1084.350, 31162.00
1085.451, 31979.00
1086.551, 31764.27
1087.652, 32406.00
1088.752, 31233.00
1089.853, 30625.00
1090.953, 29915.00
1092.053, 29721.00
1093.152, 29642.00
1094.252, 29602.00
1095.351, 29655.00
1096.451, 29395.00
1097.550, 29552.00
1098.649, 29601.00
1099.748, 29855.00
1100.846, 29634.00
1101.945, 29808.00
1103.043, 29870.00
1104.141, 30200.00
1105.239, 29823.00
1106.337, 30125.00
1107.434, 30011.00
1108.532, 30131.00
1109.629, 30138.00
1110.726, 29953.00
1111.823, 30135.00
1112.920, 30297.00
1114.017, 30082.00
1115.113, 30203.00
1116.210, 29999.00
1117.306, 30036.00
1118.402, 30199.00
1119.498, 30175.00
1120.593, 30354.00
1121.689, 30306.00
1122.784, 30546.00
1123.879, 30544.00
1124.974, 30599.00
1126.069, 30543.00
1127.164, 30453.00
1128.259, 30501.00
1129.353, 30395.16
1130.447, 30403.27
1131.541, 30263.00
1132.635, 30378.00
1133.729, 30336.00
1134.822, 30300.00
1135.916, 30294.00
1137.009, 30239.00
1138.102, 30219.00
1139.195, 30261.00
1140.288, 30397.00
1141.380, 30348.00
1142.473, 30432.00
1143.565, 30555.00
1144.657, 30311.00
1145.749, 30306.00
1146.841, 30341.00
1147.932, 30370.00
1149.024, 30348.00
1150.115, 30357.00
1151.206, 30295.00
1152.297, 30532.00
1153.388, 30361.00
1154.479, 30621.00
1155.569, 30284.00
1156.659, 30414.00
1157.750, 30522.00
1158.839, 30664.00
1159.929, 30605.00
1161.019, 30427.00
1162.108, 30442.00
1163.198, 30429.00
1164.287, 30428.00
1165.376, 30230.00
1166.465, 30276.00
1167.553, 30163.00
1168.642, 30260.00
1169.730, 30241.00
1170.818, 30280.00
1171.906, 30263.00
1172.994, 30195.00
1174.082, 30220.00
1175.170, 30532.00
1176.257, 30274.00
1177.344, 30492.00
1178.431, 30097.00
1179.518, 30336.00
1180.605, 30163.00
1181.691, 30305.00
1182.778, 30384.00
1183.864, 30433.00
1184.950, 30328.00
1186.036, 30703.00
1187.122, 30435.00
1188.207, 30535.00
1189.292, 30671.00
1190.378, 30479.00
1191.463, 30576.00
1192.548, 30387.00
1193.632, 30448.00
1194.717, 30672.00
1195.801, 30495.00
1196.886, 30602.00
1197.970, 30536.00
1199.054, 30555.00
1200.137, 30788.00
1201.221, 30754.00
1202.305, 30771.00
1203.388, 30766.00
1204.471, 30771.00
1205.554, 30870.00
1206.637, 30863.00
1207.719, 31083.00
1208.802, 30684.00
1209.884, 31075.00
1210.966, 30827.00
1212.048, 30898.00
1213.130, 31104.00
1214.212, 30868.00
1215.293, 31090.00
1216.374, 31092.00
1217.456, 31013.00
1218.536, 31027.00
1219.617, 31036.56
1220.698, 30985.00
1221.778, 31037.00
1222.859, 31013.00
1223.939, 30889.00
1225.019, 31035.00
1226.099, 31210.00
1227.178, 30937.00
1228.258, 31227.00
1229.337, 31255.00
1230.417, 31456.00
1231.496, 31339.00
1232.574, 31468.50
1233.653, 31477.00
1234.732, 31508.00
1235.810, 31587.00
1236.888, 31434.00
1237.966, 31508.00
1239.044, 31481.00
1240.122, 31389.00
1241.199, 31645.00
1242.277, 31459.00
1243.354, 31516.00
1244.431, 31735.00
1245.508, 31755.00
1246.585, 31761.00
1247.661, 31677.00
1248.738, 31612.00
1249.814, 31901.00
1250.890, 31745.00
1251.966, 32007.00
1253.042, 31943.00
1254.117, 31946.00
1255.193, 31996.00
1256.268, 32082.00
1257.343, 32042.00
1258.418, 32072.96
1259.493, 32268.00
1260.567, 32087.00
1261.642, 32046.00
1262.716, 32126.00
1263.790, 32251.00
1264.864, 32222.00
1265.938, 32064.00
1267.011, 32186.00
1268.085, 32132.00
1269.158, 32314.00
1270.231, 32216.00
1271.304, 32338.00
1272.377, 32234.00
1273.450, 32452.00
1274.522, 32473.00
1275.594, 32555.00
1276.666, 32581.56
1277.738, 32249.00
1278.810, 32451.00
1279.882, 32389.00
1280.953, 32108.00
1282.025, 32381.00
1283.096, 32388.00
1284.167, 32442.00
1285.238, 32480.00
1286.308, 32469.00
1287.379, 32667.00
1288.449, 32498.00
1289.519, 32526.00
1290.589, 32761.00
1291.659, 32733.00
1292.729, 32742.00
1293.798, 32472.00
1294.868, 32799.00
1295.937, 32732.00
1297.006, 32636.00
1298.075, 32967.00
1299.143, 32996.00
1300.212, 32917.00
1301.280, 32735.00
1302.348, 32889.00
