##NAMES=Andalusite
##RRUFFID=R060197
##IDEAL CHEMISTRY=Al_2_SiO_5_
##LOCALITY=Brazil
##OWNER=RRUFF
##SOURCE=Marcus Origlieri
##DESCRIPTION=Green colored water worn pebble
##STATUS=The identification of this mineral has been confirmed by X-ray diffraction and chemical analysis
##URL=rruff.info/R060197
##MEASURED CHEMISTRY=(Al_1.97_Mn^3+^_0.03_)_Î£=2_Si_1.00_O_5_
##PIN_ID=L01138
##ORIENTATION=Laser parallel to -b* (0 -1 0). Fiducial mark perpendicular to laser is parallel to -c [0 0 -1]
123.0580, 11138.00
124.2880, 11316.00
125.5190, 11150.00
126.7490, 11279.00
127.9790, 11186.00
129.2090, 11352.00
130.4390, 11431.00
131.6680, 11489.00
132.8980, 11469.00
134.1270, 11402.00
135.3560, 11479.00
136.5850, 11539.00
137.8140, 11612.00
139.0430, 11776.00
140.2710, 11908.00
141.5000, 11942.00
142.7280, 11655.00
143.9560, 11879.00
145.1840, 11768.00
146.4120, 11734.00
147.6390, 11874.00
148.8670, 11642.00
150.0940, 11795.00
151.3210, 11780.00
152.5490, 11962.00
153.7750, 11914.00
155.0020, 11921.00
156.2290, 12041.00
157.4550, 12005.00
158.6810, 11980.00
159.9080, 11938.00
161.1340, 11933.00
162.3590, 12016.67
163.5850, 12197.00
164.8110, 12246.00
166.0360, 12390.00
167.2610, 12538.00
168.4860, 12358.00
169.7110, 12422.00
170.9360, 12609.00
172.1610, 12489.00
173.3850, 12453.00
174.6100, 12528.00
175.8340, 12430.00
177.0580, 12471.00
178.2820, 12523.00
179.5050, 12481.00
180.7290, 12374.00
181.9520, 12500.00
183.1760, 12532.00
184.3990, 12729.00
185.6220, 12710.00
186.8450, 12767.00
188.0670, 13002.00
189.2900, 13077.00
190.5120, 13397.00
191.7340, 13354.00
192.9560, 13436.00
194.1780, 13658.00
195.4000, 13741.00
196.6220, 13797.00
197.8430, 13608.00
199.0640, 13611.00
200.2860, 13811.00
201.5070, 13716.00
202.7270, 13764.00
203.9480, 13688.00
205.1690, 13435.00
206.3890, 12945.00
207.6090, 12734.00
208.8290, 12938.00
210.0490, 12919.00
211.2690, 12880.00
212.4890, 13014.00
213.7080, 12939.00
214.9280, 13124.00
216.1470, 12972.00
217.3660, 12939.00
218.5850, 12842.00
219.8030, 13068.00
221.0220, 13001.00
222.2400, 13301.00
223.4590, 12986.00
224.6770, 13043.00
225.8950, 13069.00
227.1120, 13203.00
228.3300, 13266.00
229.5480, 13316.00
230.7650, 13365.37
231.9820, 13438.00
233.1990, 13434.00
234.4160, 13463.00
235.6330, 13563.00
236.8490, 13645.00
238.0660, 13582.00
239.2820, 13718.00
240.4980, 13677.00
241.7140, 13705.31
242.9300, 13854.00
244.1460, 13728.00
245.3610, 13758.00
246.5770, 13752.67
247.7920, 13743.48
249.0070, 13904.00
250.2220, 13869.00
251.4370, 14043.00
252.6510, 14281.00
253.8660, 14405.00
255.0800, 14592.00
256.2940, 14840.68
257.5080, 14904.00
258.7220, 15352.00
259.9360, 15770.00
261.1490, 16065.00
262.3630, 15780.00
263.5760, 15713.00
264.7890, 15984.00
266.0020, 15995.00
267.2150, 16281.00
268.4270, 16735.00
269.6400, 17170.00
270.8520, 18228.00
272.0640, 19121.00
273.2760, 19755.00
274.4880, 20289.00
275.7000, 20528.00
276.9120, 21216.00
278.1230, 22396.00
279.3340, 23716.00
280.5450, 25604.00
281.7560, 27434.00
282.9670, 30071.00
284.1780, 32673.00
285.3880, 34741.00
286.5980, 37119.00
287.8090, 38258.00
289.0190, 38712.00
290.2290, 37463.00
291.4380, 35336.00
292.6480, 32297.00
293.8570, 29750.00
295.0670, 27129.00
296.2760, 24875.00
297.4850, 23174.00
298.6930, 21834.00
299.9020, 21022.00
301.1110, 20077.00
302.3190, 19473.00
303.5270, 19134.00
304.7350, 18814.00
305.9430, 18938.00
307.1510, 19145.00
308.3580, 19347.00
309.5660, 20037.00
310.7730, 20879.50
311.9800, 21980.00
313.1870, 23266.00
314.3940, 24867.00
315.6010, 26491.00
316.8070, 27596.00
318.0130, 27889.00
319.2200, 27875.00
320.4260, 26221.00
321.6310, 24850.00
322.8370, 23647.00
324.0430, 22406.00
325.2480, 21488.00
326.4540, 20792.00
327.6590, 20331.00
328.8640, 19960.00
330.0680, 19542.00
331.2730, 19626.00
332.4780, 19377.00
333.6820, 19481.00
334.8860, 19353.00
336.0900, 19388.00
337.2940, 19416.00
338.4980, 19543.00
339.7010, 19435.00
340.9050, 19521.00
342.1080, 19582.00
343.3110, 19770.00
344.5140, 20063.00
345.7170, 20507.00
346.9200, 20933.27
348.1220, 21497.00
349.3240, 22111.00
350.5270, 22826.00
351.7290, 23665.00
352.9310, 24400.00
354.1320, 24926.00
355.3340, 25064.88
356.5350, 25098.00
357.7370, 24620.00
358.9380, 23850.00
360.1390, 22822.00
361.3400, 21812.00
362.5400, 20919.00
363.7410, 20107.00
364.9410, 19719.00
366.1410, 19275.00
367.3410, 18975.00
368.5410, 18839.00
369.7410, 18358.00
370.9400, 18162.00
372.1400, 18044.00
373.3390, 18079.00
374.5380, 18050.00
375.7370, 17815.00
376.9360, 17738.00
378.1350, 17899.00
379.3330, 17913.00
380.5310, 17686.00
381.7300, 17838.00
382.9280, 17728.00
384.1260, 17613.00
385.3230, 17585.00
386.5210, 17544.32
387.7180, 17570.00
388.9160, 17568.00
390.1130, 17559.00
391.3100, 17624.00
392.5060, 17528.00
393.7030, 17391.00
394.9000, 17473.00
396.0960, 17342.00
397.2920, 17251.00
398.4880, 17319.00
399.6840, 17412.00
400.8800, 17394.00
402.0750, 17315.00
403.2710, 17494.00
404.4660, 17315.00
405.6610, 17483.00
406.8560, 17485.00
408.0510, 17510.00
409.2450, 17652.00
410.4400, 17593.00
411.6340, 17841.00
412.8280, 17815.00
414.0220, 17903.00
415.2160, 18172.00
416.4100, 18082.00
417.6030, 18200.00
418.7970, 18334.00
419.9900, 18128.00
421.1830, 17866.00
422.3760, 18020.00
423.5690, 17877.00
424.7610, 17847.00
425.9540, 17873.00
427.1460, 17708.00
428.3380, 17789.00
429.5300, 17495.00
430.7220, 17764.00
431.9140, 17833.00
433.1050, 17956.00
434.2970, 17790.00
435.4880, 17739.00
436.6790, 17968.00
437.8700, 17895.00
439.0610, 18063.00
440.2510, 18269.00
441.4420, 18183.00
442.6320, 18329.00
443.8220, 18637.00
445.0120, 18528.00
446.2020, 18628.00
447.3910, 18733.00
448.5810, 18903.00
449.7700, 18924.00
450.9600, 19071.00
452.1490, 19193.00
453.3370, 18844.00
454.5260, 18779.00
455.7150, 18696.00
456.9030, 18700.00
458.0910, 18739.00
459.2800, 18734.00
460.4670, 19027.00
461.6550, 19003.00
462.8430, 19428.00
464.0300, 19587.00
465.2180, 19595.00
466.4050, 19903.00
467.5920, 19898.00
468.7790, 20128.00
469.9650, 20349.00
471.1520, 20524.00
472.3380, 20640.00
473.5250, 20756.43
474.7110, 20642.00
475.8970, 20898.00
477.0820, 20790.00
478.2680, 20841.00
479.4540, 20552.00
480.6390, 20505.00
481.8240, 20244.00
483.0090, 20087.71
484.1940, 19989.00
485.3780, 19734.00
486.5630, 19649.00
487.7470, 19444.00
488.9320, 19168.00
490.1160, 19084.00
491.3000, 18871.00
492.4830, 18905.00
493.6670, 18671.00
494.8500, 19013.00
496.0340, 18946.00
497.2170, 18931.00
498.4000, 19041.00
499.5820, 19194.00
500.7650, 19303.00
501.9480, 19409.00
503.1300, 19504.88
504.3120, 19604.00
505.4940, 19682.00
506.6760, 19703.00
507.8580, 19830.00
509.0390, 19936.00
510.2210, 19852.00
511.4020, 19985.00
512.5830, 19915.00
513.7640, 20029.00
514.9450, 19867.00
516.1250, 19941.00
517.3060, 19866.00
518.4860, 19944.00
519.6660, 19814.00
520.8460, 19977.00
522.0260, 19921.00
523.2060, 20049.00
524.3850, 19979.00
525.5650, 20011.00
526.7440, 20002.00
527.9230, 19988.79
529.1020, 20105.00
530.2810, 19986.00
531.4590, 20151.00
532.6380, 20158.00
533.8160, 20353.00
534.9940, 20570.00
536.1720, 20598.00
537.3500, 21005.00
538.5270, 21325.00
539.7050, 22029.00
540.8820, 22367.00
542.0590, 22940.00
543.2360, 23686.00
544.4130, 24143.00
545.5900, 24953.00
546.7660, 25133.00
547.9430, 25217.00
549.1190, 24716.00
550.2950, 24133.00
551.4710, 23763.00
552.6470, 22975.00
553.8220, 22449.00
554.9980, 22014.00
556.1730, 21473.00
557.3480, 21432.00
558.5230, 21205.00
559.6980, 20950.00
560.8730, 20923.00
562.0470, 21070.00
563.2220, 20936.00
564.3960, 21351.00
565.5700, 21277.00
566.7440, 21467.00
567.9170, 21524.00
569.0910, 21342.00
570.2640, 21541.00
571.4380, 21386.00
572.6110, 21507.00
573.7840, 21490.79
574.9570, 21443.00
576.1290, 21419.00
577.3020, 21269.00
578.4740, 21130.00
579.6460, 21205.00
580.8180, 21204.00
581.9900, 21301.00
583.1620, 21160.00
584.3330, 21212.00
585.5040, 21255.00
586.6760, 21258.00
587.8470, 21403.00
589.0180, 21502.00
590.1880, 21578.00
591.3590, 21550.00
592.5290, 21715.00
593.7000, 21528.00
594.8700, 21883.00
596.0400, 21838.00
597.2090, 21875.00
598.3790, 21789.00
599.5490, 21942.00
600.7180, 21939.00
601.8870, 21956.00
603.0560, 21845.00
604.2250, 21958.00
605.3940, 22091.00
606.5620, 21824.00
607.7300, 22003.00
608.8990, 21663.00
610.0670, 21734.00
611.2350, 21654.00
612.4020, 21766.00
613.5700, 21592.00
614.7370, 21719.00
615.9050, 21886.00
617.0720, 21695.00
618.2390, 21850.00
619.4060, 21469.00
620.5720, 21903.00
621.7390, 21742.00
622.9050, 21826.00
624.0710, 21757.00
625.2370, 21709.00
626.4030, 21564.00
627.5690, 21445.00
628.7340, 21334.00
629.9000, 21515.00
631.0650, 21338.00
632.2300, 21457.00
633.3950, 21355.00
634.5600, 21446.00
635.7240, 21592.00
636.8890, 21723.00
638.0530, 21777.84
639.2170, 21715.00
640.3810, 21841.00
641.5450, 21819.00
642.7080, 21739.00
643.8720, 21890.00
645.0350, 21891.00
646.1980, 21937.00
647.3610, 21638.00
648.5240, 22022.00
649.6870, 21890.00
650.8490, 22056.00
652.0120, 21778.00
653.1740, 21997.00
654.3360, 21948.00
655.4980, 22207.00
656.6600, 22178.00
657.8210, 22152.00
658.9830, 22217.00
660.1440, 22511.00
661.3050, 22409.00
662.4660, 22494.00
663.6270, 22489.00
664.7870, 22469.00
665.9480, 22485.00
667.1080, 22354.00
668.2680, 22242.00
669.4280, 22444.00
670.5880, 22338.00
671.7480, 22398.00
672.9070, 22465.00
674.0670, 22464.64
675.2260, 22567.04
676.3850, 22601.00
677.5440, 22742.00
678.7030, 22896.00
679.8610, 23003.00
681.0200, 23003.00
682.1780, 23072.00
683.3360, 23208.00
684.4940, 23388.00
685.6520, 23360.00
686.8090, 23446.00
687.9670, 23488.00
689.1240, 23355.00
690.2810, 23795.00
691.4380, 23512.00
692.5950, 23712.00
693.7520, 23816.00
694.9080, 23825.00
696.0650, 23979.00
697.2210, 24082.00
698.3770, 24095.00
699.5330, 24379.00
700.6880, 24161.00
701.8440, 24674.00
702.9990, 24619.00
704.1550, 24961.00
705.3100, 24809.00
706.4650, 24735.00
707.6190, 24906.00
708.7740, 24912.00
709.9290, 24961.00
711.0830, 24923.00
712.2370, 24879.02
713.3910, 24817.62
714.5450, 24654.00
715.6980, 24535.00
716.8520, 24252.00
718.0050, 23899.00
719.1580, 23932.00
720.3110, 23517.00
721.4640, 23307.00
722.6170, 23186.00
723.7700, 23069.00
724.9220, 22977.80
726.0740, 22945.00
727.2260, 22881.00
728.3780, 22833.00
729.5300, 22819.00
730.6810, 22917.00
731.8330, 22918.00
732.9840, 23006.00
734.1350, 22986.00
735.2860, 23285.00
736.4370, 23275.00
737.5880, 23599.00
738.7380, 23743.00
739.8880, 23694.00
741.0390, 23740.00
742.1890, 23800.00
743.3380, 24122.00
744.4880, 24070.00
745.6380, 24272.00
746.7870, 24411.00
747.9360, 24456.00
749.0850, 24622.00
750.2340, 24672.00
751.3830, 24711.00
752.5310, 24816.00
753.6800, 24768.57
754.8280, 24920.00
755.9760, 24751.00
757.1240, 24777.00
758.2720, 24897.00
759.4190, 24526.00
760.5670, 24489.00
761.7140, 24520.00
762.8610, 24497.00
764.0080, 24636.00
765.1550, 24377.00
766.3020, 24557.00
767.4480, 24432.00
768.5950, 24479.00
769.7410, 24705.00
770.8870, 24704.00
772.0330, 24528.00
773.1780, 24580.00
774.3240, 24856.00
775.4690, 24861.00
776.6140, 25107.00
777.7590, 25315.00
778.9040, 25687.00
780.0490, 25872.00
781.1940, 26461.00
782.3380, 26856.00
783.4820, 27210.00
784.6260, 27654.00
785.7700, 28301.00
786.9140, 28757.00
788.0580, 29292.00
789.2010, 29535.00
790.3450, 29607.00
791.4880, 29724.00
792.6310, 29809.00
793.7730, 29307.00
794.9160, 28768.00
796.0590, 28224.00
797.2010, 27752.00
798.3430, 27454.00
799.4850, 27014.00
800.6270, 26693.00
801.7690, 26330.00
802.9100, 26101.00
804.0520, 25766.00
805.1930, 25660.00
806.3340, 25544.00
807.4750, 25177.00
808.6160, 25338.00
809.7560, 25124.00
810.8970, 24780.00
812.0370, 24763.00
813.1770, 24841.00
814.3170, 24759.00
815.4570, 24583.00
816.5960, 24638.00
817.7360, 24724.00
818.8750, 24811.00
820.0140, 24590.00
821.1530, 24865.00
822.2920, 24820.00
823.4310, 24659.00
824.5690, 24882.00
825.7070, 24762.00
826.8460, 24786.00
827.9840, 25055.00
829.1220, 24963.00
830.2590, 25172.00
831.3970, 25169.00
832.5340, 24975.00
833.6710, 25210.00
834.8080, 25123.00
835.9450, 25119.00
837.0820, 24866.00
838.2190, 24895.00
839.3550, 24874.00
840.4910, 25006.00
841.6270, 24823.00
842.7630, 24681.00
843.8990, 24927.00
845.0350, 24969.00
846.1700, 24927.00
847.3060, 24953.00
848.4410, 24904.00
849.5760, 24896.06
850.7100, 24998.00
851.8450, 24915.00
852.9800, 24979.00
854.1140, 25110.00
855.2480, 25310.00
856.3820, 25410.00
857.5160, 25490.00
858.6500, 25734.00
859.7830, 25767.00
860.9170, 25887.00
862.0500, 25785.00
863.1830, 25970.00
864.3160, 26050.00
865.4480, 26128.00
866.5810, 26217.00
867.7130, 26343.00
868.8460, 26225.00
869.9780, 26460.00
871.1100, 26260.00
872.2410, 26187.00
873.3730, 26397.00
874.5050, 26198.00
875.6360, 26377.00
876.7670, 26190.00
877.8980, 26227.00
879.0290, 26454.00
880.1590, 26282.00
881.2900, 26134.00
882.4200, 26194.00
883.5500, 26334.00
884.6800, 26509.00
885.8100, 26441.00
886.9400, 26451.00
888.0690, 26265.00
889.1990, 26350.92
890.3280, 26582.00
891.4570, 26493.00
892.5860, 26632.00
893.7140, 26805.00
894.8430, 26864.00
895.9710, 27091.00
897.1000, 27375.00
898.2280, 27529.00
899.3560, 27787.00
900.4830, 27948.00
901.6110, 28443.00
902.7380, 28703.00
903.8660, 29397.00
904.9930, 30078.00
906.1200, 30884.00
907.2460, 32134.00
908.3730, 33840.00
909.5000, 35883.00
910.6260, 38388.00
911.7520, 41950.00
912.8780, 45445.00
914.0040, 49954.00
915.1290, 53988.00
916.2550, 56791.00
917.3800, 57681.00
918.5050, 55660.00
919.6300, 52426.00
920.7550, 48957.00
921.8800, 45987.00
923.0040, 43226.00
924.1290, 41353.00
925.2530, 39881.00
926.3770, 38587.00
927.5010, 37381.00
928.6250, 36174.00
929.7480, 34959.00
930.8720, 34182.00
931.9950, 33242.00
933.1180, 32316.00
934.2410, 31674.00
935.3640, 31057.28
936.4860, 30794.00
937.6090, 30385.00
938.7310, 30371.00
939.8530, 30203.32
940.9750, 30193.00
942.0970, 30244.00
943.2180, 30249.17
944.3400, 30780.00
945.4610, 30460.00
946.5820, 30608.00
947.7030, 30818.00
948.8240, 30453.00
949.9450, 30627.00
951.0650, 30506.00
952.1860, 30290.00
953.3060, 30051.00
954.4260, 29844.00
955.5460, 29468.00
956.6650, 29262.00
957.7850, 29336.00
958.9040, 29419.00
960.0230, 29123.00
961.1420, 29150.00
962.2610, 29071.00
963.3800, 29231.00
964.4990, 29276.00
965.6170, 29182.00
966.7350, 29411.00
967.8530, 29242.00
968.9710, 29621.00
970.0890, 29339.00
971.2070, 29403.00
972.3240, 29470.00
973.4410, 29208.00
974.5580, 28877.00
975.6750, 28926.00
976.7920, 28763.00
977.9090, 28972.00
979.0250, 28701.00
980.1410, 28993.00
981.2580, 28542.00
982.3740, 28885.00
983.4890, 28634.00
984.6050, 28527.00
985.7200, 28375.00
986.8360, 28497.00
987.9510, 28444.00
989.0660, 28176.00
990.1810, 28657.00
991.2950, 28421.00
992.4100, 28331.00
993.5240, 28514.00
994.6390, 28460.00
995.7530, 28406.00
996.8660, 28527.00
997.9800, 28482.00
999.0940, 28660.00
1000.207, 28745.78
1001.320, 28959.00
1002.433, 29079.00
1003.546, 29299.00
1004.659, 29632.00
1005.772, 29636.00
1006.884, 29855.00
1007.996, 30219.89
1009.108, 30453.00
1010.220, 31016.00
1011.332, 31369.00
1012.444, 31840.00
1013.555, 32455.00
1014.666, 32785.00
1015.777, 33025.00
1016.888, 33393.00
1017.999, 33521.00
1019.110, 33315.00
1020.220, 33262.00
1021.331, 33019.00
1022.441, 32713.00
1023.551, 32458.47
1024.661, 31898.00
1025.770, 31802.00
1026.880, 31443.00
1027.989, 31175.00
1029.098, 31115.00
1030.207, 30942.00
1031.316, 30559.00
1032.425, 30425.00
1033.533, 30519.00
1034.642, 30534.00
1035.750, 30530.00
1036.858, 30204.00
1037.966, 30263.00
1039.073, 30124.00
1040.181, 30239.00
1041.288, 30248.00
1042.396, 30323.00
1043.503, 30419.16
1044.610, 30316.00
1045.716, 30621.00
1046.823, 30732.00
1047.929, 30854.00
1049.036, 31232.00
1050.142, 31475.00
1051.248, 32000.00
1052.353, 32399.00
1053.459, 33113.00
1054.564, 34043.00
1055.670, 34829.00
1056.775, 35689.00
1057.880, 36367.00
1058.985, 36358.00
1060.089, 36204.00
1061.194, 35454.00
1062.298, 34651.00
1063.402, 33911.00
1064.506, 33512.00
1065.610, 32752.00
1066.713, 32451.00
1067.817, 32190.00
1068.920, 32052.00
1070.023, 31839.00
1071.126, 31507.00
1072.229, 31591.00
1073.332, 31398.00
1074.435, 31585.00
1075.537, 31565.00
1076.639, 31309.00
1077.741, 31624.00
1078.843, 31471.00
1079.945, 31541.00
1081.046, 31846.00
1082.148, 31667.00
1083.249, 31782.00
1084.350, 31713.00
1085.451, 31912.00
1086.551, 31899.00
1087.652, 31875.00
1088.752, 31677.00
1089.853, 31678.26
1090.953, 31632.16
1092.053, 31591.00
1093.152, 31711.00
1094.252, 31768.33
1095.351, 32030.00
1096.451, 32159.00
1097.550, 32412.00
1098.649, 32670.00
1099.748, 32596.00
1100.846, 32838.00
1101.945, 33264.00
1103.043, 33279.00
1104.141, 33525.00
1105.239, 33576.00
1106.337, 33500.00
1107.434, 33845.00
1108.532, 33735.00
1109.629, 33288.00
1110.726, 33040.00
1111.823, 33139.00
1112.920, 32923.00
1114.017, 32851.00
1115.113, 32478.00
1116.210, 31943.00
1117.306, 32181.00
1118.402, 32052.00
1119.498, 31832.00
1120.593, 31990.00
1121.689, 32091.00
1122.784, 32144.00
1123.879, 32063.00
1124.974, 31956.00
1126.069, 31760.00
1127.164, 31811.00
1128.259, 31625.00
1129.353, 31315.00
1130.447, 31518.00
1131.541, 31683.00
1132.635, 31472.00
1133.729, 31416.00
1134.822, 31304.00
1135.916, 31430.00
1137.009, 31210.00
1138.102, 31612.00
1139.195, 31451.00
1140.288, 31551.00
1141.380, 31181.00
1142.473, 31605.00
1143.565, 31566.00
1144.657, 31537.00
1145.749, 31551.00
1146.841, 31430.00
1147.932, 31473.00
1149.024, 31394.00
1150.115, 31685.00
1151.206, 31745.00
1152.297, 31661.00
1153.388, 31590.00
1154.479, 31640.00
1155.569, 31674.00
1156.659, 31748.00
1157.750, 31552.00
1158.839, 31623.00
1159.929, 31658.00
1161.019, 31639.00
1162.108, 31696.46
1163.198, 31720.00
1164.287, 31802.00
1165.376, 31825.00
1166.465, 31982.00
1167.553, 31886.00
1168.642, 31990.00
1169.730, 32060.93
1170.818, 31893.00
1171.906, 32119.00
1172.994, 32079.00
1174.082, 31872.00
1175.170, 31982.00
1176.257, 32216.00
1177.344, 31990.00
1178.431, 32111.00
1179.518, 32318.00
1180.605, 32284.00
1181.691, 32532.00
1182.778, 32497.00
1183.864, 32694.00
1184.950, 32601.00
1186.036, 32870.00
1187.122, 32812.93
1188.207, 32787.00
1189.292, 32775.00
1190.378, 32748.00
1191.463, 32712.00
1192.548, 32699.00
1193.632, 32842.00
1194.717, 32720.00
1195.801, 32767.00
1196.886, 33001.00
1197.970, 33061.00
1199.054, 32791.00
1200.137, 32974.00
1201.221, 32948.00
1202.305, 33120.00
1203.388, 33100.00
1204.471, 33047.00
1205.554, 33138.00
1206.637, 33303.00
1207.719, 33340.00
1208.802, 33350.00
1209.884, 33493.00
1210.966, 33506.00
1212.048, 33549.00
1213.130, 33907.00
1214.212, 33985.00
1215.293, 34236.00
1216.374, 34100.00
1217.456, 34317.00
1218.536, 34542.00
1219.617, 34663.00
1220.698, 34875.00
1221.778, 35113.00
1222.859, 35254.00
1223.939, 35406.00
1225.019, 35647.96
1226.099, 35897.00
1227.178, 36140.00
1228.258, 36454.00
1229.337, 36791.00
1230.417, 36685.00
1231.496, 36875.00
1232.574, 37157.00
1233.653, 37247.00
1234.732, 37521.00
1235.810, 37573.00
1236.888, 37712.00
1237.966, 37993.00
1239.044, 38332.00
1240.122, 38285.00
1241.199, 38505.00
1242.277, 38829.00
1243.354, 38792.00
1244.431, 39082.00
1245.508, 39056.00
1246.585, 39135.00
1247.661, 39185.00
1248.738, 39480.00
1249.814, 39506.00
1250.890, 39500.00
1251.966, 39439.00
1253.042, 39342.00
1254.117, 39320.00
1255.193, 39316.00
1256.268, 39231.00
1257.343, 39273.00
1258.418, 39231.00
1259.493, 39030.00
1260.567, 38991.00
1261.642, 39031.00
1262.716, 38472.00
1263.790, 38551.00
1264.864, 38633.00
1265.938, 38301.00
1267.011, 38319.00
1268.085, 38190.00
1269.158, 37694.00
1270.231, 37986.00
1271.304, 37636.00
1272.377, 37519.00
1273.450, 37470.00
1274.522, 37260.00
1275.594, 37245.00
1276.666, 37173.00
1277.738, 36979.00
1278.810, 36786.00
1279.882, 36905.00
1280.953, 36845.00
1282.025, 36735.00
1283.096, 36663.00
1284.167, 36565.00
1285.238, 36424.00
1286.308, 36373.00
1287.379, 36727.00
1288.449, 36616.00
1289.519, 36170.00
1290.589, 36654.00
1291.659, 36357.00
1292.729, 36635.00
1293.798, 36233.00
1294.868, 36443.00
1295.937, 36669.00
1297.006, 36539.00
1298.075, 36712.00
1299.143, 36479.00
1300.212, 36337.00
1301.280, 36396.00
1302.348, 36571.00
