##NAMES=Andalusite
##RRUFFID=R060197
##IDEAL CHEMISTRY=Al_2_SiO_5_
##LOCALITY=Brazil
##OWNER=RRUFF
##SOURCE=Marcus Origlieri
##DESCRIPTION=Green colored water worn pebble
##STATUS=The identification of this mineral has been confirmed by X-ray diffraction and chemical analysis
##URL=rruff.info/R060197
##MEASURED CHEMISTRY=(Al_1.97_Mn^3+^_0.03_)_Î£=2_Si_1.00_O_5_
##PIN_ID=M00466
##ORIENTATION=Laser parallel to a* (1 0 0). Fiducial mark perpendicular to laser is parallel to -b [0 -1 0]
91.01200, 5261.000
92.24600, 5559.000
93.48000, 5598.000
94.71400, 5529.000
95.94800, 5696.000
97.18200, 5581.000
98.41600, 5621.000
99.64900, 5868.000
100.8830, 5959.000
102.1160, 5824.000
103.3490, 5982.000
104.5820, 6096.000
105.8150, 6307.000
107.0470, 6775.000
108.2800, 7354.000
109.5120, 7124.402
110.7440, 7726.000
111.9760, 6810.000
113.2080, 6510.000
114.4400, 6489.000
115.6710, 6715.000
116.9030, 6865.000
118.1340, 6644.000
119.3650, 6563.000
120.5960, 6474.000
121.8270, 6451.000
123.0580, 6428.680
124.2880, 6411.888
125.5190, 6523.000
126.7490, 6467.000
127.9790, 6677.000
129.2090, 6813.000
130.4390, 6820.699
131.6680, 6876.000
132.8980, 6940.000
134.1270, 6778.000
135.3560, 6890.000
136.5850, 6893.000
137.8140, 7017.000
139.0430, 7231.000
140.2710, 7429.000
141.5000, 7358.000
142.7280, 7435.000
143.9560, 7395.000
145.1840, 7465.000
146.4120, 7283.000
147.6390, 7263.000
148.8670, 7213.000
150.0940, 7182.753
151.3210, 7173.000
152.5490, 7211.000
153.7750, 7128.000
155.0020, 7146.000
156.2290, 7161.000
157.4550, 7038.000
158.6810, 7080.000
159.9080, 7133.000
161.1340, 7237.000
162.3590, 7312.062
163.5850, 7331.000
164.8110, 7496.000
166.0360, 7669.000
167.2610, 7731.000
168.4860, 7725.000
169.7110, 7743.000
170.9360, 7816.000
172.1610, 7837.000
173.3850, 7634.000
174.6100, 7637.000
175.8340, 7694.000
177.0580, 7711.000
178.2820, 7800.000
179.5050, 7887.000
180.7290, 7842.000
181.9520, 7799.000
183.1760, 7795.000
184.3990, 8019.000
185.6220, 8111.000
186.8450, 8263.000
188.0670, 8485.000
189.2900, 8524.000
190.5120, 8733.000
191.7340, 8827.000
192.9560, 9087.000
194.1780, 9058.000
195.4000, 9207.000
196.6220, 9245.000
197.8430, 9119.000
199.0640, 8905.000
200.2860, 9003.000
201.5070, 9132.000
202.7270, 9130.000
203.9480, 8823.000
205.1690, 8256.000
206.3890, 7847.000
207.6090, 7574.000
208.8290, 7697.000
210.0490, 7673.000
211.2690, 7648.000
212.4890, 7653.000
213.7080, 7664.757
214.9280, 7666.959
216.1470, 7726.000
217.3660, 7666.000
218.5850, 7704.000
219.8030, 7642.000
221.0220, 7666.000
222.2400, 7630.000
223.4590, 7540.000
224.6770, 7607.000
225.8950, 7660.000
227.1120, 7793.000
228.3300, 7796.000
229.5480, 7985.000
230.7650, 8150.000
231.9820, 8415.266
233.1990, 8707.000
234.4160, 9133.000
235.6330, 9652.000
236.8490, 10159.00
238.0660, 10482.00
239.2820, 10582.00
240.4980, 10534.00
241.7140, 10664.00
242.9300, 10303.00
244.1460, 10181.00
245.3610, 10089.00
246.5770, 10042.00
247.7920, 9831.000
249.0070, 9873.000
250.2220, 9864.000
251.4370, 10012.00
252.6510, 10125.61
253.8660, 10446.00
255.0800, 10506.00
256.2940, 10739.00
257.5080, 11020.00
258.7220, 11567.00
259.9360, 12341.00
261.1490, 12385.00
262.3630, 12815.00
263.5760, 12198.00
264.7890, 12473.00
266.0020, 12535.00
267.2150, 12986.00
268.4270, 13529.00
269.6400, 14166.00
270.8520, 15044.00
272.0640, 16166.00
273.2760, 17522.00
274.4880, 18793.00
275.7000, 20052.00
276.9120, 21555.00
278.1230, 23846.00
279.3340, 26943.00
280.5450, 30442.00
281.7560, 34314.00
282.9670, 38688.00
284.1780, 43240.00
285.3880, 47951.00
286.5980, 52221.00
287.8090, 55137.00
289.0190, 55487.00
290.2290, 53200.00
291.4380, 48399.00
292.6480, 42318.00
293.8570, 35912.00
295.0670, 30246.00
296.2760, 25690.00
297.4850, 22185.00
298.6930, 19420.00
299.9020, 17644.00
301.1110, 16327.00
302.3190, 15295.00
303.5270, 14585.00
304.7350, 14294.00
305.9430, 14285.00
307.1510, 14785.79
308.3580, 15553.00
309.5660, 16731.00
310.7730, 18193.00
311.9800, 19764.00
313.1870, 21632.00
314.3940, 23956.00
315.6010, 26467.00
316.8070, 28720.00
318.0130, 29682.00
319.2200, 28617.00
320.4260, 26208.00
321.6310, 23177.00
322.8370, 20607.00
324.0430, 19388.00
325.2480, 16997.00
326.4540, 15896.00
327.6590, 15043.00
328.8640, 14683.00
330.0680, 14313.00
331.2730, 14066.00
332.4780, 14010.00
333.6820, 13940.00
334.8860, 13825.00
336.0900, 14095.00
337.2940, 14154.00
338.4980, 14423.00
339.7010, 14734.00
340.9050, 15201.00
342.1080, 15857.00
343.3110, 16506.00
344.5140, 17705.00
345.7170, 19217.00
346.9200, 21271.00
348.1220, 23324.00
349.3240, 25853.00
350.5270, 28626.00
351.7290, 31828.00
352.9310, 34608.00
354.1320, 37564.00
355.3340, 39647.00
356.5350, 39046.00
357.7370, 37808.00
358.9380, 35246.00
360.1390, 31519.00
361.3400, 27768.00
362.5400, 24765.00
363.7410, 21845.00
364.9410, 19488.00
366.1410, 17739.00
367.3410, 16387.00
368.5410, 15319.00
369.7410, 14544.00
370.9400, 13867.00
372.1400, 13306.00
373.3390, 12929.00
374.5380, 12759.00
375.7370, 12558.00
376.9360, 12417.00
378.1350, 12277.86
379.3330, 12350.00
380.5310, 12061.00
381.7300, 11957.00
382.9280, 11897.00
384.1260, 11615.00
385.3230, 11494.00
386.5210, 11368.00
387.7180, 11149.00
388.9160, 11170.00
390.1130, 11046.00
391.3100, 10938.00
392.5060, 10871.00
393.7030, 10833.00
394.9000, 10603.00
396.0960, 10577.00
397.2920, 10449.00
398.4880, 10401.00
399.6840, 10417.00
400.8800, 10385.00
402.0750, 10400.00
403.2710, 10381.00
404.4660, 10273.00
405.6610, 10365.00
406.8560, 10267.00
408.0510, 10376.00
409.2450, 10154.00
410.4400, 10091.00
411.6340, 10143.00
412.8280, 10302.00
414.0220, 10179.00
415.2160, 10448.00
416.4100, 10418.00
417.6030, 10401.00
418.7970, 10244.00
419.9900, 10357.00
421.1830, 10429.00
422.3760, 10303.00
423.5690, 10319.00
424.7610, 10223.00
425.9540, 10305.00
427.1460, 10347.00
428.3380, 10234.00
429.5300, 10257.00
430.7220, 10268.00
431.9140, 10276.00
433.1050, 10371.00
434.2970, 10355.00
435.4880, 10506.00
436.6790, 10474.00
437.8700, 10454.00
439.0610, 10569.00
440.2510, 10548.00
441.4420, 10720.00
442.6320, 10873.28
443.8220, 11183.00
445.0120, 11302.00
446.2020, 11625.00
447.3910, 11905.00
448.5810, 12395.00
449.7700, 12772.00
450.9600, 12467.00
452.1490, 11849.00
453.3370, 11387.00
454.5260, 11376.00
455.7150, 10939.00
456.9030, 10832.00
458.0910, 10742.00
459.2800, 10770.00
460.4670, 10735.00
461.6550, 10765.74
462.8430, 10799.57
464.0300, 10866.00
465.2180, 10889.00
466.4050, 10950.00
467.5920, 10991.00
468.7790, 11025.79
469.9650, 11090.00
471.1520, 11084.00
472.3380, 11135.00
473.5250, 11132.57
474.7110, 11178.42
475.8970, 11182.00
477.0820, 11227.00
478.2680, 11224.00
479.4540, 11158.00
480.6390, 11242.00
481.8240, 11169.00
483.0090, 11190.00
484.1940, 11245.00
485.3780, 11212.00
486.5630, 11175.00
487.7470, 11019.00
488.9320, 11169.00
490.1160, 10942.00
491.3000, 10962.00
492.4830, 10948.00
493.6670, 10932.00
494.8500, 10958.06
496.0340, 10897.00
497.2170, 10994.00
498.4000, 10950.00
499.5820, 10958.00
500.7650, 11170.00
501.9480, 11140.00
503.1300, 11253.00
504.3120, 11212.00
505.4940, 11321.00
506.6760, 11279.00
507.8580, 11340.00
509.0390, 11384.00
510.2210, 11547.00
511.4020, 11542.43
512.5830, 11589.00
513.7640, 11612.00
514.9450, 11624.00
516.1250, 11688.00
517.3060, 11682.00
518.4860, 11582.00
519.6660, 11827.00
520.8460, 11659.00
522.0260, 11717.00
523.2060, 11795.00
524.3850, 11750.00
525.5650, 11849.00
526.7440, 11790.00
527.9230, 11935.00
529.1020, 11943.00
530.2810, 12188.00
531.4590, 12069.00
532.6380, 12331.00
533.8160, 12411.00
534.9940, 12568.00
536.1720, 12847.00
537.3500, 12967.00
538.5270, 13442.00
539.7050, 13943.00
540.8820, 14475.00
542.0590, 15235.00
543.2360, 15853.00
544.4130, 16882.00
545.5900, 17197.00
546.7660, 17874.00
547.9430, 17924.00
549.1190, 17872.00
550.2950, 17514.00
551.4710, 16639.00
552.6470, 15923.00
553.8220, 15210.00
554.9980, 14691.00
556.1730, 14423.00
557.3480, 14039.00
558.5230, 14030.00
559.6980, 13966.00
560.8730, 13897.00
562.0470, 14183.00
563.2220, 14196.00
564.3960, 14518.00
565.5700, 14838.00
566.7440, 15033.00
567.9170, 15309.00
569.0910, 15568.00
570.2640, 15592.00
571.4380, 15456.00
572.6110, 14997.00
573.7840, 14683.00
574.9570, 14234.00
576.1290, 14019.00
577.3020, 13838.00
578.4740, 13532.00
579.6460, 13533.00
580.8180, 13274.00
581.9900, 13348.00
583.1620, 13215.00
584.3330, 13263.00
585.5040, 13279.00
586.6760, 13134.00
587.8470, 13077.00
589.0180, 13281.00
590.1880, 13248.00
591.3590, 13126.00
592.5290, 13359.00
593.7000, 13434.00
594.8700, 13391.00
596.0400, 13404.00
597.2090, 13391.00
598.3790, 13456.00
599.5490, 13510.00
600.7180, 13369.00
601.8870, 13427.00
603.0560, 13556.00
604.2250, 13393.00
605.3940, 13440.00
606.5620, 13483.00
607.7300, 13238.00
608.8990, 13269.00
610.0670, 13299.00
611.2350, 13236.00
612.4020, 13285.00
613.5700, 13285.00
614.7370, 13294.71
615.9050, 13491.00
617.0720, 13322.00
618.2390, 13399.00
619.4060, 13373.00
620.5720, 13249.00
621.7390, 13449.00
622.9050, 13454.00
624.0710, 13424.00
625.2370, 13623.00
626.4030, 13511.00
627.5690, 13438.00
628.7340, 13415.00
629.9000, 13323.00
631.0650, 13313.00
632.2300, 13256.87
633.3950, 13191.65
634.5600, 13182.00
635.7240, 13070.00
636.8890, 13056.00
638.0530, 13004.00
639.2170, 13127.00
640.3810, 13073.00
641.5450, 12926.00
642.7080, 13118.00
643.8720, 13242.00
645.0350, 13165.00
646.1980, 13137.00
647.3610, 13053.00
648.5240, 13088.00
649.6870, 13011.00
650.8490, 13011.00
652.0120, 13024.00
653.1740, 12922.00
654.3360, 13004.00
655.4980, 12925.00
656.6600, 12892.00
657.8210, 12948.00
658.9830, 12894.00
660.1440, 12768.00
661.3050, 12897.00
662.4660, 12898.00
663.6270, 12978.00
664.7870, 13024.81
665.9480, 12915.00
667.1080, 13080.00
668.2680, 13025.00
669.4280, 12995.00
670.5880, 13064.00
671.7480, 13082.00
672.9070, 13065.00
674.0670, 13211.00
675.2260, 13197.00
676.3850, 13236.00
677.5440, 13367.00
678.7030, 13294.00
679.8610, 13318.00
681.0200, 13416.00
682.1780, 13489.00
683.3360, 13572.00
684.4940, 13643.00
685.6520, 13458.00
686.8090, 13645.00
687.9670, 13564.00
689.1240, 13696.00
690.2810, 13717.00
691.4380, 13846.00
692.5950, 13895.00
693.7520, 13806.00
694.9080, 13863.00
696.0650, 13896.00
697.2210, 14097.00
698.3770, 14229.00
699.5330, 14221.00
700.6880, 14349.00
701.8440, 14436.00
702.9990, 14635.00
704.1550, 14702.00
705.3100, 14833.00
706.4650, 15051.00
707.6190, 14962.00
708.7740, 14905.00
709.9290, 14814.00
711.0830, 14938.00
712.2370, 14773.00
713.3910, 14688.00
714.5450, 14844.00
715.6980, 14601.00
716.8520, 14661.00
718.0050, 14522.00
719.1580, 14281.00
720.3110, 14222.00
721.4640, 13973.00
722.6170, 14018.00
723.7700, 13956.00
724.9220, 13770.00
726.0740, 13751.00
727.2260, 13768.00
728.3780, 13728.00
729.5300, 13784.00
730.6810, 13789.00
731.8330, 13778.00
732.9840, 13768.00
734.1350, 13826.16
735.2860, 13833.48
736.4370, 13866.81
737.5880, 13920.00
738.7380, 13951.00
739.8880, 14029.00
741.0390, 14109.00
742.1890, 14201.00
743.3380, 14403.00
744.4880, 14362.00
745.6380, 14431.00
746.7870, 14369.00
747.9360, 14525.00
749.0850, 14562.00
750.2340, 14435.00
751.3830, 14620.00
752.5310, 14456.00
753.6800, 14737.00
754.8280, 14666.00
755.9760, 14714.00
757.1240, 14624.00
758.2720, 14506.00
759.4190, 14560.00
760.5670, 14728.00
761.7140, 14615.00
762.8610, 14709.00
764.0080, 14541.00
765.1550, 14627.00
766.3020, 14608.00
767.4480, 14580.00
768.5950, 14755.00
769.7410, 14850.00
770.8870, 14701.00
772.0330, 14849.00
773.1780, 14990.00
774.3240, 15035.00
775.4690, 15130.00
776.6140, 15154.00
777.7590, 15495.00
778.9040, 15677.00
780.0490, 15649.00
781.1940, 16158.00
782.3380, 16296.00
783.4820, 16625.00
784.6260, 16941.00
785.7700, 17256.00
786.9140, 17685.00
788.0580, 17891.00
789.2010, 18002.00
790.3450, 18099.00
791.4880, 18112.00
792.6310, 18007.00
793.7730, 17808.00
794.9160, 17500.00
796.0590, 17208.00
797.2010, 16774.00
798.3430, 16669.00
799.4850, 16366.00
800.6270, 16193.00
801.7690, 16068.00
802.9100, 15787.00
804.0520, 15718.00
805.1930, 15699.00
806.3340, 15530.00
807.4750, 15528.00
808.6160, 15434.00
809.7560, 15163.00
810.8970, 15233.00
812.0370, 15025.00
813.1770, 15163.00
814.3170, 14811.00
815.4570, 14939.00
816.5960, 14859.00
817.7360, 14809.00
818.8750, 14910.00
820.0140, 14859.00
821.1530, 14827.00
822.2920, 14906.00
823.4310, 14914.00
824.5690, 14948.00
825.7070, 14953.00
826.8460, 15023.00
827.9840, 14996.00
829.1220, 15016.00
830.2590, 14938.00
831.3970, 15007.00
832.5340, 15092.00
833.6710, 15054.00
834.8080, 15137.00
835.9450, 15155.00
837.0820, 15015.00
838.2190, 15093.00
839.3550, 15089.00
840.4910, 15089.00
841.6270, 15058.00
842.7630, 15114.00
843.8990, 15045.74
845.0350, 15048.00
846.1700, 14958.00
847.3060, 14965.00
848.4410, 14957.00
849.5760, 14960.00
850.7100, 14953.92
851.8450, 14985.50
852.9800, 14964.00
854.1140, 15069.00
855.2480, 15134.00
856.3820, 15205.00
857.5160, 15210.00
858.6500, 15105.00
859.7830, 15298.00
860.9170, 15059.00
862.0500, 15150.00
863.1830, 15303.00
864.3160, 15432.00
865.4480, 15496.00
866.5810, 15439.00
867.7130, 15411.00
868.8460, 15361.00
869.9780, 15718.00
871.1100, 15650.00
872.2410, 15675.00
873.3730, 15785.00
874.5050, 15718.00
875.6360, 15686.00
876.7670, 15657.00
877.8980, 15693.00
879.0290, 15910.00
880.1590, 15975.00
881.2900, 15965.00
882.4200, 16105.00
883.5500, 16078.00
884.6800, 16129.00
885.8100, 16215.38
886.9400, 16274.00
888.0690, 16324.00
889.1990, 16513.00
890.3280, 16493.00
891.4570, 16790.00
892.5860, 16747.00
893.7140, 16887.00
894.8430, 17069.00
895.9710, 17367.00
897.1000, 17508.00
898.2280, 17847.00
899.3560, 17968.00
900.4830, 18323.00
901.6110, 18921.00
902.7380, 19447.00
903.8660, 19986.00
904.9930, 20949.00
906.1200, 21725.00
907.2460, 23344.00
908.3730, 25146.00
909.5000, 27712.00
910.6260, 30929.00
911.7520, 35299.00
912.8780, 39666.00
914.0040, 44861.00
915.1290, 49971.00
916.2550, 53665.00
917.3800, 54821.00
918.5050, 52858.00
919.6300, 48434.00
920.7550, 42731.00
921.8800, 37977.00
923.0040, 33518.00
924.1290, 30256.00
925.2530, 27921.00
926.3770, 26179.00
927.5010, 25003.00
928.6250, 24204.00
929.7480, 23554.00
930.8720, 23032.00
931.9950, 22853.00
933.1180, 22903.00
934.2410, 23188.00
935.3640, 23428.00
936.4860, 23566.00
937.6090, 24591.00
938.7310, 25522.00
939.8530, 26732.00
940.9750, 28212.00
942.0970, 30158.00
943.2180, 32098.00
944.3400, 34529.00
945.4610, 36895.00
946.5820, 38905.00
947.7030, 40399.00
948.8240, 41176.00
949.9450, 40755.00
951.0650, 39301.00
952.1860, 37527.00
953.3060, 34858.00
954.4260, 32561.00
955.5460, 30000.00
956.6650, 27919.00
957.7850, 26469.00
958.9040, 25208.00
960.0230, 24204.00
961.1420, 23473.00
962.2610, 23002.00
963.3800, 22573.00
964.4990, 21940.00
965.6170, 21929.00
966.7350, 21753.00
967.8530, 21488.00
968.9710, 21186.00
970.0890, 20915.51
971.2070, 20568.00
972.3240, 20288.00
973.4410, 20038.00
974.5580, 19733.00
975.6750, 19505.00
976.7920, 19105.00
977.9090, 18926.00
979.0250, 18720.00
980.1410, 18457.00
981.2580, 18494.00
982.3740, 18298.00
983.4890, 18127.00
984.6050, 18143.00
985.7200, 17887.00
986.8360, 17661.00
987.9510, 17942.00
989.0660, 17818.00
990.1810, 17585.00
991.2950, 17783.00
992.4100, 17641.00
993.5240, 17670.00
994.6390, 17500.00
995.7530, 17710.00
996.8660, 17645.00
997.9800, 17577.00
999.0940, 17619.00
1000.207, 17821.00
1001.320, 18051.00
1002.433, 18044.00
1003.546, 18127.00
1004.659, 18334.00
1005.772, 18457.00
1006.884, 18647.00
1007.996, 18857.00
1009.108, 19396.00
1010.220, 19714.00
1011.332, 20203.00
1012.444, 20830.00
1013.555, 21406.00
1014.666, 21794.00
1015.777, 22370.00
1016.888, 22800.00
1017.999, 22592.00
1019.110, 22597.00
1020.220, 22406.00
1021.331, 21802.00
1022.441, 21618.00
1023.551, 21143.00
1024.661, 20836.00
1025.770, 20421.00
1026.880, 20250.00
1027.989, 19856.00
1029.098, 19681.00
1030.207, 19569.00
1031.316, 19343.00
1032.425, 19241.00
1033.533, 19101.00
1034.642, 18929.00
1035.750, 18954.00
1036.858, 18964.00
1037.966, 18947.00
1039.073, 18800.00
1040.181, 18841.00
1041.288, 18811.00
1042.396, 18820.00
1043.503, 18789.00
1044.610, 18910.00
1045.716, 19072.00
1046.823, 19123.00
1047.929, 19508.00
1049.036, 19488.00
1050.142, 19682.00
1051.248, 20164.00
1052.353, 20696.00
1053.459, 21306.00
1054.564, 22083.00
1055.670, 23184.00
1056.775, 23938.00
1057.880, 24856.00
1058.985, 25724.00
1060.089, 25991.00
1061.194, 25749.00
1062.298, 24621.00
1063.402, 23791.00
1064.506, 23058.00
1065.610, 22110.00
1066.713, 21405.00
1067.817, 20951.00
1068.920, 20592.00
1070.023, 20325.00
1071.126, 19824.00
1072.229, 19703.00
1073.332, 19715.00
1074.435, 19550.00
1075.537, 19664.00
1076.639, 19371.00
1077.741, 19112.00
1078.843, 19391.00
1079.945, 19259.00
1081.046, 19383.00
1082.148, 19146.00
1083.249, 19139.00
1084.350, 19146.00
1085.451, 19091.00
1086.551, 19305.00
1087.652, 19189.00
1088.752, 19334.00
1089.853, 19228.00
1090.953, 19434.00
1092.053, 19541.00
1093.152, 19317.00
1094.252, 19418.00
1095.351, 19699.00
1096.451, 19725.00
1097.550, 19885.00
1098.649, 20060.00
1099.748, 20430.00
1100.846, 20487.00
1101.945, 20742.00
1103.043, 20903.00
1104.141, 21123.00
1105.239, 21227.00
1106.337, 21286.65
1107.434, 21409.00
1108.532, 21236.00
1109.629, 21107.00
1110.726, 20892.00
1111.823, 20527.00
1112.920, 20248.00
1114.017, 19646.00
1115.113, 19769.00
1116.210, 19565.00
1117.306, 19768.00
1118.402, 19694.00
1119.498, 19871.00
1120.593, 19649.00
1121.689, 19749.00
1122.784, 19608.00
1123.879, 19607.00
1124.974, 19611.00
1126.069, 19733.00
1127.164, 19640.00
1128.259, 19533.00
1129.353, 19189.00
1130.447, 19215.00
1131.541, 18973.00
1132.635, 18892.00
1133.729, 18885.00
1134.822, 18921.00
1135.916, 19066.00
1137.009, 18684.00
1138.102, 19009.00
1139.195, 18856.00
1140.288, 18963.00
1141.380, 18837.00
1142.473, 18888.00
1143.565, 18742.00
1144.657, 18872.00
1145.749, 18800.00
1146.841, 18968.00
1147.932, 18784.00
1149.024, 18901.00
1150.115, 18771.00
1151.206, 18984.00
1152.297, 18811.00
1153.388, 18758.00
1154.479, 18985.00
1155.569, 18884.00
1156.659, 18956.00
1157.750, 18896.00
1158.839, 18804.00
1159.929, 18930.00
1161.019, 18938.00
1162.108, 18959.00
1163.198, 18792.00
1164.287, 18856.00
1165.376, 18808.00
1166.465, 18831.00
1167.553, 18837.60
1168.642, 19058.00
1169.730, 18838.00
1170.818, 18965.00
1171.906, 18966.00
1172.994, 18846.00
1174.082, 19011.00
1175.170, 18860.00
1176.257, 18989.00
1177.344, 18997.00
1178.431, 19052.00
1179.518, 19051.00
1180.605, 19041.00
1181.691, 19059.00
1182.778, 19042.00
1183.864, 19110.00
1184.950, 19185.00
1186.036, 19182.00
1187.122, 19232.00
1188.207, 19162.00
1189.292, 19277.00
1190.378, 19309.00
1191.463, 19260.00
1192.548, 19361.00
1193.632, 19287.00
1194.717, 19335.00
1195.801, 19463.00
1196.886, 19429.00
1197.970, 19437.00
1199.054, 19557.00
1200.137, 19429.00
1201.221, 19391.00
1202.305, 19503.00
1203.388, 19659.00
1204.471, 19690.00
1205.554, 19444.00
1206.637, 19764.00
1207.719, 19832.00
1208.802, 19735.00
1209.884, 20010.00
1210.966, 19652.00
1212.048, 19933.00
1213.130, 19944.00
1214.212, 20147.00
1215.293, 20125.00
1216.374, 20242.00
1217.456, 20381.00
1218.536, 20472.00
1219.617, 20756.00
1220.698, 20657.00
1221.778, 20972.00
1222.859, 21345.00
1223.939, 21105.00
1225.019, 21543.00
1226.099, 21860.00
1227.178, 21865.00
1228.258, 22212.00
1229.337, 22188.00
1230.417, 22474.00
1231.496, 22421.00
1232.574, 22779.00
1233.653, 23055.00
1234.732, 23005.00
1235.810, 22959.00
1236.888, 23337.00
1237.966, 23413.00
1239.044, 23627.00
1240.122, 23698.00
1241.199, 23663.00
1242.277, 23964.00
1243.354, 24297.00
1244.431, 24306.00
1245.508, 24397.00
1246.585, 24532.00
1247.661, 24499.00
1248.738, 24487.00
1249.814, 24429.00
1250.890, 24428.00
1251.966, 24391.53
1253.042, 24333.00
1254.117, 24325.00
1255.193, 24213.00
1256.268, 24150.00
1257.343, 24056.90
1258.418, 24073.00
1259.493, 23884.00
1260.567, 23770.00
1261.642, 23772.00
1262.716, 23766.00
1263.790, 23589.00
1264.864, 23261.00
1265.938, 23136.00
1267.011, 22980.00
1268.085, 22879.00
1269.158, 22784.00
1270.231, 22744.00
1271.304, 22640.00
1272.377, 22599.00
1273.450, 22453.00
1274.522, 22265.00
