##NAMES=Andradite
##RRUFFID=R050377
##IDEAL CHEMISTRY=Ca_3_Fe^3+^_2_(SiO_4_)_3_
##LOCALITY=Zlatoust District, South Urals, Russia
##OWNER=RRUFF
##SOURCE=University of Arizona Mineral Museum
##DESCRIPTION=Dark red cubes
##STATUS=The identification of this mineral has been confirmed by X-ray diffraction and chemical analysis
##URL=rruff.info/R050377
##MEASURED CHEMISTRY=Ca_3.00_(Fe^3+^_1.48_Ti_0.31_Mg_0.14_Zr_0.07_)_Σ=2_(Si_2.73_Al_0.24_Ti_0.03_)_Σ=3_O_12_
##PIN_ID=M00110
##ORIENTATION=Laser parallel to a* (1 0 0). Fiducial mark perpendicular to laser is parallel to c [0 0 1]
99.64900, 10331.05
100.8830, 10428.40
102.1160, 10583.00
103.3490, 10777.00
104.5820, 10774.00
105.8150, 11080.00
107.0470, 11386.00
108.2800, 11853.00
109.5120, 12310.00
110.7440, 12050.00
111.9760, 11712.00
113.2080, 11505.00
114.4400, 11843.00
115.6710, 12030.00
116.9030, 11822.00
118.1340, 12185.00
119.3650, 12033.00
120.5960, 12133.00
121.8270, 12188.00
123.0580, 12422.00
124.2880, 12635.00
125.5190, 12516.00
126.7490, 12667.00
127.9790, 12776.00
129.2090, 12963.00
130.4390, 12987.00
131.6680, 13250.00
132.8980, 13169.00
134.1270, 13327.00
135.3560, 13291.00
136.5850, 13467.00
137.8140, 13477.00
139.0430, 13818.00
140.2710, 13992.00
141.5000, 13960.00
142.7280, 13980.00
143.9560, 14186.00
145.1840, 14057.00
146.4120, 13882.00
147.6390, 14027.00
148.8670, 13893.00
150.0940, 13968.00
151.3210, 14218.00
152.5490, 14069.00
153.7750, 14024.00
155.0020, 14152.00
156.2290, 14182.00
157.4550, 14180.00
158.6810, 14218.00
159.9080, 14343.00
161.1340, 14609.00
162.3590, 14869.64
163.5850, 15245.00
164.8110, 15539.00
166.0360, 15974.00
167.2610, 16211.00
168.4860, 16390.00
169.7110, 16420.73
170.9360, 16397.00
172.1610, 16176.00
173.3850, 15817.00
174.6100, 15502.00
175.8340, 15316.00
177.0580, 15253.00
178.2820, 15228.00
179.5050, 15064.00
180.7290, 15090.00
181.9520, 14853.00
183.1760, 14934.00
184.3990, 14951.15
185.6220, 14924.88
186.8450, 15241.00
188.0670, 15038.00
189.2900, 15440.00
190.5120, 15587.00
191.7340, 15542.00
192.9560, 15717.00
194.1780, 15686.00
195.4000, 15843.00
196.6220, 15763.00
197.8430, 15857.00
199.0640, 15777.00
200.2860, 15932.00
201.5070, 15761.00
202.7270, 15779.29
203.9480, 15845.00
205.1690, 15667.00
206.3890, 15492.00
207.6090, 15361.00
208.8290, 15495.00
210.0490, 15537.00
211.2690, 15603.00
212.4890, 15619.00
213.7080, 15813.00
214.9280, 15936.00
216.1470, 15996.00
217.3660, 16024.00
218.5850, 16221.00
219.8030, 16367.00
221.0220, 16405.00
222.2400, 16669.00
223.4590, 16708.00
224.6770, 16899.00
225.8950, 17097.00
227.1120, 17177.00
228.3300, 17237.00
229.5480, 17402.00
230.7650, 17463.71
231.9820, 17505.10
233.1990, 17642.00
234.4160, 17549.00
235.6330, 17601.00
236.8490, 17623.00
238.0660, 17555.62
239.2820, 17481.00
240.4980, 17504.00
241.7140, 17311.00
242.9300, 17356.00
244.1460, 17460.00
245.3610, 17370.00
246.5770, 17678.00
247.7920, 17684.00
249.0070, 17584.00
250.2220, 17816.00
251.4370, 17790.00
252.6510, 17924.00
253.8660, 18063.00
255.0800, 18198.00
256.2940, 18472.00
257.5080, 18637.00
258.7220, 18796.00
259.9360, 19495.00
261.1490, 19285.00
262.3630, 19422.00
263.5760, 19072.00
264.7890, 19101.00
266.0020, 18965.00
267.2150, 18918.00
268.4270, 18910.00
269.6400, 18954.00
270.8520, 18955.00
272.0640, 18874.83
273.2760, 18740.00
274.4880, 18687.00
275.7000, 18683.00
276.9120, 18599.00
278.1230, 18731.00
279.3340, 18622.00
280.5450, 18861.00
281.7560, 19058.00
282.9670, 18965.00
284.1780, 19368.00
285.3880, 19670.00
286.5980, 19780.00
287.8090, 19948.00
289.0190, 20173.00
290.2290, 20476.00
291.4380, 20449.00
292.6480, 20665.00
293.8570, 20829.00
295.0670, 21247.00
296.2760, 21236.94
297.4850, 21546.00
298.6930, 21354.00
299.9020, 21656.00
301.1110, 21796.00
302.3190, 21952.00
303.5270, 22121.61
304.7350, 22186.00
305.9430, 22285.00
307.1510, 22292.00
308.3580, 22177.00
309.5660, 22305.00
310.7730, 22340.00
311.9800, 22462.00
313.1870, 22447.00
314.3940, 22538.00
315.6010, 22590.00
316.8070, 22374.00
318.0130, 22291.00
319.2200, 22544.00
320.4260, 22581.00
321.6310, 22691.27
322.8370, 22855.00
324.0430, 22990.00
325.2480, 23212.00
326.4540, 23477.00
327.6590, 23871.00
328.8640, 24225.00
330.0680, 24707.00
331.2730, 25357.00
332.4780, 26136.00
333.6820, 27061.00
334.8860, 28104.00
336.0900, 29054.00
337.2940, 30779.00
338.4980, 32469.00
339.7010, 33905.00
340.9050, 35968.00
342.1080, 37779.00
343.3110, 39466.00
344.5140, 40651.00
345.7170, 41827.00
346.9200, 42228.00
348.1220, 42577.00
349.3240, 42510.00
350.5270, 42466.00
351.7290, 42378.00
352.9310, 42852.00
354.1320, 43841.00
355.3340, 44948.00
356.5350, 46827.00
357.7370, 48369.00
358.9380, 50107.00
360.1390, 51340.00
361.3400, 52662.00
362.5400, 53400.00
363.7410, 52914.00
364.9410, 52088.00
366.1410, 50173.00
367.3410, 48343.00
368.5410, 46159.00
369.7410, 43540.00
370.9400, 40883.00
372.1400, 38474.00
373.3390, 36155.00
374.5380, 34193.00
375.7370, 32280.00
376.9360, 30613.85
378.1350, 29293.00
379.3330, 27809.00
380.5310, 26729.00
381.7300, 25743.00
382.9280, 24814.00
384.1260, 24104.00
385.3230, 23298.00
386.5210, 22522.00
387.7180, 22191.00
388.9160, 21402.00
390.1130, 20983.00
391.3100, 20430.00
392.5060, 20371.00
393.7030, 20053.00
394.9000, 19935.00
396.0960, 19607.00
397.2920, 19469.00
398.4880, 19285.00
399.6840, 19343.00
400.8800, 19076.00
402.0750, 18788.00
403.2710, 18903.00
404.4660, 18862.00
405.6610, 18604.00
406.8560, 18473.00
408.0510, 18600.00
409.2450, 18535.00
410.4400, 18720.00
411.6340, 18648.00
412.8280, 18557.00
414.0220, 18599.00
415.2160, 18618.00
416.4100, 18475.00
417.6030, 18662.00
418.7970, 18863.00
419.9900, 18728.00
421.1830, 18921.00
422.3760, 18842.00
423.5690, 18707.00
424.7610, 18673.00
425.9540, 18674.00
427.1460, 18721.00
428.3380, 18619.00
429.5300, 18557.00
430.7220, 18668.00
431.9140, 18520.00
433.1050, 18568.00
434.2970, 18747.00
435.4880, 18759.00
436.6790, 18665.00
437.8700, 18810.00
439.0610, 18859.00
440.2510, 18863.00
441.4420, 19054.00
442.6320, 19158.00
443.8220, 19222.00
445.0120, 19256.00
446.2020, 19442.00
447.3910, 19142.00
448.5810, 19348.00
449.7700, 19146.00
450.9600, 19238.00
452.1490, 19239.00
453.3370, 18922.00
454.5260, 18922.00
455.7150, 18934.00
456.9030, 18606.00
458.0910, 18574.00
459.2800, 18573.00
460.4670, 18719.00
461.6550, 18732.00
462.8430, 18720.00
464.0300, 18601.00
465.2180, 18656.00
466.4050, 18641.00
467.5920, 18665.00
468.7790, 18932.00
469.9650, 19096.00
471.1520, 19057.00
472.3380, 19299.00
473.5250, 19285.00
474.7110, 19453.00
475.8970, 19771.00
477.0820, 19639.00
478.2680, 19790.00
479.4540, 20066.00
480.6390, 20048.00
481.8240, 20289.00
483.0090, 20335.00
484.1940, 20662.00
485.3780, 20877.00
486.5630, 21290.00
487.7470, 21326.00
488.9320, 21380.00
490.1160, 21684.00
491.3000, 21528.00
492.4830, 21477.00
493.6670, 21500.00
494.8500, 21444.00
496.0340, 21333.00
497.2170, 21266.00
498.4000, 21385.00
499.5820, 21776.00
500.7650, 22136.00
501.9480, 22862.00
503.1300, 23255.00
504.3120, 24144.00
505.4940, 25328.00
506.6760, 26467.00
507.8580, 28611.00
509.0390, 30514.00
510.2210, 32726.00
511.4020, 34405.00
512.5830, 36080.00
513.7640, 37009.00
514.9450, 37209.00
516.1250, 36132.00
517.3060, 35334.00
518.4860, 33101.00
519.6660, 31199.00
520.8460, 29899.00
522.0260, 28435.00
523.2060, 27098.00
524.3850, 25933.00
525.5650, 25275.00
526.7440, 24466.00
527.9230, 23648.00
529.1020, 23110.00
530.2810, 22571.00
531.4590, 22459.00
532.6380, 22030.00
533.8160, 21849.00
534.9940, 21512.00
536.1720, 21499.00
537.3500, 21225.00
538.5270, 21209.00
539.7050, 21126.00
540.8820, 21109.00
542.0590, 20775.00
543.2360, 20975.00
544.4130, 20840.00
545.5900, 20916.00
546.7660, 20932.00
547.9430, 20751.00
549.1190, 20718.00
550.2950, 20747.00
551.4710, 20762.00
552.6470, 20538.00
553.8220, 20539.00
554.9980, 20258.00
556.1730, 20109.00
557.3480, 19977.00
558.5230, 19799.00
559.6980, 19713.00
560.8730, 19611.00
562.0470, 19424.00
563.2220, 19392.00
564.3960, 19571.00
565.5700, 19479.00
566.7440, 19659.00
567.9170, 19549.00
569.0910, 19775.00
570.2640, 19810.00
571.4380, 19805.00
572.6110, 20140.00
573.7840, 20342.00
574.9570, 20326.00
576.1290, 20493.00
577.3020, 20443.00
578.4740, 20517.00
579.6460, 20640.00
580.8180, 20645.00
581.9900, 20579.00
583.1620, 20555.00
584.3330, 20428.00
585.5040, 20468.00
586.6760, 20347.00
587.8470, 20446.00
589.0180, 20418.11
590.1880, 20483.00
591.3590, 20380.00
592.5290, 20422.00
593.7000, 20274.00
594.8700, 20422.00
596.0400, 20456.00
597.2090, 20442.00
598.3790, 20486.23
599.5490, 20374.00
600.7180, 20438.00
601.8870, 20447.00
603.0560, 20365.00
604.2250, 20385.84
605.3940, 20388.00
606.5620, 20336.00
607.7300, 20283.00
608.8990, 20276.41
610.0670, 20393.00
611.2350, 20399.00
612.4020, 20453.97
613.5700, 20498.00
614.7370, 20546.00
615.9050, 20553.00
617.0720, 20590.00
618.2390, 20726.00
619.4060, 20952.00
620.5720, 21038.00
621.7390, 21079.00
622.9050, 21290.00
624.0710, 21288.00
625.2370, 21405.00
626.4030, 21717.00
627.5690, 21753.00
628.7340, 21929.00
629.9000, 22042.00
631.0650, 22161.00
632.2300, 22397.00
633.3950, 22447.00
634.5600, 22526.29
635.7240, 22566.00
636.8890, 22589.00
638.0530, 22598.00
639.2170, 22635.00
640.3810, 22615.00
641.5450, 22505.00
642.7080, 22660.00
643.8720, 22864.00
645.0350, 22981.00
646.1980, 22886.00
647.3610, 22783.00
648.5240, 22917.00
649.6870, 22909.00
650.8490, 22867.00
652.0120, 22801.00
653.1740, 22964.00
654.3360, 23097.00
655.4980, 23033.00
656.6600, 22924.00
657.8210, 22997.00
658.9830, 23033.00
660.1440, 22804.00
661.3050, 22700.00
662.4660, 22510.00
663.6270, 22388.00
664.7870, 22364.00
665.9480, 22061.00
667.1080, 21958.00
668.2680, 21699.00
669.4280, 21613.00
670.5880, 21491.00
671.7480, 21312.00
672.9070, 21192.00
674.0670, 21041.00
675.2260, 20816.00
676.3850, 20868.00
677.5440, 20507.00
678.7030, 20524.00
679.8610, 20577.00
681.0200, 20326.00
682.1780, 20352.00
683.3360, 20175.00
684.4940, 20256.00
685.6520, 20095.00
686.8090, 20230.00
687.9670, 20011.00
689.1240, 20110.00
690.2810, 19935.00
691.4380, 19877.00
692.5950, 19924.00
693.7520, 19962.00
694.9080, 19935.00
696.0650, 19936.00
697.2210, 19878.00
698.3770, 19874.00
699.5330, 19897.00
700.6880, 19834.00
701.8440, 19887.00
702.9990, 19915.00
704.1550, 19921.55
705.3100, 20045.00
706.4650, 19993.00
707.6190, 19987.00
708.7740, 20043.77
709.9290, 20225.00
711.0830, 20235.00
712.2370, 20403.00
713.3910, 20569.00
714.5450, 20618.00
715.6980, 20756.99
716.8520, 20936.00
718.0050, 20930.00
719.1580, 21228.00
720.3110, 21310.00
721.4640, 21623.00
722.6170, 21642.00
723.7700, 22003.00
724.9220, 22423.00
726.0740, 22607.00
727.2260, 22986.00
728.3780, 23197.00
729.5300, 23481.00
730.6810, 23934.00
731.8330, 24070.00
732.9840, 24354.00
734.1350, 24393.00
735.2860, 24820.00
736.4370, 25105.00
737.5880, 25114.00
738.7380, 25374.00
739.8880, 25159.00
741.0390, 25466.00
742.1890, 25415.00
743.3380, 25530.00
744.4880, 25441.00
745.6380, 25455.24
746.7870, 25406.00
747.9360, 25335.00
749.0850, 25479.00
750.2340, 25255.00
751.3830, 25194.00
752.5310, 25381.00
753.6800, 25466.00
754.8280, 25220.00
755.9760, 25263.00
757.1240, 25101.00
758.2720, 25036.00
759.4190, 24929.00
760.5670, 24833.00
761.7140, 24928.00
762.8610, 24778.00
764.0080, 24594.00
765.1550, 24673.00
766.3020, 24396.00
767.4480, 24580.00
768.5950, 24313.00
769.7410, 24531.00
770.8870, 24304.00
772.0330, 24412.00
773.1780, 24505.00
774.3240, 24408.00
775.4690, 24500.00
776.6140, 24668.00
777.7590, 24923.00
778.9040, 24966.00
780.0490, 25059.00
781.1940, 25119.00
782.3380, 25240.00
783.4820, 25059.00
784.6260, 24860.00
785.7700, 25198.00
786.9140, 25283.00
788.0580, 25420.00
789.2010, 25581.00
790.3450, 25658.00
791.4880, 25868.00
792.6310, 25949.00
793.7730, 26180.00
794.9160, 26332.00
796.0590, 26682.00
797.2010, 26645.00
798.3430, 26751.00
799.4850, 27109.00
800.6270, 27478.00
801.7690, 27659.00
802.9100, 27670.00
804.0520, 28133.00
805.1930, 28241.00
806.3340, 28452.00
807.4750, 28736.00
808.6160, 28861.00
809.7560, 29341.00
810.8970, 29428.00
812.0370, 29469.00
813.1770, 29502.57
814.3170, 29444.12
815.4570, 29192.00
816.5960, 29228.00
817.7360, 28940.00
818.8750, 28734.00
820.0140, 28843.00
821.1530, 28572.00
822.2920, 28507.00
823.4310, 28558.00
824.5690, 28298.00
825.7070, 28074.00
826.8460, 28210.00
827.9840, 28235.00
829.1220, 28355.00
830.2590, 28312.00
831.3970, 28543.00
832.5340, 28632.00
833.6710, 28743.00
834.8080, 28910.00
835.9450, 28827.00
837.0820, 29066.00
838.2190, 29179.00
839.3550, 29329.00
840.4910, 29600.00
841.6270, 29666.00
842.7630, 29506.00
843.8990, 29570.00
845.0350, 29835.00
846.1700, 30065.00
847.3060, 30050.00
848.4410, 30391.00
849.5760, 30499.00
850.7100, 30672.00
851.8450, 31160.00
852.9800, 31275.00
854.1140, 31485.00
855.2480, 31905.00
856.3820, 32232.00
857.5160, 32373.00
858.6500, 33060.00
859.7830, 33125.00
860.9170, 33510.00
862.0500, 33803.00
863.1830, 34217.00
864.3160, 34628.00
865.4480, 34709.00
866.5810, 35295.00
867.7130, 35400.00
868.8460, 36064.00
869.9780, 36169.00
871.1100, 36464.00
872.2410, 36608.00
873.3730, 36509.00
874.5050, 36323.00
875.6360, 36031.00
876.7670, 35563.00
877.8980, 35225.00
879.0290, 34358.00
880.1590, 33914.00
881.2900, 33077.00
882.4200, 32403.00
883.5500, 31756.00
884.6800, 30966.00
885.8100, 30216.00
886.9400, 29400.00
888.0690, 28958.00
889.1990, 28431.00
890.3280, 27834.00
891.4570, 27450.00
892.5860, 27160.00
893.7140, 26753.00
894.8430, 26550.00
895.9710, 26409.00
897.1000, 26232.00
898.2280, 26003.00
899.3560, 25668.00
900.4830, 25784.00
901.6110, 25647.00
902.7380, 25791.00
903.8660, 25573.00
904.9930, 25830.00
906.1200, 25415.00
907.2460, 25391.00
908.3730, 25575.00
909.5000, 25337.00
910.6260, 25414.00
911.7520, 25551.00
912.8780, 25399.00
914.0040, 25564.00
915.1290, 25485.00
916.2550, 25417.00
917.3800, 25673.00
918.5050, 25764.00
919.6300, 25594.00
920.7550, 25751.00
921.8800, 25693.00
923.0040, 25833.00
924.1290, 25710.00
925.2530, 25865.00
926.3770, 25534.00
927.5010, 25710.00
928.6250, 25700.00
929.7480, 25595.00
930.8720, 25552.00
931.9950, 25456.00
933.1180, 25381.89
934.2410, 25299.71
935.3640, 25211.00
936.4860, 25154.00
937.6090, 25034.00
938.7310, 25032.00
939.8530, 24856.00
940.9750, 24962.00
942.0970, 24929.00
943.2180, 24806.00
944.3400, 24721.00
945.4610, 24899.00
946.5820, 25042.00
947.7030, 24924.00
948.8240, 25089.00
949.9450, 25068.00
951.0650, 25075.00
952.1860, 25175.00
953.3060, 25299.00
954.4260, 25168.00
955.5460, 25283.00
956.6650, 25440.00
957.7850, 25060.00
958.9040, 25265.00
960.0230, 25643.00
961.1420, 25414.00
962.2610, 25586.00
963.3800, 25537.00
964.4990, 25510.00
965.6170, 25625.00
966.7350, 25604.00
967.8530, 25639.38
968.9710, 25727.00
970.0890, 25669.00
971.2070, 25648.00
972.3240, 25627.00
973.4410, 25592.00
974.5580, 25528.00
975.6750, 25439.00
976.7920, 25530.00
977.9090, 25733.00
979.0250, 25202.00
980.1410, 25565.00
981.2580, 25449.00
982.3740, 25234.00
983.4890, 25561.00
984.6050, 25311.00
985.7200, 25285.00
986.8360, 25386.00
987.9510, 25260.00
989.0660, 25044.00
990.1810, 25295.00
991.2950, 24940.00
992.4100, 24822.00
993.5240, 24771.00
994.6390, 24335.00
995.7530, 24457.00
996.8660, 24053.00
997.9800, 23930.00
999.0940, 23767.00
1000.207, 23752.00
1001.320, 23544.00
1002.433, 23514.00
1003.546, 23845.00
1004.659, 23992.00
1005.772, 23963.00
1006.884, 24244.00
1007.996, 24109.00
1009.108, 24280.00
1010.220, 24409.00
1011.332, 24499.00
1012.444, 24198.00
1013.555, 24329.00
1014.666, 23721.00
1015.777, 23466.00
1016.888, 23535.00
1017.999, 23495.00
1019.110, 23315.00
1020.220, 23062.00
1021.331, 22939.00
1022.441, 22856.00
1023.551, 22905.00
1024.661, 22654.00
1025.770, 22517.00
1026.880, 22612.00
1027.989, 22469.00
1029.098, 22538.00
1030.207, 22496.00
1031.316, 22483.00
1032.425, 22495.23
1033.533, 22547.00
1034.642, 22467.00
1035.750, 22494.00
1036.858, 22453.00
1037.966, 22489.00
1039.073, 22648.00
1040.181, 22350.00
1041.288, 22812.00
1042.396, 22646.00
1043.503, 22870.00
1044.610, 22563.00
1045.716, 22774.00
1046.823, 22651.00
1047.929, 22731.00
1049.036, 22720.00
1050.142, 22777.00
1051.248, 22696.00
1052.353, 22587.00
1053.459, 22554.00
1054.564, 22742.00
1055.670, 22561.00
1056.775, 22770.00
1057.880, 22547.00
1058.985, 22748.00
1060.089, 22774.00
1061.194, 22737.00
1062.298, 22812.00
1063.402, 22729.00
1064.506, 22748.00
1065.610, 22683.00
1066.713, 22856.00
1067.817, 22821.00
1068.920, 22834.00
1070.023, 22998.00
1071.126, 22922.00
1072.229, 23006.00
1073.332, 23112.00
1074.435, 23059.00
1075.537, 23038.00
1076.639, 23044.00
1077.741, 23115.00
1078.843, 23190.00
1079.945, 23188.00
1081.046, 23071.00
1082.148, 23204.00
1083.249, 23076.00
1084.350, 23266.00
1085.451, 23098.00
1086.551, 23172.00
1087.652, 23271.00
1088.752, 23276.00
1089.853, 23202.00
1090.953, 23376.00
1092.053, 23362.00
1093.152, 23215.00
1094.252, 23460.00
1095.351, 23270.00
1096.451, 23406.00
1097.550, 23497.00
1098.649, 23112.00
1099.748, 23514.00
1100.846, 23528.00
1101.945, 23618.00
1103.043, 23468.00
1104.141, 23407.00
1105.239, 23358.00
1106.337, 23210.00
1107.434, 23555.00
1108.532, 23442.00
1109.629, 23581.00
1110.726, 23460.00
1111.823, 23496.00
1112.920, 23516.00
1114.017, 23564.41
1115.113, 23606.61
1116.210, 23712.00
1117.306, 23702.00
1118.402, 23670.00
1119.498, 23700.00
1120.593, 24019.00
1121.689, 23888.00
1122.784, 23767.00
1123.879, 24047.00
1124.974, 23957.00
1126.069, 23954.00
1127.164, 23970.00
1128.259, 23582.00
1129.353, 23692.00
1130.447, 23547.00
1131.541, 23811.00
1132.635, 23548.00
1133.729, 23647.00
1134.822, 23620.00
1135.916, 23493.00
1137.009, 23534.00
1138.102, 23546.00
1139.195, 23458.00
1140.288, 23694.00
1141.380, 23799.00
1142.473, 23722.00
1143.565, 23643.00
1144.657, 23924.00
1145.749, 23507.00
1146.841, 23690.00
1147.932, 23748.00
1149.024, 23448.00
1150.115, 23912.00
1151.206, 23838.00
1152.297, 23965.00
1153.388, 23884.00
1154.479, 23755.00
1155.569, 23540.00
1156.659, 24037.00
1157.750, 24015.00
1158.839, 23935.00
1159.929, 24080.00
1161.019, 23929.00
1162.108, 23770.00
1163.198, 23897.00
1164.287, 23958.00
1165.376, 24101.00
1166.465, 24125.00
1167.553, 24096.00
1168.642, 24002.00
1169.730, 24034.00
1170.818, 23992.00
1171.906, 24212.00
1172.994, 24080.00
1174.082, 24218.00
1175.170, 24191.00
1176.257, 24084.00
1177.344, 24298.00
1178.431, 24082.00
1179.518, 24198.00
1180.605, 24332.00
1181.691, 24251.00
1182.778, 24409.00
1183.864, 24551.00
1184.950, 24276.00
1186.036, 24236.00
1187.122, 24425.00
1188.207, 24339.00
1189.292, 24514.00
1190.378, 24470.00
1191.463, 24517.00
1192.548, 24357.00
1193.632, 24278.00
1194.717, 24388.00
1195.801, 24357.00
1196.886, 24451.00
1197.970, 24476.00
1199.054, 24409.00
1200.137, 24257.00
1201.221, 24275.00
1202.305, 24452.00
1203.388, 24537.00
1204.471, 24420.00
1205.554, 24574.00
1206.637, 24613.00
1207.719, 24545.00
1208.802, 24608.00
1209.884, 24547.00
1210.966, 24596.00
1212.048, 24560.00
1213.130, 24436.00
1214.212, 24514.00
1215.293, 24408.00
1216.374, 24621.00
1217.456, 24619.00
1218.536, 24562.00
1219.617, 24410.00
1220.698, 24665.00
1221.778, 24802.00
1222.859, 24644.00
1223.939, 24735.00
1225.019, 24564.00
1226.099, 24682.00
1227.178, 24774.00
1228.258, 24721.00
1229.337, 24728.00
1230.417, 24577.00
1231.496, 24841.00
1232.574, 24639.00
1233.653, 24898.00
1234.732, 24739.00
1235.810, 24856.00
1236.888, 24934.00
1237.966, 24835.00
1239.044, 24852.00
1240.122, 24806.00
1241.199, 24675.00
1242.277, 24879.00
1243.354, 24909.00
1244.431, 24955.00
1245.508, 24735.00
1246.585, 24825.00
1247.661, 24868.00
1248.738, 24935.00
1249.814, 24893.00
1250.890, 24956.00
1251.966, 24957.00
1253.042, 24817.00
1254.117, 25012.00
1255.193, 24936.00
1256.268, 24946.00
1257.343, 25191.00
1258.418, 25016.00
1259.493, 25112.00
1260.567, 25070.00
1261.642, 25053.00
1262.716, 25013.00
1263.790, 25048.19
1264.864, 25055.88
1265.938, 25132.00
1267.011, 25137.00
1268.085, 25177.00
1269.158, 25246.59
1270.231, 25256.67
1271.304, 25283.00
1272.377, 25310.00
1273.450, 25267.00
1274.522, 25278.00
1275.594, 25290.00
1276.666, 25294.21
1277.738, 25417.00
