##NAMES=Andradite
##RRUFFID=R060358
##IDEAL CHEMISTRY=Ca_3_Fe^3+^_2_(SiO_4_)_3_
##LOCALITY=Soghan, near Jiroft, Kerman, Iran
##OWNER=RRUFF
##SOURCE=Herb Obodda
##DESCRIPTION=Green dodecahedron
##STATUS=The identification of this mineral has been confirmed by X-ray diffraction and chemical analysis
##URL=rruff.info/R060358
##MEASURED CHEMISTRY=Ca_3.00_(Fe^3+^_1.89_Cr_0.11_)_Î£=2_(Si_1.00_O_4_)_3_
##PIN_ID=L01104
##ORIENTATION=Laser parallel to -b* (0 -1 0). Fiducial mark perpendicular to laser is parallel to c [0 0 1]
51.43100, 357.0000
52.67100, 362.0000
53.91000, 357.0000
55.14900, 354.0000
56.38700, 351.0000
57.62600, 371.0000
58.86400, 352.0000
60.10300, 371.0000
61.34100, 357.0000
62.57900, 365.0000
63.81700, 375.0000
65.05400, 366.0000
66.29200, 372.0000
67.52900, 390.0000
68.76700, 386.0000
70.00400, 448.0000
71.24100, 466.0000
72.47700, 442.0000
73.71400, 444.0000
74.95100, 449.0000
76.18700, 488.0000
77.42300, 482.0000
78.65900, 470.0000
79.89500, 481.0000
81.13100, 504.0000
82.36700, 532.0000
83.60200, 566.0000
84.83700, 569.0000
86.07200, 548.0000
87.30800, 523.0000
88.54200, 545.0000
89.77700, 580.0000
91.01200, 621.0000
92.24600, 615.0000
93.48000, 615.0000
94.71400, 594.0000
95.94800, 614.0000
97.18200, 585.0000
98.41600, 597.0000
99.64900, 579.0000
100.8830, 574.0000
102.1160, 565.0000
103.3490, 578.0000
104.5820, 607.0000
105.8150, 649.0000
107.0470, 659.0000
108.2800, 741.0000
109.5120, 800.0000
110.7440, 696.0000
111.9760, 608.0000
113.2080, 621.0000
114.4400, 609.0000
115.6710, 634.0000
116.9030, 644.0000
118.1340, 636.0000
119.3650, 626.0000
120.5960, 611.0000
121.8270, 594.0000
123.0580, 599.0000
124.2880, 611.0000
125.5190, 587.0000
126.7490, 594.0000
127.9790, 611.0000
129.2090, 616.0000
130.4390, 624.0000
131.6680, 616.0000
132.8980, 616.0000
134.1270, 607.0000
135.3560, 600.0000
136.5850, 643.0000
137.8140, 649.0000
139.0430, 621.0000
140.2710, 620.0000
141.5000, 597.0000
142.7280, 616.0000
143.9560, 607.0000
145.1840, 605.0000
146.4120, 620.0000
147.6390, 641.0000
148.8670, 626.0000
150.0940, 631.0000
151.3210, 637.0000
152.5490, 651.0000
153.7750, 630.0000
155.0020, 641.0000
156.2290, 629.0000
157.4550, 644.0000
158.6810, 631.0000
159.9080, 656.0000
161.1340, 699.0000
162.3590, 749.0000
163.5850, 816.0000
164.8110, 852.0000
166.0360, 916.0000
167.2610, 1051.000
168.4860, 1286.000
169.7110, 1600.000
170.9360, 2168.000
172.1610, 2829.000
173.3850, 3567.000
174.6100, 4348.000
175.8340, 4481.000
177.0580, 3585.000
178.2820, 2537.000
179.5050, 1648.000
180.7290, 1190.000
181.9520, 983.0000
183.1760, 872.0000
184.3990, 818.0000
185.6220, 798.0000
186.8450, 773.0000
188.0670, 791.0000
189.2900, 798.0000
190.5120, 767.0000
191.7340, 792.0000
192.9560, 762.0000
194.1780, 774.0000
195.4000, 766.0000
196.6220, 785.0000
197.8430, 768.0000
199.0640, 748.0000
200.2860, 787.0000
201.5070, 803.0000
202.7270, 799.0000
203.9480, 762.0000
205.1690, 679.0000
206.3890, 657.0000
207.6090, 644.0000
208.8290, 621.0000
210.0490, 619.0000
211.2690, 639.0000
212.4890, 642.0000
213.7080, 638.0000
214.9280, 680.0000
216.1470, 699.0000
217.3660, 659.0000
218.5850, 708.0000
219.8030, 737.0000
221.0220, 738.0000
222.2400, 831.0000
223.4590, 848.0000
224.6770, 952.0000
225.8950, 1093.000
227.1120, 1227.000
228.3300, 1501.000
229.5480, 1784.000
230.7650, 2227.000
231.9820, 2879.000
233.1990, 3640.000
234.4160, 4659.000
235.6330, 5782.000
236.8490, 6867.000
238.0660, 7043.000
239.2820, 5593.000
240.4980, 3598.000
241.7140, 2295.000
242.9300, 1604.000
244.1460, 1220.000
245.3610, 1028.000
246.5770, 913.0000
247.7920, 797.0000
249.0070, 797.0000
250.2220, 768.0000
251.4370, 746.0000
252.6510, 736.0000
253.8660, 756.0000
255.0800, 766.0000
256.2940, 765.0000
257.5080, 795.0000
258.7220, 893.0000
259.9360, 1008.000
261.1490, 1127.000
262.3630, 1335.000
263.5760, 1591.000
264.7890, 1903.000
266.0020, 2116.000
267.2150, 2037.000
268.4270, 1594.000
269.6400, 1163.000
270.8520, 975.0000
272.0640, 906.0000
273.2760, 872.0000
274.4880, 829.0000
275.7000, 764.0000
276.9120, 792.0000
278.1230, 764.0000
279.3340, 767.0000
280.5450, 741.0000
281.7560, 785.0000
282.9670, 765.0000
284.1780, 773.0000
285.3880, 792.0000
286.5980, 781.0000
287.8090, 788.0000
289.0190, 807.0000
290.2290, 836.0000
291.4380, 858.0000
292.6480, 942.0000
293.8570, 988.0000
295.0670, 1033.000
296.2760, 1108.000
297.4850, 1155.000
298.6930, 1218.000
299.9020, 1257.000
301.1110, 1293.000
302.3190, 1292.000
303.5270, 1415.000
304.7350, 1584.000
305.9430, 1789.000
307.1510, 2083.000
308.3580, 2619.000
309.5660, 3376.000
310.7730, 4211.000
311.9800, 5158.000
313.1870, 5881.000
314.3940, 5968.000
315.6010, 5316.000
316.8070, 4074.000
318.0130, 3191.000
319.2200, 2624.000
320.4260, 2383.000
321.6310, 2405.000
322.8370, 2660.000
324.0430, 2898.000
325.2480, 3339.000
326.4540, 3318.000
327.6590, 3035.000
328.8640, 2573.000
330.0680, 2147.000
331.2730, 1984.000
332.4780, 1826.000
333.6820, 1729.000
334.8860, 1732.000
336.0900, 1725.000
337.2940, 1806.000
338.4980, 1839.000
339.7010, 1962.000
340.9050, 2117.000
342.1080, 2302.000
343.3110, 2517.000
344.5140, 3001.000
345.7170, 3430.000
346.9200, 4004.000
348.1220, 4909.000
349.3240, 5922.000
350.5270, 7263.000
351.7290, 8598.000
352.9310, 9661.000
354.1320, 10075.00
355.3340, 9668.000
356.5350, 8961.000
357.7370, 8538.000
358.9380, 8719.000
360.1390, 9448.000
361.3400, 11129.00
362.5400, 13384.00
363.7410, 16873.00
364.9410, 22211.00
366.1410, 29558.00
367.3410, 38589.00
368.5410, 48393.00
369.7410, 57282.00
370.9400, 61657.00
372.1400, 59707.00
373.3390, 51327.00
374.5380, 40801.00
375.7370, 30956.00
376.9360, 22737.00
378.1350, 17439.00
379.3330, 13562.00
380.5310, 10769.00
381.7300, 8859.000
382.9280, 7370.000
384.1260, 6271.000
385.3230, 5381.000
386.5210, 4605.000
387.7180, 3926.000
388.9160, 3462.000
390.1130, 3090.000
391.3100, 2663.000
392.5060, 2560.000
393.7030, 2341.000
394.9000, 2224.000
396.0960, 2092.000
397.2920, 2020.000
398.4880, 1842.000
399.6840, 1804.000
400.8800, 1672.000
402.0750, 1653.000
403.2710, 1539.000
404.4660, 1568.000
405.6610, 1498.000
406.8560, 1433.000
408.0510, 1425.000
409.2450, 1355.000
410.4400, 1336.000
411.6340, 1310.000
412.8280, 1273.000
414.0220, 1237.000
415.2160, 1167.000
416.4100, 1204.000
417.6030, 1170.000
418.7970, 1116.000
419.9900, 1131.000
421.1830, 1139.000
422.3760, 1144.000
423.5690, 1105.000
424.7610, 1070.000
425.9540, 1075.000
427.1460, 1063.000
428.3380, 1065.000
429.5300, 1056.000
430.7220, 1045.000
431.9140, 1072.000
433.1050, 1097.000
434.2970, 1076.000
435.4880, 1064.000
436.6790, 1118.000
437.8700, 1138.000
439.0610, 1086.000
440.2510, 1153.000
441.4420, 1183.000
442.6320, 1239.000
443.8220, 1231.000
445.0120, 1301.000
446.2020, 1428.000
447.3910, 1566.000
448.5810, 1732.000
449.7700, 2049.000
450.9600, 2283.000
452.1490, 2510.000
453.3370, 2567.000
454.5260, 2382.000
455.7150, 2066.000
456.9030, 1717.000
458.0910, 1530.000
459.2800, 1344.000
460.4670, 1231.000
461.6550, 1123.000
462.8430, 1145.000
464.0300, 1093.000
465.2180, 1108.000
466.4050, 1048.000
467.5920, 1078.000
468.7790, 1057.000
469.9650, 1078.000
471.1520, 1075.000
472.3380, 1131.000
473.5250, 1134.000
474.7110, 1170.000
475.8970, 1180.000
477.0820, 1214.000
478.2680, 1232.000
479.4540, 1296.000
480.6390, 1379.000
481.8240, 1451.000
483.0090, 1489.000
484.1940, 1656.000
485.3780, 1747.000
486.5630, 1963.000
487.7470, 2256.000
488.9320, 2642.000
490.1160, 3050.000
491.3000, 3590.000
492.4830, 4071.000
493.6670, 4527.000
494.8500, 4935.000
496.0340, 5504.000
497.2170, 4249.000
498.4000, 3796.000
499.5820, 3405.000
500.7650, 3042.000
501.9480, 2881.000
503.1300, 2954.000
504.3120, 3031.000
505.4940, 3300.000
506.6760, 3807.000
507.8580, 4512.000
509.0390, 5608.000
510.2210, 7224.000
511.4020, 9718.000
512.5830, 13161.00
513.7640, 17401.00
514.9450, 21315.00
516.1250, 24649.00
517.3060, 24916.00
518.4860, 22323.00
519.6660, 17903.00
520.8460, 13518.00
522.0260, 10157.00
523.2060, 7808.000
524.3850, 6125.000
525.5650, 5068.000
526.7440, 4163.000
527.9230, 3584.000
529.1020, 3211.000
530.2810, 2862.000
531.4590, 2609.000
532.6380, 2436.000
533.8160, 2338.000
534.9940, 2270.000
536.1720, 2144.000
537.3500, 2070.000
538.5270, 2013.000
539.7050, 1973.000
540.8820, 1928.000
542.0590, 1969.000
543.2360, 1868.000
544.4130, 1882.000
545.5900, 1936.000
546.7660, 2012.000
547.9430, 2033.000
549.1190, 2186.000
550.2950, 2256.000
551.4710, 2388.000
552.6470, 2555.000
553.8220, 2655.000
554.9980, 2606.000
556.1730, 2455.000
557.3480, 2182.000
558.5230, 1922.000
559.6980, 1760.000
560.8730, 1589.000
562.0470, 1474.000
563.2220, 1365.000
564.3960, 1386.000
565.5700, 1276.000
566.7440, 1286.000
567.9170, 1283.000
569.0910, 1239.000
570.2640, 1306.000
571.4380, 1320.000
572.6110, 1359.000
573.7840, 1415.000
574.9570, 1472.000
576.1290, 1571.000
577.3020, 1601.000
578.4740, 1562.000
579.6460, 1500.000
580.8180, 1448.000
581.9900, 1323.000
583.1620, 1225.000
584.3330, 1175.000
585.5040, 1162.000
586.6760, 1148.000
587.8470, 1184.000
589.0180, 1181.000
590.1880, 1122.000
591.3590, 1144.000
592.5290, 1149.000
593.7000, 1096.000
594.8700, 1108.000
596.0400, 1108.000
597.2090, 1082.000
598.3790, 1093.000
599.5490, 1084.000
600.7180, 1037.000
601.8870, 1030.000
603.0560, 1050.000
604.2250, 1030.000
605.3940, 1051.000
606.5620, 1026.000
607.7300, 991.0000
608.8990, 1004.000
610.0670, 1000.000
611.2350, 952.0000
612.4020, 985.0000
613.5700, 942.0000
614.7370, 940.0000
615.9050, 872.0000
617.0720, 901.0000
618.2390, 907.0000
619.4060, 915.0000
620.5720, 899.0000
621.7390, 892.0000
622.9050, 901.0000
624.0710, 875.0000
625.2370, 890.0000
626.4030, 870.0000
627.5690, 866.0000
628.7340, 872.0000
629.9000, 884.0000
631.0650, 878.0000
632.2300, 860.0000
633.3950, 867.0000
634.5600, 865.0000
635.7240, 866.0000
636.8890, 895.0000
638.0530, 899.0000
639.2170, 890.0000
640.3810, 871.0000
641.5450, 858.0000
642.7080, 905.0000
643.8720, 893.0000
645.0350, 882.0000
646.1980, 862.0000
647.3610, 852.0000
648.5240, 863.0000
649.6870, 845.0000
650.8490, 874.0000
652.0120, 861.0000
653.1740, 867.0000
654.3360, 880.0000
655.4980, 874.0000
656.6600, 859.0000
657.8210, 864.0000
658.9830, 862.0000
660.1440, 852.0000
661.3050, 815.0000
662.4660, 842.0000
663.6270, 839.0000
664.7870, 813.0000
665.9480, 854.0000
667.1080, 838.0000
668.2680, 840.0000
669.4280, 858.0000
670.5880, 858.0000
671.7480, 860.0000
672.9070, 859.0000
674.0670, 851.0000
675.2260, 845.0000
676.3850, 846.0000
677.5440, 854.0000
678.7030, 828.0000
679.8610, 837.0000
681.0200, 863.0000
682.1780, 812.0000
683.3360, 824.0000
684.4940, 831.0000
685.6520, 820.0000
686.8090, 839.0000
687.9670, 853.0000
689.1240, 859.0000
690.2810, 813.0000
691.4380, 813.0000
692.5950, 785.0000
693.7520, 839.0000
694.9080, 833.0000
696.0650, 825.0000
697.2210, 789.0000
698.3770, 826.0000
699.5330, 815.0000
700.6880, 813.0000
701.8440, 828.0000
702.9990, 826.0000
704.1550, 840.0000
705.3100, 867.0000
706.4650, 826.0000
707.6190, 840.0000
708.7740, 836.0000
709.9290, 881.0000
711.0830, 847.0000
712.2370, 826.0000
713.3910, 864.0000
714.5450, 847.0000
715.6980, 840.0000
716.8520, 844.0000
718.0050, 850.0000
719.1580, 844.0000
720.3110, 843.0000
721.4640, 808.0000
722.6170, 854.0000
723.7700, 809.0000
724.9220, 839.0000
726.0740, 839.0000
727.2260, 832.0000
728.3780, 834.0000
729.5300, 834.0000
730.6810, 803.0000
731.8330, 841.0000
732.9840, 830.0000
734.1350, 835.0000
735.2860, 859.0000
736.4370, 833.0000
737.5880, 839.0000
738.7380, 866.0000
739.8880, 853.0000
741.0390, 816.0000
742.1890, 834.0000
743.3380, 867.0000
744.4880, 837.0000
745.6380, 878.0000
746.7870, 882.0000
747.9360, 896.0000
749.0850, 864.0000
750.2340, 861.0000
751.3830, 878.0000
752.5310, 912.0000
753.6800, 893.0000
754.8280, 890.0000
755.9760, 899.0000
757.1240, 897.0000
758.2720, 874.0000
759.4190, 877.0000
760.5670, 864.0000
761.7140, 845.0000
762.8610, 843.0000
764.0080, 848.0000
765.1550, 858.0000
766.3020, 835.0000
767.4480, 814.0000
768.5950, 841.0000
769.7410, 884.0000
770.8870, 830.0000
772.0330, 867.0000
773.1780, 865.0000
774.3240, 905.0000
775.4690, 890.0000
776.6140, 920.0000
777.7590, 957.0000
778.9040, 934.0000
780.0490, 943.0000
781.1940, 963.0000
782.3380, 968.0000
783.4820, 974.0000
784.6260, 1001.000
785.7700, 1036.000
786.9140, 1050.000
788.0580, 1062.000
789.2010, 1107.000
790.3450, 1143.000
791.4880, 1177.000
792.6310, 1266.000
793.7730, 1299.000
794.9160, 1376.000
796.0590, 1417.000
797.2010, 1566.000
798.3430, 1642.000
799.4850, 1712.000
800.6270, 1846.000
801.7690, 1975.000
802.9100, 2156.000
804.0520, 2384.000
805.1930, 2697.000
806.3340, 2976.000
807.4750, 3383.000
808.6160, 3894.000
809.7560, 4624.000
810.8970, 5507.000
812.0370, 6621.000
813.1770, 7966.000
814.3170, 9261.000
815.4570, 10448.00
816.5960, 11327.00
817.7360, 11500.00
818.8750, 10950.00
820.0140, 9741.000
821.1530, 8675.000
822.2920, 7431.000
823.4310, 6373.000
824.5690, 5603.000
825.7070, 5063.000
826.8460, 4568.000
827.9840, 4202.000
829.1220, 4134.000
830.2590, 4171.000
831.3970, 4199.000
832.5340, 4391.000
833.6710, 4680.000
834.8080, 5131.000
835.9450, 5743.000
837.0820, 6343.000
838.2190, 7378.000
839.3550, 8454.000
840.4910, 9560.000
841.6270, 10484.00
842.7630, 10980.00
843.8990, 11115.00
845.0350, 10933.00
846.1700, 10036.00
847.3060, 8924.000
848.4410, 7859.000
849.5760, 6925.000
850.7100, 5999.000
851.8450, 5302.000
852.9800, 4699.000
854.1140, 4244.000
855.2480, 3917.000
856.3820, 3696.000
857.5160, 3532.000
858.6500, 3452.000
859.7830, 3376.000
860.9170, 3388.000
862.0500, 3439.000
863.1830, 3590.000
864.3160, 3843.000
865.4480, 4147.000
866.5810, 4614.000
867.7130, 5278.000
868.8460, 6165.000
869.9780, 7512.000
871.1100, 8965.000
872.2410, 11256.00
873.3730, 13391.00
874.5050, 15718.00
875.6360, 16830.00
876.7670, 16500.00
877.8980, 14777.00
879.0290, 12409.00
880.1590, 9850.000
881.2900, 7585.000
882.4200, 5908.000
883.5500, 4647.000
884.6800, 3854.000
885.8100, 3146.000
886.9400, 2715.000
888.0690, 2398.000
889.1990, 2199.000
890.3280, 1935.000
891.4570, 1771.000
892.5860, 1634.000
893.7140, 1507.000
894.8430, 1418.000
895.9710, 1414.000
897.1000, 1257.000
898.2280, 1278.000
899.3560, 1290.000
900.4830, 1219.000
901.6110, 1172.000
902.7380, 1138.000
903.8660, 1140.000
904.9930, 1113.000
906.1200, 1106.000
907.2460, 1067.000
908.3730, 1069.000
909.5000, 1080.000
910.6260, 1061.000
911.7520, 1046.000
912.8780, 1037.000
914.0040, 1027.000
915.1290, 1017.000
916.2550, 1009.000
917.3800, 1026.000
918.5050, 986.0000
919.6300, 991.0000
920.7550, 976.0000
921.8800, 945.0000
923.0040, 967.0000
924.1290, 980.0000
925.2530, 962.0000
926.3770, 927.0000
927.5010, 939.0000
928.6250, 942.0000
929.7480, 1005.000
930.8720, 932.0000
931.9950, 948.0000
933.1180, 971.0000
934.2410, 952.0000
935.3640, 958.0000
936.4860, 933.0000
937.6090, 933.0000
938.7310, 941.0000
939.8530, 913.0000
940.9750, 918.0000
942.0970, 894.0000
943.2180, 903.0000
944.3400, 880.0000
945.4610, 881.0000
946.5820, 912.0000
947.7030, 912.0000
948.8240, 905.0000
949.9450, 890.0000
951.0650, 913.0000
952.1860, 898.0000
953.3060, 920.0000
954.4260, 915.0000
955.5460, 933.0000
956.6650, 958.0000
957.7850, 923.0000
958.9040, 948.0000
960.0230, 955.0000
961.1420, 955.0000
962.2610, 961.0000
963.3800, 962.0000
964.4990, 950.0000
965.6170, 1013.000
966.7350, 986.0000
967.8530, 1004.000
968.9710, 1019.000
970.0890, 1051.000
971.2070, 1111.000
972.3240, 1074.000
973.4410, 1126.000
974.5580, 1163.000
975.6750, 1140.000
976.7920, 1164.000
977.9090, 1152.000
979.0250, 1146.000
980.1410, 1222.000
981.2580, 1236.000
982.3740, 1213.000
983.4890, 1231.000
984.6050, 1293.000
985.7200, 1353.000
986.8360, 1412.000
987.9510, 1573.000
989.0660, 1708.000
990.1810, 1859.000
991.2950, 2121.000
992.4100, 2448.000
993.5240, 2843.000
994.6390, 3239.000
995.7530, 3445.000
996.8660, 3500.000
997.9800, 3187.000
999.0940, 2795.000
1000.207, 2293.000
1001.320, 1938.000
1002.433, 1658.000
1003.546, 1473.000
1004.659, 1334.000
1005.772, 1196.000
1006.884, 1152.000
1007.996, 1082.000
1009.108, 1062.000
1010.220, 998.0000
1011.332, 965.0000
1012.444, 952.0000
1013.555, 970.0000
1014.666, 915.0000
1015.777, 951.0000
1016.888, 929.0000
1017.999, 879.0000
1019.110, 876.0000
1020.220, 850.0000
1021.331, 847.0000
1022.441, 871.0000
1023.551, 861.0000
1024.661, 828.0000
1025.770, 826.0000
1026.880, 804.0000
1027.989, 824.0000
1029.098, 792.0000
1030.207, 811.0000
1031.316, 782.0000
1032.425, 790.0000
1033.533, 785.0000
1034.642, 779.0000
1035.750, 772.0000
1036.858, 780.0000
1037.966, 769.0000
1039.073, 754.0000
1040.181, 756.0000
1041.288, 753.0000
1042.396, 744.0000
1043.503, 753.0000
1044.610, 749.0000
1045.716, 752.0000
1046.823, 750.0000
1047.929, 740.0000
1049.036, 722.0000
1050.142, 741.0000
1051.248, 687.0000
1052.353, 722.0000
1053.459, 733.0000
1054.564, 710.0000
1055.670, 731.0000
1056.775, 703.0000
1057.880, 715.0000
1058.985, 733.0000
1060.089, 723.0000
1061.194, 740.0000
1062.298, 732.0000
1063.402, 769.0000
1064.506, 750.0000
1065.610, 779.0000
1066.713, 737.0000
1067.817, 757.0000
1068.920, 749.0000
1070.023, 775.0000
1071.126, 801.0000
1072.229, 772.0000
1073.332, 799.0000
1074.435, 802.0000
1075.537, 813.0000
1076.639, 824.0000
1077.741, 846.0000
1078.843, 842.0000
1079.945, 845.0000
1081.046, 866.0000
1082.148, 867.0000
1083.249, 868.0000
1084.350, 851.0000
1085.451, 874.0000
1086.551, 879.0000
1087.652, 870.0000
1088.752, 942.0000
1089.853, 920.0000
1090.953, 911.0000
1092.053, 924.0000
1093.152, 932.0000
1094.252, 940.0000
1095.351, 933.0000
1096.451, 931.0000
1097.550, 946.0000
1098.649, 972.0000
1099.748, 970.0000
1100.846, 1023.000
1101.945, 951.0000
1103.043, 969.0000
1104.141, 979.0000
1105.239, 967.0000
1106.337, 993.0000
1107.434, 970.0000
1108.532, 973.0000
1109.629, 981.0000
1110.726, 963.0000
1111.823, 967.0000
1112.920, 972.0000
1114.017, 936.0000
1115.113, 913.0000
1116.210, 910.0000
1117.306, 919.0000
1118.402, 944.0000
1119.498, 897.0000
1120.593, 893.0000
1121.689, 877.0000
1122.784, 911.0000
1123.879, 897.0000
1124.974, 913.0000
1126.069, 884.0000
1127.164, 877.0000
1128.259, 819.0000
1129.353, 840.0000
1130.447, 782.0000
1131.541, 767.0000
1132.635, 759.0000
1133.729, 785.0000
1134.822, 767.0000
1135.916, 743.0000
1137.009, 748.0000
1138.102, 732.0000
1139.195, 741.0000
1140.288, 737.0000
1141.380, 724.0000
1142.473, 707.0000
1143.565, 715.0000
1144.657, 762.0000
1145.749, 728.0000
1146.841, 760.0000
1147.932, 742.0000
1149.024, 704.0000
1150.115, 734.0000
1151.206, 767.0000
1152.297, 705.0000
1153.388, 758.0000
1154.479, 725.0000
1155.569, 766.0000
1156.659, 749.0000
1157.750, 751.0000
1158.839, 737.0000
1159.929, 757.0000
1161.019, 777.0000
1162.108, 773.0000
1163.198, 790.0000
1164.287, 759.0000
1165.376, 764.0000
1166.465, 780.0000
1167.553, 791.0000
1168.642, 798.0000
1169.730, 813.0000
1170.818, 787.0000
1171.906, 807.0000
1172.994, 838.0000
1174.082, 828.0000
1175.170, 816.0000
1176.257, 842.0000
1177.344, 832.0000
1178.431, 835.0000
1179.518, 842.0000
1180.605, 850.0000
1181.691, 857.0000
1182.778, 842.0000
1183.864, 831.0000
1184.950, 838.0000
1186.036, 870.0000
1187.122, 841.0000
1188.207, 870.0000
1189.292, 824.0000
1190.378, 850.0000
1191.463, 819.0000
1192.548, 868.0000
1193.632, 803.0000
1194.717, 835.0000
1195.801, 805.0000
1196.886, 831.0000
1197.970, 826.0000
1199.054, 818.0000
1200.137, 807.0000
1201.221, 798.0000
1202.305, 843.0000
1203.388, 840.0000
1204.471, 802.0000
1205.554, 792.0000
1206.637, 816.0000
1207.719, 779.0000
1208.802, 766.0000
1209.884, 806.0000
1210.966, 797.0000
1212.048, 804.0000
1213.130, 777.0000
1214.212, 761.0000
1215.293, 788.0000
1216.374, 755.0000
1217.456, 751.0000
1218.536, 710.0000
1219.617, 705.0000
1220.698, 729.0000
1221.778, 692.0000
1222.859, 712.0000
1223.939, 681.0000
1225.019, 706.0000
1226.099, 661.0000
1227.178, 664.0000
1228.258, 683.0000
1229.337, 666.0000
1230.417, 670.0000
1231.496, 656.0000
1232.574, 686.0000
1233.653, 652.0000
1234.732, 635.0000
1235.810, 617.0000
1236.888, 651.0000
1237.966, 636.0000
1239.044, 625.0000
