##NAMES=Andradite
##RRUFFID=R060350
##IDEAL CHEMISTRY=Ca_3_Fe^3+^_2_(SiO_4_)_3_
##LOCALITY=south of the Gem mine, southern San Benito County, California, USA
##OWNER=RRUFF
##SOURCE=Michael Scott
##DESCRIPTION=Cluster of black vitreous crystals showing well-developed faces
##STATUS=The identification of this mineral has been confirmed by X-ray diffraction and chemical analysis
##URL=rruff.info/R060350
##MEASURED CHEMISTRY=(Ca_2.93_Mg_0.07_)_Σ=3_(Fe^3+^_1.18_Ti_0.77_Al_0.05_)_Σ=2_((Si_0.74_Fe^3+^_0.26_)_Σ=1_O_4_)_3_ ; trace amounts of Mn
##PIN_ID=M00067
##ORIENTATION=Laser parallel to a* (1 0 0). Fiducial mark perpendicular to laser is parallel to c [0 0 1]
114.4400, 11663.00
115.6710, 12302.00
116.9030, 12822.00
118.1340, 12395.00
119.3650, 12140.00
120.5960, 12052.00
121.8270, 12219.00
123.0580, 12457.00
124.2880, 12371.11
125.5190, 12699.00
126.7490, 12544.00
127.9790, 12845.00
129.2090, 13356.00
130.4390, 13651.00
131.6680, 14020.00
132.8980, 14071.00
134.1270, 14138.00
135.3560, 14348.00
136.5850, 14724.00
137.8140, 15239.00
139.0430, 16018.00
140.2710, 16635.00
141.5000, 16449.00
142.7280, 16054.00
143.9560, 15589.00
145.1840, 15124.00
146.4120, 15024.00
147.6390, 14842.00
148.8670, 14551.00
150.0940, 14459.00
151.3210, 14359.00
152.5490, 14597.00
153.7750, 14768.00
155.0020, 14720.00
156.2290, 14778.00
157.4550, 14783.00
158.6810, 14990.00
159.9080, 15002.00
161.1340, 15521.00
162.3590, 15992.00
163.5850, 16810.00
164.8110, 17806.00
166.0360, 18742.00
167.2610, 19071.00
168.4860, 19389.00
169.7110, 19224.00
170.9360, 19455.00
172.1610, 18885.00
173.3850, 18342.00
174.6100, 17993.00
175.8340, 17797.00
177.0580, 17571.00
178.2820, 17590.00
179.5050, 17451.00
180.7290, 17368.00
181.9520, 17279.00
183.1760, 17228.00
184.3990, 17467.00
185.6220, 17618.00
186.8450, 17777.39
188.0670, 17998.37
189.2900, 18191.00
190.5120, 18399.00
191.7340, 18577.00
192.9560, 18761.00
194.1780, 18962.00
195.4000, 18925.00
196.6220, 18931.00
197.8430, 18590.00
199.0640, 18403.00
200.2860, 18492.00
201.5070, 18739.00
202.7270, 19190.00
203.9480, 19045.00
205.1690, 17291.00
206.3890, 15870.00
207.6090, 15340.00
208.8290, 15299.00
210.0490, 15096.00
211.2690, 15339.00
212.4890, 15303.00
213.7080, 15255.00
214.9280, 15440.00
216.1470, 15384.00
217.3660, 15190.00
218.5850, 15718.00
219.8030, 15307.00
221.0220, 15032.00
222.2400, 15962.00
223.4590, 15043.00
224.6770, 14867.00
225.8950, 15065.00
227.1120, 15046.00
228.3300, 14844.00
229.5480, 14881.00
230.7650, 14866.00
231.9820, 15110.00
233.1990, 15128.00
234.4160, 15398.00
235.6330, 15459.77
236.8490, 15480.00
238.0660, 15546.00
239.2820, 15812.00
240.4980, 15690.00
241.7140, 15942.00
242.9300, 16061.00
244.1460, 16118.00
245.3610, 16163.00
246.5770, 16037.00
247.7920, 16465.00
249.0070, 16377.00
250.2220, 16655.00
251.4370, 16908.00
252.6510, 16899.00
253.8660, 17186.00
255.0800, 17197.00
256.2940, 17370.00
257.5080, 17442.00
258.7220, 17813.00
259.9360, 18638.00
261.1490, 19165.00
262.3630, 18286.00
263.5760, 17628.00
264.7890, 17645.00
266.0020, 17759.00
267.2150, 17503.00
268.4270, 17416.00
269.6400, 17320.00
270.8520, 17322.00
272.0640, 17362.00
273.2760, 17325.51
274.4880, 17200.00
275.7000, 17347.00
276.9120, 17296.00
278.1230, 17325.00
279.3340, 17403.00
280.5450, 17471.00
281.7560, 17444.00
282.9670, 17678.00
284.1780, 17680.00
285.3880, 17854.00
286.5980, 18112.00
287.8090, 18038.00
289.0190, 18321.00
290.2290, 18499.00
291.4380, 18792.00
292.6480, 18866.00
293.8570, 19033.00
295.0670, 19106.00
296.2760, 19152.00
297.4850, 19337.00
298.6930, 19617.00
299.9020, 19825.00
301.1110, 20134.00
302.3190, 20428.12
303.5270, 20918.00
304.7350, 21116.00
305.9430, 21573.00
307.1510, 22038.00
308.3580, 22398.00
309.5660, 22969.00
310.7730, 23517.00
311.9800, 24307.00
313.1870, 25004.00
314.3940, 25867.00
315.6010, 26344.00
316.8070, 27150.00
318.0130, 28068.00
319.2200, 29237.00
320.4260, 30314.00
321.6310, 31484.00
322.8370, 32808.00
324.0430, 34429.57
325.2480, 36441.00
326.4540, 38176.00
327.6590, 40058.00
328.8640, 42397.00
330.0680, 44340.00
331.2730, 46652.00
332.4780, 48541.00
333.6820, 50584.00
334.8860, 52212.00
336.0900, 53701.63
337.2940, 55058.00
338.4980, 55881.00
339.7010, 56931.00
340.9050, 57023.00
342.1080, 57983.00
343.3110, 57677.00
344.5140, 58225.00
345.7170, 58587.00
346.9200, 59002.00
348.1220, 59515.00
349.3240, 59785.00
350.5270, 60713.00
351.7290, 61273.00
352.9310, 61568.00
354.1320, 61872.00
355.3340, 62193.00
356.5350, 62255.00
357.7370, 61587.00
358.9380, 60587.00
360.1390, 59584.00
361.3400, 58290.00
362.5400, 57598.00
363.7410, 55803.00
364.9410, 54205.00
366.1410, 52570.00
367.3410, 51545.00
368.5410, 49558.00
369.7410, 48197.00
370.9400, 46744.00
372.1400, 45112.00
373.3390, 43373.00
374.5380, 41814.00
375.7370, 40454.00
376.9360, 38936.00
378.1350, 37636.00
379.3330, 36395.00
380.5310, 35245.00
381.7300, 34052.53
382.9280, 32918.45
384.1260, 31818.00
385.3230, 30685.00
386.5210, 29635.00
387.7180, 28527.00
388.9160, 27618.00
390.1130, 26528.00
391.3100, 25912.00
392.5060, 24879.00
393.7030, 24215.00
394.9000, 23494.00
396.0960, 22789.00
397.2920, 22340.00
398.4880, 21769.00
399.6840, 21106.00
400.8800, 20498.00
402.0750, 20371.00
403.2710, 19776.00
404.4660, 19504.00
405.6610, 19254.00
406.8560, 19024.00
408.0510, 18794.00
409.2450, 18658.22
410.4400, 18690.00
411.6340, 18462.00
412.8280, 18350.00
414.0220, 18334.00
415.2160, 18184.00
416.4100, 18105.00
417.6030, 18016.00
418.7970, 18010.00
419.9900, 17994.00
421.1830, 18052.00
422.3760, 17823.00
423.5690, 17867.00
424.7610, 17666.00
425.9540, 17891.00
427.1460, 17696.00
428.3380, 17739.00
429.5300, 17569.00
430.7220, 17757.00
431.9140, 17579.00
433.1050, 17718.00
434.2970, 17694.00
435.4880, 17524.00
436.6790, 17494.00
437.8700, 17456.00
439.0610, 17306.00
440.2510, 17158.54
441.4420, 16874.00
442.6320, 16676.00
443.8220, 16350.00
445.0120, 15945.00
446.2020, 15908.00
447.3910, 15762.00
448.5810, 15558.00
449.7700, 15572.00
450.9600, 15568.00
452.1490, 15479.00
453.3370, 15488.00
454.5260, 15327.00
455.7150, 15384.00
456.9030, 15405.00
458.0910, 15369.00
459.2800, 15697.00
460.4670, 15619.00
461.6550, 15988.00
462.8430, 16262.00
464.0300, 16368.00
465.2180, 16669.00
466.4050, 16989.00
467.5920, 17247.00
468.7790, 17599.00
469.9650, 17774.00
471.1520, 18149.00
472.3380, 18683.00
473.5250, 18914.00
474.7110, 19310.00
475.8970, 19780.00
477.0820, 20231.00
478.2680, 20823.00
479.4540, 21211.00
480.6390, 21879.00
481.8240, 22452.00
483.0090, 23011.00
484.1940, 23412.00
485.3780, 23798.12
486.5630, 24181.00
487.7470, 24167.00
488.9320, 23973.00
490.1160, 23616.00
491.3000, 23470.00
492.4830, 23084.00
493.6670, 22794.00
494.8500, 22810.00
496.0340, 22996.00
497.2170, 23363.00
498.4000, 24070.07
499.5820, 25066.00
500.7650, 26089.00
501.9480, 27359.00
503.1300, 28883.00
504.3120, 30177.00
505.4940, 31066.00
506.6760, 31861.00
507.8580, 32315.00
509.0390, 32655.00
510.2210, 32176.00
511.4020, 31819.00
512.5830, 31422.00
513.7640, 30758.00
514.9450, 30131.00
516.1250, 29445.00
517.3060, 28825.00
518.4860, 28114.00
519.6660, 27497.00
520.8460, 26941.00
522.0260, 26801.00
523.2060, 26379.00
524.3850, 25706.00
525.5650, 25642.00
526.7440, 25195.00
527.9230, 25080.00
529.1020, 24598.00
530.2810, 24570.00
531.4590, 24232.00
532.6380, 23788.00
533.8160, 23757.00
534.9940, 23504.00
536.1720, 23427.00
537.3500, 23161.00
538.5270, 22825.00
539.7050, 22620.00
540.8820, 22461.00
542.0590, 22082.00
543.2360, 21765.00
544.4130, 21326.00
545.5900, 20931.00
546.7660, 20374.00
547.9430, 20184.00
549.1190, 19625.00
550.2950, 19131.00
551.4710, 18794.00
552.6470, 18312.00
553.8220, 17991.00
554.9980, 17145.00
556.1730, 16833.00
557.3480, 16222.00
558.5230, 15772.00
559.6980, 15386.00
560.8730, 14968.00
562.0470, 14648.00
563.2220, 14380.25
564.3960, 14168.00
565.5700, 14019.00
566.7440, 13945.00
567.9170, 13959.00
569.0910, 14026.94
570.2640, 14154.22
571.4380, 14362.00
572.6110, 14558.00
573.7840, 14833.00
574.9570, 15089.00
576.1290, 15473.00
577.3020, 15683.00
578.4740, 15863.00
579.6460, 15907.00
580.8180, 15893.00
581.9900, 15723.00
583.1620, 15718.00
584.3330, 15497.00
585.5040, 15353.00
586.6760, 15272.00
587.8470, 15060.00
589.0180, 15072.00
590.1880, 14889.00
591.3590, 14681.00
592.5290, 14522.00
593.7000, 14471.00
594.8700, 14220.00
596.0400, 14056.00
597.2090, 14036.00
598.3790, 13750.00
599.5490, 13689.00
600.7180, 13492.00
601.8870, 13349.00
603.0560, 13255.00
604.2250, 13110.00
605.3940, 12790.00
606.5620, 12760.00
607.7300, 12553.00
608.8990, 12366.00
610.0670, 12252.00
611.2350, 12154.00
612.4020, 12037.00
613.5700, 11908.97
614.7370, 11871.00
615.9050, 11639.94
617.0720, 11575.00
618.2390, 11442.00
619.4060, 11515.00
620.5720, 11518.00
621.7390, 11419.00
622.9050, 11472.00
624.0710, 11288.00
625.2370, 11545.00
626.4030, 11363.00
627.5690, 11370.00
628.7340, 11458.00
629.9000, 11468.00
631.0650, 11660.00
632.2300, 11536.00
633.3950, 11651.00
634.5600, 11841.00
635.7240, 11909.00
636.8890, 11915.00
638.0530, 11928.00
639.2170, 12089.00
640.3810, 12148.00
641.5450, 12095.00
642.7080, 12128.00
643.8720, 12089.00
645.0350, 12089.00
646.1980, 12073.57
647.3610, 12077.00
648.5240, 12025.00
649.6870, 11873.00
650.8490, 11828.00
652.0120, 11830.00
653.1740, 11674.00
654.3360, 11642.00
655.4980, 11558.00
656.6600, 11516.00
657.8210, 11481.74
658.9830, 11429.73
660.1440, 11423.00
661.3050, 11355.00
662.4660, 11324.00
663.6270, 11283.00
664.7870, 11231.00
665.9480, 11164.20
667.1080, 11016.00
668.2680, 10993.00
669.4280, 10933.00
670.5880, 10814.00
671.7480, 10789.00
672.9070, 10739.01
674.0670, 10829.00
675.2260, 10670.00
676.3850, 10707.00
677.5440, 10642.00
678.7030, 10737.00
679.8610, 10776.00
681.0200, 10823.00
682.1780, 10731.00
683.3360, 10805.00
684.4940, 10784.00
685.6520, 10829.00
686.8090, 10872.00
687.9670, 10955.00
689.1240, 11007.00
690.2810, 11119.00
691.4380, 11248.00
692.5950, 11252.00
693.7520, 11399.00
694.9080, 11520.00
696.0650, 11700.00
697.2210, 11777.00
698.3770, 11782.00
699.5330, 11848.00
700.6880, 12077.00
701.8440, 12094.00
702.9990, 12294.00
704.1550, 12422.00
705.3100, 12508.00
706.4650, 12533.00
707.6190, 12671.00
708.7740, 12593.00
709.9290, 12628.00
711.0830, 12731.00
712.2370, 12757.00
713.3910, 12721.00
714.5450, 12840.00
715.6980, 12885.00
716.8520, 13011.00
718.0050, 13051.00
719.1580, 13135.00
720.3110, 13300.00
721.4640, 13270.00
722.6170, 13362.00
723.7700, 13569.00
724.9220, 13780.00
726.0740, 13969.00
727.2260, 14184.00
728.3780, 14383.00
729.5300, 14597.00
730.6810, 14771.00
731.8330, 15154.00
732.9840, 15341.00
734.1350, 15836.00
735.2860, 15995.00
736.4370, 16369.00
737.5880, 16481.00
738.7380, 16826.00
739.8880, 17346.00
741.0390, 17777.00
742.1890, 18117.00
743.3380, 18677.00
744.4880, 18996.00
745.6380, 19703.00
746.7870, 20113.00
747.9360, 20498.00
749.0850, 20913.00
750.2340, 21355.00
751.3830, 21599.00
752.5310, 22017.00
753.6800, 22187.00
754.8280, 22392.00
755.9760, 22561.00
757.1240, 22448.00
758.2720, 22520.00
759.4190, 22632.00
760.5670, 22622.00
761.7140, 22315.00
762.8610, 22443.00
764.0080, 22705.00
765.1550, 22653.00
766.3020, 23033.00
767.4480, 23374.00
768.5950, 23779.00
769.7410, 24060.00
770.8870, 24563.00
772.0330, 24863.00
773.1780, 25520.00
774.3240, 25861.00
775.4690, 26520.00
776.6140, 27100.00
777.7590, 27857.00
778.9040, 28485.00
780.0490, 29114.00
781.1940, 29707.00
782.3380, 30648.00
783.4820, 31531.00
784.6260, 32046.00
785.7700, 33101.00
786.9140, 33815.00
788.0580, 34641.00
789.2010, 35963.00
790.3450, 36855.00
791.4880, 37730.00
792.6310, 38946.00
793.7730, 40145.00
794.9160, 41577.00
796.0590, 42543.00
797.2010, 44171.00
798.3430, 45371.00
799.4850, 46630.00
800.6270, 47669.00
801.7690, 49109.00
802.9100, 50470.00
804.0520, 51905.00
805.1930, 53223.00
806.3340, 54605.00
807.4750, 55771.00
808.6160, 56937.00
809.7560, 58066.07
810.8970, 59161.00
812.0370, 60118.00
813.1770, 60955.01
814.3170, 61715.00
815.4570, 62331.00
816.5960, 62814.00
817.7360, 63249.00
818.8750, 63740.00
820.0140, 63854.09
821.1530, 63914.00
822.2920, 63885.00
823.4310, 63683.00
824.5690, 63406.00
825.7070, 62708.00
826.8460, 62254.00
827.9840, 61601.00
829.1220, 60808.00
830.2590, 60279.00
831.3970, 59852.00
832.5340, 59092.00
833.6710, 58747.00
834.8080, 58208.00
835.9450, 57643.00
837.0820, 57485.00
838.2190, 57141.00
839.3550, 56475.00
840.4910, 55857.00
841.6270, 55607.00
842.7630, 55256.00
843.8990, 55019.00
845.0350, 54588.00
846.1700, 54307.00
847.3060, 54289.60
848.4410, 54246.41
849.5760, 54403.00
850.7100, 54571.00
851.8450, 54772.00
852.9800, 55059.00
854.1140, 55230.00
855.2480, 55371.00
856.3820, 55669.00
857.5160, 55717.00
858.6500, 56128.00
859.7830, 56267.00
860.9170, 56523.00
862.0500, 56620.00
863.1830, 57199.00
864.3160, 57220.00
865.4480, 57476.00
866.5810, 57550.00
867.7130, 58079.00
868.8460, 58073.00
869.9780, 57996.00
871.1100, 58486.00
872.2410, 57906.00
873.3730, 57892.00
874.5050, 58152.00
875.6360, 58009.00
876.7670, 57448.00
877.8980, 57089.00
879.0290, 56263.00
880.1590, 55838.00
881.2900, 55012.00
882.4200, 54487.00
883.5500, 53201.00
884.6800, 52085.00
885.8100, 50875.00
886.9400, 49265.00
888.0690, 47757.00
889.1990, 45812.00
890.3280, 44159.00
891.4570, 42508.00
892.5860, 40493.00
893.7140, 39032.00
894.8430, 37039.00
895.9710, 35901.00
897.1000, 34254.00
898.2280, 32905.00
899.3560, 31696.00
900.4830, 30626.00
901.6110, 29553.00
902.7380, 28598.00
903.8660, 27695.00
904.9930, 26637.00
906.1200, 26140.00
907.2460, 25225.00
908.3730, 24719.00
909.5000, 23956.00
910.6260, 23481.00
911.7520, 22934.00
912.8780, 22475.00
914.0040, 21980.00
915.1290, 21853.00
916.2550, 21272.00
917.3800, 20994.00
918.5050, 20971.00
919.6300, 20589.00
920.7550, 20291.00
921.8800, 20143.00
923.0040, 20027.00
924.1290, 19812.00
925.2530, 19650.00
926.3770, 19611.00
927.5010, 19430.00
928.6250, 19283.00
929.7480, 19077.00
930.8720, 19247.00
931.9950, 18605.00
933.1180, 18724.00
934.2410, 18453.00
935.3640, 18083.00
936.4860, 17983.00
937.6090, 17820.00
938.7310, 17484.00
939.8530, 17392.00
940.9750, 17240.00
942.0970, 17031.00
943.2180, 16818.00
944.3400, 16717.00
945.4610, 16479.00
946.5820, 16216.00
947.7030, 16348.00
948.8240, 16081.00
949.9450, 15970.00
951.0650, 16041.00
952.1860, 15981.00
953.3060, 15781.00
954.4260, 15871.00
955.5460, 16015.00
956.6650, 15842.00
957.7850, 15779.00
958.9040, 15747.00
960.0230, 15858.00
961.1420, 15865.00
962.2610, 15985.00
963.3800, 15990.00
964.4990, 16082.00
965.6170, 16006.00
966.7350, 16178.00
967.8530, 16076.00
968.9710, 16282.00
970.0890, 16096.00
971.2070, 16221.00
972.3240, 16182.00
973.4410, 15992.00
974.5580, 16115.00
975.6750, 15958.00
976.7920, 15915.00
977.9090, 15883.00
979.0250, 15742.00
980.1410, 15611.00
981.2580, 15549.00
982.3740, 15650.00
983.4890, 15443.00
984.6050, 15362.00
985.7200, 15216.00
986.8360, 15081.00
987.9510, 15029.00
989.0660, 14938.00
990.1810, 14796.00
991.2950, 14556.00
992.4100, 14370.00
993.5240, 14093.00
994.6390, 13802.00
995.7530, 13496.00
996.8660, 13239.00
997.9800, 12978.00
999.0940, 12841.00
1000.207, 12694.00
1001.320, 12671.00
1002.433, 12800.00
1003.546, 13307.00
1004.659, 13527.00
1005.772, 13985.00
1006.884, 14463.00
1007.996, 14965.00
1009.108, 15355.00
1010.220, 15708.00
1011.332, 15889.00
1012.444, 15884.00
1013.555, 15362.00
1014.666, 15035.00
1015.777, 14490.00
1016.888, 13943.00
1017.999, 13375.00
1019.110, 12576.00
1020.220, 12147.00
1021.331, 11503.00
1022.441, 11342.00
1023.551, 11009.00
1024.661, 10553.00
1025.770, 10302.00
1026.880, 10306.00
1027.989, 10201.00
1029.098, 10032.00
1030.207, 9954.000
1031.316, 9899.000
1032.425, 9839.000
1033.533, 9799.000
1034.642, 9745.000
1035.750, 9684.000
1036.858, 9686.000
1037.966, 9624.444
1039.073, 9711.000
1040.181, 9594.000
1041.288, 9605.000
1042.396, 9703.000
1043.503, 9625.000
1044.610, 9563.000
1045.716, 9502.000
1046.823, 9571.000
1047.929, 9595.000
1049.036, 9605.000
1050.142, 9488.000
1051.248, 9598.000
1052.353, 9599.000
1053.459, 9623.000
1054.564, 9683.000
1055.670, 9589.000
1056.775, 9666.000
1057.880, 9665.000
1058.985, 9569.000
1060.089, 9672.000
1061.194, 9620.328
1062.298, 9579.000
1063.402, 9617.000
1064.506, 9652.000
1065.610, 9664.000
1066.713, 9565.000
1067.817, 9571.000
1068.920, 9623.000
1070.023, 9680.000
1071.126, 9671.699
1072.229, 9644.000
1073.332, 9695.000
1074.435, 9635.000
1075.537, 9686.000
1076.639, 9747.000
1077.741, 9717.000
1078.843, 9832.000
1079.945, 9696.000
1081.046, 9719.000
1082.148, 9741.000
1083.249, 9778.000
1084.350, 9954.000
1085.451, 10113.00
1086.551, 9928.000
1087.652, 9881.000
1088.752, 9769.000
1089.853, 9678.000
1090.953, 9771.000
1092.053, 9706.119
1093.152, 9663.000
1094.252, 9728.000
1095.351, 9802.000
1096.451, 9807.000
1097.550, 9727.000
1098.649, 9764.000
1099.748, 9723.000
1100.846, 9772.000
1101.945, 9762.000
1103.043, 9772.000
1104.141, 9704.000
1105.239, 9671.000
1106.337, 9581.000
1107.434, 9658.000
1108.532, 9646.000
1109.629, 9602.000
1110.726, 9633.000
1111.823, 9637.000
1112.920, 9596.000
1114.017, 9568.000
1115.113, 9610.000
1116.210, 9564.000
1117.306, 9644.000
1118.402, 9629.000
1119.498, 9573.000
1120.593, 9686.000
1121.689, 9713.000
1122.784, 9668.000
1123.879, 9639.000
1124.974, 9602.000
1126.069, 9614.000
1127.164, 9556.000
1128.259, 9540.007
1129.353, 9391.000
1130.447, 9481.000
1131.541, 9419.000
1132.635, 9385.000
1133.729, 9218.000
1134.822, 9232.000
1135.916, 9232.000
1137.009, 9346.000
1138.102, 9255.000
1139.195, 9193.000
1140.288, 9202.000
1141.380, 9206.000
1142.473, 9279.000
1143.565, 9221.000
1144.657, 9275.812
1145.749, 9220.609
1146.841, 9228.505
1147.932, 9142.000
1149.024, 9210.000
1150.115, 9256.000
1151.206, 9216.000
1152.297, 9255.000
1153.388, 9244.000
1154.479, 9265.000
1155.569, 9179.000
1156.659, 9302.000
1157.750, 9316.000
1158.839, 9327.000
1159.929, 9223.000
1161.019, 9343.000
1162.108, 9234.000
1163.198, 9329.000
1164.287, 9274.000
1165.376, 9407.000
1166.465, 9285.000
1167.553, 9315.000
1168.642, 9185.000
1169.730, 9380.000
1170.818, 9292.000
1171.906, 9224.000
1172.994, 9372.000
1174.082, 9401.000
1175.170, 9447.000
1176.257, 9309.000
1177.344, 9318.000
1178.431, 9418.000
1179.518, 9436.000
1180.605, 9502.000
1181.691, 9195.000
1182.778, 9362.000
1183.864, 9266.000
1184.950, 9416.000
1186.036, 9377.000
1187.122, 9368.000
1188.207, 9479.000
1189.292, 9361.000
1190.378, 9291.000
1191.463, 9302.000
1192.548, 9312.000
1193.632, 9277.000
1194.717, 9310.000
1195.801, 9305.188
1196.886, 9246.000
1197.970, 9293.000
1199.054, 9308.000
1200.137, 9237.000
1201.221, 9258.000
1202.305, 9165.000
1203.388, 9251.000
1204.471, 9207.000
1205.554, 9118.000
1206.637, 9118.000
1207.719, 9102.000
1208.802, 9118.000
1209.884, 9158.000
1210.966, 9178.000
1212.048, 9069.000
1213.130, 9217.000
1214.212, 9138.000
1215.293, 8970.000
1216.374, 9079.000
1217.456, 9054.000
1218.536, 9000.000
1219.617, 8933.000
1220.698, 8964.586
1221.778, 9002.000
1222.859, 9032.000
1223.939, 9008.000
1225.019, 9062.000
1226.099, 9027.000
1227.178, 9021.000
1228.258, 9012.033
1229.337, 8892.000
1230.417, 8955.000
1231.496, 8910.000
1232.574, 8863.000
1233.653, 8913.000
1234.732, 8782.000
1235.810, 8871.000
1236.888, 8812.000
1237.966, 8836.000
1239.044, 8905.000
1240.122, 8848.000
1241.199, 8813.000
1242.277, 8910.000
1243.354, 8771.000
1244.431, 8941.000
1245.508, 8870.000
1246.585, 8820.000
1247.661, 8924.000
1248.738, 8842.000
1249.814, 8855.000
1250.890, 8840.000
1251.966, 8945.000
1253.042, 8820.000
1254.117, 8751.000
1255.193, 8971.000
1256.268, 8831.000
1257.343, 8839.000
1258.418, 8919.000
1259.493, 8901.000
1260.567, 8884.000
1261.642, 8905.000
1262.716, 8848.000
1263.790, 8831.000
1264.864, 8893.000
1265.938, 8867.000
1267.011, 8898.000
1268.085, 8852.000
1269.158, 8943.000
1270.231, 8954.000
1271.304, 8968.000
1272.377, 8986.000
1273.450, 8879.000
1274.522, 8957.000
1275.594, 8896.000
1276.666, 8932.000
1277.738, 8993.000
1278.810, 9018.000
1279.882, 9000.000
1280.953, 9006.000
1282.025, 8996.000
1283.096, 8949.000
1284.167, 9001.000
1285.238, 9042.000
