##NAMES=Andradite
##RRUFFID=R050311
##IDEAL CHEMISTRY=Ca_3_Fe^3+^_2_(SiO_4_)_3_
##LOCALITY=Calaveras County, California, USA
##OWNER=RRUFF
##SOURCE=Eugene Schlepp
##DESCRIPTION=Deep red crystals
##STATUS=The identification of this mineral has been confirmed by X-ray diffraction and chemical analysis
##URL=rruff.info/R050311
##MEASURED CHEMISTRY=(Ca_2.88_Mn_0.07_Fe^2+^_0.05_)_Σ=3_(Fe^3+^_1.39_Al_0.59_Ti_0.02_)_Σ=2_((Si_0.99_Al_0.01_)_Σ=1_O_4_)_3_
##PIN_ID=M00304
##ORIENTATION=Laser parallel to c* (0 0 1). Fiducial mark perpendicular to laser is parallel to a [1 0 0]
123.0580, 4995.000
124.2880, 4966.000
125.5190, 4828.000
126.7490, 4693.000
127.9790, 4726.000
129.2090, 4831.000
130.4390, 4942.000
131.6680, 4982.000
132.8980, 4897.000
134.1270, 4830.000
135.3560, 4916.000
136.5850, 4891.000
137.8140, 4978.000
139.0430, 5134.000
140.2710, 5207.000
141.5000, 5104.000
142.7280, 5041.000
143.9560, 5016.000
145.1840, 4987.000
146.4120, 4992.000
147.6390, 5015.000
148.8670, 5161.000
150.0940, 5084.000
151.3210, 5190.000
152.5490, 5406.000
153.7750, 5314.000
155.0020, 5229.000
156.2290, 5259.000
157.4550, 5183.000
158.6810, 5118.000
159.9080, 5238.000
161.1340, 5374.000
162.3590, 5539.000
163.5850, 5837.000
164.8110, 6038.000
166.0360, 6251.000
167.2610, 6417.000
168.4860, 6499.000
169.7110, 6780.000
170.9360, 6930.000
172.1610, 6948.000
173.3850, 7026.000
174.6100, 7131.000
175.8340, 7230.000
177.0580, 7106.000
178.2820, 7143.000
179.5050, 6965.000
180.7290, 6789.000
181.9520, 6558.000
183.1760, 6405.000
184.3990, 6270.161
185.6220, 6138.000
186.8450, 6078.000
188.0670, 6029.000
189.2900, 6007.000
190.5120, 6019.087
191.7340, 6050.000
192.9560, 6092.000
194.1780, 6123.390
195.4000, 6262.000
196.6220, 6209.000
197.8430, 6263.000
199.0640, 6311.000
200.2860, 6216.000
201.5070, 6296.000
202.7270, 6322.000
203.9480, 6116.000
205.1690, 5952.000
206.3890, 5982.000
207.6090, 5874.000
208.8290, 5865.000
210.0490, 5918.000
211.2690, 5964.000
212.4890, 6095.000
213.7080, 6218.000
214.9280, 6292.000
216.1470, 6357.000
217.3660, 6303.000
218.5850, 6384.000
219.8030, 6536.000
221.0220, 6695.000
222.2400, 6944.000
223.4590, 7203.000
224.6770, 7420.000
225.8950, 7921.000
227.1120, 8119.000
228.3300, 8714.000
229.5480, 9073.000
230.7650, 9583.000
231.9820, 9684.000
233.1990, 9787.000
234.4160, 9970.000
235.6330, 10017.00
236.8490, 10041.00
238.0660, 10041.00
239.2820, 9863.000
240.4980, 9620.000
241.7140, 9105.000
242.9300, 8602.000
244.1460, 7946.000
245.3610, 7626.000
246.5770, 7137.000
247.7920, 6862.000
249.0070, 6690.000
250.2220, 6452.000
251.4370, 6468.000
252.6510, 6469.000
253.8660, 6444.000
255.0800, 6530.000
256.2940, 6509.000
257.5080, 6843.000
258.7220, 7402.000
259.9360, 7269.938
261.1490, 7881.000
262.3630, 7299.000
263.5760, 7184.000
264.7890, 7205.000
266.0020, 7330.000
267.2150, 7481.000
268.4270, 7348.000
269.6400, 7396.000
270.8520, 7311.000
272.0640, 7163.000
273.2760, 7248.000
274.4880, 7178.000
275.7000, 7012.000
276.9120, 6995.000
278.1230, 6939.000
279.3340, 7019.000
280.5450, 6803.000
281.7560, 6647.000
282.9670, 6716.000
284.1780, 6632.000
285.3880, 6725.000
286.5980, 6745.000
287.8090, 6640.000
289.0190, 6713.000
290.2290, 6802.000
291.4380, 6716.000
292.6480, 6842.000
293.8570, 6869.000
295.0670, 6949.000
296.2760, 6936.000
297.4850, 7119.000
298.6930, 7235.000
299.9020, 7409.000
301.1110, 7471.000
302.3190, 7675.000
303.5270, 7792.000
304.7350, 8183.000
305.9430, 8401.000
307.1510, 8906.000
308.3580, 9173.000
309.5660, 9429.000
310.7730, 9667.000
311.9800, 9941.000
313.1870, 10187.00
314.3940, 10502.00
315.6010, 10495.00
316.8070, 10635.00
318.0130, 10595.00
319.2200, 10461.00
320.4260, 10290.00
321.6310, 10166.00
322.8370, 10024.00
324.0430, 9904.197
325.2480, 9786.824
326.4540, 9726.000
327.6590, 9645.000
328.8640, 9649.000
330.0680, 9764.000
331.2730, 9758.000
332.4780, 9961.000
333.6820, 9738.000
334.8860, 9971.000
336.0900, 9892.000
337.2940, 10031.00
338.4980, 10124.00
339.7010, 10396.00
340.9050, 10702.00
342.1080, 11220.00
343.3110, 11616.00
344.5140, 12311.00
345.7170, 12980.00
346.9200, 13985.00
348.1220, 15027.00
349.3240, 16035.00
350.5270, 17137.00
351.7290, 18521.00
352.9310, 19950.00
354.1320, 21531.00
355.3340, 23264.00
356.5350, 25436.00
357.7370, 28056.00
358.9380, 32043.00
360.1390, 35173.00
361.3400, 38730.00
362.5400, 42656.00
363.7410, 46158.00
364.9410, 49204.00
366.1410, 51820.00
367.3410, 54638.00
368.5410, 56484.00
369.7410, 57125.00
370.9400, 56747.00
372.1400, 54947.00
373.3390, 51592.00
374.5380, 46870.00
375.7370, 41699.00
376.9360, 36175.00
378.1350, 30946.00
379.3330, 26667.00
380.5310, 23141.00
381.7300, 20266.00
382.9280, 18163.00
384.1260, 16320.00
385.3230, 14646.00
386.5210, 13554.00
387.7180, 12727.00
388.9160, 11747.00
390.1130, 11185.00
391.3100, 10667.00
392.5060, 10135.00
393.7030, 9757.000
394.9000, 9235.000
396.0960, 9056.000
397.2920, 8587.000
398.4880, 8456.000
399.6840, 8190.000
400.8800, 8006.000
402.0750, 7833.000
403.2710, 7569.000
404.4660, 7544.000
405.6610, 7491.000
406.8560, 7322.000
408.0510, 7176.000
409.2450, 7226.000
410.4400, 7121.000
411.6340, 7193.000
412.8280, 7083.000
414.0220, 7036.000
415.2160, 6995.000
416.4100, 7084.000
417.6030, 6937.000
418.7970, 7066.000
419.9900, 7033.000
421.1830, 7031.000
422.3760, 7085.000
423.5690, 7121.000
424.7610, 7146.312
425.9540, 7129.000
427.1460, 7223.000
428.3380, 7265.000
429.5300, 7323.972
430.7220, 7266.000
431.9140, 7391.000
433.1050, 7416.000
434.2970, 7441.000
435.4880, 7544.000
436.6790, 7555.000
437.8700, 7597.457
439.0610, 7534.000
440.2510, 7680.000
441.4420, 7654.000
442.6320, 7753.000
443.8220, 7829.000
445.0120, 7799.000
446.2020, 7778.000
447.3910, 7875.000
448.5810, 7942.000
449.7700, 7959.000
450.9600, 7958.000
452.1490, 7918.000
453.3370, 7806.000
454.5260, 7899.000
455.7150, 7964.000
456.9030, 7837.000
458.0910, 7725.000
459.2800, 7709.000
460.4670, 7719.000
461.6550, 7537.000
462.8430, 7484.000
464.0300, 7415.000
465.2180, 7259.000
466.4050, 7199.000
467.5920, 7216.000
468.7790, 7387.000
469.9650, 7325.000
471.1520, 7479.000
472.3380, 7510.000
473.5250, 7546.000
474.7110, 7814.000
475.8970, 7938.000
477.0820, 8166.000
478.2680, 8372.000
479.4540, 8544.806
480.6390, 8672.000
481.8240, 8923.000
483.0090, 9137.000
484.1940, 9314.000
485.3780, 9325.000
486.5630, 9617.000
487.7470, 9721.000
488.9320, 10004.00
490.1160, 9971.000
491.3000, 10059.00
492.4830, 10197.00
493.6670, 10011.00
494.8500, 10285.00
496.0340, 10083.00
497.2170, 10042.00
498.4000, 9850.000
499.5820, 9752.000
500.7650, 9629.000
501.9480, 9392.000
503.1300, 9479.000
504.3120, 9358.000
505.4940, 9460.000
506.6760, 9546.000
507.8580, 9889.000
509.0390, 10237.00
510.2210, 10559.00
511.4020, 11154.00
512.5830, 12120.00
513.7640, 13057.00
514.9450, 14571.00
516.1250, 16038.00
517.3060, 17638.00
518.4860, 19352.00
519.6660, 20903.00
520.8460, 22289.00
522.0260, 23427.00
523.2060, 24020.00
524.3850, 24512.00
525.5650, 24091.00
526.7440, 23259.00
527.9230, 21753.00
529.1020, 19902.00
530.2810, 17910.00
531.4590, 15696.00
532.6380, 13894.00
533.8160, 12517.00
534.9940, 11346.00
536.1720, 10551.00
537.3500, 9833.000
538.5270, 9457.000
539.7050, 9141.000
540.8820, 8836.000
542.0590, 8703.000
543.2360, 8602.000
544.4130, 8615.000
545.5900, 8628.000
546.7660, 8560.000
547.9430, 8532.000
549.1190, 8443.000
550.2950, 8481.000
551.4710, 8665.000
552.6470, 8564.000
553.8220, 8611.000
554.9980, 8521.000
556.1730, 8456.000
557.3480, 8450.000
558.5230, 8402.000
559.6980, 8169.000
560.8730, 8089.000
562.0470, 7930.000
563.2220, 7850.000
564.3960, 7721.017
565.5700, 7607.195
566.7440, 7482.000
567.9170, 7391.000
569.0910, 7286.000
570.2640, 7186.000
571.4380, 7100.000
572.6110, 7161.000
573.7840, 7181.000
574.9570, 7138.000
576.1290, 7092.000
577.3020, 7177.000
578.4740, 7264.000
579.6460, 7281.000
580.8180, 7336.459
581.9900, 7324.000
583.1620, 7390.000
584.3330, 7368.000
585.5040, 7393.000
586.6760, 7473.000
587.8470, 7508.000
589.0180, 7566.759
590.1880, 7530.000
591.3590, 7641.000
592.5290, 7678.000
593.7000, 7625.000
594.8700, 7708.000
596.0400, 7652.000
597.2090, 7721.000
598.3790, 7872.000
599.5490, 7839.000
600.7180, 7931.000
601.8870, 7788.000
603.0560, 7945.000
604.2250, 7766.000
605.3940, 7799.000
606.5620, 7755.000
607.7300, 7770.000
608.8990, 7658.000
610.0670, 7631.298
611.2350, 7612.000
612.4020, 7518.000
613.5700, 7533.000
614.7370, 7494.000
615.9050, 7313.000
617.0720, 7281.000
618.2390, 7154.000
619.4060, 6947.000
620.5720, 7012.000
621.7390, 6919.000
622.9050, 6766.000
624.0710, 6719.000
625.2370, 6567.000
626.4030, 6553.000
627.5690, 6544.000
628.7340, 6526.000
629.9000, 6543.000
631.0650, 6491.000
632.2300, 6450.000
633.3950, 6473.000
634.5600, 6407.000
635.7240, 6485.000
636.8890, 6312.000
638.0530, 6440.000
639.2170, 6270.000
640.3810, 6386.000
641.5450, 6347.000
642.7080, 6276.000
643.8720, 6315.000
645.0350, 6327.000
646.1980, 6283.000
647.3610, 6337.000
648.5240, 6344.000
649.6870, 6306.000
650.8490, 6216.000
652.0120, 6285.000
653.1740, 6333.000
654.3360, 6195.000
655.4980, 6224.000
656.6600, 6206.000
657.8210, 6273.000
658.9830, 6283.000
660.1440, 6226.000
661.3050, 6310.000
662.4660, 6228.000
663.6270, 6236.000
664.7870, 6272.000
665.9480, 6226.000
667.1080, 6245.000
668.2680, 6220.000
669.4280, 6220.815
670.5880, 6231.381
671.7480, 6214.000
672.9070, 6250.000
674.0670, 6218.000
675.2260, 6221.000
676.3850, 6187.000
677.5440, 6168.000
678.7030, 6185.000
679.8610, 6289.000
681.0200, 6213.000
682.1780, 6148.000
683.3360, 6241.000
684.4940, 6169.000
685.6520, 6145.000
686.8090, 6194.000
687.9670, 6210.000
689.1240, 6114.000
690.2810, 6255.000
691.4380, 6229.000
692.5950, 6144.000
693.7520, 6026.000
694.9080, 6143.000
696.0650, 6183.000
697.2210, 6222.000
698.3770, 6130.000
699.5330, 6162.000
700.6880, 6163.000
701.8440, 6149.000
702.9990, 6189.000
704.1550, 6153.000
705.3100, 6158.000
706.4650, 6160.000
707.6190, 6295.000
708.7740, 6288.000
709.9290, 6269.000
711.0830, 6270.000
712.2370, 6268.000
713.3910, 6217.000
714.5450, 6282.000
715.6980, 6325.000
716.8520, 6304.000
718.0050, 6378.000
719.1580, 6354.000
720.3110, 6292.000
721.4640, 6375.000
722.6170, 6365.000
723.7700, 6452.000
724.9220, 6483.000
726.0740, 6479.000
727.2260, 6455.000
728.3780, 6447.000
729.5300, 6481.000
730.6810, 6531.000
731.8330, 6536.000
732.9840, 6571.000
734.1350, 6625.000
735.2860, 6657.882
736.4370, 6677.377
737.5880, 6702.210
738.7380, 6694.000
739.8880, 6726.000
741.0390, 6713.000
742.1890, 6723.107
743.3380, 6745.000
744.4880, 6782.000
745.6380, 6814.000
746.7870, 6879.000
747.9360, 6829.000
749.0850, 6894.000
750.2340, 6920.000
751.3830, 6869.000
752.5310, 6938.000
753.6800, 7029.000
754.8280, 6973.000
755.9760, 7024.000
757.1240, 7028.000
758.2720, 7151.000
759.4190, 7169.000
760.5670, 7149.000
761.7140, 7198.870
762.8610, 7167.000
764.0080, 7203.000
765.1550, 7206.000
766.3020, 7196.000
767.4480, 7211.365
768.5950, 7229.000
769.7410, 7206.000
770.8870, 7195.000
772.0330, 7175.000
773.1780, 7167.050
774.3240, 7217.000
775.4690, 7175.000
776.6140, 7245.000
777.7590, 7302.000
778.9040, 7292.000
780.0490, 7338.000
781.1940, 7369.000
782.3380, 7482.000
783.4820, 7482.000
784.6260, 7609.000
785.7700, 7637.000
786.9140, 7757.000
788.0580, 7887.000
789.2010, 7892.000
790.3450, 8167.000
791.4880, 8254.000
792.6310, 8480.000
793.7730, 8722.000
794.9160, 9126.000
796.0590, 9382.000
797.2010, 9665.000
798.3430, 9965.000
799.4850, 10491.00
800.6270, 10874.00
801.7690, 11292.00
802.9100, 11927.00
804.0520, 12451.00
805.1930, 13022.00
806.3340, 13642.00
807.4750, 14350.00
808.6160, 15137.00
809.7560, 16064.00
810.8970, 16959.00
812.0370, 17931.00
813.1770, 18848.00
814.3170, 19506.00
815.4570, 20296.00
816.5960, 20782.00
817.7360, 21317.00
818.8750, 21411.00
820.0140, 21318.00
821.1530, 21117.00
822.2920, 20335.00
823.4310, 19869.00
824.5690, 19221.00
825.7070, 18190.00
826.8460, 17467.00
827.9840, 16734.00
829.1220, 16221.00
830.2590, 15617.00
831.3970, 15304.00
832.5340, 15021.00
833.6710, 14914.00
834.8080, 14795.00
835.9450, 14915.00
837.0820, 14987.00
838.2190, 15259.00
839.3550, 15575.00
840.4910, 15879.00
841.6270, 16172.00
842.7630, 16513.00
843.8990, 16786.00
845.0350, 16785.00
846.1700, 17003.00
847.3060, 16722.00
848.4410, 16432.00
849.5760, 16272.00
850.7100, 15861.00
851.8450, 15589.00
852.9800, 14993.00
854.1140, 14499.00
855.2480, 14500.00
856.3820, 14199.00
857.5160, 14138.00
858.6500, 14228.00
859.7830, 14466.00
860.9170, 14286.00
862.0500, 14393.00
863.1830, 14673.00
864.3160, 15151.00
865.4480, 15527.00
866.5810, 16011.00
867.7130, 16716.00
868.8460, 17216.00
869.9780, 18303.00
871.1100, 19077.00
872.2410, 20035.00
873.3730, 21014.00
874.5050, 21780.00
875.6360, 22350.00
876.7670, 22672.00
877.8980, 22855.00
879.0290, 22690.00
880.1590, 22042.00
881.2900, 20987.00
882.4200, 19692.00
883.5500, 18461.00
884.6800, 17067.00
885.8100, 15976.00
886.9400, 14750.00
888.0690, 13745.00
889.1990, 13010.00
890.3280, 12339.00
891.4570, 11611.00
892.5860, 11227.00
893.7140, 10805.00
894.8430, 10379.00
895.9710, 10096.00
897.1000, 9859.000
898.2280, 9624.000
899.3560, 9414.000
900.4830, 9215.000
901.6110, 9086.201
902.7380, 9071.000
903.8660, 8865.000
904.9930, 8816.000
906.1200, 8691.000
907.2460, 8710.000
908.3730, 8661.000
909.5000, 8386.000
910.6260, 8448.000
911.7520, 8620.000
912.8780, 8339.000
914.0040, 8436.000
915.1290, 8510.000
916.2550, 8525.000
917.3800, 8449.000
918.5050, 8479.000
919.6300, 8369.000
920.7550, 8384.000
921.8800, 8440.000
923.0040, 8448.000
924.1290, 8531.107
925.2530, 8591.000
926.3770, 8708.000
927.5010, 8848.000
928.6250, 8967.000
929.7480, 9036.000
930.8720, 9126.596
931.9950, 9163.000
933.1180, 9227.000
934.2410, 9350.000
935.3640, 9357.000
936.4860, 9329.000
937.6090, 9421.000
938.7310, 9274.000
939.8530, 9204.000
940.9750, 9198.000
942.0970, 9052.000
943.2180, 8890.000
944.3400, 8854.000
945.4610, 8646.000
946.5820, 8716.000
947.7030, 8562.000
948.8240, 8460.000
949.9450, 8491.000
951.0650, 8406.000
952.1860, 8432.000
953.3060, 8464.000
954.4260, 8557.000
955.5460, 8584.000
956.6650, 8620.000
957.7850, 8718.000
958.9040, 8721.000
960.0230, 8812.000
961.1420, 8892.000
962.2610, 9011.000
963.3800, 8990.000
964.4990, 9042.000
965.6170, 9120.000
966.7350, 9265.000
967.8530, 9310.000
968.9710, 9441.841
970.0890, 9556.000
971.2070, 9662.000
972.3240, 9744.000
973.4410, 9828.000
974.5580, 9816.000
975.6750, 9925.000
976.7920, 10079.00
977.9090, 9994.000
979.0250, 10132.00
980.1410, 10232.00
981.2580, 10081.00
982.3740, 10256.00
983.4890, 10222.00
984.6050, 10328.00
985.7200, 10201.00
986.8360, 10369.00
987.9510, 10292.00
989.0660, 10419.00
990.1810, 10640.00
991.2950, 10681.00
992.4100, 10860.46
993.5240, 10803.00
994.6390, 11088.00
995.7530, 11144.00
996.8660, 11143.00
997.9800, 11133.00
999.0940, 11093.00
1000.207, 11044.00
1001.320, 10700.00
1002.433, 10407.00
1003.546, 10148.00
1004.659, 9529.000
1005.772, 9364.000
1006.884, 9006.000
1007.996, 8870.000
1009.108, 8673.000
1010.220, 8545.000
1011.332, 8416.000
1012.444, 8462.000
1013.555, 8328.000
1014.666, 8294.000
1015.777, 8275.000
1016.888, 8223.000
1017.999, 8301.000
1019.110, 8241.000
1020.220, 8375.000
1021.331, 8166.000
1022.441, 8244.000
1023.551, 8177.000
1024.661, 7956.000
1025.770, 7848.000
1026.880, 7754.000
1027.989, 7748.000
1029.098, 7846.000
1030.207, 7708.000
1031.316, 7665.000
1032.425, 7693.000
1033.533, 7604.000
1034.642, 7673.000
1035.750, 7605.000
1036.858, 7638.000
1037.966, 7613.000
1039.073, 7583.032
1040.181, 7549.000
1041.288, 7533.000
1042.396, 7566.000
1043.503, 7549.000
1044.610, 7529.000
1045.716, 7559.000
1046.823, 7534.000
1047.929, 7533.573
1049.036, 7600.000
1050.142, 7519.000
1051.248, 7575.000
1052.353, 7576.000
1053.459, 7532.000
1054.564, 7619.000
1055.670, 7624.000
1056.775, 7515.000
1057.880, 7541.000
1058.985, 7599.000
1060.089, 7655.000
1061.194, 7535.000
1062.298, 7677.000
1063.402, 7513.000
1064.506, 7621.000
1065.610, 7567.000
1066.713, 7439.000
1067.817, 7569.000
1068.920, 7638.000
1070.023, 7482.000
1071.126, 7669.000
1072.229, 7616.000
1073.332, 7541.000
1074.435, 7595.000
1075.537, 7567.000
1076.639, 7661.000
1077.741, 7573.000
1078.843, 7643.000
1079.945, 7689.000
1081.046, 7642.000
1082.148, 7719.000
1083.249, 7663.000
1084.350, 7672.000
1085.451, 7653.000
1086.551, 7650.059
1087.652, 7684.000
1088.752, 7680.000
1089.853, 7702.000
1090.953, 7753.000
1092.053, 7763.615
1093.152, 7784.000
1094.252, 7800.000
1095.351, 7820.000
1096.451, 7836.369
1097.550, 7877.000
1098.649, 7868.000
1099.748, 7847.000
1100.846, 7857.000
1101.945, 7818.000
1103.043, 7933.000
1104.141, 8035.000
1105.239, 7961.000
1106.337, 7974.000
1107.434, 7958.000
1108.532, 7952.000
1109.629, 7969.000
1110.726, 7884.000
1111.823, 7912.000
1112.920, 7910.000
1114.017, 7929.000
1115.113, 8009.000
1116.210, 8059.000
1117.306, 8294.000
1118.402, 8385.000
1119.498, 8454.000
1120.593, 8433.000
1121.689, 8495.622
1122.784, 8393.000
1123.879, 8482.000
1124.974, 8464.000
1126.069, 8334.000
1127.164, 8267.000
1128.259, 8124.000
1129.353, 8045.000
1130.447, 7966.000
1131.541, 7899.466
1132.635, 7850.000
1133.729, 7811.000
1134.822, 7825.000
1135.916, 7783.000
1137.009, 7883.000
1138.102, 7764.000
1139.195, 7863.000
1140.288, 7963.000
1141.380, 7754.000
1142.473, 7731.000
1143.565, 7683.000
1144.657, 7832.000
1145.749, 7822.000
1146.841, 7731.000
1147.932, 7662.000
1149.024, 7724.000
1150.115, 7675.000
1151.206, 7646.000
1152.297, 7724.000
1153.388, 7771.000
1154.479, 7719.000
1155.569, 7664.000
1156.659, 7850.000
1157.750, 7759.000
1158.839, 7647.000
1159.929, 7787.000
1161.019, 7651.000
1162.108, 7615.000
1163.198, 7641.000
1164.287, 7622.676
1165.376, 7624.866
1166.465, 7706.000
1167.553, 7652.000
1168.642, 7692.000
1169.730, 7752.000
1170.818, 7665.000
1171.906, 7722.000
1172.994, 7885.000
1174.082, 7853.000
1175.170, 7736.000
1176.257, 7886.000
1177.344, 7837.000
1178.431, 7800.000
1179.518, 7978.000
1180.605, 7885.000
1181.691, 7879.000
1182.778, 7839.000
1183.864, 7910.000
1184.950, 7965.000
1186.036, 8007.000
1187.122, 7999.045
1188.207, 8011.407
1189.292, 7927.000
1190.378, 7980.000
1191.463, 7908.000
1192.548, 7881.000
1193.632, 7883.000
1194.717, 7935.000
1195.801, 7944.000
1196.886, 8033.000
1197.970, 8050.000
1199.054, 7977.000
1200.137, 7874.000
1201.221, 7999.000
1202.305, 7966.000
1203.388, 7976.000
1204.471, 7915.000
1205.554, 7994.000
1206.637, 8034.000
1207.719, 8034.000
1208.802, 7967.000
1209.884, 7934.000
1210.966, 8009.000
1212.048, 8052.000
1213.130, 7991.000
1214.212, 7961.000
1215.293, 8004.000
1216.374, 8013.000
1217.456, 8068.000
1218.536, 8076.000
1219.617, 8063.000
1220.698, 8030.000
1221.778, 8027.000
1222.859, 8009.000
1223.939, 8039.000
1225.019, 8067.000
1226.099, 8033.000
1227.178, 8065.987
1228.258, 8075.000
1229.337, 8043.000
1230.417, 7989.000
1231.496, 7988.007
1232.574, 7967.000
1233.653, 7926.000
1234.732, 7942.000
1235.810, 7862.000
1236.888, 7933.000
1237.966, 7948.000
1239.044, 7960.000
1240.122, 7834.000
1241.199, 7930.000
1242.277, 7795.000
1243.354, 7782.000
1244.431, 7960.000
1245.508, 7821.000
1246.585, 7799.000
1247.661, 7775.000
1248.738, 7912.000
1249.814, 7834.000
1250.890, 7842.000
1251.966, 7952.000
1253.042, 7853.000
1254.117, 7810.000
1255.193, 7964.000
1256.268, 7801.000
1257.343, 7939.000
1258.418, 7873.000
1259.493, 7869.000
1260.567, 7862.000
1261.642, 7785.000
1262.716, 7889.000
1263.790, 7970.000
1264.864, 7914.000
1265.938, 7934.000
1267.011, 7803.000
1268.085, 7955.000
1269.158, 7995.000
1270.231, 7954.000
1271.304, 7865.000
1272.377, 7851.000
1273.450, 7912.000
1274.522, 7940.000
1275.594, 7915.000
1276.666, 7986.000
1277.738, 7988.000
1278.810, 7911.000
1279.882, 7895.000
1280.953, 7976.000
1282.025, 7811.000
1283.096, 7920.000
1284.167, 7842.000
1285.238, 7892.000
1286.308, 7932.000
1287.379, 8033.000
1288.449, 8022.959
1289.519, 8056.000
1290.589, 8028.000
1291.659, 7995.000
1292.729, 7993.000
1293.798, 7990.000
1294.868, 7918.000
1295.937, 8055.000
1297.006, 8036.000
1298.075, 8097.000
