##NAMES=Andradite
##RRUFFID=R060350
##IDEAL CHEMISTRY=Ca_3_Fe^3+^_2_(SiO_4_)_3_
##LOCALITY=south of the Gem mine, southern San Benito County, California, USA
##OWNER=RRUFF
##SOURCE=Michael Scott
##DESCRIPTION=Cluster of black vitreous crystals showing well-developed faces
##STATUS=The identification of this mineral has been confirmed by X-ray diffraction and chemical analysis
##URL=rruff.info/R060350
##MEASURED CHEMISTRY=(Ca_2.93_Mg_0.07_)_Σ=3_(Fe^3+^_1.18_Ti_0.77_Al_0.05_)_Σ=2_((Si_0.74_Fe^3+^_0.26_)_Σ=1_O_4_)_3_ ; trace amounts of Mn
##PIN_ID=M00067
##ORIENTATION=Laser parallel to a* (1 0 0). Fiducial mark perpendicular to laser is parallel to c [0 0 1]
114.4400, 11365.00
115.6710, 12285.00
116.9030, 12791.00
118.1340, 12450.00
119.3650, 11910.00
120.5960, 11750.00
121.8270, 12115.00
123.0580, 12775.00
124.2880, 13360.00
125.5190, 12846.00
126.7490, 12651.00
127.9790, 13133.00
129.2090, 13679.00
130.4390, 14065.00
131.6680, 14339.00
132.8980, 14414.00
134.1270, 14537.00
135.3560, 14953.00
136.5850, 15362.00
137.8140, 16292.00
139.0430, 17371.00
140.2710, 18134.00
141.5000, 17756.00
142.7280, 17216.00
143.9560, 16674.00
145.1840, 16075.00
146.4120, 15699.00
147.6390, 15573.00
148.8670, 15016.00
150.0940, 14593.00
151.3210, 14841.00
152.5490, 15372.00
153.7750, 15330.00
155.0020, 15242.00
156.2290, 15278.00
157.4550, 15039.00
158.6810, 15342.00
159.9080, 15601.00
161.1340, 16041.00
162.3590, 17072.00
163.5850, 18031.00
164.8110, 18863.00
166.0360, 19249.58
167.2610, 19960.00
168.4860, 19622.00
169.7110, 19375.00
170.9360, 19276.00
172.1610, 18847.00
173.3850, 18217.00
174.6100, 17839.00
175.8340, 17862.00
177.0580, 17497.00
178.2820, 17574.00
179.5050, 17500.00
180.7290, 17410.00
181.9520, 17458.00
183.1760, 17429.00
184.3990, 17627.00
185.6220, 17885.00
186.8450, 18137.00
188.0670, 18365.00
189.2900, 18605.00
190.5120, 19067.00
191.7340, 19283.00
192.9560, 19548.00
194.1780, 19864.00
195.4000, 19833.00
196.6220, 19837.00
197.8430, 19642.00
199.0640, 19351.00
200.2860, 19683.00
201.5070, 19918.00
202.7270, 20354.00
203.9480, 19699.00
205.1690, 18028.00
206.3890, 16655.00
207.6090, 16104.00
208.8290, 16093.00
210.0490, 16323.00
211.2690, 16294.00
212.4890, 16574.00
213.7080, 16865.00
214.9280, 17282.00
216.1470, 17425.00
217.3660, 17209.00
218.5850, 17630.00
219.8030, 17852.00
221.0220, 18328.00
222.2400, 18136.00
223.4590, 18275.00
224.6770, 18522.00
225.8950, 18628.00
227.1120, 18539.00
228.3300, 18554.00
229.5480, 18412.00
230.7650, 18297.00
231.9820, 18376.00
233.1990, 18201.00
234.4160, 18291.00
235.6330, 18283.00
236.8490, 18039.00
238.0660, 18037.00
239.2820, 18049.00
240.4980, 17913.00
241.7140, 17890.00
242.9300, 17668.00
244.1460, 17693.36
245.3610, 17856.00
246.5770, 17720.00
247.7920, 17768.00
249.0070, 17862.00
250.2220, 17803.00
251.4370, 17891.94
252.6510, 17955.00
253.8660, 18017.00
255.0800, 18053.00
256.2940, 18181.00
257.5080, 18251.00
258.7220, 18618.00
259.9360, 20099.00
261.1490, 20693.00
262.3630, 19875.00
263.5760, 18359.00
264.7890, 18030.00
266.0020, 17998.00
267.2150, 18073.00
268.4270, 17605.00
269.6400, 17647.00
270.8520, 17197.00
272.0640, 17191.00
273.2760, 17104.00
274.4880, 16955.00
275.7000, 16932.00
276.9120, 16889.11
278.1230, 16940.00
279.3340, 16918.00
280.5450, 16937.00
281.7560, 17030.15
282.9670, 17071.00
284.1780, 17310.00
285.3880, 17578.00
286.5980, 17691.00
287.8090, 17937.00
289.0190, 17926.00
290.2290, 18331.00
291.4380, 18598.00
292.6480, 18696.00
293.8570, 19007.00
295.0670, 19224.00
296.2760, 19449.00
297.4850, 19687.00
298.6930, 20197.00
299.9020, 20546.00
301.1110, 21156.00
302.3190, 21713.00
303.5270, 22218.00
304.7350, 23044.00
305.9430, 23497.00
307.1510, 23785.00
308.3580, 24182.00
309.5660, 25038.00
310.7730, 25648.00
311.9800, 26059.00
313.1870, 26182.00
314.3940, 26515.00
315.6010, 26569.00
316.8070, 26656.00
318.0130, 26755.00
319.2200, 26888.00
320.4260, 27047.00
321.6310, 27309.00
322.8370, 27457.86
324.0430, 27628.00
325.2480, 27865.00
326.4540, 28297.00
327.6590, 28560.00
328.8640, 29195.00
330.0680, 29758.00
331.2730, 30375.00
332.4780, 30935.00
333.6820, 31814.00
334.8860, 32271.00
336.0900, 33183.00
337.2940, 33855.00
338.4980, 34680.00
339.7010, 35584.00
340.9050, 36195.00
342.1080, 37349.00
343.3110, 38228.00
344.5140, 39435.00
345.7170, 40337.00
346.9200, 41956.00
348.1220, 43095.00
349.3240, 44777.00
350.5270, 46130.00
351.7290, 47615.00
352.9310, 48911.00
354.1320, 49539.00
355.3340, 50289.00
356.5350, 50374.00
357.7370, 50305.00
358.9380, 50164.00
360.1390, 49482.00
361.3400, 48020.00
362.5400, 47177.00
363.7410, 46131.00
364.9410, 45074.00
366.1410, 43750.00
367.3410, 42074.00
368.5410, 40851.00
369.7410, 39412.00
370.9400, 37637.00
372.1400, 36575.00
373.3390, 34835.00
374.5380, 33661.00
375.7370, 32055.00
376.9360, 31175.00
378.1350, 30064.00
379.3330, 28675.00
380.5310, 28034.00
381.7300, 26899.12
382.9280, 26082.00
384.1260, 25065.00
385.3230, 24343.00
386.5210, 23449.00
387.7180, 22632.00
388.9160, 22268.00
390.1130, 21350.00
391.3100, 20994.00
392.5060, 20284.00
393.7030, 19806.00
394.9000, 19767.00
396.0960, 19229.00
397.2920, 19228.00
398.4880, 18491.00
399.6840, 18247.00
400.8800, 18125.00
402.0750, 17987.00
403.2710, 17854.78
404.4660, 17678.00
405.6610, 17594.16
406.8560, 17470.00
408.0510, 17427.00
409.2450, 17351.00
410.4400, 17306.00
411.6340, 17323.00
412.8280, 17278.48
414.0220, 17236.00
415.2160, 17219.00
416.4100, 17129.81
417.6030, 17014.00
418.7970, 17063.00
419.9900, 16888.00
421.1830, 16896.00
422.3760, 17035.00
423.5690, 17141.00
424.7610, 17111.00
425.9540, 17324.00
427.1460, 17455.00
428.3380, 17333.00
429.5300, 17465.00
430.7220, 17701.00
431.9140, 17951.00
433.1050, 18272.00
434.2970, 18294.00
435.4880, 18534.65
436.6790, 18763.00
437.8700, 18731.00
439.0610, 18768.00
440.2510, 18663.00
441.4420, 18287.00
442.6320, 18127.00
443.8220, 17833.00
445.0120, 17279.00
446.2020, 16952.00
447.3910, 16585.00
448.5810, 16344.00
449.7700, 15959.00
450.9600, 15745.00
452.1490, 15363.00
453.3370, 15168.00
454.5260, 15065.00
455.7150, 14903.00
456.9030, 14716.00
458.0910, 14702.00
459.2800, 14713.00
460.4670, 14531.00
461.6550, 14678.00
462.8430, 14859.00
464.0300, 14897.00
465.2180, 14872.00
466.4050, 15197.00
467.5920, 15336.00
468.7790, 15597.00
469.9650, 15757.00
471.1520, 15898.00
472.3380, 16152.00
473.5250, 16315.10
474.7110, 16433.00
475.8970, 16744.00
477.0820, 16964.00
478.2680, 17236.00
479.4540, 17322.00
480.6390, 17553.00
481.8240, 17798.00
483.0090, 17993.00
484.1940, 18189.09
485.3780, 18419.00
486.5630, 18578.00
487.7470, 18752.00
488.9320, 19025.00
490.1160, 19079.00
491.3000, 19169.00
492.4830, 19268.00
493.6670, 19693.00
494.8500, 19861.00
496.0340, 20341.00
497.2170, 21033.00
498.4000, 21784.00
499.5820, 22739.00
500.7650, 23794.00
501.9480, 25150.00
503.1300, 26978.00
504.3120, 28385.00
505.4940, 28401.00
506.6760, 29084.00
507.8580, 29713.00
509.0390, 29888.00
510.2210, 29392.00
511.4020, 29071.00
512.5830, 28644.00
513.7640, 27960.00
514.9450, 27098.00
516.1250, 26787.00
517.3060, 26153.00
518.4860, 25717.00
519.6660, 25203.00
520.8460, 24780.64
522.0260, 24414.34
523.2060, 24029.00
524.3850, 23740.00
525.5650, 23405.00
526.7440, 23079.00
527.9230, 22857.00
529.1020, 22567.00
530.2810, 22403.00
531.4590, 22090.00
532.6380, 22005.00
533.8160, 21710.00
534.9940, 21554.00
536.1720, 21438.27
537.3500, 21381.00
538.5270, 21249.00
539.7050, 21078.00
540.8820, 21051.00
542.0590, 20900.00
543.2360, 20771.00
544.4130, 20414.00
545.5900, 20262.00
546.7660, 19969.00
547.9430, 19690.00
549.1190, 19387.00
550.2950, 19104.00
551.4710, 18597.00
552.6470, 18092.00
553.8220, 17526.00
554.9980, 16923.00
556.1730, 16272.00
557.3480, 15775.00
558.5230, 15064.00
559.6980, 14475.00
560.8730, 13936.00
562.0470, 13513.00
563.2220, 13141.00
564.3960, 12788.29
565.5700, 12437.00
566.7440, 12322.00
567.9170, 12185.00
569.0910, 12192.00
570.2640, 12434.00
571.4380, 12322.00
572.6110, 12388.00
573.7840, 12504.00
574.9570, 12482.00
576.1290, 12636.00
577.3020, 12804.00
578.4740, 12880.00
579.6460, 12998.00
580.8180, 13072.00
581.9900, 12955.00
583.1620, 13063.00
584.3330, 12947.00
585.5040, 12867.15
586.6760, 12743.00
587.8470, 12674.00
589.0180, 12629.00
590.1880, 12602.00
591.3590, 12435.00
592.5290, 12457.00
593.7000, 12261.00
594.8700, 12275.00
596.0400, 12082.00
597.2090, 12052.00
598.3790, 11932.00
599.5490, 11701.00
600.7180, 11528.00
601.8870, 11461.00
603.0560, 11383.00
604.2250, 11141.00
605.3940, 11102.00
606.5620, 10975.00
607.7300, 10660.00
608.8990, 10622.00
610.0670, 10581.00
611.2350, 10391.00
612.4020, 10438.00
613.5700, 10095.00
614.7370, 10153.00
615.9050, 10011.00
617.0720, 9950.000
618.2390, 9897.000
619.4060, 9807.000
620.5720, 9738.000
621.7390, 9702.089
622.9050, 9752.000
624.0710, 9686.000
625.2370, 9682.000
626.4030, 9786.000
627.5690, 9824.000
628.7340, 9797.000
629.9000, 9846.000
631.0650, 9866.000
632.2300, 9987.000
633.3950, 9946.000
634.5600, 10000.00
635.7240, 9949.000
636.8890, 9946.000
638.0530, 9895.000
639.2170, 10004.00
640.3810, 10001.00
641.5450, 10100.00
642.7080, 9926.000
643.8720, 9971.000
645.0350, 9951.000
646.1980, 9943.000
647.3610, 9916.000
648.5240, 9898.000
649.6870, 9890.000
650.8490, 9794.000
652.0120, 9867.000
653.1740, 9734.000
654.3360, 9592.000
655.4980, 9689.000
656.6600, 9617.000
657.8210, 9658.000
658.9830, 9624.622
660.1440, 9553.000
661.3050, 9522.000
662.4660, 9537.000
663.6270, 9455.000
664.7870, 9500.000
665.9480, 9371.000
667.1080, 9417.000
668.2680, 9451.000
669.4280, 9360.000
670.5880, 9317.366
671.7480, 9206.000
672.9070, 9159.000
674.0670, 9210.000
675.2260, 9244.000
676.3850, 9338.000
677.5440, 9309.000
678.7030, 9226.000
679.8610, 9109.000
681.0200, 9148.000
682.1780, 9218.000
683.3360, 9266.000
684.4940, 9243.000
685.6520, 9331.000
686.8090, 9352.016
687.9670, 9438.000
689.1240, 9467.000
690.2810, 9484.000
691.4380, 9597.000
692.5950, 9779.000
693.7520, 9782.029
694.9080, 9822.000
696.0650, 9980.000
697.2210, 9954.000
698.3770, 10271.00
699.5330, 10263.00
700.6880, 10326.00
701.8440, 10457.00
702.9990, 10415.00
704.1550, 10596.00
705.3100, 10598.00
706.4650, 10794.00
707.6190, 10733.00
708.7740, 10744.00
709.9290, 10881.00
711.0830, 10949.00
712.2370, 11067.00
713.3910, 11173.00
714.5450, 11248.90
715.6980, 11332.00
716.8520, 11387.00
718.0050, 11492.00
719.1580, 11504.00
720.3110, 11488.00
721.4640, 11820.00
722.6170, 12030.00
723.7700, 12026.00
724.9220, 12096.00
726.0740, 12260.00
727.2260, 12415.00
728.3780, 12616.00
729.5300, 12824.00
730.6810, 12962.00
731.8330, 13208.00
732.9840, 13513.00
734.1350, 13533.00
735.2860, 13720.00
736.4370, 14110.00
737.5880, 14398.00
738.7380, 14725.00
739.8880, 14953.00
741.0390, 15172.00
742.1890, 15485.00
743.3380, 15872.00
744.4880, 16296.00
745.6380, 16707.00
746.7870, 17000.00
747.9360, 17171.00
749.0850, 17680.00
750.2340, 17834.00
751.3830, 18280.00
752.5310, 18479.00
753.6800, 18554.00
754.8280, 18843.00
755.9760, 18953.00
757.1240, 18975.00
758.2720, 18776.00
759.4190, 18825.00
760.5670, 18819.00
761.7140, 18881.00
762.8610, 18996.90
764.0080, 19104.79
765.1550, 19321.00
766.3020, 19491.00
767.4480, 19758.00
768.5950, 20118.00
769.7410, 20585.00
770.8870, 21051.00
772.0330, 21551.00
773.1780, 22067.00
774.3240, 22761.00
775.4690, 23297.00
776.6140, 23875.00
777.7590, 24516.00
778.9040, 25591.00
780.0490, 26388.00
781.1940, 27144.00
782.3380, 28104.00
783.4820, 28875.00
784.6260, 30049.00
785.7700, 31042.00
786.9140, 31804.00
788.0580, 32884.00
789.2010, 34115.00
790.3450, 35093.00
791.4880, 36564.00
792.6310, 37839.00
793.7730, 39404.00
794.9160, 40732.00
796.0590, 42345.00
797.2010, 43555.00
798.3430, 45270.00
799.4850, 46455.00
800.6270, 48396.00
801.7690, 49904.00
802.9100, 51528.00
804.0520, 53310.00
805.1930, 54691.00
806.3340, 56225.00
807.4750, 57731.00
808.6160, 58725.00
809.7560, 59975.00
810.8970, 60928.00
812.0370, 61592.00
813.1770, 62260.00
814.3170, 62773.80
815.4570, 63178.00
816.5960, 63329.00
817.7360, 63640.00
818.8750, 63386.00
820.0140, 63289.00
821.1530, 63159.00
822.2920, 62704.00
823.4310, 62438.00
824.5690, 61554.00
825.7070, 60982.00
826.8460, 60392.00
827.9840, 59235.00
829.1220, 58701.00
830.2590, 58010.00
831.3970, 57207.00
832.5340, 56255.00
833.6710, 55537.00
834.8080, 54681.00
835.9450, 53882.00
837.0820, 53274.00
838.2190, 52485.00
839.3550, 51595.00
840.4910, 50717.00
841.6270, 50187.00
842.7630, 49225.00
843.8990, 48615.00
845.0350, 47964.00
846.1700, 47277.00
847.3060, 46915.00
848.4410, 46233.00
849.5760, 45866.00
850.7100, 45343.00
851.8450, 44820.00
852.9800, 44708.00
854.1140, 44363.00
855.2480, 43694.00
856.3820, 43592.00
857.5160, 43282.00
858.6500, 43096.00
859.7830, 42792.00
860.9170, 42495.90
862.0500, 42089.00
863.1830, 41827.00
864.3160, 41421.00
865.4480, 40984.00
866.5810, 40586.00
867.7130, 40186.00
868.8460, 40001.00
869.9780, 39624.00
871.1100, 39185.00
872.2410, 38731.00
873.3730, 38186.00
874.5050, 37731.00
875.6360, 37175.00
876.7670, 36475.00
877.8980, 35435.00
879.0290, 34649.00
880.1590, 33907.00
881.2900, 33133.00
882.4200, 32470.00
883.5500, 31727.00
884.6800, 30861.00
885.8100, 29979.00
886.9400, 28935.00
888.0690, 28166.00
889.1990, 27262.00
890.3280, 26484.00
891.4570, 25644.00
892.5860, 24749.00
893.7140, 24024.00
894.8430, 23107.00
895.9710, 22518.00
897.1000, 21847.00
898.2280, 21290.00
899.3560, 20656.00
900.4830, 20198.00
901.6110, 19653.00
902.7380, 19145.00
903.8660, 18837.00
904.9930, 18389.00
906.1200, 18161.00
907.2460, 17710.00
908.3730, 17480.00
909.5000, 17171.81
910.6260, 17034.00
911.7520, 16672.00
912.8780, 16373.00
914.0040, 16262.00
915.1290, 16027.37
916.2550, 16067.00
917.3800, 15813.00
918.5050, 15691.00
919.6300, 15708.00
920.7550, 15579.00
921.8800, 15556.00
923.0040, 15620.00
924.1290, 15508.00
925.2530, 15567.00
926.3770, 15519.00
927.5010, 15497.00
928.6250, 15520.00
929.7480, 15439.00
930.8720, 15376.00
931.9950, 15217.00
933.1180, 15097.00
934.2410, 14947.00
935.3640, 14849.00
936.4860, 14652.00
937.6090, 14594.00
938.7310, 14571.00
939.8530, 14228.00
940.9750, 14385.00
942.0970, 14124.00
943.2180, 14045.00
944.3400, 13732.00
945.4610, 13721.00
946.5820, 13488.00
947.7030, 13608.00
948.8240, 13229.00
949.9450, 13458.00
951.0650, 13410.00
952.1860, 13326.00
953.3060, 13357.00
954.4260, 13321.11
955.5460, 13332.63
956.6650, 13354.00
957.7850, 13407.00
958.9040, 13495.00
960.0230, 13600.00
961.1420, 13556.00
962.2610, 13475.00
963.3800, 13611.00
964.4990, 13771.00
965.6170, 13602.00
966.7350, 13896.00
967.8530, 13899.00
968.9710, 13959.00
970.0890, 14047.00
971.2070, 14057.00
972.3240, 13985.00
973.4410, 13999.00
974.5580, 14005.00
975.6750, 14057.00
976.7920, 13971.00
977.9090, 14041.00
979.0250, 13944.00
980.1410, 14103.00
981.2580, 14152.00
982.3740, 14087.00
983.4890, 14122.00
984.6050, 14175.00
985.7200, 14196.00
986.8360, 14224.00
987.9510, 14314.00
989.0660, 14322.00
990.1810, 14129.00
991.2950, 14123.00
992.4100, 13758.00
993.5240, 13606.00
994.6390, 13239.00
995.7530, 12841.00
996.8660, 12447.00
997.9800, 12007.00
999.0940, 11658.00
1000.207, 11473.00
1001.320, 11471.00
1002.433, 11424.00
1003.546, 11656.00
1004.659, 12092.00
1005.772, 12307.00
1006.884, 12998.00
1007.996, 13283.00
1009.108, 13889.00
1010.220, 14323.00
1011.332, 14115.00
1012.444, 14151.00
1013.555, 14135.00
1014.666, 13652.00
1015.777, 13038.00
1016.888, 12505.00
1017.999, 11931.00
1019.110, 11338.00
1020.220, 10739.00
1021.331, 10232.00
1022.441, 9888.000
1023.551, 9505.000
1024.661, 9281.000
1025.770, 9209.000
1026.880, 9189.000
1027.989, 8908.000
1029.098, 8789.000
1030.207, 8739.000
1031.316, 8588.000
1032.425, 8623.000
1033.533, 8506.000
1034.642, 8503.000
1035.750, 8491.000
1036.858, 8438.000
1037.966, 8387.000
1039.073, 8415.000
1040.181, 8453.000
1041.288, 8363.000
1042.396, 8337.000
1043.503, 8356.000
1044.610, 8304.000
1045.716, 8381.000
1046.823, 8317.000
1047.929, 8277.000
1049.036, 8371.000
1050.142, 8338.000
1051.248, 8433.000
1052.353, 8406.000
1053.459, 8243.000
1054.564, 8244.000
1055.670, 8449.000
1056.775, 8443.000
1057.880, 8274.000
1058.985, 8403.000
1060.089, 8371.000
1061.194, 8429.000
1062.298, 8428.411
1063.402, 8441.000
1064.506, 8416.000
1065.610, 8412.000
1066.713, 8453.000
1067.817, 8502.000
1068.920, 8379.000
1070.023, 8372.000
1071.126, 8418.000
1072.229, 8382.656
1073.332, 8401.000
1074.435, 8417.000
1075.537, 8462.000
1076.639, 8472.000
1077.741, 8509.000
1078.843, 8413.000
1079.945, 8400.000
1081.046, 8445.000
1082.148, 8422.000
1083.249, 8494.000
1084.350, 8476.000
1085.451, 8606.000
1086.551, 8565.000
1087.652, 8531.000
1088.752, 8527.000
1089.853, 8476.000
1090.953, 8472.000
1092.053, 8653.000
1093.152, 8610.000
1094.252, 8639.683
1095.351, 8602.554
1096.451, 8601.000
1097.550, 8600.066
1098.649, 8577.554
1099.748, 8572.000
1100.846, 8564.000
1101.945, 8513.000
1103.043, 8530.000
1104.141, 8464.000
1105.239, 8506.000
1106.337, 8527.000
1107.434, 8612.000
1108.532, 8384.000
1109.629, 8534.000
1110.726, 8387.000
1111.823, 8342.000
1112.920, 8390.000
1114.017, 8451.000
1115.113, 8439.000
1116.210, 8423.000
1117.306, 8509.000
1118.402, 8390.000
1119.498, 8364.000
1120.593, 8488.000
1121.689, 8377.000
1122.784, 8419.000
1123.879, 8430.000
1124.974, 8457.000
1126.069, 8318.000
1127.164, 8217.000
1128.259, 8329.000
1129.353, 8203.000
1130.447, 8193.000
1131.541, 8171.000
1132.635, 8125.000
1133.729, 8134.034
1134.822, 8129.921
1135.916, 8117.000
1137.009, 8145.000
1138.102, 8102.000
1139.195, 8079.000
1140.288, 8279.000
1141.380, 8219.000
1142.473, 8009.000
1143.565, 8176.000
1144.657, 8041.000
1145.749, 8067.000
1146.841, 8049.000
1147.932, 8086.000
1149.024, 8054.000
1150.115, 8095.000
1151.206, 8046.000
1152.297, 8102.000
1153.388, 8174.000
1154.479, 8095.000
1155.569, 8192.000
1156.659, 8043.000
1157.750, 8140.000
1158.839, 8182.000
1159.929, 8232.000
1161.019, 8103.000
1162.108, 8243.000
1163.198, 8173.000
1164.287, 8059.000
1165.376, 8119.000
1166.465, 8183.000
1167.553, 8130.000
1168.642, 8154.000
1169.730, 8178.000
1170.818, 8171.635
1171.906, 8212.000
1172.994, 8200.000
1174.082, 8219.000
1175.170, 8228.000
1176.257, 8158.000
1177.344, 8142.000
1178.431, 8206.000
1179.518, 8157.000
1180.605, 8270.000
1181.691, 8143.000
1182.778, 8216.000
1183.864, 8125.000
1184.950, 8218.000
1186.036, 8127.000
1187.122, 8093.000
1188.207, 8291.000
1189.292, 8142.000
1190.378, 8122.000
1191.463, 8257.000
1192.548, 8087.000
1193.632, 8177.000
1194.717, 8025.000
1195.801, 8260.000
1196.886, 8076.000
1197.970, 8136.000
1199.054, 8139.000
1200.137, 8218.000
1201.221, 8066.000
1202.305, 8065.000
1203.388, 8119.000
1204.471, 8011.000
1205.554, 8147.000
1206.637, 8035.000
1207.719, 8012.000
1208.802, 8012.000
1209.884, 8044.000
1210.966, 8129.000
1212.048, 7972.000
1213.130, 8058.000
1214.212, 7986.000
1215.293, 8082.000
1216.374, 8098.000
1217.456, 7991.000
1218.536, 7967.000
1219.617, 7944.000
1220.698, 7799.000
1221.778, 7944.000
1222.859, 7989.000
1223.939, 8004.000
1225.019, 7894.000
1226.099, 8014.000
1227.178, 7959.000
1228.258, 8008.000
1229.337, 7731.000
1230.417, 7936.000
1231.496, 7750.000
1232.574, 7874.000
1233.653, 7796.000
1234.732, 7838.000
1235.810, 7755.000
1236.888, 7787.044
1237.966, 7989.000
1239.044, 7846.000
1240.122, 7839.000
1241.199, 7887.000
1242.277, 7793.000
1243.354, 7794.000
1244.431, 7802.000
1245.508, 7823.000
1246.585, 7794.000
1247.661, 7778.000
1248.738, 7835.000
1249.814, 7775.000
1250.890, 7757.000
1251.966, 7701.000
1253.042, 7803.000
1254.117, 7867.000
1255.193, 7781.000
1256.268, 7864.000
1257.343, 8749.000
1258.418, 8201.535
1259.493, 8332.000
1260.567, 7696.000
1261.642, 7839.000
1262.716, 7713.000
1263.790, 7885.000
1264.864, 7934.000
1265.938, 7775.000
1267.011, 7954.000
1268.085, 7828.000
1269.158, 7672.000
1270.231, 7857.000
1271.304, 7876.000
1272.377, 7848.000
1273.450, 7838.000
1274.522, 7903.000
1275.594, 7889.000
1276.666, 7863.000
1277.738, 7947.000
1278.810, 7908.000
1279.882, 7961.000
1280.953, 7883.000
1282.025, 7952.000
1283.096, 7953.000
1284.167, 7873.000
1285.238, 7860.000
