##NAMES=Andradite
##RRUFFID=R050377
##IDEAL CHEMISTRY=Ca_3_Fe^3+^_2_(SiO_4_)_3_
##LOCALITY=Zlatoust District, South Urals, Russia
##OWNER=RRUFF
##SOURCE=University of Arizona Mineral Museum
##DESCRIPTION=Dark red cubes
##STATUS=The identification of this mineral has been confirmed by X-ray diffraction and chemical analysis
##URL=rruff.info/R050377
##MEASURED CHEMISTRY=Ca_3.00_(Fe^3+^_1.48_Ti_0.31_Mg_0.14_Zr_0.07_)_Σ=2_(Si_2.73_Al_0.24_Ti_0.03_)_Σ=3_O_12_
##PIN_ID=M00110
##ORIENTATION=Laser parallel to a* (1 0 0). Fiducial mark perpendicular to laser is parallel to c [0 0 1]
99.64900, 7179.000
100.8830, 7306.000
102.1160, 7285.000
103.3490, 7281.000
104.5820, 7507.000
105.8150, 7807.000
107.0470, 8065.000
108.2800, 8423.000
109.5120, 8857.000
110.7440, 8350.000
111.9760, 7982.000
113.2080, 8095.000
114.4400, 8210.000
115.6710, 8464.000
116.9030, 8452.000
118.1340, 8550.000
119.3650, 8399.000
120.5960, 8534.000
121.8270, 8730.000
123.0580, 8878.000
124.2880, 8918.000
125.5190, 8995.000
126.7490, 9072.000
127.9790, 9261.000
129.2090, 9474.000
130.4390, 9462.000
131.6680, 9644.000
132.8980, 9619.000
134.1270, 9744.000
135.3560, 9892.000
136.5850, 10036.00
137.8140, 10262.00
139.0430, 10342.00
140.2710, 10528.00
141.5000, 10572.00
142.7280, 10279.00
143.9560, 10548.00
145.1840, 10285.00
146.4120, 10420.00
147.6390, 10264.00
148.8670, 10280.00
150.0940, 10216.00
151.3210, 10382.00
152.5490, 10389.00
153.7750, 10287.00
155.0020, 10446.00
156.2290, 10339.00
157.4550, 10365.00
158.6810, 10621.00
159.9080, 10637.00
161.1340, 10869.00
162.3590, 11076.00
163.5850, 11711.00
164.8110, 12077.00
166.0360, 12527.00
167.2610, 12778.00
168.4860, 13086.00
169.7110, 12940.00
170.9360, 12720.00
172.1610, 12321.00
173.3850, 11885.00
174.6100, 11675.00
175.8340, 11383.00
177.0580, 11336.00
178.2820, 11226.00
179.5050, 11048.00
180.7290, 11085.00
181.9520, 11218.00
183.1760, 10984.00
184.3990, 11101.00
185.6220, 11229.00
186.8450, 11250.00
188.0670, 11350.62
189.2900, 11374.00
190.5120, 11479.00
191.7340, 11589.00
192.9560, 11670.00
194.1780, 11696.96
195.4000, 11691.00
196.6220, 11715.00
197.8430, 11734.00
199.0640, 11751.00
200.2860, 12019.00
201.5070, 12060.00
202.7270, 12014.00
203.9480, 11797.00
205.1690, 11623.00
206.3890, 11358.00
207.6090, 11331.00
208.8290, 11440.00
210.0490, 11413.00
211.2690, 11522.00
212.4890, 11790.00
213.7080, 11799.00
214.9280, 11939.00
216.1470, 12085.00
217.3660, 12222.00
218.5850, 12386.00
219.8030, 12627.00
221.0220, 12675.00
222.2400, 12943.00
223.4590, 13057.00
224.6770, 13213.00
225.8950, 13418.00
227.1120, 13570.00
228.3300, 13942.00
229.5480, 14116.00
230.7650, 14112.00
231.9820, 14017.00
233.1990, 14023.00
234.4160, 14098.00
235.6330, 13777.00
236.8490, 13758.00
238.0660, 13501.00
239.2820, 13426.00
240.4980, 13460.00
241.7140, 13252.00
242.9300, 13330.00
244.1460, 13386.00
245.3610, 13373.00
246.5770, 13324.00
247.7920, 13514.00
249.0070, 13444.00
250.2220, 13708.00
251.4370, 13867.00
252.6510, 14024.00
253.8660, 14147.00
255.0800, 14369.00
256.2940, 14452.00
257.5080, 14857.00
258.7220, 15191.00
259.9360, 15474.00
261.1490, 15549.00
262.3630, 15342.00
263.5760, 15143.00
264.7890, 15333.00
266.0020, 15167.00
267.2150, 15182.00
268.4270, 14998.00
269.6400, 14955.00
270.8520, 14785.00
272.0640, 14622.00
273.2760, 14645.00
274.4880, 14480.00
275.7000, 14634.00
276.9120, 14574.00
278.1230, 14542.00
279.3340, 14673.00
280.5450, 14793.00
281.7560, 14879.00
282.9670, 15147.00
284.1780, 15136.00
285.3880, 15567.00
286.5980, 15845.00
287.8090, 15941.00
289.0190, 16104.00
290.2290, 16473.00
291.4380, 16727.00
292.6480, 16904.00
293.8570, 17186.00
295.0670, 17246.00
296.2760, 17648.00
297.4850, 17542.00
298.6930, 17863.00
299.9020, 17842.00
301.1110, 18071.00
302.3190, 18397.00
303.5270, 18633.00
304.7350, 18906.00
305.9430, 19007.65
307.1510, 19203.00
308.3580, 19077.00
309.5660, 19009.00
310.7730, 18888.00
311.9800, 18940.00
313.1870, 18845.00
314.3940, 18852.00
315.6010, 18709.00
316.8070, 18748.00
318.0130, 18617.00
319.2200, 18711.00
320.4260, 18674.00
321.6310, 18718.00
322.8370, 18915.00
324.0430, 18931.00
325.2480, 19255.00
326.4540, 19445.00
327.6590, 19669.00
328.8640, 20337.00
330.0680, 20974.00
331.2730, 21323.00
332.4780, 22424.00
333.6820, 23317.00
334.8860, 24437.00
336.0900, 25716.00
337.2940, 27123.00
338.4980, 29066.00
339.7010, 30805.00
340.9050, 32665.00
342.1080, 34757.00
343.3110, 36733.00
344.5140, 37740.00
345.7170, 39035.00
346.9200, 39257.00
348.1220, 39681.00
349.3240, 39838.00
350.5270, 40097.00
351.7290, 40287.00
352.9310, 41527.00
354.1320, 42821.00
355.3340, 44915.00
356.5350, 46694.00
357.7370, 49261.00
358.9380, 51607.00
360.1390, 53239.00
361.3400, 54888.00
362.5400, 55269.00
363.7410, 54692.00
364.9410, 53212.00
366.1410, 51526.00
367.3410, 48542.00
368.5410, 45564.00
369.7410, 42516.00
370.9400, 39419.00
372.1400, 36436.00
373.3390, 33663.00
374.5380, 31124.00
375.7370, 28912.00
376.9360, 26938.00
378.1350, 25149.00
379.3330, 23707.00
380.5310, 22450.00
381.7300, 21372.00
382.9280, 20300.00
384.1260, 19332.65
385.3230, 18591.00
386.5210, 17742.00
387.7180, 17119.00
388.9160, 16758.00
390.1130, 16225.00
391.3100, 15872.00
392.5060, 15564.00
393.7030, 15248.00
394.9000, 14932.00
396.0960, 14684.00
397.2920, 14426.00
398.4880, 14437.00
399.6840, 14274.00
400.8800, 14065.00
402.0750, 13845.00
403.2710, 13856.00
404.4660, 13647.00
405.6610, 13815.00
406.8560, 13606.00
408.0510, 13658.00
409.2450, 13677.00
410.4400, 13374.00
411.6340, 13599.00
412.8280, 13587.00
414.0220, 13576.00
415.2160, 13586.00
416.4100, 13631.00
417.6030, 13758.00
418.7970, 13705.00
419.9900, 13659.00
421.1830, 13538.00
422.3760, 13520.20
423.5690, 13495.82
424.7610, 13448.00
425.9540, 13538.00
427.1460, 13528.00
428.3380, 13634.00
429.5300, 13520.00
430.7220, 13594.00
431.9140, 13713.00
433.1050, 13475.00
434.2970, 13672.00
435.4880, 13757.00
436.6790, 13750.00
437.8700, 13691.00
439.0610, 13677.00
440.2510, 13864.00
441.4420, 14250.00
442.6320, 14085.00
443.8220, 14350.00
445.0120, 14428.00
446.2020, 14489.00
447.3910, 14502.00
448.5810, 14330.00
449.7700, 14296.00
450.9600, 14058.00
452.1490, 13941.00
453.3370, 13733.00
454.5260, 13650.00
455.7150, 13606.00
456.9030, 13469.00
458.0910, 13283.00
459.2800, 13343.00
460.4670, 13460.00
461.6550, 13271.00
462.8430, 13100.00
464.0300, 13258.00
465.2180, 13163.00
466.4050, 13250.00
467.5920, 13426.00
468.7790, 13587.00
469.9650, 13525.00
471.1520, 13708.00
472.3380, 13739.00
473.5250, 13972.00
474.7110, 14154.00
475.8970, 14251.00
477.0820, 14319.00
478.2680, 14671.00
479.4540, 14588.00
480.6390, 14823.00
481.8240, 15123.00
483.0090, 15365.00
484.1940, 15557.00
485.3780, 15881.00
486.5630, 15977.00
487.7470, 16272.00
488.9320, 16426.00
490.1160, 16403.00
491.3000, 16595.00
492.4830, 16319.00
493.6670, 16327.00
494.8500, 16118.00
496.0340, 16150.00
497.2170, 16391.00
498.4000, 16504.00
499.5820, 16730.00
500.7650, 17320.00
501.9480, 17942.00
503.1300, 18859.00
504.3120, 19975.00
505.4940, 21512.00
506.6760, 23488.00
507.8580, 25625.00
509.0390, 28307.00
510.2210, 30797.00
511.4020, 33092.00
512.5830, 34504.00
513.7640, 35197.00
514.9450, 34613.00
516.1250, 33232.00
517.3060, 31441.00
518.4860, 29250.00
519.6660, 27170.00
520.8460, 25218.00
522.0260, 23539.00
523.2060, 22072.00
524.3850, 21069.00
525.5650, 19885.00
526.7440, 19132.00
527.9230, 18230.00
529.1020, 17868.00
530.2810, 17353.00
531.4590, 16941.00
532.6380, 16639.00
533.8160, 16367.00
534.9940, 16026.00
536.1720, 15812.00
537.3500, 15635.00
538.5270, 15631.00
539.7050, 15375.00
540.8820, 15345.00
542.0590, 15238.00
543.2360, 15207.00
544.4130, 15234.00
545.5900, 15181.00
546.7660, 15236.00
547.9430, 15329.00
549.1190, 15120.00
550.2950, 15084.00
551.4710, 15158.00
552.6470, 14845.00
553.8220, 14587.00
554.9980, 14385.00
556.1730, 14165.00
557.3480, 13923.00
558.5230, 13776.00
559.6980, 13668.00
560.8730, 13588.00
562.0470, 13444.00
563.2220, 13374.00
564.3960, 13452.00
565.5700, 13475.00
566.7440, 13563.00
567.9170, 13524.00
569.0910, 13600.00
570.2640, 13625.00
571.4380, 13934.00
572.6110, 14018.00
573.7840, 14073.00
574.9570, 14337.00
576.1290, 14309.00
577.3020, 14387.00
578.4740, 14474.00
579.6460, 14488.00
580.8180, 14468.53
581.9900, 14343.00
583.1620, 14401.00
584.3330, 14397.00
585.5040, 14467.00
586.6760, 14280.00
587.8470, 14160.00
589.0180, 14343.00
590.1880, 14229.00
591.3590, 14287.00
592.5290, 14182.00
593.7000, 14225.00
594.8700, 14172.00
596.0400, 14112.00
597.2090, 14286.00
598.3790, 14189.00
599.5490, 14251.00
600.7180, 14181.00
601.8870, 14200.00
603.0560, 14149.00
604.2250, 14193.00
605.3940, 14123.00
606.5620, 14180.00
607.7300, 14034.00
608.8990, 14141.00
610.0670, 14170.00
611.2350, 14017.00
612.4020, 14151.38
613.5700, 14139.00
614.7370, 14231.00
615.9050, 14292.00
617.0720, 14270.00
618.2390, 14576.00
619.4060, 14482.00
620.5720, 14923.00
621.7390, 14995.00
622.9050, 15241.00
624.0710, 15403.00
625.2370, 15466.00
626.4030, 15740.00
627.5690, 15768.00
628.7340, 15879.00
629.9000, 15960.00
631.0650, 16328.00
632.2300, 16207.00
633.3950, 16479.00
634.5600, 16479.00
635.7240, 16650.00
636.8890, 16650.00
638.0530, 16685.00
639.2170, 16818.00
640.3810, 16705.00
641.5450, 16808.00
642.7080, 16745.00
643.8720, 16840.00
645.0350, 16722.00
646.1980, 16773.00
647.3610, 16961.00
648.5240, 16881.00
649.6870, 16856.00
650.8490, 16905.00
652.0120, 16746.00
653.1740, 16844.00
654.3360, 16792.00
655.4980, 16856.00
656.6600, 16709.00
657.8210, 16841.00
658.9830, 16653.00
660.1440, 16635.00
661.3050, 16441.00
662.4660, 16280.00
663.6270, 16051.00
664.7870, 15937.00
665.9480, 15703.00
667.1080, 15413.00
668.2680, 15375.00
669.4280, 14963.00
670.5880, 14771.00
671.7480, 14643.00
672.9070, 14524.00
674.0670, 14326.00
675.2260, 14065.00
676.3850, 13930.00
677.5440, 13662.00
678.7030, 13659.00
679.8610, 13654.00
681.0200, 13395.00
682.1780, 13396.00
683.3360, 13455.00
684.4940, 13193.00
685.6520, 13144.00
686.8090, 13228.00
687.9670, 13112.00
689.1240, 13008.00
690.2810, 12980.00
691.4380, 12946.00
692.5950, 12910.00
693.7520, 12889.74
694.9080, 12921.00
696.0650, 12877.00
697.2210, 12851.00
698.3770, 12908.00
699.5330, 12926.00
700.6880, 12912.32
701.8440, 12942.54
702.9990, 12912.00
704.1550, 12946.00
705.3100, 12989.00
706.4650, 12971.00
707.6190, 13081.00
708.7740, 13137.00
709.9290, 13199.00
711.0830, 13279.00
712.2370, 13198.00
713.3910, 13523.00
714.5450, 13593.00
715.6980, 13889.00
716.8520, 14047.00
718.0050, 14110.00
719.1580, 14186.00
720.3110, 14413.00
721.4640, 14640.11
722.6170, 14979.00
723.7700, 15241.00
724.9220, 15551.00
726.0740, 15826.00
727.2260, 16146.00
728.3780, 16508.21
729.5300, 16883.00
730.6810, 17257.00
731.8330, 17575.00
732.9840, 17927.88
734.1350, 18234.00
735.2860, 18425.00
736.4370, 18609.00
737.5880, 18733.00
738.7380, 19021.00
739.8880, 19116.00
741.0390, 19084.00
742.1890, 19108.00
743.3380, 19030.00
744.4880, 18921.00
745.6380, 18910.00
746.7870, 18859.67
747.9360, 18847.11
749.0850, 18833.00
750.2340, 18849.00
751.3830, 18854.00
752.5310, 18836.00
753.6800, 18780.00
754.8280, 18814.00
755.9760, 18605.00
757.1240, 18416.00
758.2720, 18385.00
759.4190, 18246.00
760.5670, 18123.00
761.7140, 17962.00
762.8610, 17910.00
764.0080, 17871.00
765.1550, 17703.00
766.3020, 17639.00
767.4480, 17490.00
768.5950, 17688.00
769.7410, 17718.00
770.8870, 17530.00
772.0330, 17530.00
773.1780, 17524.00
774.3240, 17769.00
775.4690, 17647.00
776.6140, 17922.00
777.7590, 17910.00
778.9040, 18084.00
780.0490, 18214.00
781.1940, 18194.00
782.3380, 18223.00
783.4820, 18499.00
784.6260, 18563.00
785.7700, 18627.00
786.9140, 18638.00
788.0580, 18802.00
789.2010, 18874.10
790.3450, 19131.00
791.4880, 19123.00
792.6310, 19400.00
793.7730, 19562.00
794.9160, 19887.00
796.0590, 20098.60
797.2010, 20449.00
798.3430, 20644.00
799.4850, 20797.00
800.6270, 21203.00
801.7690, 21416.00
802.9100, 21767.00
804.0520, 22147.00
805.1930, 22564.00
806.3340, 22959.00
807.4750, 23254.51
808.6160, 23502.00
809.7560, 23748.00
810.8970, 23869.00
812.0370, 23941.00
813.1770, 23785.00
814.3170, 23797.00
815.4570, 23551.00
816.5960, 23360.00
817.7360, 23175.00
818.8750, 22830.00
820.0140, 22705.88
821.1530, 22440.00
822.2920, 22342.00
823.4310, 22187.00
824.5690, 22083.48
825.7070, 22074.00
826.8460, 21975.00
827.9840, 21983.00
829.1220, 22000.00
830.2590, 22171.00
831.3970, 22311.00
832.5340, 22518.00
833.6710, 22570.00
834.8080, 22726.00
835.9450, 22854.00
837.0820, 23098.00
838.2190, 23077.00
839.3550, 23181.00
840.4910, 23057.00
841.6270, 23224.00
842.7630, 23380.00
843.8990, 23359.00
845.0350, 23419.00
846.1700, 23765.00
847.3060, 23728.00
848.4410, 23902.00
849.5760, 23966.00
850.7100, 24198.00
851.8450, 24310.00
852.9800, 24561.70
854.1140, 24874.00
855.2480, 25147.00
856.3820, 25441.00
857.5160, 25851.00
858.6500, 26073.00
859.7830, 26444.00
860.9170, 26816.42
862.0500, 27247.00
863.1830, 27589.00
864.3160, 27910.00
865.4480, 28301.00
866.5810, 29098.00
867.7130, 29282.00
868.8460, 29526.00
869.9780, 29647.00
871.1100, 29893.00
872.2410, 29954.00
873.3730, 30130.00
874.5050, 29716.00
875.6360, 29362.00
876.7670, 28520.00
877.8980, 28188.00
879.0290, 27223.00
880.1590, 26595.00
881.2900, 25609.00
882.4200, 24976.00
883.5500, 23833.00
884.6800, 23065.00
885.8100, 22391.00
886.9400, 21534.00
888.0690, 21064.00
889.1990, 20367.19
890.3280, 19611.00
891.4570, 19278.00
892.5860, 18976.00
893.7140, 18669.00
894.8430, 18478.00
895.9710, 18158.00
897.1000, 17860.00
898.2280, 17972.00
899.3560, 17792.00
900.4830, 17590.00
901.6110, 17559.00
902.7380, 17582.00
903.8660, 17549.00
904.9930, 17654.00
906.1200, 17694.00
907.2460, 17493.00
908.3730, 17538.00
909.5000, 17606.00
910.6260, 17617.00
911.7520, 17641.00
912.8780, 17429.00
914.0040, 17646.00
915.1290, 17508.00
916.2550, 17521.00
917.3800, 17607.00
918.5050, 17567.00
919.6300, 17647.00
920.7550, 17668.00
921.8800, 17849.00
923.0040, 17772.00
924.1290, 17707.00
925.2530, 17616.00
926.3770, 17794.00
927.5010, 17677.00
928.6250, 17689.00
929.7480, 17682.00
930.8720, 17509.00
931.9950, 17494.93
933.1180, 17310.00
934.2410, 17345.00
935.3640, 17082.00
936.4860, 17025.00
937.6090, 16847.00
938.7310, 16784.00
939.8530, 16879.00
940.9750, 16763.00
942.0970, 16699.00
943.2180, 16586.00
944.3400, 16591.00
945.4610, 16566.38
946.5820, 16640.00
947.7030, 16634.00
948.8240, 16766.00
949.9450, 16895.00
951.0650, 16814.00
952.1860, 16886.00
953.3060, 16924.00
954.4260, 16995.00
955.5460, 17020.00
956.6650, 17042.00
957.7850, 17206.00
958.9040, 17122.00
960.0230, 17300.00
961.1420, 17195.00
962.2610, 17086.00
963.3800, 17389.00
964.4990, 17406.00
965.6170, 17295.00
966.7350, 17502.00
967.8530, 17290.00
968.9710, 17567.00
970.0890, 17503.00
971.2070, 17356.00
972.3240, 17195.00
973.4410, 17217.00
974.5580, 17199.00
975.6750, 17246.00
976.7920, 17389.00
977.9090, 17329.30
979.0250, 17223.00
980.1410, 17299.00
981.2580, 17111.00
982.3740, 17085.00
983.4890, 16861.00
984.6050, 16982.00
985.7200, 17048.00
986.8360, 16733.00
987.9510, 16941.00
989.0660, 16675.00
990.1810, 16591.00
991.2950, 16286.00
992.4100, 16218.00
993.5240, 16033.00
994.6390, 15698.00
995.7530, 15570.00
996.8660, 15204.00
997.9800, 15008.00
999.0940, 14973.00
1000.207, 14851.00
1001.320, 14753.00
1002.433, 14741.00
1003.546, 14859.00
1004.659, 15060.00
1005.772, 15093.00
1006.884, 15363.00
1007.996, 15347.00
1009.108, 15405.00
1010.220, 15358.00
1011.332, 15308.00
1012.444, 15306.00
1013.555, 14929.00
1014.666, 14827.00
1015.777, 14488.00
1016.888, 14479.00
1017.999, 14081.00
1019.110, 14015.00
1020.220, 13831.00
1021.331, 13622.00
1022.441, 13473.00
1023.551, 13432.00
1024.661, 13271.00
1025.770, 13328.00
1026.880, 13196.00
1027.989, 13362.00
1029.098, 13270.00
1030.207, 13172.00
1031.316, 13166.00
1032.425, 13347.00
1033.533, 13212.00
1034.642, 13188.00
1035.750, 13044.00
1036.858, 13106.00
1037.966, 13105.00
1039.073, 13047.00
1040.181, 13035.00
1041.288, 13162.00
1042.396, 13175.00
1043.503, 13102.00
1044.610, 13425.00
1045.716, 13237.00
1046.823, 13054.00
1047.929, 13072.00
1049.036, 13254.00
1050.142, 13078.00
1051.248, 13181.00
1052.353, 13189.00
1053.459, 13161.00
1054.564, 13303.00
1055.670, 13060.00
1056.775, 13185.00
1057.880, 13103.00
1058.985, 13117.00
1060.089, 13157.00
1061.194, 13334.00
1062.298, 13230.00
1063.402, 13177.00
1064.506, 13348.00
1065.610, 13226.00
1066.713, 13243.00
1067.817, 13172.00
1068.920, 13257.00
1070.023, 13381.00
1071.126, 13249.00
1072.229, 13302.00
1073.332, 13272.00
1074.435, 13367.00
1075.537, 13417.00
1076.639, 13394.00
1077.741, 13346.00
1078.843, 13467.00
1079.945, 13377.00
1081.046, 13366.00
1082.148, 13584.00
1083.249, 13508.00
1084.350, 13614.00
1085.451, 13638.00
1086.551, 13505.00
1087.652, 13693.00
1088.752, 13659.00
1089.853, 13708.00
1090.953, 13604.00
1092.053, 13517.00
1093.152, 13656.00
1094.252, 13640.00
1095.351, 13670.00
1096.451, 13588.00
1097.550, 13691.00
1098.649, 13720.00
1099.748, 13733.00
1100.846, 13716.00
1101.945, 13854.00
1103.043, 13636.00
1104.141, 13690.00
1105.239, 13789.00
1106.337, 13541.00
1107.434, 13761.00
1108.532, 13516.00
1109.629, 13564.00
1110.726, 13575.00
1111.823, 13553.00
1112.920, 13561.00
1114.017, 13618.00
1115.113, 13686.00
1116.210, 13627.00
1117.306, 13867.00
1118.402, 13706.00
1119.498, 13755.00
1120.593, 13576.00
1121.689, 13629.00
1122.784, 13637.00
1123.879, 13766.00
1124.974, 13765.00
1126.069, 13536.00
1127.164, 13670.00
1128.259, 13664.00
1129.353, 13748.00
1130.447, 13696.00
1131.541, 13647.00
1132.635, 13478.00
1133.729, 13619.00
1134.822, 13646.00
1135.916, 13420.00
1137.009, 13512.00
1138.102, 13627.00
1139.195, 13534.00
1140.288, 13705.00
1141.380, 13611.00
1142.473, 13647.00
1143.565, 13711.00
1144.657, 13609.00
1145.749, 13622.00
1146.841, 13616.64
1147.932, 13505.00
1149.024, 13622.00
1150.115, 13564.00
1151.206, 13599.00
1152.297, 13649.00
1153.388, 13753.00
1154.479, 13821.00
1155.569, 13811.59
1156.659, 13675.00
1157.750, 13753.00
1158.839, 13746.00
1159.929, 13674.00
1161.019, 13825.00
1162.108, 13679.00
1163.198, 13729.00
1164.287, 13849.00
1165.376, 13650.00
1166.465, 13840.00
1167.553, 13768.00
1168.642, 13737.00
1169.730, 13824.00
1170.818, 13964.00
1171.906, 13812.00
1172.994, 13897.00
1174.082, 13831.00
1175.170, 13761.00
1176.257, 13841.00
1177.344, 13902.22
1178.431, 13890.16
1179.518, 13919.31
1180.605, 13960.00
1181.691, 13889.00
1182.778, 13983.00
1183.864, 13947.00
1184.950, 13825.00
1186.036, 13971.00
1187.122, 13928.00
1188.207, 13857.00
1189.292, 14012.00
1190.378, 13942.00
1191.463, 13834.00
1192.548, 14166.00
1193.632, 14037.00
1194.717, 14035.00
1195.801, 14160.00
1196.886, 14116.00
1197.970, 14163.00
1199.054, 14000.00
1200.137, 13955.00
1201.221, 14022.00
1202.305, 14109.00
1203.388, 13838.00
1204.471, 14067.00
1205.554, 14138.00
1206.637, 13890.00
1207.719, 14170.00
1208.802, 14158.00
1209.884, 13978.00
1210.966, 14090.00
1212.048, 14008.00
1213.130, 14031.00
1214.212, 14130.00
1215.293, 13937.00
1216.374, 13803.00
1217.456, 13922.00
1218.536, 14105.00
1219.617, 14013.00
1220.698, 14039.00
1221.778, 14116.00
1222.859, 14009.00
1223.939, 14018.00
1225.019, 14002.00
1226.099, 13901.00
1227.178, 14068.00
1228.258, 13894.00
1229.337, 14025.00
1230.417, 14077.00
1231.496, 13921.00
1232.574, 13931.00
1233.653, 14071.00
1234.732, 13976.00
1235.810, 14086.00
1236.888, 14117.00
1237.966, 14007.00
1239.044, 13980.00
1240.122, 13937.00
1241.199, 13923.71
1242.277, 13925.00
1243.354, 13937.00
1244.431, 14061.00
1245.508, 14062.00
1246.585, 14040.00
1247.661, 14119.00
1248.738, 14108.00
1249.814, 14023.00
1250.890, 14077.00
1251.966, 14141.00
1253.042, 13991.00
1254.117, 14087.00
1255.193, 14090.00
1256.268, 14050.00
1257.343, 14098.76
1258.418, 14162.00
1259.493, 14120.00
1260.567, 14081.00
1261.642, 14100.47
1262.716, 14356.00
1263.790, 14171.00
1264.864, 14285.00
1265.938, 14277.00
1267.011, 14102.00
1268.085, 14043.00
1269.158, 14154.00
1270.231, 14137.00
1271.304, 14223.00
1272.377, 14338.00
1273.450, 14224.00
1274.522, 14313.00
1275.594, 14271.00
1276.666, 14345.00
1277.738, 14305.00
