##NAMES=Anglesite
##RRUFFID=R050408
##IDEAL CHEMISTRY=Pb^2+^S^6+^O_4_
##LOCALITY=Tsumeb mine, Tsumeb, Otavi District, Oshikoto, Namibia
##OWNER=RRUFF
##SOURCE=California Institute of Technology
##DESCRIPTION=Pale yellow fragment
##STATUS=The identification of this mineral has been confirmed by X-ray diffraction and chemical analysis
##URL=rruff.info/R050408
##MEASURED CHEMISTRY=Pb_1.00_S_1.00_O_4_
##PIN_ID=L00529
##ORIENTATION=Laser parallel to c* (0 0 1). Fiducial mark perpendicular to laser is parallel to a [1 0 0]
51.43100, 356.0000
52.67100, 358.0000
53.91000, 356.0000
55.14900, 354.0000
56.38700, 366.0000
57.62600, 382.0000
58.86400, 384.0000
60.10300, 403.0000
61.34100, 415.0000
62.57900, 422.0000
63.81700, 430.0000
65.05400, 441.0000
66.29200, 490.0000
67.52900, 514.0000
68.76700, 562.0000
70.00400, 622.0000
71.24100, 703.0000
72.47700, 742.0000
73.71400, 825.0000
74.95100, 901.0000
76.18700, 989.0000
77.42300, 1091.000
78.65900, 1139.000
79.89500, 1269.000
81.13100, 1349.000
82.36700, 1490.000
83.60200, 1600.000
84.83700, 1689.000
86.07200, 1866.000
87.30800, 2003.000
88.54200, 2160.000
89.77700, 2324.000
91.01200, 2512.000
92.24600, 2750.000
93.48000, 2923.000
94.71400, 3144.000
95.94800, 3246.000
97.18200, 3315.000
98.41600, 3382.000
99.64900, 3294.000
100.8830, 3152.000
102.1160, 3037.000
103.3490, 2870.000
104.5820, 2816.000
105.8150, 2736.000
107.0470, 2686.000
108.2800, 2669.000
109.5120, 2628.000
110.7440, 2611.000
111.9760, 2580.000
113.2080, 2586.000
114.4400, 2591.000
115.6710, 2619.673
116.9030, 2633.000
118.1340, 2738.000
119.3650, 2779.000
120.5960, 2905.000
121.8270, 3000.000
123.0580, 3225.000
124.2880, 3455.000
125.5190, 3592.000
126.7490, 3721.000
127.9790, 3937.000
129.2090, 4297.000
130.4390, 4486.000
131.6680, 4584.000
132.8980, 4733.000
134.1270, 4865.000
135.3560, 4874.000
136.5850, 4854.000
137.8140, 4607.000
139.0430, 4516.000
140.2710, 4232.000
141.5000, 4035.000
142.7280, 3777.000
143.9560, 3703.000
145.1840, 3499.000
146.4120, 3354.000
147.6390, 3229.000
148.8670, 3192.000
150.0940, 3140.000
151.3210, 3087.000
152.5490, 3116.000
153.7750, 2889.000
155.0020, 2886.000
156.2290, 2652.000
157.4550, 2553.000
158.6810, 2361.000
159.9080, 2247.000
161.1340, 2112.000
162.3590, 1995.000
163.5850, 1907.000
164.8110, 1835.000
166.0360, 1801.000
167.2610, 1731.000
168.4860, 1690.000
169.7110, 1667.000
170.9360, 1623.000
172.1610, 1587.000
173.3850, 1556.000
174.6100, 1584.000
175.8340, 1561.000
177.0580, 1526.000
178.2820, 1488.000
179.5050, 1468.000
180.7290, 1487.000
181.9520, 1440.000
183.1760, 1376.000
184.3990, 1377.000
185.6220, 1312.000
186.8450, 1349.000
188.0670, 1285.000
189.2900, 1291.000
190.5120, 1282.000
191.7340, 1213.000
192.9560, 1194.000
194.1780, 1168.000
195.4000, 1193.000
196.6220, 1151.000
197.8430, 1157.000
199.0640, 1079.000
200.2860, 1107.000
201.5070, 1076.000
202.7270, 1061.000
203.9480, 1081.000
205.1690, 1037.000
206.3890, 1001.000
207.6090, 1008.000
208.8290, 966.0000
210.0490, 969.0000
211.2690, 935.0000
212.4890, 960.0000
213.7080, 940.0000
214.9280, 903.0000
216.1470, 924.0000
217.3660, 913.0000
218.5850, 864.0000
219.8030, 908.0000
221.0220, 871.0000
222.2400, 856.0000
223.4590, 855.0000
224.6770, 845.0000
225.8950, 830.2258
227.1120, 786.0000
228.3300, 795.0000
229.5480, 792.0000
230.7650, 765.0000
231.9820, 788.0000
233.1990, 743.0000
234.4160, 742.0000
235.6330, 737.0000
236.8490, 722.0000
238.0660, 726.0000
239.2820, 735.0000
240.4980, 716.0000
241.7140, 742.0000
242.9300, 681.0000
244.1460, 714.0000
245.3610, 714.0000
246.5770, 670.0000
247.7920, 673.0000
249.0070, 680.0000
250.2220, 684.0000
251.4370, 665.0000
252.6510, 670.0000
253.8660, 674.0000
255.0800, 648.0000
256.2940, 670.0000
257.5080, 673.0000
258.7220, 659.0000
259.9360, 673.0000
261.1490, 642.0000
262.3630, 650.0000
263.5760, 638.0000
264.7890, 637.0000
266.0020, 626.0000
267.2150, 632.0000
268.4270, 618.0000
269.6400, 633.0000
270.8520, 612.0000
272.0640, 612.0000
273.2760, 619.0000
274.4880, 619.0000
275.7000, 618.4987
276.9120, 600.0000
278.1230, 616.0000
279.3340, 594.0000
280.5450, 593.0000
281.7560, 600.0000
282.9670, 587.0000
284.1780, 611.0000
285.3880, 579.0000
286.5980, 605.0000
287.8090, 603.0000
289.0190, 602.0000
290.2290, 590.0000
291.4380, 606.0000
292.6480, 578.0000
293.8570, 565.0000
295.0670, 583.0000
296.2760, 553.0000
297.4850, 572.0000
298.6930, 575.0000
299.9020, 545.0000
301.1110, 574.0000
302.3190, 550.0000
303.5270, 559.0000
304.7350, 556.0000
305.9430, 577.0000
307.1510, 562.0000
308.3580, 551.0000
309.5660, 565.0000
310.7730, 569.0000
311.9800, 581.0000
313.1870, 561.0000
314.3940, 574.0000
315.6010, 563.0000
316.8070, 571.0000
318.0130, 543.0000
319.2200, 549.0000
320.4260, 554.0000
321.6310, 535.0000
322.8370, 563.0000
324.0430, 558.0000
325.2480, 553.0000
326.4540, 535.0000
327.6590, 567.0000
328.8640, 556.0000
330.0680, 566.0000
331.2730, 577.0000
332.4780, 561.0000
333.6820, 566.0000
334.8860, 558.0000
336.0900, 571.0000
337.2940, 568.0000
338.4980, 548.0000
339.7010, 579.0000
340.9050, 574.0000
342.1080, 578.0000
343.3110, 548.0000
344.5140, 572.0000
345.7170, 566.0000
346.9200, 570.0000
348.1220, 562.0000
349.3240, 560.0000
350.5270, 549.0000
351.7290, 560.0000
352.9310, 565.0000
354.1320, 557.0000
355.3340, 575.0000
356.5350, 582.0000
357.7370, 572.0000
358.9380, 558.0000
360.1390, 556.0000
361.3400, 548.0000
362.5400, 565.0000
363.7410, 558.0000
364.9410, 560.0000
366.1410, 559.0000
367.3410, 559.8972
368.5410, 560.6954
369.7410, 565.0000
370.9400, 566.0000
372.1400, 568.0000
373.3390, 579.0000
374.5380, 573.0000
375.7370, 575.0000
376.9360, 567.0000
378.1350, 590.0000
379.3330, 583.1801
380.5310, 581.0000
381.7300, 594.0000
382.9280, 592.0000
384.1260, 614.0000
385.3230, 614.0000
386.5210, 612.0000
387.7180, 620.0000
388.9160, 624.0000
390.1130, 646.0000
391.3100, 634.0000
392.5060, 635.0000
393.7030, 660.0000
394.9000, 681.0000
396.0960, 700.0000
397.2920, 724.0000
398.4880, 738.0000
399.6840, 741.0000
400.8800, 762.0539
402.0750, 781.0000
403.2710, 784.0000
404.4660, 826.0000
405.6610, 824.0000
406.8560, 844.0000
408.0510, 875.0000
409.2450, 870.0000
410.4400, 905.0000
411.6340, 930.0000
412.8280, 968.0000
414.0220, 1004.000
415.2160, 1030.645
416.4100, 1068.639
417.6030, 1098.000
418.7970, 1132.000
419.9900, 1187.000
421.1830, 1210.000
422.3760, 1325.000
423.5690, 1410.000
424.7610, 1547.000
425.9540, 1764.000
427.1460, 1956.000
428.3380, 2262.000
429.5300, 2737.000
430.7220, 3252.000
431.9140, 4028.000
433.1050, 4785.000
434.2970, 5776.000
435.4880, 6967.000
436.6790, 8104.000
437.8700, 8974.000
439.0610, 9761.000
440.2510, 10666.00
441.4420, 11500.00
442.6320, 12618.00
443.8220, 14055.00
445.0120, 16045.00
446.2020, 18649.00
447.3910, 20754.00
448.5810, 21235.00
449.7700, 20379.00
450.9600, 18123.00
452.1490, 15212.00
453.3370, 12132.00
454.5260, 9317.000
455.7150, 7067.000
456.9030, 5604.000
458.0910, 4563.000
459.2800, 3806.000
460.4670, 3331.000
461.6550, 2978.000
462.8430, 2613.000
464.0300, 2386.000
465.2180, 2116.000
466.4050, 1963.000
467.5920, 1832.000
468.7790, 1665.000
469.9650, 1571.000
471.1520, 1485.000
472.3380, 1416.000
473.5250, 1330.000
474.7110, 1306.000
475.8970, 1221.000
477.0820, 1177.000
478.2680, 1115.000
479.4540, 1058.000
480.6390, 1012.000
481.8240, 990.0000
483.0090, 977.0000
484.1940, 943.0000
485.3780, 927.0000
486.5630, 886.0000
487.7470, 849.0000
488.9320, 855.0000
490.1160, 821.0000
491.3000, 815.0000
492.4830, 757.0000
493.6670, 752.0000
494.8500, 756.0000
496.0340, 720.0000
497.2170, 744.0000
498.4000, 715.0000
499.5820, 694.0000
500.7650, 691.0000
501.9480, 674.0000
503.1300, 682.0000
504.3120, 675.0000
505.4940, 674.0000
506.6760, 665.0000
507.8580, 652.0000
509.0390, 635.0000
510.2210, 645.0000
511.4020, 652.0000
512.5830, 612.0000
513.7640, 609.0000
514.9450, 619.0000
516.1250, 620.0000
517.3060, 623.0000
518.4860, 603.0000
519.6660, 597.0000
520.8460, 599.0000
522.0260, 596.0000
523.2060, 585.0000
524.3850, 604.0000
525.5650, 607.0000
526.7440, 578.0000
527.9230, 584.0000
529.1020, 589.0000
530.2810, 570.0000
531.4590, 572.0000
532.6380, 574.0000
533.8160, 570.0000
534.9940, 564.0000
536.1720, 565.8307
537.3500, 573.0000
538.5270, 570.0000
539.7050, 561.0000
540.8820, 572.0000
542.0590, 547.0000
543.2360, 575.0000
544.4130, 557.0000
545.5900, 581.0000
546.7660, 552.0000
547.9430, 566.0000
549.1190, 569.0000
550.2950, 582.0000
551.4710, 585.0000
552.6470, 555.0000
553.8220, 573.0000
554.9980, 570.0000
556.1730, 594.0000
557.3480, 598.0000
558.5230, 573.0000
559.6980, 579.0000
560.8730, 566.0000
562.0470, 582.0000
563.2220, 588.0000
564.3960, 588.0000
565.5700, 576.0000
566.7440, 579.0000
567.9170, 581.0000
569.0910, 590.0000
570.2640, 593.0000
571.4380, 612.0000
572.6110, 616.0000
573.7840, 593.0000
574.9570, 584.0000
576.1290, 602.0000
577.3020, 609.0000
578.4740, 603.0000
579.6460, 604.0000
580.8180, 611.2152
581.9900, 616.2842
583.1620, 624.0000
584.3330, 641.0000
585.5040, 645.0000
586.6760, 666.0000
587.8470, 699.0000
589.0180, 701.0000
590.1880, 728.0000
591.3590, 783.0000
592.5290, 839.0000
593.7000, 907.0000
594.8700, 960.0000
596.0400, 1100.000
597.2090, 1266.000
598.3790, 1472.000
599.5490, 1714.000
600.7180, 1970.000
601.8870, 2279.000
603.0560, 2579.000
604.2250, 2711.000
605.3940, 2734.000
606.5620, 2618.000
607.7300, 2408.000
608.8990, 2101.000
610.0670, 1926.000
611.2350, 1690.000
612.4020, 1616.000
613.5700, 1562.000
614.7370, 1568.000
615.9050, 1614.000
617.0720, 1697.000
618.2390, 1619.000
619.4060, 1593.000
620.5720, 1439.000
621.7390, 1183.000
622.9050, 981.0000
624.0710, 904.0000
625.2370, 791.0000
626.4030, 760.0000
627.5690, 694.0000
628.7340, 693.0000
629.9000, 663.0000
631.0650, 647.0000
632.2300, 671.0000
633.3950, 671.0000
634.5600, 689.0000
635.7240, 707.0000
636.8890, 718.0000
638.0530, 737.0000
639.2170, 757.0000
640.3810, 798.0000
641.5450, 784.0000
642.7080, 752.0000
643.8720, 774.0000
645.0350, 701.0000
646.1980, 655.0000
647.3610, 667.0000
648.5240, 621.0000
649.6870, 590.0000
650.8490, 578.0000
652.0120, 581.0000
653.1740, 586.0000
654.3360, 580.0000
655.4980, 562.0000
656.6600, 541.0000
657.8210, 560.0000
658.9830, 563.0000
660.1440, 560.0000
661.3050, 568.0000
662.4660, 577.0000
663.6270, 569.0000
664.7870, 563.0000
665.9480, 586.0000
667.1080, 571.0000
668.2680, 580.0000
669.4280, 554.0000
670.5880, 570.0000
671.7480, 583.0000
672.9070, 576.0000
674.0670, 582.0000
675.2260, 558.0000
676.3850, 558.0000
677.5440, 537.0000
678.7030, 554.0000
679.8610, 557.0000
681.0200, 553.0000
682.1780, 545.0000
683.3360, 536.0000
684.4940, 536.0000
685.6520, 543.0000
686.8090, 536.7169
687.9670, 549.0000
689.1240, 540.0000
690.2810, 538.0000
691.4380, 553.0000
692.5950, 539.0000
693.7520, 548.0000
694.9080, 565.0000
696.0650, 549.0000
697.2210, 526.0000
698.3770, 539.0000
699.5330, 550.0000
700.6880, 548.0000
701.8440, 550.0000
702.9990, 542.0000
704.1550, 534.0000
705.3100, 567.0000
706.4650, 550.0000
707.6190, 552.0000
708.7740, 543.0000
709.9290, 541.0000
711.0830, 543.0000
712.2370, 542.0000
713.3910, 536.0000
714.5450, 541.0000
715.6980, 544.0000
716.8520, 538.0000
718.0050, 552.0000
719.1580, 541.0000
720.3110, 537.0000
721.4640, 564.0000
722.6170, 540.0000
723.7700, 558.0000
724.9220, 535.0000
726.0740, 548.0000
727.2260, 565.0000
728.3780, 549.0000
729.5300, 544.0000
730.6810, 523.0000
731.8330, 542.0000
732.9840, 564.0000
734.1350, 569.0000
735.2860, 556.0000
736.4370, 571.8481
737.5880, 569.0000
738.7380, 570.0000
739.8880, 573.0000
741.0390, 547.0000
742.1890, 569.0000
743.3380, 548.0000
744.4880, 558.0000
745.6380, 559.0000
746.7870, 575.0000
747.9360, 548.0000
749.0850, 572.0000
750.2340, 550.0000
751.3830, 556.0000
752.5310, 562.0000
753.6800, 567.0000
754.8280, 547.0000
755.9760, 562.0000
757.1240, 537.0000
758.2720, 569.0000
759.4190, 595.0000
760.5670, 568.0000
761.7140, 574.0000
762.8610, 568.0000
764.0080, 592.0000
765.1550, 574.0000
766.3020, 579.0000
767.4480, 595.0000
768.5950, 594.0000
769.7410, 590.0000
770.8870, 595.0000
772.0330, 606.0000
773.1780, 603.0000
774.3240, 609.7498
775.4690, 599.0000
776.6140, 610.0000
777.7590, 605.0000
778.9040, 592.0000
780.0490, 584.0000
781.1940, 573.0000
782.3380, 573.0000
783.4820, 575.0000
784.6260, 592.0000
785.7700, 576.0000
786.9140, 591.0000
788.0580, 601.0000
789.2010, 572.0000
790.3450, 593.0000
791.4880, 574.0000
792.6310, 574.0000
793.7730, 560.0000
794.9160, 601.0000
796.0590, 582.0000
797.2010, 590.0000
798.3430, 561.0000
799.4850, 559.0000
800.6270, 567.0000
801.7690, 577.0000
802.9100, 576.0000
804.0520, 570.0000
805.1930, 553.0000
806.3340, 574.0000
807.4750, 584.0000
808.6160, 590.0000
809.7560, 575.0000
810.8970, 585.0000
812.0370, 574.0000
813.1770, 590.0000
814.3170, 563.0000
815.4570, 579.0000
816.5960, 603.0000
817.7360, 580.0000
818.8750, 564.0000
820.0140, 572.0000
821.1530, 587.0000
822.2920, 557.0000
823.4310, 585.0000
824.5690, 584.0000
825.7070, 565.0000
826.8460, 588.0000
827.9840, 561.0000
829.1220, 577.0000
830.2590, 597.0000
831.3970, 570.0000
832.5340, 600.0000
833.6710, 613.0000
834.8080, 591.0000
835.9450, 590.0000
837.0820, 598.0000
838.2190, 597.0000
839.3550, 586.0000
840.4910, 643.0000
841.6270, 607.0000
842.7630, 630.0000
843.8990, 602.0000
845.0350, 617.0000
846.1700, 612.0000
847.3060, 621.0000
848.4410, 638.0000
849.5760, 616.0000
850.7100, 595.0000
851.8450, 647.0000
852.9800, 643.0000
854.1140, 645.0000
855.2480, 637.0000
856.3820, 646.0000
857.5160, 649.0000
858.6500, 674.0000
859.7830, 699.0000
860.9170, 686.0000
862.0500, 711.0000
863.1830, 701.0000
864.3160, 730.0000
865.4480, 724.0000
866.5810, 747.0000
867.7130, 727.0000
868.8460, 758.0000
869.9780, 728.0000
871.1100, 787.0000
872.2410, 761.0000
873.3730, 736.0000
874.5050, 768.0000
875.6360, 764.0000
876.7670, 772.0000
877.8980, 796.0000
879.0290, 781.0000
880.1590, 754.0000
881.2900, 787.0000
882.4200, 760.0000
883.5500, 768.0000
884.6800, 774.0000
885.8100, 784.0000
886.9400, 781.0000
888.0690, 781.0000
889.1990, 754.0000
890.3280, 778.0000
891.4570, 788.0000
892.5860, 782.0000
893.7140, 808.0000
894.8430, 778.0000
895.9710, 816.0000
897.1000, 825.0000
898.2280, 801.0000
899.3560, 846.0000
900.4830, 835.0000
901.6110, 833.0000
902.7380, 833.0000
903.8660, 824.0000
904.9930, 835.0000
906.1200, 865.0000
907.2460, 878.0000
908.3730, 884.0000
909.5000, 893.9646
910.6260, 882.0000
911.7520, 890.0000
912.8780, 893.0000
914.0040, 877.0000
915.1290, 898.0000
916.2550, 911.0000
917.3800, 922.0000
918.5050, 915.0000
919.6300, 942.0000
920.7550, 931.0000
921.8800, 948.0000
923.0040, 916.0000
924.1290, 951.0000
925.2530, 961.0000
926.3770, 977.0000
927.5010, 1005.000
928.6250, 977.0000
929.7480, 1025.000
930.8720, 1040.000
931.9950, 1024.000
933.1180, 1040.000
934.2410, 1044.000
935.3640, 1054.563
936.4860, 1101.000
937.6090, 1092.000
938.7310, 1109.000
939.8530, 1139.000
940.9750, 1202.000
942.0970, 1244.000
943.2180, 1307.000
944.3400, 1339.000
945.4610, 1421.000
946.5820, 1526.000
947.7030, 1594.000
948.8240, 1641.000
949.9450, 1684.000
951.0650, 1832.000
952.1860, 1901.000
953.3060, 2064.000
954.4260, 2166.000
955.5460, 2412.000
956.6650, 2545.000
957.7850, 2824.000
958.9040, 3126.000
960.0230, 3499.000
961.1420, 3908.000
962.2610, 4480.000
963.3800, 5206.000
964.4990, 6009.000
965.6170, 7143.000
966.7350, 8518.000
967.8530, 10443.00
968.9710, 13226.00
970.0890, 17097.00
971.2070, 21936.00
972.3240, 28636.00
973.4410, 36439.00
974.5580, 45124.00
975.6750, 53321.00
976.7920, 59463.00
977.9090, 61783.00
979.0250, 59883.00
980.1410, 53412.00
981.2580, 44623.00
982.3740, 35288.00
983.4890, 27072.00
984.6050, 21032.00
985.7200, 16245.00
986.8360, 13160.00
987.9510, 10638.00
989.0660, 9038.000
990.1810, 7641.000
991.2950, 6675.000
992.4100, 5912.000
993.5240, 5212.000
994.6390, 4805.000
995.7530, 4310.000
996.8660, 4089.000
997.9800, 3733.000
999.0940, 3484.000
1000.207, 3316.000
1001.320, 3157.000
1002.433, 2898.000
1003.546, 2870.000
1004.659, 2649.000
1005.772, 2583.000
1006.884, 2506.000
1007.996, 2419.000
1009.108, 2351.000
1010.220, 2224.000
1011.332, 2210.000
1012.444, 2140.000
1013.555, 2051.000
1014.666, 2021.000
1015.777, 1959.000
1016.888, 1940.000
1017.999, 1946.000
1019.110, 1913.000
1020.220, 1863.000
1021.331, 1847.000
1022.441, 1868.000
1023.551, 1795.000
1024.661, 1838.000
1025.770, 1789.000
1026.880, 1748.000
1027.989, 1801.000
1029.098, 1718.000
1030.207, 1763.000
1031.316, 1743.000
1032.425, 1673.000
1033.533, 1674.000
1034.642, 1674.000
1035.750, 1685.000
1036.858, 1675.000
1037.966, 1654.000
1039.073, 1641.000
1040.181, 1649.000
1041.288, 1647.000
1042.396, 1627.000
1043.503, 1653.000
1044.610, 1665.000
1045.716, 1701.000
1046.823, 1715.000
1047.929, 1741.000
1049.036, 1770.000
1050.142, 1789.000
1051.248, 1830.000
1052.353, 1882.000
1053.459, 1911.000
1054.564, 1958.000
1055.670, 1936.000
1056.775, 1942.000
1057.880, 1996.000
1058.985, 2026.000
1060.089, 1988.000
1061.194, 2011.000
1062.298, 1995.000
1063.402, 1944.000
1064.506, 1966.000
1065.610, 1955.000
1066.713, 1879.000
1067.817, 1863.000
1068.920, 1809.000
1070.023, 1811.000
1071.126, 1762.000
1072.229, 1740.000
1073.332, 1675.000
1074.435, 1654.000
1075.537, 1626.000
1076.639, 1596.635
1077.741, 1571.000
1078.843, 1562.000
1079.945, 1590.000
1081.046, 1581.000
1082.148, 1542.000
1083.249, 1543.000
1084.350, 1502.000
1085.451, 1519.000
1086.551, 1540.000
1087.652, 1510.000
1088.752, 1545.000
1089.853, 1512.000
1090.953, 1531.000
1092.053, 1518.000
1093.152, 1495.000
1094.252, 1520.000
1095.351, 1541.000
1096.451, 1550.000
1097.550, 1542.000
1098.649, 1533.000
1099.748, 1558.172
1100.846, 1619.000
1101.945, 1595.000
1103.043, 1638.000
1104.141, 1637.000
1105.239, 1689.000
1106.337, 1691.000
1107.434, 1702.000
1108.532, 1715.000
1109.629, 1724.000
1110.726, 1789.000
1111.823, 1761.000
1112.920, 1815.000
1114.017, 1844.000
1115.113, 1848.000
1116.210, 1920.000
1117.306, 1929.000
1118.402, 1915.000
1119.498, 1961.000
1120.593, 1979.000
1121.689, 2048.000
1122.784, 2057.000
1123.879, 2123.000
1124.974, 2132.000
1126.069, 2154.000
1127.164, 2162.000
1128.259, 2232.000
1129.353, 2262.000
1130.447, 2277.000
1131.541, 2348.000
1132.635, 2341.000
1133.729, 2341.000
1134.822, 2437.000
1135.916, 2440.000
1137.009, 2425.000
1138.102, 2470.000
1139.195, 2418.000
1140.288, 2513.000
1141.380, 2471.000
1142.473, 2466.000
1143.565, 2405.000
1144.657, 2346.000
1145.749, 2329.000
1146.841, 2304.000
1147.932, 2250.000
1149.024, 2224.000
1150.115, 2201.000
1151.206, 2190.000
1152.297, 2169.425
1153.388, 2179.000
1154.479, 2123.000
1155.569, 2086.000
1156.659, 2025.000
1157.750, 2014.000
1158.839, 1981.000
1159.929, 1935.000
1161.019, 1883.000
1162.108, 1841.000
1163.198, 1749.000
1164.287, 1684.000
1165.376, 1648.000
1166.465, 1556.000
1167.553, 1532.000
1168.642, 1503.000
1169.730, 1460.000
1170.818, 1459.000
1171.906, 1435.000
1172.994, 1376.000
1174.082, 1348.000
1175.170, 1301.000
1176.257, 1278.000
1177.344, 1263.000
1178.431, 1281.000
1179.518, 1257.000
1180.605, 1268.000
1181.691, 1264.000
1182.778, 1257.000
1183.864, 1244.000
1184.950, 1239.992
1186.036, 1238.000
1187.122, 1218.000
1188.207, 1232.000
1189.292, 1205.000
1190.378, 1237.000
1191.463, 1196.000
1192.548, 1208.000
1193.632, 1170.000
1194.717, 1193.000
1195.801, 1141.000
1196.886, 1158.000
1197.970, 1151.000
1199.054, 1145.000
1200.137, 1119.000
1201.221, 1115.000
1202.305, 1117.000
1203.388, 1092.000
1204.471, 1077.000
1205.554, 1090.000
1206.637, 1093.000
1207.719, 1065.000
1208.802, 1066.000
1209.884, 1065.000
1210.966, 1099.000
1212.048, 1056.000
1213.130, 1060.000
1214.212, 1100.000
1215.293, 1096.000
1216.374, 1051.000
1217.456, 1080.000
1218.536, 1084.000
1219.617, 1041.000
1220.698, 1083.000
1221.778, 1066.000
1222.859, 1069.000
1223.939, 1016.000
1225.019, 1054.000
1226.099, 1033.000
1227.178, 1026.000
1228.258, 1026.061
1229.337, 1008.000
1230.417, 996.0000
1231.496, 961.0000
1232.574, 930.0000
1233.653, 949.0000
1234.732, 939.0000
1235.810, 950.0000
1236.888, 928.0000
1237.966, 926.0000
1239.044, 914.0000
