##NAMES=Anglesite
##RRUFFID=R040004
##IDEAL CHEMISTRY=Pb^2+^S^6+^O_4_
##LOCALITY=Erupcion mine, Los Lamentos, Chihuahua, Mexico
##OWNER=RRUFF
##SOURCE=University of Arizona Mineral Museum
##DESCRIPTION=Tan colored tabular crystal
##STATUS=The identification of this mineral has been confirmed by X-ray diffraction and chemical analysis
##URL=rruff.info/R040004
##MEASURED CHEMISTRY=Pb_1.00_S_1.00_O_4_
##PIN_ID=M00020
##ORIENTATION=Laser parallel to a* (1 0 0). Fiducial mark perpendicular to laser is parallel to b [0 1 0]
63.41100, 305.0000
64.65300, 382.0000
65.89600, 474.0000
67.13800, 555.0000
68.38000, 720.0000
69.62200, 870.0000
70.86300, 1041.000
72.10500, 1249.000
73.34600, 1544.000
74.58700, 1841.000
75.82800, 2264.000
77.06900, 2620.000
78.30900, 3028.000
79.55000, 3456.229
80.79000, 3856.518
82.03000, 4332.000
83.27000, 4727.000
84.51000, 5177.000
85.74900, 5662.000
86.98900, 6053.000
88.22800, 6581.000
89.46700, 6899.000
90.70600, 7310.000
91.94400, 7810.000
93.18300, 8129.000
94.42100, 8634.000
95.65900, 8921.000
96.89700, 9283.000
98.13500, 9481.000
99.37300, 9607.000
100.6100, 9548.000
101.8480, 9588.000
103.0850, 9557.000
104.3220, 9466.000
105.5590, 9409.000
106.7950, 9427.000
108.0320, 9420.000
109.2680, 9313.000
110.5040, 9257.000
111.7400, 9072.000
112.9760, 9201.000
114.2120, 9150.000
115.4470, 9386.000
116.6820, 9359.000
117.9170, 9366.000
119.1520, 9398.000
120.3870, 9515.000
121.6220, 9524.000
122.8560, 9643.379
124.0900, 9672.000
125.3240, 9870.000
126.5580, 10063.00
127.7920, 10206.00
129.0260, 10413.00
130.2590, 10553.10
131.4920, 10696.71
132.7250, 10816.00
133.9580, 10928.00
135.1910, 10991.00
136.4230, 11030.00
137.6560, 11030.00
138.8880, 10999.84
140.1200, 10809.00
141.3520, 10858.00
142.5830, 10642.00
143.8150, 10517.00
145.0460, 10588.00
146.2770, 10448.00
147.5080, 10348.00
148.7390, 10393.00
149.9700, 10244.00
151.2000, 10463.00
152.4310, 10384.00
153.6610, 10490.00
154.8910, 10239.00
156.1210, 10355.00
157.3500, 10214.00
158.5800, 9815.000
159.8090, 9645.000
161.0380, 9638.000
162.2670, 9455.000
163.4960, 9349.000
164.7240, 9234.000
165.9530, 9071.000
167.1810, 9054.000
168.4090, 9081.000
169.6370, 9013.000
170.8650, 8993.000
172.0920, 8927.000
173.3200, 8911.308
174.5470, 8986.000
175.7740, 8897.000
177.0010, 8923.000
178.2280, 8958.000
179.4540, 8822.000
180.6810, 8860.000
181.9070, 8915.000
183.1330, 8847.000
184.3590, 8869.000
185.5850, 8857.000
186.8100, 8809.000
188.0350, 8931.000
189.2610, 8806.000
190.4860, 8787.000
191.7110, 8881.000
192.9350, 8724.000
194.1600, 8686.000
195.3840, 8856.000
196.6080, 8789.000
197.8320, 8793.000
199.0560, 8778.000
200.2800, 8882.000
201.5030, 8899.000
202.7270, 8908.258
203.9500, 8888.000
205.1730, 8900.000
206.3950, 8847.000
207.6180, 8800.000
208.8410, 8853.000
210.0630, 8823.079
211.2850, 8820.000
212.5070, 8838.000
213.7290, 8965.000
214.9500, 8966.000
216.1720, 9172.000
217.3930, 9112.000
218.6140, 9251.000
219.8350, 9117.000
221.0560, 9248.000
222.2770, 9155.000
223.4970, 9077.000
224.7170, 9028.000
225.9370, 9012.000
227.1570, 8977.768
228.3770, 8941.835
229.5970, 8954.000
230.8160, 8883.000
232.0350, 8860.000
233.2540, 8852.000
234.4730, 8982.000
235.6920, 8949.000
236.9110, 8846.000
238.1290, 9060.000
239.3470, 8906.000
240.5650, 8867.000
241.7830, 8936.000
243.0010, 8937.000
244.2180, 8937.000
245.4360, 9017.000
246.6530, 8971.000
247.8700, 8998.000
249.0870, 8982.000
250.3040, 8970.000
251.5200, 8994.000
252.7370, 9044.000
253.9530, 9029.000
255.1690, 8959.000
256.3850, 9056.000
257.6000, 8987.000
258.8160, 9073.000
260.0310, 9009.000
261.2460, 9002.000
262.4610, 9037.000
263.6760, 9131.000
264.8910, 9080.000
266.1050, 9161.000
267.3200, 9115.000
268.5340, 9016.000
269.7480, 9117.000
270.9620, 8991.000
272.1750, 9048.000
273.3890, 9194.000
274.6020, 9185.000
275.8150, 9141.000
277.0280, 9139.000
278.2410, 9143.000
279.4540, 9136.083
280.6660, 9079.000
281.8790, 9156.000
283.0910, 9148.000
284.3030, 9162.000
285.5140, 9245.000
286.7260, 9089.000
287.9380, 9265.000
289.1490, 9083.000
290.3600, 9199.000
291.5710, 9281.000
292.7820, 9276.000
293.9920, 9331.000
295.2030, 9319.000
296.4130, 9277.000
297.6230, 9210.000
298.8330, 9259.000
300.0430, 9121.000
301.2520, 9189.895
302.4620, 9320.000
303.6710, 9276.000
304.8800, 9301.000
306.0890, 9352.000
307.2980, 9529.000
308.5070, 9472.000
309.7150, 9430.000
310.9230, 9319.000
312.1310, 9335.000
313.3390, 9328.367
314.5470, 9369.000
315.7550, 9407.000
316.9620, 9488.000
318.1690, 9569.000
319.3760, 9471.000
320.5830, 9386.000
321.7900, 9410.000
322.9960, 9473.000
324.2030, 9449.000
325.4090, 9574.000
326.6150, 9509.000
327.8210, 9543.000
329.0270, 9634.000
330.2320, 9633.000
331.4380, 9624.824
332.6430, 9544.000
333.8480, 9558.000
335.0530, 9526.000
336.2580, 9503.000
337.4620, 9631.000
338.6670, 9583.000
339.8710, 9680.000
341.0750, 9532.000
342.2790, 9645.000
343.4820, 9583.000
344.6860, 9662.000
345.8890, 9644.000
347.0920, 9667.000
348.2960, 9763.000
349.4980, 9722.000
350.7010, 9765.000
351.9040, 9705.000
353.1060, 9713.000
354.3080, 9749.000
355.5100, 9831.000
356.7120, 9905.000
357.9140, 9796.000
359.1150, 9776.000
360.3170, 9847.000
361.5180, 9783.000
362.7190, 9850.000
363.9200, 9878.000
365.1200, 9867.000
366.3210, 9801.000
367.5210, 9781.000
368.7210, 9878.000
369.9210, 9884.000
371.1210, 9925.000
372.3210, 9863.000
373.5200, 9827.000
374.7200, 9677.000
375.9190, 9901.000
377.1180, 10004.00
378.3170, 9953.000
379.5150, 10136.00
380.7140, 10031.00
381.9120, 10024.00
383.1110, 10014.00
384.3090, 9948.000
385.5060, 10018.00
386.7040, 10054.00
387.9020, 10069.00
389.0990, 10103.00
390.2960, 10125.01
391.4930, 10068.00
392.6900, 10139.00
393.8860, 10201.00
395.0830, 10143.00
396.2790, 10113.00
397.4750, 10258.00
398.6710, 10256.00
399.8670, 10357.00
401.0630, 10403.00
402.2580, 10277.00
403.4540, 10327.00
404.6490, 10259.00
405.8440, 10320.00
407.0390, 10370.00
408.2330, 10327.00
409.4280, 10291.00
410.6220, 10374.00
411.8160, 10419.00
413.0100, 10520.00
414.2040, 10552.00
415.3980, 10578.76
416.5910, 10528.00
417.7850, 10584.00
418.9780, 10572.00
420.1710, 10539.00
421.3640, 10664.00
422.5560, 10810.00
423.7490, 10892.00
424.9410, 10865.00
426.1330, 10990.00
427.3250, 10911.00
428.5170, 11334.00
429.7090, 11376.00
430.9000, 11824.00
432.0910, 12110.00
433.2820, 12743.00
434.4730, 13333.00
435.6640, 14074.00
436.8550, 14872.00
438.0450, 15676.00
439.2360, 16433.00
440.4260, 16518.00
441.6160, 16555.00
442.8060, 16645.00
443.9950, 16297.00
445.1850, 16254.00
446.3740, 16771.00
447.5630, 17561.00
448.7520, 18358.00
449.9410, 19042.00
451.1300, 19170.00
452.3180, 18603.00
453.5060, 17680.00
454.6950, 16310.00
455.8830, 15185.00
457.0700, 14176.00
458.2580, 13437.00
459.4450, 12866.00
460.6330, 12316.00
461.8200, 12138.00
463.0070, 11921.00
464.1940, 11840.00
465.3800, 11857.00
466.5670, 11740.00
467.7530, 11593.00
468.9390, 11492.00
470.1250, 11597.00
471.3110, 11529.00
472.4970, 11533.00
473.6820, 11443.00
474.8680, 11506.00
476.0530, 11353.00
477.2380, 11241.00
478.4230, 11460.00
479.6070, 11347.00
480.7920, 11209.00
481.9760, 11200.00
483.1600, 11236.00
484.3440, 11257.00
485.5280, 11218.75
486.7120, 11179.00
487.8950, 11199.00
489.0780, 11120.00
490.2620, 11228.00
491.4450, 11195.35
492.6270, 11232.00
493.8100, 11223.00
494.9920, 11218.40
496.1750, 11210.84
497.3570, 11208.00
498.5390, 11157.00
499.7210, 11141.00
500.9020, 11089.00
502.0840, 11103.00
503.2650, 11235.00
504.4460, 11121.00
505.6270, 11147.00
506.8080, 11228.00
507.9890, 11158.00
509.1690, 11156.00
510.3500, 11208.00
511.5300, 11158.00
512.7100, 11306.00
513.8900, 11232.00
515.0690, 11153.00
516.2490, 11260.00
517.4280, 11356.00
518.6070, 11176.00
519.7860, 11312.00
520.9650, 11342.00
522.1440, 11299.00
523.3220, 11302.00
524.5010, 11385.00
525.6790, 11393.00
526.8570, 11394.36
528.0350, 11474.00
529.2130, 11376.00
530.3900, 11407.00
531.5670, 11405.00
532.7450, 11523.00
533.9220, 11441.00
535.0980, 11472.77
536.2750, 11457.00
537.4520, 11458.00
538.6280, 11477.00
539.8040, 11497.00
540.9800, 11514.16
542.1560, 11557.00
543.3320, 11512.00
544.5070, 11589.00
545.6830, 11488.00
546.8580, 11513.00
548.0330, 11564.00
549.2080, 11504.00
550.3830, 11441.00
551.5570, 11410.00
552.7310, 11440.00
553.9060, 11567.00
555.0800, 11639.00
556.2540, 11653.00
557.4270, 11684.00
558.6010, 11685.58
559.7740, 11664.00
560.9470, 11665.00
562.1210, 11670.00
563.2930, 11673.00
564.4660, 11756.00
565.6390, 11761.59
566.8110, 11688.00
567.9830, 11774.00
569.1550, 11768.00
570.3270, 11648.00
571.4990, 11864.00
572.6710, 11736.00
573.8420, 11923.00
575.0130, 11844.00
576.1840, 11922.00
577.3550, 11904.00
578.5260, 11873.00
579.6970, 11976.00
580.8670, 12003.00
582.0370, 12004.41
583.2070, 11898.00
584.3770, 12016.00
585.5470, 12000.00
586.7170, 12007.00
587.8860, 12047.00
589.0550, 12087.24
590.2240, 12111.34
591.3930, 12196.00
592.5620, 12228.00
593.7310, 12237.00
594.8990, 12401.00
596.0670, 12402.00
597.2350, 12490.00
598.4030, 12493.00
599.5710, 12757.00
600.7390, 13093.00
601.9060, 13275.00
603.0740, 13549.00
604.2410, 13759.00
605.4080, 13809.00
606.5740, 13979.00
607.7410, 13863.00
608.9080, 13720.00
610.0740, 13444.00
611.2400, 13326.00
612.4060, 12999.00
613.5720, 13136.00
614.7370, 12888.00
615.9030, 12939.00
617.0680, 12994.00
618.2330, 13010.00
619.3980, 13162.00
620.5630, 13025.00
621.7280, 12974.00
622.8920, 12801.00
624.0570, 12846.00
625.2210, 12733.00
626.3850, 12697.00
627.5490, 12593.00
628.7120, 12579.90
629.8760, 12589.00
631.0390, 12547.00
632.2020, 12554.00
633.3650, 12510.00
634.5280, 12562.00
635.6910, 12613.00
636.8530, 12621.00
638.0160, 12649.80
639.1780, 12498.00
640.3400, 12616.00
641.5020, 12674.00
642.6640, 12547.00
643.8250, 12709.00
644.9870, 12595.00
646.1480, 12648.00
647.3090, 12829.00
648.4700, 12668.00
649.6300, 12647.00
650.7910, 12725.00
651.9510, 12713.00
653.1120, 12701.00
654.2720, 12740.00
655.4320, 12674.00
656.5910, 12711.00
657.7510, 12729.00
658.9100, 12643.00
660.0690, 12627.00
661.2290, 12647.00
662.3880, 12655.00
663.5460, 12634.17
664.7050, 12677.00
665.8630, 12636.00
667.0220, 12620.00
668.1800, 12704.00
669.3380, 12550.00
670.4950, 12624.00
671.6530, 12717.00
672.8100, 12663.00
673.9680, 12656.00
675.1250, 12796.00
676.2820, 12926.00
677.4390, 12674.00
678.5950, 12641.00
679.7520, 12771.00
680.9080, 12819.00
682.0640, 12861.00
683.2200, 12865.00
684.3760, 12814.00
685.5320, 12754.00
686.6870, 12835.00
687.8420, 12754.00
688.9980, 12848.00
690.1530, 12936.00
691.3070, 12904.00
692.4620, 12938.00
693.6170, 12815.00
694.7710, 12815.00
695.9250, 13038.00
697.0790, 12958.00
698.2330, 12903.00
699.3870, 12766.00
700.5400, 12785.00
701.6940, 12780.20
702.8470, 12992.00
704.0000, 12831.00
705.1530, 13076.00
706.3050, 13046.00
707.4580, 13097.00
708.6100, 13136.00
709.7630, 13103.50
710.9150, 13069.00
712.0660, 13042.00
713.2180, 13100.00
714.3700, 13032.00
715.5210, 13149.00
716.6720, 13077.00
717.8240, 13124.00
718.9740, 13027.00
720.1250, 12968.00
721.2760, 13101.00
722.4260, 13163.00
723.5770, 13210.00
724.7270, 13228.00
725.8770, 13251.08
727.0260, 13203.00
728.1760, 13300.00
729.3250, 13273.00
730.4750, 13381.00
731.6240, 13208.00
732.7730, 13258.00
733.9220, 13298.00
735.0700, 13492.00
736.2190, 13280.00
737.3670, 13327.00
738.5150, 13335.00
739.6630, 13165.00
740.8110, 13457.00
741.9590, 13410.00
743.1060, 13438.00
744.2540, 13526.00
745.4010, 13428.00
746.5480, 13436.00
747.6950, 13353.00
748.8410, 13406.00
749.9880, 13581.00
751.1340, 13507.00
752.2800, 13347.00
753.4260, 13612.00
754.5720, 13492.00
755.7180, 13316.00
756.8640, 13523.00
758.0090, 13707.00
759.1540, 13673.00
760.2990, 13578.00
761.4440, 13684.00
762.5890, 13651.00
763.7340, 13630.00
764.8780, 13577.00
766.0220, 13607.92
767.1660, 13595.00
768.3100, 13648.00
769.4540, 13631.00
770.5980, 13605.88
771.7410, 13466.00
772.8840, 13661.00
774.0280, 13716.00
775.1700, 13844.00
776.3130, 13754.00
777.4560, 13655.00
778.5980, 13636.00
779.7410, 13612.45
780.8830, 13738.00
782.0250, 13673.00
783.1670, 13746.00
784.3080, 13857.00
785.4500, 13872.00
786.5910, 13944.00
787.7320, 13940.59
788.8730, 13891.00
790.0140, 13920.00
791.1550, 13940.00
792.2950, 13960.00
793.4360, 14069.00
794.5760, 13888.00
795.7160, 14004.00
796.8560, 13824.00
797.9960, 14102.00
799.1350, 13875.00
800.2750, 13867.00
801.4140, 14038.00
802.5530, 13937.00
803.6920, 14114.00
804.8310, 13868.00
805.9690, 14131.00
807.1080, 13997.00
808.2460, 14145.00
809.3840, 14002.00
810.5220, 14201.00
811.6600, 14210.00
812.7970, 14261.00
813.9350, 14143.00
815.0720, 14352.00
816.2090, 14167.00
817.3460, 14140.00
818.4830, 14229.00
819.6200, 14172.00
820.7560, 14245.00
821.8930, 14389.00
823.0290, 14284.00
824.1650, 14365.00
825.3010, 14279.00
826.4360, 14275.37
827.5720, 14393.00
828.7070, 14261.00
829.8420, 14347.00
830.9770, 14378.00
832.1120, 14275.00
833.2470, 14435.00
834.3820, 14416.00
835.5160, 14295.00
836.6500, 14501.00
837.7840, 14390.00
838.9180, 14445.00
840.0520, 14471.00
841.1860, 14504.00
842.3190, 14654.00
843.4520, 14625.00
844.5850, 14631.00
845.7180, 14687.00
846.8510, 14584.00
847.9840, 14702.00
849.1160, 14641.00
850.2490, 14749.00
851.3810, 14700.00
852.5130, 14754.00
853.6450, 14788.00
854.7760, 14774.00
855.9080, 14830.00
857.0390, 14824.00
858.1700, 14840.30
859.3010, 14970.00
860.4320, 14881.00
861.5630, 15041.00
862.6930, 15111.00
863.8240, 15232.00
864.9540, 15149.00
866.0840, 15179.24
867.2140, 15143.00
868.3440, 15105.00
869.4730, 15017.00
870.6030, 14987.00
871.7320, 14968.00
872.8610, 14939.00
873.9900, 14960.00
875.1190, 15022.00
876.2470, 15030.00
877.3760, 15247.00
878.5040, 15205.00
879.6320, 15184.00
880.7600, 15022.00
881.8880, 15046.00
883.0150, 15161.00
884.1430, 15055.00
885.2700, 15043.00
886.3970, 15094.00
887.5240, 15282.00
888.6510, 15282.00
889.7780, 15339.00
890.9040, 15282.00
892.0310, 15323.00
893.1570, 15406.00
894.2830, 15445.00
895.4090, 15436.00
896.5350, 15320.00
897.6600, 15357.00
898.7860, 15338.06
899.9110, 15512.00
901.0360, 15425.00
902.1610, 15447.00
903.2860, 15616.00
904.4100, 15512.00
905.5350, 15438.00
906.6590, 15490.00
907.7830, 15579.00
908.9070, 15434.00
910.0310, 15668.00
911.1540, 15559.00
912.2780, 15642.00
913.4010, 15538.00
914.5240, 15486.00
915.6470, 15512.00
916.7700, 15675.00
917.8930, 15691.00
919.0150, 15569.00
920.1380, 15677.00
921.2600, 15540.00
922.3820, 15685.00
923.5040, 15510.00
924.6260, 15618.00
925.7470, 15645.00
926.8690, 15600.00
927.9900, 15734.00
929.1110, 15761.00
930.2320, 15801.00
931.3530, 15774.00
932.4730, 15728.00
933.5940, 15746.00
934.7140, 15775.04
935.8340, 15839.00
936.9540, 15881.00
938.0740, 15931.00
939.1930, 15971.00
940.3130, 15937.00
941.4320, 15906.00
942.5510, 16065.00
943.6700, 16170.00
944.7890, 16145.00
945.9080, 16254.00
947.0260, 16236.00
948.1450, 16326.00
949.2630, 16512.00
950.3810, 16594.00
951.4990, 16592.00
952.6170, 16628.00
953.7340, 16744.22
954.8520, 16877.00
955.9690, 16993.00
957.0860, 17170.00
958.2030, 17330.00
959.3200, 17543.00
960.4360, 17865.00
961.5530, 18107.00
962.6690, 18500.00
963.7850, 19065.00
964.9010, 19713.00
966.0170, 20514.00
967.1330, 21417.00
968.2480, 22709.00
969.3630, 24642.00
970.4790, 27001.00
971.5940, 30377.00
972.7080, 34741.00
973.8230, 39598.00
974.9380, 45856.00
976.0520, 52258.00
977.1660, 58773.00
978.2800, 62201.00
979.3940, 62990.00
980.5080, 60090.00
981.6220, 54270.00
982.7350, 47431.00
983.8480, 41000.00
984.9610, 35358.00
986.0740, 30954.00
987.1870, 27864.00
988.3000, 25497.00
989.4120, 23908.00
990.5250, 22523.00
991.6370, 21617.00
992.7490, 20759.00
993.8610, 20295.00
994.9720, 19652.00
996.0840, 19319.00
997.1950, 18824.00
998.3060, 18592.86
999.4170, 18487.00
1000.528, 18314.00
1001.639, 18254.00
1002.750, 18276.00
1003.860, 18230.00
1004.970, 18124.00
1006.080, 17947.00
1007.190, 17742.00
1008.300, 17683.00
1009.410, 17574.00
1010.519, 17526.00
1011.628, 17395.00
1012.738, 17368.91
1013.846, 17295.00
1014.955, 17317.00
1016.064, 17305.00
1017.172, 17314.00
1018.281, 17351.00
1019.389, 17345.44
1020.497, 17382.00
1021.605, 17427.00
1022.713, 17421.28
1023.820, 17497.00
1024.928, 17413.00
1026.035, 17407.00
1027.142, 17358.00
1028.249, 17423.00
1029.356, 17424.00
1030.462, 17358.00
1031.569, 17246.00
1032.675, 17364.00
1033.781, 17251.00
1034.887, 17271.00
1035.993, 17309.00
1037.098, 17200.00
1038.204, 17264.00
1039.309, 17238.00
1040.415, 17272.00
1041.520, 17194.00
1042.624, 17272.00
1043.729, 17401.00
1044.834, 17232.00
1045.938, 17519.00
1047.042, 17532.00
1048.146, 17485.00
1049.250, 17438.00
1050.354, 17492.00
1051.458, 17766.00
1052.561, 17563.00
1053.664, 17656.00
1054.767, 17538.00
1055.870, 17836.00
1056.973, 17577.00
1058.076, 17709.00
1059.178, 17712.00
1060.281, 17813.00
1061.383, 17923.00
1062.485, 17928.00
1063.587, 17956.00
1064.688, 17796.00
1065.790, 17914.00
1066.891, 17823.00
1067.993, 17784.00
1069.094, 17869.00
1070.195, 17814.00
1071.295, 17831.00
1072.396, 17746.00
1073.496, 17702.00
1074.597, 17911.00
1075.697, 17724.00
1076.797, 17796.00
1077.897, 17849.00
1078.996, 17804.00
1080.096, 17671.00
1081.195, 17921.00
1082.294, 17978.00
1083.393, 17916.00
1084.492, 17757.00
1085.591, 17869.00
1086.689, 17885.00
1087.788, 18015.00
1088.886, 17977.00
1089.984, 17986.00
1091.082, 18031.61
1092.180, 18012.28
1093.277, 18060.00
1094.375, 17987.00
1095.472, 17979.00
1096.569, 17884.00
1097.666, 17920.00
1098.763, 18228.00
1099.860, 18139.00
1100.956, 18323.00
1102.053, 18302.00
1103.149, 18120.00
1104.245, 18347.00
1105.341, 18400.00
1106.436, 18037.00
1107.532, 18244.00
1108.627, 18237.00
1109.723, 18345.00
1110.818, 18477.00
1111.913, 18467.96
1113.007, 18418.00
1114.102, 18458.00
1115.197, 18456.20
1116.291, 18463.00
1117.385, 18532.00
1118.479, 18561.00
1119.573, 18659.00
1120.666, 18535.00
1121.760, 18572.00
1122.853, 18585.00
1123.947, 18833.00
1125.040, 18622.00
1126.132, 18847.00
1127.225, 18799.00
1128.318, 18914.00
1129.410, 19042.00
1130.502, 18891.00
1131.595, 19105.00
1132.687, 18901.00
1133.778, 19123.00
1134.870, 19086.00
1135.961, 19003.00
1137.053, 19296.00
1138.144, 19118.00
1139.235, 19197.00
1140.326, 19168.00
1141.416, 19256.00
1142.507, 19197.00
1143.597, 19015.00
1144.688, 19164.00
1145.778, 19146.00
1146.868, 19241.00
1147.957, 19020.00
1149.047, 19033.00
1150.136, 19070.00
1151.226, 18889.00
1152.315, 18984.00
1153.404, 19000.00
1154.493, 18767.00
1155.581, 18999.00
1156.670, 18933.00
1157.758, 18839.00
1158.846, 18892.00
1159.934, 18886.00
1161.022, 18963.00
1162.110, 18723.00
1163.198, 18913.00
1164.285, 18675.00
1165.372, 18676.00
1166.459, 18865.00
1167.546, 18642.00
1168.633, 18739.00
1169.720, 18690.00
1170.806, 18874.00
1171.892, 18730.00
1172.979, 18732.00
1174.065, 18829.00
1175.150, 18808.00
1176.236, 18867.00
1177.322, 18907.03
1178.407, 18842.00
1179.492, 18974.00
1180.577, 18905.00
1181.662, 18910.00
1182.747, 18730.00
1183.832, 18668.00
1184.916, 18836.00
1186.000, 18845.00
1187.084, 18819.00
1188.168, 18925.00
1189.252, 18978.00
1190.336, 18840.00
1191.419, 18944.00
1192.503, 18850.00
1193.586, 18877.00
1194.669, 19047.00
1195.752, 19110.00
1196.835, 18805.00
1197.917, 19136.00
1199.000, 18782.00
1200.082, 18898.00
1201.164, 19003.00
1202.246, 19189.00
1203.328, 19125.00
1204.409, 19099.00
1205.491, 19162.00
1206.572, 18957.00
1207.653, 19101.00
1208.734, 19002.00
1209.815, 19120.00
1210.896, 19232.00
1211.976, 18999.00
1213.057, 18980.00
1214.137, 19125.00
1215.217, 19252.00
1216.297, 19221.00
1217.377, 18973.00
1218.456, 19079.00
1219.536, 19156.00
1220.615, 19354.00
1221.694, 19270.00
1222.773, 19203.00
1223.852, 19348.00
1224.931, 19293.00
1226.009, 19156.00
1227.088, 19050.00
1228.166, 19170.00
1229.244, 19178.00
1230.322, 19337.00
1231.400, 19347.16
1232.477, 19292.00
1233.555, 19388.00
1234.632, 19254.00
1235.709, 19224.00
1236.786, 19310.00
1237.863, 19326.00
1238.939, 19273.00
1240.016, 19344.06
1241.092, 19359.00
1242.168, 19394.00
1243.245, 19353.00
1244.320, 19354.06
1245.396, 19419.00
1246.472, 19423.00
1247.547, 19513.00
1248.622, 19563.00
