##NAMES=Anglesite
##RRUFFID=R050408
##IDEAL CHEMISTRY=Pb^2+^S^6+^O_4_
##LOCALITY=Tsumeb mine, Tsumeb, Otavi District, Oshikoto, Namibia
##OWNER=RRUFF
##SOURCE=California Institute of Technology
##DESCRIPTION=Pale yellow fragment
##STATUS=The identification of this mineral has been confirmed by X-ray diffraction and chemical analysis
##URL=rruff.info/R050408
##MEASURED CHEMISTRY=Pb_1.00_S_1.00_O_4_
##PIN_ID=L01528
##ORIENTATION=Laser parallel to a* (1 0 0). Fiducial mark perpendicular to laser is parallel to -b [0 -1 0]
51.43100, 379.0000
52.67100, 372.0000
53.91000, 376.0000
55.14900, 374.0000
56.38700, 380.0000
57.62600, 384.0000
58.86400, 417.0000
60.10300, 437.0000
61.34100, 444.0000
62.57900, 474.0000
63.81700, 475.0000
65.05400, 490.0000
66.29200, 521.0000
67.52900, 533.0000
68.76700, 617.0000
70.00400, 656.0000
71.24100, 707.0000
72.47700, 763.0000
73.71400, 828.0000
74.95100, 964.0000
76.18700, 1052.000
77.42300, 1124.000
78.65900, 1179.000
79.89500, 1339.000
81.13100, 1428.000
82.36700, 1564.000
83.60200, 1694.000
84.83700, 1815.000
86.07200, 1972.000
87.30800, 2137.000
88.54200, 2261.000
89.77700, 2413.000
91.01200, 2616.000
92.24600, 2829.000
93.48000, 2942.000
94.71400, 3205.000
95.94800, 3386.000
97.18200, 3557.000
98.41600, 3622.000
99.64900, 3714.000
100.8830, 3542.000
102.1160, 3558.000
103.3490, 3403.000
104.5820, 3315.000
105.8150, 3232.000
107.0470, 3159.000
108.2800, 3061.742
109.5120, 3001.000
110.7440, 2868.000
111.9760, 2780.000
113.2080, 2670.000
114.4400, 2675.000
115.6710, 2599.000
116.9030, 2644.000
118.1340, 2567.000
119.3650, 2591.000
120.5960, 2549.000
121.8270, 2654.000
123.0580, 2700.000
124.2880, 2771.000
125.5190, 2886.000
126.7490, 2927.000
127.9790, 3059.000
129.2090, 3188.000
130.4390, 3208.000
131.6680, 3357.000
132.8980, 3406.000
134.1270, 3498.000
135.3560, 3624.000
136.5850, 3549.000
137.8140, 3532.000
139.0430, 3466.000
140.2710, 3245.000
141.5000, 3115.000
142.7280, 2908.000
143.9560, 2747.000
145.1840, 2626.000
146.4120, 2593.000
147.6390, 2495.000
148.8670, 2484.000
150.0940, 2477.000
151.3210, 2514.000
152.5490, 2471.000
153.7750, 2580.000
155.0020, 2540.000
156.2290, 2518.000
157.4550, 2497.000
158.6810, 2465.000
159.9080, 2358.000
161.1340, 2263.000
162.3590, 2246.000
163.5850, 2219.000
164.8110, 2150.000
166.0360, 2143.000
167.2610, 2070.000
168.4860, 1993.000
169.7110, 1964.000
170.9360, 1898.699
172.1610, 1876.000
173.3850, 1823.000
174.6100, 1811.000
175.8340, 1817.000
177.0580, 1807.000
178.2820, 1776.000
179.5050, 1750.000
180.7290, 1729.000
181.9520, 1721.973
183.1760, 1710.000
184.3990, 1728.000
185.6220, 1719.000
186.8450, 1739.000
188.0670, 1719.000
189.2900, 1697.000
190.5120, 1632.000
191.7340, 1633.000
192.9560, 1609.000
194.1780, 1585.000
195.4000, 1603.000
196.6220, 1619.000
197.8430, 1566.000
199.0640, 1560.000
200.2860, 1481.000
201.5070, 1483.000
202.7270, 1499.000
203.9480, 1451.000
205.1690, 1417.000
206.3890, 1410.000
207.6090, 1357.000
208.8290, 1322.000
210.0490, 1359.000
211.2690, 1312.000
212.4890, 1297.000
213.7080, 1293.000
214.9280, 1321.000
216.1470, 1281.000
217.3660, 1251.000
218.5850, 1271.000
219.8030, 1217.000
221.0220, 1242.000
222.2400, 1192.000
223.4590, 1175.000
224.6770, 1204.000
225.8950, 1194.000
227.1120, 1157.000
228.3300, 1183.000
229.5480, 1140.000
230.7650, 1198.000
231.9820, 1151.000
233.1990, 1158.000
234.4160, 1095.000
235.6330, 1136.000
236.8490, 1139.000
238.0660, 1133.000
239.2820, 1109.000
240.4980, 1111.000
241.7140, 1096.000
242.9300, 1096.000
244.1460, 1058.000
245.3610, 1066.000
246.5770, 1057.000
247.7920, 1077.000
249.0070, 1050.000
250.2220, 1048.000
251.4370, 1041.000
252.6510, 1029.786
253.8660, 1056.000
255.0800, 1024.000
256.2940, 1054.000
257.5080, 1067.000
258.7220, 1068.000
259.9360, 1058.000
261.1490, 1042.000
262.3630, 1040.494
263.5760, 1029.843
264.7890, 1028.000
266.0020, 1021.000
267.2150, 1015.000
268.4270, 1020.000
269.6400, 1024.000
270.8520, 1022.009
272.0640, 1021.531
273.2760, 1011.000
274.4880, 1010.000
275.7000, 1003.325
276.9120, 988.0000
278.1230, 999.0000
279.3340, 981.0000
280.5450, 985.0000
281.7560, 989.0000
282.9670, 986.0000
284.1780, 982.0000
285.3880, 983.0000
286.5980, 971.0000
287.8090, 966.0000
289.0190, 969.0000
290.2290, 971.0000
291.4380, 988.0000
292.6480, 967.0000
293.8570, 975.0000
295.0670, 1009.000
296.2760, 958.0000
297.4850, 980.0000
298.6930, 983.0000
299.9020, 951.0000
301.1110, 974.0000
302.3190, 950.0000
303.5270, 947.0000
304.7350, 977.0000
305.9430, 992.0000
307.1510, 960.0000
308.3580, 947.0000
309.5660, 957.0000
310.7730, 955.0000
311.9800, 959.0000
313.1870, 959.0000
314.3940, 969.0000
315.6010, 954.0000
316.8070, 962.0000
318.0130, 939.0000
319.2200, 967.0000
320.4260, 954.0000
321.6310, 956.0000
322.8370, 950.0000
324.0430, 938.0000
325.2480, 939.0000
326.4540, 966.0000
327.6590, 963.0000
328.8640, 971.0000
330.0680, 950.0000
331.2730, 959.0000
332.4780, 963.0000
333.6820, 951.0000
334.8860, 986.0000
336.0900, 942.0000
337.2940, 936.0000
338.4980, 985.0000
339.7010, 958.0000
340.9050, 966.0000
342.1080, 969.0000
343.3110, 942.0000
344.5140, 927.0000
345.7170, 955.0000
346.9200, 953.0000
348.1220, 963.0000
349.3240, 979.0000
350.5270, 949.0000
351.7290, 965.0000
352.9310, 970.0000
354.1320, 951.0000
355.3340, 938.0000
356.5350, 966.0000
357.7370, 968.0000
358.9380, 915.0000
360.1390, 969.0000
361.3400, 965.0000
362.5400, 966.0000
363.7410, 996.0000
364.9410, 971.0000
366.1410, 965.0000
367.3410, 989.0000
368.5410, 998.0000
369.7410, 955.0000
370.9400, 986.0000
372.1400, 973.0000
373.3390, 952.0000
374.5380, 999.0000
375.7370, 942.0000
376.9360, 1006.000
378.1350, 984.0000
379.3330, 1002.000
380.5310, 988.0000
381.7300, 1024.000
382.9280, 1000.000
384.1260, 973.0000
385.3230, 999.0000
386.5210, 999.0000
387.7180, 995.0000
388.9160, 1020.000
390.1130, 1016.000
391.3100, 1035.339
392.5060, 1016.000
393.7030, 1066.000
394.9000, 1086.000
396.0960, 1092.000
397.2920, 1055.000
398.4880, 1051.000
399.6840, 1054.000
400.8800, 1080.000
402.0750, 1106.000
403.2710, 1114.000
404.4660, 1093.000
405.6610, 1115.000
406.8560, 1135.000
408.0510, 1119.000
409.2450, 1153.000
410.4400, 1209.000
411.6340, 1192.000
412.8280, 1199.000
414.0220, 1251.000
415.2160, 1268.000
416.4100, 1314.000
417.6030, 1321.000
418.7970, 1388.000
419.9900, 1426.000
421.1830, 1461.000
422.3760, 1569.000
423.5690, 1609.000
424.7610, 1794.000
425.9540, 1917.000
427.1460, 2082.000
428.3380, 2352.000
429.5300, 2810.000
430.7220, 3186.000
431.9140, 3885.000
433.1050, 4816.000
434.2970, 6165.000
435.4880, 8216.000
436.6790, 11021.00
437.8700, 14342.00
439.0610, 16811.00
440.2510, 16954.00
441.4420, 14650.00
442.6320, 11607.00
443.8220, 9246.000
445.0120, 7943.000
446.2020, 7629.000
447.3910, 7818.000
448.5810, 8612.000
449.7700, 9370.000
450.9600, 9377.000
452.1490, 8629.000
453.3370, 7282.000
454.5260, 5736.000
455.7150, 4535.000
456.9030, 3718.000
458.0910, 3023.000
459.2800, 2733.000
460.4670, 2504.000
461.6550, 2207.000
462.8430, 2123.000
464.0300, 2060.000
465.2180, 1939.000
466.4050, 1868.591
467.5920, 1728.000
468.7790, 1713.000
469.9650, 1621.000
471.1520, 1577.000
472.3380, 1532.000
473.5250, 1547.000
474.7110, 1517.000
475.8970, 1395.000
477.0820, 1386.000
478.2680, 1428.000
479.4540, 1360.000
480.6390, 1386.000
481.8240, 1280.000
483.0090, 1335.000
484.1940, 1277.000
485.3780, 1295.000
486.5630, 1298.000
487.7470, 1257.000
488.9320, 1260.000
490.1160, 1232.000
491.3000, 1213.000
492.4830, 1192.000
493.6670, 1178.000
494.8500, 1183.000
496.0340, 1176.000
497.2170, 1189.000
498.4000, 1129.000
499.5820, 1165.000
500.7650, 1127.000
501.9480, 1108.000
503.1300, 1143.000
504.3120, 1137.000
505.4940, 1099.000
506.6760, 1079.000
507.8580, 1111.000
509.0390, 1132.000
510.2210, 1160.000
511.4020, 1099.000
512.5830, 1096.000
513.7640, 1111.000
514.9450, 1100.000
516.1250, 1094.000
517.3060, 1096.000
518.4860, 1085.000
519.6660, 1076.000
520.8460, 1099.000
522.0260, 1104.000
523.2060, 1032.000
524.3850, 1090.000
525.5650, 1097.000
526.7440, 1043.000
527.9230, 1072.000
529.1020, 1076.000
530.2810, 1059.000
531.4590, 1051.000
532.6380, 1071.000
533.8160, 1066.000
534.9940, 1054.000
536.1720, 1048.000
537.3500, 1055.000
538.5270, 1045.000
539.7050, 1058.000
540.8820, 1055.113
542.0590, 1061.000
543.2360, 1063.000
544.4130, 1062.000
545.5900, 1079.000
546.7660, 1067.000
547.9430, 1054.000
549.1190, 1077.000
550.2950, 1097.000
551.4710, 1074.000
552.6470, 1100.000
553.8220, 1077.000
554.9980, 1076.000
556.1730, 1059.000
557.3480, 1101.000
558.5230, 1101.000
559.6980, 1073.000
560.8730, 1088.000
562.0470, 1077.000
563.2220, 1123.000
564.3960, 1087.000
565.5700, 1131.000
566.7440, 1114.000
567.9170, 1111.000
569.0910, 1123.000
570.2640, 1111.000
571.4380, 1112.000
572.6110, 1149.000
573.7840, 1082.000
574.9570, 1124.000
576.1290, 1126.000
577.3020, 1108.000
578.4740, 1109.000
579.6460, 1104.000
580.8180, 1157.000
581.9900, 1120.000
583.1620, 1156.000
584.3330, 1163.000
585.5040, 1170.000
586.6760, 1220.000
587.8470, 1203.000
589.0180, 1169.000
590.1880, 1195.000
591.3590, 1227.000
592.5290, 1241.000
593.7000, 1291.000
594.8700, 1339.000
596.0400, 1378.000
597.2090, 1441.000
598.3790, 1540.000
599.5490, 1586.000
600.7180, 1803.000
601.8870, 2061.000
603.0560, 2307.000
604.2250, 2659.000
605.3940, 2828.000
606.5620, 3030.000
607.7300, 2868.000
608.8990, 2714.000
610.0670, 2423.000
611.2350, 2170.000
612.4020, 1915.000
613.5700, 1733.000
614.7370, 1570.000
615.9050, 1446.000
617.0720, 1349.000
618.2390, 1367.000
619.4060, 1302.000
620.5720, 1273.000
621.7390, 1268.000
622.9050, 1195.000
624.0710, 1208.000
625.2370, 1192.000
626.4030, 1171.000
627.5690, 1171.000
628.7340, 1176.000
629.9000, 1179.000
631.0650, 1190.000
632.2300, 1190.000
633.3950, 1183.000
634.5600, 1230.000
635.7240, 1238.000
636.8890, 1291.000
638.0530, 1278.000
639.2170, 1381.000
640.3810, 1445.000
641.5450, 1458.000
642.7080, 1477.000
643.8720, 1478.000
645.0350, 1370.000
646.1980, 1324.000
647.3610, 1240.000
648.5240, 1234.000
649.6870, 1173.000
650.8490, 1197.000
652.0120, 1147.000
653.1740, 1116.000
654.3360, 1144.000
655.4980, 1151.000
656.6600, 1175.000
657.8210, 1105.000
658.9830, 1140.000
660.1440, 1137.000
661.3050, 1141.000
662.4660, 1162.000
663.6270, 1160.000
664.7870, 1148.000
665.9480, 1148.000
667.1080, 1143.434
668.2680, 1113.000
669.4280, 1139.000
670.5880, 1112.000
671.7480, 1109.000
672.9070, 1146.000
674.0670, 1132.000
675.2260, 1139.000
676.3850, 1157.000
677.5440, 1163.000
678.7030, 1132.000
679.8610, 1112.000
681.0200, 1142.000
682.1780, 1121.000
683.3360, 1148.000
684.4940, 1106.000
685.6520, 1120.000
686.8090, 1102.000
687.9670, 1138.000
689.1240, 1122.000
690.2810, 1096.000
691.4380, 1140.000
692.5950, 1151.000
693.7520, 1108.000
694.9080, 1089.000
696.0650, 1110.000
697.2210, 1106.000
698.3770, 1107.063
699.5330, 1120.000
700.6880, 1109.000
701.8440, 1113.000
702.9990, 1107.000
704.1550, 1130.000
705.3100, 1113.000
706.4650, 1086.000
707.6190, 1112.000
708.7740, 1091.000
709.9290, 1089.675
711.0830, 1128.000
712.2370, 1083.000
713.3910, 1106.000
714.5450, 1110.000
715.6980, 1121.000
716.8520, 1143.000
718.0050, 1125.000
719.1580, 1113.000
720.3110, 1127.000
721.4640, 1106.000
722.6170, 1119.000
723.7700, 1140.000
724.9220, 1122.000
726.0740, 1097.000
727.2260, 1112.000
728.3780, 1110.000
729.5300, 1138.000
730.6810, 1118.000
731.8330, 1113.000
732.9840, 1135.000
734.1350, 1151.000
735.2860, 1133.000
736.4370, 1153.000
737.5880, 1136.000
738.7380, 1118.000
739.8880, 1179.000
741.0390, 1159.000
742.1890, 1163.000
743.3380, 1140.000
744.4880, 1141.000
745.6380, 1153.000
746.7870, 1146.000
747.9360, 1151.779
749.0850, 1164.000
750.2340, 1154.000
751.3830, 1145.000
752.5310, 1143.000
753.6800, 1160.000
754.8280, 1141.000
755.9760, 1196.000
757.1240, 1181.000
758.2720, 1192.000
759.4190, 1181.000
760.5670, 1170.351
761.7140, 1138.000
762.8610, 1150.000
764.0080, 1145.000
765.1550, 1147.000
766.3020, 1178.000
767.4480, 1191.000
768.5950, 1193.000
769.7410, 1170.000
770.8870, 1225.000
772.0330, 1174.000
773.1780, 1203.000
774.3240, 1212.000
775.4690, 1193.000
776.6140, 1207.000
777.7590, 1218.000
778.9040, 1175.000
780.0490, 1179.000
781.1940, 1217.000
782.3380, 1167.000
783.4820, 1185.000
784.6260, 1154.000
785.7700, 1189.000
786.9140, 1190.000
788.0580, 1195.000
789.2010, 1173.000
790.3450, 1193.000
791.4880, 1170.000
792.6310, 1180.000
793.7730, 1179.000
794.9160, 1188.000
796.0590, 1162.000
797.2010, 1167.000
798.3430, 1170.569
799.4850, 1169.000
800.6270, 1177.000
801.7690, 1190.000
802.9100, 1177.000
804.0520, 1175.000
805.1930, 1180.000
806.3340, 1161.000
807.4750, 1188.000
808.6160, 1204.000
809.7560, 1166.000
810.8970, 1177.000
812.0370, 1161.000
813.1770, 1224.000
814.3170, 1197.000
815.4570, 1203.000
816.5960, 1188.000
817.7360, 1196.000
818.8750, 1196.000
820.0140, 1168.000
821.1530, 1192.000
822.2920, 1170.000
823.4310, 1223.000
824.5690, 1233.000
825.7070, 1217.000
826.8460, 1189.000
827.9840, 1191.000
829.1220, 1236.000
830.2590, 1205.000
831.3970, 1218.000
832.5340, 1191.000
833.6710, 1242.000
834.8080, 1215.000
835.9450, 1214.000
837.0820, 1221.000
838.2190, 1227.000
839.3550, 1219.000
840.4910, 1256.000
841.6270, 1244.000
842.7630, 1213.000
843.8990, 1192.000
845.0350, 1227.000
846.1700, 1195.000
847.3060, 1269.000
848.4410, 1262.000
849.5760, 1248.000
850.7100, 1265.000
851.8450, 1278.000
852.9800, 1266.000
854.1140, 1252.000
855.2480, 1276.000
856.3820, 1266.000
857.5160, 1264.000
858.6500, 1278.000
859.7830, 1300.000
860.9170, 1316.000
862.0500, 1353.000
863.1830, 1349.000
864.3160, 1385.000
865.4480, 1310.000
866.5810, 1326.000
867.7130, 1341.000
868.8460, 1343.000
869.9780, 1380.000
871.1100, 1375.000
872.2410, 1415.000
873.3730, 1398.000
874.5050, 1385.000
875.6360, 1403.000
876.7670, 1349.000
877.8980, 1328.000
879.0290, 1384.000
880.1590, 1437.000
881.2900, 1408.000
882.4200, 1381.000
883.5500, 1385.000
884.6800, 1378.000
885.8100, 1397.000
886.9400, 1404.000
888.0690, 1409.578
889.1990, 1429.000
890.3280, 1425.000
891.4570, 1421.000
892.5860, 1426.000
893.7140, 1425.000
894.8430, 1414.000
895.9710, 1397.000
897.1000, 1413.334
898.2280, 1426.000
899.3560, 1431.000
900.4830, 1461.000
901.6110, 1448.000
902.7380, 1473.000
903.8660, 1474.000
904.9930, 1450.000
906.1200, 1454.000
907.2460, 1469.000
908.3730, 1500.000
909.5000, 1483.000
910.6260, 1504.000
911.7520, 1473.000
912.8780, 1514.000
914.0040, 1524.000
915.1290, 1466.000
916.2550, 1511.000
917.3800, 1572.000
918.5050, 1519.000
919.6300, 1551.000
920.7550, 1473.000
921.8800, 1489.000
923.0040, 1513.000
924.1290, 1566.000
925.2530, 1568.000
926.3770, 1575.000
927.5010, 1563.000
928.6250, 1612.000
929.7480, 1569.000
930.8720, 1582.000
931.9950, 1633.000
933.1180, 1641.000
934.2410, 1652.000
935.3640, 1623.000
936.4860, 1617.000
937.6090, 1686.000
938.7310, 1732.000
939.8530, 1711.000
940.9750, 1750.000
942.0970, 1783.000
943.2180, 1848.000
944.3400, 1873.000
945.4610, 1918.000
946.5820, 1986.000
947.7030, 2074.000
948.8240, 2163.000
949.9450, 2226.195
951.0650, 2222.000
952.1860, 2359.000
953.3060, 2409.000
954.4260, 2471.000
955.5460, 2684.000
956.6650, 2739.000
957.7850, 2949.000
958.9040, 3154.000
960.0230, 3425.000
961.1420, 3818.000
962.2610, 4164.000
963.3800, 4569.000
964.4990, 5189.000
965.6170, 5914.000
966.7350, 7019.000
967.8530, 8086.000
968.9710, 9886.000
970.0890, 12114.00
971.2070, 15484.00
972.3240, 19482.00
973.4410, 25335.00
974.5580, 32745.00
975.6750, 41770.00
976.7920, 51588.00
977.9090, 58780.00
979.0250, 61111.00
980.1410, 56760.00
981.2580, 47761.00
982.3740, 38248.00
983.4890, 29430.00
984.6050, 22639.00
985.7200, 17767.00
986.8360, 14506.00
987.9510, 12010.00
989.0660, 10281.00
990.1810, 8847.000
991.2950, 7817.000
992.4100, 6916.000
993.5240, 6323.000
994.6390, 5712.000
995.7530, 5248.000
996.8660, 4917.000
997.9800, 4648.000
999.0940, 4352.000
1000.207, 4123.000
1001.320, 3978.000
1002.433, 3741.000
1003.546, 3612.000
1004.659, 3435.000
1005.772, 3351.000
1006.884, 3285.000
1007.996, 3228.000
1009.108, 3063.000
1010.220, 2982.000
1011.332, 2973.000
1012.444, 2848.000
1013.555, 2823.000
1014.666, 2731.000
1015.777, 2738.000
1016.888, 2717.000
1017.999, 2627.000
1019.110, 2604.000
1020.220, 2527.000
1021.331, 2553.000
1022.441, 2542.000
1023.551, 2503.000
1024.661, 2510.000
1025.770, 2418.000
1026.880, 2472.000
1027.989, 2556.000
1029.098, 2468.000
1030.207, 2473.000
1031.316, 2459.000
1032.425, 2471.000
1033.533, 2485.014
1034.642, 2511.000
1035.750, 2533.000
1036.858, 2559.000
1037.966, 2582.446
1039.073, 2607.911
1040.181, 2628.000
1041.288, 2658.000
1042.396, 2677.000
1043.503, 2746.000
1044.610, 2807.069
1045.716, 2916.000
1046.823, 2968.000
1047.929, 3047.000
1049.036, 3124.000
1050.142, 3317.000
1051.248, 3481.000
1052.353, 3572.000
1053.459, 3793.000
1054.564, 3887.000
1055.670, 3933.000
1056.775, 4054.000
1057.880, 4213.000
1058.985, 4167.000
1060.089, 4275.000
1061.194, 4240.000
1062.298, 4153.000
1063.402, 4074.000
1064.506, 4000.672
1065.610, 3890.464
1066.713, 3823.000
1067.817, 3691.000
1068.920, 3586.000
1070.023, 3528.000
1071.126, 3376.000
1072.229, 3302.000
1073.332, 3181.000
1074.435, 3024.000
1075.537, 3082.000
1076.639, 2991.000
1077.741, 2869.000
1078.843, 2860.000
1079.945, 2796.000
1081.046, 2735.000
1082.148, 2666.000
1083.249, 2697.000
1084.350, 2600.000
1085.451, 2569.000
1086.551, 2568.000
1087.652, 2455.000
1088.752, 2490.000
1089.853, 2459.000
1090.953, 2391.000
1092.053, 2414.000
1093.152, 2340.000
1094.252, 2348.000
1095.351, 2277.000
1096.451, 2263.000
1097.550, 2302.000
1098.649, 2264.000
1099.748, 2285.000
1100.846, 2286.000
1101.945, 2186.000
1103.043, 2151.000
1104.141, 2166.000
1105.239, 2195.000
1106.337, 2189.000
1107.434, 2128.000
1108.532, 2148.000
1109.629, 2121.000
1110.726, 2100.000
1111.823, 2102.000
1112.920, 2088.810
1114.017, 2094.000
1115.113, 2092.000
1116.210, 2118.000
1117.306, 2136.000
1118.402, 2173.000
1119.498, 2060.000
1120.593, 2096.000
1121.689, 2098.000
1122.784, 2146.000
1123.879, 2131.000
1124.974, 2106.000
1126.069, 2126.000
1127.164, 2091.000
1128.259, 2154.000
1129.353, 2138.000
1130.447, 2068.000
1131.541, 2159.000
1132.635, 2157.000
1133.729, 2124.000
1134.822, 2197.000
1135.916, 2188.000
1137.009, 2136.000
1138.102, 2190.000
1139.195, 2223.000
1140.288, 2232.000
1141.380, 2319.000
1142.473, 2246.000
1143.565, 2363.000
1144.657, 2349.000
1145.749, 2378.000
1146.841, 2502.000
1147.932, 2499.000
1149.024, 2539.000
1150.115, 2608.000
1151.206, 2696.000
1152.297, 2748.290
1153.388, 2842.000
1154.479, 2877.000
1155.569, 2949.000
1156.659, 3003.000
1157.750, 2962.000
1158.839, 2958.000
1159.929, 2944.000
1161.019, 2903.000
1162.108, 2843.000
1163.198, 2750.000
1164.287, 2715.000
1165.376, 2587.000
1166.465, 2494.000
1167.553, 2452.000
1168.642, 2363.315
1169.730, 2330.898
1170.818, 2262.000
1171.906, 2251.000
1172.994, 2234.000
1174.082, 2159.000
1175.170, 2146.000
1176.257, 2140.000
1177.344, 2124.000
1178.431, 2110.000
1179.518, 2057.000
1180.605, 2093.000
1181.691, 2072.000
1182.778, 2008.000
1183.864, 2062.000
1184.950, 1973.000
1186.036, 1997.000
1187.122, 1998.000
1188.207, 1968.000
1189.292, 1918.000
1190.378, 1942.000
1191.463, 1909.000
1192.548, 1941.000
1193.632, 1952.000
1194.717, 1865.000
1195.801, 1848.000
1196.886, 1904.000
1197.970, 1868.000
1199.054, 1859.000
1200.137, 1852.000
1201.221, 1828.000
1202.305, 1834.240
1203.388, 1799.000
1204.471, 1831.000
1205.554, 1814.000
1206.637, 1794.000
1207.719, 1773.000
1208.802, 1731.000
1209.884, 1740.785
1210.966, 1734.573
1212.048, 1753.000
1213.130, 1766.000
1214.212, 1775.000
1215.293, 1813.000
1216.374, 1798.000
1217.456, 1824.000
1218.536, 1779.000
1219.617, 1816.000
1220.698, 1807.000
1221.778, 1729.000
1222.859, 1779.000
1223.939, 1736.000
1225.019, 1787.000
1226.099, 1763.000
1227.178, 1740.000
1228.258, 1738.000
1229.337, 1721.000
1230.417, 1724.000
1231.496, 1693.000
1232.574, 1693.000
1233.653, 1686.000
1234.732, 1693.000
1235.810, 1668.000
1236.888, 1677.000
1237.966, 1648.000
1239.044, 1657.000
