##NAMES=Ankerite
##RRUFFID=R050197
##IDEAL CHEMISTRY=CaFe^2+^(CO_3_)_2_
##LOCALITY=Brownley Hill mine, Nenthead, Cumbria, England
##OWNER=RRUFF
##SOURCE=Marcus Origlieri
##DESCRIPTION=Curved saddle-shaped rhombohedral crystals
##STATUS=The identification of this mineral has been confirmed by X-ray diffraction and chemical analysis
##URL=rruff.info/R050197
##MEASURED CHEMISTRY=Ca_1.00_(Fe^2+^_0.52_Mg_0.35_Ca_0.08_Mn^2+^_0.05_)_Î£=1_(CO_3_)_2_ ; where C was not measured but estimated by difference and stoichiometry
##PIN_ID=M00092
##ORIENTATION=Laser parallel to a* (1 0 0). Fiducial mark perpendicular to laser is parallel to c [0 0 1]
114.4400, 8765.000
115.6710, 8838.000
116.9030, 9001.000
118.1340, 8932.000
119.3650, 9047.000
120.5960, 8976.000
121.8270, 9028.000
123.0580, 9126.000
124.2880, 9139.000
125.5190, 9234.025
126.7490, 9277.000
127.9790, 9403.000
129.2090, 9488.000
130.4390, 9598.536
131.6680, 9743.663
132.8980, 9876.907
134.1270, 10033.00
135.3560, 10202.00
136.5850, 10331.88
137.8140, 10514.00
139.0430, 10567.00
140.2710, 10708.00
141.5000, 10884.00
142.7280, 10855.00
143.9560, 10856.00
145.1840, 11014.00
146.4120, 10866.00
147.6390, 10923.00
148.8670, 10924.00
150.0940, 10818.00
151.3210, 10843.00
152.5490, 11020.00
153.7750, 10935.00
155.0020, 11063.00
156.2290, 11116.00
157.4550, 11357.00
158.6810, 11470.00
159.9080, 11712.00
161.1340, 11817.00
162.3590, 12076.00
163.5850, 12118.00
164.8110, 12497.00
166.0360, 12783.00
167.2610, 12737.00
168.4860, 12801.00
169.7110, 12688.00
170.9360, 12724.00
172.1610, 12699.00
173.3850, 12338.00
174.6100, 11939.00
175.8340, 11869.00
177.0580, 11534.00
178.2820, 11374.00
179.5050, 11179.00
180.7290, 10910.00
181.9520, 10908.00
183.1760, 10847.00
184.3990, 10716.00
185.6220, 10651.00
186.8450, 10569.00
188.0670, 10690.00
189.2900, 10866.00
190.5120, 10672.00
191.7340, 10698.00
192.9560, 10525.00
194.1780, 10750.00
195.4000, 10825.00
196.6220, 10638.00
197.8430, 10773.00
199.0640, 10681.00
200.2860, 10716.00
201.5070, 10692.00
202.7270, 10711.00
203.9480, 10641.00
205.1690, 10632.00
206.3890, 10545.00
207.6090, 10592.00
208.8290, 10591.00
210.0490, 10699.00
211.2690, 10579.00
212.4890, 10580.00
213.7080, 10632.00
214.9280, 10612.54
216.1470, 10852.00
217.3660, 10707.00
218.5850, 10740.00
219.8030, 10830.00
221.0220, 10748.00
222.2400, 10717.00
223.4590, 10817.00
224.6770, 10849.00
225.8950, 10872.26
227.1120, 10935.29
228.3300, 10925.00
229.5480, 10969.00
230.7650, 10972.00
231.9820, 10882.00
233.1990, 11125.00
234.4160, 10876.00
235.6330, 11101.00
236.8490, 11022.00
238.0660, 11088.00
239.2820, 11279.00
240.4980, 11299.00
241.7140, 11198.00
242.9300, 11419.00
244.1460, 11352.00
245.3610, 11512.00
246.5770, 11441.00
247.7920, 11594.00
249.0070, 11769.00
250.2220, 11793.00
251.4370, 11835.00
252.6510, 12000.00
253.8660, 12079.00
255.0800, 12329.00
256.2940, 12351.00
257.5080, 12560.00
258.7220, 12900.00
259.9360, 13036.43
261.1490, 13251.36
262.3630, 13529.00
263.5760, 13666.00
264.7890, 13939.00
266.0020, 14326.00
267.2150, 14609.00
268.4270, 14920.00
269.6400, 15239.00
270.8520, 15862.00
272.0640, 16195.00
273.2760, 16720.00
274.4880, 17253.00
275.7000, 17493.00
276.9120, 17937.00
278.1230, 18252.00
279.3340, 18486.00
280.5450, 18842.00
281.7560, 18797.00
282.9670, 19077.00
284.1780, 19083.00
285.3880, 19081.00
286.5980, 18958.00
287.8090, 18695.00
289.0190, 18453.00
290.2290, 17979.00
291.4380, 17728.00
292.6480, 17429.00
293.8570, 16720.00
295.0670, 16224.00
296.2760, 15989.00
297.4850, 15738.00
298.6930, 15255.00
299.9020, 14780.00
301.1110, 14534.00
302.3190, 14195.00
303.5270, 13990.00
304.7350, 13666.00
305.9430, 13530.00
307.1510, 13305.00
308.3580, 13143.00
309.5660, 12937.00
310.7730, 12860.73
311.9800, 12967.00
313.1870, 12720.00
314.3940, 12728.00
315.6010, 12622.00
316.8070, 12564.00
318.0130, 12475.00
319.2200, 12553.00
320.4260, 12473.00
321.6310, 12530.00
322.8370, 12394.00
324.0430, 12529.00
325.2480, 12525.00
326.4540, 12321.00
327.6590, 12448.00
328.8640, 12353.00
330.0680, 12335.00
331.2730, 12344.00
332.4780, 12335.00
333.6820, 12247.00
334.8860, 12308.00
336.0900, 12335.00
337.2940, 12259.00
338.4980, 12453.00
339.7010, 12372.00
340.9050, 12442.00
342.1080, 12418.00
343.3110, 12313.00
344.5140, 12412.00
345.7170, 12533.00
346.9200, 12295.00
348.1220, 12381.00
349.3240, 12585.00
350.5270, 12394.00
351.7290, 12314.00
352.9310, 12545.00
354.1320, 12479.00
355.3340, 12478.00
356.5350, 12574.00
357.7370, 12531.00
358.9380, 12427.00
360.1390, 12521.00
361.3400, 12586.00
362.5400, 12651.00
363.7410, 12691.19
364.9410, 12594.00
366.1410, 12679.00
367.3410, 12641.00
368.5410, 12486.00
369.7410, 12543.00
370.9400, 12683.00
372.1400, 12604.00
373.3390, 12649.00
374.5380, 12664.00
375.7370, 12781.00
376.9360, 12838.00
378.1350, 12769.00
379.3330, 12903.00
380.5310, 12667.00
381.7300, 12783.00
382.9280, 12791.00
384.1260, 12865.00
385.3230, 12902.98
386.5210, 12808.00
387.7180, 12918.00
388.9160, 12944.00
390.1130, 12854.00
391.3100, 12989.00
392.5060, 12935.00
393.7030, 12912.00
394.9000, 13059.00
396.0960, 13170.00
397.2920, 12955.00
398.4880, 12949.00
399.6840, 13075.00
400.8800, 13070.00
402.0750, 13083.00
403.2710, 13079.00
404.4660, 13075.00
405.6610, 13105.00
406.8560, 13121.66
408.0510, 13091.00
409.2450, 13183.00
410.4400, 13244.00
411.6340, 13272.00
412.8280, 13147.00
414.0220, 13209.00
415.2160, 13191.00
416.4100, 13070.00
417.6030, 13388.00
418.7970, 13190.00
419.9900, 13306.00
421.1830, 13265.00
422.3760, 13475.00
423.5690, 13410.00
424.7610, 13287.00
425.9540, 13395.00
427.1460, 13398.00
428.3380, 13329.00
429.5300, 13455.00
430.7220, 13478.00
431.9140, 13406.00
433.1050, 13490.00
434.2970, 13499.00
435.4880, 13534.00
436.6790, 13579.00
437.8700, 13520.00
439.0610, 13635.00
440.2510, 13616.00
441.4420, 13556.00
442.6320, 13629.00
443.8220, 13683.00
445.0120, 13653.00
446.2020, 13666.00
447.3910, 13692.00
448.5810, 13721.50
449.7700, 13779.00
450.9600, 13769.00
452.1490, 13830.00
453.3370, 13739.00
454.5260, 13761.00
455.7150, 13743.00
456.9030, 13899.00
458.0910, 13859.00
459.2800, 13843.00
460.4670, 14010.00
461.6550, 13846.00
462.8430, 13764.00
464.0300, 13888.00
465.2180, 14019.00
466.4050, 13930.00
467.5920, 14045.00
468.7790, 14032.00
469.9650, 14073.00
471.1520, 14023.00
472.3380, 14026.00
473.5250, 14119.00
474.7110, 14067.00
475.8970, 14294.00
477.0820, 14237.00
478.2680, 14349.00
479.4540, 14381.00
480.6390, 14336.00
481.8240, 14284.00
483.0090, 14119.00
484.1940, 14381.00
485.3780, 14264.00
486.5630, 14369.00
487.7470, 14435.00
488.9320, 14418.00
490.1160, 14422.00
491.3000, 14436.00
492.4830, 14459.00
493.6670, 14525.00
494.8500, 14534.00
496.0340, 14460.00
497.2170, 14495.00
498.4000, 14452.00
499.5820, 14498.00
500.7650, 14542.00
501.9480, 14560.00
503.1300, 14648.00
504.3120, 14657.00
505.4940, 14712.71
506.6760, 14900.00
507.8580, 14767.00
509.0390, 14771.00
510.2210, 14715.00
511.4020, 14841.00
512.5830, 14806.00
513.7640, 14960.00
514.9450, 14806.00
516.1250, 14832.00
517.3060, 14987.00
518.4860, 14927.00
519.6660, 14948.00
520.8460, 15074.00
522.0260, 15005.00
523.2060, 15020.00
524.3850, 15010.00
525.5650, 15135.00
526.7440, 15087.00
527.9230, 15152.00
529.1020, 15030.00
530.2810, 15305.00
531.4590, 15096.00
532.6380, 15258.00
533.8160, 15226.00
534.9940, 15113.00
536.1720, 15146.00
537.3500, 15324.00
538.5270, 15289.00
539.7050, 15211.00
540.8820, 15273.00
542.0590, 15215.00
543.2360, 15267.00
544.4130, 15284.73
545.5900, 15490.00
546.7660, 15370.00
547.9430, 15431.00
549.1190, 15539.00
550.2950, 15402.00
551.4710, 15503.00
552.6470, 15482.00
553.8220, 15503.00
554.9980, 15488.00
556.1730, 15603.00
557.3480, 15434.00
558.5230, 15610.00
559.6980, 15553.00
560.8730, 15582.00
562.0470, 15800.00
563.2220, 15700.00
564.3960, 15765.00
565.5700, 15648.00
566.7440, 15750.00
567.9170, 15816.00
569.0910, 15795.00
570.2640, 15872.00
571.4380, 15845.00
572.6110, 15824.00
573.7840, 15996.00
574.9570, 15824.00
576.1290, 15773.00
577.3020, 15988.00
578.4740, 15979.00
579.6460, 15969.00
580.8180, 15946.00
581.9900, 16025.00
583.1620, 15841.00
584.3330, 16049.00
585.5040, 15963.00
586.6760, 16082.00
587.8470, 16023.00
589.0180, 16068.00
590.1880, 16218.00
591.3590, 16091.00
592.5290, 16198.00
593.7000, 16335.00
594.8700, 16308.00
596.0400, 16115.00
597.2090, 16230.00
598.3790, 16090.00
599.5490, 16208.00
600.7180, 16383.00
601.8870, 16461.00
603.0560, 16311.00
604.2250, 16265.00
605.3940, 16389.00
606.5620, 16361.00
607.7300, 16436.00
608.8990, 16495.00
610.0670, 16417.00
611.2350, 16629.00
612.4020, 16732.00
613.5700, 16516.00
614.7370, 16607.00
615.9050, 16510.00
617.0720, 16677.00
618.2390, 16697.00
619.4060, 16604.00
620.5720, 16634.00
621.7390, 16850.00
622.9050, 16833.00
624.0710, 16883.02
625.2370, 16901.00
626.4030, 16859.00
627.5690, 16935.00
628.7340, 16857.00
629.9000, 17035.00
631.0650, 16955.00
632.2300, 17002.00
633.3950, 16991.00
634.5600, 16991.63
635.7240, 17152.00
636.8890, 16970.00
638.0530, 17129.00
639.2170, 17017.00
640.3810, 17119.00
641.5450, 17177.00
642.7080, 17228.00
643.8720, 17324.00
645.0350, 17293.00
646.1980, 17199.00
647.3610, 17248.00
648.5240, 17151.00
649.6870, 17256.00
650.8490, 17356.00
652.0120, 17146.00
653.1740, 17367.00
654.3360, 17308.00
655.4980, 17410.00
656.6600, 17384.00
657.8210, 17402.21
658.9830, 17545.00
660.1440, 17423.00
661.3050, 17350.00
662.4660, 17338.00
663.6270, 17541.00
664.7870, 17458.00
665.9480, 17545.00
667.1080, 17459.00
668.2680, 17539.00
669.4280, 17577.00
670.5880, 17683.00
671.7480, 17697.23
672.9070, 17814.00
674.0670, 17766.00
675.2260, 17720.00
676.3850, 17800.00
677.5440, 17751.00
678.7030, 17750.00
679.8610, 17901.00
681.0200, 17829.00
682.1780, 17844.00
683.3360, 17765.00
684.4940, 17789.08
685.6520, 17834.00
686.8090, 17858.00
687.9670, 17845.00
689.1240, 17941.00
690.2810, 17818.00
691.4380, 17935.00
692.5950, 18142.00
693.7520, 18225.00
694.9080, 18063.00
696.0650, 18148.00
697.2210, 18240.00
698.3770, 18175.00
699.5330, 18225.00
700.6880, 18335.00
701.8440, 18403.00
702.9990, 18488.46
704.1550, 18591.00
705.3100, 18653.00
706.4650, 18739.92
707.6190, 18613.00
708.7740, 18869.00
709.9290, 18779.00
711.0830, 18782.00
712.2370, 19069.00
713.3910, 19209.00
714.5450, 19368.00
715.6980, 19510.00
716.8520, 19591.00
718.0050, 19642.00
719.1580, 19799.00
720.3110, 20095.00
721.4640, 19937.00
722.6170, 19736.00
723.7700, 19949.00
724.9220, 19842.00
726.0740, 19715.00
727.2260, 19637.00
728.3780, 19479.00
729.5300, 19337.00
730.6810, 19372.00
731.8330, 19299.00
732.9840, 19133.00
734.1350, 19135.00
735.2860, 19176.00
736.4370, 18995.00
737.5880, 19112.00
738.7380, 18994.00
739.8880, 19038.00
741.0390, 18924.00
742.1890, 18981.00
743.3380, 18994.00
744.4880, 19042.00
745.6380, 19187.00
746.7870, 18981.00
747.9360, 18920.00
749.0850, 19061.00
750.2340, 19052.00
751.3830, 19123.00
752.5310, 19132.00
753.6800, 19228.00
754.8280, 19050.00
755.9760, 19044.00
757.1240, 19183.00
758.2720, 19285.00
759.4190, 19197.00
760.5670, 19138.00
761.7140, 19298.00
762.8610, 19403.00
764.0080, 19291.00
765.1550, 19395.00
766.3020, 19273.00
767.4480, 19431.00
768.5950, 19284.00
769.7410, 19366.00
770.8870, 19464.00
772.0330, 19370.00
773.1780, 19459.00
774.3240, 19459.00
775.4690, 19563.00
776.6140, 19526.00
777.7590, 19407.00
778.9040, 19550.00
780.0490, 19484.00
781.1940, 19442.00
782.3380, 19520.00
783.4820, 19625.00
784.6260, 19680.00
785.7700, 19637.00
786.9140, 19662.00
788.0580, 19835.00
789.2010, 19618.00
790.3450, 19901.00
791.4880, 19902.00
792.6310, 19841.00
793.7730, 19962.00
794.9160, 19881.00
796.0590, 19813.00
797.2010, 19878.00
798.3430, 19867.00
799.4850, 19928.00
800.6270, 19921.00
801.7690, 19842.00
802.9100, 20075.00
804.0520, 20102.00
805.1930, 20232.00
806.3340, 20015.00
807.4750, 20004.00
808.6160, 20277.00
809.7560, 20146.00
810.8970, 20411.00
812.0370, 20139.00
813.1770, 20208.00
814.3170, 20353.00
815.4570, 20258.00
816.5960, 20285.00
817.7360, 20272.00
818.8750, 20442.00
820.0140, 20554.00
821.1530, 20560.00
822.2920, 20483.00
823.4310, 20378.00
824.5690, 20567.00
825.7070, 20573.00
826.8460, 20750.00
827.9840, 20684.00
829.1220, 20775.00
830.2590, 20646.00
831.3970, 20684.00
832.5340, 20879.00
833.6710, 20803.00
834.8080, 20733.00
835.9450, 20589.00
837.0820, 20772.00
838.2190, 20771.00
839.3550, 20714.00
840.4910, 20970.00
841.6270, 20831.00
842.7630, 20704.00
843.8990, 20926.00
845.0350, 20905.00
846.1700, 20998.00
847.3060, 20979.00
848.4410, 21079.00
849.5760, 20937.00
850.7100, 21053.00
851.8450, 21149.00
852.9800, 21268.00
854.1140, 21338.14
855.2480, 21194.00
856.3820, 21390.00
857.5160, 21380.00
858.6500, 21216.00
859.7830, 21404.00
860.9170, 21447.00
862.0500, 21430.00
863.1830, 21447.00
864.3160, 21407.00
865.4480, 21416.00
866.5810, 21651.00
867.7130, 21397.00
868.8460, 21640.00
869.9780, 21738.00
871.1100, 21576.00
872.2410, 21713.00
873.3730, 21734.00
874.5050, 21643.00
875.6360, 21872.00
876.7670, 21647.00
877.8980, 21603.00
879.0290, 21809.00
880.1590, 21715.00
881.2900, 21864.00
882.4200, 21569.00
883.5500, 21953.00
884.6800, 21904.00
885.8100, 21706.00
886.9400, 21869.00
888.0690, 21960.00
889.1990, 21970.00
890.3280, 22022.00
891.4570, 22092.00
892.5860, 22014.00
893.7140, 21993.00
894.8430, 22078.00
895.9710, 22215.00
897.1000, 21975.00
898.2280, 22111.00
899.3560, 22118.00
900.4830, 22291.00
901.6110, 22087.00
902.7380, 22042.00
903.8660, 22178.00
904.9930, 22228.00
906.1200, 22156.00
907.2460, 22206.00
908.3730, 22379.00
909.5000, 22318.00
910.6260, 22261.00
911.7520, 22482.00
912.8780, 22633.00
914.0040, 22479.00
915.1290, 22464.00
916.2550, 22410.00
917.3800, 22735.00
918.5050, 22786.00
919.6300, 22713.00
920.7550, 22696.00
921.8800, 22705.00
923.0040, 22595.00
924.1290, 22745.00
925.2530, 22784.00
926.3770, 22796.00
927.5010, 22974.00
928.6250, 22877.00
929.7480, 22895.00
930.8720, 22962.00
931.9950, 22952.00
933.1180, 22961.00
934.2410, 22989.00
935.3640, 23001.00
936.4860, 22998.00
937.6090, 23105.00
938.7310, 23218.00
939.8530, 23127.00
940.9750, 23120.00
942.0970, 23230.00
943.2180, 23144.00
944.3400, 23264.00
945.4610, 23232.00
946.5820, 23333.00
947.7030, 23379.00
948.8240, 23362.00
949.9450, 23465.00
951.0650, 23392.00
952.1860, 23245.00
953.3060, 23234.00
954.4260, 23275.79
955.5460, 23361.00
956.6650, 23452.00
957.7850, 23612.00
958.9040, 23692.00
960.0230, 23721.43
961.1420, 23895.00
962.2610, 23759.00
963.3800, 23704.00
964.4990, 23771.00
965.6170, 23866.00
966.7350, 23680.00
967.8530, 23809.00
968.9710, 23840.00
970.0890, 23788.00
971.2070, 23754.00
972.3240, 23870.00
973.4410, 23793.00
974.5580, 24050.00
975.6750, 24083.00
976.7920, 24023.00
977.9090, 24225.00
979.0250, 23975.00
980.1410, 24146.00
981.2580, 24030.00
982.3740, 24027.00
983.4890, 24267.00
984.6050, 24421.00
985.7200, 24290.00
986.8360, 24231.00
987.9510, 24336.00
989.0660, 24399.00
990.1810, 24530.00
991.2950, 24427.00
992.4100, 24401.00
993.5240, 24374.00
994.6390, 24371.00
995.7530, 24492.00
996.8660, 24519.00
997.9800, 24566.00
999.0940, 24655.00
1000.207, 24727.00
1001.320, 24557.00
1002.433, 24763.00
1003.546, 24653.00
1004.659, 24900.00
1005.772, 24979.00
1006.884, 24897.00
1007.996, 24740.00
1009.108, 24581.00
1010.220, 24981.00
1011.332, 24901.00
1012.444, 24950.00
1013.555, 25044.00
1014.666, 24971.00
1015.777, 25028.00
1016.888, 25164.00
1017.999, 25012.00
1019.110, 25316.00
1020.220, 25219.00
1021.331, 25070.00
1022.441, 25365.00
1023.551, 25291.00
1024.661, 25411.00
1025.770, 25357.00
1026.880, 25448.00
1027.989, 25477.00
1029.098, 25406.00
1030.207, 25470.00
1031.316, 25450.00
1032.425, 25789.00
1033.533, 25467.00
1034.642, 25518.00
1035.750, 25831.00
1036.858, 25530.00
1037.966, 25752.00
1039.073, 25668.00
1040.181, 25636.00
1041.288, 25952.00
1042.396, 25950.00
1043.503, 25921.00
1044.610, 25907.00
1045.716, 25874.00
1046.823, 25933.00
1047.929, 25963.65
1049.036, 26110.00
1050.142, 26093.00
1051.248, 26264.00
1052.353, 26330.00
1053.459, 26314.00
1054.564, 26268.00
1055.670, 26454.00
1056.775, 26454.00
1057.880, 26468.00
1058.985, 26407.00
1060.089, 26629.00
1061.194, 26489.00
1062.298, 26580.00
1063.402, 26724.00
1064.506, 26691.32
1065.610, 27032.00
1066.713, 26814.00
1067.817, 26990.00
1068.920, 27118.00
1070.023, 27366.00
1071.126, 27546.68
1072.229, 27681.00
1073.332, 27915.00
1074.435, 28074.00
1075.537, 28118.00
1076.639, 28259.00
1077.741, 28610.00
1078.843, 29233.00
1079.945, 29845.00
1081.046, 30687.00
1082.148, 32022.00
1083.249, 33504.00
1084.350, 36306.00
1085.451, 39158.00
1086.551, 42746.00
1087.652, 47265.00
1088.752, 51229.00
1089.853, 55201.00
1090.953, 58010.00
1092.053, 58861.00
1093.152, 58071.00
1094.252, 55162.00
1095.351, 50781.00
1096.451, 46274.00
1097.550, 41571.00
1098.649, 37766.00
1099.748, 34878.00
1100.846, 32901.00
1101.945, 31629.00
1103.043, 30379.00
1104.141, 29443.00
1105.239, 29013.00
1106.337, 28659.00
1107.434, 28455.00
1108.532, 28199.57
1109.629, 28003.00
1110.726, 27977.00
1111.823, 27989.00
1112.920, 28110.00
1114.017, 27989.00
1115.113, 27839.00
1116.210, 27947.00
1117.306, 27705.00
1118.402, 27965.00
1119.498, 28042.00
1120.593, 28079.00
1121.689, 28025.00
1122.784, 27922.00
1123.879, 28241.00
1124.974, 27938.00
1126.069, 28000.00
1127.164, 27898.00
1128.259, 28105.00
1129.353, 28138.00
1130.447, 27876.00
1131.541, 28204.00
1132.635, 27986.00
1133.729, 27967.00
1134.822, 27870.00
1135.916, 28018.00
1137.009, 28009.00
1138.102, 27963.00
1139.195, 27911.00
1140.288, 28073.00
1141.380, 28196.00
1142.473, 28046.00
1143.565, 28245.00
1144.657, 28141.00
1145.749, 28256.00
1146.841, 28152.00
1147.932, 28022.00
1149.024, 28268.00
1150.115, 28316.00
1151.206, 28228.00
1152.297, 28359.00
1153.388, 28424.00
1154.479, 28543.00
1155.569, 28330.00
1156.659, 28405.00
1157.750, 28529.00
1158.839, 28407.00
1159.929, 28625.00
1161.019, 28411.00
1162.108, 28352.00
1163.198, 28534.00
1164.287, 28556.00
1165.376, 28706.00
1166.465, 28746.00
1167.553, 28779.00
1168.642, 28708.00
1169.730, 28875.00
1170.818, 28769.00
1171.906, 28829.00
1172.994, 28658.00
1174.082, 28795.72
1175.170, 28915.00
1176.257, 28988.00
1177.344, 28987.00
1178.431, 28982.00
1179.518, 28956.00
1180.605, 28928.00
1181.691, 29206.00
1182.778, 29127.00
1183.864, 29041.00
1184.950, 28915.00
1186.036, 29129.00
1187.122, 29217.00
1188.207, 29084.00
1189.292, 29117.00
1190.378, 29224.00
1191.463, 29359.00
1192.548, 29333.01
1193.632, 29379.00
1194.717, 29344.00
1195.801, 29356.00
1196.886, 29420.00
1197.970, 29460.00
1199.054, 29449.00
1200.137, 29495.72
1201.221, 29488.00
1202.305, 29571.00
1203.388, 29507.00
1204.471, 29610.00
1205.554, 29744.00
1206.637, 29586.00
1207.719, 29673.00
1208.802, 29720.00
1209.884, 29728.00
1210.966, 29944.00
1212.048, 29826.00
1213.130, 29965.00
1214.212, 29967.00
1215.293, 30143.00
1216.374, 30138.83
1217.456, 30085.00
1218.536, 30153.00
1219.617, 30079.00
1220.698, 30050.00
1221.778, 29889.00
1222.859, 30111.00
1223.939, 29855.00
1225.019, 30126.00
1226.099, 30116.00
1227.178, 30158.00
1228.258, 30335.00
1229.337, 30283.00
1230.417, 30496.00
1231.496, 30419.00
1232.574, 30543.00
1233.653, 30430.00
1234.732, 30532.00
1235.810, 30376.00
1236.888, 30454.00
1237.966, 30684.00
1239.044, 30489.00
1240.122, 30657.00
1241.199, 30716.00
1242.277, 30617.00
1243.354, 30575.00
1244.431, 30758.00
1245.508, 30738.00
1246.585, 30613.00
1247.661, 30927.00
1248.738, 31097.00
1249.814, 30897.00
1250.890, 30962.00
1251.966, 31030.00
1253.042, 31057.00
1254.117, 31052.00
1255.193, 31007.00
1256.268, 30789.00
1257.343, 31072.00
1258.418, 31051.00
1259.493, 31226.00
1260.567, 30986.00
1261.642, 31040.00
1262.716, 30995.00
1263.790, 31036.00
1264.864, 31359.00
1265.938, 31055.00
1267.011, 31336.00
1268.085, 31460.00
1269.158, 31301.00
1270.231, 31134.00
1271.304, 31511.00
1272.377, 31652.00
1273.450, 31425.00
1274.522, 31494.00
1275.594, 31361.00
1276.666, 31754.00
1277.738, 31575.00
1278.810, 31627.00
1279.882, 31742.00
1280.953, 31352.00
1282.025, 31723.00
1283.096, 31796.00
1284.167, 31624.00
1285.238, 31789.00
1286.308, 31939.00
