##NAMES=Annite
##RRUFFID=R060204
##IDEAL CHEMISTRY=KFe^2+^_3_AlSi_3_O_10_(OH)_2_
##LOCALITY=Mont Saint-Hilaire, Rouville County, Quebec, Canada
##OWNER=RRUFF
##SOURCE=Royal Ontario Museum
##DESCRIPTION=Black mica with pseudohexagonal outines
##STATUS=The identification of this mineral has been confirmed by X-ray diffraction and chemical analysis
##URL=rruff.info/R060204
##MEASURED CHEMISTRY=(K_0.96_Na_0.04_)_Σ=1_(Fe^2+^_2.04_Mg_0.81_Mn_0.09_Ti_0.03_[box]_0.03_)_Σ=3_(Si_3.00_Al_1.00_)O_10_((OH)_1.54_F_0.46_)_Σ=2_
##PIN_ID=M00078
##ORIENTATION=Laser parallel to a* (1 0 0). Fiducial mark perpendicular to laser is parallel to -b [0 -1 0]
307.1510, 18191.00
308.3580, 18060.00
309.5660, 17891.00
310.7730, 17973.00
311.9800, 18052.00
313.1870, 18128.00
314.3940, 18066.00
315.6010, 18020.00
316.8070, 18232.00
318.0130, 17975.00
319.2200, 18231.00
320.4260, 18152.95
321.6310, 18193.00
322.8370, 18162.00
324.0430, 18227.00
325.2480, 18352.00
326.4540, 18314.00
327.6590, 18193.00
328.8640, 18298.00
330.0680, 18490.00
331.2730, 18424.00
332.4780, 18239.00
333.6820, 18461.00
334.8860, 18415.00
336.0900, 18292.00
337.2940, 18365.00
338.4980, 18384.00
339.7010, 18376.66
340.9050, 18374.00
342.1080, 18462.00
343.3110, 18488.00
344.5140, 18594.00
345.7170, 18472.00
346.9200, 18763.00
348.1220, 18876.00
349.3240, 18697.00
350.5270, 18465.00
351.7290, 18629.00
352.9310, 18816.00
354.1320, 18674.00
355.3340, 18586.00
356.5350, 18767.00
357.7370, 18596.00
358.9380, 18708.00
360.1390, 18903.00
361.3400, 18790.00
362.5400, 18726.00
363.7410, 18719.00
364.9410, 18781.00
366.1410, 18790.33
367.3410, 18829.88
368.5410, 18883.00
369.7410, 18865.00
370.9400, 18864.00
372.1400, 18781.00
373.3390, 18892.00
374.5380, 18886.00
375.7370, 18849.00
376.9360, 18987.00
378.1350, 18879.00
379.3330, 18986.00
380.5310, 18952.00
381.7300, 18909.00
382.9280, 18997.63
384.1260, 19043.00
385.3230, 19128.00
386.5210, 19113.00
387.7180, 19221.00
388.9160, 19160.00
390.1130, 19318.00
391.3100, 19193.00
392.5060, 19316.00
393.7030, 19349.00
394.9000, 19102.00
396.0960, 19316.00
397.2920, 19221.00
398.4880, 19453.00
399.6840, 19393.00
400.8800, 19291.00
402.0750, 19539.00
403.2710, 19331.00
404.4660, 19453.00
405.6610, 19277.00
406.8560, 19310.00
408.0510, 19158.00
409.2450, 19128.00
410.4400, 19262.00
411.6340, 19278.00
412.8280, 19319.00
414.0220, 19256.00
415.2160, 19355.00
416.4100, 19086.00
417.6030, 19177.00
418.7970, 19190.00
419.9900, 19145.00
421.1830, 19267.00
422.3760, 19031.00
423.5690, 19204.00
424.7610, 18960.00
425.9540, 19119.00
427.1460, 19000.00
428.3380, 18979.00
429.5300, 18958.00
430.7220, 19069.00
431.9140, 19092.00
433.1050, 19167.00
434.2970, 19144.00
435.4880, 19156.00
436.6790, 19048.00
437.8700, 19022.00
439.0610, 19261.00
440.2510, 19126.00
441.4420, 19152.00
442.6320, 19018.00
443.8220, 19067.00
445.0120, 19067.00
446.2020, 19084.00
447.3910, 19219.00
448.5810, 19224.00
449.7700, 19013.00
450.9600, 19309.00
452.1490, 19003.00
453.3370, 19109.00
454.5260, 19165.00
455.7150, 19142.00
456.9030, 19266.00
458.0910, 19219.00
459.2800, 19359.00
460.4670, 19438.00
461.6550, 19164.00
462.8430, 19037.00
464.0300, 19214.00
465.2180, 19415.00
466.4050, 19476.00
467.5920, 19371.00
468.7790, 19497.00
469.9650, 19481.00
471.1520, 19473.00
472.3380, 19618.00
473.5250, 19618.00
474.7110, 19552.00
475.8970, 19572.67
477.0820, 19779.93
478.2680, 19911.96
479.4540, 19972.75
480.6390, 19748.93
481.8240, 19892.59
483.0090, 19888.98
484.1940, 19879.33
485.3780, 20074.67
486.5630, 19892.25
487.7470, 20084.34
488.9320, 20126.95
490.1160, 20237.96
491.3000, 20046.00
492.4830, 20326.00
493.6670, 20286.00
494.8500, 20160.00
496.0340, 20247.00
497.2170, 20325.00
498.4000, 20434.00
499.5820, 20615.00
500.7650, 20541.00
501.9480, 20511.00
503.1300, 20667.00
504.3120, 20602.00
505.4940, 20724.00
506.6760, 20820.00
507.8580, 20967.00
509.0390, 20886.00
510.2210, 21032.00
511.4020, 21054.00
512.5830, 20968.00
513.7640, 20991.00
514.9450, 21076.00
516.1250, 21067.00
517.3060, 21054.00
518.4860, 21107.29
519.6660, 21194.00
520.8460, 21174.00
522.0260, 21111.00
523.2060, 21158.00
524.3850, 21080.00
525.5650, 21070.60
526.7440, 21101.00
527.9230, 21118.00
529.1020, 21139.00
530.2810, 21380.00
531.4590, 21267.00
532.6380, 21368.00
533.8160, 21236.00
534.9940, 21218.70
536.1720, 21391.39
537.3500, 21488.80
538.5270, 21514.99
539.7050, 21256.59
540.8820, 21365.67
542.0590, 21327.48
543.2360, 21283.26
544.4130, 21444.05
545.5900, 21227.05
546.7660, 21384.60
547.9430, 21392.63
549.1190, 21469.09
550.2950, 21397.38
551.4710, 21371.43
552.6470, 21493.70
553.8220, 21533.90
554.9980, 21445.13
556.1730, 21525.94
557.3480, 21303.76
558.5230, 21347.46
559.6980, 21505.87
560.8730, 21424.55
562.0470, 21508.07
563.2220, 21528.81
564.3960, 21264.23
565.5700, 21495.84
566.7440, 21512.87
567.9170, 21309.57
569.0910, 21524.18
570.2640, 21351.25
571.4380, 21208.00
572.6110, 21450.00
573.7840, 21217.00
574.9570, 21333.00
576.1290, 21205.00
577.3020, 21241.00
578.4740, 21154.00
579.6460, 21171.00
580.8180, 21137.47
581.9900, 21114.00
583.1620, 21077.00
584.3330, 21076.00
585.5040, 21044.00
586.6760, 21223.00
587.8470, 21111.00
589.0180, 21209.00
590.1880, 21254.00
591.3590, 21123.00
592.5290, 20940.00
593.7000, 21215.00
594.8700, 21037.00
596.0400, 21279.00
597.2090, 20993.00
598.3790, 21357.00
599.5490, 21160.00
600.7180, 21321.00
601.8870, 21250.00
603.0560, 21340.00
604.2250, 21387.70
605.3940, 21446.67
606.5620, 21473.00
607.7300, 21628.00
608.8990, 21670.00
610.0670, 21746.00
611.2350, 21703.00
612.4020, 21787.00
613.5700, 21785.00
614.7370, 21674.00
615.9050, 21997.00
617.0720, 21911.00
618.2390, 21850.00
619.4060, 22179.00
620.5720, 22300.00
621.7390, 22431.00
622.9050, 22585.82
624.0710, 22394.00
625.2370, 22713.00
626.4030, 22669.00
627.5690, 22593.00
628.7340, 22843.00
629.9000, 22925.00
631.0650, 22972.00
632.2300, 22997.00
633.3950, 23066.33
634.5600, 23121.61
635.7240, 23120.00
636.8890, 23190.00
638.0530, 23109.00
639.2170, 22985.00
640.3810, 23261.00
641.5450, 23144.00
642.7080, 23297.00
643.8720, 23463.00
645.0350, 23384.00
646.1980, 23246.00
647.3610, 23407.00
648.5240, 23535.00
649.6870, 23543.00
650.8490, 23772.00
652.0120, 23818.00
653.1740, 23945.00
654.3360, 23982.00
655.4980, 24161.00
656.6600, 24340.00
657.8210, 24398.00
658.9830, 24761.00
660.1440, 24812.00
661.3050, 25062.00
662.4660, 25329.00
663.6270, 25510.00
664.7870, 25831.00
665.9480, 25992.00
667.1080, 26921.00
668.2680, 28408.00
669.4280, 27018.00
670.5880, 27277.00
671.7480, 28402.00
672.9070, 27779.00
674.0670, 27864.00
675.2260, 28184.00
676.3850, 28341.00
677.5440, 28456.00
678.7030, 28378.00
679.8610, 28477.00
681.0200, 28115.00
682.1780, 28035.00
683.3360, 28027.00
684.4940, 27637.00
685.6520, 27724.00
686.8090, 27439.00
687.9670, 27264.00
689.1240, 26898.00
690.2810, 26655.00
691.4380, 26447.79
692.5950, 26332.00
693.7520, 26038.00
694.9080, 25920.00
696.0650, 25724.00
697.2210, 25552.00
698.3770, 25249.00
699.5330, 25283.00
700.6880, 25172.00
701.8440, 24948.00
702.9990, 24964.66
704.1550, 24923.00
705.3100, 24865.00
706.4650, 24817.00
707.6190, 24800.00
708.7740, 24579.00
709.9290, 24592.60
711.0830, 24805.00
712.2370, 24524.00
713.3910, 24595.00
714.5450, 24628.00
715.6980, 24399.00
716.8520, 24582.00
718.0050, 24219.00
719.1580, 24562.00
720.3110, 24344.00
721.4640, 24401.00
722.6170, 24462.00
723.7700, 24294.00
724.9220, 24378.00
726.0740, 24113.00
727.2260, 24213.00
728.3780, 24131.00
729.5300, 24209.00
730.6810, 24213.00
731.8330, 24432.00
732.9840, 23852.00
734.1350, 24067.00
735.2860, 23843.00
736.4370, 24005.00
737.5880, 23903.00
738.7380, 23800.00
739.8880, 24000.00
741.0390, 23748.00
742.1890, 23937.00
743.3380, 23835.00
744.4880, 23722.00
745.6380, 23784.00
746.7870, 23795.00
747.9360, 23787.00
749.0850, 23666.00
750.2340, 23887.00
751.3830, 24038.00
752.5310, 23938.00
753.6800, 24038.00
754.8280, 23916.00
755.9760, 24075.00
757.1240, 23952.00
758.2720, 24029.00
759.4190, 24114.00
760.5670, 24126.00
761.7140, 24209.00
762.8610, 24129.00
764.0080, 24220.00
765.1550, 24164.00
766.3020, 24221.00
767.4480, 24070.00
768.5950, 24148.00
769.7410, 24090.00
770.8870, 24174.00
772.0330, 24273.00
773.1780, 24287.00
774.3240, 24235.00
775.4690, 24053.00
776.6140, 24204.00
777.7590, 24121.00
778.9040, 24052.00
780.0490, 24095.00
781.1940, 23999.00
782.3380, 23941.00
783.4820, 24057.00
784.6260, 23958.00
785.7700, 23782.00
786.9140, 23967.00
788.0580, 23740.00
789.2010, 23827.00
790.3450, 24128.00
791.4880, 23412.00
792.6310, 23586.00
793.7730, 23468.00
794.9160, 23527.00
796.0590, 23366.00
797.2010, 23387.00
798.3430, 23763.00
799.4850, 23395.00
800.6270, 23432.00
801.7690, 23511.00
802.9100, 23124.00
804.0520, 23183.00
805.1930, 23345.00
806.3340, 23431.00
807.4750, 23271.00
808.6160, 23154.00
809.7560, 23146.00
810.8970, 23203.00
812.0370, 23194.00
813.1770, 23137.00
814.3170, 23131.00
815.4570, 23050.00
816.5960, 23249.00
817.7360, 23190.00
818.8750, 23252.00
820.0140, 23387.00
821.1530, 23222.00
822.2920, 23156.00
823.4310, 23054.00
824.5690, 23125.00
825.7070, 23330.00
826.8460, 23235.57
827.9840, 23315.40
829.1220, 23244.00
830.2590, 23260.00
831.3970, 23319.00
832.5340, 23187.00
833.6710, 23222.00
834.8080, 23244.00
835.9450, 23293.00
837.0820, 23311.00
838.2190, 23445.00
839.3550, 23373.00
840.4910, 23528.00
841.6270, 23395.00
842.7630, 23410.00
843.8990, 23513.00
845.0350, 23577.00
846.1700, 23517.00
847.3060, 23479.00
848.4410, 23588.00
849.5760, 23495.00
850.7100, 23380.00
851.8450, 23808.00
852.9800, 23388.00
854.1140, 23668.00
855.2480, 23667.00
856.3820, 23617.91
857.5160, 23941.00
858.6500, 23691.00
859.7830, 23710.00
860.9170, 23736.00
862.0500, 23676.34
863.1830, 23660.19
864.3160, 23740.00
865.4480, 23676.00
866.5810, 23739.80
867.7130, 24009.00
868.8460, 24100.00
869.9780, 23908.00
871.1100, 24057.00
872.2410, 23881.00
873.3730, 24201.00
874.5050, 24139.00
875.6360, 24207.00
876.7670, 24113.00
877.8980, 24124.00
879.0290, 24342.00
880.1590, 24165.00
881.2900, 24279.00
882.4200, 24426.00
883.5500, 24512.00
884.6800, 24465.00
885.8100, 24486.00
886.9400, 24514.00
888.0690, 24532.00
889.1990, 24559.00
890.3280, 24703.00
891.4570, 24661.00
892.5860, 24786.00
893.7140, 24779.28
894.8430, 24904.00
895.9710, 24765.00
897.1000, 24848.00
898.2280, 24828.00
899.3560, 24766.00
900.4830, 24990.00
901.6110, 24963.00
902.7380, 25072.00
903.8660, 25372.00
904.9930, 25268.00
906.1200, 25022.00
907.2460, 25252.00
908.3730, 25125.00
909.5000, 25227.00
910.6260, 25320.00
911.7520, 25259.00
912.8780, 25370.00
914.0040, 25548.00
915.1290, 25268.00
916.2550, 25469.00
917.3800, 25475.00
918.5050, 25470.00
919.6300, 25342.00
920.7550, 25511.00
921.8800, 25651.00
923.0040, 25604.23
924.1290, 25680.64
925.2530, 25659.00
926.3770, 25711.00
927.5010, 25798.00
928.6250, 25931.00
929.7480, 25959.00
930.8720, 26003.00
931.9950, 26072.73
933.1180, 26080.29
934.2410, 26161.00
935.3640, 26096.00
936.4860, 26123.00
937.6090, 26089.00
938.7310, 26133.80
939.8530, 26163.00
940.9750, 26207.00
942.0970, 26250.13
943.2180, 26449.00
944.3400, 26406.00
945.4610, 26425.00
946.5820, 26641.00
947.7030, 26582.00
948.8240, 26634.00
949.9450, 26693.50
951.0650, 26591.00
952.1860, 26743.00
953.3060, 26609.00
954.4260, 26624.00
955.5460, 26755.00
956.6650, 26724.00
957.7850, 26793.00
958.9040, 26818.00
960.0230, 26696.00
961.1420, 26993.00
962.2610, 26984.00
963.3800, 26907.00
964.4990, 27121.00
965.6170, 27011.00
966.7350, 26800.00
967.8530, 26931.00
968.9710, 26960.00
970.0890, 26935.31
971.2070, 26993.39
972.3240, 27056.00
973.4410, 27002.00
974.5580, 27177.00
975.6750, 27180.00
976.7920, 27348.00
977.9090, 27366.00
979.0250, 27226.00
980.1410, 27469.00
981.2580, 27334.00
982.3740, 27501.00
983.4890, 27769.00
984.6050, 27685.00
985.7200, 27978.00
986.8360, 27716.00
987.9510, 27889.00
989.0660, 28051.00
990.1810, 27835.00
991.2950, 28194.00
992.4100, 28276.00
993.5240, 28193.76
994.6390, 28355.00
995.7530, 28149.00
996.8660, 28299.00
997.9800, 28407.00
999.0940, 28421.00
1000.207, 28669.00
1001.320, 28525.00
1002.433, 28686.00
1003.546, 28782.00
1004.659, 28824.78
1005.772, 29101.00
1006.884, 29096.00
1007.996, 29109.00
1009.108, 29366.00
1010.220, 29502.00
1011.332, 29625.00
1012.444, 29616.00
1013.555, 29800.00
1014.666, 29878.00
1015.777, 29921.00
1016.888, 30219.00
1017.999, 30201.00
1019.110, 30152.00
1020.220, 30330.00
1021.331, 30573.00
1022.441, 30470.00
1023.551, 30630.00
1024.661, 30219.00
1025.770, 30527.00
1026.880, 30269.00
1027.989, 30394.00
1029.098, 30402.00
1030.207, 30092.00
1031.316, 30106.00
1032.425, 30045.00
1033.533, 30025.00
1034.642, 30199.00
1035.750, 30037.00
1036.858, 29839.00
1037.966, 30000.00
1039.073, 30008.00
1040.181, 29924.43
1041.288, 29823.00
1042.396, 29795.00
1043.503, 29761.00
1044.610, 29641.00
1045.716, 29696.00
1046.823, 29609.00
1047.929, 29555.00
1049.036, 29675.00
1050.142, 29524.00
1051.248, 29632.00
1052.353, 29491.00
1053.459, 29572.00
1054.564, 29574.59
1055.670, 29547.12
1056.775, 29633.00
1057.880, 29559.00
1058.985, 29620.00
1060.089, 29640.00
1061.194, 29869.00
1062.298, 29750.00
1063.402, 29578.00
1064.506, 29435.00
1065.610, 29677.00
1066.713, 29651.00
1067.817, 29894.00
1068.920, 29661.00
1070.023, 29600.00
1071.126, 29666.00
1072.229, 29669.00
1073.332, 29754.00
1074.435, 29673.00
1075.537, 29603.00
1076.639, 29700.00
1077.741, 29634.00
1078.843, 29673.00
1079.945, 29825.00
1081.046, 29894.95
1082.148, 29896.16
1083.249, 29952.54
1084.350, 29813.00
1085.451, 29974.00
1086.551, 29814.00
1087.652, 29849.00
1088.752, 29898.50
1089.853, 29486.00
1090.953, 29834.00
1092.053, 29730.00
1093.152, 29371.00
1094.252, 29473.00
1095.351, 29270.72
1096.451, 29550.00
1097.550, 29056.00
1098.649, 29225.00
1099.748, 29095.00
1100.846, 29159.00
1101.945, 29211.00
1103.043, 29288.00
1104.141, 29025.00
1105.239, 29157.00
1106.337, 29093.00
1107.434, 29120.00
1108.532, 29254.00
1109.629, 29113.00
1110.726, 29105.93
1111.823, 29136.00
1112.920, 28941.00
1114.017, 29097.00
1115.113, 29072.00
1116.210, 28858.00
1117.306, 29204.00
1118.402, 29011.00
1119.498, 29110.00
1120.593, 29187.00
1121.689, 29105.00
1122.784, 29187.00
1123.879, 29143.00
1124.974, 29097.00
1126.069, 29108.00
1127.164, 29095.00
1128.259, 29074.00
1129.353, 29084.00
1130.447, 29004.00
1131.541, 29040.00
1132.635, 29087.00
1133.729, 28976.00
1134.822, 29139.00
1135.916, 29040.00
1137.009, 29302.00
1138.102, 29094.00
1139.195, 29466.00
1140.288, 28935.00
1141.380, 29137.00
1142.473, 29076.00
1143.565, 29148.00
1144.657, 29087.00
1145.749, 29073.00
1146.841, 29103.73
1147.932, 29160.65
1149.024, 29195.00
1150.115, 29089.77
1151.206, 29273.48
1152.297, 29381.91
1153.388, 29419.11
1154.479, 29171.74
1155.569, 29291.82
1156.659, 29264.64
1157.750, 29231.43
1158.839, 29403.23
1159.929, 29197.23
1161.019, 29365.79
1162.108, 29384.82
1163.198, 29472.29
1164.287, 29411.57
1165.376, 29396.62
1166.465, 29529.89
1167.553, 29581.08
1168.642, 29503.31
1169.730, 29595.11
1170.818, 29383.91
1171.906, 29438.60
1172.994, 29608.00
1174.082, 29537.66
1175.170, 29632.17
1176.257, 29663.88
1177.344, 29410.29
1178.431, 29652.88
1179.518, 29680.88
1180.605, 29488.56
1181.691, 29714.13
1182.778, 29552.18
1183.864, 29528.55
1184.950, 29609.01
1186.036, 29580.96
1187.122, 29724.00
1188.207, 29702.20
1189.292, 29665.68
1190.378, 29693.43
1191.463, 29539.06
1192.548, 29722.54
1193.632, 29675.23
1194.717, 29742.65
1195.801, 29836.07
1196.886, 29730.39
1197.970, 29835.48
1199.054, 29613.70
1200.137, 29635.00
1201.221, 29896.00
1202.305, 29672.00
1203.388, 29847.00
1204.471, 29778.00
1205.554, 29843.00
1206.637, 30092.00
1207.719, 29983.00
1208.802, 29813.00
1209.884, 30189.00
1210.966, 29941.00
1212.048, 29922.00
1213.130, 30120.00
1214.212, 30136.00
1215.293, 30086.00
1216.374, 30190.00
1217.456, 30150.00
1218.536, 30246.00
1219.617, 30196.00
1220.698, 30239.31
1221.778, 30440.00
1222.859, 30278.00
1223.939, 30277.00
1225.019, 30257.00
1226.099, 30412.00
1227.178, 30423.49
1228.258, 30393.00
1229.337, 30553.00
1230.417, 30467.00
1231.496, 30479.00
1232.574, 30452.00
1233.653, 30537.00
1234.732, 30710.00
1235.810, 30493.17
1236.888, 30437.00
1237.966, 30449.00
1239.044, 30855.00
1240.122, 30683.94
1241.199, 30868.00
1242.277, 30609.00
1243.354, 30630.00
1244.431, 30546.00
1245.508, 30693.00
1246.585, 30721.00
1247.661, 30760.00
1248.738, 30768.00
1249.814, 30842.80
1250.890, 30813.91
1251.966, 30852.06
1253.042, 30761.00
1254.117, 30928.00
1255.193, 30886.00
1256.268, 31007.00
1257.343, 30858.00
1258.418, 30960.00
1259.493, 30962.39
1260.567, 30959.23
1261.642, 30980.00
1262.716, 31066.00
1263.790, 31013.00
1264.864, 31158.00
1265.938, 31130.71
1267.011, 31135.45
1268.085, 31181.00
1269.158, 31097.00
1270.231, 31210.00
1271.304, 31165.00
1272.377, 31199.00
1273.450, 31179.00
1274.522, 31342.00
1275.594, 31299.00
1276.666, 31358.00
1277.738, 31451.00
1278.810, 31433.60
1279.882, 31458.00
1280.953, 31310.64
1282.025, 31511.51
1283.096, 31637.07
1284.167, 31691.40
1285.238, 31461.16
1286.308, 31598.36
1287.379, 31588.32
1288.449, 31572.21
1289.519, 31761.13
1290.589, 31572.25
1291.659, 31757.92
1292.729, 31794.07
1293.798, 31898.63
1294.868, 31855.04
1295.937, 31857.19
1297.006, 32007.56
1298.075, 32075.86
1299.143, 32015.15
1300.212, 32124.06
1301.280, 31929.95
1302.348, 32001.72
1303.416, 32188.20
1304.484, 32134.95
1305.552, 32246.53
1306.620, 32295.34
1307.687, 32058.81
1308.754, 32318.46
1309.821, 32363.54
1310.888, 32188.27
1311.955, 32430.93
1313.021, 32286.02
1314.088, 32279.46
1315.154, 32376.98
1316.220, 32365.97
1317.286, 32526.06
1318.352, 32521.32
1319.417, 32501.83
1320.483, 32546.63
1321.548, 32409.29
1322.613, 32609.81
1323.678, 32579.55
1324.743, 32664.00
1325.807, 32774.43
1326.872, 32685.78
1327.936, 32807.90
1329.000, 32603.13
1330.064, 32671.88
1331.128, 32711.17
1332.191, 32626.00
1333.255, 32733.00
1334.318, 32759.68
1335.381, 32667.23
1336.444, 32709.00
1337.507, 32646.00
1338.569, 32708.00
1339.632, 32902.00
1340.694, 33149.00
1341.756, 32772.00
1342.818, 32956.00
1343.880, 32811.00
1344.941, 32953.00
1346.003, 33089.00
1347.064, 32928.00
1348.125, 32746.00
1349.186, 33307.00
1350.247, 33303.00
1351.308, 32705.00
1352.368, 33071.00
1353.428, 33327.00
1354.489, 33332.00
1355.549, 33175.00
1356.608, 33178.00
1357.668, 33139.00
1358.727, 33291.00
1359.787, 33262.00
1360.846, 33351.00
1361.905, 33296.00
1362.964, 33187.00
1364.022, 33083.00
1365.081, 33275.00
1366.139, 33336.00
1367.197, 33237.00
1368.255, 33106.00
1369.313, 33523.00
1370.371, 33267.00
1371.428, 33557.00
1372.486, 33348.00
1373.543, 33475.00
1374.600, 33538.00
1375.657, 33449.00
1376.713, 33467.00
1377.770, 33689.00
1378.826, 33408.00
1379.882, 33347.00
1380.938, 33510.00
1381.994, 33470.00
1383.050, 33564.00
1384.106, 33525.00
1385.161, 33384.00
1386.216, 33730.00
1387.271, 33427.00
1388.326, 33783.00
1389.381, 33528.00
1390.435, 33646.00
1391.490, 33563.00
1392.544, 33554.38
1393.598, 33692.00
1394.652, 33536.00
1395.705, 33726.06
1396.759, 33582.96
1397.812, 33751.00
1398.866, 33808.00
1399.919, 33705.00
1400.972, 33946.00
1402.024, 33861.00
1403.077, 33890.00
1404.129, 33770.00
1405.181, 33927.00
1406.233, 34063.00
1407.285, 34073.00
1408.337, 33990.00
1409.389, 33844.00
1410.440, 33793.00
1411.491, 33965.00
1412.542, 33956.00
1413.593, 34154.00
1414.644, 33999.00
1415.695, 33943.00
1416.745, 34097.00
1417.795, 34187.00
1418.845, 34207.00
1419.895, 34320.00
1420.945, 34176.00
1421.995, 34214.00
1423.044, 34341.00
1424.093, 34081.00
1425.142, 34298.00
1426.191, 34281.00
1427.240, 34320.00
1428.289, 34240.00
1429.337, 34230.00
1430.385, 34237.38
1431.433, 34196.00
1432.481, 34229.00
1433.529, 34224.30
1434.577, 34271.00
1435.624, 34247.00
1436.672, 34267.00
1437.719, 34279.61
1438.766, 34337.58
1439.812, 34398.00
1440.859, 34389.00
1441.905, 34537.00
1442.952, 34359.00
1443.998, 34538.00
1445.044, 34470.00
1446.090, 34564.00
1447.135, 34781.00
1448.181, 34395.00
1449.226, 34603.00
1450.271, 34656.00
1451.316, 34614.00
1452.361, 34452.00
1453.405, 34649.00
