##NAMES=Annite
##RRUFFID=R060204
##IDEAL CHEMISTRY=KFe^2+^_3_AlSi_3_O_10_(OH)_2_
##LOCALITY=Mont Saint-Hilaire, Rouville County, Quebec, Canada
##OWNER=RRUFF
##SOURCE=Royal Ontario Museum
##DESCRIPTION=Black mica with pseudohexagonal outines
##STATUS=The identification of this mineral has been confirmed by X-ray diffraction and chemical analysis
##URL=rruff.info/R060204
##MEASURED CHEMISTRY=(K_0.96_Na_0.04_)_Σ=1_(Fe^2+^_2.04_Mg_0.81_Mn_0.09_Ti_0.03_[box]_0.03_)_Σ=3_(Si_3.00_Al_1.00_)O_10_((OH)_1.54_F_0.46_)_Σ=2_
##PIN_ID=M00140
##ORIENTATION=Laser parallel to c* (0 0 1). Fiducial mark perpendicular to laser is parallel to -a [-1 0 0]
307.1510, 29124.00
308.3580, 28870.00
309.5660, 28742.00
310.7730, 28988.00
311.9800, 28834.41
313.1870, 29095.00
314.3940, 28899.00
315.6010, 28915.00
316.8070, 28984.00
318.0130, 29097.00
319.2200, 28940.00
320.4260, 29100.00
321.6310, 29111.00
322.8370, 29117.00
324.0430, 29333.00
325.2480, 29196.89
326.4540, 29314.00
327.6590, 29088.00
328.8640, 29228.00
330.0680, 29293.00
331.2730, 29371.00
332.4780, 29261.00
333.6820, 29332.00
334.8860, 29467.00
336.0900, 29412.00
337.2940, 29540.00
338.4980, 29492.00
339.7010, 29853.00
340.9050, 29968.00
342.1080, 30102.00
343.3110, 29904.00
344.5140, 30005.00
345.7170, 30109.00
346.9200, 29963.00
348.1220, 30006.00
349.3240, 30039.00
350.5270, 29998.00
351.7290, 30156.84
352.9310, 30079.98
354.1320, 30311.00
355.3340, 30168.00
356.5350, 29934.00
357.7370, 30287.00
358.9380, 30306.00
360.1390, 30091.00
361.3400, 30275.00
362.5400, 30351.00
363.7410, 30454.00
364.9410, 30435.84
366.1410, 30445.00
367.3410, 30353.00
368.5410, 30340.00
369.7410, 30365.00
370.9400, 30248.00
372.1400, 30179.00
373.3390, 30164.00
374.5380, 30339.00
375.7370, 30480.00
376.9360, 30173.00
378.1350, 30087.00
379.3330, 30323.00
380.5310, 30229.54
381.7300, 30347.00
382.9280, 30515.00
384.1260, 30122.00
385.3230, 30413.00
386.5210, 30352.37
387.7180, 30767.00
388.9160, 30557.00
390.1130, 30417.00
391.3100, 30738.00
392.5060, 30642.00
393.7030, 30507.00
394.9000, 30771.00
396.0960, 30567.00
397.2920, 30804.00
398.4880, 30800.00
399.6840, 30859.00
400.8800, 30918.00
402.0750, 30826.00
403.2710, 30964.00
404.4660, 30886.00
405.6610, 31031.00
406.8560, 31052.00
408.0510, 30908.00
409.2450, 30860.00
410.4400, 30935.00
411.6340, 30992.00
412.8280, 31072.00
414.0220, 31035.00
415.2160, 30943.00
416.4100, 30929.00
417.6030, 30881.00
418.7970, 30796.00
419.9900, 30687.00
421.1830, 30739.00
422.3760, 30798.00
423.5690, 30493.00
424.7610, 30614.14
425.9540, 30511.47
427.1460, 30714.00
428.3380, 30390.00
429.5300, 30641.00
430.7220, 30519.00
431.9140, 30545.00
433.1050, 30366.00
434.2970, 30507.00
435.4880, 30587.00
436.6790, 30466.00
437.8700, 30296.00
439.0610, 30253.00
440.2510, 30113.00
441.4420, 30286.00
442.6320, 30272.00
443.8220, 30342.00
445.0120, 30337.00
446.2020, 30227.00
447.3910, 30257.00
448.5810, 30190.26
449.7700, 30094.00
450.9600, 30113.00
452.1490, 30173.00
453.3370, 30168.12
454.5260, 30163.00
455.7150, 30198.00
456.9030, 30299.00
458.0910, 30442.00
459.2800, 30386.00
460.4670, 30504.00
461.6550, 30499.15
462.8430, 30518.37
464.0300, 30571.00
465.2180, 30534.00
466.4050, 30722.00
467.5920, 30695.00
468.7790, 30795.00
469.9650, 30758.00
471.1520, 30880.00
472.3380, 31133.00
473.5250, 31113.00
474.7110, 31236.00
475.8970, 31397.00
477.0820, 31331.00
478.2680, 31475.00
479.4540, 31414.00
480.6390, 31484.00
481.8240, 31575.00
483.0090, 31611.91
484.1940, 32026.00
485.3780, 31800.00
486.5630, 31999.00
487.7470, 32145.00
488.9320, 32748.00
490.1160, 32604.00
491.3000, 32473.00
492.4830, 32541.00
493.6670, 32446.00
494.8500, 32474.00
496.0340, 32477.00
497.2170, 32456.41
498.4000, 32856.00
499.5820, 32504.00
500.7650, 32685.00
501.9480, 32804.00
503.1300, 32521.00
504.3120, 32764.00
505.4940, 32773.00
506.6760, 32883.00
507.8580, 32869.00
509.0390, 32955.00
510.2210, 32970.81
511.4020, 33105.00
512.5830, 32980.00
513.7640, 33077.00
514.9450, 33042.80
516.1250, 33059.57
517.3060, 33154.00
518.4860, 33150.00
519.6660, 33223.00
520.8460, 33328.00
522.0260, 33469.00
523.2060, 33302.00
524.3850, 33497.00
525.5650, 33524.73
526.7440, 33764.00
527.9230, 33633.00
529.1020, 33840.00
530.2810, 33778.00
531.4590, 34087.00
532.6380, 34483.00
533.8160, 33967.00
534.9940, 33738.00
536.1720, 34135.00
537.3500, 33976.07
538.5270, 34004.55
539.7050, 34345.00
540.8820, 34045.00
542.0590, 34220.00
543.2360, 34408.00
544.4130, 34400.00
545.5900, 34490.96
546.7660, 34529.61
547.9430, 34492.00
549.1190, 34517.00
550.2950, 34476.02
551.4710, 34370.00
552.6470, 34148.00
553.8220, 34271.00
554.9980, 33946.00
556.1730, 33985.00
557.3480, 33869.45
558.5230, 34364.00
559.6980, 33769.00
560.8730, 33587.00
562.0470, 33759.00
563.2220, 33356.00
564.3960, 33596.00
565.5700, 33326.00
566.7440, 33314.00
567.9170, 33083.00
569.0910, 32862.00
570.2640, 33105.00
571.4380, 32717.00
572.6110, 32385.00
573.7840, 32322.00
574.9570, 32450.00
576.1290, 32162.00
577.3020, 32111.00
578.4740, 31875.00
579.6460, 31719.70
580.8180, 31549.58
581.9900, 31481.00
583.1620, 31490.00
584.3330, 31550.00
585.5040, 31450.81
586.6760, 31289.00
587.8470, 31406.00
589.0180, 31202.00
590.1880, 31364.00
591.3590, 31213.00
592.5290, 31224.00
593.7000, 31153.00
594.8700, 31351.00
596.0400, 31434.00
597.2090, 31207.00
598.3790, 31474.00
599.5490, 31315.00
600.7180, 31387.00
601.8870, 31405.00
603.0560, 31316.00
604.2250, 31562.00
605.3940, 31303.00
606.5620, 31295.00
607.7300, 31461.00
608.8990, 31448.00
610.0670, 31575.00
611.2350, 31446.00
612.4020, 31603.00
613.5700, 31409.00
614.7370, 31487.30
615.9050, 31447.69
617.0720, 31531.00
618.2390, 31889.00
619.4060, 31887.00
620.5720, 32007.42
621.7390, 31968.00
622.9050, 32082.00
624.0710, 32044.00
625.2370, 32025.00
626.4030, 32090.00
627.5690, 31939.00
628.7340, 32059.00
629.9000, 32140.00
631.0650, 32176.00
632.2300, 32385.00
633.3950, 32156.00
634.5600, 32405.00
635.7240, 32334.00
636.8890, 32393.00
638.0530, 32510.00
639.2170, 32409.00
640.3810, 32420.00
641.5450, 32788.00
642.7080, 32619.00
643.8720, 32901.00
645.0350, 33021.00
646.1980, 32754.00
647.3610, 33218.00
648.5240, 33163.00
649.6870, 33267.00
650.8490, 33527.00
652.0120, 33472.00
653.1740, 33563.00
654.3360, 33741.00
655.4980, 33807.00
656.6600, 34151.00
657.8210, 34408.00
658.9830, 34833.00
660.1440, 34805.00
661.3050, 35013.00
662.4660, 35393.00
663.6270, 35523.00
664.7870, 36093.00
665.9480, 36300.00
667.1080, 36652.00
668.2680, 36905.00
669.4280, 37506.00
670.5880, 37756.00
671.7480, 37976.87
672.9070, 38245.00
674.0670, 38380.00
675.2260, 38456.35
676.3850, 38405.00
677.5440, 38307.00
678.7030, 38291.00
679.8610, 37814.00
681.0200, 37573.00
682.1780, 37417.00
683.3360, 37067.00
684.4940, 37073.00
685.6520, 36697.00
686.8090, 36745.00
687.9670, 36812.00
689.1240, 36448.00
690.2810, 36664.62
691.4380, 37127.00
692.5950, 36881.00
693.7520, 37182.00
694.9080, 37419.00
696.0650, 37496.00
697.2210, 38044.00
698.3770, 38131.00
699.5330, 38561.00
700.6880, 38811.00
701.8440, 39331.00
702.9990, 39692.00
704.1550, 40199.00
705.3100, 40565.18
706.4650, 40794.00
707.6190, 41301.00
708.7740, 41491.00
709.9290, 41843.95
711.0830, 42481.00
712.2370, 42295.00
713.3910, 42650.00
714.5450, 43102.00
715.6980, 42933.00
716.8520, 43185.00
718.0050, 43353.00
719.1580, 43137.00
720.3110, 42973.00
721.4640, 42639.00
722.6170, 42606.00
723.7700, 42638.00
724.9220, 42278.00
726.0740, 42011.00
727.2260, 41632.00
728.3780, 41422.00
729.5300, 40828.00
730.6810, 40466.00
731.8330, 40133.00
732.9840, 39946.00
734.1350, 39409.00
735.2860, 39323.00
736.4370, 38754.00
737.5880, 38622.00
738.7380, 38275.00
739.8880, 38134.00
741.0390, 38164.00
742.1890, 37777.00
743.3380, 37633.00
744.4880, 37760.00
745.6380, 37637.00
746.7870, 37595.21
747.9360, 37669.00
749.0850, 37545.00
750.2340, 37479.00
751.3830, 37626.00
752.5310, 38505.00
753.6800, 38220.00
754.8280, 37836.00
755.9760, 38507.00
757.1240, 37925.00
758.2720, 38237.00
759.4190, 38328.00
760.5670, 38387.00
761.7140, 38459.00
762.8610, 38288.00
764.0080, 38657.00
765.1550, 38496.00
766.3020, 38610.00
767.4480, 38696.00
768.5950, 38816.00
769.7410, 38980.00
770.8870, 38464.00
772.0330, 38166.00
773.1780, 37984.00
774.3240, 37783.00
775.4690, 37600.45
776.6140, 37428.00
777.7590, 37278.00
778.9040, 36975.00
780.0490, 36757.00
781.1940, 36481.00
782.3380, 36346.00
783.4820, 35990.00
784.6260, 35695.00
785.7700, 35646.00
786.9140, 35247.00
788.0580, 35081.00
789.2010, 34714.00
790.3450, 34523.00
791.4880, 34571.00
792.6310, 34335.00
793.7730, 33987.00
794.9160, 33909.00
796.0590, 33642.00
797.2010, 33499.00
798.3430, 33598.00
799.4850, 33247.00
800.6270, 33319.00
801.7690, 33034.00
802.9100, 32853.00
804.0520, 32705.00
805.1930, 32776.00
806.3340, 32611.00
807.4750, 32456.00
808.6160, 32694.00
809.7560, 32816.00
810.8970, 32645.59
812.0370, 32386.00
813.1770, 32397.00
814.3170, 32212.00
815.4570, 32125.00
816.5960, 32125.00
817.7360, 32080.00
818.8750, 32128.00
820.0140, 32062.00
821.1530, 31790.00
822.2920, 32087.00
823.4310, 31871.00
824.5690, 31862.00
825.7070, 31964.00
826.8460, 31772.00
827.9840, 31897.00
829.1220, 31938.00
830.2590, 31740.00
831.3970, 31962.00
832.5340, 31993.00
833.6710, 32018.00
834.8080, 31765.00
835.9450, 31803.00
837.0820, 31828.00
838.2190, 31774.00
839.3550, 31788.00
840.4910, 31845.00
841.6270, 31812.10
842.7630, 32199.00
843.8990, 31894.00
845.0350, 31889.00
846.1700, 32106.00
847.3060, 31887.00
848.4410, 31864.00
849.5760, 31829.00
850.7100, 31857.00
851.8450, 31840.24
852.9800, 31864.00
854.1140, 31887.00
855.2480, 31944.00
856.3820, 32051.00
857.5160, 32332.00
858.6500, 32152.00
859.7830, 32101.00
860.9170, 32310.00
862.0500, 32048.00
863.1830, 32007.00
864.3160, 32105.00
865.4480, 32298.00
866.5810, 32277.00
867.7130, 32315.00
868.8460, 32285.00
869.9780, 32296.00
871.1100, 32456.00
872.2410, 32494.00
873.3730, 32220.00
874.5050, 32363.00
875.6360, 32395.00
876.7670, 32551.00
877.8980, 32516.00
879.0290, 32412.00
880.1590, 32502.00
881.2900, 32636.00
882.4200, 32610.87
883.5500, 32745.00
884.6800, 32719.00
885.8100, 32667.00
886.9400, 32768.00
888.0690, 32963.00
889.1990, 32980.00
890.3280, 33141.72
891.4570, 33112.56
892.5860, 33268.00
893.7140, 33144.00
894.8430, 32930.00
895.9710, 33173.00
897.1000, 33124.00
898.2280, 33218.00
899.3560, 33189.00
900.4830, 33267.00
901.6110, 33257.00
902.7380, 33385.30
903.8660, 33337.53
904.9930, 33621.00
906.1200, 33398.00
907.2460, 33400.00
908.3730, 33694.00
909.5000, 33746.00
910.6260, 33677.00
911.7520, 33749.00
912.8780, 33618.00
914.0040, 33773.00
915.1290, 33833.00
916.2550, 33874.00
917.3800, 34086.00
918.5050, 33644.00
919.6300, 33993.00
920.7550, 34346.00
921.8800, 34001.00
923.0040, 33831.00
924.1290, 33856.00
925.2530, 34114.00
926.3770, 33947.00
927.5010, 33973.00
928.6250, 33828.00
929.7480, 33842.73
930.8720, 33689.00
931.9950, 33889.00
933.1180, 34073.00
934.2410, 34148.00
935.3640, 34195.00
936.4860, 34069.00
937.6090, 34006.00
938.7310, 34008.00
939.8530, 33947.66
940.9750, 33963.32
942.0970, 33998.00
943.2180, 33990.59
944.3400, 34154.00
945.4610, 34242.14
946.5820, 34259.06
947.7030, 33991.40
948.8240, 34091.21
949.9450, 34043.75
951.0650, 33990.27
952.1860, 34141.80
953.3060, 33915.53
954.4260, 34063.82
955.5460, 34062.59
956.6650, 34129.80
957.7850, 34048.82
958.9040, 34013.62
960.0230, 34126.64
961.1420, 34157.59
962.2610, 34059.57
963.3800, 34131.12
964.4990, 33899.70
965.6170, 33934.15
966.7350, 33764.00
967.8530, 33833.00
968.9710, 33962.00
970.0890, 34218.00
971.2070, 33630.00
972.3240, 33900.00
973.4410, 33862.00
974.5580, 33989.00
975.6750, 34222.00
976.7920, 33869.00
977.9090, 33974.00
979.0250, 33885.00
980.1410, 33880.18
981.2580, 34003.25
982.3740, 34077.00
983.4890, 34061.00
984.6050, 34308.00
985.7200, 33973.00
986.8360, 34088.00
987.9510, 34189.00
989.0660, 34285.00
990.1810, 34403.00
991.2950, 34157.00
992.4100, 34315.00
993.5240, 34477.00
994.6390, 34070.00
995.7530, 33997.98
996.8660, 34198.46
997.9800, 34323.68
999.0940, 34377.67
1000.207, 34147.06
1001.320, 34283.93
1002.433, 34273.52
1003.546, 34257.08
1004.659, 34445.66
1005.772, 34256.45
1006.884, 34441.75
1007.996, 34477.54
1009.108, 34581.76
1010.220, 34537.81
1011.332, 34539.62
1012.444, 34689.66
1013.555, 34757.59
1014.666, 34392.00
1015.777, 34738.00
1016.888, 34506.00
1017.999, 34639.00
1019.110, 34801.00
1020.220, 34820.00
1021.331, 34917.04
1022.441, 34929.00
1023.551, 34938.00
1024.661, 34999.61
1025.770, 34951.79
1026.880, 35036.00
1027.989, 34916.00
1029.098, 34834.00
1030.207, 34892.00
1031.316, 34998.00
1032.425, 35065.00
1033.533, 34994.52
1034.642, 34892.00
1035.750, 34816.00
1036.858, 34971.00
1037.966, 34911.00
1039.073, 35021.00
1040.181, 34887.00
1041.288, 35108.00
1042.396, 34937.00
1043.503, 35104.00
1044.610, 35143.00
1045.716, 35080.00
1046.823, 34891.00
1047.929, 35047.00
1049.036, 35072.00
1050.142, 35104.00
1051.248, 35216.20
1052.353, 35163.74
1053.459, 35365.00
1054.564, 35090.00
1055.670, 35101.00
1056.775, 35043.00
1057.880, 35091.00
1058.985, 35081.00
1060.089, 35077.72
1061.194, 35227.00
1062.298, 35108.00
1063.402, 35167.00
1064.506, 35234.00
1065.610, 35365.00
1066.713, 35023.00
1067.817, 35119.73
1068.920, 35272.94
1070.023, 35350.88
1071.126, 35357.58
1072.229, 35079.71
1073.332, 35169.30
1074.435, 35111.64
1075.537, 35047.95
1076.639, 35189.29
1077.741, 34952.82
1078.843, 35090.90
1079.945, 35079.47
1081.046, 35136.48
1082.148, 35045.31
1083.249, 34908.00
1084.350, 35009.00
1085.451, 34812.91
1086.551, 34902.00
1087.652, 35099.00
1088.752, 34641.00
1089.853, 34811.00
1090.953, 34820.00
1092.053, 34734.00
1093.152, 34872.00
1094.252, 34519.00
1095.351, 34746.00
1096.451, 34683.00
1097.550, 34813.00
1098.649, 34360.00
1099.748, 34464.00
1100.846, 34541.00
1101.945, 34190.00
1103.043, 34412.00
1104.141, 34058.00
1105.239, 34154.24
1106.337, 34313.45
1107.434, 34397.40
1108.532, 34410.11
1109.629, 34138.25
1110.726, 34233.87
1111.823, 34182.22
1112.920, 34124.53
1114.017, 34271.87
1115.113, 34041.41
1116.210, 34185.50
1117.306, 34180.08
1118.402, 34292.00
1119.498, 34019.00
1120.593, 34153.00
1121.689, 34130.00
1122.784, 34232.00
1123.879, 34239.00
1124.974, 34365.00
1126.069, 34020.00
1127.164, 33842.00
1128.259, 33782.00
1129.353, 33901.00
1130.447, 33640.00
1131.541, 33702.00
1132.635, 33634.85
1133.729, 33698.00
1134.822, 33603.00
1135.916, 33519.00
1137.009, 33645.00
1138.102, 33530.96
1139.195, 33590.00
1140.288, 33538.00
1141.380, 33399.00
1142.473, 33565.00
1143.565, 33448.00
1144.657, 33377.00
1145.749, 33362.00
1146.841, 33573.00
1147.932, 33412.21
1149.024, 33470.38
1150.115, 33255.00
1151.206, 33436.00
1152.297, 33372.00
1153.388, 33378.00
1154.479, 33346.00
1155.569, 33489.00
1156.659, 33429.00
1157.750, 33575.00
1158.839, 33323.00
1159.929, 33327.00
1161.019, 33313.00
1162.108, 33061.00
1163.198, 33612.00
1164.287, 33688.00
1165.376, 33399.00
1166.465, 33119.00
1167.553, 33191.00
1168.642, 33205.00
1169.730, 33151.00
1170.818, 33187.00
1171.906, 33090.00
1172.994, 33136.61
1174.082, 33045.64
1175.170, 33188.00
1176.257, 32984.00
1177.344, 32977.00
1178.431, 33169.00
1179.518, 33196.00
1180.605, 33078.00
1181.691, 33091.00
1182.778, 33028.00
1183.864, 32994.63
1184.950, 33187.00
1186.036, 32998.00
1187.122, 33113.00
1188.207, 33235.00
1189.292, 33103.00
1190.378, 33102.00
1191.463, 33338.00
1192.548, 32783.00
1193.632, 33148.00
1194.717, 33043.00
1195.801, 33077.00
1196.886, 33083.00
1197.970, 33089.00
1199.054, 33002.00
1200.137, 33047.00
1201.221, 32983.00
1202.305, 33062.00
1203.388, 33009.00
1204.471, 32853.00
1205.554, 32981.00
1206.637, 33080.00
1207.719, 32979.00
1208.802, 33310.00
1209.884, 32873.00
1210.966, 33077.00
1212.048, 32969.00
1213.130, 33040.00
1214.212, 33017.68
1215.293, 33187.00
1216.374, 32898.00
1217.456, 33078.00
1218.536, 32992.00
1219.617, 33183.00
1220.698, 33042.00
1221.778, 33318.00
1222.859, 33083.00
1223.939, 32896.00
1225.019, 33025.00
1226.099, 32893.93
1227.178, 33260.00
1228.258, 32988.00
1229.337, 33031.00
1230.417, 33244.00
1231.496, 33112.00
1232.574, 33048.00
1233.653, 33076.00
1234.732, 32926.00
1235.810, 32861.00
1236.888, 32926.00
1237.966, 32859.97
1239.044, 33228.00
1240.122, 32920.00
1241.199, 32984.00
1242.277, 33103.00
1243.354, 32931.00
1244.431, 33219.00
1245.508, 33098.00
1246.585, 33101.00
1247.661, 33273.00
1248.738, 33155.00
1249.814, 33247.00
1250.890, 33159.00
1251.966, 33184.00
1253.042, 33146.00
1254.117, 33180.00
1255.193, 33156.85
1256.268, 33146.91
1257.343, 33135.00
1258.418, 33094.00
1259.493, 33101.00
1260.567, 33017.00
1261.642, 33122.00
1262.716, 33243.00
1263.790, 33205.55
1264.864, 33160.00
1265.938, 33211.00
1267.011, 33121.00
1268.085, 33069.00
1269.158, 32947.00
1270.231, 33019.00
1271.304, 33168.00
1272.377, 33338.00
1273.450, 33238.00
1274.522, 33289.00
1275.594, 33125.00
1276.666, 33066.00
1277.738, 33171.00
1278.810, 33163.00
1279.882, 33084.00
1280.953, 32968.00
1282.025, 33084.00
1283.096, 32939.00
1284.167, 33252.00
1285.238, 33303.00
1286.308, 33155.72
1287.379, 33401.00
1288.449, 32909.00
1289.519, 33128.00
1290.589, 33149.00
1291.659, 32997.00
1292.729, 33109.00
1293.798, 33100.97
1294.868, 33315.00
1295.937, 33214.00
1297.006, 33058.00
1298.075, 33124.00
1299.143, 33023.00
1300.212, 32990.00
1301.280, 33094.00
1302.348, 33253.00
1303.416, 32877.00
1304.484, 33050.00
1305.552, 32938.00
1306.620, 32925.00
1307.687, 32815.00
1308.754, 32734.00
1309.821, 33065.00
1310.888, 33023.80
1311.955, 33368.00
1313.021, 33243.00
1314.088, 33067.00
1315.154, 33081.00
1316.220, 33410.00
1317.286, 33034.00
1318.352, 33194.00
1319.417, 32779.00
1320.483, 32910.00
1321.548, 33443.00
1322.613, 33199.00
1323.678, 33361.00
1324.743, 33019.00
1325.807, 33195.00
1326.872, 33229.00
1327.936, 33157.00
1329.000, 33003.00
1330.064, 33092.00
1331.128, 33130.00
1332.191, 33076.00
1333.255, 33219.00
1334.318, 33285.00
1335.381, 33307.96
1336.444, 33001.48
1337.507, 33178.83
1338.569, 33280.91
1339.632, 33311.76
1340.694, 33058.03
1341.756, 33171.77
1342.818, 33138.24
1343.880, 33098.68
1344.941, 33264.13
1346.003, 33051.79
1347.064, 33213.99
1348.125, 33226.68
1349.186, 33307.80
1350.247, 33240.75
1351.308, 33219.45
1352.368, 33346.38
1353.428, 33391.23
1354.489, 33307.12
1355.549, 33392.58
1356.608, 33175.05
1357.668, 33307.00
1358.727, 33242.00
1359.787, 33177.00
1360.846, 33222.00
1361.905, 33177.30
1362.964, 33213.79
1364.022, 33127.00
1365.081, 33301.00
1366.139, 33189.00
1367.197, 33240.00
1368.255, 33084.00
1369.313, 33205.00
1370.371, 33246.00
1371.428, 33264.00
1372.486, 33207.00
1373.543, 33373.00
1374.600, 33176.00
1375.657, 33274.00
1376.713, 33154.00
1377.770, 33399.00
1378.826, 33349.00
1379.882, 33615.00
1380.938, 33721.00
1381.994, 33519.74
1383.050, 33787.46
1384.106, 33847.00
1385.161, 33277.00
1386.216, 33501.00
1387.271, 33299.33
1388.326, 33429.00
1389.381, 33227.00
1390.435, 33271.00
1391.490, 33313.00
1392.544, 33402.00
1393.598, 33428.60
1394.652, 33359.00
1395.705, 33463.00
1396.759, 33426.00
1397.812, 33333.00
1398.866, 33380.00
1399.919, 33395.96
1400.972, 33383.38
1402.024, 33492.00
1403.077, 33493.00
1404.129, 33472.00
1405.181, 33694.00
1406.233, 33386.00
1407.285, 33610.00
1408.337, 33390.00
1409.389, 33917.00
1410.440, 33763.00
1411.491, 33609.00
1412.542, 33497.00
1413.593, 33376.00
1414.644, 33489.00
1415.695, 33745.00
1416.745, 33485.00
1417.795, 33676.00
1418.845, 33638.64
1419.895, 33582.49
1420.945, 33602.00
1421.995, 33596.00
1423.044, 33561.00
1424.093, 33688.00
1425.142, 33474.00
1426.191, 33552.00
1427.240, 33801.00
1428.289, 33630.00
1429.337, 33820.00
1430.385, 33873.00
1431.433, 33772.00
1432.481, 34018.00
1433.529, 33659.00
1434.577, 33729.00
1435.624, 33677.00
1436.672, 33761.00
1437.719, 33712.00
1438.766, 33686.00
1439.812, 33654.00
1440.859, 33493.28
1441.905, 33666.55
1442.952, 33764.56
1443.998, 33791.34
1445.044, 33533.54
1446.090, 33643.20
1447.135, 33605.61
1448.181, 33561.97
1449.226, 33723.36
1450.271, 33506.95
1451.316, 33665.08
1452.361, 33673.70
1453.405, 33750.75
