##NAMES=Annite
##RRUFFID=R060204
##IDEAL CHEMISTRY=KFe^2+^_3_AlSi_3_O_10_(OH)_2_
##LOCALITY=Mont Saint-Hilaire, Rouville County, Quebec, Canada
##OWNER=RRUFF
##SOURCE=Royal Ontario Museum
##DESCRIPTION=Black mica with pseudohexagonal outines
##STATUS=The identification of this mineral has been confirmed by X-ray diffraction and chemical analysis
##URL=rruff.info/R060204
##MEASURED CHEMISTRY=(K_0.96_Na_0.04_)_Σ=1_(Fe^2+^_2.04_Mg_0.81_Mn_0.09_Ti_0.03_[box]_0.03_)_Σ=3_(Si_3.00_Al_1.00_)O_10_((OH)_1.54_F_0.46_)_Σ=2_
##PIN_ID=M00078
##ORIENTATION=Laser parallel to a* (1 0 0). Fiducial mark perpendicular to laser is parallel to -b [0 -1 0]
307.1510, 19480.00
308.3580, 19280.00
309.5660, 19447.00
310.7730, 19299.00
311.9800, 19501.00
313.1870, 19338.00
314.3940, 19603.00
315.6010, 19508.00
316.8070, 19482.00
318.0130, 19316.00
319.2200, 19363.00
320.4260, 19455.00
321.6310, 19400.00
322.8370, 19721.00
324.0430, 19517.00
325.2480, 19562.00
326.4540, 19427.00
327.6590, 19797.00
328.8640, 19507.00
330.0680, 19395.00
331.2730, 19785.00
332.4780, 19531.00
333.6820, 19812.00
334.8860, 19990.00
336.0900, 19776.00
337.2940, 19507.00
338.4980, 19697.00
339.7010, 19784.00
340.9050, 19613.00
342.1080, 19699.00
343.3110, 19667.00
344.5140, 19844.00
345.7170, 19774.00
346.9200, 19912.00
348.1220, 19857.00
349.3240, 19894.00
350.5270, 19973.00
351.7290, 19915.00
352.9310, 19937.00
354.1320, 19984.00
355.3340, 19958.00
356.5350, 19915.00
357.7370, 19913.55
358.9380, 19983.97
360.1390, 19881.00
361.3400, 20148.00
362.5400, 20211.00
363.7410, 20237.00
364.9410, 20307.00
366.1410, 20077.00
367.3410, 20116.00
368.5410, 20056.00
369.7410, 20247.00
370.9400, 20286.00
372.1400, 20501.00
373.3390, 20414.00
374.5380, 20283.00
375.7370, 20277.00
376.9360, 20292.00
378.1350, 20407.00
379.3330, 20432.00
380.5310, 20469.00
381.7300, 20519.52
382.9280, 20554.00
384.1260, 20564.00
385.3230, 20560.00
386.5210, 20554.00
387.7180, 20772.00
388.9160, 20712.00
390.1130, 20821.00
391.3100, 20849.00
392.5060, 21105.00
393.7030, 21168.00
394.9000, 21109.88
396.0960, 21117.28
397.2920, 20980.00
398.4880, 20917.00
399.6840, 20976.00
400.8800, 20927.00
402.0750, 20905.00
403.2710, 20917.00
404.4660, 20992.00
405.6610, 20927.00
406.8560, 20926.00
408.0510, 20905.82
409.2450, 20869.00
410.4400, 20821.00
411.6340, 20778.00
412.8280, 20714.00
414.0220, 20742.00
415.2160, 20541.00
416.4100, 20672.00
417.6030, 20500.00
418.7970, 20569.00
419.9900, 20448.00
421.1830, 20512.00
422.3760, 20608.00
423.5690, 20483.00
424.7610, 20462.00
425.9540, 20427.00
427.1460, 20450.00
428.3380, 20532.00
429.5300, 20448.00
430.7220, 20466.00
431.9140, 20571.00
433.1050, 20592.00
434.2970, 20461.00
435.4880, 20298.00
436.6790, 20428.00
437.8700, 20293.00
439.0610, 20631.00
440.2510, 20484.00
441.4420, 20406.00
442.6320, 20445.00
443.8220, 20353.00
445.0120, 20572.00
446.2020, 20455.93
447.3910, 20625.51
448.5810, 20719.82
449.7700, 20742.90
450.9600, 20481.40
452.1490, 20587.38
453.3370, 20546.09
454.5260, 20498.76
455.7150, 20656.46
456.9030, 20436.35
458.0910, 20590.80
459.2800, 20595.73
460.4670, 20669.09
461.6550, 20594.28
462.8430, 20565.23
464.0300, 20613.00
465.2180, 20656.00
466.4050, 20695.00
467.5920, 20840.00
468.7790, 20753.00
469.9650, 20949.00
471.1520, 20871.00
472.3380, 20846.00
473.5250, 20840.00
474.7110, 20838.99
475.8970, 20988.00
477.0820, 20891.00
478.2680, 21061.00
479.4540, 21096.00
480.6390, 21286.00
481.8240, 21327.00
483.0090, 21514.00
484.1940, 21506.58
485.3780, 21430.00
486.5630, 21506.00
487.7470, 21535.00
488.9320, 21576.00
490.1160, 21552.00
491.3000, 21797.00
492.4830, 21931.00
493.6670, 21893.00
494.8500, 21985.00
496.0340, 21897.00
497.2170, 22031.00
498.4000, 21844.00
499.5820, 21979.03
500.7650, 22292.00
501.9480, 22179.00
503.1300, 22221.00
504.3120, 22358.00
505.4940, 22673.00
506.6760, 22374.00
507.8580, 22554.00
509.0390, 22460.00
510.2210, 22679.00
511.4020, 22584.00
512.5830, 22990.00
513.7640, 22691.00
514.9450, 22722.00
516.1250, 22907.00
517.3060, 22812.00
518.4860, 22951.00
519.6660, 23016.00
520.8460, 22997.00
522.0260, 22934.00
523.2060, 22942.00
524.3850, 23038.00
525.5650, 22920.00
526.7440, 23023.00
527.9230, 22891.00
529.1020, 23011.00
530.2810, 22955.64
531.4590, 22987.00
532.6380, 22996.00
533.8160, 22991.48
534.9940, 23013.91
536.1720, 23002.00
537.3500, 23035.00
538.5270, 23015.00
539.7050, 23018.00
540.8820, 23097.00
542.0590, 23195.00
543.2360, 23296.00
544.4130, 23220.00
545.5900, 23198.00
546.7660, 23211.00
547.9430, 23235.00
549.1190, 23216.00
550.2950, 23237.00
551.4710, 23221.00
552.6470, 23241.68
553.8220, 23208.71
554.9980, 23244.00
556.1730, 23179.00
557.3480, 23091.00
558.5230, 23153.00
559.6980, 23113.00
560.8730, 23211.00
562.0470, 23104.00
563.2220, 23003.00
564.3960, 23048.00
565.5700, 23089.00
566.7440, 23195.00
567.9170, 23087.00
569.0910, 22905.00
570.2640, 23060.00
571.4380, 23015.00
572.6110, 22759.00
573.7840, 22835.00
574.9570, 22982.00
576.1290, 22661.00
577.3020, 22741.00
578.4740, 22881.00
579.6460, 22615.00
580.8180, 22652.00
581.9900, 22646.00
583.1620, 22540.00
584.3330, 22442.00
585.5040, 22756.00
586.6760, 22535.00
587.8470, 22552.00
589.0180, 22443.00
590.1880, 22429.00
591.3590, 22457.00
592.5290, 22572.00
593.7000, 22402.00
594.8700, 22548.00
596.0400, 22578.00
597.2090, 22581.00
598.3790, 22762.00
599.5490, 22619.00
600.7180, 22781.00
601.8870, 22886.00
603.0560, 22880.00
604.2250, 22933.00
605.3940, 22914.34
606.5620, 22983.16
607.7300, 22969.00
608.8990, 23087.00
610.0670, 23396.00
611.2350, 23417.00
612.4020, 23377.00
613.5700, 23620.00
614.7370, 23527.00
615.9050, 23672.00
617.0720, 23700.00
618.2390, 23835.51
619.4060, 23852.18
620.5720, 24193.00
621.7390, 24071.00
622.9050, 24261.00
624.0710, 24785.00
625.2370, 24637.94
626.4030, 24750.78
627.5690, 24651.00
628.7340, 24674.00
629.9000, 24545.00
631.0650, 24664.00
632.2300, 24643.00
633.3950, 24807.00
634.5600, 24851.33
635.7240, 24836.00
636.8890, 24912.00
638.0530, 24927.95
639.2170, 24923.00
640.3810, 25002.00
641.5450, 24933.00
642.7080, 24975.00
643.8720, 25113.00
645.0350, 25117.00
646.1980, 25167.00
647.3610, 25223.00
648.5240, 25398.00
649.6870, 25365.00
650.8490, 25459.00
652.0120, 25473.00
653.1740, 25423.00
654.3360, 25766.00
655.4980, 25738.00
656.6600, 26087.00
657.8210, 26171.85
658.9830, 26307.00
660.1440, 26450.00
661.3050, 26764.00
662.4660, 27023.00
663.6270, 27279.00
664.7870, 27421.00
665.9480, 28028.00
667.1080, 28207.00
668.2680, 28411.00
669.4280, 28980.00
670.5880, 29130.00
671.7480, 29595.00
672.9070, 29701.00
674.0670, 29959.00
675.2260, 30148.00
676.3850, 30397.00
677.5440, 30480.00
678.7030, 30525.62
679.8610, 30427.00
681.0200, 30394.00
682.1780, 30283.00
683.3360, 30020.00
684.4940, 29906.00
685.6520, 29489.00
686.8090, 29384.00
687.9670, 29254.00
689.1240, 28676.00
690.2810, 28633.00
691.4380, 28334.00
692.5950, 27809.00
693.7520, 27847.00
694.9080, 27579.00
696.0650, 27132.00
697.2210, 27135.00
698.3770, 26973.00
699.5330, 26823.00
700.6880, 26897.00
701.8440, 26514.00
702.9990, 26567.00
704.1550, 26594.00
705.3100, 26493.00
706.4650, 26469.62
707.6190, 26448.00
708.7740, 26302.00
709.9290, 26197.00
711.0830, 26120.00
712.2370, 26041.00
713.3910, 26048.00
714.5450, 26073.00
715.6980, 26102.00
716.8520, 26088.00
718.0050, 26061.63
719.1580, 25923.00
720.3110, 25983.00
721.4640, 25856.00
722.6170, 25847.00
723.7700, 25904.00
724.9220, 25791.00
726.0740, 25654.00
727.2260, 25611.00
728.3780, 25609.00
729.5300, 25711.00
730.6810, 25343.00
731.8330, 25577.00
732.9840, 25371.00
734.1350, 25294.00
735.2860, 25333.00
736.4370, 25208.00
737.5880, 25335.00
738.7380, 25332.77
739.8880, 25141.00
741.0390, 25422.00
742.1890, 25126.00
743.3380, 25110.00
744.4880, 25111.00
745.6380, 25300.00
746.7870, 25178.00
747.9360, 25295.00
749.0850, 25313.00
750.2340, 24976.00
751.3830, 25245.00
752.5310, 25241.00
753.6800, 25300.00
754.8280, 25563.00
755.9760, 25426.00
757.1240, 25447.00
758.2720, 25533.00
759.4190, 25402.00
760.5670, 25418.00
761.7140, 25469.00
762.8610, 25435.00
764.0080, 25454.00
765.1550, 25369.00
766.3020, 25558.00
767.4480, 25603.00
768.5950, 25344.00
769.7410, 25710.00
770.8870, 25827.00
772.0330, 25592.00
773.1780, 25718.80
774.3240, 25670.38
775.4690, 25533.00
776.6140, 25636.00
777.7590, 25526.00
778.9040, 25462.00
780.0490, 25266.00
781.1940, 25311.82
782.3380, 25253.90
783.4820, 25342.00
784.6260, 25233.00
785.7700, 25189.00
786.9140, 25108.00
788.0580, 24986.00
789.2010, 24929.00
790.3450, 24853.00
791.4880, 24968.00
792.6310, 24719.00
793.7730, 24644.00
794.9160, 24810.00
796.0590, 24757.00
797.2010, 24788.00
798.3430, 24598.00
799.4850, 24606.00
800.6270, 24559.00
801.7690, 24423.00
802.9100, 24690.00
804.0520, 24282.00
805.1930, 24484.00
806.3340, 24185.00
807.4750, 24381.00
808.6160, 24334.00
809.7560, 24351.00
810.8970, 24293.00
812.0370, 24303.90
813.1770, 24268.00
814.3170, 24336.00
815.4570, 24247.00
816.5960, 24308.00
817.7360, 24214.00
818.8750, 24299.00
820.0140, 24210.00
821.1530, 24072.00
822.2920, 24043.00
823.4310, 24035.30
824.5690, 24070.76
825.7070, 24116.00
826.8460, 24212.00
827.9840, 24290.00
829.1220, 24286.00
830.2590, 24397.00
831.3970, 24332.00
832.5340, 24304.00
833.6710, 24309.00
834.8080, 24254.00
835.9450, 24420.00
837.0820, 24167.00
838.2190, 24466.00
839.3550, 24348.00
840.4910, 24477.00
841.6270, 24327.00
842.7630, 24373.80
843.8990, 24477.00
845.0350, 24415.00
846.1700, 24473.00
847.3060, 24519.00
848.4410, 24405.00
849.5760, 24539.00
850.7100, 24729.00
851.8450, 24750.00
852.9800, 24595.00
854.1140, 24703.00
855.2480, 24631.00
856.3820, 24855.00
857.5160, 24823.00
858.6500, 24610.00
859.7830, 24875.00
860.9170, 24830.00
862.0500, 24952.00
863.1830, 24842.00
864.3160, 24843.00
865.4480, 24964.00
866.5810, 25046.00
867.7130, 24952.00
868.8460, 25095.00
869.9780, 25018.00
871.1100, 25229.00
872.2410, 25156.00
873.3730, 25180.00
874.5050, 25361.00
875.6360, 25135.00
876.7670, 25567.00
877.8980, 25415.53
879.0290, 25729.00
880.1590, 25332.00
881.2900, 25383.00
882.4200, 25316.00
883.5500, 25443.00
884.6800, 25252.00
885.8100, 25634.00
886.9400, 25768.00
888.0690, 25599.00
889.1990, 25600.00
890.3280, 25532.00
891.4570, 25809.00
892.5860, 25605.00
893.7140, 25748.53
894.8430, 25655.00
895.9710, 25849.00
897.1000, 25797.00
898.2280, 25780.00
899.3560, 26083.00
900.4830, 25866.00
901.6110, 25810.00
902.7380, 26063.00
903.8660, 26092.00
904.9930, 26205.00
906.1200, 26115.00
907.2460, 26042.00
908.3730, 26135.00
909.5000, 26184.00
910.6260, 26211.00
911.7520, 26193.00
912.8780, 26488.00
914.0040, 26453.00
915.1290, 26418.00
916.2550, 26649.00
917.3800, 26384.00
918.5050, 26535.00
919.6300, 26763.00
920.7550, 26763.00
921.8800, 26587.00
923.0040, 26567.00
924.1290, 26643.00
925.2530, 26703.00
926.3770, 26681.00
927.5010, 26702.00
928.6250, 26828.00
929.7480, 26856.00
930.8720, 26984.00
931.9950, 26888.00
933.1180, 26972.00
934.2410, 26882.00
935.3640, 27010.00
936.4860, 27077.00
937.6090, 27218.00
938.7310, 27191.00
939.8530, 27162.00
940.9750, 26967.00
942.0970, 27269.00
943.2180, 27349.00
944.3400, 27143.00
945.4610, 27560.00
946.5820, 27321.00
947.7030, 27492.00
948.8240, 27395.00
949.9450, 27586.00
951.0650, 27466.00
952.1860, 27376.00
953.3060, 27710.00
954.4260, 27505.00
955.5460, 27510.00
956.6650, 27477.00
957.7850, 27799.00
958.9040, 27788.00
960.0230, 27919.00
961.1420, 27746.00
962.2610, 27806.00
963.3800, 27737.00
964.4990, 27669.00
965.6170, 27708.00
966.7350, 27898.00
967.8530, 27935.00
968.9710, 28007.03
970.0890, 28113.00
971.2070, 28141.00
972.3240, 28071.00
973.4410, 28197.00
974.5580, 28147.00
975.6750, 28104.00
976.7920, 28219.00
977.9090, 28147.00
979.0250, 28387.00
980.1410, 28206.00
981.2580, 28590.00
982.3740, 28296.00
983.4890, 28531.00
984.6050, 28642.00
985.7200, 28628.00
986.8360, 28698.00
987.9510, 28689.00
989.0660, 28826.00
990.1810, 28885.00
991.2950, 28958.00
992.4100, 29012.41
993.5240, 29114.00
994.6390, 29090.00
995.7530, 29022.00
996.8660, 29077.00
997.9800, 29144.01
999.0940, 29284.00
1000.207, 29375.00
1001.320, 29481.00
1002.433, 29598.00
1003.546, 29704.00
1004.659, 29784.85
1005.772, 29714.00
1006.884, 29948.00
1007.996, 29977.00
1009.108, 30079.00
1010.220, 30269.00
1011.332, 30556.00
1012.444, 30404.00
1013.555, 30773.00
1014.666, 30811.00
1015.777, 31043.00
1016.888, 30981.00
1017.999, 31201.00
1019.110, 31212.00
1020.220, 31184.00
1021.331, 31215.00
1022.441, 31133.00
1023.551, 31483.00
1024.661, 31386.00
1025.770, 31361.00
1026.880, 31263.00
1027.989, 31127.00
1029.098, 31176.00
1030.207, 31210.00
1031.316, 31247.00
1032.425, 31175.05
1033.533, 31109.00
1034.642, 31010.00
1035.750, 30979.00
1036.858, 30930.12
1037.966, 30853.18
1039.073, 30740.00
1040.181, 30722.00
1041.288, 30642.00
1042.396, 30580.00
1043.503, 30548.94
1044.610, 30303.60
1045.716, 30485.16
1046.823, 30591.46
1047.929, 30626.52
1049.036, 30377.01
1050.142, 30494.96
1051.248, 30465.65
1052.353, 30430.29
1053.459, 30599.96
1054.564, 30391.82
1055.670, 30558.24
1056.775, 30575.14
1057.880, 30496.00
1058.985, 30443.00
1060.089, 30331.00
1061.194, 30381.90
1062.298, 30477.00
1063.402, 30378.00
1064.506, 30575.00
1065.610, 30442.00
1066.713, 30465.00
1067.817, 30424.00
1068.920, 30300.00
1070.023, 30548.00
1071.126, 30440.00
1072.229, 30465.00
1073.332, 30423.00
1074.435, 30497.00
1075.537, 30461.64
1076.639, 30616.95
1077.741, 30696.98
1078.843, 30705.79
1079.945, 30430.02
1081.046, 30521.73
1082.148, 30466.16
1083.249, 30404.57
1084.350, 30548.00
1085.451, 30313.64
1086.551, 30453.84
1087.652, 30444.51
1088.752, 30503.62
1089.853, 30414.54
1090.953, 30371.24
1092.053, 30476.17
1093.152, 30499.04
1094.252, 30392.92
1095.351, 30456.40
1096.451, 30216.87
1097.550, 30243.24
1098.649, 30384.32
1099.748, 30285.66
1100.846, 30351.87
1101.945, 30355.27
1103.043, 30073.38
1104.141, 30287.67
1105.239, 30287.38
1106.337, 30066.77
1107.434, 30264.07
1108.532, 30073.83
1109.629, 30021.93
1110.726, 30074.13
1111.823, 30017.80
1112.920, 30132.58
1114.017, 30082.52
1115.113, 30017.75
1116.210, 30017.24
1117.306, 29834.62
1118.402, 29989.87
1119.498, 29914.33
1120.593, 29953.52
1121.689, 30018.70
1122.784, 29884.79
1123.879, 29961.67
1124.974, 29711.68
1126.069, 29735.19
1127.164, 29729.25
1128.259, 29898.13
1129.353, 29649.74
1130.447, 29665.66
1131.541, 29794.13
1132.635, 29765.13
1133.729, 29801.97
1134.822, 29643.91
1135.916, 29680.00
1137.009, 29680.75
1138.102, 29596.00
1139.195, 29670.00
1140.288, 29672.00
1141.380, 29663.00
1142.473, 29845.00
1143.565, 29691.00
1144.657, 29771.00
1145.749, 29832.00
1146.841, 29780.00
1147.932, 29673.00
1149.024, 29754.00
1150.115, 29810.00
1151.206, 29690.00
1152.297, 29687.00
1153.388, 29710.00
1154.479, 29640.98
1155.569, 29814.00
1156.659, 29686.00
1157.750, 29752.00
1158.839, 30002.00
1159.929, 29735.00
1161.019, 29930.00
1162.108, 29924.00
1163.198, 29897.00
1164.287, 29799.00
1165.376, 29862.00
1166.465, 29845.59
1167.553, 29837.00
1168.642, 29923.00
1169.730, 30028.00
1170.818, 30111.00
1171.906, 30066.95
1172.994, 30005.00
1174.082, 29924.00
1175.170, 29916.20
1176.257, 29970.00
1177.344, 29941.00
1178.431, 29984.00
1179.518, 29983.38
1180.605, 30016.00
1181.691, 29959.00
1182.778, 29998.00
1183.864, 29928.00
1184.950, 29964.31
1186.036, 29879.00
1187.122, 29995.00
1188.207, 30055.00
1189.292, 30020.36
1190.378, 30099.20
1191.463, 30139.00
1192.548, 30124.00
1193.632, 30122.00
1194.717, 30067.00
1195.801, 30132.84
1196.886, 30401.00
1197.970, 30228.00
1199.054, 30370.00
1200.137, 30375.00
1201.221, 30343.00
1202.305, 30400.00
1203.388, 30647.00
1204.471, 30221.00
1205.554, 30548.00
1206.637, 30245.00
1207.719, 30542.00
1208.802, 30600.00
1209.884, 30717.00
1210.966, 30639.00
1212.048, 30536.00
1213.130, 30633.00
1214.212, 30456.00
1215.293, 30512.00
1216.374, 30462.00
1217.456, 30663.00
1218.536, 30616.00
1219.617, 30681.00
1220.698, 30809.00
1221.778, 30639.00
1222.859, 30658.00
1223.939, 31004.00
1225.019, 30709.00
1226.099, 30779.00
1227.178, 30709.00
1228.258, 30987.00
1229.337, 30740.00
1230.417, 31023.00
1231.496, 31130.00
1232.574, 30956.00
1233.653, 31045.00
1234.732, 31028.00
1235.810, 31334.00
1236.888, 31238.34
1237.966, 31025.00
1239.044, 31219.00
1240.122, 31060.00
1241.199, 31089.00
1242.277, 31270.00
1243.354, 31140.00
1244.431, 31310.00
1245.508, 31102.00
1246.585, 31232.00
1247.661, 31186.00
1248.738, 31320.00
1249.814, 31237.00
1250.890, 31473.00
1251.966, 31420.00
1253.042, 31396.00
1254.117, 31274.00
1255.193, 31467.00
1256.268, 31422.00
1257.343, 31517.00
1258.418, 31300.00
1259.493, 31574.00
1260.567, 31433.72
1261.642, 31468.23
1262.716, 31275.00
1263.790, 31588.00
1264.864, 31426.00
1265.938, 31665.00
1267.011, 31943.00
1268.085, 31424.00
1269.158, 31692.83
1270.231, 31978.00
1271.304, 31655.00
1272.377, 31652.00
1273.450, 31476.03
1274.522, 31677.56
1275.594, 31803.83
1276.666, 31858.86
1277.738, 31629.31
1278.810, 31767.24
1279.882, 31757.90
1280.953, 31742.49
1282.025, 31932.14
1283.096, 31743.95
1284.167, 31930.32
1285.238, 31967.17
1286.308, 32072.43
1287.379, 32029.54
1288.449, 32032.38
1289.519, 32183.45
1290.589, 32252.44
1291.659, 32192.47
1292.729, 32302.07
1293.798, 32108.66
1294.868, 32181.15
1295.937, 32368.33
1297.006, 32315.77
1298.075, 32428.05
1299.143, 32477.53
1300.212, 32241.73
1301.280, 32502.08
1302.348, 32547.84
1303.416, 32373.28
1304.484, 32616.63
1305.552, 32472.44
1306.620, 32466.58
1307.687, 32564.79
1308.754, 32554.48
1309.821, 32715.27
1310.888, 32711.22
1311.955, 32692.46
1313.021, 32737.93
1314.088, 32601.31
1315.154, 32802.53
1316.220, 32772.96
1317.286, 32858.11
1318.352, 32969.26
1319.417, 32881.28
1320.483, 33004.11
1321.548, 32800.04
1322.613, 32869.48
1323.678, 32909.47
1324.743, 33124.28
1325.807, 32921.77
1326.872, 32983.61
1327.936, 33157.97
1329.000, 33174.85
1330.064, 33257.57
1331.128, 33145.38
1332.191, 32957.00
1333.255, 32811.00
1334.318, 32898.00
1335.381, 33083.00
1336.444, 33148.00
1337.507, 33101.00
1338.569, 33231.45
1339.632, 33276.00
1340.694, 33354.00
1341.756, 33386.00
1342.818, 33462.13
1343.880, 33214.00
1344.941, 33337.00
1346.003, 33313.00
1347.064, 33176.00
1348.125, 33235.00
1349.186, 33292.00
1350.247, 33493.00
1351.308, 33248.00
1352.368, 33287.00
1353.428, 33501.00
1354.489, 33299.00
1355.549, 33405.00
1356.608, 33539.00
1357.668, 33423.00
1358.727, 33481.00
1359.787, 33445.00
1360.846, 33594.00
1361.905, 33617.00
1362.964, 33674.00
1364.022, 33660.01
1365.081, 33628.00
1366.139, 33700.00
1367.197, 33444.00
1368.255, 33738.00
1369.313, 33761.00
1370.371, 33465.00
1371.428, 33659.00
1372.486, 33677.00
1373.543, 33967.00
1374.600, 33695.00
1375.657, 33790.00
1376.713, 33700.00
1377.770, 33691.00
1378.826, 33922.00
1379.882, 33845.00
1380.938, 33750.00
1381.994, 33840.00
1383.050, 33990.00
1384.106, 33704.00
1385.161, 33890.00
1386.216, 34042.00
1387.271, 33891.00
1388.326, 33827.00
1389.381, 33801.00
1390.435, 33966.00
1391.490, 34107.00
1392.544, 34001.00
1393.598, 34084.00
1394.652, 34056.00
1395.705, 33947.00
1396.759, 34020.00
1397.812, 33971.00
1398.866, 33834.00
1399.919, 34194.00
1400.972, 34084.00
1402.024, 34088.00
1403.077, 33911.00
1404.129, 34238.00
1405.181, 34064.00
1406.233, 33946.00
1407.285, 34271.00
1408.337, 34120.00
1409.389, 34445.00
1410.440, 34091.00
1411.491, 34347.00
1412.542, 34036.00
1413.593, 34042.00
1414.644, 34148.00
1415.695, 34239.00
1416.745, 34348.00
1417.795, 34394.00
1418.845, 34500.00
1419.895, 34540.00
1420.945, 34333.00
1421.995, 34591.00
1423.044, 34309.00
1424.093, 34386.00
1425.142, 34363.00
1426.191, 34265.73
1427.240, 34588.00
1428.289, 34277.00
1429.337, 34505.86
1430.385, 34715.00
1431.433, 34506.00
1432.481, 34620.00
1433.529, 34441.00
1434.577, 34516.00
1435.624, 34668.00
1436.672, 34448.00
1437.719, 34778.00
1438.766, 34670.00
1439.812, 34628.00
1440.859, 34659.00
1441.905, 34711.00
1442.952, 34698.00
1443.998, 34667.00
1445.044, 34758.17
1446.090, 34848.00
1447.135, 34894.00
1448.181, 34815.00
1449.226, 34835.00
1450.271, 34814.63
1451.316, 34835.85
1452.361, 34830.00
1453.405, 34865.00
