##NAMES=Annite
##RRUFFID=R060204
##IDEAL CHEMISTRY=KFe^2+^_3_AlSi_3_O_10_(OH)_2_
##LOCALITY=Mont Saint-Hilaire, Rouville County, Quebec, Canada
##OWNER=RRUFF
##SOURCE=Royal Ontario Museum
##DESCRIPTION=Black mica with pseudohexagonal outines
##STATUS=The identification of this mineral has been confirmed by X-ray diffraction and chemical analysis
##URL=rruff.info/R060204
##MEASURED CHEMISTRY=(K_0.96_Na_0.04_)_Σ=1_(Fe^2+^_2.04_Mg_0.81_Mn_0.09_Ti_0.03_[box]_0.03_)_Σ=3_(Si_3.00_Al_1.00_)O_10_((OH)_1.54_F_0.46_)_Σ=2_
##PIN_ID=M00140
##ORIENTATION=Laser parallel to c* (0 0 1). Fiducial mark perpendicular to laser is parallel to -a [-1 0 0]
307.1510, 22245.00
308.3580, 22326.05
309.5660, 22387.04
310.7730, 22319.24
311.9800, 22192.00
313.1870, 22238.79
314.3940, 22148.00
315.6010, 22250.00
316.8070, 22245.00
318.0130, 22290.00
319.2200, 22251.00
320.4260, 22343.00
321.6310, 22254.00
322.8370, 22249.00
324.0430, 22365.00
325.2480, 22462.00
326.4540, 22520.00
327.6590, 22545.00
328.8640, 22590.00
330.0680, 22690.00
331.2730, 22622.00
332.4780, 22708.00
333.6820, 22794.00
334.8860, 22818.00
336.0900, 22939.99
337.2940, 22984.00
338.4980, 23083.00
339.7010, 22997.00
340.9050, 22915.00
342.1080, 23076.00
343.3110, 23140.00
344.5140, 23039.00
345.7170, 23396.00
346.9200, 23217.00
348.1220, 23346.00
349.3240, 23366.00
350.5270, 23353.00
351.7290, 23399.00
352.9310, 23463.00
354.1320, 23357.00
355.3340, 23458.00
356.5350, 23401.00
357.7370, 23434.00
358.9380, 23553.00
360.1390, 23560.00
361.3400, 23668.00
362.5400, 23512.00
363.7410, 23533.00
364.9410, 23561.00
366.1410, 23499.00
367.3410, 23557.00
368.5410, 23659.00
369.7410, 23642.92
370.9400, 23565.00
372.1400, 23635.00
373.3390, 23618.00
374.5380, 23461.00
375.7370, 23434.91
376.9360, 23429.00
378.1350, 23337.00
379.3330, 23453.00
380.5310, 23676.00
381.7300, 23552.00
382.9280, 23663.00
384.1260, 23657.00
385.3230, 23642.00
386.5210, 23661.71
387.7180, 23719.90
388.9160, 23746.98
390.1130, 23859.00
391.3100, 23874.00
392.5060, 23905.00
393.7030, 24008.00
394.9000, 23919.00
396.0960, 24162.00
397.2920, 24098.00
398.4880, 24192.00
399.6840, 24188.00
400.8800, 24303.00
402.0750, 24349.00
403.2710, 24307.36
404.4660, 24216.00
405.6610, 24256.00
406.8560, 24220.00
408.0510, 24288.00
409.2450, 23959.00
410.4400, 24112.00
411.6340, 23891.00
412.8280, 23978.00
414.0220, 23957.00
415.2160, 23820.62
416.4100, 23834.05
417.6030, 23573.00
418.7970, 23726.00
419.9900, 23530.00
421.1830, 23494.00
422.3760, 23296.00
423.5690, 23278.00
424.7610, 23339.00
425.9540, 23464.00
427.1460, 23119.00
428.3380, 23238.00
429.5300, 23098.00
430.7220, 22994.00
431.9140, 23042.00
433.1050, 22978.00
434.2970, 23048.00
435.4880, 22923.00
436.6790, 22906.00
437.8700, 22706.00
439.0610, 22809.00
440.2510, 22888.00
441.4420, 22986.00
442.6320, 22725.00
443.8220, 22716.00
445.0120, 22711.00
446.2020, 22545.00
447.3910, 22787.00
448.5810, 22707.00
449.7700, 22700.39
450.9600, 22677.00
452.1490, 22618.00
453.3370, 22700.00
454.5260, 22582.00
455.7150, 22738.00
456.9030, 22613.00
458.0910, 22735.00
459.2800, 22915.00
460.4670, 22762.00
461.6550, 22667.00
462.8430, 22932.00
464.0300, 22926.00
465.2180, 22749.00
466.4050, 22981.00
467.5920, 23069.00
468.7790, 23042.00
469.9650, 23146.00
471.1520, 23042.00
472.3380, 23174.00
473.5250, 23283.83
474.7110, 23651.00
475.8970, 23540.00
477.0820, 23751.00
478.2680, 23769.00
479.4540, 23746.00
480.6390, 24302.00
481.8240, 24207.00
483.0090, 24216.00
484.1940, 24174.00
485.3780, 24111.00
486.5630, 24224.00
487.7470, 24131.00
488.9320, 24231.00
490.1160, 24637.00
491.3000, 24703.00
492.4830, 24362.00
493.6670, 24695.00
494.8500, 24623.00
496.0340, 24826.00
497.2170, 24789.00
498.4000, 24819.00
499.5820, 24790.00
500.7650, 25133.00
501.9480, 24811.00
503.1300, 24878.00
504.3120, 25015.00
505.4940, 24809.00
506.6760, 25044.00
507.8580, 25159.00
509.0390, 25127.00
510.2210, 25174.00
511.4020, 25282.67
512.5830, 25380.00
513.7640, 25456.00
514.9450, 25482.00
516.1250, 25476.00
517.3060, 25458.00
518.4860, 25597.00
519.6660, 25650.00
520.8460, 25594.00
522.0260, 25929.00
523.2060, 26015.00
524.3850, 25819.00
525.5650, 25901.00
526.7440, 26058.00
527.9230, 26240.00
529.1020, 26253.00
530.2810, 26287.00
531.4590, 26425.00
532.6380, 26762.00
533.8160, 26436.00
534.9940, 26605.00
536.1720, 26866.00
537.3500, 26763.00
538.5270, 26953.00
539.7050, 26905.00
540.8820, 27092.00
542.0590, 27375.00
543.2360, 27327.00
544.4130, 27174.00
545.5900, 27446.00
546.7660, 27147.00
547.9430, 27295.00
549.1190, 27416.00
550.2950, 26967.00
551.4710, 27125.00
552.6470, 26892.00
553.8220, 27108.00
554.9980, 26884.00
556.1730, 26830.00
557.3480, 26510.00
558.5230, 26566.00
559.6980, 26391.00
560.8730, 26304.00
562.0470, 25942.00
563.2220, 25800.00
564.3960, 25714.00
565.5700, 25480.00
566.7440, 25329.00
567.9170, 25494.00
569.0910, 25385.00
570.2640, 25157.00
571.4380, 24860.00
572.6110, 24750.00
573.7840, 24454.00
574.9570, 24469.00
576.1290, 24287.00
577.3020, 24114.44
578.4740, 23953.00
579.6460, 23759.00
580.8180, 23771.00
581.9900, 23556.00
583.1620, 23361.00
584.3330, 23400.00
585.5040, 23308.00
586.6760, 23123.00
587.8470, 23231.00
589.0180, 23201.00
590.1880, 23167.00
591.3590, 23270.00
592.5290, 23272.00
593.7000, 23180.00
594.8700, 23126.00
596.0400, 23062.00
597.2090, 23277.00
598.3790, 23225.00
599.5490, 23310.00
600.7180, 23352.54
601.8870, 23258.00
603.0560, 23374.00
604.2250, 23292.00
605.3940, 23271.00
606.5620, 23207.00
607.7300, 23443.00
608.8990, 23488.00
610.0670, 23505.91
611.2350, 23543.00
612.4020, 23521.00
613.5700, 23520.00
614.7370, 23474.00
615.9050, 23480.33
617.0720, 23591.00
618.2390, 23537.00
619.4060, 23666.00
620.5720, 23837.00
621.7390, 23450.00
622.9050, 23773.00
624.0710, 23754.00
625.2370, 23851.00
626.4030, 23927.00
627.5690, 24021.00
628.7340, 23958.00
629.9000, 23821.00
631.0650, 24004.00
632.2300, 24013.00
633.3950, 24017.00
634.5600, 24310.00
635.7240, 24326.00
636.8890, 24399.00
638.0530, 24481.00
639.2170, 24592.00
640.3810, 24703.00
641.5450, 24538.00
642.7080, 24814.00
643.8720, 24763.00
645.0350, 24948.13
646.1980, 25091.00
647.3610, 25175.63
648.5240, 25546.25
649.6870, 25841.61
650.8490, 26065.55
652.0120, 26005.10
653.1740, 26311.94
654.3360, 26471.52
655.4980, 26625.06
656.6600, 26983.62
657.8210, 26964.22
658.9830, 27319.53
660.1440, 27525.16
661.3050, 27799.22
662.4660, 27925.10
663.6270, 28096.75
664.7870, 28536.00
665.9480, 28934.00
667.1080, 29328.28
668.2680, 29687.25
669.4280, 30194.00
670.5880, 30365.00
671.7480, 30714.00
672.9070, 31075.00
674.0670, 31067.00
675.2260, 31310.00
676.3850, 31539.00
677.5440, 31437.00
678.7030, 31161.00
679.8610, 30874.00
681.0200, 30931.00
682.1780, 30577.00
683.3360, 30429.00
684.4940, 30376.00
685.6520, 30118.00
686.8090, 30197.00
687.9670, 30394.00
689.1240, 30261.00
690.2810, 30541.00
691.4380, 30655.00
692.5950, 30849.00
693.7520, 31243.00
694.9080, 31484.00
696.0650, 32071.00
697.2210, 32571.00
698.3770, 32783.00
699.5330, 33509.00
700.6880, 33916.00
701.8440, 34628.45
702.9990, 35413.00
704.1550, 36048.00
705.3100, 36582.00
706.4650, 37040.00
707.6190, 37841.00
708.7740, 38438.00
709.9290, 38646.00
711.0830, 39389.00
712.2370, 39544.00
713.3910, 40150.00
714.5450, 40624.00
715.6980, 40900.00
716.8520, 41077.00
718.0050, 41121.00
719.1580, 41216.00
720.3110, 40965.17
721.4640, 41057.00
722.6170, 40343.00
723.7700, 40342.00
724.9220, 40068.00
726.0740, 39293.00
727.2260, 39250.00
728.3780, 38611.00
729.5300, 37804.00
730.6810, 37186.00
731.8330, 36719.00
732.9840, 36022.10
734.1350, 35535.00
735.2860, 34975.00
736.4370, 34299.00
737.5880, 34044.00
738.7380, 33584.00
739.8880, 33287.00
741.0390, 32879.00
742.1890, 32675.08
743.3380, 32668.00
744.4880, 32356.00
745.6380, 32044.00
746.7870, 31956.00
747.9360, 32083.00
749.0850, 31723.00
750.2340, 31979.00
751.3830, 31815.00
752.5310, 32140.00
753.6800, 32169.00
754.8280, 32214.00
755.9760, 32186.00
757.1240, 32094.00
758.2720, 32454.00
759.4190, 32835.00
760.5670, 32551.00
761.7140, 32607.00
762.8610, 32445.00
764.0080, 32612.00
765.1550, 32862.00
766.3020, 32858.00
767.4480, 32770.00
768.5950, 32804.00
769.7410, 32540.00
770.8870, 32334.00
772.0330, 32122.00
773.1780, 31635.00
774.3240, 31709.00
775.4690, 31158.00
776.6140, 30873.00
777.7590, 30692.00
778.9040, 30471.00
780.0490, 30171.41
781.1940, 29715.00
782.3380, 29582.53
783.4820, 29194.00
784.6260, 28892.92
785.7700, 28296.00
786.9140, 27998.00
788.0580, 27622.00
789.2010, 27196.00
790.3450, 26914.00
791.4880, 26560.00
792.6310, 26277.00
793.7730, 26214.00
794.9160, 26011.00
796.0590, 25738.00
797.2010, 25513.00
798.3430, 25371.93
799.4850, 25169.00
800.6270, 25103.42
801.7690, 24982.00
802.9100, 24830.00
804.0520, 24628.00
805.1930, 24477.00
806.3340, 24277.00
807.4750, 24200.00
808.6160, 24336.00
809.7560, 24364.00
810.8970, 23723.00
812.0370, 23704.00
813.1770, 23905.00
814.3170, 23418.00
815.4570, 23858.00
816.5960, 24120.00
817.7360, 23579.00
818.8750, 23366.00
820.0140, 23338.00
821.1530, 23165.00
822.2920, 23237.00
823.4310, 23293.00
824.5690, 23067.00
825.7070, 23175.00
826.8460, 23094.00
827.9840, 23011.00
829.1220, 23009.00
830.2590, 23165.00
831.3970, 23081.00
832.5340, 23199.00
833.6710, 23115.00
834.8080, 22984.00
835.9450, 22953.00
837.0820, 23017.00
838.2190, 23086.00
839.3550, 23143.00
840.4910, 23281.00
841.6270, 23140.67
842.7630, 23305.00
843.8990, 22905.00
845.0350, 22941.00
846.1700, 22930.00
847.3060, 22960.00
848.4410, 23290.00
849.5760, 23044.00
850.7100, 23202.00
851.8450, 23006.00
852.9800, 23031.00
854.1140, 22992.00
855.2480, 22879.00
856.3820, 23114.00
857.5160, 23346.00
858.6500, 22928.00
859.7830, 23176.00
860.9170, 23067.00
862.0500, 23114.95
863.1830, 23226.94
864.3160, 23289.00
865.4480, 23380.00
866.5810, 23356.00
867.7130, 23413.00
868.8460, 23459.00
869.9780, 23394.00
871.1100, 23362.00
872.2410, 23497.00
873.3730, 23432.00
874.5050, 23475.00
875.6360, 23683.00
876.7670, 23628.71
877.8980, 23592.00
879.0290, 23623.00
880.1590, 23862.00
881.2900, 23734.00
882.4200, 23757.00
883.5500, 23871.00
884.6800, 23804.00
885.8100, 23927.67
886.9400, 23946.66
888.0690, 24020.00
889.1990, 24050.00
890.3280, 23911.00
891.4570, 23997.00
892.5860, 24132.00
893.7140, 24392.00
894.8430, 24394.00
895.9710, 24341.00
897.1000, 24379.00
898.2280, 24255.00
899.3560, 24458.00
900.4830, 24391.00
901.6110, 24525.00
902.7380, 24555.00
903.8660, 24573.00
904.9930, 24773.00
906.1200, 24865.00
907.2460, 24925.00
908.3730, 24829.00
909.5000, 24752.00
910.6260, 24817.00
911.7520, 24961.00
912.8780, 25018.00
914.0040, 25050.68
915.1290, 25141.00
916.2550, 25063.00
917.3800, 25052.00
918.5050, 25028.00
919.6300, 25019.00
920.7550, 25130.00
921.8800, 25107.00
923.0040, 25097.00
924.1290, 24924.00
925.2530, 25216.00
926.3770, 25533.00
927.5010, 25238.00
928.6250, 25176.00
929.7480, 25231.00
930.8720, 25175.00
931.9950, 25074.00
933.1180, 24931.00
934.2410, 25161.00
935.3640, 25028.00
936.4860, 25048.00
937.6090, 25029.00
938.7310, 25027.82
939.8530, 25147.00
940.9750, 25125.00
942.0970, 25021.00
943.2180, 25126.00
944.3400, 24985.00
945.4610, 25103.00
946.5820, 25190.00
947.7030, 25051.00
948.8240, 25051.00
949.9450, 24966.00
951.0650, 25014.00
952.1860, 24910.00
953.3060, 24983.00
954.4260, 24997.00
955.5460, 24974.00
956.6650, 24853.00
957.7850, 24830.77
958.9040, 25001.00
960.0230, 24780.00
961.1420, 24771.00
962.2610, 24945.00
963.3800, 24668.00
964.4990, 24715.00
965.6170, 24700.00
966.7350, 24765.00
967.8530, 24733.00
968.9710, 24757.26
970.0890, 24772.11
971.2070, 24743.00
972.3240, 24764.99
973.4410, 24686.00
974.5580, 24620.00
975.6750, 24798.00
976.7920, 24635.00
977.9090, 24831.00
979.0250, 24539.00
980.1410, 24842.00
981.2580, 24779.00
982.3740, 24872.00
983.4890, 24774.00
984.6050, 24831.00
985.7200, 24858.00
986.8360, 24890.00
987.9510, 24832.00
989.0660, 24833.92
990.1810, 24944.00
991.2950, 24760.00
992.4100, 24771.00
993.5240, 24723.00
994.6390, 24933.00
995.7530, 24978.00
996.8660, 24899.00
997.9800, 24985.00
999.0940, 24942.00
1000.207, 24898.50
1001.320, 24951.00
1002.433, 24810.00
1003.546, 24881.00
1004.659, 24883.00
1005.772, 24982.00
1006.884, 24791.00
1007.996, 24820.00
1009.108, 25102.00
1010.220, 24973.00
1011.332, 25073.00
1012.444, 24904.00
1013.555, 24947.00
1014.666, 25228.00
1015.777, 25272.00
1016.888, 25206.00
1017.999, 25317.15
1019.110, 25319.00
1020.220, 25304.00
1021.331, 25275.00
1022.441, 25238.00
1023.551, 25163.00
1024.661, 25196.00
1025.770, 25349.00
1026.880, 25491.00
1027.989, 25346.00
1029.098, 25228.00
1030.207, 25361.00
1031.316, 25418.00
1032.425, 25371.00
1033.533, 25314.00
1034.642, 25366.00
1035.750, 25351.00
1036.858, 25329.03
1037.966, 25272.00
1039.073, 25311.00
1040.181, 25397.00
1041.288, 25443.00
1042.396, 25522.00
1043.503, 25422.00
1044.610, 25381.00
1045.716, 25311.00
1046.823, 25312.00
1047.929, 25565.00
1049.036, 25657.00
1050.142, 25381.00
1051.248, 25665.00
1052.353, 25505.00
1053.459, 25533.00
1054.564, 25661.00
1055.670, 25501.00
1056.775, 25524.00
1057.880, 25507.00
1058.985, 25524.00
1060.089, 25459.00
1061.194, 25739.00
1062.298, 25595.04
1063.402, 25684.00
1064.506, 25513.00
1065.610, 25627.00
1066.713, 25654.00
1067.817, 25529.00
1068.920, 25651.00
1070.023, 25555.00
1071.126, 25397.00
1072.229, 25584.00
1073.332, 25743.00
1074.435, 25504.00
1075.537, 25312.00
1076.639, 25613.00
1077.741, 25610.00
1078.843, 25515.00
1079.945, 25545.00
1081.046, 25447.00
1082.148, 25471.90
1083.249, 25238.39
1084.350, 25379.02
1085.451, 25444.37
1086.551, 25438.53
1087.652, 25148.08
1088.752, 25225.12
1089.853, 25154.88
1090.953, 25078.62
1092.053, 25207.39
1093.152, 24958.38
1094.252, 25083.90
1095.351, 25059.93
1096.451, 25104.36
1097.550, 25000.64
1098.649, 24942.70
1099.748, 25032.97
1100.846, 25041.20
1101.945, 24920.43
1103.043, 24969.27
1104.141, 24715.11
1105.239, 24726.84
1106.337, 24853.28
1107.434, 24740.02
1108.532, 24791.56
1109.629, 24780.36
1110.726, 24483.84
1111.823, 24683.51
1112.920, 24668.59
1114.017, 24433.35
1115.113, 24616.04
1116.210, 24411.17
1117.306, 24344.66
1118.402, 24382.24
1119.498, 24311.31
1120.593, 24411.50
1121.689, 24346.83
1122.784, 24267.46
1123.879, 24252.36
1124.974, 24055.15
1126.069, 24195.80
1127.164, 24105.66
1128.259, 24130.23
1129.353, 24180.84
1130.447, 24032.35
1131.541, 24094.64
1132.635, 23830.06
1133.729, 23838.99
1134.822, 23818.49
1135.916, 23972.79
1137.009, 23709.82
1138.102, 23711.18
1139.195, 23825.08
1140.288, 23781.50
1141.380, 23965.00
1142.473, 23676.00
1143.565, 23692.00
1144.657, 23529.00
1145.749, 23532.00
1146.841, 23483.00
1147.932, 23446.00
1149.024, 23592.00
1150.115, 23543.00
1151.206, 23435.00
1152.297, 23619.00
1153.388, 23527.56
1154.479, 23513.88
1155.569, 23492.00
1156.659, 23454.00
1157.750, 23361.00
1158.839, 23384.00
1159.929, 23370.00
1161.019, 23480.00
1162.108, 23328.00
1163.198, 23357.00
1164.287, 23293.00
1165.376, 23375.00
1166.465, 23361.00
1167.553, 23320.00
1168.642, 23199.00
1169.730, 23363.00
1170.818, 23229.00
1171.906, 23190.00
1172.994, 23265.00
1174.082, 23244.00
1175.170, 23358.00
1176.257, 23136.00
1177.344, 23278.00
1178.431, 23149.00
1179.518, 23316.00
1180.605, 23106.00
1181.691, 23347.00
1182.778, 23209.00
1183.864, 23112.00
1184.950, 23316.00
1186.036, 23144.00
1187.122, 23189.00
1188.207, 23225.00
1189.292, 23254.00
1190.378, 23102.00
1191.463, 23063.00
1192.548, 23059.00
1193.632, 23331.00
1194.717, 23256.00
1195.801, 23143.00
1196.886, 23216.00
1197.970, 23094.00
1199.054, 22962.00
1200.137, 23149.00
1201.221, 22980.00
1202.305, 23090.00
1203.388, 23171.00
1204.471, 23299.00
1205.554, 23142.00
1206.637, 23358.00
1207.719, 22997.00
1208.802, 23127.01
1209.884, 23521.00
1210.966, 23176.00
1212.048, 23193.00
1213.130, 23193.00
1214.212, 23220.00
1215.293, 23191.00
1216.374, 23050.00
1217.456, 23026.00
1218.536, 23097.00
1219.617, 22965.00
1220.698, 23092.00
1221.778, 23218.00
1222.859, 23199.00
1223.939, 23301.00
1225.019, 23266.00
1226.099, 23284.21
1227.178, 23268.28
1228.258, 23270.00
1229.337, 23170.00
1230.417, 23136.00
1231.496, 23046.00
1232.574, 23250.00
1233.653, 23120.88
1234.732, 23358.00
1235.810, 23037.00
1236.888, 23152.00
1237.966, 23132.00
1239.044, 23200.00
1240.122, 23132.00
1241.199, 23227.00
1242.277, 23206.00
1243.354, 22831.00
1244.431, 23138.00
1245.508, 22996.00
1246.585, 23144.00
1247.661, 23239.00
1248.738, 23095.00
1249.814, 23143.00
1250.890, 23075.00
1251.966, 23034.00
1253.042, 23092.30
1254.117, 23165.00
1255.193, 23143.00
1256.268, 23147.00
1257.343, 23082.00
1258.418, 23154.00
1259.493, 23292.00
1260.567, 23198.38
1261.642, 23164.00
1262.716, 23055.00
1263.790, 23042.93
1264.864, 23044.00
1265.938, 23080.00
1267.011, 23097.00
1268.085, 23271.00
1269.158, 23245.00
1270.231, 23267.09
1271.304, 23138.00
1272.377, 23205.00
1273.450, 23269.63
1274.522, 23193.15
1275.594, 23155.77
1276.666, 22960.00
1277.738, 23045.00
1278.810, 23063.00
1279.882, 23085.17
1280.953, 23255.25
1282.025, 23350.04
1283.096, 23373.61
1284.167, 23112.60
1285.238, 23219.06
1286.308, 23178.26
1287.379, 23131.42
1288.449, 23289.60
1289.519, 23069.99
1290.589, 23224.92
1291.659, 23230.34
1292.729, 23304.19
1293.798, 23229.86
1294.868, 23201.30
1295.937, 23320.96
1297.006, 23358.55
1298.075, 23267.17
1299.143, 23345.37
1300.212, 23120.58
1301.280, 23161.67
1302.348, 23317.47
1303.416, 23233.54
1304.484, 23314.45
1305.552, 23332.58
1306.620, 23065.40
1307.687, 23294.40
1308.754, 23308.83
1309.821, 23102.92
1310.888, 23314.92
1311.955, 23139.39
1313.021, 23102.18
1314.088, 23169.07
1315.154, 23127.45
1316.220, 23256.92
1317.286, 23221.56
1318.352, 23171.47
1319.417, 23185.66
1320.483, 23017.72
1321.548, 23187.65
1322.613, 23126.79
1323.678, 23180.65
1324.743, 23260.52
1325.807, 23141.28
1326.872, 23232.83
1327.936, 22997.50
1329.000, 23035.68
1330.064, 23044.41
1331.128, 23227.96
1332.191, 22994.23
1333.255, 23024.81
1334.318, 23167.94
1335.381, 23153.59
1336.444, 23205.09
1337.507, 23061.67
1338.569, 23101.35
1339.632, 23090.57
1340.694, 23254.19
1341.756, 23280.13
1342.818, 23140.02
1343.880, 23000.61
1344.941, 23176.79
1346.003, 23053.85
1347.064, 23092.28
1348.125, 22964.05
1349.186, 22979.73
1350.247, 22993.12
1351.308, 23080.27
1352.368, 22943.75
1353.428, 23097.37
1354.489, 23083.30
1355.549, 23118.62
1356.608, 23148.46
1357.668, 22953.25
1358.727, 22942.53
1359.787, 23195.76
1360.846, 23046.44
1361.905, 22978.37
1362.964, 22968.05
1364.022, 23230.33
1365.081, 23239.24
1366.139, 22945.29
1367.197, 23195.56
1368.255, 23111.02
1369.313, 23125.97
1370.371, 23173.00
1371.428, 22982.00
1372.486, 22934.00
1373.543, 22939.81
1374.600, 22942.89
1375.657, 22974.00
1376.713, 23058.00
1377.770, 23221.00
1378.826, 23202.00
1379.882, 23189.00
1380.938, 23214.00
1381.994, 23061.00
1383.050, 23138.98
1384.106, 22997.00
1385.161, 23164.00
1386.216, 23146.00
1387.271, 23073.00
1388.326, 23135.00
1389.381, 23138.00
1390.435, 23157.18
1391.490, 23106.00
1392.544, 23248.00
1393.598, 23253.00
1394.652, 23331.97
1395.705, 23274.00
1396.759, 23322.00
1397.812, 23262.00
1398.866, 23123.00
1399.919, 23171.00
1400.972, 23159.00
1402.024, 23178.00
1403.077, 23218.01
1404.129, 23304.00
1405.181, 23260.00
1406.233, 23288.00
1407.285, 23235.00
1408.337, 23236.00
1409.389, 23291.00
1410.440, 23324.00
1411.491, 23253.00
1412.542, 23379.00
1413.593, 23448.00
1414.644, 23398.00
1415.695, 23287.00
1416.745, 23357.00
1417.795, 23182.00
1418.845, 23332.00
1419.895, 23333.00
1420.945, 23320.00
1421.995, 23370.00
1423.044, 23402.82
1424.093, 23477.00
1425.142, 23514.00
1426.191, 23437.00
1427.240, 23474.00
1428.289, 23348.00
1429.337, 23362.00
1430.385, 23542.00
1431.433, 23397.00
1432.481, 23619.00
1433.529, 23564.00
1434.577, 23281.00
1435.624, 23459.00
1436.672, 23608.00
1437.719, 23668.00
1438.766, 23551.00
1439.812, 23408.00
1440.859, 23467.00
1441.905, 23484.00
1442.952, 23464.00
1443.998, 23553.00
1445.044, 23257.14
1446.090, 23427.46
1447.135, 23522.50
1448.181, 23546.31
1449.226, 23285.54
1450.271, 23392.25
1451.316, 23351.69
1452.361, 23305.09
1453.405, 23463.52
