##NAMES=Aragonite
##RRUFFID=R060195
##IDEAL CHEMISTRY=CaCO_3_
##LOCALITY=Cicov Hill, Horenec, Czech Republic
##OWNER=RRUFF
##SOURCE=Marcus Origlieri
##DESCRIPTION=Colorless transparent elongated prismatic crystal
##STATUS=The identification of this mineral has been confirmed by X-ray diffraction and chemical analysis
##URL=rruff.info/R060195
##MEASURED CHEMISTRY=Ca_1.00_CO_3_
##PIN_ID=L01088
##ORIENTATION=Laser parallel to b* (0 1 0). Fiducial mark perpendicular to laser is parallel to c [0 0 1]
100.8830, 7407.000
102.1160, 7627.000
103.3490, 7520.000
104.5820, 7695.000
105.8150, 7845.000
107.0470, 7790.000
108.2800, 7841.000
109.5120, 7942.000
110.7440, 7895.000
111.9760, 8015.000
113.2080, 7968.000
114.4400, 8123.000
115.6710, 8075.000
116.9030, 8150.000
118.1340, 8176.000
119.3650, 8317.000
120.5960, 8338.000
121.8270, 8363.088
123.0580, 8261.000
124.2880, 8388.000
125.5190, 8331.000
126.7490, 8373.000
127.9790, 8401.000
129.2090, 8420.000
130.4390, 8450.048
131.6680, 8576.000
132.8980, 8506.000
134.1270, 8656.000
135.3560, 8719.000
136.5850, 8727.000
137.8140, 8689.000
139.0430, 8874.000
140.2710, 9009.000
141.5000, 9385.000
142.7280, 9703.000
143.9560, 10134.00
145.1840, 10578.00
146.4120, 10594.00
147.6390, 10148.00
148.8670, 9659.000
150.0940, 9300.000
151.3210, 9177.000
152.5490, 9193.000
153.7750, 9194.000
155.0020, 9269.000
156.2290, 9367.000
157.4550, 9303.000
158.6810, 9450.000
159.9080, 9437.000
161.1340, 9571.000
162.3590, 9780.000
163.5850, 9803.000
164.8110, 10083.00
166.0360, 9890.000
167.2610, 9774.000
168.4860, 9406.000
169.7110, 9270.000
170.9360, 9406.000
172.1610, 9201.000
173.3850, 9288.000
174.6100, 9453.000
175.8340, 9357.000
177.0580, 9288.000
178.2820, 9405.000
179.5050, 9407.000
180.7290, 9388.000
181.9520, 9505.000
183.1760, 9576.000
184.3990, 9639.000
185.6220, 9577.000
186.8450, 9679.000
188.0670, 9690.038
189.2900, 9761.000
190.5120, 9752.000
191.7340, 9752.000
192.9560, 9744.000
194.1780, 9839.000
195.4000, 9827.000
196.6220, 9904.000
197.8430, 9770.000
199.0640, 9785.000
200.2860, 9701.000
201.5070, 9790.000
202.7270, 9853.000
203.9480, 9910.000
205.1690, 9906.000
206.3890, 10030.00
207.6090, 10228.00
208.8290, 10435.00
210.0490, 10243.00
211.2690, 10249.00
212.4890, 10254.00
213.7080, 10097.00
214.9280, 10173.00
216.1470, 10242.00
217.3660, 10194.00
218.5850, 10131.00
219.8030, 10029.00
221.0220, 9920.000
222.2400, 10044.00
223.4590, 9998.000
224.6770, 9911.000
225.8950, 9877.000
227.1120, 9866.000
228.3300, 10015.00
229.5480, 9905.000
230.7650, 9912.000
231.9820, 10054.00
233.1990, 9945.000
234.4160, 10004.00
235.6330, 10006.00
236.8490, 9936.000
238.0660, 10015.00
239.2820, 10051.00
240.4980, 10001.00
241.7140, 10049.00
242.9300, 9977.000
244.1460, 10081.00
245.3610, 10043.00
246.5770, 10039.00
247.7920, 10099.00
249.0070, 10135.00
250.2220, 10208.00
251.4370, 10253.01
252.6510, 10323.00
253.8660, 10301.00
255.0800, 10309.00
256.2940, 10210.00
257.5080, 10134.00
258.7220, 10323.00
259.9360, 10157.00
261.1490, 10393.00
262.3630, 10285.00
263.5760, 10317.00
264.7890, 10341.00
266.0020, 10350.00
267.2150, 10409.73
268.4270, 10449.00
269.6400, 10530.00
270.8520, 10507.00
272.0640, 10578.00
273.2760, 10550.00
274.4880, 10594.00
275.7000, 10638.00
276.9120, 10595.00
278.1230, 10665.00
279.3340, 10629.00
280.5450, 10673.00
281.7560, 10694.00
282.9670, 10686.74
284.1780, 10803.00
285.3880, 10728.00
286.5980, 10708.00
287.8090, 10796.00
289.0190, 10800.00
290.2290, 10836.00
291.4380, 10753.00
292.6480, 10717.00
293.8570, 10763.00
295.0670, 10812.00
296.2760, 10691.00
297.4850, 10795.00
298.6930, 10848.00
299.9020, 10878.00
301.1110, 10784.00
302.3190, 10686.00
303.5270, 10793.00
304.7350, 10786.00
305.9430, 10901.00
307.1510, 10931.00
308.3580, 10657.00
309.5660, 10812.00
310.7730, 10766.00
311.9800, 10810.00
313.1870, 10817.00
314.3940, 10943.00
315.6010, 10931.00
316.8070, 10929.39
318.0130, 10888.00
319.2200, 10874.00
320.4260, 10850.00
321.6310, 10829.00
322.8370, 10854.00
324.0430, 10866.31
325.2480, 10914.00
326.4540, 10950.00
327.6590, 10984.00
328.8640, 11057.00
330.0680, 11087.00
331.2730, 11083.00
332.4780, 11119.00
333.6820, 11051.00
334.8860, 11120.00
336.0900, 11095.00
337.2940, 11211.00
338.4980, 11092.00
339.7010, 11087.00
340.9050, 11012.00
342.1080, 11109.00
343.3110, 11148.00
344.5140, 11267.00
345.7170, 11262.00
346.9200, 11158.00
348.1220, 11287.00
349.3240, 11344.00
350.5270, 11253.00
351.7290, 11300.00
352.9310, 11195.00
354.1320, 11252.00
355.3340, 11210.00
356.5350, 11360.00
357.7370, 11369.00
358.9380, 11475.00
360.1390, 11480.16
361.3400, 11503.00
362.5400, 11468.00
363.7410, 11469.00
364.9410, 11465.00
366.1410, 11378.00
367.3410, 11370.00
368.5410, 11404.00
369.7410, 11364.00
370.9400, 11501.00
372.1400, 11595.00
373.3390, 11588.00
374.5380, 11610.89
375.7370, 11490.00
376.9360, 11550.00
378.1350, 11523.00
379.3330, 11525.00
380.5310, 11627.00
381.7300, 11627.00
382.9280, 11539.00
384.1260, 11787.00
385.3230, 11657.00
386.5210, 11676.00
387.7180, 11720.00
388.9160, 11677.00
390.1130, 11805.00
391.3100, 11789.00
392.5060, 11732.00
393.7030, 11825.00
394.9000, 11709.00
396.0960, 11716.00
397.2920, 11788.00
398.4880, 11675.00
399.6840, 11890.00
400.8800, 11832.00
402.0750, 11814.00
403.2710, 11739.00
404.4660, 11773.16
405.6610, 11751.91
406.8560, 11821.00
408.0510, 11783.00
409.2450, 11762.00
410.4400, 11812.00
411.6340, 11844.00
412.8280, 11867.36
414.0220, 11920.64
415.2160, 11929.00
416.4100, 11997.00
417.6030, 12004.00
418.7970, 12002.00
419.9900, 11998.00
421.1830, 12075.00
422.3760, 12114.00
423.5690, 12009.00
424.7610, 12089.00
425.9540, 12257.00
427.1460, 12098.00
428.3380, 12185.00
429.5300, 12049.00
430.7220, 12203.00
431.9140, 12035.00
433.1050, 12176.00
434.2970, 12231.00
435.4880, 12201.00
436.6790, 12247.00
437.8700, 12166.00
439.0610, 12211.00
440.2510, 12311.00
441.4420, 12162.00
442.6320, 12244.00
443.8220, 12338.00
445.0120, 12304.00
446.2020, 12261.00
447.3910, 12398.00
448.5810, 12293.00
449.7700, 12302.00
450.9600, 12309.00
452.1490, 12265.00
453.3370, 12465.00
454.5260, 12555.00
455.7150, 12414.00
456.9030, 12325.00
458.0910, 12353.00
459.2800, 12430.00
460.4670, 12338.00
461.6550, 12465.00
462.8430, 12391.00
464.0300, 12478.00
465.2180, 12606.00
466.4050, 12452.00
467.5920, 12584.00
468.7790, 12656.00
469.9650, 12612.00
471.1520, 12652.00
472.3380, 12689.00
473.5250, 12611.00
474.7110, 12579.00
475.8970, 12685.00
477.0820, 12598.00
478.2680, 12681.00
479.4540, 12783.00
480.6390, 12726.00
481.8240, 12756.00
483.0090, 12691.00
484.1940, 12748.00
485.3780, 12784.00
486.5630, 12581.00
487.7470, 12772.00
488.9320, 12820.00
490.1160, 12658.00
491.3000, 12886.00
492.4830, 12690.00
493.6670, 12813.00
494.8500, 12890.00
496.0340, 12907.00
497.2170, 12851.00
498.4000, 12926.00
499.5820, 13082.00
500.7650, 12948.00
501.9480, 13050.00
503.1300, 12916.00
504.3120, 12949.00
505.4940, 12933.00
506.6760, 13004.00
507.8580, 12994.00
509.0390, 13108.00
510.2210, 13021.00
511.4020, 13019.00
512.5830, 13014.00
513.7640, 12941.00
514.9450, 13182.00
516.1250, 13058.00
517.3060, 13218.00
518.4860, 13133.00
519.6660, 13183.00
520.8460, 13074.00
522.0260, 13104.00
523.2060, 13159.00
524.3850, 13215.00
525.5650, 13223.08
526.7440, 13193.00
527.9230, 13268.00
529.1020, 13182.00
530.2810, 13246.00
531.4590, 13346.00
532.6380, 13143.00
533.8160, 13293.00
534.9940, 13212.00
536.1720, 13188.00
537.3500, 13483.00
538.5270, 13379.00
539.7050, 13445.00
540.8820, 13285.00
542.0590, 13469.00
543.2360, 13370.00
544.4130, 13461.00
545.5900, 13450.00
546.7660, 13399.00
547.9430, 13380.00
549.1190, 13387.00
550.2950, 13480.00
551.4710, 13494.00
552.6470, 13446.00
553.8220, 13570.00
554.9980, 13560.00
556.1730, 13611.00
557.3480, 13603.00
558.5230, 13492.00
559.6980, 13570.00
560.8730, 13614.00
562.0470, 13498.00
563.2220, 13728.00
564.3960, 13570.00
565.5700, 13660.00
566.7440, 13634.00
567.9170, 13483.00
569.0910, 13764.00
570.2640, 13708.00
571.4380, 13802.00
572.6110, 13769.00
573.7840, 13736.00
574.9570, 13629.00
576.1290, 13746.00
577.3020, 13798.00
578.4740, 13916.00
579.6460, 13904.36
580.8180, 13906.26
581.9900, 13836.00
583.1620, 13855.00
584.3330, 13750.00
585.5040, 13775.00
586.6760, 13854.00
587.8470, 13792.00
589.0180, 13969.00
590.1880, 13866.00
591.3590, 14003.00
592.5290, 13955.00
593.7000, 13774.00
594.8700, 13939.00
596.0400, 14011.00
597.2090, 14089.00
598.3790, 14142.58
599.5490, 14114.00
600.7180, 14127.00
601.8870, 14119.00
603.0560, 14104.12
604.2250, 13983.00
605.3940, 14119.00
606.5620, 14071.00
607.7300, 14160.00
608.8990, 14189.71
610.0670, 14194.00
611.2350, 14222.00
612.4020, 14210.00
613.5700, 14168.00
614.7370, 14168.00
615.9050, 14235.00
617.0720, 14155.00
618.2390, 14385.00
619.4060, 14253.00
620.5720, 14263.00
621.7390, 14414.00
622.9050, 14297.00
624.0710, 14058.00
625.2370, 14353.00
626.4030, 14431.00
627.5690, 14190.00
628.7340, 14476.00
629.9000, 14345.00
631.0650, 14498.00
632.2300, 14450.00
633.3950, 14436.00
634.5600, 14348.00
635.7240, 14481.00
636.8890, 14620.00
638.0530, 14471.00
639.2170, 14430.00
640.3810, 14540.00
641.5450, 14526.00
642.7080, 14487.00
643.8720, 14564.00
645.0350, 14608.00
646.1980, 14646.00
647.3610, 14626.00
648.5240, 14499.00
649.6870, 14511.00
650.8490, 14525.00
652.0120, 14524.00
653.1740, 14679.00
654.3360, 14698.00
655.4980, 14691.00
656.6600, 14551.00
657.8210, 14617.00
658.9830, 14657.00
660.1440, 14645.00
661.3050, 14729.00
662.4660, 14797.00
663.6270, 14849.00
664.7870, 14823.00
665.9480, 14686.00
667.1080, 14765.00
668.2680, 14732.00
669.4280, 14878.00
670.5880, 14868.00
671.7480, 14991.00
672.9070, 14873.00
674.0670, 14917.00
675.2260, 15086.00
676.3850, 14901.00
677.5440, 14909.00
678.7030, 14922.00
679.8610, 15054.00
681.0200, 14992.00
682.1780, 14981.00
683.3360, 15042.00
684.4940, 14923.00
685.6520, 15094.00
686.8090, 15227.00
687.9670, 15106.00
689.1240, 14942.00
690.2810, 15236.00
691.4380, 15282.00
692.5950, 15017.00
693.7520, 15216.00
694.9080, 15235.00
696.0650, 15188.00
697.2210, 15190.00
698.3770, 15488.00
699.5330, 15672.00
700.6880, 15823.00
701.8440, 16015.00
702.9990, 16359.00
704.1550, 16859.00
705.3100, 17223.00
706.4650, 17896.00
707.6190, 18152.00
708.7740, 17446.00
709.9290, 16531.00
711.0830, 15733.00
712.2370, 15703.00
713.3910, 15415.00
714.5450, 15498.00
715.6980, 15396.00
716.8520, 15361.00
718.0050, 15391.00
719.1580, 15370.00
720.3110, 15507.00
721.4640, 15539.00
722.6170, 15464.00
723.7700, 15304.00
724.9220, 15511.00
726.0740, 15392.00
727.2260, 15396.00
728.3780, 15521.00
729.5300, 15606.00
730.6810, 15558.00
731.8330, 15635.00
732.9840, 15517.00
734.1350, 15682.00
735.2860, 15546.00
736.4370, 15733.00
737.5880, 15538.00
738.7380, 15606.00
739.8880, 15602.00
741.0390, 15585.00
742.1890, 15573.00
743.3380, 15559.00
744.4880, 15633.00
745.6380, 15748.00
746.7870, 15695.00
747.9360, 15628.00
749.0850, 15730.00
750.2340, 15676.00
751.3830, 15713.00
752.5310, 15845.00
753.6800, 15924.00
754.8280, 15845.00
755.9760, 15689.00
757.1240, 15873.00
758.2720, 15899.00
759.4190, 15800.00
760.5670, 15835.00
761.7140, 15887.00
762.8610, 16113.00
764.0080, 15744.00
765.1550, 15870.00
766.3020, 16057.00
767.4480, 15931.00
768.5950, 16049.00
769.7410, 15993.00
770.8870, 15976.00
772.0330, 16015.00
773.1780, 15985.00
774.3240, 15983.00
775.4690, 15894.00
776.6140, 16010.00
777.7590, 16088.00
778.9040, 16302.00
780.0490, 16091.00
781.1940, 16186.00
782.3380, 16401.00
783.4820, 16109.00
784.6260, 16007.00
785.7700, 16109.00
786.9140, 16095.00
788.0580, 16095.00
789.2010, 16197.00
790.3450, 16339.00
791.4880, 16225.00
792.6310, 16251.00
793.7730, 16437.00
794.9160, 16269.00
796.0590, 16350.00
797.2010, 16204.00
798.3430, 16338.00
799.4850, 16420.00
800.6270, 16289.00
801.7690, 16360.00
802.9100, 16327.00
804.0520, 16313.00
805.1930, 16431.00
806.3340, 16378.00
807.4750, 16595.00
808.6160, 16416.00
809.7560, 16365.00
810.8970, 16699.00
812.0370, 16372.00
813.1770, 16604.00
814.3170, 16510.00
815.4570, 16477.00
816.5960, 16552.00
817.7360, 16606.00
818.8750, 16574.00
820.0140, 16578.00
821.1530, 16485.00
822.2920, 16589.00
823.4310, 16524.00
824.5690, 16712.00
825.7070, 16566.00
826.8460, 16590.00
827.9840, 16650.00
829.1220, 16714.00
830.2590, 16780.00
831.3970, 16787.00
832.5340, 16656.00
833.6710, 16856.00
834.8080, 16549.00
835.9450, 16731.00
837.0820, 16731.00
838.2190, 16855.00
839.3550, 16881.09
840.4910, 16893.00
841.6270, 16911.00
842.7630, 16909.00
843.8990, 16924.00
845.0350, 16990.00
846.1700, 16857.00
847.3060, 17012.00
848.4410, 16893.00
849.5760, 16970.00
850.7100, 16959.00
851.8450, 16948.00
852.9800, 17077.00
854.1140, 17033.00
855.2480, 16946.00
856.3820, 17025.00
857.5160, 17152.00
858.6500, 17138.00
859.7830, 17091.00
860.9170, 17321.00
862.0500, 17110.00
863.1830, 17041.00
864.3160, 17099.00
865.4480, 17200.00
866.5810, 17130.00
867.7130, 17136.00
868.8460, 17129.00
869.9780, 17123.70
871.1100, 17126.41
872.2410, 17148.00
873.3730, 17129.00
874.5050, 17131.35
875.6360, 17137.34
876.7670, 17242.00
877.8980, 17250.00
879.0290, 17377.00
880.1590, 17439.00
881.2900, 17397.00
882.4200, 17530.00
883.5500, 17440.00
884.6800, 17485.00
885.8100, 17407.00
886.9400, 17422.00
888.0690, 17450.96
889.1990, 17447.00
890.3280, 17457.00
891.4570, 17492.00
892.5860, 17354.00
893.7140, 17504.00
894.8430, 17428.00
895.9710, 17572.00
897.1000, 17556.00
898.2280, 17536.00
899.3560, 17636.00
900.4830, 17678.00
901.6110, 17627.00
902.7380, 17680.00
903.8660, 17735.00
904.9930, 17687.27
906.1200, 17708.69
907.2460, 17648.00
908.3730, 17663.00
909.5000, 17670.00
910.6260, 17638.00
911.7520, 17663.00
912.8780, 17685.00
914.0040, 17817.00
915.1290, 17834.00
916.2550, 17769.00
917.3800, 17718.00
918.5050, 17742.16
919.6300, 17839.00
920.7550, 17785.00
921.8800, 17701.00
923.0040, 17749.00
924.1290, 17962.00
925.2530, 18030.00
926.3770, 17857.00
927.5010, 17987.00
928.6250, 17954.00
929.7480, 17831.00
930.8720, 18092.00
931.9950, 17883.00
933.1180, 18013.00
934.2410, 18091.00
935.3640, 17864.00
936.4860, 18122.00
937.6090, 18177.00
938.7310, 18070.00
939.8530, 18083.00
940.9750, 18230.00
942.0970, 18028.00
943.2180, 18175.00
944.3400, 18133.00
945.4610, 18088.00
946.5820, 18191.00
947.7030, 18044.00
948.8240, 18204.00
949.9450, 18252.00
951.0650, 18227.00
952.1860, 18195.00
953.3060, 18268.00
954.4260, 18236.00
955.5460, 18269.43
956.6650, 18293.38
957.7850, 18337.00
958.9040, 18288.00
960.0230, 18355.00
961.1420, 18258.00
962.2610, 18356.00
963.3800, 18374.00
964.4990, 18430.00
965.6170, 18351.00
966.7350, 18301.00
967.8530, 18603.00
968.9710, 18315.00
970.0890, 18377.00
971.2070, 18577.00
972.3240, 18508.00
973.4410, 18393.00
974.5580, 18663.00
975.6750, 18531.00
976.7920, 18671.00
977.9090, 18572.00
979.0250, 18689.00
980.1410, 18710.00
981.2580, 18698.00
982.3740, 18622.00
983.4890, 18732.00
984.6050, 18799.00
985.7200, 18814.00
986.8360, 18602.00
987.9510, 18829.00
989.0660, 18635.00
990.1810, 18698.00
991.2950, 18645.00
992.4100, 18802.00
993.5240, 18756.00
994.6390, 18718.00
995.7530, 18902.00
996.8660, 18894.00
997.9800, 18910.00
999.0940, 18833.00
1000.207, 18936.00
1001.320, 18947.00
1002.433, 18855.00
1003.546, 19003.00
1004.659, 18991.00
1005.772, 18843.00
1006.884, 18882.00
1007.996, 18991.00
1009.108, 19116.00
1010.220, 19157.00
1011.332, 18906.00
1012.444, 19001.00
1013.555, 18950.00
1014.666, 19108.00
1015.777, 19114.00
1016.888, 19136.00
1017.999, 19202.76
1019.110, 19234.16
1020.220, 19236.00
1021.331, 19271.00
1022.441, 19232.00
1023.551, 19237.13
1024.661, 19166.00
1025.770, 19233.00
1026.880, 19121.00
1027.989, 19166.00
1029.098, 19381.00
1030.207, 19343.00
1031.316, 19197.00
1032.425, 19376.00
1033.533, 19153.00
1034.642, 19253.00
1035.750, 19217.00
1036.858, 19364.00
1037.966, 19502.00
1039.073, 19441.00
1040.181, 19594.00
1041.288, 19294.00
1042.396, 19398.00
1043.503, 19383.00
1044.610, 19448.00
1045.716, 19552.00
1046.823, 19480.00
1047.929, 19442.00
1049.036, 19537.00
1050.142, 19589.00
1051.248, 19536.00
1052.353, 19538.00
1053.459, 19502.00
1054.564, 19753.00
1055.670, 19601.00
1056.775, 19613.00
1057.880, 19703.00
1058.985, 19518.00
1060.089, 19761.00
1061.194, 19745.00
1062.298, 19892.00
1063.402, 19710.00
1064.506, 19842.00
1065.610, 19833.00
1066.713, 19867.00
1067.817, 19973.00
1068.920, 20011.00
1070.023, 19902.00
1071.126, 20022.00
1072.229, 19896.00
1073.332, 19928.00
1074.435, 20178.00
1075.537, 20245.00
1076.639, 20224.00
1077.741, 20296.00
1078.843, 20540.00
1079.945, 20918.00
1081.046, 21612.00
1082.148, 22639.00
1083.249, 24608.00
1084.350, 29957.00
1085.451, 41329.00
1086.551, 57317.00
1087.652, 59335.00
1088.752, 44177.00
1089.853, 29564.00
1090.953, 23574.00
1092.053, 21544.00
1093.152, 20852.00
1094.252, 20697.00
1095.351, 20672.00
1096.451, 20409.00
1097.550, 20534.00
1098.649, 20240.00
1099.748, 20383.00
1100.846, 20145.00
1101.945, 20416.00
1103.043, 20429.00
1104.141, 20283.00
1105.239, 20256.00
1106.337, 20488.00
1107.434, 20252.00
1108.532, 20359.00
1109.629, 20615.00
1110.726, 20366.00
1111.823, 20370.00
1112.920, 20498.00
1114.017, 20533.00
1115.113, 20246.00
1116.210, 20560.00
1117.306, 20398.00
1118.402, 20575.00
1119.498, 20250.00
1120.593, 20595.00
1121.689, 20398.00
1122.784, 20544.00
1123.879, 20671.00
1124.974, 20628.00
1126.069, 20595.00
1127.164, 20640.00
1128.259, 20505.00
1129.353, 20728.00
1130.447, 20722.00
1131.541, 20682.00
1132.635, 20716.00
1133.729, 20770.00
1134.822, 20757.00
1135.916, 20864.00
1137.009, 20789.00
1138.102, 20661.00
1139.195, 20776.00
1140.288, 20622.00
1141.380, 20871.00
1142.473, 20688.00
1143.565, 20918.00
1144.657, 20954.00
1145.749, 20845.00
1146.841, 21048.00
1147.932, 20815.00
1149.024, 20908.00
1150.115, 20812.00
1151.206, 20956.00
1152.297, 21163.00
1153.388, 21181.00
1154.479, 21055.00
1155.569, 21061.00
1156.659, 21026.00
1157.750, 21012.00
1158.839, 21130.00
1159.929, 21245.00
1161.019, 21214.00
1162.108, 21092.00
1163.198, 21015.00
1164.287, 21198.00
1165.376, 21028.00
1166.465, 21095.00
1167.553, 21079.00
1168.642, 21268.00
1169.730, 21348.00
1170.818, 21294.00
1171.906, 21374.00
1172.994, 21276.00
1174.082, 21264.45
1175.170, 21397.00
1176.257, 21199.00
1177.344, 21273.00
1178.431, 21300.00
1179.518, 21292.00
1180.605, 21418.00
1181.691, 21374.00
1182.778, 21600.00
1183.864, 21424.00
1184.950, 21521.00
1186.036, 21521.00
1187.122, 21453.00
1188.207, 21528.35
1189.292, 21480.00
1190.378, 21595.00
1191.463, 21567.00
1192.548, 21621.00
1193.632, 21471.00
1194.717, 21583.00
1195.801, 21368.00
1196.886, 21687.00
1197.970, 21598.00
1199.054, 21783.00
1200.137, 21727.00
1201.221, 21515.00
1202.305, 21759.00
1203.388, 21693.00
1204.471, 21607.00
1205.554, 21578.00
1206.637, 21760.00
1207.719, 21761.00
1208.802, 21747.00
1209.884, 21599.00
1210.966, 21796.00
1212.048, 21942.00
1213.130, 21782.00
1214.212, 22015.00
1215.293, 21927.00
1216.374, 21907.00
1217.456, 21924.00
1218.536, 21994.00
1219.617, 21920.00
1220.698, 21988.00
1221.778, 21939.00
1222.859, 22089.00
1223.939, 21940.00
1225.019, 22032.00
1226.099, 21872.00
1227.178, 21988.00
1228.258, 21917.00
1229.337, 21936.00
1230.417, 22094.00
1231.496, 21911.00
1232.574, 22196.00
1233.653, 22051.00
1234.732, 22233.00
1235.810, 22124.00
1236.888, 22165.00
1237.966, 22172.00
1239.044, 22286.00
1240.122, 22306.00
1241.199, 22283.00
1242.277, 22227.00
1243.354, 22139.00
1244.431, 22251.00
1245.508, 22379.00
1246.585, 22428.00
1247.661, 22352.00
1248.738, 22293.00
1249.814, 22338.21
1250.890, 22296.00
1251.966, 22357.00
1253.042, 22361.00
1254.117, 22301.00
1255.193, 22374.00
1256.268, 22542.00
1257.343, 22458.00
1258.418, 22470.00
1259.493, 22650.00
1260.567, 22390.00
1261.642, 22644.00
1262.716, 22341.00
1263.790, 22522.00
1264.864, 22609.00
1265.938, 22780.00
1267.011, 22579.00
1268.085, 22648.00
1269.158, 22669.00
1270.231, 22486.00
1271.304, 22736.00
1272.377, 22703.00
1273.450, 22695.00
1274.522, 22762.00
1275.594, 22743.00
1276.666, 22579.00
1277.738, 22774.00
1278.810, 22870.00
1279.882, 22718.00
1280.953, 22870.00
1282.025, 22841.00
1283.096, 22871.00
