##NAMES=Aragonite
##RRUFFID=R060195
##IDEAL CHEMISTRY=CaCO_3_
##LOCALITY=Cicov Hill, Horenec, Czech Republic
##OWNER=RRUFF
##SOURCE=Marcus Origlieri
##DESCRIPTION=Colorless transparent elongated prismatic crystal
##STATUS=The identification of this mineral has been confirmed by X-ray diffraction and chemical analysis
##URL=rruff.info/R060195
##MEASURED CHEMISTRY=Ca_1.00_CO_3_
##PIN_ID=L01257
##ORIENTATION=Laser parallel to c* (0 0 1). Fiducial mark perpendicular to laser is parallel to a [1 0 0]
100.8830, 10241.91
102.1160, 10181.00
103.3490, 10486.00
104.5820, 10481.00
105.8150, 10501.00
107.0470, 10613.00
108.2800, 10850.00
109.5120, 10732.00
110.7440, 10930.00
111.9760, 10945.00
113.2080, 11150.00
114.4400, 11148.00
115.6710, 11181.00
116.9030, 11254.78
118.1340, 11344.00
119.3650, 11317.00
120.5960, 11210.00
121.8270, 11246.00
123.0580, 11319.00
124.2880, 11140.00
125.5190, 11328.00
126.7490, 11387.00
127.9790, 11491.00
129.2090, 11505.00
130.4390, 11507.00
131.6680, 11521.00
132.8980, 11599.33
134.1270, 11654.00
135.3560, 11785.00
136.5850, 11830.00
137.8140, 11938.00
139.0430, 12029.00
140.2710, 12051.00
141.5000, 12419.00
142.7280, 12352.00
143.9560, 12728.00
145.1840, 12880.00
146.4120, 13199.00
147.6390, 13490.00
148.8670, 14011.00
150.0940, 14556.00
151.3210, 15427.00
152.5490, 16487.00
153.7750, 17614.00
155.0020, 18768.00
156.2290, 18875.00
157.4550, 18301.00
158.6810, 17169.00
159.9080, 16029.00
161.1340, 14726.00
162.3590, 13983.00
163.5850, 13525.00
164.8110, 13110.00
166.0360, 12806.00
167.2610, 12727.00
168.4860, 12553.00
169.7110, 12644.00
170.9360, 12543.00
172.1610, 12699.00
173.3850, 12548.00
174.6100, 12477.00
175.8340, 12315.00
177.0580, 12538.00
178.2820, 12574.00
179.5050, 12700.00
180.7290, 12867.00
181.9520, 12851.00
183.1760, 12925.29
184.3990, 13012.00
185.6220, 12895.00
186.8450, 12921.00
188.0670, 12806.00
189.2900, 13071.00
190.5120, 13101.00
191.7340, 13158.00
192.9560, 13221.00
194.1780, 13126.00
195.4000, 13200.00
196.6220, 13263.00
197.8430, 12965.00
199.0640, 13167.00
200.2860, 13196.00
201.5070, 13161.00
202.7270, 13283.00
203.9480, 13397.00
205.1690, 13380.00
206.3890, 13776.00
207.6090, 13762.00
208.8290, 13996.00
210.0490, 14076.00
211.2690, 14099.00
212.4890, 14126.00
213.7080, 14152.00
214.9280, 14210.00
216.1470, 14246.00
217.3660, 14297.00
218.5850, 14227.38
219.8030, 14018.00
221.0220, 13994.00
222.2400, 13808.00
223.4590, 13546.00
224.6770, 13530.00
225.8950, 13488.00
227.1120, 13579.00
228.3300, 13394.00
229.5480, 13380.00
230.7650, 13467.00
231.9820, 13555.00
233.1990, 13414.00
234.4160, 13377.00
235.6330, 13451.00
236.8490, 13338.00
238.0660, 13373.00
239.2820, 13398.00
240.4980, 13404.00
241.7140, 13420.28
242.9300, 13429.00
244.1460, 13437.00
245.3610, 13554.00
246.5770, 13587.00
247.7920, 13681.00
249.0070, 13641.00
250.2220, 13581.00
251.4370, 13537.00
252.6510, 13577.68
253.8660, 13788.00
255.0800, 13682.00
256.2940, 13724.00
257.5080, 13773.00
258.7220, 13642.00
259.9360, 13793.00
261.1490, 13839.00
262.3630, 13798.00
263.5760, 13746.00
264.7890, 13971.00
266.0020, 13959.00
267.2150, 13843.00
268.4270, 13959.00
269.6400, 14127.00
270.8520, 13968.00
272.0640, 14091.00
273.2760, 14137.00
274.4880, 14248.00
275.7000, 14066.00
276.9120, 14157.00
278.1230, 14155.00
279.3340, 14276.00
280.5450, 14315.42
281.7560, 14294.00
282.9670, 14430.00
284.1780, 14428.00
285.3880, 14472.00
286.5980, 14420.00
287.8090, 14434.00
289.0190, 14444.00
290.2290, 14364.00
291.4380, 14392.00
292.6480, 14385.00
293.8570, 14342.00
295.0670, 14335.00
296.2760, 14326.52
297.4850, 14391.00
298.6930, 14340.00
299.9020, 14367.00
301.1110, 14417.00
302.3190, 14367.00
303.5270, 14399.00
304.7350, 14401.00
305.9430, 14392.43
307.1510, 14399.40
308.3580, 14390.00
309.5660, 14419.00
310.7730, 14403.99
311.9800, 14482.00
313.1870, 14460.00
314.3940, 14566.00
315.6010, 14622.00
316.8070, 14625.00
318.0130, 14650.00
319.2200, 14571.00
320.4260, 14724.00
321.6310, 14399.00
322.8370, 14644.00
324.0430, 14732.00
325.2480, 14637.00
326.4540, 14823.00
327.6590, 14746.00
328.8640, 14801.00
330.0680, 14758.00
331.2730, 14799.00
332.4780, 14646.00
333.6820, 14937.00
334.8860, 14868.00
336.0900, 14825.00
337.2940, 14955.00
338.4980, 14931.00
339.7010, 14866.00
340.9050, 15003.00
342.1080, 14958.00
343.3110, 14961.00
344.5140, 14967.00
345.7170, 15127.00
346.9200, 14888.00
348.1220, 15128.00
349.3240, 15082.00
350.5270, 15112.00
351.7290, 15206.00
352.9310, 15140.00
354.1320, 15200.00
355.3340, 15253.00
356.5350, 15178.00
357.7370, 15075.00
358.9380, 15258.00
360.1390, 15291.00
361.3400, 15364.00
362.5400, 15291.00
363.7410, 15345.00
364.9410, 15369.00
366.1410, 15409.00
367.3410, 15463.00
368.5410, 15490.00
369.7410, 15526.00
370.9400, 15419.00
372.1400, 15492.00
373.3390, 15474.56
374.5380, 15453.00
375.7370, 15477.00
376.9360, 15544.00
378.1350, 15500.00
379.3330, 15621.00
380.5310, 15512.00
381.7300, 15664.00
382.9280, 15488.00
384.1260, 15663.00
385.3230, 15676.00
386.5210, 15504.00
387.7180, 15733.00
388.9160, 15790.00
390.1130, 15773.00
391.3100, 15720.00
392.5060, 15692.00
393.7030, 15874.00
394.9000, 15750.00
396.0960, 15903.00
397.2920, 15885.00
398.4880, 15930.00
399.6840, 15918.00
400.8800, 15954.64
402.0750, 15853.00
403.2710, 16003.00
404.4660, 16054.00
405.6610, 16031.00
406.8560, 15889.00
408.0510, 16139.00
409.2450, 15988.00
410.4400, 16108.00
411.6340, 16135.00
412.8280, 16117.00
414.0220, 16168.00
415.2160, 16213.00
416.4100, 16227.27
417.6030, 16158.00
418.7970, 16261.00
419.9900, 16222.00
421.1830, 16175.00
422.3760, 16337.00
423.5690, 16246.00
424.7610, 16179.00
425.9540, 16282.00
427.1460, 16424.00
428.3380, 16278.00
429.5300, 16398.00
430.7220, 16396.00
431.9140, 16352.00
433.1050, 16266.00
434.2970, 16496.00
435.4880, 16569.00
436.6790, 16578.00
437.8700, 16448.00
439.0610, 16380.00
440.2510, 16446.00
441.4420, 16736.00
442.6320, 16690.00
443.8220, 16701.00
445.0120, 16776.97
446.2020, 16553.00
447.3910, 16744.00
448.5810, 16688.00
449.7700, 16594.00
450.9600, 16735.00
452.1490, 16778.00
453.3370, 16781.00
454.5260, 16783.00
455.7150, 16797.00
456.9030, 16843.84
458.0910, 16769.00
459.2800, 16897.00
460.4670, 16908.00
461.6550, 16802.00
462.8430, 16835.00
464.0300, 16942.00
465.2180, 16981.00
466.4050, 17027.00
467.5920, 17015.00
468.7790, 16885.00
469.9650, 17064.00
471.1520, 16966.00
472.3380, 17119.00
473.5250, 17129.00
474.7110, 17117.00
475.8970, 17158.00
477.0820, 17153.00
478.2680, 17138.00
479.4540, 17201.00
480.6390, 17165.00
481.8240, 17380.00
483.0090, 17213.00
484.1940, 17255.00
485.3780, 17522.00
486.5630, 17198.00
487.7470, 17344.00
488.9320, 17337.00
490.1160, 17433.00
491.3000, 17437.00
492.4830, 17477.00
493.6670, 17534.00
494.8500, 17523.68
496.0340, 17502.00
497.2170, 17516.00
498.4000, 17472.00
499.5820, 17441.00
500.7650, 17574.00
501.9480, 17636.00
503.1300, 17620.00
504.3120, 17534.00
505.4940, 17590.00
506.6760, 17575.87
507.8580, 17581.00
509.0390, 17589.00
510.2210, 17695.00
511.4020, 17633.00
512.5830, 17933.00
513.7640, 17787.00
514.9450, 17817.00
516.1250, 17704.00
517.3060, 17870.00
518.4860, 17683.00
519.6660, 17809.00
520.8460, 17869.00
522.0260, 17911.00
523.2060, 17980.00
524.3850, 18064.00
525.5650, 18055.43
526.7440, 17945.00
527.9230, 18056.00
529.1020, 18029.00
530.2810, 18044.98
531.4590, 18138.00
532.6380, 18046.00
533.8160, 18127.00
534.9940, 18185.00
536.1720, 18153.00
537.3500, 18148.00
538.5270, 18212.00
539.7050, 18175.00
540.8820, 18197.00
542.0590, 18217.23
543.2360, 18378.00
544.4130, 18255.00
545.5900, 18321.00
546.7660, 18358.00
547.9430, 18263.00
549.1190, 18364.00
550.2950, 18409.00
551.4710, 18391.00
552.6470, 18372.00
553.8220, 18459.00
554.9980, 18550.00
556.1730, 18501.00
557.3480, 18492.00
558.5230, 18530.00
559.6980, 18457.00
560.8730, 18455.00
562.0470, 18668.00
563.2220, 18589.00
564.3960, 18840.00
565.5700, 18747.00
566.7440, 18415.00
567.9170, 18744.00
569.0910, 18602.00
570.2640, 18898.00
571.4380, 18885.00
572.6110, 18671.00
573.7840, 18850.00
574.9570, 19007.00
576.1290, 18837.00
577.3020, 19012.00
578.4740, 18878.00
579.6460, 19079.00
580.8180, 18896.00
581.9900, 19125.00
583.1620, 18927.00
584.3330, 19070.00
585.5040, 19108.00
586.6760, 18968.00
587.8470, 19180.00
589.0180, 19102.00
590.1880, 19184.00
591.3590, 19130.00
592.5290, 19186.00
593.7000, 19264.00
594.8700, 19238.00
596.0400, 19306.09
597.2090, 19249.00
598.3790, 19316.00
599.5490, 19348.00
600.7180, 19221.00
601.8870, 19275.00
603.0560, 19299.00
604.2250, 19292.00
605.3940, 19310.00
606.5620, 19339.00
607.7300, 19398.00
608.8990, 19421.86
610.0670, 19425.00
611.2350, 19521.00
612.4020, 19498.00
613.5700, 19592.00
614.7370, 19774.00
615.9050, 19528.00
617.0720, 19535.00
618.2390, 19665.00
619.4060, 19644.00
620.5720, 19617.00
621.7390, 19882.00
622.9050, 19698.00
624.0710, 19814.00
625.2370, 19640.00
626.4030, 19786.00
627.5690, 19729.00
628.7340, 19889.00
629.9000, 19842.00
631.0650, 19830.00
632.2300, 19754.00
633.3950, 19929.00
634.5600, 19739.00
635.7240, 19943.00
636.8890, 19900.00
638.0530, 20149.00
639.2170, 19938.00
640.3810, 20084.00
641.5450, 19958.00
642.7080, 20041.00
643.8720, 20045.00
645.0350, 20082.00
646.1980, 20048.00
647.3610, 20129.00
648.5240, 20164.00
649.6870, 19991.00
650.8490, 20302.00
652.0120, 20186.00
653.1740, 20182.00
654.3360, 20352.00
655.4980, 20296.00
656.6600, 20278.00
657.8210, 20265.00
658.9830, 20375.00
660.1440, 20378.00
661.3050, 20578.00
662.4660, 20387.00
663.6270, 20337.00
664.7870, 20495.00
665.9480, 20398.00
667.1080, 20434.96
668.2680, 20434.00
669.4280, 20458.00
670.5880, 20605.00
671.7480, 20693.00
672.9070, 20753.00
674.0670, 20653.00
675.2260, 20587.00
676.3850, 20714.00
677.5440, 20683.00
678.7030, 20791.00
679.8610, 20702.00
681.0200, 20932.00
682.1780, 20720.00
683.3360, 20947.00
684.4940, 21125.00
685.6520, 20875.00
686.8090, 20928.00
687.9670, 21069.00
689.1240, 21037.00
690.2810, 20980.00
691.4380, 20971.00
692.5950, 20937.00
693.7520, 20843.00
694.9080, 21145.00
696.0650, 21349.00
697.2210, 21365.00
698.3770, 21349.00
699.5330, 21668.00
700.6880, 21790.00
701.8440, 21981.04
702.9990, 22201.07
704.1550, 22431.00
705.3100, 22613.00
706.4650, 22884.00
707.6190, 23155.00
708.7740, 22622.00
709.9290, 22389.00
711.0830, 21838.00
712.2370, 21655.00
713.3910, 21432.00
714.5450, 21536.00
715.6980, 21603.00
716.8520, 21508.00
718.0050, 21437.00
719.1580, 21464.00
720.3110, 21580.00
721.4640, 21567.00
722.6170, 21580.00
723.7700, 21581.00
724.9220, 21664.00
726.0740, 21722.00
727.2260, 21744.00
728.3780, 21600.00
729.5300, 21788.00
730.6810, 21631.00
731.8330, 21678.00
732.9840, 21759.00
734.1350, 21751.00
735.2860, 21830.00
736.4370, 21900.00
737.5880, 21954.00
738.7380, 21882.00
739.8880, 21804.00
741.0390, 21990.00
742.1890, 22031.00
743.3380, 21813.00
744.4880, 22008.00
745.6380, 21932.00
746.7870, 22108.00
747.9360, 22098.00
749.0850, 22049.00
750.2340, 22083.00
751.3830, 22138.00
752.5310, 22247.00
753.6800, 22164.00
754.8280, 22201.00
755.9760, 22161.00
757.1240, 22307.00
758.2720, 22136.00
759.4190, 22330.00
760.5670, 22230.00
761.7140, 22223.00
762.8610, 22184.00
764.0080, 22366.00
765.1550, 22543.00
766.3020, 22363.00
767.4480, 22535.00
768.5950, 22425.00
769.7410, 22491.00
770.8870, 22444.00
772.0330, 22666.00
773.1780, 22579.00
774.3240, 22425.00
775.4690, 22719.00
776.6140, 22617.00
777.7590, 22404.00
778.9040, 22525.00
780.0490, 22841.00
781.1940, 22705.00
782.3380, 22817.00
783.4820, 22622.00
784.6260, 22895.00
785.7700, 22742.00
786.9140, 22682.00
788.0580, 22735.00
789.2010, 23006.00
790.3450, 22947.00
791.4880, 22874.00
792.6310, 23094.00
793.7730, 23027.00
794.9160, 23127.00
796.0590, 23044.00
797.2010, 22937.00
798.3430, 23080.00
799.4850, 23196.00
800.6270, 22903.00
801.7690, 23171.00
802.9100, 23040.00
804.0520, 23368.00
805.1930, 23291.00
806.3340, 23330.00
807.4750, 23359.00
808.6160, 23352.29
809.7560, 23328.00
810.8970, 23359.00
812.0370, 23369.55
813.1770, 23477.00
814.3170, 23399.00
815.4570, 23510.00
816.5960, 23468.00
817.7360, 23710.00
818.8750, 23534.00
820.0140, 23692.00
821.1530, 23438.00
822.2920, 23613.00
823.4310, 23659.00
824.5690, 23489.00
825.7070, 23704.00
826.8460, 23581.00
827.9840, 23773.00
829.1220, 23629.00
830.2590, 23718.00
831.3970, 23775.00
832.5340, 23817.00
833.6710, 23760.00
834.8080, 23852.00
835.9450, 23982.00
837.0820, 23919.00
838.2190, 23748.00
839.3550, 23954.00
840.4910, 23948.00
841.6270, 24102.00
842.7630, 24026.00
843.8990, 23981.00
845.0350, 24001.00
846.1700, 24131.00
847.3060, 24155.00
848.4410, 24020.00
849.5760, 23912.00
850.7100, 24219.00
851.8450, 24029.00
852.9800, 24428.00
854.1140, 24242.00
855.2480, 24271.00
856.3820, 24224.00
857.5160, 24420.00
858.6500, 24439.00
859.7830, 24277.00
860.9170, 24646.00
862.0500, 24497.00
863.1830, 24315.00
864.3160, 24663.00
865.4480, 24418.00
866.5810, 24453.00
867.7130, 24574.00
868.8460, 24695.00
869.9780, 24669.00
871.1100, 24763.00
872.2410, 24662.00
873.3730, 24759.00
874.5050, 24696.00
875.6360, 24645.00
876.7670, 24887.00
877.8980, 24833.00
879.0290, 24701.00
880.1590, 24708.00
881.2900, 24920.00
882.4200, 24762.00
883.5500, 24911.00
884.6800, 24782.00
885.8100, 24872.00
886.9400, 24808.00
888.0690, 24919.00
889.1990, 24961.00
890.3280, 24942.00
891.4570, 25272.00
892.5860, 25125.00
893.7140, 25088.00
894.8430, 25274.00
895.9710, 25151.00
897.1000, 25331.00
898.2280, 25073.00
899.3560, 25344.00
900.4830, 25253.00
901.6110, 25273.00
902.7380, 25242.00
903.8660, 25352.00
904.9930, 25314.00
906.1200, 25302.00
907.2460, 25369.00
908.3730, 25260.00
909.5000, 25323.00
910.6260, 25331.57
911.7520, 25347.48
912.8780, 25389.00
914.0040, 25466.00
915.1290, 25500.00
916.2550, 25610.00
917.3800, 25556.00
918.5050, 25749.00
919.6300, 25628.00
920.7550, 25803.00
921.8800, 25699.00
923.0040, 25777.00
924.1290, 25904.00
925.2530, 25752.00
926.3770, 25880.00
927.5010, 25810.00
928.6250, 25844.78
929.7480, 26035.00
930.8720, 25963.00
931.9950, 25948.00
933.1180, 26071.00
934.2410, 25944.00
935.3640, 26191.00
936.4860, 26149.00
937.6090, 25998.00
938.7310, 26072.00
939.8530, 26070.00
940.9750, 26145.00
942.0970, 26106.00
943.2180, 26109.00
944.3400, 26197.00
945.4610, 26316.00
946.5820, 26273.00
947.7030, 26511.00
948.8240, 26342.00
949.9450, 26176.00
951.0650, 26335.00
952.1860, 26460.00
953.3060, 26601.00
954.4260, 26374.00
955.5460, 26590.00
956.6650, 26395.00
957.7850, 26463.00
958.9040, 26647.00
960.0230, 26599.00
961.1420, 26651.00
962.2610, 26677.00
963.3800, 26575.00
964.4990, 26694.00
965.6170, 26752.00
966.7350, 26706.00
967.8530, 26759.00
968.9710, 26785.00
970.0890, 26659.00
971.2070, 26883.00
972.3240, 26653.00
973.4410, 26759.00
974.5580, 26884.00
975.6750, 26983.00
976.7920, 27110.00
977.9090, 27128.00
979.0250, 27161.60
980.1410, 27133.00
981.2580, 27139.00
982.3740, 27085.00
983.4890, 27061.00
984.6050, 27194.00
985.7200, 27109.00
986.8360, 27230.00
987.9510, 27298.00
989.0660, 27382.00
990.1810, 26990.00
991.2950, 27315.00
992.4100, 27193.00
993.5240, 27222.00
994.6390, 27390.00
995.7530, 27563.00
996.8660, 27378.00
997.9800, 27595.00
999.0940, 27325.00
1000.207, 27458.00
1001.320, 27589.00
1002.433, 27703.00
1003.546, 27569.00
1004.659, 27583.00
1005.772, 27567.00
1006.884, 27572.00
1007.996, 27620.00
1009.108, 27561.00
1010.220, 27657.00
1011.332, 27698.00
1012.444, 27770.00
1013.555, 27762.00
1014.666, 27846.00
1015.777, 27720.00
1016.888, 27641.00
1017.999, 27860.00
1019.110, 27962.00
1020.220, 27907.00
1021.331, 27955.00
1022.441, 28155.00
1023.551, 27812.00
1024.661, 28004.00
1025.770, 27861.00
1026.880, 28047.00
1027.989, 28286.00
1029.098, 28050.00
1030.207, 28169.00
1031.316, 28451.00
1032.425, 28202.00
1033.533, 28436.00
1034.642, 28183.00
1035.750, 28431.00
1036.858, 28122.00
1037.966, 28324.00
1039.073, 28512.00
1040.181, 28332.00
1041.288, 28433.00
1042.396, 28466.00
1043.503, 28559.00
1044.610, 28607.91
1045.716, 28513.00
1046.823, 28669.00
1047.929, 28587.00
1049.036, 28521.00
1050.142, 28698.00
1051.248, 28637.00
1052.353, 28746.00
1053.459, 29059.00
1054.564, 28639.00
1055.670, 28940.00
1056.775, 29033.00
1057.880, 28766.00
1058.985, 28963.00
1060.089, 28872.00
1061.194, 29208.00
1062.298, 29415.00
1063.402, 29172.00
1064.506, 29003.00
1065.610, 29175.00
1066.713, 29259.00
1067.817, 29071.00
1068.920, 29256.00
1070.023, 29056.00
1071.126, 29204.00
1072.229, 29362.00
1073.332, 29617.00
1074.435, 29495.00
1075.537, 29621.00
1076.639, 29719.00
1077.741, 29682.00
1078.843, 29657.00
1079.945, 30164.00
1081.046, 30822.00
1082.148, 32179.00
1083.249, 33126.00
1084.350, 36484.00
1085.451, 44397.00
1086.551, 55069.00
1087.652, 56678.00
1088.752, 47864.00
1089.853, 38098.00
1090.953, 32957.00
1092.053, 31195.00
1093.152, 30384.00
1094.252, 29903.00
1095.351, 30178.00
1096.451, 30062.00
1097.550, 30091.00
1098.649, 30007.00
1099.748, 29905.00
1100.846, 29963.00
1101.945, 29964.40
1103.043, 30072.00
1104.141, 30062.00
1105.239, 30108.00
1106.337, 30074.00
1107.434, 30182.00
1108.532, 30239.00
1109.629, 30121.00
1110.726, 30252.00
1111.823, 30145.00
1112.920, 30235.00
1114.017, 30271.00
1115.113, 30285.00
1116.210, 30308.00
1117.306, 30325.00
1118.402, 30334.74
1119.498, 30423.00
1120.593, 30325.00
1121.689, 30463.00
1122.784, 30410.24
1123.879, 30346.00
1124.974, 30510.00
1126.069, 30523.00
1127.164, 30629.00
1128.259, 30569.00
1129.353, 30529.00
1130.447, 30720.00
1131.541, 30968.00
1132.635, 30695.00
1133.729, 30879.00
1134.822, 30827.00
1135.916, 30854.00
1137.009, 30770.00
1138.102, 30822.00
1139.195, 30780.00
1140.288, 30887.00
1141.380, 31004.00
1142.473, 31009.00
1143.565, 30845.00
1144.657, 30998.00
1145.749, 30960.00
1146.841, 31205.00
1147.932, 31288.00
1149.024, 31133.00
1150.115, 31225.00
1151.206, 31329.00
1152.297, 31234.00
1153.388, 31324.00
1154.479, 31448.00
1155.569, 31326.00
1156.659, 31393.00
1157.750, 31391.00
1158.839, 31410.00
1159.929, 31218.00
1161.019, 31427.00
1162.108, 31346.00
1163.198, 31572.00
1164.287, 31314.00
1165.376, 31570.00
1166.465, 31656.00
1167.553, 31666.00
1168.642, 31848.00
1169.730, 31642.00
1170.818, 31806.00
1171.906, 31798.00
1172.994, 31947.00
1174.082, 31992.00
1175.170, 31930.00
1176.257, 32013.00
1177.344, 31819.00
1178.431, 31964.00
1179.518, 31820.00
1180.605, 32072.00
1181.691, 31965.00
1182.778, 32094.00
1183.864, 32027.00
1184.950, 32253.00
1186.036, 32033.00
1187.122, 32199.00
1188.207, 32182.00
1189.292, 32049.00
1190.378, 32316.00
1191.463, 32166.00
1192.548, 32288.00
1193.632, 32246.00
1194.717, 32467.00
1195.801, 32446.85
1196.886, 32522.00
1197.970, 32441.00
1199.054, 32558.00
1200.137, 32442.00
1201.221, 32453.00
1202.305, 32560.00
1203.388, 32737.00
1204.471, 32601.00
1205.554, 32626.00
1206.637, 32402.00
1207.719, 32550.00
1208.802, 32736.00
1209.884, 32781.00
1210.966, 32730.00
1212.048, 32610.00
1213.130, 32538.00
1214.212, 32869.00
1215.293, 32624.00
1216.374, 32941.00
1217.456, 33037.00
1218.536, 33067.00
1219.617, 32944.00
1220.698, 33084.00
1221.778, 32937.00
1222.859, 32959.00
1223.939, 32927.00
1225.019, 33270.00
1226.099, 33073.00
1227.178, 33303.00
1228.258, 33338.00
1229.337, 33370.00
1230.417, 33406.00
1231.496, 33465.60
1232.574, 33448.27
1233.653, 33517.00
1234.732, 33445.00
1235.810, 33297.00
1236.888, 33337.00
1237.966, 33331.00
1239.044, 33349.06
1240.122, 33316.00
1241.199, 33480.00
1242.277, 33673.00
1243.354, 33769.00
1244.431, 33629.00
1245.508, 33447.00
1246.585, 33647.00
1247.661, 33729.00
1248.738, 33785.00
1249.814, 33902.00
1250.890, 33921.00
1251.966, 33574.00
1253.042, 33957.00
1254.117, 33797.00
1255.193, 33955.00
1256.268, 34134.00
1257.343, 34119.00
1258.418, 34001.00
1259.493, 34113.00
1260.567, 34098.00
1261.642, 34156.00
1262.716, 34363.00
1263.790, 34091.00
1264.864, 34053.00
1265.938, 33956.00
1267.011, 34331.00
1268.085, 34499.00
1269.158, 34384.00
1270.231, 34619.00
1271.304, 34413.00
1272.377, 34422.00
1273.450, 34423.00
1274.522, 34482.00
1275.594, 34504.00
1276.666, 34287.00
1277.738, 34701.00
1278.810, 34610.00
1279.882, 34418.00
1280.953, 34684.00
1282.025, 34668.00
1283.096, 34618.00
