##NAMES=Aragonite
##RRUFFID=R060195
##IDEAL CHEMISTRY=CaCO_3_
##LOCALITY=Cicov Hill, Horenec, Czech Republic
##OWNER=RRUFF
##SOURCE=Marcus Origlieri
##DESCRIPTION=Colorless transparent elongated prismatic crystal
##STATUS=The identification of this mineral has been confirmed by X-ray diffraction and chemical analysis
##URL=rruff.info/R060195
##MEASURED CHEMISTRY=Ca_1.00_CO_3_
##PIN_ID=L01088
##ORIENTATION=Laser parallel to b* (0 1 0). Fiducial mark perpendicular to laser is parallel to c [0 0 1]
100.8830, 8083.000
102.1160, 8153.000
103.3490, 8218.000
104.5820, 8209.000
105.8150, 8425.000
107.0470, 8362.000
108.2800, 8554.000
109.5120, 8672.000
110.7440, 8661.000
111.9760, 8781.000
113.2080, 8750.000
114.4400, 8762.000
115.6710, 8848.000
116.9030, 9076.000
118.1340, 9008.000
119.3650, 9058.000
120.5960, 8913.000
121.8270, 8887.000
123.0580, 8966.000
124.2880, 9009.000
125.5190, 9164.000
126.7490, 9085.000
127.9790, 9160.000
129.2090, 9216.000
130.4390, 9085.000
131.6680, 9381.000
132.8980, 9231.000
134.1270, 9432.000
135.3560, 9508.000
136.5850, 9433.000
137.8140, 9617.000
139.0430, 9726.000
140.2710, 9830.000
141.5000, 10257.00
142.7280, 10497.00
143.9560, 10776.00
145.1840, 11196.00
146.4120, 11417.00
147.6390, 11576.00
148.8670, 11760.00
150.0940, 12110.00
151.3210, 13028.00
152.5490, 13604.00
153.7750, 14365.00
155.0020, 14965.00
156.2290, 14973.00
157.4550, 14368.00
158.6810, 13365.00
159.9080, 12444.00
161.1340, 11737.00
162.3590, 11353.00
163.5850, 11140.00
164.8110, 10811.00
166.0360, 10543.00
167.2610, 10380.00
168.4860, 10219.83
169.7110, 10139.00
170.9360, 10063.00
172.1610, 10004.29
173.3850, 10093.00
174.6100, 10005.00
175.8340, 10068.00
177.0580, 10196.00
178.2820, 10160.00
179.5050, 10285.00
180.7290, 10300.00
181.9520, 10395.00
183.1760, 10497.00
184.3990, 10481.00
185.6220, 10400.00
186.8450, 10432.00
188.0670, 10389.00
189.2900, 10470.00
190.5120, 10614.00
191.7340, 10571.00
192.9560, 10685.00
194.1780, 10670.00
195.4000, 10648.00
196.6220, 10422.00
197.8430, 10562.00
199.0640, 10529.00
200.2860, 10613.00
201.5070, 10672.00
202.7270, 10773.15
203.9480, 10801.00
205.1690, 11045.00
206.3890, 11248.00
207.6090, 11402.00
208.8290, 11372.00
210.0490, 11542.00
211.2690, 11422.00
212.4890, 11389.00
213.7080, 11315.00
214.9280, 11288.00
216.1470, 11381.00
217.3660, 11259.00
218.5850, 11299.00
219.8030, 11206.00
221.0220, 10993.00
222.2400, 10950.00
223.4590, 10882.00
224.6770, 10823.00
225.8950, 10793.00
227.1120, 10742.00
228.3300, 10751.00
229.5480, 10691.00
230.7650, 10747.00
231.9820, 10757.00
233.1990, 10827.00
234.4160, 10703.00
235.6330, 10720.00
236.8490, 10744.00
238.0660, 10653.00
239.2820, 10840.00
240.4980, 10761.00
241.7140, 10807.00
242.9300, 10794.00
244.1460, 10816.00
245.3610, 10913.00
246.5770, 10793.00
247.7920, 10953.00
249.0070, 11005.00
250.2220, 10986.00
251.4370, 10861.00
252.6510, 11019.00
253.8660, 10982.00
255.0800, 11033.00
256.2940, 10972.00
257.5080, 10944.00
258.7220, 11040.00
259.9360, 11017.00
261.1490, 11175.00
262.3630, 11074.00
263.5760, 10875.00
264.7890, 11073.00
266.0020, 11153.00
267.2150, 11135.00
268.4270, 11257.00
269.6400, 11256.00
270.8520, 11221.00
272.0640, 11400.00
273.2760, 11427.00
274.4880, 11448.00
275.7000, 11328.00
276.9120, 11441.00
278.1230, 11332.00
279.3340, 11536.00
280.5450, 11232.00
281.7560, 11488.00
282.9670, 11467.00
284.1780, 11602.00
285.3880, 11511.00
286.5980, 11599.00
287.8090, 11500.00
289.0190, 11591.00
290.2290, 11462.00
291.4380, 11622.00
292.6480, 11489.00
293.8570, 11382.00
295.0670, 11428.00
296.2760, 11496.00
297.4850, 11339.00
298.6930, 11428.00
299.9020, 11343.00
301.1110, 11446.00
302.3190, 11490.00
303.5270, 11383.00
304.7350, 11412.00
305.9430, 11548.00
307.1510, 11593.00
308.3580, 11449.00
309.5660, 11552.00
310.7730, 11551.00
311.9800, 11714.00
313.1870, 11574.00
314.3940, 11715.00
315.6010, 11545.00
316.8070, 11763.00
318.0130, 11641.00
319.2200, 11543.00
320.4260, 11705.00
321.6310, 11588.00
322.8370, 11671.00
324.0430, 11689.00
325.2480, 11807.00
326.4540, 11731.00
327.6590, 11788.00
328.8640, 11733.00
330.0680, 11751.00
331.2730, 11828.00
332.4780, 11835.00
333.6820, 11809.00
334.8860, 11915.00
336.0900, 11858.00
337.2940, 11863.00
338.4980, 11818.00
339.7010, 11987.00
340.9050, 11887.00
342.1080, 11938.00
343.3110, 11973.00
344.5140, 11949.00
345.7170, 12115.00
346.9200, 12027.00
348.1220, 12029.00
349.3240, 12138.00
350.5270, 12090.00
351.7290, 11977.00
352.9310, 11966.00
354.1320, 11973.74
355.3340, 11964.73
356.5350, 11979.79
357.7370, 12031.00
358.9380, 12037.00
360.1390, 12072.00
361.3400, 12156.00
362.5400, 12110.00
363.7410, 12163.00
364.9410, 12182.00
366.1410, 12142.00
367.3410, 12207.00
368.5410, 12215.00
369.7410, 12229.00
370.9400, 12230.00
372.1400, 12295.00
373.3390, 12211.00
374.5380, 12390.00
375.7370, 12356.00
376.9360, 12153.00
378.1350, 12338.00
379.3330, 12273.00
380.5310, 12399.00
381.7300, 12203.00
382.9280, 12398.00
384.1260, 12503.00
385.3230, 12498.00
386.5210, 12342.00
387.7180, 12427.00
388.9160, 12376.00
390.1130, 12397.97
391.3100, 12518.00
392.5060, 12483.00
393.7030, 12561.00
394.9000, 12600.00
396.0960, 12667.00
397.2920, 12685.00
398.4880, 12623.00
399.6840, 12789.00
400.8800, 12593.00
402.0750, 12745.00
403.2710, 12674.00
404.4660, 12711.00
405.6610, 12612.00
406.8560, 12682.00
408.0510, 12797.00
409.2450, 12793.00
410.4400, 12667.00
411.6340, 12757.00
412.8280, 12715.87
414.0220, 12742.60
415.2160, 12747.00
416.4100, 12801.00
417.6030, 12849.00
418.7970, 12823.00
419.9900, 12945.00
421.1830, 12955.00
422.3760, 12885.00
423.5690, 12907.00
424.7610, 12889.00
425.9540, 13077.00
427.1460, 13000.00
428.3380, 13071.00
429.5300, 12975.00
430.7220, 12964.00
431.9140, 13027.00
433.1050, 12951.00
434.2970, 13075.00
435.4880, 13057.00
436.6790, 13035.00
437.8700, 13089.00
439.0610, 13108.00
440.2510, 13089.00
441.4420, 13025.00
442.6320, 13221.00
443.8220, 13108.00
445.0120, 13209.00
446.2020, 13212.00
447.3910, 13306.00
448.5810, 13124.00
449.7700, 13182.00
450.9600, 13197.00
452.1490, 13393.00
453.3370, 13200.00
454.5260, 13175.00
455.7150, 13358.00
456.9030, 13166.00
458.0910, 13276.00
459.2800, 13309.00
460.4670, 13316.00
461.6550, 13298.00
462.8430, 13420.00
464.0300, 13355.00
465.2180, 13381.00
466.4050, 13349.00
467.5920, 13258.00
468.7790, 13470.00
469.9650, 13545.00
471.1520, 13462.00
472.3380, 13538.00
473.5250, 13383.00
474.7110, 13601.00
475.8970, 13519.00
477.0820, 13506.00
478.2680, 13558.00
479.4540, 13573.00
480.6390, 13686.00
481.8240, 13510.00
483.0090, 13609.00
484.1940, 13552.00
485.3780, 13707.00
486.5630, 13728.00
487.7470, 13739.00
488.9320, 13836.00
490.1160, 13765.00
491.3000, 13793.00
492.4830, 13804.00
493.6670, 13937.00
494.8500, 13758.00
496.0340, 13681.00
497.2170, 13789.00
498.4000, 13866.00
499.5820, 13663.00
500.7650, 13869.00
501.9480, 13761.00
503.1300, 13831.00
504.3120, 13925.00
505.4940, 13923.00
506.6760, 13952.00
507.8580, 13986.72
509.0390, 13956.00
510.2210, 14017.00
511.4020, 13926.00
512.5830, 13916.00
513.7640, 14033.00
514.9450, 13938.00
516.1250, 14004.00
517.3060, 14095.00
518.4860, 14211.00
519.6660, 14121.00
520.8460, 14145.00
522.0260, 14052.00
523.2060, 14106.00
524.3850, 14223.00
525.5650, 14131.00
526.7440, 14092.00
527.9230, 14069.00
529.1020, 14164.00
530.2810, 14253.00
531.4590, 14113.00
532.6380, 14381.00
533.8160, 14209.00
534.9940, 14355.00
536.1720, 14134.00
537.3500, 14281.00
538.5270, 14236.00
539.7050, 14349.00
540.8820, 14561.00
542.0590, 14230.00
543.2360, 14287.00
544.4130, 14410.00
545.5900, 14440.00
546.7660, 14467.00
547.9430, 14510.08
549.1190, 14496.26
550.2950, 14515.00
551.4710, 14470.00
552.6470, 14424.00
553.8220, 14412.00
554.9980, 14465.00
556.1730, 14636.00
557.3480, 14495.00
558.5230, 14478.00
559.6980, 14624.00
560.8730, 14461.00
562.0470, 14627.00
563.2220, 14608.00
564.3960, 14669.00
565.5700, 14683.59
566.7440, 14563.00
567.9170, 14647.00
569.0910, 14694.00
570.2640, 14659.00
571.4380, 14785.00
572.6110, 14773.00
573.7840, 14811.34
574.9570, 14700.00
576.1290, 14851.00
577.3020, 14740.00
578.4740, 14705.00
579.6460, 14883.00
580.8180, 14793.00
581.9900, 14695.00
583.1620, 14719.00
584.3330, 14877.00
585.5040, 14829.00
586.6760, 14843.00
587.8470, 14937.00
589.0180, 14944.00
590.1880, 14981.00
591.3590, 15041.00
592.5290, 14905.00
593.7000, 14994.00
594.8700, 14896.00
596.0400, 15069.00
597.2090, 15061.00
598.3790, 15104.00
599.5490, 15081.00
600.7180, 15059.00
601.8870, 15169.00
603.0560, 15132.00
604.2250, 15097.00
605.3940, 15088.00
606.5620, 14998.00
607.7300, 15186.00
608.8990, 15210.00
610.0670, 15289.00
611.2350, 15250.00
612.4020, 15317.00
613.5700, 15226.00
614.7370, 15228.00
615.9050, 15357.00
617.0720, 15323.00
618.2390, 15402.00
619.4060, 15378.00
620.5720, 15266.00
621.7390, 15185.00
622.9050, 15204.00
624.0710, 15282.00
625.2370, 15521.00
626.4030, 15253.00
627.5690, 15505.00
628.7340, 15298.00
629.9000, 15526.00
631.0650, 15421.00
632.2300, 15346.00
633.3950, 15485.00
634.5600, 15506.00
635.7240, 15454.00
636.8890, 15493.00
638.0530, 15521.00
639.2170, 15666.00
640.3810, 15627.00
641.5450, 15630.00
642.7080, 15746.00
643.8720, 15567.00
645.0350, 15558.00
646.1980, 15530.00
647.3610, 15748.00
648.5240, 15833.00
649.6870, 15782.00
650.8490, 15730.00
652.0120, 15617.00
653.1740, 15816.00
654.3360, 15829.00
655.4980, 15736.00
656.6600, 15700.00
657.8210, 15708.45
658.9830, 15860.00
660.1440, 15722.00
661.3050, 15876.00
662.4660, 15894.00
663.6270, 15826.00
664.7870, 15864.00
665.9480, 15881.00
667.1080, 16030.00
668.2680, 15879.00
669.4280, 15997.00
670.5880, 16200.00
671.7480, 16119.00
672.9070, 16093.00
674.0670, 15953.00
675.2260, 15889.00
676.3850, 16164.00
677.5440, 16198.00
678.7030, 16150.00
679.8610, 16045.00
681.0200, 16170.00
682.1780, 16321.00
683.3360, 16244.00
684.4940, 16198.00
685.6520, 16192.00
686.8090, 16246.00
687.9670, 16162.00
689.1240, 16184.00
690.2810, 16201.00
691.4380, 16147.00
692.5950, 16188.00
693.7520, 16222.00
694.9080, 16284.00
696.0650, 16464.00
697.2210, 16569.00
698.3770, 16612.00
699.5330, 16922.00
700.6880, 17100.00
701.8440, 17244.00
702.9990, 17905.00
704.1550, 18020.00
705.3100, 18182.00
706.4650, 18655.00
707.6190, 18618.00
708.7740, 18185.00
709.9290, 17404.00
711.0830, 16712.00
712.2370, 16812.00
713.3910, 16695.00
714.5450, 16712.00
715.6980, 16583.00
716.8520, 16686.00
718.0050, 16582.00
719.1580, 16580.00
720.3110, 16641.00
721.4640, 16687.00
722.6170, 16720.00
723.7700, 16702.00
724.9220, 16679.00
726.0740, 16641.00
727.2260, 16842.00
728.3780, 16668.00
729.5300, 16798.00
730.6810, 16654.00
731.8330, 16948.00
732.9840, 16864.00
734.1350, 16835.00
735.2860, 16911.00
736.4370, 16907.00
737.5880, 16777.00
738.7380, 16995.00
739.8880, 17011.00
741.0390, 16842.00
742.1890, 17004.00
743.3380, 16941.00
744.4880, 16944.00
745.6380, 16982.00
746.7870, 16938.26
747.9360, 16954.66
749.0850, 16936.00
750.2340, 16922.00
751.3830, 16979.00
752.5310, 16919.00
753.6800, 17018.00
754.8280, 17015.00
755.9760, 17103.00
757.1240, 17240.00
758.2720, 17155.00
759.4190, 17219.00
760.5670, 17168.00
761.7140, 17113.00
762.8610, 17207.00
764.0080, 17188.00
765.1550, 17312.00
766.3020, 17297.00
767.4480, 17322.00
768.5950, 17414.00
769.7410, 17283.00
770.8870, 17231.00
772.0330, 17397.00
773.1780, 17371.00
774.3240, 17207.00
775.4690, 17505.00
776.6140, 17705.00
777.7590, 17488.00
778.9040, 17601.00
780.0490, 17383.00
781.1940, 17480.00
782.3380, 17581.00
783.4820, 17436.00
784.6260, 17380.00
785.7700, 17491.00
786.9140, 17492.00
788.0580, 17596.00
789.2010, 17541.00
790.3450, 17590.00
791.4880, 17713.00
792.6310, 17679.00
793.7730, 17604.00
794.9160, 17589.00
796.0590, 17555.00
797.2010, 17464.00
798.3430, 17863.00
799.4850, 17724.00
800.6270, 17671.00
801.7690, 17770.00
802.9100, 17677.00
804.0520, 17754.00
805.1930, 17787.00
806.3340, 17957.00
807.4750, 17810.00
808.6160, 17750.00
809.7560, 17965.00
810.8970, 17859.00
812.0370, 18034.00
813.1770, 17832.00
814.3170, 17932.00
815.4570, 17769.00
816.5960, 18035.00
817.7360, 18012.00
818.8750, 18202.00
820.0140, 18197.00
821.1530, 18184.32
822.2920, 18119.00
823.4310, 18109.00
824.5690, 18186.00
825.7070, 18166.00
826.8460, 18109.00
827.9840, 18054.00
829.1220, 18203.00
830.2590, 18297.00
831.3970, 18325.00
832.5340, 18362.83
833.6710, 18157.00
834.8080, 18311.00
835.9450, 18244.00
837.0820, 18154.00
838.2190, 18450.00
839.3550, 18178.00
840.4910, 18329.00
841.6270, 18445.00
842.7630, 18295.00
843.8990, 18474.00
845.0350, 18327.00
846.1700, 18394.00
847.3060, 18543.00
848.4410, 18413.00
849.5760, 18475.00
850.7100, 18484.00
851.8450, 18463.00
852.9800, 18529.25
854.1140, 18584.00
855.2480, 18634.00
856.3820, 18607.00
857.5160, 18686.00
858.6500, 18368.00
859.7830, 18618.00
860.9170, 18628.00
862.0500, 18609.00
863.1830, 18795.00
864.3160, 18633.00
865.4480, 18587.00
866.5810, 18861.00
867.7130, 18883.00
868.8460, 18754.00
869.9780, 18673.00
871.1100, 18804.00
872.2410, 18771.00
873.3730, 18734.00
874.5050, 18765.00
875.6360, 18859.00
876.7670, 19023.00
877.8980, 18882.00
879.0290, 18808.00
880.1590, 18949.00
881.2900, 18990.00
882.4200, 18850.00
883.5500, 18855.00
884.6800, 18882.00
885.8100, 18779.00
886.9400, 19042.00
888.0690, 18970.00
889.1990, 19141.00
890.3280, 19027.00
891.4570, 19186.00
892.5860, 19169.00
893.7140, 18992.00
894.8430, 19062.00
895.9710, 18995.00
897.1000, 18989.00
898.2280, 19246.00
899.3560, 19470.00
900.4830, 19087.00
901.6110, 19114.00
902.7380, 19391.00
903.8660, 19312.00
904.9930, 19226.00
906.1200, 19241.00
907.2460, 19412.00
908.3730, 19469.00
909.5000, 19400.00
910.6260, 19359.00
911.7520, 19286.00
912.8780, 19415.00
914.0040, 19507.00
915.1290, 19350.00
916.2550, 19519.00
917.3800, 19442.00
918.5050, 19314.00
919.6300, 19579.00
920.7550, 19547.00
921.8800, 19594.00
923.0040, 19715.00
924.1290, 19530.00
925.2530, 19633.00
926.3770, 19603.00
927.5010, 19695.00
928.6250, 19634.00
929.7480, 19641.05
930.8720, 19759.00
931.9950, 19636.00
933.1180, 19726.00
934.2410, 19806.00
935.3640, 19848.00
936.4860, 19784.00
937.6090, 19782.00
938.7310, 19888.00
939.8530, 19947.00
940.9750, 19818.00
942.0970, 19959.00
943.2180, 19892.00
944.3400, 19864.00
945.4610, 19973.00
946.5820, 20004.00
947.7030, 19969.00
948.8240, 20038.00
949.9450, 19906.00
951.0650, 19847.00
952.1860, 20099.00
953.3060, 19922.00
954.4260, 19817.00
955.5460, 20205.00
956.6650, 20216.00
957.7850, 19983.00
958.9040, 20032.00
960.0230, 20228.00
961.1420, 20275.00
962.2610, 20274.00
963.3800, 20001.00
964.4990, 20247.00
965.6170, 20073.00
966.7350, 20176.00
967.8530, 20269.00
968.9710, 20389.00
970.0890, 20344.00
971.2070, 20232.00
972.3240, 20175.00
973.4410, 20205.52
974.5580, 20490.00
975.6750, 20327.00
976.7920, 20381.00
977.9090, 20503.00
979.0250, 20459.00
980.1410, 20519.00
981.2580, 20545.64
982.3740, 20495.00
983.4890, 20623.00
984.6050, 20584.71
985.7200, 20704.00
986.8360, 20569.00
987.9510, 20642.00
989.0660, 20447.00
990.1810, 20720.00
991.2950, 20843.00
992.4100, 20721.00
993.5240, 20633.00
994.6390, 20631.00
995.7530, 20427.00
996.8660, 20593.00
997.9800, 20583.00
999.0940, 20793.00
1000.207, 21025.00
1001.320, 20896.00
1002.433, 20955.00
1003.546, 20955.00
1004.659, 21008.00
1005.772, 20843.00
1006.884, 20968.00
1007.996, 20888.00
1009.108, 20902.00
1010.220, 21044.00
1011.332, 21050.00
1012.444, 21005.00
1013.555, 20893.00
1014.666, 20928.00
1015.777, 21145.00
1016.888, 20933.00
1017.999, 21061.00
1019.110, 21007.00
1020.220, 21304.00
1021.331, 21187.00
1022.441, 21099.00
1023.551, 21230.00
1024.661, 21027.00
1025.770, 21229.00
1026.880, 21216.00
1027.989, 21097.00
1029.098, 21407.00
1030.207, 21186.00
1031.316, 21311.00
1032.425, 21275.00
1033.533, 21302.00
1034.642, 21141.00
1035.750, 21239.00
1036.858, 21419.00
1037.966, 21287.00
1039.073, 21414.00
1040.181, 21423.00
1041.288, 21497.00
1042.396, 21601.00
1043.503, 21515.00
1044.610, 21245.00
1045.716, 21452.00
1046.823, 21466.00
1047.929, 21515.00
1049.036, 21593.00
1050.142, 21732.00
1051.248, 21486.00
1052.353, 21539.00
1053.459, 21623.00
1054.564, 21703.00
1055.670, 21763.00
1056.775, 21810.00
1057.880, 21941.00
1058.985, 21937.00
1060.089, 21987.91
1061.194, 22052.00
1062.298, 21968.00
1063.402, 21978.00
1064.506, 21844.00
1065.610, 21910.00
1066.713, 21990.00
1067.817, 21936.00
1068.920, 21863.00
1070.023, 22010.00
1071.126, 22194.00
1072.229, 22208.00
1073.332, 22136.00
1074.435, 22156.00
1075.537, 22314.00
1076.639, 22375.00
1077.741, 22429.00
1078.843, 22359.00
1079.945, 22889.00
1081.046, 23726.00
1082.148, 24775.00
1083.249, 26858.00
1084.350, 32554.00
1085.451, 42799.00
1086.551, 53063.00
1087.652, 52695.00
1088.752, 40798.00
1089.853, 29916.00
1090.953, 25107.00
1092.053, 23490.00
1093.152, 22865.00
1094.252, 22626.00
1095.351, 22843.00
1096.451, 22417.00
1097.550, 22640.00
1098.649, 22501.00
1099.748, 22577.00
1100.846, 22718.00
1101.945, 22486.00
1103.043, 22487.00
1104.141, 22510.00
1105.239, 22559.00
1106.337, 22593.00
1107.434, 22563.00
1108.532, 22501.00
1109.629, 22625.00
1110.726, 22585.00
1111.823, 22672.00
1112.920, 22558.00
1114.017, 22802.00
1115.113, 22911.00
1116.210, 22834.00
1117.306, 22852.00
1118.402, 22704.00
1119.498, 22875.00
1120.593, 22833.00
1121.689, 22800.00
1122.784, 23072.00
1123.879, 22866.00
1124.974, 22973.00
1126.069, 22801.00
1127.164, 23029.00
1128.259, 22999.00
1129.353, 22925.00
1130.447, 23046.00
1131.541, 23015.00
1132.635, 23095.00
1133.729, 23115.00
1134.822, 23076.00
1135.916, 22961.00
1137.009, 23077.00
1138.102, 22955.00
1139.195, 23191.00
1140.288, 23096.00
1141.380, 23001.00
1142.473, 23347.00
1143.565, 23234.00
1144.657, 23285.00
1145.749, 23108.00
1146.841, 23309.00
1147.932, 23201.00
1149.024, 23310.00
1150.115, 23183.00
1151.206, 23317.00
1152.297, 23299.00
1153.388, 23499.00
1154.479, 23327.00
1155.569, 23419.00
1156.659, 23439.00
1157.750, 23638.00
1158.839, 23588.41
1159.929, 23634.00
1161.019, 23516.00
1162.108, 23560.00
1163.198, 23443.00
1164.287, 23497.00
1165.376, 23752.00
1166.465, 23550.00
1167.553, 23826.00
1168.642, 23549.00
1169.730, 23551.00
1170.818, 23634.00
1171.906, 23678.00
1172.994, 23825.00
1174.082, 23783.00
1175.170, 23887.00
1176.257, 23742.00
1177.344, 23734.00
1178.431, 23638.00
1179.518, 23659.58
1180.605, 23694.00
1181.691, 23779.00
1182.778, 23737.00
1183.864, 23881.00
1184.950, 23941.00
1186.036, 23790.00
1187.122, 23924.00
1188.207, 23947.00
1189.292, 23960.00
1190.378, 24054.00
1191.463, 24078.33
1192.548, 24184.00
1193.632, 24175.00
1194.717, 24099.00
1195.801, 24119.00
1196.886, 24197.00
1197.970, 24257.00
1199.054, 24026.00
1200.137, 24164.00
1201.221, 24314.00
1202.305, 24143.00
1203.388, 24234.00
1204.471, 24049.00
1205.554, 24268.00
1206.637, 24266.00
1207.719, 24296.00
1208.802, 24376.00
1209.884, 24383.00
1210.966, 24389.02
1212.048, 24296.00
1213.130, 24393.00
1214.212, 24437.00
1215.293, 24511.00
1216.374, 24188.00
1217.456, 24411.00
1218.536, 24426.00
1219.617, 24732.00
1220.698, 24427.00
1221.778, 24653.00
1222.859, 24647.00
1223.939, 24585.00
1225.019, 24668.00
1226.099, 24744.00
1227.178, 24732.00
1228.258, 24674.00
1229.337, 24587.00
1230.417, 24658.00
1231.496, 24662.00
1232.574, 24821.00
1233.653, 24828.66
1234.732, 24806.00
1235.810, 24892.00
1236.888, 24930.00
1237.966, 24912.00
1239.044, 25049.00
1240.122, 24945.00
1241.199, 24900.00
1242.277, 24936.00
1243.354, 25005.00
1244.431, 25041.00
1245.508, 25053.21
1246.585, 25170.00
1247.661, 25044.00
1248.738, 25115.00
1249.814, 25080.00
1250.890, 24881.00
1251.966, 25185.00
1253.042, 25057.00
1254.117, 25114.00
1255.193, 25192.00
1256.268, 25188.00
1257.343, 25271.00
1258.418, 25240.00
1259.493, 25270.00
1260.567, 25512.00
1261.642, 25120.00
1262.716, 25343.00
1263.790, 25367.00
1264.864, 25666.00
1265.938, 25495.00
1267.011, 25429.00
1268.085, 25389.00
1269.158, 25333.00
1270.231, 25467.00
1271.304, 25301.00
1272.377, 25421.00
1273.450, 25624.00
1274.522, 25428.00
1275.594, 25486.00
1276.666, 25767.00
1277.738, 25602.00
1278.810, 25560.00
1279.882, 25565.00
1280.953, 25803.00
1282.025, 25739.00
1283.096, 25773.00
