##NAMES=Aragonite
##RRUFFID=R060195
##IDEAL CHEMISTRY=CaCO_3_
##LOCALITY=Cicov Hill, Horenec, Czech Republic
##OWNER=RRUFF
##SOURCE=Marcus Origlieri
##DESCRIPTION=Colorless transparent elongated prismatic crystal
##STATUS=The identification of this mineral has been confirmed by X-ray diffraction and chemical analysis
##URL=rruff.info/R060195
##MEASURED CHEMISTRY=Ca_1.00_CO_3_
##PIN_ID=L01088
##ORIENTATION=Laser parallel to b* (0 1 0). Fiducial mark perpendicular to laser is parallel to c [0 0 1]
100.8830, 11696.00
102.1160, 11850.17
103.3490, 12204.00
104.5820, 12214.00
105.8150, 12350.00
107.0470, 12606.00
108.2800, 12619.00
109.5120, 12802.00
110.7440, 13032.00
111.9760, 13195.00
113.2080, 13266.00
114.4400, 13360.00
115.6710, 13593.00
116.9030, 13713.00
118.1340, 13674.00
119.3650, 13631.00
120.5960, 13567.00
121.8270, 13499.00
123.0580, 13508.00
124.2880, 13530.72
125.5190, 13724.00
126.7490, 13649.00
127.9790, 13798.00
129.2090, 13855.00
130.4390, 13927.00
131.6680, 13992.00
132.8980, 14095.82
134.1270, 14225.00
135.3560, 14307.00
136.5850, 14387.00
137.8140, 14470.00
139.0430, 14677.74
140.2710, 14974.00
141.5000, 15232.00
142.7280, 15561.00
143.9560, 16073.00
145.1840, 16379.00
146.4120, 17094.00
147.6390, 17924.00
148.8670, 18983.00
150.0940, 20510.00
151.3210, 22154.00
152.5490, 24128.00
153.7750, 26425.00
155.0020, 27772.00
156.2290, 27671.00
157.4550, 26349.00
158.6810, 23973.00
159.9080, 21340.00
161.1340, 19430.00
162.3590, 18069.00
163.5850, 17025.00
164.8110, 16329.00
166.0360, 15877.00
167.2610, 15804.00
168.4860, 15563.00
169.7110, 15399.00
170.9360, 15395.00
172.1610, 15252.00
173.3850, 15314.00
174.6100, 15359.00
175.8340, 15325.00
177.0580, 15369.00
178.2820, 15332.00
179.5050, 15455.00
180.7290, 15640.00
181.9520, 15634.00
183.1760, 15710.00
184.3990, 15683.00
185.6220, 15547.00
186.8450, 15667.00
188.0670, 15643.00
189.2900, 15662.00
190.5120, 15753.00
191.7340, 15769.00
192.9560, 15822.86
194.1780, 15949.00
195.4000, 15874.00
196.6220, 15924.00
197.8430, 15865.00
199.0640, 15934.00
200.2860, 15888.00
201.5070, 15979.00
202.7270, 16008.00
203.9480, 16148.00
205.1690, 16573.00
206.3890, 16886.00
207.6090, 17053.00
208.8290, 17080.00
210.0490, 17025.00
211.2690, 17147.00
212.4890, 17169.00
213.7080, 17121.00
214.9280, 17298.00
216.1470, 17190.00
217.3660, 17092.00
218.5850, 17209.00
219.8030, 17004.00
221.0220, 16832.00
222.2400, 16480.00
223.4590, 16523.00
224.6770, 16255.00
225.8950, 16516.00
227.1120, 16173.00
228.3300, 16219.00
229.5480, 16427.00
230.7650, 16255.00
231.9820, 16227.00
233.1990, 16037.00
234.4160, 16314.00
235.6330, 16241.00
236.8490, 16342.00
238.0660, 16429.00
239.2820, 16367.62
240.4980, 16232.00
241.7140, 16324.00
242.9300, 16302.00
244.1460, 16312.00
245.3610, 16227.00
246.5770, 16410.00
247.7920, 16530.00
249.0070, 16467.00
250.2220, 16504.00
251.4370, 16511.00
252.6510, 16549.00
253.8660, 16479.00
255.0800, 16774.00
256.2940, 16509.00
257.5080, 16662.00
258.7220, 16699.00
259.9360, 16608.00
261.1490, 16693.00
262.3630, 16835.00
263.5760, 16731.00
264.7890, 16765.00
266.0020, 16892.00
267.2150, 16640.00
268.4270, 16845.00
269.6400, 16837.00
270.8520, 17145.00
272.0640, 17100.00
273.2760, 17052.00
274.4880, 17278.00
275.7000, 17183.00
276.9120, 17261.00
278.1230, 17098.00
279.3340, 17083.00
280.5450, 17156.00
281.7560, 17298.00
282.9670, 17274.00
284.1780, 17275.00
285.3880, 17438.00
286.5980, 17209.00
287.8090, 17427.00
289.0190, 17456.00
290.2290, 17410.00
291.4380, 17319.00
292.6480, 17196.00
293.8570, 17302.00
295.0670, 17236.00
296.2760, 17358.00
297.4850, 17346.00
298.6930, 17330.00
299.9020, 17373.00
301.1110, 17325.00
302.3190, 17357.00
303.5270, 17370.00
304.7350, 17493.00
305.9430, 17492.00
307.1510, 17366.00
308.3580, 17402.00
309.5660, 17329.00
310.7730, 17451.00
311.9800, 17451.00
313.1870, 17491.00
314.3940, 17716.00
315.6010, 17655.00
316.8070, 17723.00
318.0130, 17577.00
319.2200, 17500.00
320.4260, 17682.00
321.6310, 17810.00
322.8370, 17822.00
324.0430, 17780.00
325.2480, 17916.00
326.4540, 17791.00
327.6590, 17774.00
328.8640, 17737.00
330.0680, 17812.00
331.2730, 17835.00
332.4780, 17978.00
333.6820, 17830.00
334.8860, 17910.00
336.0900, 17794.00
337.2940, 18194.00
338.4980, 18053.00
339.7010, 18194.00
340.9050, 18108.00
342.1080, 18027.00
343.3110, 18200.00
344.5140, 18056.00
345.7170, 18116.00
346.9200, 18202.00
348.1220, 18093.00
349.3240, 18148.00
350.5270, 18242.00
351.7290, 18385.00
352.9310, 18097.00
354.1320, 18242.00
355.3340, 18101.00
356.5350, 18374.00
357.7370, 18442.00
358.9380, 18389.00
360.1390, 18514.00
361.3400, 18338.00
362.5400, 18458.00
363.7410, 18293.00
364.9410, 18575.00
366.1410, 18564.00
367.3410, 18540.00
368.5410, 18359.00
369.7410, 18616.00
370.9400, 18613.00
372.1400, 18562.00
373.3390, 18617.00
374.5380, 18550.00
375.7370, 18590.56
376.9360, 18640.00
378.1350, 18689.00
379.3330, 18693.00
380.5310, 18827.00
381.7300, 18697.00
382.9280, 18687.00
384.1260, 18974.00
385.3230, 18891.00
386.5210, 18902.00
387.7180, 18786.00
388.9160, 18931.00
390.1130, 18858.00
391.3100, 18978.00
392.5060, 18870.00
393.7030, 18920.00
394.9000, 18976.00
396.0960, 18922.00
397.2920, 19115.00
398.4880, 19193.00
399.6840, 19087.00
400.8800, 19160.00
402.0750, 19140.00
403.2710, 19164.00
404.4660, 19384.00
405.6610, 19216.00
406.8560, 19325.00
408.0510, 19363.00
409.2450, 19252.00
410.4400, 19318.00
411.6340, 19250.00
412.8280, 19361.00
414.0220, 19436.00
415.2160, 19262.00
416.4100, 19453.00
417.6030, 19412.00
418.7970, 19527.00
419.9900, 19480.00
421.1830, 19474.00
422.3760, 19532.00
423.5690, 19446.00
424.7610, 19652.00
425.9540, 19730.00
427.1460, 19519.00
428.3380, 19611.00
429.5300, 19393.00
430.7220, 19553.00
431.9140, 19401.00
433.1050, 19659.00
434.2970, 19733.00
435.4880, 19702.00
436.6790, 19702.00
437.8700, 19685.00
439.0610, 19911.00
440.2510, 19695.00
441.4420, 19761.00
442.6320, 19976.00
443.8220, 19903.00
445.0120, 19741.00
446.2020, 19887.00
447.3910, 19842.00
448.5810, 20089.00
449.7700, 20073.00
450.9600, 20132.83
452.1490, 20116.00
453.3370, 20205.00
454.5260, 20137.00
455.7150, 20164.00
456.9030, 20043.00
458.0910, 20147.00
459.2800, 20123.00
460.4670, 20148.00
461.6550, 20157.00
462.8430, 20293.00
464.0300, 20265.00
465.2180, 20308.00
466.4050, 20330.91
467.5920, 20330.69
468.7790, 20324.00
469.9650, 20342.00
471.1520, 20321.00
472.3380, 20303.00
473.5250, 20405.00
474.7110, 20368.00
475.8970, 20304.00
477.0820, 20401.00
478.2680, 20397.75
479.4540, 20549.00
480.6390, 20542.00
481.8240, 20676.00
483.0090, 20828.00
484.1940, 20671.00
485.3780, 20642.00
486.5630, 20650.00
487.7470, 20638.00
488.9320, 20691.00
490.1160, 20562.00
491.3000, 20695.00
492.4830, 20710.00
493.6670, 20619.00
494.8500, 20790.00
496.0340, 20601.00
497.2170, 20995.00
498.4000, 20835.00
499.5820, 20976.00
500.7650, 20912.00
501.9480, 20860.00
503.1300, 20888.00
504.3120, 20930.00
505.4940, 21024.00
506.6760, 20958.00
507.8580, 20956.00
509.0390, 21012.00
510.2210, 21107.00
511.4020, 21246.00
512.5830, 21226.06
513.7640, 21241.00
514.9450, 21186.00
516.1250, 21176.00
517.3060, 21092.00
518.4860, 21200.00
519.6660, 21111.00
520.8460, 21179.00
522.0260, 21313.00
523.2060, 21256.00
524.3850, 21227.00
525.5650, 21463.00
526.7440, 21464.00
527.9230, 21305.00
529.1020, 21568.00
530.2810, 21334.00
531.4590, 21567.00
532.6380, 21515.00
533.8160, 21505.00
534.9940, 21342.00
536.1720, 21472.00
537.3500, 21656.00
538.5270, 21691.00
539.7050, 21541.00
540.8820, 21421.00
542.0590, 21705.00
543.2360, 21814.00
544.4130, 21725.00
545.5900, 21644.00
546.7660, 21753.00
547.9430, 21570.00
549.1190, 21634.00
550.2950, 21789.00
551.4710, 21643.00
552.6470, 21836.00
553.8220, 21933.00
554.9980, 21823.00
556.1730, 21817.00
557.3480, 21959.00
558.5230, 21909.00
559.6980, 21904.00
560.8730, 22123.00
562.0470, 22029.00
563.2220, 22028.00
564.3960, 21935.00
565.5700, 22201.00
566.7440, 22230.00
567.9170, 22080.00
569.0910, 22284.00
570.2640, 22100.00
571.4380, 22201.00
572.6110, 22286.00
573.7840, 22199.00
574.9570, 22274.00
576.1290, 22231.00
577.3020, 22300.00
578.4740, 22287.00
579.6460, 22485.00
580.8180, 22494.00
581.9900, 22444.00
583.1620, 22439.00
584.3330, 22421.00
585.5040, 22427.65
586.6760, 22383.00
587.8470, 22506.00
589.0180, 22602.00
590.1880, 22737.00
591.3590, 22564.00
592.5290, 22344.00
593.7000, 22674.00
594.8700, 22543.00
596.0400, 22606.00
597.2090, 22615.00
598.3790, 22594.00
599.5490, 22728.00
600.7180, 22657.00
601.8870, 22761.00
603.0560, 22816.00
604.2250, 22740.00
605.3940, 22996.00
606.5620, 22719.00
607.7300, 22860.00
608.8990, 22890.00
610.0670, 22870.00
611.2350, 22963.00
612.4020, 23026.00
613.5700, 22986.00
614.7370, 22974.00
615.9050, 23022.00
617.0720, 23007.00
618.2390, 23154.00
619.4060, 23071.00
620.5720, 23101.00
621.7390, 23113.00
622.9050, 23099.45
624.0710, 23133.35
625.2370, 23130.00
626.4030, 23165.00
627.5690, 23196.44
628.7340, 23190.00
629.9000, 23221.00
631.0650, 23169.00
632.2300, 23173.00
633.3950, 23352.00
634.5600, 23323.00
635.7240, 23474.00
636.8890, 23387.00
638.0530, 23531.00
639.2170, 23462.00
640.3810, 23454.00
641.5450, 23484.00
642.7080, 23414.00
643.8720, 23496.00
645.0350, 23612.00
646.1980, 23455.00
647.3610, 23569.00
648.5240, 23691.00
649.6870, 23793.00
650.8490, 23610.00
652.0120, 23547.00
653.1740, 23660.00
654.3360, 23583.11
655.4980, 23780.00
656.6600, 23644.00
657.8210, 23713.00
658.9830, 23764.00
660.1440, 23817.00
661.3050, 23846.00
662.4660, 23769.00
663.6270, 23872.00
664.7870, 23742.00
665.9480, 23735.00
667.1080, 23795.00
668.2680, 24009.00
669.4280, 23879.00
670.5880, 24106.00
671.7480, 24093.00
672.9070, 23906.00
674.0670, 24138.00
675.2260, 24139.00
676.3850, 24144.00
677.5440, 24284.00
678.7030, 24256.32
679.8610, 24261.00
681.0200, 24327.00
682.1780, 24249.00
683.3360, 24344.00
684.4940, 24269.00
685.6520, 24295.00
686.8090, 24498.00
687.9670, 24405.00
689.1240, 24450.00
690.2810, 24261.00
691.4380, 24646.00
692.5950, 24341.00
693.7520, 24482.00
694.9080, 24707.00
696.0650, 24775.00
697.2210, 24736.00
698.3770, 24875.00
699.5330, 25059.00
700.6880, 25210.00
701.8440, 25327.00
702.9990, 25852.00
704.1550, 26265.00
705.3100, 26301.00
706.4650, 26510.00
707.6190, 26423.00
708.7740, 26233.00
709.9290, 25707.00
711.0830, 25289.00
712.2370, 24974.00
713.3910, 24844.47
714.5450, 24796.00
715.6980, 24888.00
716.8520, 24811.00
718.0050, 25002.00
719.1580, 24877.00
720.3110, 25045.00
721.4640, 24850.00
722.6170, 25020.00
723.7700, 25166.00
724.9220, 24992.00
726.0740, 25048.00
727.2260, 25127.00
728.3780, 25129.00
729.5300, 25248.00
730.6810, 25273.00
731.8330, 25179.00
732.9840, 25240.00
734.1350, 25253.00
735.2860, 25377.00
736.4370, 25284.00
737.5880, 25223.00
738.7380, 25406.00
739.8880, 25401.00
741.0390, 25392.00
742.1890, 25425.00
743.3380, 25394.00
744.4880, 25316.00
745.6380, 25258.00
746.7870, 25214.00
747.9360, 25375.00
749.0850, 25334.00
750.2340, 25504.00
751.3830, 25553.19
752.5310, 25700.00
753.6800, 25663.00
754.8280, 25765.00
755.9760, 25752.00
757.1240, 25731.00
758.2720, 25531.00
759.4190, 25879.00
760.5670, 25721.00
761.7140, 25900.00
762.8610, 25637.00
764.0080, 25764.00
765.1550, 25707.00
766.3020, 25829.00
767.4480, 25949.00
768.5950, 26171.00
769.7410, 25931.00
770.8870, 25953.00
772.0330, 26015.00
773.1780, 25856.00
774.3240, 26005.00
775.4690, 26124.00
776.6140, 25863.00
777.7590, 26238.00
778.9040, 26116.00
780.0490, 25951.00
781.1940, 26231.00
782.3380, 26307.00
783.4820, 26288.00
784.6260, 26347.00
785.7700, 26342.00
786.9140, 26158.00
788.0580, 26411.00
789.2010, 26255.00
790.3450, 26187.00
791.4880, 26423.00
792.6310, 26511.00
793.7730, 26322.00
794.9160, 26499.00
796.0590, 26437.00
797.2010, 26446.00
798.3430, 26466.00
799.4850, 26607.00
800.6270, 26615.74
801.7690, 26666.42
802.9100, 26726.00
804.0520, 26682.00
805.1930, 26726.00
806.3340, 26637.00
807.4750, 26720.00
808.6160, 26816.00
809.7560, 26605.00
810.8970, 26718.00
812.0370, 26823.00
813.1770, 26764.00
814.3170, 26881.00
815.4570, 26887.88
816.5960, 27067.00
817.7360, 26980.00
818.8750, 26896.00
820.0140, 27020.00
821.1530, 26974.00
822.2920, 27246.00
823.4310, 27048.00
824.5690, 27153.00
825.7070, 26831.00
826.8460, 26935.00
827.9840, 27220.00
829.1220, 26968.00
830.2590, 27271.00
831.3970, 27036.00
832.5340, 27374.00
833.6710, 27052.00
834.8080, 27491.00
835.9450, 27150.00
837.0820, 27168.00
838.2190, 27386.00
839.3550, 27250.00
840.4910, 27207.00
841.6270, 27413.00
842.7630, 27581.00
843.8990, 27328.00
845.0350, 27400.00
846.1700, 27517.00
847.3060, 27283.00
848.4410, 27517.00
849.5760, 27680.00
850.7100, 27488.00
851.8450, 27674.00
852.9800, 27629.00
854.1140, 27825.00
855.2480, 27718.00
856.3820, 27741.00
857.5160, 27723.00
858.6500, 27686.82
859.7830, 27807.00
860.9170, 27724.00
862.0500, 27856.00
863.1830, 28033.00
864.3160, 27811.00
865.4480, 27885.00
866.5810, 27977.00
867.7130, 27938.00
868.8460, 28177.00
869.9780, 28186.00
871.1100, 27896.00
872.2410, 27940.00
873.3730, 28051.00
874.5050, 28022.00
875.6360, 28103.00
876.7670, 28088.00
877.8980, 28174.00
879.0290, 28165.00
880.1590, 28017.00
881.2900, 28283.00
882.4200, 28190.00
883.5500, 28204.00
884.6800, 28417.00
885.8100, 28438.00
886.9400, 28300.00
888.0690, 28309.00
889.1990, 28493.00
890.3280, 28557.00
891.4570, 28519.00
892.5860, 28300.00
893.7140, 28462.00
894.8430, 28454.00
895.9710, 28697.00
897.1000, 28706.27
898.2280, 28526.00
899.3560, 28696.00
900.4830, 28807.00
901.6110, 28581.00
902.7380, 28611.00
903.8660, 28749.00
904.9930, 28743.00
906.1200, 28786.00
907.2460, 28782.00
908.3730, 28835.00
909.5000, 28943.00
910.6260, 28897.77
911.7520, 28795.00
912.8780, 28880.00
914.0040, 28882.00
915.1290, 28915.14
916.2550, 29021.00
917.3800, 28903.00
918.5050, 28886.00
919.6300, 28888.00
920.7550, 29077.00
921.8800, 29177.00
923.0040, 29152.00
924.1290, 29086.00
925.2530, 29026.00
926.3770, 29262.00
927.5010, 29129.00
928.6250, 28979.00
929.7480, 29457.00
930.8720, 29262.00
931.9950, 29346.00
933.1180, 29283.00
934.2410, 29295.00
935.3640, 29459.00
936.4860, 29617.00
937.6090, 29445.00
938.7310, 29365.00
939.8530, 29481.00
940.9750, 29633.00
942.0970, 29728.00
943.2180, 29543.00
944.3400, 29613.00
945.4610, 29729.00
946.5820, 29360.00
947.7030, 29514.00
948.8240, 29868.00
949.9450, 29587.00
951.0650, 29843.00
952.1860, 29867.00
953.3060, 29862.00
954.4260, 30039.00
955.5460, 29856.00
956.6650, 29943.00
957.7850, 29964.00
958.9040, 29909.00
960.0230, 29903.00
961.1420, 29803.00
962.2610, 29978.00
963.3800, 30104.00
964.4990, 29853.00
965.6170, 30118.00
966.7350, 30197.00
967.8530, 29933.00
968.9710, 30260.00
970.0890, 30181.00
971.2070, 30195.00
972.3240, 30223.00
973.4410, 30179.00
974.5580, 30235.79
975.6750, 30214.82
976.7920, 30329.00
977.9090, 30303.00
979.0250, 30379.00
980.1410, 30639.00
981.2580, 30628.00
982.3740, 30696.00
983.4890, 30489.00
984.6050, 30393.00
985.7200, 30586.00
986.8360, 30411.00
987.9510, 30388.00
989.0660, 30518.00
990.1810, 30547.00
991.2950, 30445.00
992.4100, 30435.00
993.5240, 30713.00
994.6390, 30830.00
995.7530, 30631.00
996.8660, 30800.00
997.9800, 30533.00
999.0940, 30777.00
1000.207, 31018.00
1001.320, 30779.00
1002.433, 30983.00
1003.546, 30791.00
1004.659, 30907.00
1005.772, 30978.00
1006.884, 30909.00
1007.996, 30967.00
1009.108, 31091.00
1010.220, 31105.00
1011.332, 31137.76
1012.444, 31086.00
1013.555, 31146.00
1014.666, 31078.00
1015.777, 31083.00
1016.888, 31303.00
1017.999, 31429.00
1019.110, 31320.00
1020.220, 31299.00
1021.331, 31184.00
1022.441, 31347.00
1023.551, 31301.25
1024.661, 31450.00
1025.770, 31356.00
1026.880, 31372.00
1027.989, 31367.00
1029.098, 31575.00
1030.207, 31329.00
1031.316, 31718.00
1032.425, 31573.00
1033.533, 31619.00
1034.642, 31472.00
1035.750, 31720.00
1036.858, 31685.00
1037.966, 31745.00
1039.073, 31526.00
1040.181, 31764.00
1041.288, 31594.00
1042.396, 31908.00
1043.503, 31791.00
1044.610, 31701.00
1045.716, 32096.00
1046.823, 32077.00
1047.929, 31764.00
1049.036, 31810.00
1050.142, 31950.00
1051.248, 31805.00
1052.353, 32023.00
1053.459, 32161.00
1054.564, 32014.00
1055.670, 31999.00
1056.775, 32169.00
1057.880, 32221.00
1058.985, 32323.00
1060.089, 32335.00
1061.194, 32387.00
1062.298, 32662.00
1063.402, 32224.00
1064.506, 32191.00
1065.610, 32278.00
1066.713, 32469.00
1067.817, 32250.00
1068.920, 32434.00
1070.023, 32410.00
1071.126, 32645.00
1072.229, 32606.00
1073.332, 32626.00
1074.435, 32886.00
1075.537, 32806.00
1076.639, 32817.00
1077.741, 33105.00
1078.843, 33058.00
1079.945, 33515.00
1081.046, 34255.00
1082.148, 35427.00
1083.249, 37597.00
1084.350, 43217.00
1085.451, 53123.00
1086.551, 63751.00
1087.652, 63816.00
1088.752, 52319.00
1089.853, 40790.00
1090.953, 35828.00
1092.053, 34227.00
1093.152, 33746.00
1094.252, 33355.00
1095.351, 33449.00
1096.451, 33356.00
1097.550, 33174.00
1098.649, 33162.00
1099.748, 33130.00
1100.846, 33295.00
1101.945, 33321.00
1103.043, 33443.00
1104.141, 33351.00
1105.239, 33317.00
1106.337, 33435.00
1107.434, 33358.34
1108.532, 33319.00
1109.629, 33348.00
1110.726, 33385.00
1111.823, 33389.00
1112.920, 33430.00
1114.017, 33593.00
1115.113, 33555.00
1116.210, 33608.00
1117.306, 33660.00
1118.402, 33894.00
1119.498, 33520.00
1120.593, 33751.00
1121.689, 33648.00
1122.784, 33484.00
1123.879, 33644.00
1124.974, 33688.00
1126.069, 33831.00
1127.164, 34005.00
1128.259, 33913.00
1129.353, 34059.00
1130.447, 33966.00
1131.541, 34004.55
1132.635, 33955.00
1133.729, 34056.00
1134.822, 34013.00
1135.916, 34076.00
1137.009, 34171.00
1138.102, 34086.00
1139.195, 34144.00
1140.288, 34191.00
1141.380, 34333.00
1142.473, 34185.00
1143.565, 34156.00
1144.657, 34076.00
1145.749, 34223.00
1146.841, 34224.00
1147.932, 34294.00
1149.024, 34358.00
1150.115, 34361.00
1151.206, 34414.00
1152.297, 34462.00
1153.388, 34435.00
1154.479, 34420.00
1155.569, 34428.00
1156.659, 34435.00
1157.750, 34773.00
1158.839, 34650.00
1159.929, 34691.00
1161.019, 34697.00
1162.108, 34482.00
1163.198, 34351.00
1164.287, 34723.00
1165.376, 34874.00
1166.465, 35038.00
1167.553, 34798.00
1168.642, 34844.00
1169.730, 34760.00
1170.818, 35020.00
1171.906, 34708.00
1172.994, 34801.00
1174.082, 35111.00
1175.170, 35024.00
1176.257, 34741.00
1177.344, 35177.00
1178.431, 34897.00
1179.518, 35243.00
1180.605, 35146.00
1181.691, 35090.00
1182.778, 35044.00
1183.864, 34982.00
1184.950, 35282.00
1186.036, 35213.00
1187.122, 35589.00
1188.207, 35334.00
1189.292, 35497.00
1190.378, 35222.00
1191.463, 35495.00
1192.548, 35537.00
1193.632, 35524.00
1194.717, 35484.00
1195.801, 35451.00
1196.886, 35476.00
1197.970, 35465.00
1199.054, 35442.00
1200.137, 35421.66
1201.221, 35590.00
1202.305, 35431.00
1203.388, 35438.00
1204.471, 35629.00
1205.554, 35686.00
1206.637, 35727.00
1207.719, 35885.00
1208.802, 35847.95
1209.884, 35716.00
1210.966, 35798.00
1212.048, 35915.00
1213.130, 35832.00
1214.212, 35932.00
1215.293, 35973.00
1216.374, 36148.00
1217.456, 36015.00
1218.536, 36162.00
1219.617, 36153.00
1220.698, 36204.00
1221.778, 36142.00
1222.859, 36286.00
1223.939, 36425.00
1225.019, 36343.00
1226.099, 36191.00
1227.178, 36192.00
1228.258, 36364.00
1229.337, 36315.00
1230.417, 36322.00
1231.496, 36654.00
1232.574, 36269.00
1233.653, 36275.00
1234.732, 36383.00
1235.810, 36506.00
1236.888, 36600.00
1237.966, 36471.00
1239.044, 36546.00
1240.122, 36399.00
1241.199, 36737.00
1242.277, 36750.00
1243.354, 36666.00
1244.431, 36939.00
1245.508, 36646.00
1246.585, 36727.00
1247.661, 37059.00
1248.738, 36850.00
1249.814, 37143.00
1250.890, 36932.00
1251.966, 37000.00
1253.042, 36930.00
1254.117, 37054.00
1255.193, 37009.00
1256.268, 37165.00
1257.343, 37242.00
1258.418, 37009.00
1259.493, 37021.00
1260.567, 36973.00
1261.642, 37085.00
1262.716, 37204.00
1263.790, 37346.00
1264.864, 37424.00
1265.938, 37290.00
1267.011, 37343.00
1268.085, 37424.00
1269.158, 37240.00
1270.231, 37399.00
1271.304, 37174.00
1272.377, 37559.00
1273.450, 37475.00
1274.522, 37530.00
1275.594, 37699.00
1276.666, 37451.00
1277.738, 37447.00
1278.810, 37855.00
1279.882, 37658.00
1280.953, 37873.00
1282.025, 37739.00
1283.096, 37627.00
