##NAMES=Aragonite
##RRUFFID=R060195
##IDEAL CHEMISTRY=CaCO_3_
##LOCALITY=Cicov Hill, Horenec, Czech Republic
##OWNER=RRUFF
##SOURCE=Marcus Origlieri
##DESCRIPTION=Colorless transparent elongated prismatic crystal
##STATUS=The identification of this mineral has been confirmed by X-ray diffraction and chemical analysis
##URL=rruff.info/R060195
##MEASURED CHEMISTRY=Ca_1.00_CO_3_
##PIN_ID=L01257
##ORIENTATION=Laser parallel to c* (0 0 1). Fiducial mark perpendicular to laser is parallel to a [1 0 0]
100.8830, 8924.000
102.1160, 9080.000
103.3490, 9221.000
104.5820, 9408.000
105.8150, 9404.000
107.0470, 9517.000
108.2800, 9588.000
109.5120, 9748.000
110.7440, 9857.000
111.9760, 9887.000
113.2080, 10100.00
114.4400, 10117.00
115.6710, 10163.00
116.9030, 10351.00
118.1340, 10319.00
119.3650, 10429.00
120.5960, 10330.00
121.8270, 10470.00
123.0580, 10498.00
124.2880, 10500.24
125.5190, 10635.00
126.7490, 10604.00
127.9790, 10764.00
129.2090, 10951.00
130.4390, 10858.00
131.6680, 11026.00
132.8980, 11031.00
134.1270, 10995.00
135.3560, 11193.00
136.5850, 11395.00
137.8140, 11239.00
139.0430, 11325.00
140.2710, 11312.00
141.5000, 11554.00
142.7280, 11864.00
143.9560, 12154.00
145.1840, 12364.00
146.4120, 12430.00
147.6390, 12317.00
148.8670, 12004.00
150.0940, 11935.00
151.3210, 11906.00
152.5490, 11829.00
153.7750, 12027.00
155.0020, 12103.00
156.2290, 12105.00
157.4550, 12206.00
158.6810, 12117.00
159.9080, 12053.00
161.1340, 12164.00
162.3590, 12220.00
163.5850, 12428.00
164.8110, 12529.00
166.0360, 12242.00
167.2610, 12343.00
168.4860, 12276.00
169.7110, 12249.00
170.9360, 12211.00
172.1610, 12001.00
173.3850, 12108.00
174.6100, 12037.00
175.8340, 12019.00
177.0580, 12326.00
178.2820, 12252.00
179.5050, 12403.00
180.7290, 12485.00
181.9520, 12423.00
183.1760, 12514.00
184.3990, 12572.00
185.6220, 12386.00
186.8450, 12563.00
188.0670, 12598.00
189.2900, 12742.00
190.5120, 12870.00
191.7340, 12955.00
192.9560, 13093.00
194.1780, 13091.00
195.4000, 13123.00
196.6220, 13002.00
197.8430, 12800.00
199.0640, 12869.00
200.2860, 12753.00
201.5070, 12741.00
202.7270, 12717.00
203.9480, 12844.00
205.1690, 12920.00
206.3890, 12995.00
207.6090, 12966.00
208.8290, 13131.00
210.0490, 13150.00
211.2690, 13061.00
212.4890, 13123.00
213.7080, 13053.00
214.9280, 13042.00
216.1470, 13109.00
217.3660, 13092.00
218.5850, 13179.00
219.8030, 13155.00
221.0220, 13266.00
222.2400, 13205.00
223.4590, 13107.00
224.6770, 12866.00
225.8950, 13061.00
227.1120, 12947.00
228.3300, 13037.00
229.5480, 13150.00
230.7650, 13062.00
231.9820, 13233.00
233.1990, 13039.00
234.4160, 13141.00
235.6330, 13271.00
236.8490, 13115.00
238.0660, 13182.00
239.2820, 13228.00
240.4980, 13194.00
241.7140, 13169.00
242.9300, 13336.00
244.1460, 13338.00
245.3610, 13343.00
246.5770, 13400.00
247.7920, 13438.00
249.0070, 13322.00
250.2220, 13352.00
251.4370, 13491.00
252.6510, 13384.00
253.8660, 13472.00
255.0800, 13492.00
256.2940, 13490.00
257.5080, 13583.00
258.7220, 13685.00
259.9360, 13531.00
261.1490, 13674.00
262.3630, 13542.00
263.5760, 13769.00
264.7890, 13768.00
266.0020, 13945.00
267.2150, 13832.00
268.4270, 13820.00
269.6400, 13976.00
270.8520, 13913.00
272.0640, 14022.00
273.2760, 14116.00
274.4880, 14152.00
275.7000, 14015.00
276.9120, 14027.00
278.1230, 14022.00
279.3340, 14072.00
280.5450, 14166.00
281.7560, 14094.00
282.9670, 14150.00
284.1780, 14070.00
285.3880, 14088.00
286.5980, 14195.00
287.8090, 14119.00
289.0190, 14192.00
290.2290, 14124.00
291.4380, 14141.00
292.6480, 14094.00
293.8570, 14359.00
295.0670, 14495.00
296.2760, 14132.00
297.4850, 14272.00
298.6930, 14054.00
299.9020, 14192.00
301.1110, 14185.00
302.3190, 14284.00
303.5270, 14310.00
304.7350, 14330.00
305.9430, 14196.00
307.1510, 14253.57
308.3580, 14373.00
309.5660, 14286.00
310.7730, 14404.00
311.9800, 14485.00
313.1870, 14599.00
314.3940, 14381.00
315.6010, 14582.00
316.8070, 14511.00
318.0130, 14310.00
319.2200, 14408.00
320.4260, 14448.00
321.6310, 14608.00
322.8370, 14634.00
324.0430, 14618.00
325.2480, 14613.00
326.4540, 14661.61
327.6590, 14620.00
328.8640, 14721.00
330.0680, 14813.00
331.2730, 14773.00
332.4780, 14669.00
333.6820, 14556.00
334.8860, 14875.00
336.0900, 14690.00
337.2940, 14817.00
338.4980, 14832.00
339.7010, 14845.00
340.9050, 14849.00
342.1080, 14896.00
343.3110, 14902.00
344.5140, 15022.00
345.7170, 15031.00
346.9200, 15105.00
348.1220, 14892.00
349.3240, 14996.00
350.5270, 15058.00
351.7290, 15009.00
352.9310, 15185.00
354.1320, 15149.00
355.3340, 15044.00
356.5350, 15143.00
357.7370, 15181.00
358.9380, 15257.00
360.1390, 15221.00
361.3400, 15189.00
362.5400, 15250.00
363.7410, 15323.00
364.9410, 15387.00
366.1410, 15451.00
367.3410, 15287.00
368.5410, 15303.00
369.7410, 15376.00
370.9400, 15271.00
372.1400, 15455.00
373.3390, 15450.00
374.5380, 15390.00
375.7370, 15458.00
376.9360, 15326.00
378.1350, 15587.00
379.3330, 15563.00
380.5310, 15509.00
381.7300, 15533.00
382.9280, 15445.00
384.1260, 15601.00
385.3230, 15715.00
386.5210, 15604.00
387.7180, 15612.00
388.9160, 15684.00
390.1130, 15557.00
391.3100, 15692.00
392.5060, 15804.00
393.7030, 15802.00
394.9000, 15921.00
396.0960, 15937.66
397.2920, 15779.00
398.4880, 15932.00
399.6840, 15987.00
400.8800, 15864.00
402.0750, 15994.00
403.2710, 15989.00
404.4660, 15877.00
405.6610, 15998.00
406.8560, 15970.00
408.0510, 16002.00
409.2450, 15966.00
410.4400, 16101.00
411.6340, 16039.00
412.8280, 16005.00
414.0220, 16201.00
415.2160, 16085.00
416.4100, 16048.00
417.6030, 16173.00
418.7970, 16167.00
419.9900, 16185.00
421.1830, 16182.00
422.3760, 16345.00
423.5690, 16227.00
424.7610, 16279.00
425.9540, 16171.00
427.1460, 16306.00
428.3380, 16344.00
429.5300, 16369.00
430.7220, 16355.00
431.9140, 16332.00
433.1050, 16424.00
434.2970, 16484.00
435.4880, 16486.00
436.6790, 16500.00
437.8700, 16635.00
439.0610, 16464.00
440.2510, 16512.00
441.4420, 16560.00
442.6320, 16414.00
443.8220, 16585.00
445.0120, 16622.00
446.2020, 16609.00
447.3910, 16555.00
448.5810, 16628.00
449.7700, 16804.00
450.9600, 16716.00
452.1490, 16843.00
453.3370, 16797.00
454.5260, 16806.00
455.7150, 16698.00
456.9030, 16822.00
458.0910, 16813.00
459.2800, 16803.00
460.4670, 16783.00
461.6550, 16933.00
462.8430, 16852.00
464.0300, 16831.00
465.2180, 16955.00
466.4050, 16905.00
467.5920, 17018.00
468.7790, 17053.00
469.9650, 17070.00
471.1520, 17046.00
472.3380, 17114.00
473.5250, 16930.00
474.7110, 17098.00
475.8970, 17021.00
477.0820, 17080.00
478.2680, 17164.00
479.4540, 17249.00
480.6390, 17250.20
481.8240, 17276.44
483.0090, 17255.00
484.1940, 17265.00
485.3780, 17281.00
486.5630, 17304.00
487.7470, 17394.00
488.9320, 17411.00
490.1160, 17200.00
491.3000, 17355.00
492.4830, 17485.00
493.6670, 17337.00
494.8500, 17506.00
496.0340, 17583.00
497.2170, 17542.00
498.4000, 17691.00
499.5820, 17432.00
500.7650, 17573.00
501.9480, 17465.00
503.1300, 17611.00
504.3120, 17521.00
505.4940, 17736.00
506.6760, 17660.00
507.8580, 17555.00
509.0390, 17540.00
510.2210, 17555.67
511.4020, 17761.00
512.5830, 17682.00
513.7640, 17702.00
514.9450, 17799.00
516.1250, 17798.00
517.3060, 17824.00
518.4860, 17855.00
519.6660, 17813.00
520.8460, 17776.00
522.0260, 17933.00
523.2060, 17874.00
524.3850, 17915.00
525.5650, 17911.00
526.7440, 17915.00
527.9230, 18014.00
529.1020, 17943.00
530.2810, 18044.00
531.4590, 18293.00
532.6380, 18184.00
533.8160, 18236.00
534.9940, 18076.00
536.1720, 18151.00
537.3500, 18157.00
538.5270, 18148.00
539.7050, 18221.00
540.8820, 18221.02
542.0590, 18199.00
543.2360, 18267.00
544.4130, 18189.00
545.5900, 18188.06
546.7660, 18288.00
547.9430, 18271.00
549.1190, 18332.00
550.2950, 18402.00
551.4710, 18305.00
552.6470, 18264.00
553.8220, 18395.00
554.9980, 18387.00
556.1730, 18613.00
557.3480, 18512.00
558.5230, 18553.00
559.6980, 18556.00
560.8730, 18480.00
562.0470, 18662.00
563.2220, 18638.00
564.3960, 18497.00
565.5700, 18566.00
566.7440, 18654.00
567.9170, 18763.00
569.0910, 18596.00
570.2640, 18726.00
571.4380, 18743.00
572.6110, 18870.00
573.7840, 18878.00
574.9570, 18781.00
576.1290, 18897.00
577.3020, 18730.00
578.4740, 18951.00
579.6460, 18742.00
580.8180, 18935.00
581.9900, 18942.00
583.1620, 18895.00
584.3330, 19106.00
585.5040, 19057.00
586.6760, 19123.00
587.8470, 19042.00
589.0180, 19092.11
590.1880, 19071.00
591.3590, 19125.00
592.5290, 19149.00
593.7000, 19098.00
594.8700, 19056.00
596.0400, 19077.97
597.2090, 19178.00
598.3790, 19076.00
599.5490, 19205.00
600.7180, 19169.00
601.8870, 19172.00
603.0560, 19394.00
604.2250, 19424.00
605.3940, 19447.00
606.5620, 19430.00
607.7300, 19431.00
608.8990, 19509.00
610.0670, 19484.38
611.2350, 19506.60
612.4020, 19515.00
613.5700, 19481.00
614.7370, 19530.00
615.9050, 19454.00
617.0720, 19568.00
618.2390, 19543.00
619.4060, 19608.00
620.5720, 19612.00
621.7390, 19683.00
622.9050, 19681.00
624.0710, 19548.00
625.2370, 19913.00
626.4030, 19618.00
627.5690, 19739.00
628.7340, 19602.00
629.9000, 19862.00
631.0650, 19804.00
632.2300, 19805.00
633.3950, 19969.00
634.5600, 19829.00
635.7240, 19945.00
636.8890, 20042.00
638.0530, 19972.00
639.2170, 19938.00
640.3810, 20105.00
641.5450, 20002.00
642.7080, 20188.00
643.8720, 20382.00
645.0350, 19917.00
646.1980, 19992.00
647.3610, 20090.00
648.5240, 20030.00
649.6870, 20249.00
650.8490, 20113.00
652.0120, 20187.00
653.1740, 20062.00
654.3360, 20301.00
655.4980, 20263.00
656.6600, 20205.00
657.8210, 20474.00
658.9830, 20229.00
660.1440, 20254.00
661.3050, 20485.00
662.4660, 20357.00
663.6270, 20389.00
664.7870, 20364.00
665.9480, 20472.00
667.1080, 20487.86
668.2680, 20522.00
669.4280, 20586.00
670.5880, 20593.00
671.7480, 20629.00
672.9070, 20641.28
674.0670, 20618.00
675.2260, 20643.00
676.3850, 20630.00
677.5440, 20613.00
678.7030, 20564.00
679.8610, 20684.00
681.0200, 20652.17
682.1780, 20707.00
683.3360, 20715.00
684.4940, 20728.00
685.6520, 20798.00
686.8090, 21015.00
687.9670, 20710.00
689.1240, 20855.00
690.2810, 20988.00
691.4380, 20873.00
692.5950, 20932.00
693.7520, 20819.00
694.9080, 21126.00
696.0650, 21208.00
697.2210, 21089.00
698.3770, 21381.00
699.5330, 21441.00
700.6880, 21953.00
701.8440, 22387.00
702.9990, 22924.00
704.1550, 22888.00
705.3100, 23077.07
706.4650, 22931.00
707.6190, 22855.00
708.7740, 22629.00
709.9290, 22166.00
711.0830, 21593.00
712.2370, 21362.00
713.3910, 21451.00
714.5450, 21325.00
715.6980, 21496.00
716.8520, 21355.00
718.0050, 21291.00
719.1580, 21443.00
720.3110, 21418.00
721.4640, 21314.00
722.6170, 21562.00
723.7700, 21583.00
724.9220, 21400.00
726.0740, 21587.00
727.2260, 21699.00
728.3780, 21681.00
729.5300, 21573.00
730.6810, 21647.00
731.8330, 21807.00
732.9840, 21610.00
734.1350, 21786.00
735.2860, 21535.00
736.4370, 21724.00
737.5880, 21530.00
738.7380, 21863.00
739.8880, 21776.00
741.0390, 21598.00
742.1890, 21777.00
743.3380, 21730.00
744.4880, 21896.00
745.6380, 21903.00
746.7870, 21831.00
747.9360, 21960.00
749.0850, 22059.00
750.2340, 22023.00
751.3830, 22131.00
752.5310, 21950.00
753.6800, 22107.00
754.8280, 22025.00
755.9760, 22025.00
757.1240, 22075.00
758.2720, 21959.00
759.4190, 22091.00
760.5670, 22147.00
761.7140, 22272.00
762.8610, 22295.00
764.0080, 22383.00
765.1550, 22385.00
766.3020, 22204.00
767.4480, 22246.00
768.5950, 22449.00
769.7410, 22175.00
770.8870, 22371.00
772.0330, 22426.00
773.1780, 22283.00
774.3240, 22314.00
775.4690, 22406.00
776.6140, 22389.36
777.7590, 22518.00
778.9040, 22516.00
780.0490, 22533.00
781.1940, 22616.00
782.3380, 22635.00
783.4820, 22583.00
784.6260, 22659.00
785.7700, 22542.00
786.9140, 22633.00
788.0580, 22670.00
789.2010, 22689.00
790.3450, 22867.00
791.4880, 22712.00
792.6310, 22789.00
793.7730, 22823.00
794.9160, 22683.00
796.0590, 22955.00
797.2010, 22722.00
798.3430, 22897.00
799.4850, 22846.00
800.6270, 22899.00
801.7690, 22995.00
802.9100, 22985.00
804.0520, 23126.00
805.1930, 23011.00
806.3340, 23143.00
807.4750, 23015.00
808.6160, 23179.00
809.7560, 23142.00
810.8970, 23189.00
812.0370, 23196.00
813.1770, 23248.00
814.3170, 23255.50
815.4570, 23253.00
816.5960, 23303.00
817.7360, 23396.00
818.8750, 23481.75
820.0140, 23395.00
821.1530, 23559.00
822.2920, 23463.00
823.4310, 23399.00
824.5690, 23553.00
825.7070, 23501.00
826.8460, 23657.00
827.9840, 23485.00
829.1220, 23445.00
830.2590, 23481.00
831.3970, 23630.00
832.5340, 23510.00
833.6710, 23515.00
834.8080, 23548.00
835.9450, 23415.00
837.0820, 23851.00
838.2190, 23774.00
839.3550, 23762.00
840.4910, 23690.00
841.6270, 23702.26
842.7630, 23700.00
843.8990, 23743.00
845.0350, 23779.00
846.1700, 23825.00
847.3060, 23810.00
848.4410, 23781.00
849.5760, 24045.00
850.7100, 23734.00
851.8450, 23926.00
852.9800, 24268.00
854.1140, 24067.00
855.2480, 24139.00
856.3820, 24199.00
857.5160, 23998.00
858.6500, 24152.00
859.7830, 23969.00
860.9170, 24213.00
862.0500, 24170.00
863.1830, 24159.00
864.3160, 24370.00
865.4480, 24185.00
866.5810, 24197.00
867.7130, 24235.00
868.8460, 24301.00
869.9780, 24397.00
871.1100, 24454.00
872.2410, 24322.00
873.3730, 24516.00
874.5050, 24488.00
875.6360, 24318.00
876.7670, 24318.00
877.8980, 24303.53
879.0290, 24517.00
880.1590, 24369.00
881.2900, 24522.00
882.4200, 24617.00
883.5500, 24502.00
884.6800, 24582.00
885.8100, 24721.00
886.9400, 24740.00
888.0690, 24637.00
889.1990, 24483.00
890.3280, 24726.00
891.4570, 24836.00
892.5860, 24710.00
893.7140, 24793.00
894.8430, 24893.00
895.9710, 24813.00
897.1000, 24609.00
898.2280, 24747.00
899.3560, 24819.00
900.4830, 24953.00
901.6110, 24912.00
902.7380, 24825.00
903.8660, 25070.00
904.9930, 25050.00
906.1200, 24907.00
907.2460, 25079.00
908.3730, 25033.00
909.5000, 25089.00
910.6260, 25095.00
911.7520, 24950.00
912.8780, 25293.00
914.0040, 25045.00
915.1290, 25300.00
916.2550, 25176.00
917.3800, 25418.00
918.5050, 25249.00
919.6300, 25246.00
920.7550, 25248.00
921.8800, 25270.00
923.0040, 25302.00
924.1290, 25360.00
925.2530, 25454.00
926.3770, 25473.00
927.5010, 25545.00
928.6250, 25505.00
929.7480, 25638.00
930.8720, 25368.00
931.9950, 25700.00
933.1180, 25596.00
934.2410, 25475.00
935.3640, 26105.00
936.4860, 25638.00
937.6090, 25672.00
938.7310, 25882.00
939.8530, 25760.00
940.9750, 25942.00
942.0970, 25777.00
943.2180, 25911.00
944.3400, 25866.00
945.4610, 25846.00
946.5820, 25751.00
947.7030, 25851.00
948.8240, 25865.00
949.9450, 25918.00
951.0650, 26073.00
952.1860, 25980.00
953.3060, 26072.00
954.4260, 26153.00
955.5460, 26121.00
956.6650, 25970.00
957.7850, 26071.00
958.9040, 26220.00
960.0230, 26054.00
961.1420, 26225.00
962.2610, 26340.00
963.3800, 26012.00
964.4990, 26167.00
965.6170, 26280.00
966.7350, 26469.00
967.8530, 26437.00
968.9710, 26537.57
970.0890, 26380.00
971.2070, 26578.00
972.3240, 26413.00
973.4410, 26362.00
974.5580, 26323.00
975.6750, 26478.00
976.7920, 26569.00
977.9090, 26740.00
979.0250, 26657.00
980.1410, 26597.00
981.2580, 26801.00
982.3740, 26610.00
983.4890, 26656.00
984.6050, 26723.00
985.7200, 26877.00
986.8360, 26742.00
987.9510, 26887.00
989.0660, 26799.00
990.1810, 26758.00
991.2950, 26767.00
992.4100, 26822.00
993.5240, 26884.00
994.6390, 27037.00
995.7530, 26854.00
996.8660, 27095.00
997.9800, 27031.00
999.0940, 27173.00
1000.207, 27178.67
1001.320, 27193.00
1002.433, 27184.00
1003.546, 27091.00
1004.659, 27145.00
1005.772, 26903.00
1006.884, 27305.00
1007.996, 27294.00
1009.108, 27167.00
1010.220, 27335.00
1011.332, 27215.00
1012.444, 27266.00
1013.555, 27367.00
1014.666, 27293.00
1015.777, 27479.00
1016.888, 27248.00
1017.999, 27440.00
1019.110, 27236.00
1020.220, 27166.00
1021.331, 27391.00
1022.441, 27470.00
1023.551, 27425.00
1024.661, 27741.00
1025.770, 27362.00
1026.880, 27720.00
1027.989, 27544.00
1029.098, 27560.00
1030.207, 27658.00
1031.316, 27680.00
1032.425, 27598.00
1033.533, 27717.00
1034.642, 27732.00
1035.750, 27844.00
1036.858, 27921.00
1037.966, 27682.00
1039.073, 28009.00
1040.181, 28069.00
1041.288, 27718.00
1042.396, 27911.00
1043.503, 27896.00
1044.610, 27939.00
1045.716, 28058.00
1046.823, 28170.00
1047.929, 28026.00
1049.036, 28138.00
1050.142, 28056.00
1051.248, 28111.00
1052.353, 27985.00
1053.459, 28081.00
1054.564, 28088.00
1055.670, 28237.00
1056.775, 28498.00
1057.880, 28280.00
1058.985, 28303.00
1060.089, 28678.00
1061.194, 28464.00
1062.298, 28576.00
1063.402, 28566.00
1064.506, 28607.00
1065.610, 28636.45
1066.713, 28444.00
1067.817, 28636.00
1068.920, 28642.00
1070.023, 28586.00
1071.126, 28908.00
1072.229, 28727.00
1073.332, 28650.00
1074.435, 28746.00
1075.537, 28785.00
1076.639, 29033.00
1077.741, 28931.00
1078.843, 29169.00
1079.945, 29771.00
1081.046, 30610.00
1082.148, 32520.00
1083.249, 33651.00
1084.350, 36737.00
1085.451, 45006.00
1086.551, 56943.00
1087.652, 60482.00
1088.752, 50990.00
1089.853, 38626.00
1090.953, 32689.00
1092.053, 30465.00
1093.152, 29798.00
1094.252, 29264.00
1095.351, 29330.00
1096.451, 29209.00
1097.550, 29402.00
1098.649, 29352.00
1099.748, 29568.00
1100.846, 29376.00
1101.945, 29283.00
1103.043, 29476.00
1104.141, 29373.00
1105.239, 29292.00
1106.337, 29476.00
1107.434, 29420.00
1108.532, 29437.00
1109.629, 29641.00
1110.726, 29415.00
1111.823, 29384.00
1112.920, 29470.00
1114.017, 29561.00
1115.113, 29438.00
1116.210, 29469.00
1117.306, 29617.00
1118.402, 29786.00
1119.498, 29648.00
1120.593, 29794.00
1121.689, 29828.00
1122.784, 29667.00
1123.879, 29671.00
1124.974, 29928.00
1126.069, 29834.00
1127.164, 29882.00
1128.259, 29881.00
1129.353, 29907.00
1130.447, 30082.00
1131.541, 29809.00
1132.635, 30009.00
1133.729, 30200.00
1134.822, 29968.00
1135.916, 29975.00
1137.009, 30082.00
1138.102, 29930.00
1139.195, 30213.00
1140.288, 30224.00
1141.380, 30402.00
1142.473, 30244.00
1143.565, 30362.00
1144.657, 30404.00
1145.749, 30321.00
1146.841, 30338.00
1147.932, 30271.00
1149.024, 30484.00
1150.115, 30421.00
1151.206, 30469.00
1152.297, 30609.00
1153.388, 30526.00
1154.479, 30405.00
1155.569, 30495.00
1156.659, 30368.00
1157.750, 30373.64
1158.839, 30680.00
1159.929, 30387.00
1161.019, 30544.00
1162.108, 30658.00
1163.198, 30651.00
1164.287, 30563.00
1165.376, 30637.00
1166.465, 30649.80
1167.553, 31083.00
1168.642, 30798.00
1169.730, 30823.00
1170.818, 30961.00
1171.906, 30643.00
1172.994, 30804.00
1174.082, 31144.00
1175.170, 31044.00
1176.257, 30994.00
1177.344, 30999.00
1178.431, 30906.00
1179.518, 31068.00
1180.605, 31160.00
1181.691, 31064.00
1182.778, 31048.00
1183.864, 31013.00
1184.950, 31103.02
1186.036, 31127.54
1187.122, 31330.00
1188.207, 31306.00
1189.292, 31366.00
1190.378, 31528.00
1191.463, 31316.00
1192.548, 31088.00
1193.632, 31596.00
1194.717, 31516.00
1195.801, 31332.00
1196.886, 31505.00
1197.970, 31525.00
1199.054, 31593.00
1200.137, 31624.87
1201.221, 31588.00
1202.305, 31574.00
1203.388, 31645.00
1204.471, 31516.00
1205.554, 31693.00
1206.637, 31532.00
1207.719, 31775.00
1208.802, 31641.00
1209.884, 31656.00
1210.966, 31966.00
1212.048, 31847.00
1213.130, 31431.00
1214.212, 32162.00
1215.293, 31756.00
1216.374, 31995.00
1217.456, 31897.00
1218.536, 32160.00
1219.617, 32059.00
1220.698, 31927.00
1221.778, 32026.00
1222.859, 31951.08
1223.939, 32132.00
1225.019, 31953.00
1226.099, 32161.00
1227.178, 32151.00
1228.258, 32255.00
1229.337, 32115.00
1230.417, 32009.00
1231.496, 32465.00
1232.574, 32457.00
1233.653, 32313.00
1234.732, 32425.00
1235.810, 32273.00
1236.888, 32296.00
1237.966, 32300.00
1239.044, 32553.00
1240.122, 32608.00
1241.199, 32593.00
1242.277, 32598.00
1243.354, 32410.00
1244.431, 32655.00
1245.508, 32538.00
1246.585, 32618.00
1247.661, 32755.00
1248.738, 32731.00
1249.814, 32521.00
1250.890, 32611.00
1251.966, 32707.00
1253.042, 32960.00
1254.117, 32764.00
1255.193, 32888.00
1256.268, 32920.00
1257.343, 33001.00
1258.418, 32954.00
1259.493, 32874.00
1260.567, 33098.00
1261.642, 33255.00
1262.716, 33170.00
1263.790, 33125.00
1264.864, 33043.00
1265.938, 33038.00
1267.011, 33185.00
1268.085, 33239.00
1269.158, 33400.00
1270.231, 33242.00
1271.304, 33495.00
1272.377, 33215.00
1273.450, 33385.00
1274.522, 33385.00
1275.594, 33270.00
1276.666, 33234.00
1277.738, 33391.00
1278.810, 33481.00
1279.882, 33466.00
1280.953, 33500.00
1282.025, 33613.00
1283.096, 33638.00
