##NAMES=Aragonite
##RRUFFID=R060195
##IDEAL CHEMISTRY=CaCO_3_
##LOCALITY=Cicov Hill, Horenec, Czech Republic
##OWNER=RRUFF
##SOURCE=Marcus Origlieri
##DESCRIPTION=Colorless transparent elongated prismatic crystal
##STATUS=The identification of this mineral has been confirmed by X-ray diffraction and chemical analysis
##URL=rruff.info/R060195
##MEASURED CHEMISTRY=Ca_1.00_CO_3_
##PIN_ID=L01577
##ORIENTATION=Laser parallel to a* (1 0 0). Fiducial mark perpendicular to laser is parallel to b [0 1 0]
100.8830, 10722.00
102.1160, 10729.00
103.3490, 10887.00
104.5820, 10933.00
105.8150, 11163.00
107.0470, 11218.00
108.2800, 11180.00
109.5120, 11369.00
110.7440, 11332.00
111.9760, 11591.00
113.2080, 11722.00
114.4400, 11601.00
115.6710, 11825.00
116.9030, 11828.00
118.1340, 11777.00
119.3650, 11865.00
120.5960, 12107.00
121.8270, 12022.00
123.0580, 12075.00
124.2880, 12101.00
125.5190, 12119.00
126.7490, 12086.00
127.9790, 12161.00
129.2090, 12344.00
130.4390, 12434.00
131.6680, 12441.00
132.8980, 12546.00
134.1270, 12410.00
135.3560, 12537.00
136.5850, 12630.00
137.8140, 12593.00
139.0430, 12753.00
140.2710, 12939.00
141.5000, 13184.00
142.7280, 13460.00
143.9560, 13600.00
145.1840, 14162.00
146.4120, 14306.00
147.6390, 14107.00
148.8670, 13777.00
150.0940, 13777.00
151.3210, 13832.00
152.5490, 13951.00
153.7750, 14243.00
155.0020, 14332.00
156.2290, 14639.00
157.4550, 14577.00
158.6810, 14321.00
159.9080, 14120.00
161.1340, 14175.00
162.3590, 14129.00
163.5850, 14186.00
164.8110, 14241.00
166.0360, 14272.00
167.2610, 14091.00
168.4860, 13773.00
169.7110, 13692.00
170.9360, 13679.00
172.1610, 13675.00
173.3850, 13753.00
174.6100, 13874.00
175.8340, 13901.00
177.0580, 13885.00
178.2820, 14087.00
179.5050, 14186.00
180.7290, 14387.00
181.9520, 14714.00
183.1760, 14851.00
184.3990, 14956.00
185.6220, 14752.00
186.8450, 14453.00
188.0670, 14445.00
189.2900, 14363.00
190.5120, 14251.00
191.7340, 14437.00
192.9560, 14423.00
194.1780, 14526.00
195.4000, 14626.00
196.6220, 14701.00
197.8430, 14747.00
199.0640, 14798.00
200.2860, 14906.00
201.5070, 14876.00
202.7270, 15254.00
203.9480, 15606.00
205.1690, 16023.00
206.3890, 17025.00
207.6090, 17732.00
208.8290, 18317.00
210.0490, 18382.00
211.2690, 17735.00
212.4890, 16748.00
213.7080, 16127.00
214.9280, 15413.00
216.1470, 15169.00
217.3660, 15070.00
218.5850, 14941.00
219.8030, 14754.00
221.0220, 14654.00
222.2400, 14598.00
223.4590, 14576.00
224.6770, 14716.00
225.8950, 14661.00
227.1120, 14635.00
228.3300, 14565.00
229.5480, 14703.00
230.7650, 14597.00
231.9820, 14660.00
233.1990, 14662.00
234.4160, 14658.00
235.6330, 14821.00
236.8490, 14852.00
238.0660, 14756.00
239.2820, 14898.00
240.4980, 14739.00
241.7140, 14753.00
242.9300, 14860.00
244.1460, 14852.00
245.3610, 15074.00
246.5770, 15002.00
247.7920, 15297.00
249.0070, 15312.00
250.2220, 15355.00
251.4370, 15519.00
252.6510, 15496.00
253.8660, 15360.00
255.0800, 15345.00
256.2940, 15362.00
257.5080, 15293.31
258.7220, 15365.00
259.9360, 15299.00
261.1490, 15444.00
262.3630, 15573.00
263.5760, 15658.00
264.7890, 15538.00
266.0020, 15716.00
267.2150, 15514.00
268.4270, 15558.00
269.6400, 15503.00
270.8520, 15503.00
272.0640, 15603.00
273.2760, 15679.00
274.4880, 15576.00
275.7000, 15736.00
276.9120, 15808.00
278.1230, 15768.00
279.3340, 15607.00
280.5450, 15617.00
281.7560, 15607.00
282.9670, 15655.00
284.1780, 15659.00
285.3880, 15642.00
286.5980, 15766.00
287.8090, 15811.00
289.0190, 15781.00
290.2290, 15856.00
291.4380, 15821.00
292.6480, 15850.00
293.8570, 15795.00
295.0670, 15753.00
296.2760, 15757.71
297.4850, 15709.74
298.6930, 15742.00
299.9020, 15728.00
301.1110, 15733.00
302.3190, 15900.00
303.5270, 15924.00
304.7350, 15968.00
305.9430, 15988.00
307.1510, 15871.00
308.3580, 15983.00
309.5660, 15960.00
310.7730, 15954.00
311.9800, 16017.00
313.1870, 15987.00
314.3940, 15966.00
315.6010, 16139.00
316.8070, 16130.00
318.0130, 16167.00
319.2200, 16166.00
320.4260, 16213.00
321.6310, 16277.00
322.8370, 16229.00
324.0430, 16316.00
325.2480, 16285.00
326.4540, 16459.00
327.6590, 16357.00
328.8640, 16382.00
330.0680, 16360.00
331.2730, 16329.00
332.4780, 16385.20
333.6820, 16444.00
334.8860, 16519.00
336.0900, 16475.00
337.2940, 16619.00
338.4980, 16537.00
339.7010, 16524.00
340.9050, 16609.00
342.1080, 16648.00
343.3110, 16702.00
344.5140, 16643.00
345.7170, 16556.00
346.9200, 16559.00
348.1220, 16657.00
349.3240, 16737.00
350.5270, 16844.00
351.7290, 16810.00
352.9310, 16819.00
354.1320, 16874.00
355.3340, 16941.00
356.5350, 16852.00
357.7370, 16974.00
358.9380, 16862.00
360.1390, 16893.00
361.3400, 16933.00
362.5400, 16849.00
363.7410, 16975.00
364.9410, 16959.00
366.1410, 16960.00
367.3410, 17161.00
368.5410, 17046.00
369.7410, 16968.00
370.9400, 17015.00
372.1400, 17096.00
373.3390, 17113.00
374.5380, 16978.00
375.7370, 17255.00
376.9360, 17097.00
378.1350, 17142.00
379.3330, 17256.00
380.5310, 17324.00
381.7300, 17258.00
382.9280, 17194.00
384.1260, 17357.00
385.3230, 17316.00
386.5210, 17399.00
387.7180, 17311.00
388.9160, 17472.00
390.1130, 17479.00
391.3100, 17458.00
392.5060, 17426.00
393.7030, 17415.00
394.9000, 17429.00
396.0960, 17715.00
397.2920, 17675.00
398.4880, 17661.00
399.6840, 17560.00
400.8800, 17671.00
402.0750, 17724.00
403.2710, 17730.00
404.4660, 17786.20
405.6610, 17812.00
406.8560, 17805.00
408.0510, 17795.00
409.2450, 17757.00
410.4400, 17691.00
411.6340, 17752.04
412.8280, 17911.00
414.0220, 17859.00
415.2160, 17892.00
416.4100, 17942.00
417.6030, 17936.00
418.7970, 17977.45
419.9900, 17985.00
421.1830, 18029.00
422.3760, 18034.00
423.5690, 18060.00
424.7610, 17990.00
425.9540, 18009.00
427.1460, 18190.00
428.3380, 18137.00
429.5300, 18188.00
430.7220, 18218.00
431.9140, 18146.00
433.1050, 18311.00
434.2970, 18297.00
435.4880, 18353.00
436.6790, 18196.00
437.8700, 18277.43
439.0610, 18241.00
440.2510, 18317.00
441.4420, 18339.00
442.6320, 18318.00
443.8220, 18332.00
445.0120, 18457.00
446.2020, 18595.00
447.3910, 18577.00
448.5810, 18516.00
449.7700, 18494.00
450.9600, 18732.00
452.1490, 18710.00
453.3370, 18441.00
454.5260, 18772.00
455.7150, 18568.00
456.9030, 18809.00
458.0910, 18794.96
459.2800, 18735.00
460.4670, 18726.00
461.6550, 18847.00
462.8430, 18691.00
464.0300, 18888.00
465.2180, 18830.00
466.4050, 18921.00
467.5920, 18964.00
468.7790, 18956.00
469.9650, 19040.88
471.1520, 18919.00
472.3380, 19107.00
473.5250, 19071.00
474.7110, 19001.00
475.8970, 19061.00
477.0820, 19090.00
478.2680, 19239.00
479.4540, 19082.00
480.6390, 19208.00
481.8240, 19321.00
483.0090, 19230.00
484.1940, 19116.00
485.3780, 19056.00
486.5630, 19311.00
487.7470, 19314.00
488.9320, 19261.00
490.1160, 19270.00
491.3000, 19328.00
492.4830, 19462.00
493.6670, 19377.00
494.8500, 19428.00
496.0340, 19402.00
497.2170, 19387.00
498.4000, 19304.00
499.5820, 19525.00
500.7650, 19472.00
501.9480, 19753.00
503.1300, 19554.00
504.3120, 19705.00
505.4940, 19770.00
506.6760, 19668.00
507.8580, 19606.00
509.0390, 19719.00
510.2210, 19546.00
511.4020, 19710.00
512.5830, 19662.00
513.7640, 19749.00
514.9450, 19921.00
516.1250, 19767.00
517.3060, 19912.00
518.4860, 19771.00
519.6660, 19902.00
520.8460, 19900.00
522.0260, 20066.00
523.2060, 19888.00
524.3850, 19923.00
525.5650, 19978.00
526.7440, 19874.00
527.9230, 20121.00
529.1020, 20006.00
530.2810, 20045.00
531.4590, 20050.00
532.6380, 20098.00
533.8160, 20184.00
534.9940, 20214.00
536.1720, 20037.00
537.3500, 20308.00
538.5270, 20413.00
539.7050, 20121.00
540.8820, 20239.00
542.0590, 20419.00
543.2360, 20319.00
544.4130, 20161.00
545.5900, 20423.00
546.7660, 20329.00
547.9430, 20430.00
549.1190, 20504.00
550.2950, 20466.00
551.4710, 20544.00
552.6470, 20563.00
553.8220, 20496.00
554.9980, 20492.00
556.1730, 20568.00
557.3480, 20523.02
558.5230, 20519.00
559.6980, 20561.00
560.8730, 20675.00
562.0470, 20783.00
563.2220, 20664.00
564.3960, 20750.00
565.5700, 20731.00
566.7440, 20705.00
567.9170, 20741.00
569.0910, 20864.00
570.2640, 20839.00
571.4380, 20859.00
572.6110, 20960.00
573.7840, 20869.00
574.9570, 21139.00
576.1290, 21088.00
577.3020, 21156.00
578.4740, 21017.00
579.6460, 21210.00
580.8180, 21127.00
581.9900, 21173.00
583.1620, 21258.00
584.3330, 21004.00
585.5040, 20995.00
586.6760, 21194.00
587.8470, 21265.00
589.0180, 21157.00
590.1880, 21259.00
591.3590, 21232.00
592.5290, 21233.00
593.7000, 21297.00
594.8700, 21373.00
596.0400, 21465.00
597.2090, 21438.00
598.3790, 21435.00
599.5490, 21515.00
600.7180, 21349.00
601.8870, 21509.00
603.0560, 21303.00
604.2250, 21510.00
605.3940, 21624.00
606.5620, 21544.00
607.7300, 21523.00
608.8990, 21535.00
610.0670, 21547.62
611.2350, 21758.00
612.4020, 21587.00
613.5700, 21705.00
614.7370, 21606.00
615.9050, 21797.00
617.0720, 21764.00
618.2390, 21803.00
619.4060, 21675.00
620.5720, 21998.00
621.7390, 21829.00
622.9050, 21820.00
624.0710, 21974.00
625.2370, 21874.00
626.4030, 21961.00
627.5690, 22142.00
628.7340, 22066.00
629.9000, 22051.00
631.0650, 22110.00
632.2300, 22036.00
633.3950, 21977.00
634.5600, 22206.00
635.7240, 22083.00
636.8890, 22252.00
638.0530, 22301.00
639.2170, 22360.00
640.3810, 22364.00
641.5450, 22187.00
642.7080, 22350.00
643.8720, 22276.00
645.0350, 22404.00
646.1980, 22213.00
647.3610, 22306.00
648.5240, 22251.00
649.6870, 22439.00
650.8490, 22662.00
652.0120, 22533.00
653.1740, 22536.00
654.3360, 22472.00
655.4980, 22551.00
656.6600, 22604.00
657.8210, 22588.00
658.9830, 22850.00
660.1440, 22618.00
661.3050, 22447.00
662.4660, 22684.00
663.6270, 22757.00
664.7870, 22818.00
665.9480, 22818.00
667.1080, 22858.03
668.2680, 22862.02
669.4280, 22865.00
670.5880, 22863.00
671.7480, 22834.00
672.9070, 22838.54
674.0670, 22845.00
675.2260, 22998.00
676.3850, 22965.00
677.5440, 23159.00
678.7030, 23090.00
679.8610, 23092.00
681.0200, 23182.00
682.1780, 23181.00
683.3360, 23249.04
684.4940, 23184.00
685.6520, 23354.00
686.8090, 23281.00
687.9670, 23286.00
689.1240, 23332.00
690.2810, 23467.00
691.4380, 23325.00
692.5950, 23478.00
693.7520, 23452.00
694.9080, 23570.00
696.0650, 23465.00
697.2210, 23480.00
698.3770, 23691.00
699.5330, 23615.00
700.6880, 24082.00
701.8440, 24167.00
702.9990, 24614.00
704.1550, 24701.00
705.3100, 24686.00
706.4650, 24788.00
707.6190, 24672.86
708.7740, 24543.76
709.9290, 24360.00
711.0830, 24157.00
712.2370, 24053.45
713.3910, 23654.00
714.5450, 23888.00
715.6980, 23787.00
716.8520, 23860.00
718.0050, 24119.00
719.1580, 24085.00
720.3110, 24084.00
721.4640, 24121.00
722.6170, 23961.00
723.7700, 23886.00
724.9220, 23989.00
726.0740, 23931.00
727.2260, 23948.43
728.3780, 24092.00
729.5300, 23980.00
730.6810, 24103.00
731.8330, 24169.00
732.9840, 24051.00
734.1350, 24320.00
735.2860, 24086.00
736.4370, 24518.00
737.5880, 24073.00
738.7380, 24323.00
739.8880, 24389.00
741.0390, 24380.00
742.1890, 24407.00
743.3380, 24597.00
744.4880, 24452.00
745.6380, 24528.00
746.7870, 24382.00
747.9360, 24613.00
749.0850, 24489.00
750.2340, 24662.00
751.3830, 24629.00
752.5310, 24422.00
753.6800, 24648.00
754.8280, 24681.00
755.9760, 24869.00
757.1240, 24653.00
758.2720, 24915.00
759.4190, 24652.00
760.5670, 24792.00
761.7140, 24667.00
762.8610, 24833.00
764.0080, 24896.00
765.1550, 25042.00
766.3020, 24898.00
767.4480, 25107.00
768.5950, 24801.00
769.7410, 24885.00
770.8870, 24837.00
772.0330, 24806.00
773.1780, 24917.00
774.3240, 25024.00
775.4690, 24950.00
776.6140, 25002.00
777.7590, 25254.00
778.9040, 25215.00
780.0490, 25349.00
781.1940, 25234.00
782.3380, 25405.00
783.4820, 25373.00
784.6260, 25284.00
785.7700, 25428.00
786.9140, 25363.00
788.0580, 25350.00
789.2010, 25275.00
790.3450, 25573.00
791.4880, 25440.00
792.6310, 25547.00
793.7730, 25473.00
794.9160, 25514.00
796.0590, 25759.00
797.2010, 25541.00
798.3430, 25582.00
799.4850, 25691.00
800.6270, 25618.00
801.7690, 25699.00
802.9100, 25519.00
804.0520, 25903.00
805.1930, 25842.00
806.3340, 25828.00
807.4750, 25739.00
808.6160, 25795.00
809.7560, 25909.00
810.8970, 25766.00
812.0370, 25975.00
813.1770, 25927.00
814.3170, 25809.00
815.4570, 25966.00
816.5960, 25978.00
817.7360, 26223.00
818.8750, 25929.00
820.0140, 26063.00
821.1530, 26120.00
822.2920, 26358.00
823.4310, 26074.00
824.5690, 26075.00
825.7070, 26252.00
826.8460, 26222.00
827.9840, 26328.00
829.1220, 26323.00
830.2590, 26460.00
831.3970, 26159.00
832.5340, 26299.00
833.6710, 26493.00
834.8080, 26398.00
835.9450, 26715.00
837.0820, 26565.00
838.2190, 26524.00
839.3550, 26547.00
840.4910, 26554.00
841.6270, 26531.00
842.7630, 26677.00
843.8990, 26564.00
845.0350, 26760.00
846.1700, 26860.00
847.3060, 26745.00
848.4410, 26884.00
849.5760, 26936.00
850.7100, 26639.00
851.8450, 27075.00
852.9800, 26841.00
854.1140, 27237.00
855.2480, 27410.00
856.3820, 27047.00
857.5160, 27207.00
858.6500, 26960.00
859.7830, 26976.00
860.9170, 27248.00
862.0500, 27258.00
863.1830, 27032.00
864.3160, 27193.00
865.4480, 27120.00
866.5810, 27365.00
867.7130, 27209.00
868.8460, 27072.00
869.9780, 27184.00
871.1100, 27188.00
872.2410, 27403.00
873.3730, 27371.00
874.5050, 27484.00
875.6360, 27459.00
876.7670, 27528.00
877.8980, 27495.00
879.0290, 27533.00
880.1590, 27574.00
881.2900, 27609.58
882.4200, 27473.00
883.5500, 27664.00
884.6800, 27611.00
885.8100, 27488.00
886.9400, 27628.00
888.0690, 27558.02
889.1990, 27723.00
890.3280, 27588.00
891.4570, 27738.00
892.5860, 27783.00
893.7140, 27885.00
894.8430, 27840.00
895.9710, 27875.00
897.1000, 27745.00
898.2280, 27939.00
899.3560, 27904.00
900.4830, 28061.00
901.6110, 27966.00
902.7380, 28024.00
903.8660, 28130.68
904.9930, 27943.00
906.1200, 28278.00
907.2460, 28109.00
908.3730, 28026.00
909.5000, 28097.00
910.6260, 28150.00
911.7520, 28335.00
912.8780, 28379.00
914.0040, 28315.00
915.1290, 28448.00
916.2550, 28204.00
917.3800, 28431.00
918.5050, 28477.00
919.6300, 28356.00
920.7550, 28476.00
921.8800, 28406.00
923.0040, 28497.00
924.1290, 28439.00
925.2530, 28490.70
926.3770, 28630.00
927.5010, 28602.00
928.6250, 28622.00
929.7480, 28720.00
930.8720, 28759.00
931.9950, 28675.00
933.1180, 28846.00
934.2410, 28757.00
935.3640, 28496.00
936.4860, 28886.00
937.6090, 28768.00
938.7310, 28962.00
939.8530, 28981.00
940.9750, 28827.00
942.0970, 29127.00
943.2180, 28971.00
944.3400, 29045.00
945.4610, 29054.00
946.5820, 29103.00
947.7030, 29099.00
948.8240, 29016.00
949.9450, 29127.00
951.0650, 29147.00
952.1860, 29282.00
953.3060, 29364.00
954.4260, 29406.00
955.5460, 29304.00
956.6650, 29325.00
957.7850, 29345.09
958.9040, 29305.29
960.0230, 29383.00
961.1420, 29327.00
962.2610, 29278.00
963.3800, 29361.00
964.4990, 29491.00
965.6170, 29413.00
966.7350, 29548.00
967.8530, 29645.00
968.9710, 29625.00
970.0890, 29585.00
971.2070, 29765.00
972.3240, 29659.00
973.4410, 29783.00
974.5580, 30050.00
975.6750, 29617.00
976.7920, 29686.00
977.9090, 30083.00
979.0250, 29927.00
980.1410, 30081.00
981.2580, 30014.00
982.3740, 29810.00
983.4890, 30034.00
984.6050, 29749.00
985.7200, 30142.00
986.8360, 29859.00
987.9510, 29980.00
989.0660, 30351.00
990.1810, 29991.00
991.2950, 30301.00
992.4100, 30147.00
993.5240, 30186.00
994.6390, 30077.00
995.7530, 30126.37
996.8660, 30256.00
997.9800, 30275.00
999.0940, 30341.00
1000.207, 30476.00
1001.320, 30425.00
1002.433, 30501.00
1003.546, 30481.00
1004.659, 30532.00
1005.772, 30658.00
1006.884, 30443.00
1007.996, 30674.00
1009.108, 30457.00
1010.220, 30745.00
1011.332, 30837.00
1012.444, 30820.00
1013.555, 30710.00
1014.666, 30716.00
1015.777, 30645.00
1016.888, 30787.00
1017.999, 30827.00
1019.110, 31036.00
1020.220, 31031.00
1021.331, 30954.00
1022.441, 31115.00
1023.551, 30834.00
1024.661, 31073.00
1025.770, 31120.00
1026.880, 30782.00
1027.989, 31133.00
1029.098, 31238.00
1030.207, 31090.00
1031.316, 31137.00
1032.425, 31421.00
1033.533, 31387.00
1034.642, 31176.00
1035.750, 31516.00
1036.858, 31235.00
1037.966, 31321.00
1039.073, 31398.00
1040.181, 31535.00
1041.288, 31532.00
1042.396, 31604.07
1043.503, 31598.85
1044.610, 31622.00
1045.716, 31559.00
1046.823, 31559.57
1047.929, 31454.00
1049.036, 31517.00
1050.142, 31540.00
1051.248, 31537.34
1052.353, 31809.00
1053.459, 31584.00
1054.564, 31835.00
1055.670, 31990.00
1056.775, 31851.00
1057.880, 31810.00
1058.985, 31774.00
1060.089, 32093.00
1061.194, 32280.00
1062.298, 32239.00
1063.402, 32126.00
1064.506, 32051.00
1065.610, 32189.00
1066.713, 32183.00
1067.817, 32424.00
1068.920, 32152.00
1070.023, 32482.00
1071.126, 32455.00
1072.229, 32377.00
1073.332, 32485.00
1074.435, 32525.00
1075.537, 32617.00
1076.639, 32589.00
1077.741, 32648.00
1078.843, 32991.00
1079.945, 33179.00
1081.046, 34083.00
1082.148, 35344.00
1083.249, 36939.00
1084.350, 40316.00
1085.451, 48904.00
1086.551, 63288.00
1087.652, 65535.00
1088.752, 57500.00
1089.853, 43269.00
1090.953, 36809.00
1092.053, 34303.00
1093.152, 33576.00
1094.252, 33322.00
1095.351, 33425.00
1096.451, 33138.00
1097.550, 32970.00
1098.649, 32906.00
1099.748, 33043.00
1100.846, 32863.00
1101.945, 33105.00
1103.043, 33210.00
1104.141, 33294.00
1105.239, 33352.03
1106.337, 33200.00
1107.434, 33370.00
1108.532, 33236.00
1109.629, 33278.00
1110.726, 33375.00
1111.823, 33239.00
1112.920, 33053.00
1114.017, 33470.00
1115.113, 33348.00
1116.210, 33507.00
1117.306, 33536.00
1118.402, 33419.00
1119.498, 33563.00
1120.593, 33749.00
1121.689, 33641.00
1122.784, 33663.00
1123.879, 33603.00
1124.974, 33837.00
1126.069, 33676.00
1127.164, 33815.00
1128.259, 33639.00
1129.353, 33560.00
1130.447, 33859.00
1131.541, 33804.00
1132.635, 33959.00
1133.729, 33980.00
1134.822, 33961.00
1135.916, 33897.00
1137.009, 33893.64
1138.102, 34108.00
1139.195, 33948.00
1140.288, 34013.00
1141.380, 34299.00
1142.473, 34317.00
1143.565, 34175.00
1144.657, 33993.00
1145.749, 34271.00
1146.841, 34169.00
1147.932, 34618.00
1149.024, 34408.00
1150.115, 34086.00
1151.206, 34544.00
1152.297, 34388.00
1153.388, 34585.00
1154.479, 34512.00
1155.569, 34768.00
1156.659, 34428.00
1157.750, 34407.00
1158.839, 34523.00
1159.929, 34437.00
1161.019, 34648.00
1162.108, 34741.00
1163.198, 34737.00
1164.287, 34800.00
1165.376, 34534.00
1166.465, 34734.00
1167.553, 34924.00
1168.642, 34718.00
1169.730, 34846.00
1170.818, 35146.00
1171.906, 34960.00
1172.994, 35041.00
1174.082, 34767.00
1175.170, 35115.00
1176.257, 35071.00
1177.344, 35114.00
1178.431, 35091.00
1179.518, 35088.00
1180.605, 35114.00
1181.691, 35078.00
1182.778, 35165.55
1183.864, 35165.00
1184.950, 35319.00
1186.036, 35250.00
1187.122, 35291.00
1188.207, 35427.00
1189.292, 35330.00
1190.378, 35375.00
1191.463, 35505.00
1192.548, 35447.08
1193.632, 35506.00
1194.717, 35467.00
1195.801, 35523.00
1196.886, 35546.00
1197.970, 35543.06
1199.054, 35558.00
1200.137, 35554.00
1201.221, 35563.00
1202.305, 35553.06
1203.388, 35679.00
1204.471, 35663.00
1205.554, 35758.00
1206.637, 35967.00
1207.719, 35764.00
1208.802, 35832.00
1209.884, 35821.00
1210.966, 36250.00
1212.048, 35921.00
1213.130, 36045.00
1214.212, 36106.00
1215.293, 35965.00
1216.374, 36134.00
1217.456, 36053.00
1218.536, 36156.00
1219.617, 36220.00
1220.698, 36038.00
1221.778, 36404.00
1222.859, 36259.00
1223.939, 36154.00
1225.019, 36690.00
1226.099, 36615.00
1227.178, 36687.00
1228.258, 36209.00
1229.337, 36418.00
1230.417, 36693.00
1231.496, 36722.00
1232.574, 36713.00
1233.653, 36513.00
1234.732, 36561.00
1235.810, 36691.00
1236.888, 36852.00
1237.966, 36585.00
1239.044, 36952.00
1240.122, 36767.00
1241.199, 36538.00
1242.277, 36971.00
1243.354, 36990.00
1244.431, 36817.00
1245.508, 36869.00
1246.585, 36945.12
1247.661, 36973.00
1248.738, 37133.00
1249.814, 37217.00
1250.890, 37166.00
1251.966, 37425.00
1253.042, 37075.00
1254.117, 37269.00
1255.193, 37219.00
1256.268, 37277.00
1257.343, 37279.00
1258.418, 37318.00
1259.493, 37266.00
1260.567, 37222.00
1261.642, 37119.00
1262.716, 37230.00
1263.790, 37530.00
1264.864, 37401.00
1265.938, 37772.00
1267.011, 37408.00
1268.085, 37783.00
1269.158, 37547.00
1270.231, 37670.00
1271.304, 37505.00
1272.377, 37869.00
1273.450, 37641.00
1274.522, 37781.00
1275.594, 37859.00
1276.666, 37867.00
1277.738, 37790.00
1278.810, 37970.00
1279.882, 37929.00
1280.953, 37887.00
1282.025, 38090.00
1283.096, 37762.00
