##NAMES=Aragonite
##RRUFFID=R060195
##IDEAL CHEMISTRY=CaCO_3_
##LOCALITY=Cicov Hill, Horenec, Czech Republic
##OWNER=RRUFF
##SOURCE=Marcus Origlieri
##DESCRIPTION=Colorless transparent elongated prismatic crystal
##STATUS=The identification of this mineral has been confirmed by X-ray diffraction and chemical analysis
##URL=rruff.info/R060195
##MEASURED CHEMISTRY=Ca_1.00_CO_3_
##PIN_ID=L01577
##ORIENTATION=Laser parallel to a* (1 0 0). Fiducial mark perpendicular to laser is parallel to b [0 1 0]
100.8830, 10526.00
102.1160, 10703.00
103.3490, 10829.00
104.5820, 11043.00
105.8150, 11076.00
107.0470, 11196.00
108.2800, 11290.00
109.5120, 11447.00
110.7440, 11558.00
111.9760, 11480.00
113.2080, 11634.00
114.4400, 11629.00
115.6710, 11728.00
116.9030, 11841.00
118.1340, 11820.00
119.3650, 11752.00
120.5960, 11852.00
121.8270, 12024.00
123.0580, 11975.00
124.2880, 12078.00
125.5190, 11862.00
126.7490, 12005.00
127.9790, 12087.00
129.2090, 12188.00
130.4390, 12215.00
131.6680, 12082.00
132.8980, 12509.00
134.1270, 12550.00
135.3560, 12517.00
136.5850, 12402.00
137.8140, 12506.00
139.0430, 12679.00
140.2710, 12643.00
141.5000, 12783.00
142.7280, 12798.00
143.9560, 12979.00
145.1840, 13080.00
146.4120, 12986.00
147.6390, 13203.00
148.8670, 13310.00
150.0940, 13404.00
151.3210, 13522.00
152.5490, 13716.00
153.7750, 13769.00
155.0020, 13929.00
156.2290, 14091.00
157.4550, 14173.00
158.6810, 14103.00
159.9080, 13905.00
161.1340, 13979.00
162.3590, 14130.00
163.5850, 14353.00
164.8110, 14441.00
166.0360, 14342.00
167.2610, 14187.00
168.4860, 13700.00
169.7110, 13761.00
170.9360, 13589.00
172.1610, 13494.00
173.3850, 13534.00
174.6100, 13630.00
175.8340, 13544.00
177.0580, 13645.00
178.2820, 13641.00
179.5050, 13752.00
180.7290, 13784.00
181.9520, 14004.00
183.1760, 13996.00
184.3990, 14011.00
185.6220, 14042.00
186.8450, 13956.00
188.0670, 13881.00
189.2900, 13833.00
190.5120, 13874.79
191.7340, 14034.00
192.9560, 14046.00
194.1780, 14099.00
195.4000, 14249.00
196.6220, 14306.00
197.8430, 14279.00
199.0640, 14479.00
200.2860, 14477.00
201.5070, 14549.00
202.7270, 14511.00
203.9480, 14733.00
205.1690, 14825.00
206.3890, 15015.00
207.6090, 15493.00
208.8290, 15378.00
210.0490, 15580.00
211.2690, 15291.00
212.4890, 14995.00
213.7080, 14988.00
214.9280, 14719.00
216.1470, 14558.00
217.3660, 14583.00
218.5850, 14390.00
219.8030, 14555.00
221.0220, 14473.00
222.2400, 14465.00
223.4590, 14371.00
224.6770, 14526.00
225.8950, 14616.00
227.1120, 14585.00
228.3300, 14593.00
229.5480, 14589.00
230.7650, 14620.00
231.9820, 14660.00
233.1990, 14647.50
234.4160, 14766.00
235.6330, 14672.00
236.8490, 14745.00
238.0660, 14829.00
239.2820, 14775.00
240.4980, 14864.00
241.7140, 14977.00
242.9300, 14928.00
244.1460, 14969.00
245.3610, 14929.00
246.5770, 15022.00
247.7920, 14971.00
249.0070, 15013.00
250.2220, 15041.99
251.4370, 15109.00
252.6510, 15098.00
253.8660, 15176.00
255.0800, 15219.00
256.2940, 15294.00
257.5080, 15216.00
258.7220, 15300.00
259.9360, 15320.00
261.1490, 15254.00
262.3630, 15295.00
263.5760, 15171.00
264.7890, 15359.00
266.0020, 15292.00
267.2150, 15273.00
268.4270, 15351.00
269.6400, 15388.00
270.8520, 15436.26
272.0640, 15484.08
273.2760, 15518.00
274.4880, 15523.00
275.7000, 15470.00
276.9120, 15395.00
278.1230, 15589.00
279.3340, 15519.00
280.5450, 15465.00
281.7560, 15611.00
282.9670, 15641.00
284.1780, 15565.00
285.3880, 15652.00
286.5980, 15707.00
287.8090, 15792.00
289.0190, 15841.00
290.2290, 15739.00
291.4380, 15685.00
292.6480, 15718.00
293.8570, 15915.00
295.0670, 15962.00
296.2760, 15911.00
297.4850, 15828.00
298.6930, 15867.00
299.9020, 15872.00
301.1110, 15963.00
302.3190, 16072.00
303.5270, 15900.00
304.7350, 16059.00
305.9430, 16188.00
307.1510, 16017.00
308.3580, 16175.00
309.5660, 15917.00
310.7730, 16181.00
311.9800, 16180.00
313.1870, 16143.00
314.3940, 16081.00
315.6010, 16203.00
316.8070, 16314.00
318.0130, 16287.00
319.2200, 16344.00
320.4260, 16329.00
321.6310, 16347.00
322.8370, 16266.00
324.0430, 16335.46
325.2480, 16350.00
326.4540, 16432.00
327.6590, 16525.00
328.8640, 16568.00
330.0680, 16522.00
331.2730, 16511.00
332.4780, 16595.00
333.6820, 16641.00
334.8860, 16665.00
336.0900, 16698.00
337.2940, 16814.00
338.4980, 16566.00
339.7010, 16651.00
340.9050, 16699.00
342.1080, 16892.00
343.3110, 16841.00
344.5140, 16912.14
345.7170, 16934.00
346.9200, 16940.00
348.1220, 16875.00
349.3240, 16883.00
350.5270, 16902.00
351.7290, 16914.00
352.9310, 16889.00
354.1320, 16950.00
355.3340, 16910.00
356.5350, 17029.00
357.7370, 17106.00
358.9380, 17092.00
360.1390, 17119.00
361.3400, 17156.19
362.5400, 17098.00
363.7410, 17168.00
364.9410, 17243.00
366.1410, 17156.00
367.3410, 17266.00
368.5410, 17143.00
369.7410, 17205.00
370.9400, 17351.00
372.1400, 17334.00
373.3390, 17364.00
374.5380, 17277.00
375.7370, 17252.00
376.9360, 17396.00
378.1350, 17303.00
379.3330, 17401.00
380.5310, 17478.00
381.7300, 17549.00
382.9280, 17537.00
384.1260, 17533.00
385.3230, 17483.00
386.5210, 17451.00
387.7180, 17505.00
388.9160, 17733.00
390.1130, 17609.00
391.3100, 17731.00
392.5060, 17633.00
393.7030, 17619.00
394.9000, 17797.00
396.0960, 17849.00
397.2920, 17825.00
398.4880, 17852.00
399.6840, 17737.00
400.8800, 18023.00
402.0750, 17936.00
403.2710, 17853.00
404.4660, 17997.00
405.6610, 17905.00
406.8560, 18132.00
408.0510, 18102.00
409.2450, 17974.00
410.4400, 18189.00
411.6340, 18185.00
412.8280, 18049.00
414.0220, 18187.00
415.2160, 18156.00
416.4100, 18092.00
417.6030, 18168.00
418.7970, 18114.00
419.9900, 18296.00
421.1830, 18273.00
422.3760, 18297.00
423.5690, 18341.00
424.7610, 18272.00
425.9540, 18307.00
427.1460, 18442.00
428.3380, 18407.00
429.5300, 18375.00
430.7220, 18407.00
431.9140, 18624.00
433.1050, 18535.00
434.2970, 18650.00
435.4880, 18537.00
436.6790, 18621.00
437.8700, 18809.00
439.0610, 18654.00
440.2510, 18602.00
441.4420, 18545.00
442.6320, 18662.00
443.8220, 18800.00
445.0120, 18649.00
446.2020, 18807.00
447.3910, 18726.00
448.5810, 18721.00
449.7700, 18950.00
450.9600, 18814.00
452.1490, 18793.00
453.3370, 18882.00
454.5260, 18847.00
455.7150, 18836.00
456.9030, 19247.00
458.0910, 19076.00
459.2800, 19149.00
460.4670, 19123.00
461.6550, 18895.00
462.8430, 19136.00
464.0300, 19151.00
465.2180, 19245.00
466.4050, 19185.00
467.5920, 19124.00
468.7790, 19098.00
469.9650, 19347.00
471.1520, 19401.00
472.3380, 19269.00
473.5250, 19412.00
474.7110, 19307.00
475.8970, 19532.00
477.0820, 19533.00
478.2680, 19250.00
479.4540, 19381.00
480.6390, 19407.00
481.8240, 19610.00
483.0090, 19632.00
484.1940, 19452.00
485.3780, 19477.00
486.5630, 19637.00
487.7470, 19519.00
488.9320, 19661.00
490.1160, 19755.00
491.3000, 19836.00
492.4830, 19737.00
493.6670, 19613.00
494.8500, 19660.00
496.0340, 19795.00
497.2170, 19661.00
498.4000, 19858.00
499.5820, 19823.00
500.7650, 19845.00
501.9480, 19993.00
503.1300, 19891.00
504.3120, 20049.00
505.4940, 19820.00
506.6760, 20146.00
507.8580, 20082.00
509.0390, 19908.00
510.2210, 19964.00
511.4020, 20078.00
512.5830, 20037.00
513.7640, 20287.00
514.9450, 20110.00
516.1250, 19989.00
517.3060, 20093.00
518.4860, 20091.00
519.6660, 20093.00
520.8460, 20337.00
522.0260, 20306.00
523.2060, 20379.00
524.3850, 20202.00
525.5650, 20262.00
526.7440, 20240.00
527.9230, 20314.00
529.1020, 20463.00
530.2810, 20526.00
531.4590, 20450.00
532.6380, 20628.00
533.8160, 20639.00
534.9940, 20638.00
536.1720, 20726.00
537.3500, 20534.00
538.5270, 20676.00
539.7050, 20398.00
540.8820, 20794.00
542.0590, 20707.00
543.2360, 20658.00
544.4130, 20809.00
545.5900, 20860.00
546.7660, 20834.00
547.9430, 20916.00
549.1190, 20875.00
550.2950, 20899.00
551.4710, 20857.00
552.6470, 20890.00
553.8220, 20867.00
554.9980, 20917.00
556.1730, 21009.00
557.3480, 21042.00
558.5230, 21233.00
559.6980, 21095.00
560.8730, 20887.00
562.0470, 21177.00
563.2220, 21217.00
564.3960, 21202.00
565.5700, 21302.00
566.7440, 21129.00
567.9170, 21137.00
569.0910, 21179.00
570.2640, 21300.00
571.4380, 21373.00
572.6110, 21313.00
573.7840, 21383.00
574.9570, 21390.00
576.1290, 21369.00
577.3020, 21392.00
578.4740, 21429.48
579.6460, 21492.00
580.8180, 21549.00
581.9900, 21581.00
583.1620, 21673.00
584.3330, 21442.00
585.5040, 21585.00
586.6760, 21643.00
587.8470, 21516.00
589.0180, 21725.00
590.1880, 21570.00
591.3590, 21726.00
592.5290, 21767.00
593.7000, 21728.00
594.8700, 21840.00
596.0400, 21789.00
597.2090, 21937.00
598.3790, 21828.00
599.5490, 21753.00
600.7180, 21973.00
601.8870, 21981.00
603.0560, 21876.00
604.2250, 22130.00
605.3940, 21938.00
606.5620, 22137.00
607.7300, 22110.00
608.8990, 22084.00
610.0670, 22150.00
611.2350, 22063.00
612.4020, 22153.00
613.5700, 22103.00
614.7370, 22407.00
615.9050, 22338.00
617.0720, 22343.00
618.2390, 22343.00
619.4060, 22249.00
620.5720, 22376.00
621.7390, 22321.00
622.9050, 22393.00
624.0710, 22270.00
625.2370, 22333.00
626.4030, 22581.00
627.5690, 22492.00
628.7340, 22349.00
629.9000, 22575.00
631.0650, 22431.00
632.2300, 22446.00
633.3950, 22461.00
634.5600, 22449.00
635.7240, 22629.00
636.8890, 22654.00
638.0530, 22678.03
639.2170, 22714.00
640.3810, 22707.00
641.5450, 22769.00
642.7080, 22803.00
643.8720, 22730.00
645.0350, 22771.00
646.1980, 22775.00
647.3610, 22772.16
648.5240, 22997.00
649.6870, 22842.00
650.8490, 22926.00
652.0120, 23048.00
653.1740, 23015.00
654.3360, 23060.00
655.4980, 23038.00
656.6600, 23061.00
657.8210, 23096.00
658.9830, 23211.00
660.1440, 23256.00
661.3050, 23349.00
662.4660, 23249.00
663.6270, 23165.00
664.7870, 23058.00
665.9480, 23071.00
667.1080, 23242.00
668.2680, 23345.00
669.4280, 23219.00
670.5880, 23378.00
671.7480, 23359.00
672.9070, 23580.00
674.0670, 23489.00
675.2260, 23622.00
676.3850, 23340.00
677.5440, 23561.00
678.7030, 23497.00
679.8610, 23628.00
681.0200, 23529.00
682.1780, 23648.00
683.3360, 23538.00
684.4940, 23610.00
685.6520, 23877.00
686.8090, 23651.00
687.9670, 23567.00
689.1240, 23733.00
690.2810, 23643.00
691.4380, 23810.00
692.5950, 23636.00
693.7520, 23933.00
694.9080, 23835.00
696.0650, 23744.00
697.2210, 24007.00
698.3770, 24037.00
699.5330, 24031.00
700.6880, 24033.00
701.8440, 24116.00
702.9990, 23997.00
704.1550, 23930.00
705.3100, 24038.00
706.4650, 24059.00
707.6190, 24151.00
708.7740, 24369.00
709.9290, 24148.00
711.0830, 24216.00
712.2370, 24435.00
713.3910, 24171.00
714.5450, 24178.00
715.6980, 24340.00
716.8520, 24475.00
718.0050, 24506.00
719.1580, 24534.00
720.3110, 24424.00
721.4640, 24594.00
722.6170, 24511.00
723.7700, 24443.00
724.9220, 24550.00
726.0740, 24608.00
727.2260, 24488.00
728.3780, 24589.00
729.5300, 24636.00
730.6810, 24677.00
731.8330, 24872.00
732.9840, 24699.00
734.1350, 24608.00
735.2860, 24876.00
736.4370, 24892.00
737.5880, 24652.00
738.7380, 24821.00
739.8880, 24900.00
741.0390, 24989.00
742.1890, 24999.00
743.3380, 24807.00
744.4880, 24986.00
745.6380, 25084.00
746.7870, 25223.00
747.9360, 24843.00
749.0850, 25012.00
750.2340, 25037.00
751.3830, 25024.00
752.5310, 25208.00
753.6800, 25059.00
754.8280, 25079.00
755.9760, 25143.00
757.1240, 25186.00
758.2720, 25201.02
759.4190, 25235.25
760.5670, 25258.00
761.7140, 25284.00
762.8610, 25368.00
764.0080, 25435.00
765.1550, 25448.89
766.3020, 25424.00
767.4480, 25508.00
768.5950, 25470.00
769.7410, 25544.00
770.8870, 25667.00
772.0330, 25498.00
773.1780, 25580.00
774.3240, 25678.00
775.4690, 25636.00
776.6140, 25607.00
777.7590, 25620.00
778.9040, 25696.00
780.0490, 25869.00
781.1940, 25714.00
782.3380, 25595.00
783.4820, 25617.00
784.6260, 25804.00
785.7700, 25815.00
786.9140, 25775.00
788.0580, 25763.00
789.2010, 25846.00
790.3450, 26007.00
791.4880, 26016.00
792.6310, 25888.00
793.7730, 26107.00
794.9160, 26034.00
796.0590, 26112.00
797.2010, 26137.00
798.3430, 26163.00
799.4850, 26086.00
800.6270, 26036.00
801.7690, 26140.00
802.9100, 26237.00
804.0520, 26268.00
805.1930, 26163.00
806.3340, 26418.00
807.4750, 26301.00
808.6160, 26302.00
809.7560, 26477.00
810.8970, 26346.00
812.0370, 26638.00
813.1770, 26413.00
814.3170, 26577.00
815.4570, 26343.00
816.5960, 26667.00
817.7360, 26859.00
818.8750, 26610.00
820.0140, 26641.00
821.1530, 26599.00
822.2920, 26442.00
823.4310, 26648.00
824.5690, 26786.00
825.7070, 26683.00
826.8460, 26786.00
827.9840, 26835.00
829.1220, 26678.00
830.2590, 26985.00
831.3970, 26847.00
832.5340, 26821.00
833.6710, 27187.00
834.8080, 26805.00
835.9450, 26974.00
837.0820, 26993.00
838.2190, 27094.00
839.3550, 27141.00
840.4910, 27192.12
841.6270, 27164.00
842.7630, 27261.00
843.8990, 27260.00
845.0350, 27214.00
846.1700, 27467.00
847.3060, 27131.00
848.4410, 27500.00
849.5760, 27497.00
850.7100, 27371.00
851.8450, 27424.00
852.9800, 27604.00
854.1140, 27929.00
855.2480, 28118.00
856.3820, 27998.00
857.5160, 27731.00
858.6500, 27455.00
859.7830, 27563.00
860.9170, 27690.00
862.0500, 27649.00
863.1830, 27605.00
864.3160, 27801.00
865.4480, 27575.00
866.5810, 27675.00
867.7130, 27790.00
868.8460, 27681.00
869.9780, 27872.00
871.1100, 27895.00
872.2410, 27886.00
873.3730, 27992.00
874.5050, 27946.00
875.6360, 27900.00
876.7670, 27920.00
877.8980, 27917.11
879.0290, 28127.00
880.1590, 27945.00
881.2900, 28126.00
882.4200, 28097.00
883.5500, 28081.00
884.6800, 28200.00
885.8100, 28190.00
886.9400, 28139.00
888.0690, 28032.00
889.1990, 28114.00
890.3280, 28281.00
891.4570, 28285.00
892.5860, 28182.00
893.7140, 28333.00
894.8430, 28362.00
895.9710, 28314.00
897.1000, 28619.00
898.2280, 28581.00
899.3560, 28481.00
900.4830, 28479.00
901.6110, 28652.00
902.7380, 28570.00
903.8660, 28727.00
904.9930, 28526.00
906.1200, 28699.00
907.2460, 28579.00
908.3730, 28535.00
909.5000, 28625.00
910.6260, 28764.00
911.7520, 28831.00
912.8780, 28868.00
914.0040, 28899.00
915.1290, 28976.00
916.2550, 28874.00
917.3800, 28959.00
918.5050, 28775.00
919.6300, 28847.00
920.7550, 28857.00
921.8800, 28999.00
923.0040, 29105.00
924.1290, 29121.65
925.2530, 29063.00
926.3770, 29154.00
927.5010, 29296.00
928.6250, 29256.00
929.7480, 29365.00
930.8720, 29144.00
931.9950, 29372.00
933.1180, 29594.00
934.2410, 29276.00
935.3640, 29208.00
936.4860, 29279.00
937.6090, 29303.00
938.7310, 29565.00
939.8530, 29481.00
940.9750, 29566.00
942.0970, 29377.00
943.2180, 29735.00
944.3400, 29393.00
945.4610, 29458.00
946.5820, 29665.00
947.7030, 29432.00
948.8240, 29519.00
949.9450, 29586.00
951.0650, 29534.00
952.1860, 29805.00
953.3060, 29804.00
954.4260, 29958.00
955.5460, 29986.85
956.6650, 29965.00
957.7850, 29975.00
958.9040, 29873.00
960.0230, 29836.00
961.1420, 30043.00
962.2610, 29900.00
963.3800, 30062.00
964.4990, 30125.00
965.6170, 30034.00
966.7350, 30348.00
967.8530, 30226.00
968.9710, 30066.00
970.0890, 30277.00
971.2070, 29962.00
972.3240, 30319.00
973.4410, 30198.00
974.5580, 30205.00
975.6750, 30291.00
976.7920, 30277.54
977.9090, 30463.00
979.0250, 30406.00
980.1410, 30520.00
981.2580, 30625.00
982.3740, 30816.00
983.4890, 30456.00
984.6050, 30731.00
985.7200, 30503.00
986.8360, 30649.00
987.9510, 30713.00
989.0660, 30587.00
990.1810, 30583.00
991.2950, 30654.29
992.4100, 30627.67
993.5240, 30755.00
994.6390, 30779.00
995.7530, 30706.00
996.8660, 30929.00
997.9800, 30786.00
999.0940, 30931.00
1000.207, 31153.00
1001.320, 30979.00
1002.433, 30967.00
1003.546, 31091.00
1004.659, 31179.00
1005.772, 31076.00
1006.884, 31077.00
1007.996, 31180.00
1009.108, 31320.00
1010.220, 31297.00
1011.332, 31263.00
1012.444, 31342.00
1013.555, 31461.00
1014.666, 31350.00
1015.777, 31528.00
1016.888, 31431.00
1017.999, 31300.00
1019.110, 31315.00
1020.220, 31394.00
1021.331, 31426.00
1022.441, 31410.00
1023.551, 31477.00
1024.661, 31586.00
1025.770, 31597.00
1026.880, 31690.00
1027.989, 31721.00
1029.098, 31698.00
1030.207, 31757.00
1031.316, 31712.00
1032.425, 31693.00
1033.533, 31669.00
1034.642, 31814.00
1035.750, 31859.00
1036.858, 31961.00
1037.966, 31966.00
1039.073, 31983.00
1040.181, 31874.00
1041.288, 31810.00
1042.396, 32045.00
1043.503, 32015.00
1044.610, 32144.00
1045.716, 32264.00
1046.823, 32201.00
1047.929, 32213.00
1049.036, 32234.00
1050.142, 32132.00
1051.248, 32142.00
1052.353, 32179.00
1053.459, 32264.00
1054.564, 32302.00
1055.670, 32237.00
1056.775, 32556.00
1057.880, 32490.00
1058.985, 32535.00
1060.089, 32793.00
1061.194, 32599.00
1062.298, 32759.00
1063.402, 32712.00
1064.506, 32752.00
1065.610, 32576.00
1066.713, 32853.00
1067.817, 32544.00
1068.920, 32785.00
1070.023, 32767.00
1071.126, 32752.00
1072.229, 32777.00
1073.332, 32881.00
1074.435, 32921.00
1075.537, 33170.00
1076.639, 33416.00
1077.741, 33107.00
1078.843, 33371.00
1079.945, 33534.00
1081.046, 34325.00
1082.148, 35632.00
1083.249, 36608.00
1084.350, 39012.00
1085.451, 46326.00
1086.551, 59531.00
1087.652, 62614.00
1088.752, 51783.00
1089.853, 41241.00
1090.953, 36304.00
1092.053, 34451.00
1093.152, 33913.00
1094.252, 33828.00
1095.351, 33784.00
1096.451, 33623.00
1097.550, 33692.00
1098.649, 33572.00
1099.748, 33431.00
1100.846, 33784.00
1101.945, 33667.00
1103.043, 33616.00
1104.141, 33711.00
1105.239, 33400.00
1106.337, 33919.00
1107.434, 33730.00
1108.532, 33573.00
1109.629, 33572.00
1110.726, 33812.00
1111.823, 33584.00
1112.920, 33798.00
1114.017, 33806.00
1115.113, 33960.00
1116.210, 33947.00
1117.306, 34008.00
1118.402, 33770.00
1119.498, 33922.00
1120.593, 34113.00
1121.689, 33828.00
1122.784, 34165.00
1123.879, 34006.00
1124.974, 34198.00
1126.069, 34288.00
1127.164, 34201.00
1128.259, 34202.00
1129.353, 34370.00
1130.447, 34552.00
1131.541, 34289.00
1132.635, 34560.00
1133.729, 34357.00
1134.822, 34596.00
1135.916, 34395.00
1137.009, 34478.00
1138.102, 34499.00
1139.195, 34378.00
1140.288, 34726.00
1141.380, 34682.00
1142.473, 34628.00
1143.565, 34964.00
1144.657, 34624.00
1145.749, 34292.00
1146.841, 34997.00
1147.932, 34847.00
1149.024, 34729.00
1150.115, 35076.00
1151.206, 34991.00
1152.297, 34854.00
1153.388, 34907.00
1154.479, 34821.00
1155.569, 35060.00
1156.659, 35086.00
1157.750, 35222.00
1158.839, 35012.00
1159.929, 35252.00
1161.019, 35024.00
1162.108, 35361.00
1163.198, 35123.00
1164.287, 35274.00
1165.376, 35168.00
1166.465, 35321.00
1167.553, 35535.00
1168.642, 35357.00
1169.730, 35434.00
1170.818, 35400.00
1171.906, 35143.00
1172.994, 35406.00
1174.082, 35348.04
1175.170, 35425.00
1176.257, 35582.00
1177.344, 35626.00
1178.431, 35875.00
1179.518, 35896.00
1180.605, 35517.00
1181.691, 35480.00
1182.778, 35623.00
1183.864, 35662.00
1184.950, 35853.00
1186.036, 35633.00
1187.122, 35910.00
1188.207, 36025.00
1189.292, 35983.00
1190.378, 35759.00
1191.463, 35787.00
1192.548, 35772.00
1193.632, 35836.00
1194.717, 36139.00
1195.801, 35878.00
1196.886, 35958.00
1197.970, 36248.00
1199.054, 36066.00
1200.137, 36212.00
1201.221, 35972.00
1202.305, 36008.00
1203.388, 36419.00
1204.471, 36016.00
1205.554, 36130.00
1206.637, 36346.00
1207.719, 36284.00
1208.802, 36461.46
1209.884, 36482.00
1210.966, 36608.00
1212.048, 36607.00
1213.130, 36541.00
1214.212, 36690.00
1215.293, 36600.00
1216.374, 36633.00
1217.456, 36789.00
1218.536, 36683.00
1219.617, 36578.00
1220.698, 36710.00
1221.778, 36961.00
1222.859, 36585.00
1223.939, 37095.00
1225.019, 36950.00
1226.099, 37088.00
1227.178, 37033.00
1228.258, 36878.00
1229.337, 36776.00
1230.417, 37095.00
1231.496, 36912.00
1232.574, 36984.00
1233.653, 37102.00
1234.732, 37062.00
1235.810, 37074.00
1236.888, 37300.00
1237.966, 37211.00
1239.044, 37422.00
1240.122, 37273.00
1241.199, 37339.00
1242.277, 37285.00
1243.354, 37530.00
1244.431, 37395.00
1245.508, 37504.00
1246.585, 37611.00
1247.661, 37300.00
1248.738, 37615.00
1249.814, 37360.00
1250.890, 37512.00
1251.966, 37313.00
1253.042, 37585.00
1254.117, 37352.00
1255.193, 37808.00
1256.268, 37976.00
1257.343, 37958.00
1258.418, 37705.00
1259.493, 37585.00
1260.567, 37713.00
1261.642, 37807.00
1262.716, 37962.00
1263.790, 37904.00
1264.864, 38092.00
1265.938, 37736.00
1267.011, 37947.00
1268.085, 37850.00
1269.158, 38086.00
1270.231, 38123.00
1271.304, 38137.00
1272.377, 37988.00
1273.450, 38235.00
1274.522, 38240.00
1275.594, 38359.00
1276.666, 38373.16
1277.738, 38167.00
1278.810, 38308.00
1279.882, 38356.00
1280.953, 38289.00
1282.025, 38640.00
1283.096, 38517.00
