##NAMES=Aragonite
##RRUFFID=R060195
##IDEAL CHEMISTRY=CaCO_3_
##LOCALITY=Cicov Hill, Horenec, Czech Republic
##OWNER=RRUFF
##SOURCE=Marcus Origlieri
##DESCRIPTION=Colorless transparent elongated prismatic crystal
##STATUS=The identification of this mineral has been confirmed by X-ray diffraction and chemical analysis
##URL=rruff.info/R060195
##MEASURED CHEMISTRY=Ca_1.00_CO_3_
##PIN_ID=L01257
##ORIENTATION=Laser parallel to c* (0 0 1). Fiducial mark perpendicular to laser is parallel to a [1 0 0]
100.8830, 9311.000
102.1160, 9375.000
103.3490, 9494.000
104.5820, 9720.000
105.8150, 9684.000
107.0470, 9828.000
108.2800, 9881.000
109.5120, 10071.00
110.7440, 10137.00
111.9760, 10196.00
113.2080, 10289.00
114.4400, 10372.00
115.6710, 10586.00
116.9030, 10600.00
118.1340, 10642.00
119.3650, 10618.00
120.5960, 10633.00
121.8270, 10641.00
123.0580, 10509.00
124.2880, 10603.00
125.5190, 10709.00
126.7490, 10644.00
127.9790, 10787.00
129.2090, 10794.00
130.4390, 10780.00
131.6680, 10963.00
132.8980, 10942.00
134.1270, 10948.00
135.3560, 11130.00
136.5850, 11285.00
137.8140, 11261.00
139.0430, 11336.00
140.2710, 11492.00
141.5000, 11759.00
142.7280, 12049.00
143.9560, 12378.00
145.1840, 12637.00
146.4120, 13106.00
147.6390, 13236.00
148.8670, 13661.00
150.0940, 14253.00
151.3210, 15145.00
152.5490, 15976.00
153.7750, 17585.00
155.0020, 18682.00
156.2290, 19417.00
157.4550, 19214.00
158.6810, 18132.00
159.9080, 16335.00
161.1340, 15045.00
162.3590, 13990.00
163.5850, 13216.00
164.8110, 12887.00
166.0360, 12524.00
167.2610, 12337.00
168.4860, 12056.00
169.7110, 11988.89
170.9360, 12110.00
172.1610, 11993.00
173.3850, 11930.00
174.6100, 12058.00
175.8340, 12076.00
177.0580, 12041.00
178.2820, 12130.00
179.5050, 12165.00
180.7290, 12222.00
181.9520, 12246.80
183.1760, 12425.00
184.3990, 12262.00
185.6220, 12351.00
186.8450, 12339.00
188.0670, 12497.00
189.2900, 12361.00
190.5120, 12507.00
191.7340, 12591.00
192.9560, 12687.00
194.1780, 12741.00
195.4000, 12787.00
196.6220, 12595.00
197.8430, 12599.00
199.0640, 12759.00
200.2860, 12581.00
201.5070, 12659.00
202.7270, 12619.00
203.9480, 12914.00
205.1690, 12877.00
206.3890, 13127.00
207.6090, 13475.00
208.8290, 13719.00
210.0490, 13942.00
211.2690, 13819.00
212.4890, 13660.00
213.7080, 13602.00
214.9280, 13504.00
216.1470, 13633.00
217.3660, 13808.00
218.5850, 13703.00
219.8030, 13461.00
221.0220, 13262.00
222.2400, 13207.00
223.4590, 12958.00
224.6770, 12905.00
225.8950, 12748.00
227.1120, 12670.00
228.3300, 12767.00
229.5480, 12515.00
230.7650, 12706.00
231.9820, 12684.00
233.1990, 12713.00
234.4160, 12663.00
235.6330, 12756.00
236.8490, 12673.00
238.0660, 12698.00
239.2820, 12898.00
240.4980, 12726.00
241.7140, 12881.00
242.9300, 12893.00
244.1460, 12820.00
245.3610, 12868.00
246.5770, 12924.00
247.7920, 12897.00
249.0070, 12881.00
250.2220, 12889.55
251.4370, 12999.00
252.6510, 12913.00
253.8660, 12937.00
255.0800, 13047.00
256.2940, 12854.00
257.5080, 13131.00
258.7220, 13147.00
259.9360, 13087.00
261.1490, 13190.00
262.3630, 13143.00
263.5760, 13375.00
264.7890, 13231.00
266.0020, 13246.00
267.2150, 13415.00
268.4270, 13318.00
269.6400, 13322.00
270.8520, 13395.00
272.0640, 13528.00
273.2760, 13432.00
274.4880, 13493.00
275.7000, 13684.00
276.9120, 13756.00
278.1230, 13578.00
279.3340, 13634.00
280.5450, 13699.00
281.7560, 13601.00
282.9670, 13564.00
284.1780, 13701.00
285.3880, 13705.00
286.5980, 13641.00
287.8090, 13597.00
289.0190, 13754.00
290.2290, 13721.00
291.4380, 13697.00
292.6480, 13718.00
293.8570, 13616.00
295.0670, 13689.00
296.2760, 13671.00
297.4850, 13550.00
298.6930, 13566.00
299.9020, 13676.00
301.1110, 13707.00
302.3190, 13775.00
303.5270, 13717.00
304.7350, 13579.00
305.9430, 13700.00
307.1510, 13716.00
308.3580, 13751.00
309.5660, 13802.00
310.7730, 13753.00
311.9800, 13839.00
313.1870, 13850.00
314.3940, 13791.00
315.6010, 13856.00
316.8070, 13796.00
318.0130, 13833.34
319.2200, 13885.23
320.4260, 13891.00
321.6310, 13998.00
322.8370, 14033.00
324.0430, 14070.00
325.2480, 14060.00
326.4540, 14110.54
327.6590, 14069.00
328.8640, 14158.00
330.0680, 14097.00
331.2730, 14062.00
332.4780, 14223.00
333.6820, 14114.00
334.8860, 14142.00
336.0900, 14237.00
337.2940, 14140.00
338.4980, 14074.00
339.7010, 14287.00
340.9050, 14390.00
342.1080, 14153.00
343.3110, 14360.00
344.5140, 14224.00
345.7170, 14276.00
346.9200, 14378.00
348.1220, 14282.00
349.3240, 14424.00
350.5270, 14342.00
351.7290, 14482.00
352.9310, 14510.00
354.1320, 14571.00
355.3340, 14528.00
356.5350, 14520.00
357.7370, 14567.00
358.9380, 14621.00
360.1390, 14482.00
361.3400, 14548.00
362.5400, 14544.00
363.7410, 14486.00
364.9410, 14596.00
366.1410, 14602.00
367.3410, 14647.00
368.5410, 14803.00
369.7410, 14549.00
370.9400, 14691.00
372.1400, 14660.00
373.3390, 14854.00
374.5380, 14719.00
375.7370, 14747.00
376.9360, 14766.00
378.1350, 14819.00
379.3330, 14812.93
380.5310, 14720.00
381.7300, 14812.00
382.9280, 14835.00
384.1260, 14833.00
385.3230, 14926.00
386.5210, 14990.00
387.7180, 14895.00
388.9160, 15027.00
390.1130, 14983.00
391.3100, 15213.00
392.5060, 15053.00
393.7030, 15153.00
394.9000, 15127.00
396.0960, 15109.00
397.2920, 15187.00
398.4880, 15174.00
399.6840, 15322.00
400.8800, 15249.00
402.0750, 15286.00
403.2710, 15223.00
404.4660, 15272.00
405.6610, 15087.00
406.8560, 15218.00
408.0510, 15241.00
409.2450, 15251.00
410.4400, 15415.00
411.6340, 15435.00
412.8280, 15345.00
414.0220, 15548.00
415.2160, 15555.00
416.4100, 15410.00
417.6030, 15443.00
418.7970, 15611.00
419.9900, 15435.00
421.1830, 15539.00
422.3760, 15604.00
423.5690, 15604.00
424.7610, 15638.25
425.9540, 15710.00
427.1460, 15609.00
428.3380, 15645.00
429.5300, 15600.00
430.7220, 15651.00
431.9140, 15805.00
433.1050, 15666.00
434.2970, 15564.00
435.4880, 15770.00
436.6790, 15916.00
437.8700, 15630.00
439.0610, 15710.00
440.2510, 15763.00
441.4420, 15736.00
442.6320, 15817.00
443.8220, 15861.00
445.0120, 15887.00
446.2020, 15842.00
447.3910, 16083.00
448.5810, 15922.00
449.7700, 15962.00
450.9600, 15890.00
452.1490, 16085.00
453.3370, 16030.00
454.5260, 16020.00
455.7150, 16001.00
456.9030, 16051.00
458.0910, 16108.00
459.2800, 15993.00
460.4670, 16135.00
461.6550, 16249.00
462.8430, 16291.00
464.0300, 16034.00
465.2180, 16398.00
466.4050, 16081.00
467.5920, 16327.00
468.7790, 16361.00
469.9650, 16372.00
471.1520, 16465.00
472.3380, 16407.00
473.5250, 16340.00
474.7110, 16420.00
475.8970, 16404.00
477.0820, 16418.89
478.2680, 16444.00
479.4540, 16434.00
480.6390, 16529.00
481.8240, 16489.00
483.0090, 16592.00
484.1940, 16695.00
485.3780, 16556.00
486.5630, 16466.00
487.7470, 16698.00
488.9320, 16624.00
490.1160, 16672.00
491.3000, 16800.00
492.4830, 16744.00
493.6670, 16712.00
494.8500, 16815.00
496.0340, 16695.00
497.2170, 16706.00
498.4000, 16850.00
499.5820, 16883.00
500.7650, 16953.00
501.9480, 16855.00
503.1300, 16919.00
504.3120, 16772.00
505.4940, 17013.00
506.6760, 17000.00
507.8580, 16948.00
509.0390, 16953.00
510.2210, 16997.00
511.4020, 16999.00
512.5830, 17026.38
513.7640, 17067.00
514.9450, 17034.00
516.1250, 17107.00
517.3060, 17034.00
518.4860, 17092.00
519.6660, 17052.00
520.8460, 17105.00
522.0260, 17265.00
523.2060, 17223.00
524.3850, 17393.00
525.5650, 17262.00
526.7440, 17241.00
527.9230, 17451.00
529.1020, 17600.00
530.2810, 17501.00
531.4590, 17476.00
532.6380, 17390.00
533.8160, 17536.00
534.9940, 17406.00
536.1720, 17441.00
537.3500, 17393.00
538.5270, 17536.00
539.7050, 17559.00
540.8820, 17474.00
542.0590, 17634.00
543.2360, 17746.00
544.4130, 17732.00
545.5900, 17644.00
546.7660, 17748.00
547.9430, 17540.00
549.1190, 17558.00
550.2950, 17674.00
551.4710, 17631.00
552.6470, 18031.00
553.8220, 17690.00
554.9980, 17929.00
556.1730, 17896.00
557.3480, 17837.00
558.5230, 17933.00
559.6980, 17882.00
560.8730, 17807.00
562.0470, 17852.00
563.2220, 17958.00
564.3960, 17963.00
565.5700, 17911.00
566.7440, 17902.00
567.9170, 17936.03
569.0910, 17973.00
570.2640, 18006.00
571.4380, 18135.00
572.6110, 18148.00
573.7840, 18258.00
574.9570, 18059.00
576.1290, 18146.00
577.3020, 18040.00
578.4740, 18242.00
579.6460, 18112.00
580.8180, 18216.00
581.9900, 18052.00
583.1620, 18023.00
584.3330, 18227.00
585.5040, 18273.00
586.6760, 18371.00
587.8470, 18420.32
589.0180, 18348.00
590.1880, 18478.00
591.3590, 18406.00
592.5290, 18481.00
593.7000, 18498.00
594.8700, 18619.00
596.0400, 18490.00
597.2090, 18546.00
598.3790, 18569.00
599.5490, 18578.00
600.7180, 18594.93
601.8870, 18606.58
603.0560, 18616.54
604.2250, 18627.00
605.3940, 18685.00
606.5620, 18699.00
607.7300, 18778.00
608.8990, 18821.00
610.0670, 18690.00
611.2350, 18696.00
612.4020, 18806.00
613.5700, 18885.00
614.7370, 18932.00
615.9050, 18967.00
617.0720, 19016.00
618.2390, 19005.00
619.4060, 19006.00
620.5720, 18793.00
621.7390, 18830.00
622.9050, 18922.00
624.0710, 19107.00
625.2370, 19117.00
626.4030, 18980.00
627.5690, 19150.00
628.7340, 19063.00
629.9000, 19140.00
631.0650, 19159.00
632.2300, 19282.00
633.3950, 19250.00
634.5600, 19370.00
635.7240, 19333.00
636.8890, 19347.00
638.0530, 19313.00
639.2170, 19238.00
640.3810, 19374.00
641.5450, 19436.00
642.7080, 19305.00
643.8720, 19369.00
645.0350, 19570.00
646.1980, 19436.00
647.3610, 19453.00
648.5240, 19413.00
649.6870, 19496.00
650.8490, 19457.00
652.0120, 19531.69
653.1740, 19495.00
654.3360, 19644.00
655.4980, 19654.00
656.6600, 19648.00
657.8210, 19741.00
658.9830, 19655.00
660.1440, 19639.00
661.3050, 19528.00
662.4660, 19526.00
663.6270, 19746.00
664.7870, 19986.00
665.9480, 19788.00
667.1080, 19878.00
668.2680, 19661.00
669.4280, 20004.00
670.5880, 19854.00
671.7480, 19895.00
672.9070, 20092.00
674.0670, 19993.00
675.2260, 19959.00
676.3850, 20044.00
677.5440, 20112.00
678.7030, 20166.00
679.8610, 20224.96
681.0200, 20251.81
682.1780, 20263.00
683.3360, 20271.00
684.4940, 20167.00
685.6520, 20119.00
686.8090, 20384.00
687.9670, 20373.00
689.1240, 20257.00
690.2810, 20291.00
691.4380, 20254.00
692.5950, 20494.00
693.7520, 20567.00
694.9080, 20314.00
696.0650, 20684.00
697.2210, 20571.00
698.3770, 20715.00
699.5330, 21040.00
700.6880, 21266.00
701.8440, 21766.00
702.9990, 21957.00
704.1550, 22356.00
705.3100, 22309.00
706.4650, 22407.00
707.6190, 22644.00
708.7740, 22215.00
709.9290, 21938.00
711.0830, 21286.00
712.2370, 21010.00
713.3910, 20817.00
714.5450, 20780.00
715.6980, 21089.00
716.8520, 21020.00
718.0050, 20840.00
719.1580, 20967.00
720.3110, 20836.00
721.4640, 20873.00
722.6170, 20913.00
723.7700, 20808.00
724.9220, 20812.00
726.0740, 21026.00
727.2260, 20894.00
728.3780, 20888.00
729.5300, 21105.00
730.6810, 21236.00
731.8330, 21025.00
732.9840, 21265.00
734.1350, 21189.00
735.2860, 21234.00
736.4370, 21202.00
737.5880, 21069.00
738.7380, 21215.00
739.8880, 21175.00
741.0390, 21224.00
742.1890, 21432.00
743.3380, 21297.00
744.4880, 21460.00
745.6380, 21311.00
746.7870, 21623.00
747.9360, 21368.00
749.0850, 21406.00
750.2340, 21435.00
751.3830, 21492.00
752.5310, 21414.00
753.6800, 21339.00
754.8280, 21647.00
755.9760, 21550.00
757.1240, 21482.00
758.2720, 21681.00
759.4190, 21630.00
760.5670, 21667.00
761.7140, 21702.00
762.8610, 21801.00
764.0080, 21541.00
765.1550, 21811.00
766.3020, 21633.00
767.4480, 21826.00
768.5950, 21707.00
769.7410, 21942.00
770.8870, 21840.00
772.0330, 21943.00
773.1780, 21882.00
774.3240, 21876.44
775.4690, 21933.00
776.6140, 21859.00
777.7590, 21873.00
778.9040, 21879.00
780.0490, 22034.00
781.1940, 22224.00
782.3380, 22142.00
783.4820, 21897.00
784.6260, 22133.00
785.7700, 22068.00
786.9140, 22216.00
788.0580, 22183.00
789.2010, 22283.00
790.3450, 22308.00
791.4880, 22299.00
792.6310, 22263.00
793.7730, 22153.00
794.9160, 22268.00
796.0590, 22505.00
797.2010, 22313.00
798.3430, 22335.00
799.4850, 22581.00
800.6270, 22613.00
801.7690, 22596.00
802.9100, 22632.00
804.0520, 22502.00
805.1930, 22573.00
806.3340, 22446.00
807.4750, 22496.00
808.6160, 22760.00
809.7560, 22544.00
810.8970, 22730.00
812.0370, 22718.00
813.1770, 22694.00
814.3170, 22843.00
815.4570, 22959.00
816.5960, 22907.00
817.7360, 22952.00
818.8750, 22902.00
820.0140, 22945.00
821.1530, 23000.00
822.2920, 22845.00
823.4310, 22774.00
824.5690, 23079.00
825.7070, 22927.00
826.8460, 23019.00
827.9840, 23077.00
829.1220, 22980.00
830.2590, 22983.00
831.3970, 22903.00
832.5340, 23120.00
833.6710, 23235.00
834.8080, 23181.00
835.9450, 23210.00
837.0820, 23080.00
838.2190, 23084.00
839.3550, 23268.00
840.4910, 23516.00
841.6270, 23292.00
842.7630, 23289.00
843.8990, 23388.00
845.0350, 23363.00
846.1700, 23491.00
847.3060, 23512.00
848.4410, 23506.00
849.5760, 23444.00
850.7100, 23461.00
851.8450, 23488.90
852.9800, 23523.50
854.1140, 23605.00
855.2480, 23677.00
856.3820, 23772.00
857.5160, 23790.66
858.6500, 23602.00
859.7830, 23785.00
860.9170, 23765.00
862.0500, 23673.00
863.1830, 23875.00
864.3160, 23918.00
865.4480, 23992.00
866.5810, 23883.00
867.7130, 23804.00
868.8460, 23992.00
869.9780, 23996.00
871.1100, 24104.00
872.2410, 23781.00
873.3730, 24159.00
874.5050, 24057.00
875.6360, 24048.00
876.7670, 24267.00
877.8980, 24276.00
879.0290, 24084.00
880.1590, 24201.00
881.2900, 24308.00
882.4200, 24200.00
883.5500, 24232.00
884.6800, 24275.00
885.8100, 24335.00
886.9400, 24365.00
888.0690, 24383.00
889.1990, 24375.00
890.3280, 24306.00
891.4570, 24615.00
892.5860, 24294.00
893.7140, 24583.00
894.8430, 24506.00
895.9710, 24463.00
897.1000, 24546.00
898.2280, 24409.00
899.3560, 24428.00
900.4830, 24657.00
901.6110, 24591.00
902.7380, 24629.00
903.8660, 24747.00
904.9930, 24708.00
906.1200, 24912.00
907.2460, 24869.00
908.3730, 24933.00
909.5000, 24747.00
910.6260, 24849.00
911.7520, 25028.00
912.8780, 24846.00
914.0040, 24903.00
915.1290, 24818.00
916.2550, 24955.00
917.3800, 24907.00
918.5050, 25078.00
919.6300, 25255.00
920.7550, 25190.00
921.8800, 25036.00
923.0040, 25055.00
924.1290, 25201.00
925.2530, 25056.00
926.3770, 25081.00
927.5010, 25170.00
928.6250, 25119.00
929.7480, 25145.00
930.8720, 25473.00
931.9950, 25274.00
933.1180, 25351.00
934.2410, 25245.00
935.3640, 25248.46
936.4860, 25320.00
937.6090, 25279.00
938.7310, 25372.00
939.8530, 25380.00
940.9750, 25396.51
942.0970, 25505.68
943.2180, 25460.00
944.3400, 25660.00
945.4610, 25757.00
946.5820, 25750.00
947.7030, 25849.00
948.8240, 25841.00
949.9450, 25884.00
951.0650, 25871.00
952.1860, 25903.21
953.3060, 25872.00
954.4260, 25931.00
955.5460, 25956.00
956.6650, 25913.00
957.7850, 25949.00
958.9040, 25962.00
960.0230, 26166.00
961.1420, 26017.00
962.2610, 26144.00
963.3800, 26045.00
964.4990, 26251.00
965.6170, 26084.00
966.7350, 26266.00
967.8530, 26230.00
968.9710, 26262.00
970.0890, 26191.00
971.2070, 26259.00
972.3240, 26277.00
973.4410, 26286.00
974.5580, 26306.00
975.6750, 26349.00
976.7920, 26321.00
977.9090, 26454.00
979.0250, 26462.00
980.1410, 26484.03
981.2580, 26625.00
982.3740, 26558.00
983.4890, 26509.00
984.6050, 26633.00
985.7200, 26553.00
986.8360, 26607.85
987.9510, 26594.59
989.0660, 26685.00
990.1810, 26587.00
991.2950, 26659.00
992.4100, 26745.00
993.5240, 26981.00
994.6390, 27074.00
995.7530, 27072.75
996.8660, 27024.00
997.9800, 26977.00
999.0940, 26866.00
1000.207, 26753.00
1001.320, 27158.00
1002.433, 26985.00
1003.546, 27227.00
1004.659, 27088.00
1005.772, 26869.00
1006.884, 27289.00
1007.996, 27152.00
1009.108, 27083.00
1010.220, 27113.00
1011.332, 27053.00
1012.444, 27429.00
1013.555, 27200.00
1014.666, 27512.00
1015.777, 27108.00
1016.888, 27418.00
1017.999, 27419.00
1019.110, 27333.00
1020.220, 27656.00
1021.331, 27476.00
1022.441, 27427.00
1023.551, 27554.00
1024.661, 27511.00
1025.770, 27590.00
1026.880, 27474.00
1027.989, 27517.00
1029.098, 27779.00
1030.207, 27617.00
1031.316, 27635.00
1032.425, 27706.00
1033.533, 27550.00
1034.642, 27869.00
1035.750, 27838.00
1036.858, 27670.00
1037.966, 27921.00
1039.073, 27950.00
1040.181, 27825.00
1041.288, 28051.00
1042.396, 27985.00
1043.503, 28107.00
1044.610, 28105.00
1045.716, 28092.00
1046.823, 28244.00
1047.929, 28108.00
1049.036, 28128.00
1050.142, 28098.00
1051.248, 28228.00
1052.353, 28188.00
1053.459, 28303.00
1054.564, 28280.00
1055.670, 28244.00
1056.775, 28523.00
1057.880, 28319.00
1058.985, 28487.00
1060.089, 28670.00
1061.194, 28450.00
1062.298, 28589.00
1063.402, 28591.00
1064.506, 28633.00
1065.610, 28702.00
1066.713, 28605.00
1067.817, 28447.00
1068.920, 28640.00
1070.023, 28691.00
1071.126, 28780.00
1072.229, 28934.00
1073.332, 28985.00
1074.435, 29000.00
1075.537, 28822.00
1076.639, 29146.00
1077.741, 29261.00
1078.843, 29447.00
1079.945, 30106.00
1081.046, 31530.00
1082.148, 33464.00
1083.249, 33991.00
1084.350, 36394.00
1085.451, 43268.00
1086.551, 55605.00
1087.652, 61282.00
1088.752, 52577.00
1089.853, 40008.00
1090.953, 33300.00
1092.053, 30642.00
1093.152, 30221.00
1094.252, 29633.00
1095.351, 29710.00
1096.451, 29586.00
1097.550, 29589.00
1098.649, 29581.79
1099.748, 29510.00
1100.846, 29526.00
1101.945, 29599.00
1103.043, 29512.00
1104.141, 29592.00
1105.239, 29510.00
1106.337, 29673.00
1107.434, 29571.00
1108.532, 29847.00
1109.629, 29546.00
1110.726, 29666.00
1111.823, 29828.00
1112.920, 29761.00
1114.017, 29853.17
1115.113, 29737.00
1116.210, 29856.00
1117.306, 29827.00
1118.402, 29777.00
1119.498, 29959.00
1120.593, 29796.00
1121.689, 30052.00
1122.784, 29994.00
1123.879, 30048.00
1124.974, 30027.00
1126.069, 30241.00
1127.164, 30034.00
1128.259, 30226.00
1129.353, 30134.00
1130.447, 30165.00
1131.541, 30241.00
1132.635, 30209.00
1133.729, 30266.00
1134.822, 30398.00
1135.916, 30301.00
1137.009, 30368.00
1138.102, 30556.00
1139.195, 30254.00
1140.288, 30401.00
1141.380, 30521.00
1142.473, 30544.00
1143.565, 30602.11
1144.657, 30522.00
1145.749, 30626.00
1146.841, 30596.00
1147.932, 30633.00
1149.024, 30707.00
1150.115, 30777.00
1151.206, 30798.00
1152.297, 30880.00
1153.388, 30732.00
1154.479, 30835.00
1155.569, 30838.00
1156.659, 31004.00
1157.750, 31051.00
1158.839, 30914.00
1159.929, 30769.00
1161.019, 30761.00
1162.108, 30934.00
1163.198, 30868.00
1164.287, 31110.00
1165.376, 31145.00
1166.465, 31258.00
1167.553, 31433.00
1168.642, 31155.00
1169.730, 31214.00
1170.818, 31288.00
1171.906, 31336.00
1172.994, 31374.82
1174.082, 31452.00
1175.170, 31421.00
1176.257, 31385.00
1177.344, 31374.00
1178.431, 31397.60
1179.518, 31459.00
1180.605, 31491.00
1181.691, 31592.00
1182.778, 31678.00
1183.864, 31621.00
1184.950, 31559.00
1186.036, 31688.00
1187.122, 31677.00
1188.207, 31603.00
1189.292, 31378.00
1190.378, 31889.00
1191.463, 31642.00
1192.548, 31984.00
1193.632, 31982.00
1194.717, 31819.00
1195.801, 31735.00
1196.886, 31802.00
1197.970, 31714.00
1199.054, 31902.00
1200.137, 31832.00
1201.221, 32216.00
1202.305, 31844.00
1203.388, 32119.00
1204.471, 32086.00
1205.554, 32045.00
1206.637, 32205.00
1207.719, 32214.00
1208.802, 32359.00
1209.884, 32172.00
1210.966, 32365.00
1212.048, 32448.00
1213.130, 32139.00
1214.212, 32545.00
1215.293, 32235.00
1216.374, 32625.00
1217.456, 32371.00
1218.536, 32516.00
1219.617, 32402.00
1220.698, 32487.00
1221.778, 32582.00
1222.859, 32709.00
1223.939, 32727.00
1225.019, 32685.00
1226.099, 32652.00
1227.178, 32705.00
1228.258, 32645.00
1229.337, 32691.00
1230.417, 32700.70
1231.496, 32867.00
1232.574, 32735.00
1233.653, 32832.00
1234.732, 32843.00
1235.810, 33121.00
1236.888, 33089.00
1237.966, 32985.00
1239.044, 33301.00
1240.122, 33209.00
1241.199, 33212.00
1242.277, 33169.00
1243.354, 33410.00
1244.431, 33291.00
1245.508, 33437.00
1246.585, 33196.00
1247.661, 33134.00
1248.738, 33499.00
1249.814, 33254.00
1250.890, 33443.00
1251.966, 33396.00
1253.042, 33366.00
1254.117, 33531.00
1255.193, 33446.00
1256.268, 33552.00
1257.343, 33637.00
1258.418, 33793.00
1259.493, 33616.00
1260.567, 33474.00
1261.642, 33786.00
1262.716, 34044.00
1263.790, 33722.00
1264.864, 33482.00
1265.938, 33931.00
1267.011, 33738.00
1268.085, 33744.00
1269.158, 34130.00
1270.231, 33899.00
1271.304, 33884.00
1272.377, 34109.00
1273.450, 34001.00
1274.522, 34039.00
1275.594, 34053.00
1276.666, 33924.00
1277.738, 34087.00
1278.810, 33939.00
1279.882, 34233.00
1280.953, 34117.00
1282.025, 34200.00
1283.096, 34429.00
