##NAMES=Aragonite
##RRUFFID=R060195
##IDEAL CHEMISTRY=CaCO_3_
##LOCALITY=Cicov Hill, Horenec, Czech Republic
##OWNER=RRUFF
##SOURCE=Marcus Origlieri
##DESCRIPTION=Colorless transparent elongated prismatic crystal
##STATUS=The identification of this mineral has been confirmed by X-ray diffraction and chemical analysis
##URL=rruff.info/R060195
##MEASURED CHEMISTRY=Ca_1.00_CO_3_
##PIN_ID=L01088
##ORIENTATION=Laser parallel to b* (0 1 0). Fiducial mark perpendicular to laser is parallel to c [0 0 1]
100.8830, 9146.000
102.1160, 9269.000
103.3490, 9376.000
104.5820, 9382.000
105.8150, 9525.000
107.0470, 9556.000
108.2800, 9475.000
109.5120, 9681.000
110.7440, 9560.000
111.9760, 9656.000
113.2080, 9777.000
114.4400, 9713.000
115.6710, 9856.000
116.9030, 9866.000
118.1340, 9946.000
119.3650, 10049.00
120.5960, 9930.000
121.8270, 10058.00
123.0580, 9995.000
124.2880, 10069.00
125.5190, 10077.00
126.7490, 10183.00
127.9790, 10113.00
129.2090, 10272.00
130.4390, 10221.00
131.6680, 10281.00
132.8980, 10376.00
134.1270, 10436.00
135.3560, 10330.00
136.5850, 10626.00
137.8140, 10543.00
139.0430, 10664.00
140.2710, 10882.00
141.5000, 11074.00
142.7280, 11476.00
143.9560, 11688.00
145.1840, 11888.00
146.4120, 11724.00
147.6390, 11579.00
148.8670, 11262.00
150.0940, 11149.00
151.3210, 11414.00
152.5490, 11391.00
153.7750, 11476.00
155.0020, 11371.00
156.2290, 11538.00
157.4550, 11472.00
158.6810, 11517.00
159.9080, 11354.00
161.1340, 11529.00
162.3590, 11451.00
163.5850, 11425.00
164.8110, 11398.00
166.0360, 11311.21
167.2610, 11290.00
168.4860, 11188.00
169.7110, 11128.00
170.9360, 11136.00
172.1610, 11098.00
173.3850, 10992.00
174.6100, 11026.00
175.8340, 11051.00
177.0580, 11067.69
178.2820, 11255.00
179.5050, 11249.00
180.7290, 11305.00
181.9520, 11536.00
183.1760, 11423.00
184.3990, 11465.00
185.6220, 11494.00
186.8450, 11484.00
188.0670, 11474.00
189.2900, 11531.00
190.5120, 11517.60
191.7340, 11745.00
192.9560, 11620.00
194.1780, 11613.00
195.4000, 11835.00
196.6220, 11604.00
197.8430, 11621.00
199.0640, 11754.00
200.2860, 11680.00
201.5070, 11904.00
202.7270, 11822.00
203.9480, 12027.00
205.1690, 12098.00
206.3890, 12054.00
207.6090, 12221.00
208.8290, 12292.00
210.0490, 12266.00
211.2690, 12253.00
212.4890, 12246.60
213.7080, 12076.00
214.9280, 12150.00
216.1470, 12077.00
217.3660, 11953.00
218.5850, 12041.00
219.8030, 11952.00
221.0220, 11802.00
222.2400, 11852.00
223.4590, 11865.00
224.6770, 11724.00
225.8950, 11788.00
227.1120, 11784.00
228.3300, 11834.00
229.5480, 11807.00
230.7650, 11889.00
231.9820, 11840.85
233.1990, 11891.00
234.4160, 11773.00
235.6330, 11789.00
236.8490, 11769.00
238.0660, 11764.00
239.2820, 11885.00
240.4980, 11867.00
241.7140, 11904.00
242.9300, 12085.00
244.1460, 12021.00
245.3610, 11964.00
246.5770, 12170.00
247.7920, 11956.00
249.0070, 12031.00
250.2220, 11983.00
251.4370, 12203.00
252.6510, 12138.00
253.8660, 12086.00
255.0800, 12221.00
256.2940, 12113.00
257.5080, 12127.00
258.7220, 12224.00
259.9360, 12239.00
261.1490, 12195.00
262.3630, 12246.00
263.5760, 12284.00
264.7890, 12195.00
266.0020, 12382.00
267.2150, 12455.00
268.4270, 12301.00
269.6400, 12361.00
270.8520, 12493.00
272.0640, 12623.00
273.2760, 12471.00
274.4880, 12492.00
275.7000, 12582.00
276.9120, 12614.00
278.1230, 12783.00
279.3340, 12681.00
280.5450, 12708.00
281.7560, 12622.00
282.9670, 12698.00
284.1780, 12678.00
285.3880, 12639.00
286.5980, 12712.00
287.8090, 12674.00
289.0190, 12764.00
290.2290, 12710.00
291.4380, 12693.00
292.6480, 12644.00
293.8570, 12566.00
295.0670, 12663.00
296.2760, 12604.05
297.4850, 12773.00
298.6930, 12677.00
299.9020, 12630.00
301.1110, 12825.00
302.3190, 12569.00
303.5270, 12766.00
304.7350, 12781.00
305.9430, 12893.00
307.1510, 12752.00
308.3580, 12832.00
309.5660, 12741.00
310.7730, 12799.00
311.9800, 12831.00
313.1870, 12820.00
314.3940, 12841.63
315.6010, 12844.14
316.8070, 12852.00
318.0130, 12852.00
319.2200, 12898.00
320.4260, 12914.00
321.6310, 12926.62
322.8370, 12967.00
324.0430, 12947.00
325.2480, 13034.00
326.4540, 13040.00
327.6590, 12949.00
328.8640, 12993.00
330.0680, 13096.00
331.2730, 13027.00
332.4780, 13094.00
333.6820, 13202.00
334.8860, 13068.00
336.0900, 13204.00
337.2940, 13159.00
338.4980, 13228.00
339.7010, 13257.00
340.9050, 13147.00
342.1080, 13237.00
343.3110, 13173.00
344.5140, 13151.00
345.7170, 13159.00
346.9200, 13262.00
348.1220, 13258.00
349.3240, 13267.00
350.5270, 13220.00
351.7290, 13364.00
352.9310, 13409.00
354.1320, 13358.00
355.3340, 13340.00
356.5350, 13507.00
357.7370, 13275.00
358.9380, 13437.00
360.1390, 13458.00
361.3400, 13409.00
362.5400, 13355.00
363.7410, 13445.00
364.9410, 13654.00
366.1410, 13398.00
367.3410, 13545.00
368.5410, 13572.00
369.7410, 13458.00
370.9400, 13726.00
372.1400, 13641.00
373.3390, 13714.00
374.5380, 13548.00
375.7370, 13557.00
376.9360, 13698.00
378.1350, 13674.00
379.3330, 13716.00
380.5310, 13631.00
381.7300, 13706.00
382.9280, 13700.00
384.1260, 13863.00
385.3230, 13827.00
386.5210, 13846.00
387.7180, 13800.00
388.9160, 13824.00
390.1130, 13746.00
391.3100, 13894.00
392.5060, 13956.00
393.7030, 14091.00
394.9000, 14101.26
396.0960, 13993.00
397.2920, 14090.00
398.4880, 13886.00
399.6840, 13830.00
400.8800, 14075.00
402.0750, 13966.00
403.2710, 13974.00
404.4660, 14134.00
405.6610, 13951.00
406.8560, 14157.00
408.0510, 14077.00
409.2450, 14041.00
410.4400, 14128.00
411.6340, 14185.00
412.8280, 14242.00
414.0220, 14269.42
415.2160, 14208.00
416.4100, 14281.00
417.6030, 14212.00
418.7970, 14177.00
419.9900, 14201.00
421.1830, 14371.00
422.3760, 14123.00
423.5690, 14228.00
424.7610, 14397.00
425.9540, 14360.00
427.1460, 14243.00
428.3380, 14221.00
429.5300, 14242.00
430.7220, 14448.00
431.9140, 14412.00
433.1050, 14513.00
434.2970, 14477.00
435.4880, 14477.00
436.6790, 14491.72
437.8700, 14440.00
439.0610, 14477.00
440.2510, 14500.00
441.4420, 14512.00
442.6320, 14564.41
443.8220, 14558.00
445.0120, 14621.00
446.2020, 14568.00
447.3910, 14506.00
448.5810, 14627.00
449.7700, 14655.00
450.9600, 14541.00
452.1490, 14861.00
453.3370, 14617.00
454.5260, 14622.00
455.7150, 14755.00
456.9030, 14722.00
458.0910, 14801.00
459.2800, 14713.00
460.4670, 14776.00
461.6550, 14790.00
462.8430, 14770.00
464.0300, 14690.00
465.2180, 14795.00
466.4050, 14689.00
467.5920, 14947.00
468.7790, 14942.00
469.9650, 14932.00
471.1520, 14761.00
472.3380, 14984.00
473.5250, 15154.00
474.7110, 15047.00
475.8970, 15030.00
477.0820, 14840.00
478.2680, 15110.00
479.4540, 14980.00
480.6390, 14977.00
481.8240, 14928.00
483.0090, 15029.00
484.1940, 15115.00
485.3780, 15169.00
486.5630, 15246.00
487.7470, 15322.00
488.9320, 15197.00
490.1160, 15266.00
491.3000, 15097.00
492.4830, 15208.00
493.6670, 15186.00
494.8500, 15191.00
496.0340, 15332.00
497.2170, 15297.00
498.4000, 15278.00
499.5820, 15364.00
500.7650, 15288.00
501.9480, 15293.00
503.1300, 15344.00
504.3120, 15387.00
505.4940, 15479.00
506.6760, 15510.00
507.8580, 15501.00
509.0390, 15410.00
510.2210, 15438.00
511.4020, 15370.00
512.5830, 15433.00
513.7640, 15491.00
514.9450, 15546.00
516.1250, 15413.00
517.3060, 15580.00
518.4860, 15550.00
519.6660, 15420.00
520.8460, 15597.00
522.0260, 15561.00
523.2060, 15672.00
524.3850, 15613.00
525.5650, 15696.00
526.7440, 15647.00
527.9230, 15732.00
529.1020, 15735.00
530.2810, 15828.00
531.4590, 15750.00
532.6380, 15887.00
533.8160, 15915.00
534.9940, 15899.00
536.1720, 15813.00
537.3500, 15781.00
538.5270, 15861.00
539.7050, 15945.00
540.8820, 15887.00
542.0590, 15825.00
543.2360, 15966.00
544.4130, 15880.00
545.5900, 15957.00
546.7660, 16000.00
547.9430, 16015.00
549.1190, 16007.00
550.2950, 15935.00
551.4710, 15962.00
552.6470, 16010.00
553.8220, 15909.00
554.9980, 16056.00
556.1730, 16076.00
557.3480, 16166.00
558.5230, 16162.00
559.6980, 16027.00
560.8730, 16096.00
562.0470, 16138.00
563.2220, 15967.00
564.3960, 16356.00
565.5700, 16205.75
566.7440, 16220.64
567.9170, 16216.00
569.0910, 16171.00
570.2640, 16244.00
571.4380, 16317.00
572.6110, 16356.00
573.7840, 16286.00
574.9570, 16414.00
576.1290, 16480.00
577.3020, 16301.00
578.4740, 16359.00
579.6460, 16429.00
580.8180, 16491.00
581.9900, 16504.00
583.1620, 16509.19
584.3330, 16519.00
585.5040, 16427.00
586.6760, 16481.00
587.8470, 16368.00
589.0180, 16599.00
590.1880, 16386.00
591.3590, 16545.00
592.5290, 16408.00
593.7000, 16523.00
594.8700, 16454.00
596.0400, 16719.00
597.2090, 16663.00
598.3790, 16776.00
599.5490, 16797.00
600.7180, 16657.00
601.8870, 16817.00
603.0560, 16742.00
604.2250, 16701.00
605.3940, 16828.00
606.5620, 16878.00
607.7300, 16763.00
608.8990, 16805.00
610.0670, 16782.00
611.2350, 16732.00
612.4020, 16955.00
613.5700, 17035.00
614.7370, 16797.00
615.9050, 16971.00
617.0720, 16740.00
618.2390, 17026.00
619.4060, 16950.00
620.5720, 16812.00
621.7390, 16969.00
622.9050, 17068.00
624.0710, 16975.00
625.2370, 17140.00
626.4030, 16961.00
627.5690, 17158.00
628.7340, 17008.00
629.9000, 17005.00
631.0650, 17206.00
632.2300, 17167.00
633.3950, 17201.00
634.5600, 17175.00
635.7240, 17261.00
636.8890, 17194.00
638.0530, 17075.00
639.2170, 17304.00
640.3810, 17235.00
641.5450, 17238.00
642.7080, 17301.00
643.8720, 17375.00
645.0350, 17381.00
646.1980, 17424.84
647.3610, 17431.00
648.5240, 17444.00
649.6870, 17448.91
650.8490, 17419.00
652.0120, 17461.00
653.1740, 17525.00
654.3360, 17532.00
655.4980, 17449.00
656.6600, 17633.00
657.8210, 17537.00
658.9830, 17644.00
660.1440, 17439.00
661.3050, 17676.00
662.4660, 17589.00
663.6270, 17549.00
664.7870, 17559.00
665.9480, 17524.00
667.1080, 17634.00
668.2680, 17930.00
669.4280, 17647.00
670.5880, 17796.00
671.7480, 17864.00
672.9070, 17593.00
674.0670, 17814.00
675.2260, 17943.00
676.3850, 17815.00
677.5440, 17877.00
678.7030, 17788.00
679.8610, 17829.00
681.0200, 17906.00
682.1780, 17914.00
683.3360, 17846.00
684.4940, 18015.00
685.6520, 17920.00
686.8090, 17814.00
687.9670, 18062.00
689.1240, 17932.00
690.2810, 18085.00
691.4380, 18122.00
692.5950, 18013.00
693.7520, 18027.00
694.9080, 17888.00
696.0650, 18122.00
697.2210, 18356.00
698.3770, 18303.00
699.5330, 18452.00
700.6880, 19007.00
701.8440, 19217.00
702.9990, 19604.00
704.1550, 19786.00
705.3100, 20098.00
706.4650, 20254.00
707.6190, 20305.00
708.7740, 19773.00
709.9290, 19039.00
711.0830, 18730.00
712.2370, 18407.00
713.3910, 18225.00
714.5450, 18469.00
715.6980, 18585.00
716.8520, 18484.00
718.0050, 18274.00
719.1580, 18387.00
720.3110, 18352.00
721.4640, 18590.00
722.6170, 18400.00
723.7700, 18449.00
724.9220, 18403.00
726.0740, 18611.00
727.2260, 18558.00
728.3780, 18597.00
729.5300, 18482.00
730.6810, 18542.00
731.8330, 18537.00
732.9840, 18773.00
734.1350, 18702.00
735.2860, 18766.00
736.4370, 18490.00
737.5880, 18753.00
738.7380, 18676.00
739.8880, 18848.00
741.0390, 18761.00
742.1890, 18781.00
743.3380, 18729.00
744.4880, 18857.00
745.6380, 18755.00
746.7870, 18904.00
747.9360, 18875.00
749.0850, 18874.00
750.2340, 18798.00
751.3830, 18919.00
752.5310, 19069.00
753.6800, 19126.00
754.8280, 18788.00
755.9760, 19027.00
757.1240, 18979.00
758.2720, 19006.00
759.4190, 19043.00
760.5670, 19091.00
761.7140, 19113.00
762.8610, 19115.00
764.0080, 19226.00
765.1550, 19057.00
766.3020, 19076.00
767.4480, 19218.00
768.5950, 19145.00
769.7410, 19075.00
770.8870, 19090.00
772.0330, 19137.00
773.1780, 19263.00
774.3240, 19210.00
775.4690, 19131.00
776.6140, 19333.00
777.7590, 19359.00
778.9040, 19172.00
780.0490, 19281.00
781.1940, 19365.00
782.3380, 19348.00
783.4820, 19249.00
784.6260, 19322.55
785.7700, 19444.00
786.9140, 19341.00
788.0580, 19555.00
789.2010, 19530.00
790.3450, 19500.00
791.4880, 19473.00
792.6310, 19616.00
793.7730, 19493.00
794.9160, 19674.00
796.0590, 19517.00
797.2010, 19554.00
798.3430, 19651.00
799.4850, 19525.00
800.6270, 19768.00
801.7690, 19498.00
802.9100, 19668.00
804.0520, 19726.00
805.1930, 19520.00
806.3340, 19986.00
807.4750, 19754.00
808.6160, 19796.00
809.7560, 19816.00
810.8970, 19790.00
812.0370, 19941.00
813.1770, 19718.00
814.3170, 19703.00
815.4570, 19861.00
816.5960, 19998.00
817.7360, 20028.00
818.8750, 19948.00
820.0140, 20027.94
821.1530, 19873.00
822.2920, 20037.00
823.4310, 19946.00
824.5690, 19919.00
825.7070, 20048.00
826.8460, 20039.00
827.9840, 20067.00
829.1220, 19899.00
830.2590, 20155.00
831.3970, 20085.00
832.5340, 20213.00
833.6710, 20169.00
834.8080, 20222.00
835.9450, 20210.00
837.0820, 20321.00
838.2190, 20244.00
839.3550, 20231.00
840.4910, 20509.00
841.6270, 20440.00
842.7630, 20287.00
843.8990, 20400.00
845.0350, 20230.00
846.1700, 20312.00
847.3060, 20540.00
848.4410, 20438.00
849.5760, 20426.00
850.7100, 20498.00
851.8450, 20494.00
852.9800, 20555.00
854.1140, 20407.00
855.2480, 20523.00
856.3820, 20511.00
857.5160, 20484.00
858.6500, 20593.00
859.7830, 20665.00
860.9170, 20687.00
862.0500, 20646.00
863.1830, 20424.00
864.3160, 20833.00
865.4480, 20510.00
866.5810, 20796.00
867.7130, 20680.00
868.8460, 20758.00
869.9780, 20844.00
871.1100, 20678.00
872.2410, 20938.00
873.3730, 20775.00
874.5050, 20752.00
875.6360, 20884.00
876.7670, 20903.00
877.8980, 21035.00
879.0290, 20941.00
880.1590, 20893.00
881.2900, 21007.00
882.4200, 21039.00
883.5500, 20961.00
884.6800, 21212.00
885.8100, 20953.00
886.9400, 20907.00
888.0690, 21015.00
889.1990, 21238.00
890.3280, 21107.00
891.4570, 21199.00
892.5860, 21173.00
893.7140, 21018.00
894.8430, 21243.00
895.9710, 21176.00
897.1000, 21183.00
898.2280, 21046.00
899.3560, 21296.00
900.4830, 21250.00
901.6110, 21360.00
902.7380, 21264.00
903.8660, 21344.00
904.9930, 21611.00
906.1200, 21511.00
907.2460, 21166.00
908.3730, 21295.00
909.5000, 21400.00
910.6260, 21358.00
911.7520, 21526.00
912.8780, 21514.00
914.0040, 21547.00
915.1290, 21417.00
916.2550, 21529.00
917.3800, 21532.00
918.5050, 21520.00
919.6300, 21576.34
920.7550, 21672.00
921.8800, 21601.00
923.0040, 21690.00
924.1290, 21670.00
925.2530, 21732.00
926.3770, 21745.00
927.5010, 21790.00
928.6250, 21826.00
929.7480, 21860.00
930.8720, 21866.90
931.9950, 21871.00
933.1180, 21875.00
934.2410, 21749.00
935.3640, 21762.00
936.4860, 21792.00
937.6090, 21810.00
938.7310, 21832.00
939.8530, 21885.07
940.9750, 21999.00
942.0970, 22022.00
943.2180, 21981.00
944.3400, 22099.00
945.4610, 21922.00
946.5820, 22220.00
947.7030, 21922.00
948.8240, 22118.00
949.9450, 22150.00
951.0650, 22200.00
952.1860, 22175.00
953.3060, 22114.00
954.4260, 22394.00
955.5460, 22152.00
956.6650, 22164.00
957.7850, 22359.00
958.9040, 22273.00
960.0230, 22148.00
961.1420, 22404.00
962.2610, 22188.00
963.3800, 22339.00
964.4990, 22419.00
965.6170, 22425.00
966.7350, 22374.00
967.8530, 22452.00
968.9710, 22399.00
970.0890, 22497.00
971.2070, 22633.00
972.3240, 22558.00
973.4410, 22559.00
974.5580, 22473.00
975.6750, 22497.00
976.7920, 22446.00
977.9090, 22556.00
979.0250, 22539.00
980.1410, 22796.00
981.2580, 22829.00
982.3740, 22807.00
983.4890, 22740.00
984.6050, 22787.00
985.7200, 22695.00
986.8360, 22710.00
987.9510, 22839.00
989.0660, 22719.00
990.1810, 22961.00
991.2950, 22825.00
992.4100, 22808.00
993.5240, 22846.00
994.6390, 22813.57
995.7530, 22882.00
996.8660, 22853.00
997.9800, 22863.00
999.0940, 22856.00
1000.207, 22993.00
1001.320, 23032.00
1002.433, 23124.00
1003.546, 23137.00
1004.659, 23034.00
1005.772, 23219.00
1006.884, 22961.00
1007.996, 23141.00
1009.108, 23225.00
1010.220, 23166.00
1011.332, 23242.99
1012.444, 23289.00
1013.555, 23188.00
1014.666, 23269.00
1015.777, 23169.00
1016.888, 23367.00
1017.999, 23297.00
1019.110, 23277.00
1020.220, 23406.00
1021.331, 23289.00
1022.441, 23347.00
1023.551, 23388.00
1024.661, 23298.00
1025.770, 23488.00
1026.880, 23387.00
1027.989, 23436.00
1029.098, 23440.00
1030.207, 23553.00
1031.316, 23550.06
1032.425, 23638.00
1033.533, 23587.00
1034.642, 23583.00
1035.750, 23586.18
1036.858, 23588.85
1037.966, 23689.00
1039.073, 23655.00
1040.181, 23817.00
1041.288, 23910.00
1042.396, 24064.00
1043.503, 23879.00
1044.610, 24008.00
1045.716, 23688.00
1046.823, 23796.00
1047.929, 23884.00
1049.036, 23845.00
1050.142, 23827.00
1051.248, 23904.00
1052.353, 23874.00
1053.459, 23874.00
1054.564, 23811.00
1055.670, 24144.00
1056.775, 24168.00
1057.880, 23957.00
1058.985, 23989.00
1060.089, 24358.00
1061.194, 24084.00
1062.298, 24371.00
1063.402, 24169.00
1064.506, 24213.00
1065.610, 24405.00
1066.713, 24228.00
1067.817, 24260.00
1068.920, 24326.00
1070.023, 24237.00
1071.126, 24261.00
1072.229, 24331.03
1073.332, 24627.00
1074.435, 24535.00
1075.537, 24582.00
1076.639, 24774.00
1077.741, 24603.00
1078.843, 24958.00
1079.945, 25327.00
1081.046, 26069.00
1082.148, 27443.00
1083.249, 29539.00
1084.350, 35716.00
1085.451, 46076.00
1086.551, 54837.00
1087.652, 51394.00
1088.752, 40499.00
1089.853, 30813.00
1090.953, 27025.00
1092.053, 25872.00
1093.152, 25420.00
1094.252, 24947.00
1095.351, 24984.00
1096.451, 25015.00
1097.550, 24866.00
1098.649, 25118.00
1099.748, 24879.00
1100.846, 25007.00
1101.945, 24917.00
1103.043, 24956.00
1104.141, 24873.00
1105.239, 24850.00
1106.337, 24952.00
1107.434, 25031.00
1108.532, 25042.00
1109.629, 24928.00
1110.726, 25131.00
1111.823, 25047.00
1112.920, 25207.00
1114.017, 25124.00
1115.113, 25128.00
1116.210, 25080.00
1117.306, 25074.48
1118.402, 25207.00
1119.498, 25078.00
1120.593, 25208.00
1121.689, 25215.00
1122.784, 25340.00
1123.879, 25380.00
1124.974, 25391.46
1126.069, 25300.00
1127.164, 25395.00
1128.259, 25412.00
1129.353, 25401.00
1130.447, 25504.00
1131.541, 25427.00
1132.635, 25500.00
1133.729, 25544.00
1134.822, 25581.00
1135.916, 25535.00
1137.009, 25527.00
1138.102, 25532.00
1139.195, 25623.00
1140.288, 25571.00
1141.380, 25592.00
1142.473, 25763.00
1143.565, 25728.00
1144.657, 25888.00
1145.749, 25565.00
1146.841, 25734.00
1147.932, 25871.00
1149.024, 25640.00
1150.115, 25909.00
1151.206, 25782.00
1152.297, 25918.00
1153.388, 25846.00
1154.479, 25711.00
1155.569, 25776.00
1156.659, 25762.00
1157.750, 25950.00
1158.839, 25891.00
1159.929, 26040.00
1161.019, 26156.00
1162.108, 25942.00
1163.198, 26091.00
1164.287, 26169.00
1165.376, 26025.00
1166.465, 26207.00
1167.553, 26102.00
1168.642, 26138.00
1169.730, 26367.00
1170.818, 26175.00
1171.906, 26340.00
1172.994, 26226.00
1174.082, 26192.00
1175.170, 26357.00
1176.257, 26153.00
1177.344, 26430.00
1178.431, 26334.00
1179.518, 26495.00
1180.605, 26341.00
1181.691, 26495.00
1182.778, 26362.00
1183.864, 26318.00
1184.950, 26477.00
1186.036, 26489.00
1187.122, 26527.00
1188.207, 26708.00
1189.292, 26487.00
1190.378, 26593.00
1191.463, 26745.00
1192.548, 26569.00
1193.632, 26631.00
1194.717, 26555.00
1195.801, 26621.00
1196.886, 26700.00
1197.970, 26783.00
1199.054, 26618.00
1200.137, 26795.00
1201.221, 26810.00
1202.305, 26846.00
1203.388, 27021.00
1204.471, 26910.00
1205.554, 26902.00
1206.637, 27012.00
1207.719, 26914.00
1208.802, 26958.00
1209.884, 26794.00
1210.966, 26902.00
1212.048, 27237.00
1213.130, 27138.00
1214.212, 27055.00
1215.293, 27326.00
1216.374, 27069.00
1217.456, 26957.00
1218.536, 27137.00
1219.617, 27375.00
1220.698, 27118.00
1221.778, 27235.00
1222.859, 27296.00
1223.939, 27076.00
1225.019, 27300.00
1226.099, 27373.00
1227.178, 27480.00
1228.258, 27326.00
1229.337, 27413.00
1230.417, 27287.00
1231.496, 27412.00
1232.574, 27392.00
1233.653, 27438.00
1234.732, 27530.00
1235.810, 27587.00
1236.888, 27570.00
1237.966, 27525.00
1239.044, 27557.32
1240.122, 27687.00
1241.199, 27527.00
1242.277, 27700.00
1243.354, 27619.00
1244.431, 27835.00
1245.508, 28072.00
1246.585, 27763.00
1247.661, 27792.00
1248.738, 27808.00
1249.814, 27847.00
1250.890, 27735.00
1251.966, 27889.00
1253.042, 28033.00
1254.117, 27655.00
1255.193, 27999.00
1256.268, 27890.00
1257.343, 27940.00
1258.418, 28321.00
1259.493, 27963.00
1260.567, 28178.00
1261.642, 28024.00
1262.716, 27969.00
1263.790, 28026.00
1264.864, 28200.00
1265.938, 28254.00
1267.011, 28166.00
1268.085, 28290.00
1269.158, 28177.00
1270.231, 28223.00
1271.304, 28255.00
1272.377, 28217.00
1273.450, 28264.00
1274.522, 28370.00
1275.594, 28277.00
1276.666, 28319.00
1277.738, 28535.00
1278.810, 28402.00
1279.882, 28715.00
1280.953, 28645.00
1282.025, 28456.00
1283.096, 28504.00
