##NAMES=Aragonite
##RRUFFID=R060195
##IDEAL CHEMISTRY=CaCO_3_
##LOCALITY=Cicov Hill, Horenec, Czech Republic
##OWNER=RRUFF
##SOURCE=Marcus Origlieri
##DESCRIPTION=Colorless transparent elongated prismatic crystal
##STATUS=The identification of this mineral has been confirmed by X-ray diffraction and chemical analysis
##URL=rruff.info/R060195
##MEASURED CHEMISTRY=Ca_1.00_CO_3_
##PIN_ID=L01577
##ORIENTATION=Laser parallel to a* (1 0 0). Fiducial mark perpendicular to laser is parallel to b [0 1 0]
100.8830, 8655.000
102.1160, 8802.000
103.3490, 8944.000
104.5820, 8877.000
105.8150, 8960.000
107.0470, 9158.000
108.2800, 9019.000
109.5120, 9171.000
110.7440, 9395.000
111.9760, 9327.000
113.2080, 9393.000
114.4400, 9423.000
115.6710, 9480.000
116.9030, 9532.000
118.1340, 9542.000
119.3650, 9574.811
120.5960, 9549.000
121.8270, 9638.000
123.0580, 9693.000
124.2880, 9807.000
125.5190, 9821.670
126.7490, 9843.000
127.9790, 9897.000
129.2090, 9905.000
130.4390, 10017.00
131.6680, 9990.000
132.8980, 9948.000
134.1270, 10076.00
135.3560, 10225.00
136.5850, 10292.00
137.8140, 10179.00
139.0430, 10280.00
140.2710, 10211.00
141.5000, 10564.00
142.7280, 10687.00
143.9560, 10900.00
145.1840, 11082.60
146.4120, 11327.00
147.6390, 11320.00
148.8670, 11260.00
150.0940, 11241.00
151.3210, 11693.00
152.5490, 11964.00
153.7750, 12375.00
155.0020, 12888.00
156.2290, 12866.00
157.4550, 12889.00
158.6810, 12544.00
159.9080, 12222.00
161.1340, 11824.00
162.3590, 11589.00
163.5850, 11455.00
164.8110, 11466.00
166.0360, 11286.00
167.2610, 11261.00
168.4860, 11164.00
169.7110, 11038.00
170.9360, 11141.00
172.1610, 11136.00
173.3850, 11071.00
174.6100, 11104.00
175.8340, 11163.00
177.0580, 11391.00
178.2820, 11645.00
179.5050, 11937.00
180.7290, 12455.00
181.9520, 12610.00
183.1760, 13057.00
184.3990, 12782.00
185.6220, 12456.00
186.8450, 12104.00
188.0670, 11918.00
189.2900, 11763.00
190.5120, 11741.00
191.7340, 11634.00
192.9560, 11697.00
194.1780, 11731.00
195.4000, 11871.00
196.6220, 11970.00
197.8430, 12002.00
199.0640, 12380.00
200.2860, 12561.00
201.5070, 12622.00
202.7270, 13020.00
203.9480, 13931.00
205.1690, 14818.00
206.3890, 16034.00
207.6090, 17444.00
208.8290, 19007.00
210.0490, 18912.00
211.2690, 17609.00
212.4890, 16054.00
213.7080, 14527.00
214.9280, 13287.00
216.1470, 12965.00
217.3660, 12374.00
218.5850, 12033.00
219.8030, 11968.00
221.0220, 11825.00
222.2400, 11931.00
223.4590, 11747.00
224.6770, 11653.00
225.8950, 11669.00
227.1120, 11576.00
228.3300, 11718.00
229.5480, 11596.00
230.7650, 11774.00
231.9820, 11736.00
233.1990, 11761.00
234.4160, 11637.00
235.6330, 11694.00
236.8490, 11650.00
238.0660, 11785.00
239.2820, 11804.00
240.4980, 11828.00
241.7140, 11882.00
242.9300, 11935.87
244.1460, 12017.00
245.3610, 12114.00
246.5770, 12245.00
247.7920, 12419.00
249.0070, 12554.00
250.2220, 12568.00
251.4370, 12525.00
252.6510, 12687.00
253.8660, 12603.00
255.0800, 12518.00
256.2940, 12587.00
257.5080, 12429.00
258.7220, 12431.00
259.9360, 12592.00
261.1490, 12595.00
262.3630, 12640.00
263.5760, 12653.00
264.7890, 12625.90
266.0020, 12694.00
267.2150, 12531.00
268.4270, 12376.00
269.6400, 12261.00
270.8520, 12422.00
272.0640, 12291.00
273.2760, 12441.00
274.4880, 12460.00
275.7000, 12466.00
276.9120, 12403.00
278.1230, 12553.00
279.3340, 12414.00
280.5450, 12348.00
281.7560, 12451.00
282.9670, 12488.00
284.1780, 12437.00
285.3880, 12354.00
286.5980, 12480.00
287.8090, 12516.00
289.0190, 12366.00
290.2290, 12484.00
291.4380, 12385.00
292.6480, 12425.00
293.8570, 12456.00
295.0670, 12439.00
296.2760, 12350.00
297.4850, 12428.00
298.6930, 12448.00
299.9020, 12588.00
301.1110, 12487.00
302.3190, 12410.00
303.5270, 12612.00
304.7350, 12522.00
305.9430, 12476.00
307.1510, 12591.00
308.3580, 12659.00
309.5660, 12552.00
310.7730, 12553.00
311.9800, 12659.00
313.1870, 12694.00
314.3940, 12568.00
315.6010, 12761.00
316.8070, 12649.00
318.0130, 12725.00
319.2200, 12769.00
320.4260, 12847.00
321.6310, 12808.00
322.8370, 12862.00
324.0430, 12833.00
325.2480, 12875.00
326.4540, 12975.00
327.6590, 12821.00
328.8640, 12920.00
330.0680, 12764.00
331.2730, 12814.81
332.4780, 12935.00
333.6820, 12847.00
334.8860, 12983.00
336.0900, 12928.00
337.2940, 13002.00
338.4980, 12954.00
339.7010, 13073.00
340.9050, 13102.00
342.1080, 12986.00
343.3110, 12922.00
344.5140, 13072.00
345.7170, 13177.00
346.9200, 13106.00
348.1220, 13111.00
349.3240, 13083.00
350.5270, 13228.00
351.7290, 13204.00
352.9310, 13249.00
354.1320, 13169.00
355.3340, 13280.00
356.5350, 13238.00
357.7370, 13201.00
358.9380, 13354.00
360.1390, 13345.00
361.3400, 13366.00
362.5400, 13414.03
363.7410, 13220.00
364.9410, 13412.00
366.1410, 13345.00
367.3410, 13280.00
368.5410, 13398.00
369.7410, 13357.00
370.9400, 13406.00
372.1400, 13429.00
373.3390, 13436.00
374.5380, 13579.00
375.7370, 13623.00
376.9360, 13615.44
378.1350, 13452.00
379.3330, 13585.00
380.5310, 13492.00
381.7300, 13482.00
382.9280, 13654.00
384.1260, 13624.00
385.3230, 13660.00
386.5210, 13677.00
387.7180, 13716.00
388.9160, 13702.00
390.1130, 13627.00
391.3100, 13716.00
392.5060, 13619.00
393.7030, 13742.00
394.9000, 13844.00
396.0960, 13769.00
397.2920, 13738.00
398.4880, 13872.00
399.6840, 13858.00
400.8800, 13887.00
402.0750, 14037.00
403.2710, 13926.00
404.4660, 13953.00
405.6610, 14006.00
406.8560, 14042.00
408.0510, 14026.00
409.2450, 14057.00
410.4400, 14101.00
411.6340, 13966.00
412.8280, 14193.00
414.0220, 13987.00
415.2160, 13989.00
416.4100, 14120.00
417.6030, 14131.00
418.7970, 14146.00
419.9900, 14266.00
421.1830, 14247.22
422.3760, 14192.00
423.5690, 14269.00
424.7610, 14261.00
425.9540, 14243.00
427.1460, 14186.00
428.3380, 14378.00
429.5300, 14357.00
430.7220, 14466.00
431.9140, 14550.56
433.1050, 14357.00
434.2970, 14640.00
435.4880, 14420.00
436.6790, 14310.00
437.8700, 14375.00
439.0610, 14334.00
440.2510, 14451.00
441.4420, 14441.00
442.6320, 14348.00
443.8220, 14520.00
445.0120, 14507.00
446.2020, 14525.00
447.3910, 14569.00
448.5810, 14597.00
449.7700, 14681.00
450.9600, 14599.00
452.1490, 14557.00
453.3370, 14711.00
454.5260, 14673.00
455.7150, 14703.00
456.9030, 14635.00
458.0910, 14757.00
459.2800, 14584.00
460.4670, 14718.00
461.6550, 14913.00
462.8430, 14858.00
464.0300, 14896.00
465.2180, 14830.00
466.4050, 14784.00
467.5920, 14825.00
468.7790, 14895.00
469.9650, 14947.00
471.1520, 14984.95
472.3380, 15037.00
473.5250, 15073.00
474.7110, 15104.00
475.8970, 15178.00
477.0820, 15091.00
478.2680, 15180.00
479.4540, 15152.00
480.6390, 15023.00
481.8240, 15084.00
483.0090, 15090.00
484.1940, 15162.00
485.3780, 15144.77
486.5630, 15064.00
487.7470, 15136.00
488.9320, 15192.00
490.1160, 15235.00
491.3000, 15365.00
492.4830, 15314.00
493.6670, 15379.85
494.8500, 15432.00
496.0340, 15396.00
497.2170, 15332.00
498.4000, 15283.00
499.5820, 15357.00
500.7650, 15339.00
501.9480, 15426.00
503.1300, 15438.00
504.3120, 15259.00
505.4940, 15517.00
506.6760, 15377.00
507.8580, 15453.00
509.0390, 15677.00
510.2210, 15619.00
511.4020, 15530.00
512.5830, 15535.00
513.7640, 15686.00
514.9450, 15675.00
516.1250, 15668.00
517.3060, 15598.00
518.4860, 15600.00
519.6660, 15701.00
520.8460, 15816.00
522.0260, 15743.00
523.2060, 15589.00
524.3850, 15786.00
525.5650, 15644.00
526.7440, 15753.00
527.9230, 15930.00
529.1020, 15845.00
530.2810, 15819.00
531.4590, 16029.00
532.6380, 16018.00
533.8160, 15974.00
534.9940, 16020.00
536.1720, 15998.00
537.3500, 16117.00
538.5270, 16144.00
539.7050, 15998.00
540.8820, 16101.00
542.0590, 16049.00
543.2360, 16052.00
544.4130, 16048.00
545.5900, 16220.00
546.7660, 16133.00
547.9430, 16316.00
549.1190, 16265.00
550.2950, 16133.00
551.4710, 16046.00
552.6470, 16213.00
553.8220, 16184.00
554.9980, 16289.00
556.1730, 16303.00
557.3480, 16460.00
558.5230, 16378.00
559.6980, 16488.00
560.8730, 16461.00
562.0470, 16502.00
563.2220, 16401.00
564.3960, 16553.00
565.5700, 16454.00
566.7440, 16531.00
567.9170, 16515.00
569.0910, 16524.00
570.2640, 16566.00
571.4380, 16717.00
572.6110, 16611.00
573.7840, 16533.00
574.9570, 16549.00
576.1290, 16777.00
577.3020, 16687.00
578.4740, 16755.00
579.6460, 16809.00
580.8180, 16856.00
581.9900, 16838.00
583.1620, 16883.44
584.3330, 16828.00
585.5040, 16913.00
586.6760, 16976.00
587.8470, 16977.00
589.0180, 17044.00
590.1880, 16949.00
591.3590, 16911.00
592.5290, 17066.00
593.7000, 16970.00
594.8700, 17065.00
596.0400, 16973.00
597.2090, 16980.00
598.3790, 17227.00
599.5490, 17074.00
600.7180, 17090.00
601.8870, 17035.00
603.0560, 17015.00
604.2250, 17139.00
605.3940, 17257.00
606.5620, 17296.00
607.7300, 17098.00
608.8990, 17398.00
610.0670, 17202.00
611.2350, 17298.00
612.4020, 17331.00
613.5700, 17184.00
614.7370, 17480.00
615.9050, 17360.00
617.0720, 17512.00
618.2390, 17355.00
619.4060, 17399.00
620.5720, 17452.00
621.7390, 17408.00
622.9050, 17516.00
624.0710, 17484.00
625.2370, 17573.00
626.4030, 17599.00
627.5690, 17810.00
628.7340, 17657.00
629.9000, 17729.00
631.0650, 17705.00
632.2300, 17640.00
633.3950, 17717.00
634.5600, 17619.00
635.7240, 17714.00
636.8890, 17781.00
638.0530, 17674.00
639.2170, 17900.00
640.3810, 17750.00
641.5450, 17759.00
642.7080, 17940.00
643.8720, 17963.00
645.0350, 18008.00
646.1980, 17846.00
647.3610, 17903.00
648.5240, 17993.00
649.6870, 17854.00
650.8490, 18061.00
652.0120, 18244.00
653.1740, 18033.00
654.3360, 18089.00
655.4980, 17990.00
656.6600, 18085.00
657.8210, 18240.00
658.9830, 18289.00
660.1440, 18332.00
661.3050, 18316.00
662.4660, 18349.00
663.6270, 18295.00
664.7870, 18329.00
665.9480, 18337.00
667.1080, 18374.00
668.2680, 18300.00
669.4280, 18388.00
670.5880, 18357.80
671.7480, 18480.00
672.9070, 18380.00
674.0670, 18427.00
675.2260, 18497.00
676.3850, 18639.00
677.5440, 18432.00
678.7030, 18589.00
679.8610, 18723.00
681.0200, 18752.00
682.1780, 18538.00
683.3360, 18429.00
684.4940, 18627.00
685.6520, 18628.00
686.8090, 18760.00
687.9670, 18892.00
689.1240, 18638.00
690.2810, 18781.00
691.4380, 18762.00
692.5950, 18915.00
693.7520, 18928.00
694.9080, 19004.00
696.0650, 18916.00
697.2210, 18915.00
698.3770, 19050.00
699.5330, 18949.00
700.6880, 19384.00
701.8440, 19556.00
702.9990, 19815.00
704.1550, 19768.00
705.3100, 19925.00
706.4650, 19843.00
707.6190, 20049.00
708.7740, 19991.00
709.9290, 19657.00
711.0830, 19426.00
712.2370, 19209.00
713.3910, 19123.00
714.5450, 19351.00
715.6980, 19453.00
716.8520, 19437.00
718.0050, 19667.00
719.1580, 19550.00
720.3110, 19395.00
721.4640, 19367.00
722.6170, 19336.00
723.7700, 19530.00
724.9220, 19397.00
726.0740, 19490.00
727.2260, 19564.00
728.3780, 19467.00
729.5300, 19546.00
730.6810, 19652.00
731.8330, 19738.00
732.9840, 19424.00
734.1350, 19620.00
735.2860, 19766.00
736.4370, 19554.00
737.5880, 19742.00
738.7380, 19704.00
739.8880, 19813.00
741.0390, 19773.00
742.1890, 19609.00
743.3380, 19844.00
744.4880, 19624.00
745.6380, 19922.00
746.7870, 19913.00
747.9360, 19863.00
749.0850, 20020.00
750.2340, 20074.00
751.3830, 20049.00
752.5310, 20085.00
753.6800, 19845.00
754.8280, 19934.00
755.9760, 19959.00
757.1240, 20005.00
758.2720, 20100.00
759.4190, 20058.00
760.5670, 20103.00
761.7140, 20218.00
762.8610, 20126.00
764.0080, 20104.00
765.1550, 20169.00
766.3020, 20176.00
767.4480, 20300.00
768.5950, 20183.00
769.7410, 20279.00
770.8870, 20311.00
772.0330, 20295.00
773.1780, 20395.00
774.3240, 20485.00
775.4690, 20492.00
776.6140, 20601.00
777.7590, 20466.00
778.9040, 20556.66
780.0490, 20502.00
781.1940, 20601.00
782.3380, 20647.00
783.4820, 20628.00
784.6260, 20606.00
785.7700, 20643.00
786.9140, 20718.00
788.0580, 20605.00
789.2010, 20734.00
790.3450, 20848.00
791.4880, 20829.00
792.6310, 20841.00
793.7730, 20993.00
794.9160, 20910.00
796.0590, 20932.00
797.2010, 20848.00
798.3430, 20982.00
799.4850, 20908.00
800.6270, 20882.00
801.7690, 20998.00
802.9100, 21041.00
804.0520, 21133.00
805.1930, 20960.00
806.3340, 21050.00
807.4750, 21047.00
808.6160, 21246.00
809.7560, 21203.00
810.8970, 21163.00
812.0370, 21035.00
813.1770, 21385.00
814.3170, 21183.00
815.4570, 21322.00
816.5960, 21352.00
817.7360, 21260.00
818.8750, 21340.00
820.0140, 21232.00
821.1530, 21332.00
822.2920, 21234.00
823.4310, 21399.00
824.5690, 21357.00
825.7070, 21667.00
826.8460, 21329.00
827.9840, 21691.00
829.1220, 21595.00
830.2590, 21503.00
831.3970, 21734.00
832.5340, 21691.00
833.6710, 21593.00
834.8080, 21766.00
835.9450, 21909.00
837.0820, 21751.00
838.2190, 21899.00
839.3550, 21689.00
840.4910, 21828.00
841.6270, 21984.00
842.7630, 22023.00
843.8990, 21729.00
845.0350, 21917.00
846.1700, 21853.00
847.3060, 21992.00
848.4410, 21977.00
849.5760, 22143.00
850.7100, 22194.36
851.8450, 22090.00
852.9800, 22298.00
854.1140, 22258.00
855.2480, 22199.00
856.3820, 22532.00
857.5160, 22323.00
858.6500, 22249.00
859.7830, 22472.00
860.9170, 22258.00
862.0500, 22285.00
863.1830, 22149.00
864.3160, 22377.00
865.4480, 22193.00
866.5810, 22499.00
867.7130, 22487.00
868.8460, 22288.00
869.9780, 22467.00
871.1100, 22402.00
872.2410, 22512.00
873.3730, 22621.00
874.5050, 22666.00
875.6360, 22567.00
876.7670, 22582.00
877.8980, 22817.00
879.0290, 22595.00
880.1590, 22497.00
881.2900, 22780.00
882.4200, 22734.00
883.5500, 22767.00
884.6800, 22842.00
885.8100, 22779.00
886.9400, 22727.00
888.0690, 22971.00
889.1990, 22891.00
890.3280, 22967.00
891.4570, 23070.00
892.5860, 22911.00
893.7140, 23023.00
894.8430, 22938.00
895.9710, 23071.00
897.1000, 22881.00
898.2280, 23137.00
899.3560, 23273.00
900.4830, 23154.00
901.6110, 23125.00
902.7380, 23004.00
903.8660, 23106.00
904.9930, 23263.00
906.1200, 23454.00
907.2460, 23398.00
908.3730, 23286.00
909.5000, 23216.00
910.6260, 23237.69
911.7520, 23299.00
912.8780, 23377.00
914.0040, 23401.00
915.1290, 23616.00
916.2550, 23504.00
917.3800, 23435.00
918.5050, 23506.00
919.6300, 23637.00
920.7550, 23756.00
921.8800, 23587.00
923.0040, 23549.00
924.1290, 23631.00
925.2530, 23786.00
926.3770, 23819.00
927.5010, 23803.00
928.6250, 23530.00
929.7480, 24009.00
930.8720, 23691.00
931.9950, 23794.00
933.1180, 23986.00
934.2410, 23935.00
935.3640, 23943.00
936.4860, 23897.00
937.6090, 24013.00
938.7310, 23973.00
939.8530, 24038.00
940.9750, 24183.00
942.0970, 24195.00
943.2180, 24104.00
944.3400, 24216.00
945.4610, 24091.00
946.5820, 24356.00
947.7030, 24232.00
948.8240, 24420.00
949.9450, 24131.00
951.0650, 24310.00
952.1860, 24201.00
953.3060, 24405.00
954.4260, 24431.00
955.5460, 24494.00
956.6650, 24497.00
957.7850, 24452.00
958.9040, 24503.00
960.0230, 24621.00
961.1420, 24648.00
962.2610, 24757.00
963.3800, 24443.00
964.4990, 24744.00
965.6170, 24622.00
966.7350, 24686.00
967.8530, 24829.00
968.9710, 24693.00
970.0890, 24879.00
971.2070, 24821.00
972.3240, 24949.00
973.4410, 24861.00
974.5580, 24865.00
975.6750, 24960.00
976.7920, 24905.00
977.9090, 25110.00
979.0250, 25043.00
980.1410, 24978.00
981.2580, 25134.00
982.3740, 25032.00
983.4890, 25154.00
984.6050, 24992.00
985.7200, 25264.00
986.8360, 25107.00
987.9510, 25358.00
989.0660, 25181.00
990.1810, 25301.00
991.2950, 25242.00
992.4100, 25348.00
993.5240, 25406.00
994.6390, 25348.00
995.7530, 25434.00
996.8660, 25442.50
997.9800, 25438.00
999.0940, 25503.00
1000.207, 25590.00
1001.320, 25619.35
1002.433, 25653.35
1003.546, 25621.00
1004.659, 25644.00
1005.772, 25630.00
1006.884, 25687.19
1007.996, 25850.00
1009.108, 25834.00
1010.220, 25831.00
1011.332, 25929.00
1012.444, 25918.00
1013.555, 25836.00
1014.666, 25760.00
1015.777, 25826.00
1016.888, 25828.93
1017.999, 25774.00
1019.110, 25992.00
1020.220, 25944.00
1021.331, 26076.00
1022.441, 26008.00
1023.551, 25912.00
1024.661, 26231.00
1025.770, 26168.00
1026.880, 26048.00
1027.989, 26314.00
1029.098, 26315.00
1030.207, 26435.00
1031.316, 26441.00
1032.425, 26462.00
1033.533, 26335.00
1034.642, 26459.00
1035.750, 26472.00
1036.858, 26542.00
1037.966, 26611.00
1039.073, 26666.00
1040.181, 26428.00
1041.288, 26432.00
1042.396, 26386.00
1043.503, 26767.00
1044.610, 26747.00
1045.716, 26685.00
1046.823, 26801.00
1047.929, 26848.00
1049.036, 26895.00
1050.142, 26772.00
1051.248, 26926.00
1052.353, 26953.00
1053.459, 26842.00
1054.564, 27001.00
1055.670, 26986.00
1056.775, 27193.00
1057.880, 27086.00
1058.985, 27069.00
1060.089, 27200.00
1061.194, 27386.00
1062.298, 27350.00
1063.402, 27311.00
1064.506, 27349.00
1065.610, 27437.00
1066.713, 27327.00
1067.817, 27212.00
1068.920, 27401.00
1070.023, 27502.00
1071.126, 27466.00
1072.229, 27419.00
1073.332, 27366.00
1074.435, 27632.00
1075.537, 27607.00
1076.639, 27810.00
1077.741, 27691.00
1078.843, 27791.00
1079.945, 28483.00
1081.046, 29027.00
1082.148, 30144.00
1083.249, 31232.00
1084.350, 34152.00
1085.451, 40377.00
1086.551, 52491.00
1087.652, 56778.00
1088.752, 47066.00
1089.853, 36323.00
1090.953, 31069.00
1092.053, 29156.00
1093.152, 28517.00
1094.252, 28374.00
1095.351, 28513.00
1096.451, 28300.00
1097.550, 28240.00
1098.649, 28195.00
1099.748, 28103.00
1100.846, 28027.00
1101.945, 28179.00
1103.043, 28358.00
1104.141, 28257.00
1105.239, 28231.00
1106.337, 28376.00
1107.434, 28280.00
1108.532, 28421.00
1109.629, 28456.00
1110.726, 28560.00
1111.823, 28313.00
1112.920, 28312.00
1114.017, 28308.00
1115.113, 28607.00
1116.210, 28358.00
1117.306, 28485.00
1118.402, 28727.00
1119.498, 28629.00
1120.593, 28794.00
1121.689, 28800.00
1122.784, 28642.00
1123.879, 28744.00
1124.974, 28882.00
1126.069, 28825.00
1127.164, 28754.00
1128.259, 29115.00
1129.353, 28823.00
1130.447, 28934.00
1131.541, 29056.00
1132.635, 29036.00
1133.729, 28956.00
1134.822, 29078.00
1135.916, 29104.00
1137.009, 29100.00
1138.102, 29185.00
1139.195, 29304.00
1140.288, 29306.86
1141.380, 29405.00
1142.473, 29331.00
1143.565, 29294.00
1144.657, 29203.00
1145.749, 29424.00
1146.841, 29400.00
1147.932, 29429.00
1149.024, 29498.62
1150.115, 29387.00
1151.206, 29545.00
1152.297, 29466.00
1153.388, 29497.00
1154.479, 29398.00
1155.569, 29747.00
1156.659, 29667.00
1157.750, 29578.00
1158.839, 29869.00
1159.929, 29645.00
1161.019, 29933.00
1162.108, 29704.00
1163.198, 29808.00
1164.287, 29922.00
1165.376, 29980.00
1166.465, 30070.00
1167.553, 30045.66
1168.642, 29919.00
1169.730, 29981.00
1170.818, 30067.00
1171.906, 30085.00
1172.994, 30257.00
1174.082, 30011.00
1175.170, 30356.00
1176.257, 30039.00
1177.344, 30242.00
1178.431, 30306.00
1179.518, 30300.00
1180.605, 30177.00
1181.691, 30213.00
1182.778, 30370.00
1183.864, 30398.00
1184.950, 30410.00
1186.036, 30274.00
1187.122, 30597.00
1188.207, 30207.00
1189.292, 30480.00
1190.378, 30553.00
1191.463, 30757.00
1192.548, 30634.00
1193.632, 30848.00
1194.717, 30559.00
1195.801, 30488.00
1196.886, 30699.00
1197.970, 30711.00
1199.054, 30679.00
1200.137, 30840.00
1201.221, 30791.00
1202.305, 30758.00
1203.388, 30684.00
1204.471, 30937.00
1205.554, 31072.00
1206.637, 30945.00
1207.719, 30917.00
1208.802, 30995.00
1209.884, 31106.00
1210.966, 31115.00
1212.048, 31078.00
1213.130, 31208.00
1214.212, 31209.00
1215.293, 31397.00
1216.374, 31307.00
1217.456, 31269.00
1218.536, 31441.00
1219.617, 31320.00
1220.698, 31420.00
1221.778, 31639.00
1222.859, 31437.00
1223.939, 31624.00
1225.019, 31191.00
1226.099, 31421.00
1227.178, 31549.00
1228.258, 31429.00
1229.337, 31536.00
1230.417, 31614.00
1231.496, 31734.00
1232.574, 31733.00
1233.653, 31752.00
1234.732, 31849.00
1235.810, 31800.00
1236.888, 31891.00
1237.966, 31903.00
1239.044, 31873.00
1240.122, 31923.00
1241.199, 32011.00
1242.277, 31916.00
1243.354, 32150.00
1244.431, 31942.00
1245.508, 32235.00
1246.585, 32236.00
1247.661, 32278.00
1248.738, 32141.00
1249.814, 32191.00
1250.890, 32130.00
1251.966, 32280.00
1253.042, 32293.00
1254.117, 32130.00
1255.193, 32668.00
1256.268, 32479.00
1257.343, 32416.00
1258.418, 32551.00
1259.493, 32348.00
1260.567, 32232.00
1261.642, 32361.00
1262.716, 32644.00
1263.790, 32468.00
1264.864, 32426.00
1265.938, 32606.00
1267.011, 32595.00
1268.085, 32813.00
1269.158, 32598.00
1270.231, 32833.00
1271.304, 32799.00
1272.377, 32950.00
1273.450, 33054.00
1274.522, 32905.00
1275.594, 33146.00
1276.666, 33169.00
1277.738, 32976.00
1278.810, 32948.00
1279.882, 32808.00
1280.953, 33099.00
1282.025, 33182.00
1283.096, 33232.00
