##NAMES=Aragonite
##RRUFFID=R060195
##IDEAL CHEMISTRY=CaCO_3_
##LOCALITY=Cicov Hill, Horenec, Czech Republic
##OWNER=RRUFF
##SOURCE=Marcus Origlieri
##DESCRIPTION=Colorless transparent elongated prismatic crystal
##STATUS=The identification of this mineral has been confirmed by X-ray diffraction and chemical analysis
##URL=rruff.info/R060195
##MEASURED CHEMISTRY=Ca_1.00_CO_3_
##PIN_ID=L01257
##ORIENTATION=Laser parallel to c* (0 0 1). Fiducial mark perpendicular to laser is parallel to a [1 0 0]
100.8830, 9594.000
102.1160, 9619.000
103.3490, 9999.000
104.5820, 9947.000
105.8150, 9977.000
107.0470, 10043.00
108.2800, 10289.00
109.5120, 10406.00
110.7440, 10398.00
111.9760, 10592.00
113.2080, 10613.00
114.4400, 10583.00
115.6710, 10622.00
116.9030, 10697.00
118.1340, 10805.00
119.3650, 10736.00
120.5960, 10834.00
121.8270, 10880.00
123.0580, 10938.00
124.2880, 10958.00
125.5190, 11092.00
126.7490, 10985.00
127.9790, 11159.00
129.2090, 11291.00
130.4390, 11036.00
131.6680, 11206.00
132.8980, 11152.00
134.1270, 11330.00
135.3560, 11551.00
136.5850, 11431.00
137.8140, 11667.00
139.0430, 11637.00
140.2710, 11708.00
141.5000, 11925.00
142.7280, 12139.00
143.9560, 12506.00
145.1840, 12926.00
146.4120, 13088.00
147.6390, 13177.00
148.8670, 13101.00
150.0940, 13413.00
151.3210, 13827.00
152.5490, 14524.00
153.7750, 15382.00
155.0020, 15801.00
156.2290, 16050.00
157.4550, 15706.00
158.6810, 15116.00
159.9080, 14342.00
161.1340, 13810.00
162.3590, 13375.00
163.5850, 13005.00
164.8110, 12880.00
166.0360, 12631.00
167.2610, 12702.00
168.4860, 12337.00
169.7110, 12278.00
170.9360, 12355.00
172.1610, 12120.00
173.3850, 12206.00
174.6100, 12187.00
175.8340, 12324.00
177.0580, 12257.00
178.2820, 12521.00
179.5050, 12527.00
180.7290, 12611.00
181.9520, 12803.00
183.1760, 12829.00
184.3990, 12833.00
185.6220, 12798.00
186.8450, 12858.00
188.0670, 12878.00
189.2900, 12893.00
190.5120, 12908.00
191.7340, 13143.00
192.9560, 13229.00
194.1780, 13266.00
195.4000, 13169.00
196.6220, 12964.00
197.8430, 12980.00
199.0640, 13047.00
200.2860, 12809.00
201.5070, 12994.00
202.7270, 13124.00
203.9480, 13141.00
205.1690, 13310.47
206.3890, 13452.00
207.6090, 13566.00
208.8290, 13676.00
210.0490, 13861.00
211.2690, 13908.00
212.4890, 13666.00
213.7080, 13579.00
214.9280, 13844.00
216.1470, 13741.00
217.3660, 13793.00
218.5850, 13730.00
219.8030, 13683.00
221.0220, 13619.00
222.2400, 13512.36
223.4590, 13248.00
224.6770, 13284.00
225.8950, 13170.00
227.1120, 13060.00
228.3300, 13141.00
229.5480, 13023.00
230.7650, 13142.00
231.9820, 13019.00
233.1990, 13288.00
234.4160, 13195.00
235.6330, 13092.00
236.8490, 13019.00
238.0660, 13239.00
239.2820, 13300.00
240.4980, 13217.00
241.7140, 13212.00
242.9300, 13249.05
244.1460, 13232.00
245.3610, 13385.00
246.5770, 13332.00
247.7920, 13542.00
249.0070, 13442.00
250.2220, 13521.00
251.4370, 13523.00
252.6510, 13659.00
253.8660, 13325.00
255.0800, 13443.00
256.2940, 13486.00
257.5080, 13665.00
258.7220, 13674.00
259.9360, 13688.00
261.1490, 13633.00
262.3630, 13699.00
263.5760, 13718.00
264.7890, 13807.00
266.0020, 13731.00
267.2150, 13680.00
268.4270, 13813.00
269.6400, 13841.00
270.8520, 13921.00
272.0640, 14098.00
273.2760, 14039.00
274.4880, 13996.00
275.7000, 14180.00
276.9120, 14047.00
278.1230, 14050.00
279.3340, 14151.00
280.5450, 14156.00
281.7560, 14420.00
282.9670, 14102.00
284.1780, 14281.00
285.3880, 14324.00
286.5980, 14133.00
287.8090, 14362.00
289.0190, 14127.00
290.2290, 14216.00
291.4380, 14178.00
292.6480, 14150.00
293.8570, 14216.00
295.0670, 14122.00
296.2760, 14165.00
297.4850, 14130.00
298.6930, 14193.00
299.9020, 14190.00
301.1110, 14192.00
302.3190, 14285.00
303.5270, 14222.00
304.7350, 14229.00
305.9430, 14323.00
307.1510, 14207.00
308.3580, 14346.00
309.5660, 14226.00
310.7730, 14260.52
311.9800, 14437.00
313.1870, 14319.00
314.3940, 14416.00
315.6010, 14533.00
316.8070, 14391.00
318.0130, 14482.00
319.2200, 14349.00
320.4260, 14568.00
321.6310, 14572.00
322.8370, 14444.00
324.0430, 14463.00
325.2480, 14413.00
326.4540, 14572.00
327.6590, 14627.00
328.8640, 14652.00
330.0680, 14671.00
331.2730, 14596.00
332.4780, 14612.00
333.6820, 14770.00
334.8860, 14579.00
336.0900, 14651.00
337.2940, 14847.00
338.4980, 14640.00
339.7010, 14821.00
340.9050, 14806.00
342.1080, 14860.00
343.3110, 14839.00
344.5140, 14754.00
345.7170, 14830.00
346.9200, 14686.00
348.1220, 14838.00
349.3240, 14856.00
350.5270, 14843.00
351.7290, 14992.00
352.9310, 15063.00
354.1320, 14941.00
355.3340, 15136.00
356.5350, 15151.00
357.7370, 15021.00
358.9380, 15114.00
360.1390, 15114.00
361.3400, 15105.00
362.5400, 15095.00
363.7410, 15296.00
364.9410, 15102.00
366.1410, 15172.00
367.3410, 15084.00
368.5410, 15267.00
369.7410, 15133.00
370.9400, 15213.00
372.1400, 15267.00
373.3390, 15382.00
374.5380, 15450.00
375.7370, 15323.00
376.9360, 15244.00
378.1350, 15318.00
379.3330, 15488.00
380.5310, 15295.00
381.7300, 15532.00
382.9280, 15404.00
384.1260, 15442.00
385.3230, 15517.00
386.5210, 15572.00
387.7180, 15526.00
388.9160, 15587.00
390.1130, 15509.00
391.3100, 15495.00
392.5060, 15676.00
393.7030, 15664.00
394.9000, 15532.00
396.0960, 15777.00
397.2920, 15751.00
398.4880, 15692.00
399.6840, 15644.00
400.8800, 15765.00
402.0750, 15737.00
403.2710, 15796.00
404.4660, 15761.00
405.6610, 15822.00
406.8560, 15968.00
408.0510, 15930.00
409.2450, 15996.00
410.4400, 15874.00
411.6340, 15926.00
412.8280, 15906.00
414.0220, 15928.00
415.2160, 15929.00
416.4100, 16082.00
417.6030, 15933.00
418.7970, 16097.00
419.9900, 16115.00
421.1830, 16140.00
422.3760, 16227.05
423.5690, 16137.00
424.7610, 16208.00
425.9540, 16356.00
427.1460, 16101.00
428.3380, 16304.00
429.5300, 16182.00
430.7220, 16362.00
431.9140, 16174.00
433.1050, 16217.00
434.2970, 16214.00
435.4880, 16244.00
436.6790, 16403.00
437.8700, 16450.00
439.0610, 16435.00
440.2510, 16400.00
441.4420, 16403.00
442.6320, 16464.00
443.8220, 16485.00
445.0120, 16529.00
446.2020, 16495.00
447.3910, 16581.00
448.5810, 16483.00
449.7700, 16507.00
450.9600, 16623.00
452.1490, 16517.00
453.3370, 16570.00
454.5260, 16627.00
455.7150, 16602.00
456.9030, 16666.00
458.0910, 16583.00
459.2800, 16603.00
460.4670, 16614.18
461.6550, 16666.00
462.8430, 16687.00
464.0300, 16711.00
465.2180, 16852.00
466.4050, 16796.00
467.5920, 17048.00
468.7790, 16904.00
469.9650, 16902.00
471.1520, 17015.00
472.3380, 16988.00
473.5250, 16945.00
474.7110, 17106.00
475.8970, 16990.00
477.0820, 16926.00
478.2680, 17004.00
479.4540, 17012.71
480.6390, 17208.00
481.8240, 17206.00
483.0090, 17169.00
484.1940, 17293.00
485.3780, 17207.00
486.5630, 17199.00
487.7470, 17188.00
488.9320, 17150.00
490.1160, 17206.00
491.3000, 17334.00
492.4830, 17414.00
493.6670, 17282.00
494.8500, 17307.00
496.0340, 17509.00
497.2170, 17390.00
498.4000, 17456.97
499.5820, 17315.00
500.7650, 17427.00
501.9480, 17403.00
503.1300, 17365.00
504.3120, 17413.00
505.4940, 17648.00
506.6760, 17485.00
507.8580, 17588.00
509.0390, 17464.00
510.2210, 17608.00
511.4020, 17590.00
512.5830, 17761.00
513.7640, 17655.00
514.9450, 17466.00
516.1250, 17789.00
517.3060, 17727.00
518.4860, 17713.00
519.6660, 17832.00
520.8460, 17690.00
522.0260, 17665.00
523.2060, 17844.00
524.3850, 17870.00
525.5650, 17952.00
526.7440, 17815.00
527.9230, 17967.00
529.1020, 17939.00
530.2810, 17820.00
531.4590, 18132.00
532.6380, 17856.00
533.8160, 17999.00
534.9940, 17934.00
536.1720, 18036.00
537.3500, 18123.00
538.5270, 18228.00
539.7050, 17948.00
540.8820, 18095.00
542.0590, 17870.00
543.2360, 18180.00
544.4130, 18242.00
545.5900, 18190.00
546.7660, 18179.00
547.9430, 18216.00
549.1190, 18316.00
550.2950, 18314.00
551.4710, 18353.00
552.6470, 18375.00
553.8220, 18277.00
554.9980, 18409.00
556.1730, 18388.30
557.3480, 18492.00
558.5230, 18482.00
559.6980, 18433.00
560.8730, 18527.00
562.0470, 18518.00
563.2220, 18495.00
564.3960, 18520.00
565.5700, 18597.00
566.7440, 18524.00
567.9170, 18579.00
569.0910, 18721.00
570.2640, 18707.00
571.4380, 18637.00
572.6110, 18692.00
573.7840, 18830.00
574.9570, 18734.00
576.1290, 18859.00
577.3020, 18855.00
578.4740, 18731.00
579.6460, 18950.00
580.8180, 18839.00
581.9900, 18733.00
583.1620, 18848.00
584.3330, 18850.00
585.5040, 18955.00
586.6760, 18910.00
587.8470, 18904.00
589.0180, 18922.00
590.1880, 18920.08
591.3590, 18955.00
592.5290, 18966.00
593.7000, 18998.47
594.8700, 19033.00
596.0400, 19059.00
597.2090, 19043.00
598.3790, 19098.00
599.5490, 19172.00
600.7180, 19168.35
601.8870, 19274.00
603.0560, 19225.00
604.2250, 19238.00
605.3940, 19303.00
606.5620, 19141.00
607.7300, 19265.00
608.8990, 19205.00
610.0670, 19350.00
611.2350, 19400.00
612.4020, 19438.00
613.5700, 19482.07
614.7370, 19420.00
615.9050, 19496.00
617.0720, 19469.00
618.2390, 19472.00
619.4060, 19478.00
620.5720, 19511.00
621.7390, 19399.00
622.9050, 19489.00
624.0710, 19610.00
625.2370, 19539.00
626.4030, 19667.00
627.5690, 19761.00
628.7340, 19790.00
629.9000, 19745.00
631.0650, 19769.00
632.2300, 19677.00
633.3950, 19816.00
634.5600, 19903.00
635.7240, 19818.00
636.8890, 19794.00
638.0530, 19960.00
639.2170, 19921.00
640.3810, 19984.00
641.5450, 19917.00
642.7080, 19987.00
643.8720, 19891.00
645.0350, 20014.00
646.1980, 20166.00
647.3610, 20033.00
648.5240, 20005.00
649.6870, 20100.00
650.8490, 20145.00
652.0120, 20311.00
653.1740, 20161.00
654.3360, 20318.00
655.4980, 20278.00
656.6600, 20347.00
657.8210, 20404.00
658.9830, 20252.00
660.1440, 20329.00
661.3050, 20445.00
662.4660, 20321.00
663.6270, 20260.00
664.7870, 20414.00
665.9480, 20411.00
667.1080, 20255.00
668.2680, 20388.00
669.4280, 20671.00
670.5880, 20610.00
671.7480, 20556.00
672.9070, 20500.00
674.0670, 20532.04
675.2260, 20627.00
676.3850, 20630.00
677.5440, 20686.00
678.7030, 20755.00
679.8610, 20625.00
681.0200, 20717.00
682.1780, 20643.00
683.3360, 20869.00
684.4940, 20696.00
685.6520, 20925.00
686.8090, 20738.00
687.9670, 20882.00
689.1240, 20817.00
690.2810, 20811.00
691.4380, 20945.00
692.5950, 20885.00
693.7520, 21174.00
694.9080, 21011.00
696.0650, 21267.00
697.2210, 21309.00
698.3770, 21350.00
699.5330, 21508.00
700.6880, 21715.00
701.8440, 22492.00
702.9990, 22979.00
704.1550, 23271.00
705.3100, 23109.00
706.4650, 23130.00
707.6190, 23198.00
708.7740, 22551.00
709.9290, 22399.00
711.0830, 21816.00
712.2370, 21458.00
713.3910, 21489.00
714.5450, 21324.00
715.6980, 21341.00
716.8520, 21517.00
718.0050, 21508.00
719.1580, 21412.00
720.3110, 21451.00
721.4640, 21493.00
722.6170, 21481.00
723.7700, 21474.00
724.9220, 21527.00
726.0740, 21525.00
727.2260, 21441.00
728.3780, 21614.00
729.5300, 21792.00
730.6810, 21580.00
731.8330, 21483.00
732.9840, 21706.00
734.1350, 21881.00
735.2860, 21539.00
736.4370, 21781.00
737.5880, 21655.00
738.7380, 21911.00
739.8880, 21767.00
741.0390, 21813.00
742.1890, 21846.00
743.3380, 21898.00
744.4880, 22049.00
745.6380, 22048.00
746.7870, 21965.00
747.9360, 22056.00
749.0850, 21970.00
750.2340, 22181.00
751.3830, 21992.00
752.5310, 22073.00
753.6800, 22133.00
754.8280, 22101.00
755.9760, 22033.00
757.1240, 22217.00
758.2720, 22271.00
759.4190, 22156.00
760.5670, 22204.00
761.7140, 22230.00
762.8610, 22305.00
764.0080, 22330.00
765.1550, 22418.00
766.3020, 22293.00
767.4480, 22402.00
768.5950, 22362.00
769.7410, 22412.00
770.8870, 22188.00
772.0330, 22436.00
773.1780, 22485.00
774.3240, 22643.00
775.4690, 22413.00
776.6140, 22402.00
777.7590, 22624.00
778.9040, 22384.00
780.0490, 22528.00
781.1940, 22474.00
782.3380, 22621.00
783.4820, 22745.00
784.6260, 22897.00
785.7700, 22767.00
786.9140, 22781.00
788.0580, 22684.00
789.2010, 22695.00
790.3450, 22783.00
791.4880, 22749.00
792.6310, 22880.00
793.7730, 22957.00
794.9160, 22960.00
796.0590, 22914.00
797.2010, 22834.00
798.3430, 23006.00
799.4850, 23079.00
800.6270, 22937.00
801.7690, 23015.00
802.9100, 22993.00
804.0520, 23174.00
805.1930, 23206.00
806.3340, 23018.00
807.4750, 23198.00
808.6160, 23111.00
809.7560, 23165.00
810.8970, 23285.00
812.0370, 23477.00
813.1770, 23267.00
814.3170, 23346.00
815.4570, 23434.00
816.5960, 23337.00
817.7360, 23167.00
818.8750, 23479.00
820.0140, 23528.00
821.1530, 23375.00
822.2920, 23423.00
823.4310, 23393.00
824.5690, 23461.00
825.7070, 23711.00
826.8460, 23581.00
827.9840, 23528.00
829.1220, 23738.00
830.2590, 23681.00
831.3970, 23743.00
832.5340, 23760.00
833.6710, 23759.00
834.8080, 23831.00
835.9450, 23950.00
837.0820, 23701.00
838.2190, 23846.00
839.3550, 23714.00
840.4910, 23875.00
841.6270, 23839.00
842.7630, 23790.00
843.8990, 24120.00
845.0350, 24119.00
846.1700, 23825.00
847.3060, 23997.00
848.4410, 23923.00
849.5760, 23994.00
850.7100, 24088.00
851.8450, 24146.00
852.9800, 24257.00
854.1140, 24113.00
855.2480, 24242.00
856.3820, 24221.00
857.5160, 24341.00
858.6500, 24035.00
859.7830, 24258.00
860.9170, 24244.00
862.0500, 24403.00
863.1830, 24263.00
864.3160, 24406.00
865.4480, 24447.00
866.5810, 24476.00
867.7130, 24488.00
868.8460, 24526.52
869.9780, 24531.00
871.1100, 24565.00
872.2410, 24588.00
873.3730, 24563.00
874.5050, 24594.09
875.6360, 24641.00
876.7670, 24618.00
877.8980, 24660.00
879.0290, 24680.00
880.1590, 24596.00
881.2900, 24846.00
882.4200, 24741.00
883.5500, 24815.00
884.6800, 24752.00
885.8100, 24901.00
886.9400, 24855.00
888.0690, 24819.00
889.1990, 24955.00
890.3280, 25057.00
891.4570, 24875.00
892.5860, 24850.00
893.7140, 24888.00
894.8430, 25038.00
895.9710, 25127.00
897.1000, 25038.00
898.2280, 24947.00
899.3560, 25182.00
900.4830, 25044.00
901.6110, 25045.00
902.7380, 25168.00
903.8660, 24973.00
904.9930, 25161.00
906.1200, 25179.00
907.2460, 25375.00
908.3730, 25379.88
909.5000, 25450.00
910.6260, 25414.00
911.7520, 25416.00
912.8780, 25452.00
914.0040, 25576.00
915.1290, 25381.00
916.2550, 25483.00
917.3800, 25423.00
918.5050, 25590.00
919.6300, 25515.00
920.7550, 25590.00
921.8800, 25444.00
923.0040, 25506.16
924.1290, 25511.00
925.2530, 25551.00
926.3770, 25542.00
927.5010, 25534.12
928.6250, 25770.00
929.7480, 25717.00
930.8720, 25792.00
931.9950, 26008.00
933.1180, 25741.00
934.2410, 25944.00
935.3640, 25779.00
936.4860, 25737.00
937.6090, 26076.00
938.7310, 25931.00
939.8530, 26083.00
940.9750, 26181.00
942.0970, 25981.00
943.2180, 26003.00
944.3400, 26096.00
945.4610, 26155.00
946.5820, 26330.00
947.7030, 26326.00
948.8240, 26251.00
949.9450, 26411.00
951.0650, 26177.00
952.1860, 26413.00
953.3060, 26435.00
954.4260, 26215.00
955.5460, 26213.00
956.6650, 26229.41
957.7850, 26398.00
958.9040, 26362.00
960.0230, 26495.00
961.1420, 26654.00
962.2610, 26556.00
963.3800, 26286.00
964.4990, 26681.00
965.6170, 26721.00
966.7350, 26538.00
967.8530, 26728.00
968.9710, 26681.00
970.0890, 26899.00
971.2070, 26719.00
972.3240, 26755.00
973.4410, 26704.00
974.5580, 26698.88
975.6750, 26729.00
976.7920, 26805.00
977.9090, 26965.00
979.0250, 27130.00
980.1410, 27006.00
981.2580, 26990.00
982.3740, 26915.00
983.4890, 26891.00
984.6050, 26986.76
985.7200, 27176.00
986.8360, 27188.00
987.9510, 27219.00
989.0660, 27244.00
990.1810, 27258.47
991.2950, 27321.00
992.4100, 27326.36
993.5240, 27408.00
994.6390, 27355.00
995.7530, 27390.13
996.8660, 27388.00
997.9800, 27429.00
999.0940, 27312.00
1000.207, 27335.00
1001.320, 27371.00
1002.433, 27371.03
1003.546, 27480.00
1004.659, 27511.00
1005.772, 27494.00
1006.884, 27650.00
1007.996, 27555.00
1009.108, 27666.00
1010.220, 27495.00
1011.332, 27706.00
1012.444, 27435.00
1013.555, 27653.00
1014.666, 27788.00
1015.777, 27749.00
1016.888, 27933.00
1017.999, 27857.00
1019.110, 27878.00
1020.220, 27772.00
1021.331, 27866.00
1022.441, 27862.00
1023.551, 27800.00
1024.661, 27885.47
1025.770, 28053.00
1026.880, 28004.00
1027.989, 27913.00
1029.098, 28032.00
1030.207, 28221.00
1031.316, 27978.00
1032.425, 28204.00
1033.533, 28282.00
1034.642, 28200.00
1035.750, 28240.00
1036.858, 28286.00
1037.966, 28210.00
1039.073, 28379.00
1040.181, 28425.00
1041.288, 28393.00
1042.396, 28446.00
1043.503, 28367.00
1044.610, 28530.00
1045.716, 28770.00
1046.823, 28707.00
1047.929, 28341.00
1049.036, 28342.00
1050.142, 28603.00
1051.248, 28659.00
1052.353, 28740.00
1053.459, 28472.00
1054.564, 28685.00
1055.670, 28757.00
1056.775, 28985.00
1057.880, 29092.00
1058.985, 28916.00
1060.089, 28943.00
1061.194, 28961.00
1062.298, 29140.00
1063.402, 29049.00
1064.506, 28969.00
1065.610, 28995.00
1066.713, 28970.00
1067.817, 29063.00
1068.920, 29072.02
1070.023, 29115.28
1071.126, 29166.00
1072.229, 29219.00
1073.332, 29297.00
1074.435, 29380.00
1075.537, 29413.00
1076.639, 29587.00
1077.741, 29709.00
1078.843, 29768.00
1079.945, 30175.00
1081.046, 31450.00
1082.148, 33076.00
1083.249, 34554.00
1084.350, 37969.00
1085.451, 46314.00
1086.551, 60186.00
1087.652, 64067.00
1088.752, 53887.00
1089.853, 40741.00
1090.953, 33780.00
1092.053, 31356.00
1093.152, 30471.00
1094.252, 30274.00
1095.351, 29972.00
1096.451, 29959.00
1097.550, 29956.00
1098.649, 29779.00
1099.748, 29752.00
1100.846, 29992.00
1101.945, 30108.00
1103.043, 29842.00
1104.141, 29739.00
1105.239, 29925.00
1106.337, 30100.00
1107.434, 30110.00
1108.532, 30094.00
1109.629, 30008.00
1110.726, 30001.00
1111.823, 30033.78
1112.920, 30138.00
1114.017, 30197.00
1115.113, 30286.00
1116.210, 30314.96
1117.306, 30326.08
1118.402, 30364.00
1119.498, 30293.00
1120.593, 30324.00
1121.689, 30287.00
1122.784, 30677.00
1123.879, 30293.00
1124.974, 30538.00
1126.069, 30547.00
1127.164, 30297.00
1128.259, 30617.00
1129.353, 30437.00
1130.447, 30551.00
1131.541, 30416.00
1132.635, 30704.00
1133.729, 30583.00
1134.822, 30647.00
1135.916, 30832.00
1137.009, 30861.00
1138.102, 30893.75
1139.195, 30758.00
1140.288, 30869.00
1141.380, 30849.00
1142.473, 30799.00
1143.565, 30789.00
1144.657, 30834.54
1145.749, 31080.00
1146.841, 30964.00
1147.932, 31009.00
1149.024, 31082.00
1150.115, 31458.00
1151.206, 31169.00
1152.297, 30970.00
1153.388, 31230.00
1154.479, 30995.00
1155.569, 31044.00
1156.659, 31299.00
1157.750, 31291.00
1158.839, 31275.00
1159.929, 31556.00
1161.019, 31341.00
1162.108, 31227.00
1163.198, 31307.00
1164.287, 31399.00
1165.376, 31174.00
1166.465, 31531.00
1167.553, 31476.00
1168.642, 31466.00
1169.730, 31568.00
1170.818, 31619.00
1171.906, 31629.00
1172.994, 31755.00
1174.082, 31615.00
1175.170, 31760.00
1176.257, 31691.00
1177.344, 31741.00
1178.431, 31824.00
1179.518, 31914.00
1180.605, 31779.00
1181.691, 31730.00
1182.778, 32025.00
1183.864, 31793.00
1184.950, 31910.00
1186.036, 31902.00
1187.122, 32108.00
1188.207, 31836.00
1189.292, 32011.00
1190.378, 32360.00
1191.463, 32099.00
1192.548, 32164.00
1193.632, 32255.00
1194.717, 32111.00
1195.801, 32115.00
1196.886, 32311.00
1197.970, 32050.00
1199.054, 32387.00
1200.137, 32473.00
1201.221, 32499.00
1202.305, 32483.00
1203.388, 32482.00
1204.471, 32590.00
1205.554, 32426.00
1206.637, 32763.00
1207.719, 32298.00
1208.802, 32692.00
1209.884, 32421.00
1210.966, 32592.00
1212.048, 32513.00
1213.130, 32553.00
1214.212, 32586.00
1215.293, 32668.00
1216.374, 32533.00
1217.456, 32674.15
1218.536, 32916.00
1219.617, 32845.00
1220.698, 32863.00
1221.778, 32946.00
1222.859, 32969.00
1223.939, 32983.77
1225.019, 33063.00
1226.099, 33023.00
1227.178, 33010.00
1228.258, 33088.00
1229.337, 33156.00
1230.417, 33023.00
1231.496, 32938.00
1232.574, 33052.00
1233.653, 33297.00
1234.732, 33348.00
1235.810, 33330.00
1236.888, 33520.00
1237.966, 33362.00
1239.044, 33436.00
1240.122, 33529.00
1241.199, 33751.00
1242.277, 33474.00
1243.354, 33555.00
1244.431, 33464.00
1245.508, 33572.00
1246.585, 33521.00
1247.661, 33682.00
1248.738, 33706.00
1249.814, 33890.00
1250.890, 33853.00
1251.966, 33686.00
1253.042, 33875.00
1254.117, 33787.00
1255.193, 34055.00
1256.268, 33900.00
1257.343, 33846.00
1258.418, 33953.00
1259.493, 33717.00
1260.567, 34027.00
1261.642, 34049.00
1262.716, 34062.00
1263.790, 34080.00
1264.864, 34098.00
1265.938, 34076.00
1267.011, 34098.00
1268.085, 34321.00
1269.158, 34227.00
1270.231, 34059.00
1271.304, 34297.00
1272.377, 34231.00
1273.450, 34442.00
1274.522, 34281.00
1275.594, 34190.00
1276.666, 34239.00
1277.738, 34225.33
1278.810, 34512.00
1279.882, 34454.00
1280.953, 34410.00
1282.025, 34699.00
1283.096, 34457.00
