##NAMES=Arfvedsonite
##RRUFFID=R040127
##IDEAL CHEMISTRY=NaNa_2_(Fe^2+^_4_Fe^3+^)Si_8_O_22_(OH)_2_
##LOCALITY=Mont Saint-Hilaire, Rouville County, Quebec, Canada
##OWNER=RRUFF
##SOURCE=Bob Downs
##DESCRIPTION=Black prismatic crystal associated with white analcime, R040128
##STATUS=The identification of this mineral has been confirmed by X-ray diffraction and chemical analysis
##URL=rruff.info/R040127
##MEASURED CHEMISTRY=(Na_0.61_K_0.39_)Na_2.00_(Fe^2+^_2.40_Mg_0.80_Mn_0.75_Ca_0.05_)_&#931;=4_(Fe^3+^_0.60_Al_0.25_Mn_0.15_)(Si_0.99_Ti_0.01_)_8_O_22_((OH)_0.67_F_0.33_)_2_
##PIN_ID=M00386
##ORIENTATION=Laser parallel to -c* (0 0 -1). Fiducial mark perpendicular to laser is parallel to -a [-1 0 0]
128.8330, 26166.00
130.0700, 27399.00
131.3060, 28312.00
132.5420, 30119.00
133.7780, 32089.00
135.0140, 35206.00
136.2500, 39743.00
137.4850, 45886.00
138.7200, 52997.00
139.9550, 57705.00
141.1900, 58893.00
142.4250, 56343.00
143.6600, 51408.00
144.8940, 46216.00
146.1280, 41800.00
147.3620, 38531.00
148.5960, 36209.00
149.8300, 34668.00
151.0630, 33693.00
152.2960, 32912.00
153.5300, 32436.00
154.7620, 32254.27
155.9950, 32332.60
157.2280, 32631.00
158.4600, 33199.00
159.6920, 33929.00
160.9250, 34711.00
162.1560, 35897.00
163.3880, 36693.00
164.6200, 36981.00
165.8510, 37537.00
167.0820, 36222.00
168.3130, 36528.00
169.5440, 35373.45
170.7750, 34355.00
172.0050, 33369.00
173.2350, 32861.00
174.4650, 32581.00
175.6950, 32126.00
176.9250, 32069.00
178.1550, 32330.00
179.3840, 32527.00
180.6130, 32557.00
181.8420, 32896.00
183.0710, 33466.00
184.3000, 34096.00
185.5280, 34954.00
186.7570, 35961.00
187.9850, 36609.00
189.2130, 37894.00
190.4400, 38846.00
191.6680, 40016.00
192.8960, 41015.00
194.1230, 42059.00
195.3500, 42604.00
196.5770, 43297.00
197.8030, 43978.00
199.0300, 44504.00
200.2560, 44978.00
201.4830, 45713.63
202.7090, 46261.18
203.9340, 47213.00
205.1600, 47681.00
206.3860, 48662.00
207.6110, 49716.00
208.8360, 50617.00
210.0610, 52165.00
211.2860, 52472.00
212.5100, 53326.00
213.7350, 52924.00
214.9590, 52271.00
216.1830, 51115.00
217.4070, 49930.00
218.6310, 48588.00
219.8540, 47759.00
221.0780, 46221.00
222.3010, 45034.00
223.5240, 44441.00
224.7470, 43933.00
225.9690, 42936.00
227.1920, 42966.00
228.4140, 42694.00
229.6360, 42406.00
230.8580, 42593.00
232.0800, 42822.00
233.3020, 43110.00
234.5230, 43316.79
235.7440, 43396.00
236.9650, 43726.00
238.1860, 43957.00
239.4070, 44010.00
240.6280, 44320.00
241.8480, 44291.00
243.0680, 44366.00
244.2880, 44449.00
245.5080, 44147.00
246.7280, 43787.00
247.9470, 43201.00
249.1660, 42665.00
250.3860, 42339.00
251.6040, 41432.00
252.8230, 40644.00
254.0420, 40321.00
255.2600, 39526.00
256.4790, 38956.00
257.6970, 39124.00
258.9150, 38458.00
260.1320, 37963.81
261.3500, 37803.00
262.5670, 36746.00
263.7840, 36368.00
265.0010, 35917.00
266.2180, 35669.00
267.4350, 35387.00
268.6510, 34583.00
269.8680, 34382.00
271.0840, 34287.00
272.3000, 33432.00
273.5160, 32712.00
274.7310, 31912.00
275.9470, 31289.00
277.1620, 30955.00
278.3770, 30576.00
279.5920, 30562.00
280.8070, 30068.00
282.0210, 29916.00
283.2360, 29601.00
284.4500, 29658.00
285.6640, 29513.00
286.8780, 29628.00
288.0920, 29551.00
289.3050, 29606.00
290.5180, 29639.00
291.7320, 29833.00
292.9450, 30007.00
294.1570, 30346.00
295.3700, 30623.00
296.5830, 30928.26
297.7950, 31248.00
299.0070, 31630.00
300.2190, 32115.00
301.4310, 32555.00
302.6420, 33359.00
303.8540, 33742.00
305.0650, 34486.00
306.2760, 35287.00
307.4870, 35748.00
308.6980, 36319.00
309.9080, 37231.00
311.1190, 37468.00
312.3290, 38159.00
313.5390, 38385.00
314.7490, 38300.00
315.9580, 38125.00
317.1680, 38106.00
318.3770, 37364.00
319.5860, 37065.00
320.7950, 36204.00
322.0040, 35496.00
323.2130, 34799.00
324.4210, 33843.00
325.6290, 33202.00
326.8380, 33412.00
328.0460, 31827.00
329.2530, 31846.00
330.4610, 30892.00
331.6680, 30553.00
332.8760, 30333.00
334.0830, 29901.00
335.2890, 29709.00
336.4960, 29472.00
337.7030, 29227.00
338.9090, 29033.00
340.1150, 29052.00
341.3210, 29030.00
342.5270, 28801.00
343.7330, 29235.00
344.9380, 29452.00
346.1440, 28869.00
347.3490, 29032.00
348.5540, 29909.00
349.7590, 29884.00
350.9630, 29729.00
352.1680, 30061.00
353.3720, 30135.00
354.5760, 30733.00
355.7800, 30740.00
356.9840, 31185.00
358.1870, 31197.00
359.3910, 31410.00
360.5940, 31415.00
361.7970, 31586.00
363.0000, 31586.00
364.2030, 31684.00
365.4050, 31385.00
366.6080, 31378.00
367.8100, 31559.00
369.0120, 31313.00
370.2140, 31412.00
371.4150, 31271.00
372.6170, 31286.00
373.8180, 31480.00
375.0190, 31500.00
376.2200, 31512.02
377.4210, 31537.00
378.6220, 31495.00
379.8220, 31534.00
381.0230, 31561.00
382.2230, 31643.00
383.4230, 31525.00
384.6220, 31500.00
385.8220, 31480.00
387.0220, 31817.00
388.2210, 31318.00
389.4200, 31281.00
390.6190, 32035.00
391.8180, 31362.00
393.0160, 31340.00
394.2150, 30866.00
395.4130, 30664.00
396.6110, 30724.00
397.8090, 30613.00
399.0060, 30337.00
400.2040, 30470.00
401.4010, 30299.00
402.5980, 30161.00
403.7950, 30404.00
404.9920, 30402.00
406.1890, 30381.00
407.3860, 30964.00
408.5820, 31420.00
409.7780, 31691.00
410.9740, 32017.00
412.1700, 32652.00
413.3650, 32925.00
414.5610, 33341.00
415.7560, 33621.00
416.9510, 33852.00
418.1460, 34010.27
419.3410, 34183.00
420.5360, 34057.00
421.7300, 34106.48
422.9240, 33887.34
424.1180, 33835.00
425.3120, 33191.00
426.5060, 32586.00
427.7000, 32144.00
428.8930, 31641.00
430.0860, 31090.00
431.2790, 30580.00
432.4720, 30206.47
433.6650, 29782.00
434.8580, 29532.00
436.0500, 29127.00
437.2420, 28848.00
438.4340, 28622.00
439.6260, 28227.00
440.8180, 28120.00
442.0090, 27909.00
443.2010, 27778.00
444.3920, 27478.00
445.5830, 27539.00
446.7740, 27313.00
447.9640, 27406.00
449.1550, 27438.00
450.3450, 27259.00
451.5350, 27225.00
452.7250, 27238.00
453.9150, 27347.00
455.1050, 27547.00
456.2940, 27740.00
457.4830, 27629.00
458.6720, 27930.00
459.8610, 27713.00
461.0500, 27761.00
462.2390, 27922.00
463.4270, 27954.00
464.6150, 28100.00
465.8040, 27898.00
466.9910, 27909.00
468.1790, 28176.00
469.3670, 27841.00
470.5540, 27587.00
471.7410, 27476.00
472.9280, 27669.00
474.1150, 27713.00
475.3020, 27513.00
476.4890, 27410.00
477.6750, 27517.00
478.8610, 27563.00
480.0470, 27596.00
481.2330, 27549.00
482.4190, 27858.00
483.6040, 28017.00
484.7900, 28376.00
485.9750, 28278.00
487.1600, 28686.00
488.3450, 28892.00
489.5290, 28770.00
490.7140, 29222.00
491.8980, 29330.00
493.0820, 29816.00
494.2660, 29855.00
495.4500, 29980.00
496.6340, 30211.00
497.8170, 30577.00
499.0010, 30707.00
500.1840, 31386.00
501.3670, 31528.00
502.5500, 31711.00
503.7320, 31788.00
504.9150, 31974.49
506.0970, 32251.00
507.2790, 32285.00
508.4610, 32458.00
509.6430, 32588.00
510.8250, 32448.00
512.0060, 32755.00
513.1870, 32586.00
514.3680, 32676.00
515.5490, 32995.00
516.7300, 33153.00
517.9110, 33308.00
519.0910, 33778.00
520.2710, 34213.00
521.4510, 34746.00
522.6310, 35355.00
523.8110, 36150.11
524.9910, 36958.91
526.1700, 38036.00
527.3490, 38954.00
528.5280, 40130.00
529.7070, 41445.00
530.8860, 42930.00
532.0650, 43639.00
533.2430, 44631.00
534.4210, 45614.00
535.5990, 45642.00
536.7770, 45916.00
537.9550, 45790.00
539.1320, 45532.00
540.3100, 44985.00
541.4870, 44644.00
542.6640, 43624.00
543.8410, 43078.00
545.0170, 42573.00
546.1940, 41285.00
547.3700, 40344.00
548.5470, 39647.00
549.7230, 38957.00
550.8980, 38282.89
552.0740, 37668.12
553.2500, 37168.00
554.4250, 36565.00
555.6000, 36134.00
556.7750, 35791.00
557.9500, 35198.00
559.1250, 35391.00
560.2990, 34870.00
561.4730, 34790.00
562.6480, 34802.00
563.8220, 34957.00
564.9950, 34905.00
566.1690, 35055.75
567.3430, 35155.00
568.5160, 35393.00
569.6890, 35368.00
570.8620, 35727.00
572.0350, 35700.00
573.2070, 35415.00
574.3800, 35611.00
575.5520, 35085.00
576.7240, 34673.00
577.8960, 33744.00
579.0680, 33017.00
580.2400, 31873.00
581.4110, 31256.00
582.5830, 30611.00
583.7540, 29593.00
584.9250, 29111.00
586.0950, 28717.00
587.2660, 28417.00
588.4370, 28029.00
589.6070, 27787.00
590.7770, 27577.00
591.9470, 27359.00
593.1170, 27328.00
594.2860, 27143.00
595.4560, 26863.00
596.6250, 26968.00
597.7940, 26930.00
598.9630, 26643.00
600.1320, 26661.00
601.3000, 26637.83
602.4690, 26716.00
603.6370, 26706.00
604.8050, 26849.00
605.9730, 26866.00
607.1410, 26705.00
608.3090, 26796.00
609.4760, 26704.00
610.6430, 26679.00
611.8100, 26713.00
612.9770, 26730.00
614.1440, 26765.00
615.3110, 26744.00
616.4770, 26791.00
617.6430, 26719.00
618.8090, 26652.00
619.9750, 26834.00
621.1410, 26960.00
622.3070, 26933.00
623.4720, 27049.00
624.6370, 27041.00
625.8020, 27122.00
626.9670, 27314.00
628.1320, 27166.00
629.2970, 27661.00
630.4610, 27351.00
631.6250, 27707.00
632.7890, 27532.00
633.9530, 27878.00
635.1170, 27819.00
636.2810, 28096.00
637.4440, 28106.00
638.6070, 28320.00
639.7700, 28446.00
640.9330, 28607.00
642.0960, 28642.00
643.2590, 28849.00
644.4210, 28966.00
645.5830, 29142.59
646.7450, 29273.00
647.9070, 29589.00
649.0690, 29805.00
650.2310, 30143.00
651.3920, 30534.00
652.5530, 30926.45
653.7140, 31403.00
654.8750, 31964.00
656.0360, 32293.00
657.1970, 33054.00
658.3570, 33540.00
659.5170, 34343.00
660.6770, 35277.00
661.8370, 36483.00
662.9970, 38023.00
664.1570, 39689.00
665.3160, 41457.00
666.4750, 43527.00
667.6340, 46100.00
668.7930, 48723.00
669.9520, 51773.00
671.1110, 54478.00
672.2690, 57454.00
673.4270, 59454.00
674.5850, 60491.00
675.7430, 60225.00
676.9010, 59013.00
678.0590, 56477.00
679.2160, 53146.00
680.3730, 49445.00
681.5300, 45999.00
682.6870, 43206.00
683.8440, 40261.00
685.0010, 38201.00
686.1570, 36646.00
687.3130, 35029.00
688.4690, 34412.00
689.6250, 33212.00
690.7810, 32288.00
691.9370, 32022.00
693.0920, 31278.00
694.2470, 31249.00
695.4020, 30729.00
696.5570, 30724.00
697.7120, 30375.00
698.8670, 30212.00
700.0210, 29907.00
701.1750, 29584.00
702.3290, 29605.00
703.4830, 29511.00
704.6370, 29268.00
705.7910, 29318.00
706.9440, 29310.00
708.0970, 28967.00
709.2510, 28898.00
710.4030, 28880.00
711.5560, 28780.00
712.7090, 28599.00
713.8610, 28799.00
715.0140, 28462.00
716.1660, 28672.00
717.3180, 28527.00
718.4690, 28388.00
719.6210, 28260.00
720.7730, 28323.00
721.9240, 28391.00
723.0750, 28404.00
724.2260, 28244.00
725.3770, 28239.00
726.5270, 28099.00
727.6780, 28068.00
728.8280, 28075.70
729.9780, 28083.00
731.1280, 28113.00
732.2780, 28130.00
733.4280, 28135.00
734.5770, 27905.00
735.7260, 27814.00
736.8760, 28171.00
738.0250, 27768.00
739.1730, 27939.00
740.3220, 27903.00
741.4700, 27845.00
742.6190, 27857.00
743.7670, 27900.00
744.9150, 27797.00
746.0630, 27873.00
747.2100, 27906.00
748.3580, 27835.00
749.5050, 28002.00
750.6520, 28078.00
751.7990, 27697.00
752.9460, 28024.00
754.0930, 27812.00
755.2390, 27900.00
756.3860, 27940.00
757.5320, 27758.00
758.6780, 27946.00
759.8240, 27982.00
760.9690, 28036.00
762.1150, 28062.00
763.2600, 28100.00
764.4060, 28159.00
765.5510, 28125.00
766.6950, 28041.00
767.8400, 28308.00
768.9850, 28197.00
770.1290, 28209.00
771.2730, 28069.00
772.4170, 28194.00
773.5610, 28277.00
774.7050, 28315.00
775.8480, 28430.00
776.9920, 28314.00
778.1350, 28466.00
779.2780, 28271.00
780.4210, 28540.00
781.5640, 28504.00
782.7060, 28446.00
783.8490, 28562.00
784.9910, 28426.00
786.1330, 28626.00
787.2750, 28810.00
788.4170, 28869.00
789.5580, 28674.00
790.7000, 29038.00
791.8410, 28941.00
792.9820, 29059.00
794.1230, 29108.00
795.2640, 29007.00
796.4040, 28997.00
797.5450, 28996.00
798.6850, 28962.71
799.8250, 29203.00
800.9650, 29036.00
802.1050, 29240.00
803.2450, 29462.00
804.3840, 29108.00
805.5230, 28935.00
806.6630, 29063.00
807.8020, 28907.00
808.9400, 28812.00
810.0790, 28826.00
811.2170, 28679.00
812.3560, 28680.00
813.4940, 28551.00
814.6320, 28539.00
815.7700, 28317.00
816.9070, 28217.00
818.0450, 28328.00
819.1820, 27976.00
820.3190, 28098.00
821.4560, 27973.00
822.5930, 28017.00
823.7300, 28173.00
824.8670, 28162.00
826.0030, 28074.00
827.1390, 28211.00
828.2750, 28181.29
829.4110, 28112.00
830.5470, 28249.00
831.6820, 28306.00
832.8180, 28335.64
833.9530, 27978.00
835.0880, 28241.00
836.2230, 28225.00
837.3580, 28075.00
838.4920, 28382.00
839.6270, 28692.00
840.7610, 28566.91
841.8950, 28374.00
843.0290, 28527.00
844.1630, 28307.00
845.2960, 28298.00
846.4300, 28304.00
847.5630, 28448.00
848.6960, 28693.00
849.8290, 28491.00
850.9620, 28556.00
852.0940, 28428.00
853.2270, 28541.00
854.3590, 28608.00
855.4910, 28662.00
856.6230, 28681.00
857.7550, 28588.00
858.8870, 28647.00
860.0180, 28787.00
861.1500, 28638.00
862.2810, 28780.00
863.4120, 28787.00
864.5430, 28770.00
865.6730, 28804.00
866.8040, 28979.00
867.9340, 28954.00
869.0640, 29111.00
870.1940, 29261.00
871.3240, 29214.00
872.4540, 29154.00
873.5830, 29115.00
874.7130, 29306.00
875.8420, 29293.00
876.9710, 29466.00
878.1000, 29596.00
879.2290, 29410.00
880.3570, 29571.00
881.4860, 29564.00
882.6140, 29734.00
883.7420, 29576.00
884.8700, 29954.00
885.9980, 29983.00
887.1250, 29823.00
888.2530, 30064.00
889.3800, 30124.00
890.5070, 30019.00
891.6340, 30236.00
892.7610, 30061.00
893.8880, 30251.00
895.0140, 30156.00
896.1400, 30252.00
897.2670, 30215.00
898.3930, 30372.00
899.5180, 30461.00
900.6440, 30530.00
901.7700, 30605.00
902.8950, 30654.00
904.0200, 30736.00
905.1450, 30809.00
906.2700, 30628.00
907.3950, 30931.00
908.5190, 30920.00
909.6440, 31020.00
910.7680, 31463.00
911.8920, 31279.00
913.0160, 31431.00
914.1400, 31369.00
915.2630, 31410.00
916.3870, 31636.00
917.5100, 31666.00
918.6330, 31787.00
919.7560, 31828.00
920.8790, 32062.00
922.0010, 32024.00
923.1240, 32322.00
924.2460, 32008.00
925.3680, 32140.00
926.4900, 32495.00
927.6120, 32235.00
928.7340, 32471.42
929.8550, 32345.00
930.9760, 32504.00
932.0980, 32477.00
933.2190, 32263.00
934.3390, 32187.00
935.4600, 32375.00
936.5810, 32445.00
937.7010, 32500.00
938.8210, 32344.00
939.9410, 32488.00
941.0610, 32285.00
942.1810, 32427.00
943.3010, 32558.00
944.4200, 32447.00
945.5390, 32929.00
946.6580, 32816.00
947.7770, 33395.00
948.8960, 32641.00
950.0150, 32917.00
951.1330, 32870.00
952.2510, 33065.00
953.3690, 33199.00
954.4870, 33341.00
955.6050, 33311.00
956.7230, 33429.00
957.8400, 33431.00
958.9580, 33736.00
960.0750, 33911.00
961.1920, 33742.00
962.3090, 34013.00
963.4250, 34094.00
964.5420, 34513.00
965.6580, 34748.00
966.7740, 34971.00
967.8900, 35158.00
969.0060, 35451.00
970.1220, 35674.36
971.2380, 35871.00
972.3530, 36151.00
973.4680, 36584.00
974.5830, 36765.00
975.6980, 37103.00
976.8130, 37014.00
977.9280, 37170.00
979.0420, 37126.00
980.1560, 37008.00
981.2710, 36763.00
982.3850, 36808.00
983.4980, 36514.00
984.6120, 36448.00
985.7260, 36170.00
986.8390, 36371.00
987.9520, 35960.00
989.0650, 35947.00
990.1780, 35735.00
991.2910, 35426.00
992.4030, 34990.00
993.5160, 35076.00
994.6280, 35140.00
995.7400, 34753.00
996.8520, 34599.00
997.9640, 34572.00
999.0750, 34420.00
1000.187, 34339.00
1001.298, 34345.00
1002.409, 34290.00
1003.520, 34336.00
1004.631, 34212.00
1005.741, 34141.00
1006.852, 34288.00
1007.962, 34367.00
1009.072, 34232.10
1010.182, 34260.00
1011.292, 34281.00
1012.402, 34215.00
1013.511, 34301.54
1014.621, 34339.61
1015.730, 34426.00
1016.839, 34460.00
1017.948, 34528.00
1019.056, 34508.00
1020.165, 34528.00
1021.273, 34548.00
1022.382, 34568.34
1023.490, 34664.00
1024.598, 34689.00
1025.706, 34921.00
1026.813, 35112.00
1027.921, 35117.00
1029.028, 35243.05
1030.135, 35022.00
1031.242, 35275.00
1032.349, 35228.00
1033.456, 35154.00
1034.562, 35381.00
1035.668, 35456.00
1036.775, 35707.00
1037.881, 35902.00
1038.987, 35804.00
1040.092, 35769.00
1041.198, 36466.00
1042.303, 36447.00
1043.408, 36509.00
1044.514, 36761.00
1045.618, 36871.00
1046.723, 37026.00
1047.828, 37090.00
1048.932, 37355.02
1050.037, 37584.48
1051.141, 37922.00
1052.245, 38172.00
1053.349, 38554.00
1054.452, 38852.00
1055.556, 39194.94
1056.659, 39412.00
1057.762, 39847.00
1058.865, 40229.00
1059.968, 40451.00
1061.071, 40743.00
1062.174, 41115.77
1063.276, 41415.24
1064.378, 41864.00
1065.480, 42104.00
1066.582, 42509.00
1067.684, 42576.99
1068.786, 42622.00
1069.887, 42565.00
1070.988, 42439.00
1072.090, 42232.00
1073.191, 42011.08
1074.291, 41696.00
1075.392, 41399.00
1076.493, 40868.00
1077.593, 40455.00
1078.693, 40499.00
1079.793, 40291.00
1080.893, 40333.00
1081.993, 39842.00
1083.092, 39748.00
1084.192, 39728.00
1085.291, 39675.00
1086.390, 39727.00
1087.489, 40126.00
1088.588, 40171.00
1089.686, 40581.00
1090.785, 40571.00
1091.883, 40988.00
1092.981, 41099.00
1094.079, 41504.00
1095.177, 41941.00
1096.275, 42209.00
1097.373, 42003.00
1098.470, 42589.00
1099.567, 42720.00
1100.664, 42867.00
1101.761, 43361.00
1102.858, 43605.00
1103.954, 43512.00
1105.051, 43512.00
1106.147, 43495.00
1107.243, 44210.00
1108.339, 44178.00
1109.435, 44232.00
1110.531, 44088.00
1111.626, 44274.00
1112.722, 44321.00
1113.817, 44504.00
1114.912, 44976.00
1116.007, 45343.00
1117.101, 45765.00
1118.196, 46018.53
1119.290, 46297.00
1120.385, 46354.00
1121.479, 46585.00
1122.573, 46510.00
1123.666, 46539.00
1124.760, 46491.00
1125.853, 45973.00
1126.947, 45636.00
1128.040, 45201.73
1129.133, 45197.00
1130.226, 44186.00
1131.318, 44033.00
1132.411, 43579.00
1133.503, 43662.00
1134.596, 43314.00
1135.688, 43178.00
1136.780, 43032.00
1137.871, 42943.00
1138.963, 42551.00
1140.054, 42749.00
1141.146, 42320.00
1142.237, 42151.00
1143.328, 42048.00
1144.419, 41940.00
1145.509, 41928.00
1146.600, 41467.00
1147.690, 41503.00
1148.780, 40955.00
1149.870, 41003.00
1150.960, 40621.00
1152.050, 40609.00
1153.139, 40086.44
1154.229, 39154.00
1155.318, 38909.00
1156.407, 38131.00
1157.496, 37343.00
1158.585, 36661.00
1159.674, 36467.00
1160.762, 35736.00
1161.850, 35697.00
1162.939, 35131.00
1164.027, 34654.00
1165.114, 34556.15
1166.202, 34689.00
1167.290, 34311.00
1168.377, 34343.00
1169.464, 34490.00
1170.551, 34222.00
1171.638, 34228.00
1172.725, 33932.00
1173.812, 34103.00
1174.898, 34098.00
1175.984, 33988.00
1177.071, 34084.00
1178.157, 33968.00
1179.242, 33863.00
1180.328, 33920.00
1181.414, 33930.00
1182.499, 33893.00
1183.584, 34097.00
1184.669, 34143.00
1185.754, 34081.00
1186.839, 34162.27
1187.924, 34082.00
1189.008, 34158.00
1190.092, 34172.00
1191.177, 34192.00
1192.260, 34196.05
1193.344, 34068.00
1194.428, 34080.00
1195.512, 34095.00
1196.595, 33858.00
1197.678, 34105.00
1198.761, 34069.00
1199.844, 34107.00
1200.927, 33970.00
1202.009, 34187.00
1203.092, 33958.00
1204.174, 34117.00
1205.256, 34153.00
1206.338, 34261.00
1207.420, 34292.24
1208.502, 34691.00
1209.583, 34285.00
1210.665, 34336.00
1211.746, 34250.00
1212.827, 34225.88
1213.908, 34480.00
1214.988, 34342.00
1216.069, 34395.00
1217.149, 34409.14
1218.230, 34387.38
1219.310, 34644.00
1220.390, 34541.00
1221.470, 34602.00
1222.549, 34934.00
1223.629, 34773.00
1224.708, 34784.00
1225.787, 34749.00
1226.866, 34860.00
1227.945, 34879.00
1229.024, 34886.64
1230.103, 34945.00
1231.181, 34936.82
1232.259, 34956.00
1233.337, 35050.00
1234.415, 35198.00
1235.493, 35056.00
1236.571, 35112.00
1237.648, 34977.00
1238.726, 34988.00
1239.803, 34931.00
1240.880, 35070.00
1241.957, 35197.00
1243.034, 35262.00
1244.110, 35243.38
1245.187, 35365.41
1246.263, 35191.00
1247.339, 35416.00
1248.415, 35576.00
1249.491, 35384.00
1250.566, 35541.43
1251.642, 35548.00
1252.717, 35505.00
1253.793, 35492.00
1254.868, 35372.00
1255.943, 35596.00
1257.017, 35516.00
1258.092, 35671.00
1259.166, 35521.00
1260.241, 35553.00
1261.315, 35651.00
1262.389, 35659.00
1263.462, 35860.00
1264.536, 35796.00
1265.610, 36092.00
1266.683, 36074.00
1267.756, 35789.00
1268.829, 36019.00
1269.902, 35851.00
1270.975, 35938.00
1272.048, 35971.00
1273.120, 36067.00
1274.192, 36150.00
1275.264, 36161.13
1276.336, 35923.00
1277.408, 36186.00
1278.480, 36065.00
1279.551, 36048.00
1280.623, 36143.00
1281.694, 36175.00
1282.765, 36316.00
1283.836, 36609.00
1284.907, 36336.00
1285.977, 36265.00
1287.048, 36414.00
1288.118, 36112.00
1289.188, 36005.00
1290.258, 36202.50
1291.328, 36618.00
1292.398, 36508.00
1293.467, 36583.00
1294.537, 36599.00
1295.606, 36552.00
