##NAMES=Arfvedsonite
##RRUFFID=R040127
##IDEAL CHEMISTRY=NaNa_2_(Fe^2+^_4_Fe^3+^)Si_8_O_22_(OH)_2_
##LOCALITY=Mont Saint-Hilaire, Rouville County, Quebec, Canada
##OWNER=RRUFF
##SOURCE=Bob Downs
##DESCRIPTION=Black prismatic crystal associated with white analcime, R040128
##STATUS=The identification of this mineral has been confirmed by X-ray diffraction and chemical analysis
##URL=rruff.info/R040127
##MEASURED CHEMISTRY=(Na_0.61_K_0.39_)Na_2.00_(Fe^2+^_2.40_Mg_0.80_Mn_0.75_Ca_0.05_)_&#931;=4_(Fe^3+^_0.60_Al_0.25_Mn_0.15_)(Si_0.99_Ti_0.01_)_8_O_22_((OH)_0.67_F_0.33_)_2_
##PIN_ID=M00446
##ORIENTATION=Laser parallel to (-1 0 -1). Fiducial mark perpendicular to laser is parallel to -b [0 -1 0]
155.9950, 44051.00
157.2280, 44305.61
158.4600, 44852.00
159.6920, 45351.00
160.9250, 46442.00
162.1560, 47868.00
163.3880, 49082.00
164.6200, 49953.00
165.8510, 49728.00
167.0820, 49508.00
168.3130, 49540.00
169.5440, 49033.00
170.7750, 48725.00
172.0050, 47512.00
173.2350, 46632.00
174.4650, 45790.00
175.6950, 45007.00
176.9250, 44839.00
178.1550, 44184.00
179.3840, 44062.00
180.6130, 43744.00
181.8420, 43865.00
183.0710, 44278.00
184.3000, 44416.00
185.5280, 45275.00
186.7570, 46017.00
187.9850, 46600.00
189.2130, 47298.00
190.4400, 48039.00
191.6680, 48995.00
192.8960, 49592.85
194.1230, 50478.00
195.3500, 50882.00
196.5770, 51614.00
197.8030, 52139.00
199.0300, 52566.00
200.2560, 53375.00
201.4830, 53867.00
202.7090, 53431.00
203.9340, 51422.00
205.1600, 49316.00
206.3860, 47933.00
207.6110, 47412.00
208.8360, 47131.00
210.0610, 47013.00
211.2860, 46695.00
212.5100, 46681.00
213.7350, 46387.75
214.9590, 46473.00
216.1830, 45893.00
217.4070, 45443.00
218.6310, 45165.00
219.8540, 44324.00
221.0780, 43929.00
222.3010, 43519.80
223.5240, 43657.00
224.7470, 42676.00
225.9690, 42673.00
227.1920, 42091.00
228.4140, 41967.00
229.6360, 41634.00
230.8580, 42226.00
232.0800, 41559.00
233.3020, 40846.00
234.5230, 41345.00
235.7440, 40844.00
236.9650, 40899.00
238.1860, 40844.00
239.4070, 40727.00
240.6280, 40821.00
241.8480, 40836.00
243.0680, 40650.96
244.2880, 40542.00
245.5080, 40240.00
246.7280, 40201.00
247.9470, 39895.00
249.1660, 39875.00
250.3860, 39687.00
251.6040, 39522.00
252.8230, 39326.00
254.0420, 39084.00
255.2600, 39029.00
256.4790, 38737.00
257.6970, 39735.00
258.9150, 39408.62
260.1320, 39162.87
261.3500, 39470.00
262.5670, 38301.00
263.7840, 38069.00
265.0010, 37796.00
266.2180, 37791.00
267.4350, 37422.00
268.6510, 37313.98
269.8680, 37212.00
271.0840, 37072.00
272.3000, 37101.00
273.5160, 37191.00
274.7310, 37052.00
275.9470, 37200.00
277.1620, 37065.00
278.3770, 37100.00
279.5920, 37067.00
280.8070, 37168.00
282.0210, 36988.00
283.2360, 37262.00
284.4500, 37462.00
285.6640, 37665.00
286.8780, 37595.00
288.0920, 37734.00
289.3050, 37845.64
290.5180, 38155.00
291.7320, 38195.00
292.9450, 38569.00
294.1570, 38686.95
295.3700, 38800.00
296.5830, 39031.00
297.7950, 39176.00
299.0070, 39391.00
300.2190, 39278.88
301.4310, 39570.00
302.6420, 39276.00
303.8540, 39168.00
305.0650, 39795.00
306.2760, 39683.00
307.4870, 39844.77
308.6980, 39997.31
309.9080, 39908.00
311.1190, 40075.00
312.3290, 39931.00
313.5390, 39945.00
314.7490, 39931.00
315.9580, 39958.00
317.1680, 39798.00
318.3770, 39514.00
319.5860, 39756.00
320.7950, 39440.00
322.0040, 38890.00
323.2130, 38790.00
324.4210, 38650.00
325.6290, 38447.00
326.8380, 38462.00
328.0460, 38387.00
329.2530, 38158.00
330.4610, 37994.00
331.6680, 37962.79
332.8760, 38227.00
334.0830, 38003.00
335.2890, 38225.00
336.4960, 38496.00
337.7030, 38478.00
338.9090, 38392.00
340.1150, 38891.00
341.3210, 39095.00
342.5270, 39277.00
343.7330, 39599.00
344.9380, 39959.00
346.1440, 40390.00
347.3490, 40778.00
348.5540, 41252.00
349.7590, 41715.90
350.9630, 42171.00
352.1680, 42564.00
353.3720, 42839.00
354.5760, 42958.00
355.7800, 43307.00
356.9840, 43652.00
358.1870, 43890.00
359.3910, 43824.00
360.5940, 43904.00
361.7970, 43693.00
363.0000, 43468.00
364.2030, 43492.00
365.4050, 43208.00
366.6080, 43033.00
367.8100, 42944.00
369.0120, 42438.00
370.2140, 42271.00
371.4150, 41960.00
372.6170, 41899.00
373.8180, 41628.00
375.0190, 41387.00
376.2200, 41295.43
377.4210, 41193.00
378.6220, 41012.00
379.8220, 41010.00
381.0230, 40819.00
382.2230, 40635.00
383.4230, 40150.00
384.6220, 40216.00
385.8220, 39944.00
387.0220, 39915.00
388.2210, 39575.00
389.4200, 39427.00
390.6190, 39190.93
391.8180, 39159.00
393.0160, 38812.00
394.2150, 38575.00
395.4130, 38670.00
396.6110, 38068.00
397.8090, 38140.00
399.0060, 37952.00
400.2040, 37970.00
401.4010, 38012.00
402.5980, 37900.00
403.7950, 38022.73
404.9920, 38319.00
406.1890, 38193.00
407.3860, 38169.00
408.5820, 38250.00
409.7780, 38693.00
410.9740, 38780.00
412.1700, 39071.00
413.3650, 39154.00
414.5610, 39520.00
415.7560, 39414.00
416.9510, 39835.00
418.1460, 39989.00
419.3410, 39942.00
420.5360, 39912.00
421.7300, 39860.00
422.9240, 39963.00
424.1180, 39746.57
425.3120, 39567.04
426.5060, 39316.00
427.7000, 39005.00
428.8930, 38659.00
430.0860, 38375.89
431.2790, 38342.00
432.4720, 37991.00
433.6650, 37973.00
434.8580, 37717.00
436.0500, 37594.00
437.2420, 37063.00
438.4340, 37033.00
439.6260, 36957.00
440.8180, 36382.00
442.0090, 36358.00
443.2010, 36401.00
444.3920, 35731.00
445.5830, 36159.00
446.7740, 35605.00
447.9640, 35617.00
449.1550, 35584.00
450.3450, 35633.00
451.5350, 35686.00
452.7250, 35326.00
453.9150, 35715.00
455.1050, 35482.00
456.2940, 35453.00
457.4830, 35882.00
458.6720, 35483.00
459.8610, 35704.00
461.0500, 35514.00
462.2390, 35594.00
463.4270, 35658.00
464.6150, 35667.00
465.8040, 35845.00
466.9910, 35444.00
468.1790, 35993.00
469.3670, 35734.00
470.5540, 35902.00
471.7410, 35431.00
472.9280, 35480.00
474.1150, 35417.93
475.3020, 35324.82
476.4890, 35411.00
477.6750, 35286.00
478.8610, 35392.00
480.0470, 35206.00
481.2330, 35325.00
482.4190, 35688.00
483.6040, 35649.00
484.7900, 35624.00
485.9750, 35505.00
487.1600, 35701.27
488.3450, 35892.95
489.5290, 35990.00
490.7140, 36146.27
491.8980, 36397.00
493.0820, 36467.00
494.2660, 36659.00
495.4500, 37019.00
496.6340, 36956.00
497.8170, 37680.00
499.0010, 37838.00
500.1840, 37866.00
501.3670, 38039.00
502.5500, 38393.00
503.7320, 38581.00
504.9150, 38765.00
506.0970, 38905.00
507.2790, 39041.00
508.4610, 39321.00
509.6430, 39460.33
510.8250, 39538.00
512.0060, 39850.00
513.1870, 40016.00
514.3680, 40222.00
515.5490, 40505.00
516.7300, 40838.00
517.9110, 41203.00
519.0910, 41669.00
520.2710, 41900.00
521.4510, 42468.00
522.6310, 42933.00
523.8110, 43720.00
524.9910, 44443.00
526.1700, 45117.00
527.3490, 45808.98
528.5280, 46483.55
529.7070, 47081.00
530.8860, 47753.00
532.0650, 48337.00
533.2430, 48835.38
534.4210, 49560.00
535.5990, 49469.00
536.7770, 49877.00
537.9550, 49897.00
539.1320, 49340.00
540.3100, 49430.00
541.4870, 48819.00
542.6640, 48530.00
543.8410, 47812.00
545.0170, 47817.00
546.1940, 46586.00
547.3700, 45961.00
548.5470, 46031.00
549.7230, 45798.00
550.8980, 44945.00
552.0740, 44600.00
553.2500, 44433.00
554.4250, 43978.00
555.6000, 43660.00
556.7750, 43863.00
557.9500, 43302.00
559.1250, 43012.00
560.2990, 43301.00
561.4730, 43135.00
562.6480, 42657.00
563.8220, 42672.00
564.9950, 42512.00
566.1690, 42489.00
567.3430, 42352.00
568.5160, 42263.64
569.6890, 42134.18
570.8620, 42066.00
572.0350, 41880.00
573.2070, 41749.00
574.3800, 41715.00
575.5520, 41319.00
576.7240, 40648.00
577.8960, 40483.00
579.0680, 39822.00
580.2400, 39551.00
581.4110, 38905.00
582.5830, 38133.00
583.7540, 37812.00
584.9250, 37401.00
586.0950, 37183.00
587.2660, 36752.00
588.4370, 36550.00
589.6070, 36373.00
590.7770, 36090.56
591.9470, 35955.88
593.1170, 35646.00
594.2860, 35707.00
595.4560, 35442.00
596.6250, 35461.00
597.7940, 35322.00
598.9630, 35228.00
600.1320, 35344.00
601.3000, 35140.00
602.4690, 35189.00
603.6370, 35124.01
604.8050, 35205.00
605.9730, 35066.00
607.1410, 34774.00
608.3090, 34860.00
609.4760, 35407.00
610.6430, 35132.05
611.8100, 35621.00
612.9770, 34938.00
614.1440, 35304.00
615.3110, 34927.27
616.4770, 35639.00
617.6430, 35012.00
618.8090, 34959.00
619.9750, 34940.00
621.1410, 35165.00
622.3070, 35027.00
623.4720, 34878.00
624.6370, 35038.00
625.8020, 35054.00
626.9670, 35150.00
628.1320, 35071.00
629.2970, 35248.00
630.4610, 35586.00
631.6250, 35470.10
632.7890, 35631.06
633.9530, 35586.00
635.1170, 35571.00
636.2810, 35911.00
637.4440, 35675.00
638.6070, 35524.00
639.7700, 35920.00
640.9330, 35776.54
642.0960, 35881.38
643.2590, 35978.00
644.4210, 36041.00
645.5830, 36193.00
646.7450, 36406.00
647.9070, 36265.00
649.0690, 36566.00
650.2310, 36969.00
651.3920, 36899.00
652.5530, 37167.00
653.7140, 37453.00
654.8750, 37743.00
656.0360, 38415.00
657.1970, 38672.00
658.3570, 39233.00
659.5170, 39551.00
660.6770, 40361.00
661.8370, 41679.00
662.9970, 43074.00
664.1570, 43738.00
665.3160, 44832.00
666.4750, 45881.00
667.6340, 47474.00
668.7930, 48920.00
669.9520, 50232.00
671.1110, 51760.00
672.2690, 53082.00
673.4270, 54684.00
674.5850, 55519.00
675.7430, 56622.00
676.9010, 54383.00
678.0590, 53313.00
679.2160, 51733.00
680.3730, 50217.00
681.5300, 48078.00
682.6870, 45702.00
683.8440, 44319.00
685.0010, 42872.00
686.1570, 41771.00
687.3130, 40704.00
688.4690, 39862.23
689.6250, 39211.86
690.7810, 38700.00
691.9370, 38354.00
693.0920, 38229.00
694.2470, 38149.00
695.4020, 37887.61
696.5570, 37840.00
697.7120, 37602.00
698.8670, 37258.00
700.0210, 37297.00
701.1750, 37268.00
702.3290, 37156.00
703.4830, 37224.00
704.6370, 37279.00
705.7910, 36956.00
706.9440, 37124.00
708.0970, 36939.00
709.2510, 36938.00
710.4030, 37138.00
711.5560, 37027.00
712.7090, 37088.18
713.8610, 36985.00
715.0140, 37134.00
716.1660, 37057.00
717.3180, 37191.00
718.4690, 37166.00
719.6210, 37076.00
720.7730, 37040.12
721.9240, 36921.00
723.0750, 36817.00
724.2260, 37187.00
725.3770, 37128.00
726.5270, 37346.00
727.6780, 37139.00
728.8280, 36800.00
729.9780, 37373.00
731.1280, 37013.00
732.2780, 37596.00
733.4280, 37713.59
734.5770, 37914.00
735.7260, 38101.00
736.8760, 37165.00
738.0250, 37166.00
739.1730, 37349.00
740.3220, 36954.00
741.4700, 37279.00
742.6190, 37464.00
743.7670, 36804.00
744.9150, 36256.00
746.0630, 36491.00
747.2100, 36315.00
748.3580, 36224.00
749.5050, 36203.00
750.6520, 36038.00
751.7990, 35794.00
752.9460, 35806.00
754.0930, 35621.00
755.2390, 35731.00
756.3860, 35677.95
757.5320, 35857.00
758.6780, 35696.00
759.8240, 35620.00
760.9690, 35630.00
762.1150, 35735.00
763.2600, 35538.00
764.4060, 35556.60
765.5510, 35609.00
766.6950, 35450.00
767.8400, 35395.00
768.9850, 35425.00
770.1290, 35581.00
771.2730, 35474.00
772.4170, 35086.00
773.5610, 35226.00
774.7050, 35308.00
775.8480, 35277.00
776.9920, 35365.00
778.1350, 35463.00
779.2780, 35414.00
780.4210, 35313.00
781.5640, 35069.00
782.7060, 35108.48
783.8490, 35079.35
784.9910, 35225.00
786.1330, 35125.00
787.2750, 35481.00
788.4170, 35390.00
789.5580, 35441.00
790.7000, 35576.00
791.8410, 35362.00
792.9820, 35753.00
794.1230, 35583.00
795.2640, 35330.00
796.4040, 35626.00
797.5450, 35331.00
798.6850, 35339.00
799.8250, 35179.00
800.9650, 35446.00
802.1050, 35532.00
803.2450, 35214.00
804.3840, 35166.00
805.5230, 34811.86
806.6630, 35120.86
807.8020, 35289.37
808.9400, 35324.94
810.0790, 34829.36
811.2170, 35019.65
812.3560, 34935.07
813.4940, 34839.22
814.6320, 35126.04
815.7700, 34707.73
816.9070, 34988.49
818.0450, 34990.18
819.1820, 35119.61
820.3190, 34972.47
821.4560, 34910.76
822.5930, 35125.69
823.7300, 35187.44
824.8670, 35008.46
826.0030, 35146.02
827.1390, 34995.00
828.2750, 35055.00
829.4110, 35009.00
830.5470, 35098.49
831.6820, 34859.00
832.8180, 35225.00
833.9530, 35136.00
835.0880, 35317.00
836.2230, 35091.00
837.3580, 35034.00
838.4920, 35970.00
839.6270, 35837.00
840.7610, 35767.00
841.8950, 35331.00
843.0290, 35390.00
844.1630, 35689.00
845.2960, 35686.00
846.4300, 35718.07
847.5630, 35601.00
848.6960, 35636.00
849.8290, 35727.00
850.9620, 35664.00
852.0940, 36029.00
853.2270, 35967.00
854.3590, 36139.00
855.4910, 36098.00
856.6230, 36199.89
857.7550, 36322.39
858.8870, 36390.00
860.0180, 36574.00
861.1500, 36689.00
862.2810, 36817.00
863.4120, 36769.00
864.5430, 37022.00
865.6730, 37321.00
866.8040, 37324.00
867.9340, 37620.00
869.0640, 37672.00
870.1940, 38094.00
871.3240, 38186.00
872.4540, 38307.00
873.5830, 38481.00
874.7130, 38772.00
875.8420, 38588.00
876.9710, 38960.00
878.1000, 39141.00
879.2290, 39620.00
880.3570, 39518.00
881.4860, 39421.00
882.6140, 39748.00
883.7420, 39977.00
884.8700, 39885.00
885.9980, 40069.00
887.1250, 39916.00
888.2530, 39979.00
889.3800, 39966.00
890.5070, 39981.60
891.6340, 40120.36
892.7610, 40051.00
893.8880, 40327.00
895.0140, 40300.00
896.1400, 40218.00
897.2670, 40493.00
898.3930, 40530.00
899.5180, 40504.00
900.6440, 41140.00
901.7700, 40667.00
902.8950, 40483.00
904.0200, 41712.00
905.1450, 41378.00
906.2700, 40825.00
907.3950, 41297.00
908.5190, 41105.00
909.6440, 41540.00
910.7680, 41563.00
911.8920, 41733.00
913.0160, 41666.00
914.1400, 41657.00
915.2630, 41788.00
916.3870, 41801.00
917.5100, 41728.00
918.6330, 41862.00
919.7560, 41898.00
920.8790, 41940.00
922.0010, 42033.00
923.1240, 41732.00
924.2460, 41865.00
925.3680, 41770.00
926.4900, 41777.00
927.6120, 41787.00
928.7340, 41751.00
929.8550, 41843.00
930.9760, 41948.00
932.0980, 41753.00
933.2190, 41964.00
934.3390, 41596.00
935.4600, 42068.00
936.5810, 41999.43
937.7010, 42147.45
938.8210, 42140.00
939.9410, 42430.00
941.0610, 42445.00
942.1810, 42376.00
943.3010, 42644.00
944.4200, 42713.06
945.5390, 42995.60
946.6580, 43181.00
947.7770, 43552.00
948.8960, 44019.00
950.0150, 44117.00
951.1330, 44428.00
952.2510, 44809.00
953.3690, 44873.00
954.4870, 45320.00
955.6050, 45653.00
956.7230, 45891.00
957.8400, 46259.00
958.9580, 46717.08
960.0750, 47109.00
961.1920, 47713.00
962.3090, 48394.00
963.4250, 48888.00
964.5420, 49502.00
965.6580, 50062.00
966.7740, 50939.00
967.8900, 51455.00
969.0060, 52175.00
970.1220, 53082.00
971.2380, 53787.00
972.3530, 53998.00
973.4680, 55090.00
974.5830, 55611.00
975.6980, 55538.00
976.8130, 55667.00
977.9280, 55596.00
979.0420, 55714.00
980.1560, 55093.00
981.2710, 54632.00
982.3850, 54374.00
983.4980, 52996.00
984.6120, 52485.00
985.7260, 51505.00
986.8390, 50789.00
987.9520, 50250.00
989.0650, 49591.00
990.1780, 48464.00
991.2910, 47425.00
992.4030, 46851.00
993.5160, 46502.00
994.6280, 45979.00
995.7400, 45003.00
996.8520, 45182.00
997.9640, 44442.00
999.0750, 44259.32
1000.187, 44795.00
1001.298, 43914.00
1002.409, 43519.00
1003.520, 43375.00
1004.631, 43308.00
1005.741, 43243.00
1006.852, 43124.42
1007.962, 42771.00
1009.072, 42933.00
1010.182, 42929.00
1011.292, 42854.00
1012.402, 42492.00
1013.511, 42831.00
1014.621, 42768.00
1015.730, 43158.00
1016.839, 42907.12
1017.948, 42814.00
1019.056, 42471.00
1020.165, 42690.00
1021.273, 42609.00
1022.382, 42491.00
1023.490, 42424.00
1024.598, 42439.00
1025.706, 42361.00
1026.813, 42240.00
1027.921, 42363.04
1029.028, 42315.00
1030.135, 42444.00
1031.242, 42548.00
1032.349, 42327.00
1033.456, 42075.00
1034.562, 42470.00
1035.668, 42312.00
1036.775, 42559.00
1037.881, 42521.00
1038.987, 42918.00
1040.092, 42854.64
1041.198, 42848.00
1042.303, 42850.00
1043.408, 42693.00
1044.514, 42670.00
1045.618, 42749.31
1046.723, 42784.32
1047.828, 42990.00
1048.932, 43054.00
1050.037, 43233.00
1051.141, 43415.00
1052.245, 43465.00
1053.349, 43582.07
1054.452, 43593.00
1055.556, 43734.00
1056.659, 43796.00
1057.762, 43936.00
1058.865, 44136.00
1059.968, 44212.00
1061.071, 44195.00
1062.174, 44557.00
1063.276, 44766.00
1064.378, 44763.21
1065.480, 44942.29
1066.582, 44736.00
1067.684, 44980.00
1068.786, 44838.00
1069.887, 44725.00
1070.988, 45003.00
1072.090, 44859.00
1073.191, 44395.00
1074.291, 44570.00
1075.392, 44251.00
1076.493, 44564.00
1077.593, 44079.00
1078.693, 44228.00
1079.793, 44204.00
1080.893, 43985.00
1081.993, 43875.00
1083.092, 43925.00
1084.192, 43950.00
1085.291, 43989.00
1086.390, 44199.00
1087.489, 44248.96
1088.588, 44119.00
1089.686, 44451.00
1090.785, 44408.00
1091.883, 44417.00
1092.981, 44522.00
1094.079, 44727.00
1095.177, 44829.00
1096.275, 45179.00
1097.373, 45075.00
1098.470, 44844.00
1099.567, 45076.00
1100.664, 45218.00
1101.761, 45155.00
1102.858, 45251.00
1103.954, 45105.00
1105.051, 45110.94
1106.147, 45276.00
1107.243, 45013.00
1108.339, 45100.00
1109.435, 45032.00
1110.531, 44909.00
1111.626, 44815.00
1112.722, 44746.00
1113.817, 44354.00
1114.912, 44561.00
1116.007, 44252.00
1117.101, 44335.00
1118.196, 44254.80
1119.290, 44302.00
1120.385, 44102.00
1121.479, 43892.00
1122.573, 43812.00
1123.666, 43689.00
1124.760, 43662.00
1125.853, 43368.00
1126.947, 43162.00
1128.040, 43129.00
1129.133, 42957.00
1130.226, 42714.00
1131.318, 42424.00
1132.411, 42488.00
1133.503, 42218.00
1134.596, 42263.00
1135.688, 42039.00
1136.780, 41820.00
1137.871, 41588.00
1138.963, 41406.43
1140.054, 41316.00
1141.146, 41093.00
1142.237, 41117.00
1143.328, 41077.00
1144.419, 40952.00
1145.509, 40564.00
1146.600, 40487.00
1147.690, 40392.00
1148.780, 39994.00
1149.870, 39980.00
1150.960, 40060.00
1152.050, 39648.14
1153.139, 39676.00
1154.229, 38890.00
1155.318, 38984.00
1156.407, 38297.00
1157.496, 38245.00
1158.585, 37844.00
1159.674, 37620.00
1160.762, 37587.00
1161.850, 37311.00
1162.939, 37518.00
1164.027, 37118.00
1165.114, 36733.00
1166.202, 36879.00
1167.290, 36651.00
1168.377, 36653.00
1169.464, 36524.00
1170.551, 36560.00
1171.638, 36430.00
1172.725, 36688.00
1173.812, 36913.00
1174.898, 37009.00
1175.984, 37069.00
1177.071, 36578.00
1178.157, 36545.00
1179.242, 36373.00
1180.328, 36323.00
1181.414, 36351.00
1182.499, 36009.00
1183.584, 36368.00
1184.669, 35990.00
1185.754, 36299.00
1186.839, 36140.00
1187.924, 36070.00
1189.008, 36101.00
1190.092, 35945.00
1191.177, 36102.00
1192.260, 36050.33
1193.344, 35995.00
1194.428, 36068.00
1195.512, 36021.00
1196.595, 35998.00
1197.678, 36118.00
1198.761, 36004.00
1199.844, 36058.00
1200.927, 36108.00
1202.009, 36062.00
1203.092, 36329.00
1204.174, 35954.00
1205.256, 36048.00
1206.338, 36280.00
1207.420, 35920.00
1208.502, 35800.00
1209.583, 36129.00
1210.665, 35742.00
1211.746, 36256.00
1212.827, 36214.00
1213.908, 36219.00
1214.988, 36125.00
1216.069, 36066.00
1217.149, 36107.00
1218.230, 36058.00
1219.310, 36040.00
1220.390, 36140.00
1221.470, 35893.00
1222.549, 35811.00
1223.629, 36059.00
1224.708, 36185.00
1225.787, 36114.00
1226.866, 35889.00
1227.945, 36128.00
1229.024, 35896.00
1230.103, 36190.00
1231.181, 36125.95
1232.259, 36592.00
1233.337, 35965.00
1234.415, 35973.00
1235.493, 35571.00
1236.571, 35990.00
1237.648, 36105.00
1238.726, 35906.00
1239.803, 35752.00
1240.880, 36102.00
1241.957, 35994.00
1243.034, 35884.00
1244.110, 36034.00
1245.187, 36177.00
1246.263, 36180.00
1247.339, 35996.00
1248.415, 36085.00
1249.491, 36133.00
1250.566, 35972.00
1251.642, 36179.00
1252.717, 35977.00
1253.793, 36120.00
1254.868, 36262.00
1255.943, 35785.00
1257.017, 36047.00
1258.092, 36250.00
1259.166, 35834.00
1260.241, 35906.00
1261.315, 35991.00
1262.389, 36166.00
1263.462, 36187.07
1264.536, 36118.00
1265.610, 36106.00
1266.683, 36109.00
1267.756, 36050.31
1268.829, 36192.00
1269.902, 36059.00
1270.975, 36195.78
1272.048, 36405.00
1273.120, 36374.00
1274.192, 36139.00
1275.264, 35868.00
1276.336, 35995.00
1277.408, 35873.00
1278.480, 36105.00
1279.551, 36063.00
1280.623, 36181.00
1281.694, 35754.00
1282.765, 35937.00
1283.836, 36260.00
1284.907, 36060.00
1285.977, 36316.00
1287.048, 36045.00
1288.118, 36246.00
1289.188, 36015.00
1290.258, 36267.00
1291.328, 36095.00
1292.398, 36145.17
1293.467, 36042.00
1294.537, 36265.00
1295.606, 36028.00
1296.675, 36199.00
1297.744, 36429.00
1298.813, 35868.00
1299.882, 36264.00
1300.950, 36022.01
1302.018, 35967.15
1303.086, 35952.00
1304.155, 35841.00
1305.222, 36132.00
1306.290, 35950.00
1307.358, 35907.23
1308.425, 36229.83
1309.492, 36411.93
1310.559, 36461.09
1311.626, 35979.11
1312.693, 36182.98
1313.760, 36112.00
1314.826, 36029.74
1315.893, 36330.14
1316.959, 35925.41
1318.025, 36219.75
1319.091, 36235.03
