##NAMES=Arfvedsonite
##RRUFFID=R040127
##IDEAL CHEMISTRY=NaNa_2_(Fe^2+^_4_Fe^3+^)Si_8_O_22_(OH)_2_
##LOCALITY=Mont Saint-Hilaire, Rouville County, Quebec, Canada
##OWNER=RRUFF
##SOURCE=Bob Downs
##DESCRIPTION=Black prismatic crystal associated with white analcime, R040128
##STATUS=The identification of this mineral has been confirmed by X-ray diffraction and chemical analysis
##URL=rruff.info/R040127
##MEASURED CHEMISTRY=(Na_0.61_K_0.39_)Na_2.00_(Fe^2+^_2.40_Mg_0.80_Mn_0.75_Ca_0.05_)_&#931;=4_(Fe^3+^_0.60_Al_0.25_Mn_0.15_)(Si_0.99_Ti_0.01_)_8_O_22_((OH)_0.67_F_0.33_)_2_
##PIN_ID=L01975
##ORIENTATION=Laser parallel to b* (0 1 0). Fiducial mark perpendicular to laser is parallel to c [0 0 1]
158.4600, 14551.00
159.6920, 14953.00
160.9250, 15603.00
162.1560, 16658.00
163.3880, 18277.00
164.6200, 19949.00
165.8510, 19982.88
167.0820, 20508.88
168.3130, 20249.00
169.5440, 19971.00
170.7750, 20472.00
172.0050, 20000.00
173.2350, 18815.00
174.4650, 18035.00
175.6950, 17951.00
176.9250, 17589.00
178.1550, 17850.00
179.3840, 18052.00
180.6130, 18648.00
181.8420, 18082.00
183.0710, 17986.00
184.3000, 18257.00
185.5280, 19072.00
186.7570, 20234.00
187.9850, 21310.00
189.2130, 22396.00
190.4400, 23456.00
191.6680, 24695.00
192.8960, 25883.00
194.1230, 27553.00
195.3500, 28397.00
196.5770, 28802.00
197.8030, 29020.00
199.0300, 29088.00
200.2560, 29893.00
201.4830, 30912.00
202.7090, 32145.00
203.9340, 29789.00
205.1600, 24809.00
206.3860, 21008.00
207.6110, 19313.00
208.8360, 18632.00
210.0610, 18624.00
211.2860, 18841.00
212.5100, 18768.00
213.7350, 18667.38
214.9590, 18879.00
216.1830, 18324.00
217.4070, 17991.00
218.6310, 17812.00
219.8540, 17532.00
221.0780, 17048.00
222.3010, 16609.00
223.5240, 16280.00
224.7470, 15947.00
225.9690, 15870.00
227.1920, 15640.00
228.4140, 15363.00
229.6360, 15029.00
230.8580, 14960.00
232.0800, 14879.65
233.3020, 15002.00
234.5230, 14895.00
235.7440, 14799.00
236.9650, 14696.83
238.1860, 14682.96
239.4070, 14946.00
240.6280, 14721.00
241.8480, 14844.00
243.0680, 14964.00
244.2880, 14775.00
245.5080, 14788.00
246.7280, 14731.00
247.9470, 14619.00
249.1660, 14528.00
250.3860, 14357.00
251.6040, 14161.00
252.8230, 14119.00
254.0420, 13965.00
255.2600, 13584.98
256.4790, 13648.92
257.6970, 13630.67
258.9150, 13534.54
260.1320, 13127.43
261.3500, 13121.93
262.5670, 12955.54
263.7840, 12782.55
265.0010, 12833.69
266.2180, 12663.00
267.4350, 12552.00
268.6510, 12277.00
269.8680, 12133.00
271.0840, 12118.00
272.3000, 11963.00
273.5160, 11831.00
274.7310, 11899.00
275.9470, 12004.00
277.1620, 11977.00
278.3770, 11846.00
279.5920, 11811.00
280.8070, 11750.86
282.0210, 11710.16
283.2360, 11636.22
284.4500, 11436.00
285.6640, 11336.00
286.8780, 11372.00
288.0920, 11402.00
289.3050, 11407.00
290.5180, 11482.00
291.7320, 11589.00
292.9450, 11704.00
294.1570, 11860.00
295.3700, 11920.00
296.5830, 12033.00
297.7950, 12127.00
299.0070, 12076.00
300.2190, 12251.00
301.4310, 12154.00
302.6420, 12201.00
303.8540, 12303.00
305.0650, 12320.00
306.2760, 12366.85
307.4870, 12459.00
308.6980, 12478.00
309.9080, 12694.00
311.1190, 12889.00
312.3290, 12968.00
313.5390, 12944.00
314.7490, 12886.00
315.9580, 12836.00
317.1680, 12863.00
318.3770, 12835.00
319.5860, 12676.56
320.7950, 12518.00
322.0040, 12327.00
323.2130, 12198.00
324.4210, 12035.00
325.6290, 11964.00
326.8380, 11766.55
328.0460, 11891.02
329.2530, 11953.78
330.4610, 11958.12
331.6680, 11729.16
332.8760, 11801.46
334.0830, 11753.04
335.2890, 11699.69
336.4960, 11814.42
337.7030, 11619.39
338.9090, 11731.46
340.1150, 11796.00
341.3210, 11882.00
342.5270, 12015.65
343.7330, 12132.10
344.9380, 12257.18
346.1440, 12455.00
347.3490, 12610.00
348.5540, 12866.29
349.7590, 13136.00
350.9630, 13432.00
352.1680, 13791.00
353.3720, 14327.00
354.5760, 14458.18
355.7800, 14583.00
356.9840, 14867.00
358.1870, 14866.00
359.3910, 15121.00
360.5940, 14842.00
361.7970, 14865.00
363.0000, 14946.00
364.2030, 14729.00
365.4050, 14624.00
366.6080, 15119.00
367.8100, 14805.50
369.0120, 14638.57
370.2140, 14609.00
371.4150, 14045.00
372.6170, 13830.00
373.8180, 13772.00
375.0190, 13626.00
376.2200, 13723.00
377.4210, 13444.00
378.6220, 13537.00
379.8220, 13355.00
381.0230, 13315.72
382.2230, 13271.04
383.4230, 13268.00
384.6220, 13085.00
385.8220, 13091.00
387.0220, 12889.00
388.2210, 12626.00
389.4200, 12546.85
390.6190, 12390.31
391.8180, 12245.00
393.0160, 12153.00
394.2150, 12027.00
395.4130, 11924.20
396.6110, 11806.31
397.8090, 11696.17
399.0060, 11596.48
400.2040, 11418.00
401.4010, 11371.00
402.5980, 11271.00
403.7950, 11323.00
404.9920, 11265.00
406.1890, 11314.00
407.3860, 11454.00
408.5820, 11581.00
409.7780, 11771.00
410.9740, 11963.00
412.1700, 12148.06
413.3650, 12354.00
414.5610, 12538.00
415.7560, 12745.00
416.9510, 12892.00
418.1460, 13382.00
419.3410, 13192.00
420.5360, 13649.00
421.7300, 13342.46
422.9240, 12888.00
424.1180, 12753.00
425.3120, 12701.00
426.5060, 12487.00
427.7000, 12336.00
428.8930, 12095.00
430.0860, 12022.00
431.2790, 11791.00
432.4720, 11601.00
433.6650, 11384.00
434.8580, 11228.00
436.0500, 11086.00
437.2420, 10964.00
438.4340, 10832.00
439.6260, 10687.00
440.8180, 10953.00
442.0090, 10686.00
443.2010, 10985.00
444.3920, 10699.00
445.5830, 10091.00
446.7740, 10203.72
447.9640, 10048.00
449.1550, 9882.000
450.3450, 9983.000
451.5350, 9801.000
452.7250, 9828.000
453.9150, 9815.000
455.1050, 9949.000
456.2940, 9901.000
457.4830, 9947.000
458.6720, 10039.00
459.8610, 10060.00
461.0500, 10107.80
462.2390, 10166.00
463.4270, 10149.00
464.6150, 10158.00
465.8040, 10131.00
466.9910, 10072.00
468.1790, 10063.00
469.3670, 10117.00
470.5540, 10065.00
471.7410, 10122.00
472.9280, 10164.00
474.1150, 10186.00
475.3020, 10119.19
476.4890, 10051.50
477.6750, 9968.000
478.8610, 9865.000
480.0470, 9863.000
481.2330, 9888.000
482.4190, 9823.000
483.6040, 9891.000
484.7900, 9965.000
485.9750, 10021.00
487.1600, 10113.00
488.3450, 10272.00
489.5290, 10263.13
490.7140, 10516.00
491.8980, 10286.00
493.0820, 10497.00
494.2660, 10509.00
495.4500, 10653.00
496.6340, 10698.00
497.8170, 10802.00
499.0010, 10894.00
500.1840, 11124.00
501.3670, 11226.00
502.5500, 11286.21
503.7320, 11359.00
504.9150, 11413.00
506.0970, 11760.00
507.2790, 11961.00
508.4610, 11898.82
509.6430, 12152.00
510.8250, 11820.00
512.0060, 11916.00
513.1870, 12023.00
514.3680, 12046.35
515.5490, 12151.38
516.7300, 12357.00
517.9110, 12370.00
519.0910, 12489.00
520.2710, 12738.00
521.4510, 13033.00
522.6310, 13204.00
523.8110, 13483.48
524.9910, 13763.00
526.1700, 14054.00
527.3490, 14393.00
528.5280, 14850.00
529.7070, 15402.00
530.8860, 15809.00
532.0650, 16280.00
533.2430, 16573.00
534.4210, 16897.00
535.5990, 17331.00
536.7770, 17451.30
537.9550, 17637.00
539.1320, 17603.00
540.3100, 17710.00
541.4870, 17484.00
542.6640, 17314.00
543.8410, 16870.00
545.0170, 16815.00
546.1940, 16361.00
547.3700, 16050.00
548.5470, 16188.00
549.7230, 15606.00
550.8980, 15129.00
552.0740, 15031.00
553.2500, 14782.00
554.4250, 14623.00
555.6000, 14555.00
556.7750, 14354.00
557.9500, 14237.00
559.1250, 14076.00
560.2990, 14024.65
561.4730, 13920.92
562.6480, 13921.00
563.8220, 13838.00
564.9950, 13694.00
566.1690, 13771.00
567.3430, 13742.00
568.5160, 13480.00
569.6890, 13740.00
570.8620, 13573.00
572.0350, 13678.00
573.2070, 13560.00
574.3800, 13388.00
575.5520, 13202.00
576.7240, 12984.00
577.8960, 12729.23
579.0680, 12487.00
580.2400, 12136.00
581.4110, 11741.44
582.5830, 11363.90
583.7540, 11019.16
584.9250, 10687.04
586.0950, 10351.00
587.2660, 10114.00
588.4370, 9843.000
589.6070, 9654.000
590.7770, 9530.484
591.9470, 9408.480
593.1170, 9378.000
594.2860, 9306.000
595.4560, 9272.000
596.6250, 9269.000
597.7940, 9152.000
598.9630, 9213.000
600.1320, 9093.000
601.3000, 9109.000
602.4690, 9078.000
603.6370, 9078.000
604.8050, 9093.000
605.9730, 9105.000
607.1410, 9105.499
608.3090, 9016.000
609.4760, 9111.000
610.6430, 8929.000
611.8100, 8917.000
612.9770, 8920.000
614.1440, 9084.000
615.3110, 9015.037
616.4770, 9029.758
617.6430, 9051.000
618.8090, 8910.000
619.9750, 9052.000
621.1410, 8908.000
622.3070, 9012.000
623.4720, 9052.000
624.6370, 9000.000
625.8020, 9098.000
626.9670, 9024.000
628.1320, 9039.000
629.2970, 9164.000
630.4610, 9202.000
631.6250, 9110.000
632.7890, 9258.000
633.9530, 9099.000
635.1170, 9182.000
636.2810, 9314.000
637.4440, 9408.000
638.6070, 9470.000
639.7700, 9472.000
640.9330, 9376.000
642.0960, 9597.000
643.2590, 9476.000
644.4210, 9564.000
645.5830, 9681.000
646.7450, 9694.000
647.9070, 9765.000
649.0690, 9781.000
650.2310, 9923.000
651.3920, 10086.00
652.5530, 10096.70
653.7140, 10173.00
654.8750, 10261.00
656.0360, 10315.00
657.1970, 10562.00
658.3570, 10635.00
659.5170, 10847.00
660.6770, 11163.00
661.8370, 11360.00
662.9970, 11873.00
664.1570, 12214.00
665.3160, 12785.00
666.4750, 13227.00
667.6340, 14009.00
668.7930, 14824.00
669.9520, 15644.00
671.1110, 16748.00
672.2690, 17908.00
673.4270, 20082.00
674.5850, 21287.00
675.7430, 22674.00
676.9010, 21180.00
678.0590, 20402.00
679.2160, 19349.00
680.3730, 18199.00
681.5300, 16970.00
682.6870, 15521.00
683.8440, 14602.00
685.0010, 13717.00
686.1570, 13017.00
687.3130, 12467.00
688.4690, 11944.00
689.6250, 11573.79
690.7810, 11376.00
691.9370, 11047.00
693.0920, 10930.00
694.2470, 10784.00
695.4020, 10856.23
696.5570, 10730.84
697.7120, 10677.60
698.8670, 10617.00
700.0210, 10569.00
701.1750, 10490.00
702.3290, 10500.00
703.4830, 10348.49
704.6370, 10476.51
705.7910, 10542.81
706.9440, 10550.71
708.0970, 10325.30
709.2510, 10401.16
710.4030, 10356.30
711.5560, 10306.48
712.7090, 10424.76
713.8610, 10233.29
715.0140, 10348.90
716.1660, 10341.94
717.3180, 10391.08
718.4690, 10318.75
719.6210, 10283.92
720.7730, 10370.63
721.9240, 10236.00
723.0750, 10247.00
724.2260, 10283.00
725.3770, 10157.00
726.5270, 10214.00
727.6780, 10167.00
728.8280, 10221.00
729.9780, 10095.00
731.1280, 10061.00
732.2780, 10070.15
733.4280, 10058.04
734.5770, 10088.00
735.7260, 10114.00
736.8760, 10162.00
738.0250, 10151.00
739.1730, 10133.82
740.3220, 10164.00
741.4700, 10090.82
742.6190, 10011.00
743.7670, 10065.00
744.9150, 9907.000
746.0630, 9685.000
747.2100, 9840.000
748.3580, 9617.000
749.5050, 9702.000
750.6520, 9412.484
751.7990, 9537.006
752.9460, 9599.809
754.0930, 9604.209
755.2390, 9375.302
756.3860, 9447.668
757.5320, 9399.307
758.6780, 9345.993
759.8240, 9460.779
760.9690, 9265.822
762.1150, 9377.943
763.2600, 9367.492
764.4060, 9413.132
765.5510, 9337.298
766.6950, 9299.002
767.8400, 9289.000
768.9850, 9154.335
770.1290, 9288.826
771.2730, 9361.600
772.4170, 9375.972
773.5610, 9157.020
774.7050, 9239.356
775.8480, 9200.955
776.9920, 9157.599
778.1350, 9282.346
779.2780, 9097.336
780.4210, 9219.417
781.5640, 9218.913
782.7060, 9274.520
783.8490, 9208.632
784.9910, 9180.273
786.1330, 9273.442
787.2750, 9299.320
788.4170, 9219.453
789.5580, 9278.631
790.7000, 9089.383
791.8410, 9118.133
792.9820, 9240.938
794.1230, 9167.184
795.2640, 9228.583
796.4040, 9238.515
797.5450, 9144.000
798.6850, 9138.000
799.8250, 9139.000
800.9650, 9163.000
802.1050, 9106.000
803.2450, 9114.170
804.3840, 9127.914
805.5230, 9067.000
806.6630, 9104.000
807.8020, 9053.000
808.9400, 9051.457
810.0790, 9019.000
811.2170, 9012.000
812.3560, 8947.000
813.4940, 8865.000
814.6320, 8950.000
815.7700, 8832.000
816.9070, 8820.000
818.0450, 8817.000
819.1820, 8871.000
820.3190, 8794.000
821.4560, 8826.000
822.5930, 8770.000
823.7300, 8805.080
824.8670, 8795.952
826.0030, 8804.516
827.1390, 8800.000
828.2750, 8853.000
829.4110, 8863.000
830.5470, 8908.000
831.6820, 8904.000
832.8180, 8883.000
833.9530, 9077.000
835.0880, 9054.000
836.2230, 9118.000
837.3580, 9006.048
838.4920, 9177.040
839.6270, 9286.340
840.7610, 9337.210
841.8950, 9154.759
843.0290, 9273.595
844.1630, 9271.688
845.2960, 9264.805
846.4300, 9426.045
847.5630, 9277.502
848.6960, 9436.051
849.8290, 9472.015
850.9620, 9564.082
852.0940, 9534.636
853.2270, 9542.739
854.3590, 9672.344
855.4910, 9584.000
856.6230, 9636.883
857.7550, 9642.000
858.8870, 9736.000
860.0180, 9800.000
861.1500, 9810.000
862.2810, 9988.000
863.4120, 9935.000
864.5430, 9952.000
865.6730, 10100.00
866.8040, 10325.00
867.9340, 10320.00
869.0640, 10563.00
870.1940, 10643.00
871.3240, 10724.00
872.4540, 10995.00
873.5830, 11139.36
874.7130, 11265.53
875.8420, 11565.00
876.9710, 11479.00
878.1000, 11622.00
879.2290, 11655.00
880.3570, 11855.00
881.4860, 11985.00
882.6140, 12089.00
883.7420, 12278.00
884.8700, 12278.00
885.9980, 12386.00
887.1250, 12472.00
888.2530, 12439.00
889.3800, 12560.00
890.5070, 13215.00
891.6340, 12659.00
892.7610, 13283.00
893.8880, 12783.00
895.0140, 12657.00
896.1400, 12668.00
897.2670, 12563.14
898.3930, 12614.50
899.5180, 12713.00
900.6440, 12758.00
901.7700, 12838.00
902.8950, 12965.00
904.0200, 12875.86
905.1450, 13048.00
906.2700, 12761.00
907.3950, 12827.00
908.5190, 12885.00
909.6440, 12811.00
910.7680, 12770.00
911.8920, 12924.00
913.0160, 12815.00
914.1400, 12899.00
915.2630, 12949.00
916.3870, 12885.00
917.5100, 12982.00
918.6330, 12972.00
919.7560, 12754.00
920.8790, 12730.00
922.0010, 12726.00
923.1240, 12833.00
924.2460, 12762.07
925.3680, 12832.00
926.4900, 12638.00
927.6120, 12715.00
928.7340, 12532.00
929.8550, 12587.00
930.9760, 12730.00
932.0980, 12565.83
933.2190, 12575.00
934.3390, 12472.00
935.4600, 12465.00
936.5810, 12566.00
937.7010, 12575.00
938.8210, 12701.00
939.9410, 12914.00
941.0610, 12753.00
942.1810, 13089.00
943.3010, 12940.00
944.4200, 12990.00
945.5390, 13099.48
946.6580, 13380.38
947.7770, 13599.54
948.8960, 13760.31
950.0150, 13687.76
951.1330, 13916.37
952.2510, 14024.23
953.3690, 14127.15
954.4870, 14398.16
955.6050, 14359.41
956.7230, 14627.76
957.8400, 14800.00
958.9580, 14981.00
960.0750, 15181.00
961.1920, 15171.00
962.3090, 15522.40
963.4250, 16061.00
964.5420, 16109.00
965.6580, 16372.00
966.7740, 16637.00
967.8900, 16895.00
969.0060, 17528.00
970.1220, 17871.00
971.2380, 18268.00
972.3530, 18587.00
973.4680, 19263.00
974.5830, 19343.00
975.6980, 19538.00
976.8130, 20008.00
977.9280, 20092.00
979.0420, 20247.00
980.1560, 20268.77
981.2710, 20289.00
982.3850, 19960.00
983.4980, 19843.00
984.6120, 19404.00
985.7260, 19022.13
986.8390, 18690.00
987.9520, 18105.00
989.0650, 17852.00
990.1780, 17434.00
991.2910, 17095.00
992.4030, 16768.44
993.5160, 16359.23
994.6280, 16148.00
995.7400, 15659.00
996.8520, 15467.00
997.9640, 15292.00
999.0750, 14840.00
1000.187, 14877.00
1001.298, 14590.00
1002.409, 14537.00
1003.520, 14251.00
1004.631, 15089.00
1005.741, 14474.00
1006.852, 14090.00
1007.962, 14828.00
1009.072, 14093.00
1010.182, 14155.00
1011.292, 13966.00
1012.402, 13975.00
1013.511, 14083.00
1014.621, 14355.00
1015.730, 13788.00
1016.839, 13685.00
1017.948, 13895.00
1019.056, 13815.00
1020.165, 13804.00
1021.273, 13560.00
1022.382, 13650.00
1023.490, 13514.00
1024.598, 13511.00
1025.706, 13458.00
1026.813, 13443.00
1027.921, 13249.00
1029.028, 13192.00
1030.135, 13142.00
1031.242, 13078.00
1032.349, 13041.00
1033.456, 13018.00
1034.562, 13118.00
1035.668, 12981.00
1036.775, 13018.00
1037.881, 13277.00
1038.987, 13502.30
1040.092, 13515.11
1041.198, 13490.66
1042.303, 13567.00
1043.408, 13301.00
1044.514, 13227.00
1045.618, 13357.00
1046.723, 13225.81
1047.828, 13520.00
1048.932, 13227.00
1050.037, 13423.00
1051.141, 13438.00
1052.245, 13551.00
1053.349, 13579.00
1054.452, 13654.00
1055.556, 13697.33
1056.659, 13719.00
1057.762, 13836.00
1058.865, 13797.00
1059.968, 14010.00
1061.071, 14103.00
1062.174, 14072.00
1063.276, 14191.52
1064.378, 14352.44
1065.480, 14451.63
1066.582, 14492.42
1067.684, 14299.89
1068.786, 14408.65
1069.887, 14396.65
1070.988, 14379.69
1072.090, 14530.86
1073.191, 14372.24
1074.291, 14520.70
1075.392, 14246.00
1076.493, 14083.00
1077.593, 14092.00
1078.693, 14004.00
1079.793, 13843.00
1080.893, 13855.00
1081.993, 13645.00
1083.092, 13638.00
1084.192, 13667.00
1085.291, 13700.00
1086.390, 13626.00
1087.489, 13815.00
1088.588, 13676.00
1089.686, 13700.00
1090.785, 13781.00
1091.883, 13884.00
1092.981, 14027.00
1094.079, 14186.00
1095.177, 14052.00
1096.275, 14229.00
1097.373, 14187.00
1098.470, 14329.00
1099.567, 14255.00
1100.664, 14358.00
1101.761, 14238.00
1102.858, 14347.00
1103.954, 14453.00
1105.051, 14475.48
1106.147, 14527.88
1107.243, 14611.00
1108.339, 14551.00
1109.435, 14525.00
1110.531, 14524.00
1111.626, 14427.00
1112.722, 14445.00
1113.817, 14581.00
1114.912, 14540.00
1116.007, 14310.00
1117.101, 14312.00
1118.196, 14453.00
1119.290, 14354.00
1120.385, 14419.66
1121.479, 14402.04
1122.573, 14435.00
1123.666, 14306.00
1124.760, 14276.00
1125.853, 14135.00
1126.947, 14046.00
1128.040, 13982.00
1129.133, 13868.00
1130.226, 13672.00
1131.318, 13537.00
1132.411, 13391.00
1133.503, 13414.00
1134.596, 13190.00
1135.688, 13013.00
1136.780, 13176.00
1137.871, 12950.00
1138.963, 12771.00
1140.054, 12805.00
1141.146, 12689.00
1142.237, 12736.00
1143.328, 12653.00
1144.419, 12543.00
1145.509, 12472.62
1146.600, 12375.09
1147.690, 12224.00
1148.780, 12158.00
1149.870, 12029.00
1150.960, 11839.00
1152.050, 11740.00
1153.139, 11593.00
1154.229, 11420.00
1155.318, 11262.00
1156.407, 11112.00
1157.496, 10917.00
1158.585, 10819.00
1159.674, 10615.00
1160.762, 10415.00
1161.850, 10270.00
1162.939, 10095.85
1164.027, 9941.000
1165.114, 9818.470
1166.202, 9808.000
1167.290, 9726.000
1168.377, 9713.000
1169.464, 9642.113
1170.551, 9585.000
1171.638, 9527.000
1172.725, 9551.000
1173.812, 9545.000
1174.898, 9518.000
1175.984, 9306.000
1177.071, 9395.000
1178.157, 9297.000
1179.242, 9436.000
1180.328, 9411.000
1181.414, 9397.871
1182.499, 9428.000
1183.584, 9404.000
1184.669, 9290.000
1185.754, 9358.000
1186.839, 9317.000
1187.924, 9172.000
1189.008, 9209.000
1190.092, 9218.000
1191.177, 9125.906
1192.260, 9262.076
1193.344, 9336.523
1194.428, 9352.568
1195.512, 9135.290
1196.595, 9219.305
1197.678, 9182.577
1198.761, 9140.897
1199.844, 9267.317
1200.927, 9083.980
1202.009, 9207.738
1203.092, 9208.907
1204.174, 9266.186
1205.256, 9201.975
1206.338, 9175.287
1207.420, 9270.128
1208.502, 9297.678
1209.583, 9219.486
1210.665, 9280.330
1211.746, 9092.758
1212.827, 9123.179
1213.908, 9247.653
1214.988, 9171.000
1216.069, 9058.000
1217.149, 9128.000
1218.230, 9048.000
1219.310, 9170.000
1220.390, 9169.000
1221.470, 9192.000
1222.549, 9197.752
1223.629, 9031.000
1224.708, 9159.000
1225.787, 9131.000
1226.866, 9137.670
1227.945, 9219.000
1229.024, 9117.000
1230.103, 8996.000
1231.181, 9064.000
1232.259, 9261.000
1233.337, 9000.000
1234.415, 9123.000
1235.493, 9147.000
1236.571, 9020.000
1237.648, 9038.000
1238.726, 9011.000
1239.803, 9133.000
1240.880, 9078.000
1241.957, 9136.000
1243.034, 9045.000
1244.110, 9093.000
1245.187, 9039.000
1246.263, 9067.000
1247.339, 9110.000
1248.415, 9118.000
1249.491, 9077.000
1250.566, 9081.000
1251.642, 8939.000
1252.717, 8877.000
1253.793, 8859.000
1254.868, 8863.000
1255.943, 8884.255
1257.017, 8912.043
1258.092, 8985.000
1259.166, 9021.000
1260.241, 9076.000
1261.315, 9174.000
1262.389, 9171.000
1263.462, 9064.000
1264.536, 9066.000
1265.610, 9167.000
1266.683, 9097.000
1267.756, 9212.000
1268.829, 9199.000
1269.902, 9239.000
1270.975, 9094.000
1272.048, 9163.000
1273.120, 9148.000
1274.192, 9186.000
1275.264, 9127.000
1276.336, 9180.000
1277.408, 9272.000
1278.480, 9009.000
1279.551, 8987.000
1280.623, 9153.000
1281.694, 9134.000
1282.765, 9145.000
1283.836, 9040.000
1284.907, 9013.000
1285.977, 8902.000
1287.048, 8918.000
1288.118, 8857.000
1289.188, 8943.000
1290.258, 8959.000
1291.328, 8918.000
1292.398, 9078.000
1293.467, 8937.000
1294.537, 9206.000
1295.606, 9094.000
1296.675, 9302.000
1297.744, 9146.000
1298.813, 9171.000
1299.882, 9141.000
1300.950, 9202.000
1302.018, 9185.000
1303.086, 9088.000
1304.155, 9152.000
1305.222, 9156.000
1306.290, 9233.000
1307.358, 9208.000
1308.425, 9216.696
1309.492, 9121.000
1310.559, 9174.000
1311.626, 9203.000
1312.693, 9151.000
1313.760, 9209.000
1314.826, 9268.000
1315.893, 9104.000
1316.959, 9078.000
1318.025, 9178.000
1319.091, 9103.000
1320.157, 9157.000
1321.222, 9239.000
