##NAMES=Arfvedsonite
##RRUFFID=R040127
##IDEAL CHEMISTRY=NaNa_2_(Fe^2+^_4_Fe^3+^)Si_8_O_22_(OH)_2_
##LOCALITY=Mont Saint-Hilaire, Rouville County, Quebec, Canada
##OWNER=RRUFF
##SOURCE=Bob Downs
##DESCRIPTION=Black prismatic crystal associated with white analcime, R040128
##STATUS=The identification of this mineral has been confirmed by X-ray diffraction and chemical analysis
##URL=rruff.info/R040127
##MEASURED CHEMISTRY=(Na_0.61_K_0.39_)Na_2.00_(Fe^2+^_2.40_Mg_0.80_Mn_0.75_Ca_0.05_)_&#931;=4_(Fe^3+^_0.60_Al_0.25_Mn_0.15_)(Si_0.99_Ti_0.01_)_8_O_22_((OH)_0.67_F_0.33_)_2_
##PIN_ID=M00441
##ORIENTATION=Laser parallel to a* (1 0 0). Fiducial mark perpendicular to laser is parallel to -b [0 -1 0]
160.9250, 25662.00
162.1560, 26316.00
163.3880, 26967.00
164.6200, 27202.40
165.8510, 27551.05
167.0820, 27571.00
168.3130, 27721.00
169.5440, 27502.00
170.7750, 27252.92
172.0050, 27150.00
173.2350, 26716.00
174.4650, 26493.00
175.6950, 26291.00
176.9250, 25988.00
178.1550, 26182.00
179.3840, 26417.00
180.6130, 26401.00
181.8420, 26323.00
183.0710, 26895.00
184.3000, 27281.80
185.5280, 27877.00
186.7570, 28455.00
187.9850, 29042.00
189.2130, 29622.55
190.4400, 30181.53
191.6680, 30719.00
192.8960, 31349.00
194.1230, 31772.00
195.3500, 32463.00
196.5770, 32969.00
197.8030, 33059.00
199.0300, 33284.00
200.2560, 33719.00
201.4830, 34368.00
202.7090, 34315.00
203.9340, 32905.00
205.1600, 30371.00
206.3860, 28861.00
207.6110, 27692.00
208.8360, 27090.00
210.0610, 26652.00
211.2860, 26281.00
212.5100, 25789.00
213.7350, 25460.58
214.9590, 25098.00
216.1830, 24775.00
217.4070, 24405.00
218.6310, 24071.57
219.8540, 23740.00
221.0780, 23655.00
222.3010, 23401.00
223.5240, 23376.00
224.7470, 23132.00
225.9690, 22822.00
227.1920, 22682.00
228.4140, 22784.00
229.6360, 22548.00
230.8580, 22614.00
232.0800, 22438.00
233.3020, 22339.00
234.5230, 22376.00
235.7440, 22451.00
236.9650, 22421.00
238.1860, 22424.44
239.4070, 22357.54
240.6280, 22327.00
241.8480, 22215.00
243.0680, 22087.00
244.2880, 22111.00
245.5080, 22064.00
246.7280, 22007.60
247.9470, 22057.00
249.1660, 21886.65
250.3860, 21975.92
251.6040, 21997.88
252.8230, 21956.01
254.0420, 21659.31
255.2600, 21691.72
256.4790, 21592.21
257.6970, 21487.34
258.9150, 21566.06
260.1320, 21306.54
261.3500, 21382.34
262.5670, 21324.32
263.7840, 21327.57
265.0010, 21198.14
266.2180, 21109.70
267.4350, 20866.00
268.6510, 20594.00
269.8680, 20483.00
271.0840, 20558.00
272.3000, 20203.00
273.5160, 20344.00
274.7310, 20148.00
275.9470, 20173.00
277.1620, 20300.00
278.3770, 20001.00
279.5920, 19935.00
280.8070, 19847.00
282.0210, 19851.00
283.2360, 19809.00
284.4500, 19756.04
285.6640, 19921.00
286.8780, 19744.00
288.0920, 19764.00
289.3050, 19937.00
290.5180, 20252.00
291.7320, 20108.00
292.9450, 20419.00
294.1570, 20197.00
295.3700, 20180.00
296.5830, 20279.00
297.7950, 20421.00
299.0070, 20479.02
300.2190, 20679.00
301.4310, 20740.00
302.6420, 20903.00
303.8540, 21137.00
305.0650, 21332.00
306.2760, 21565.00
307.4870, 21823.00
308.6980, 21606.00
309.9080, 21887.00
311.1190, 21900.00
312.3290, 22185.00
313.5390, 22024.00
314.7490, 22192.00
315.9580, 22170.00
317.1680, 22327.00
318.3770, 22238.00
319.5860, 21872.00
320.7950, 22088.00
322.0040, 21752.73
323.2130, 21723.00
324.4210, 21398.00
325.6290, 21269.00
326.8380, 21231.00
328.0460, 21237.00
329.2530, 21114.00
330.4610, 21201.00
331.6680, 21132.00
332.8760, 20995.00
334.0830, 21082.00
335.2890, 21272.00
336.4960, 21440.00
337.7030, 21738.00
338.9090, 22278.00
340.1150, 22979.00
341.3210, 23501.00
342.5270, 23258.00
343.7330, 23324.00
344.9380, 23646.00
346.1440, 24005.31
347.3490, 24407.29
348.5540, 25041.00
349.7590, 25482.00
350.9630, 25660.00
352.1680, 26281.00
353.3720, 26247.00
354.5760, 26581.00
355.7800, 26417.00
356.9840, 26490.00
358.1870, 26348.00
359.3910, 26052.00
360.5940, 25886.00
361.7970, 25640.30
363.0000, 25324.00
364.2030, 25159.00
365.4050, 24923.00
366.6080, 24691.00
367.8100, 24033.00
369.0120, 24060.45
370.2140, 24020.50
371.4150, 23916.88
372.6170, 23558.33
373.8180, 23528.93
375.0190, 23367.66
376.2200, 23200.99
377.4210, 23217.90
378.6220, 22896.52
379.8220, 22910.63
381.0230, 22790.75
382.2230, 22732.25
383.4230, 22541.07
384.6220, 22390.98
385.8220, 22373.50
387.0220, 22282.54
388.2210, 22076.19
389.4200, 22021.69
390.6190, 21540.00
391.8180, 21484.00
393.0160, 21319.00
394.2150, 21180.64
395.4130, 21145.00
396.6110, 21041.00
397.8090, 20875.59
399.0060, 20644.00
400.2040, 20498.00
401.4010, 20467.00
402.5980, 20222.00
403.7950, 20374.00
404.9920, 20149.00
406.1890, 20182.29
407.3860, 20176.29
408.5820, 20247.00
409.7780, 20206.00
410.9740, 20325.00
412.1700, 20450.00
413.3650, 20233.00
414.5610, 20309.00
415.7560, 20434.00
416.9510, 20509.00
418.1460, 20442.00
419.3410, 20260.00
420.5360, 20311.00
421.7300, 20186.00
422.9240, 20093.00
424.1180, 20102.00
425.3120, 19802.00
426.5060, 20193.00
427.7000, 20168.72
428.8930, 19834.00
430.0860, 20385.00
431.2790, 19437.00
432.4720, 19215.00
433.6650, 18933.00
434.8580, 19003.00
436.0500, 18932.00
437.2420, 18669.00
438.4340, 18620.00
439.6260, 18284.00
440.8180, 18435.00
442.0090, 18180.00
443.2010, 18127.00
444.3920, 17790.00
445.5830, 17554.00
446.7740, 17532.00
447.9640, 17376.00
449.1550, 17374.00
450.3450, 17106.00
451.5350, 17085.00
452.7250, 17060.00
453.9150, 16995.00
455.1050, 17170.54
456.2940, 17060.06
457.4830, 17038.23
458.6720, 17010.00
459.8610, 16881.00
461.0500, 16915.00
462.2390, 16819.00
463.4270, 16882.49
464.6150, 17028.00
465.8040, 17057.00
466.9910, 17103.00
468.1790, 17247.00
469.3670, 17304.00
470.5540, 17114.00
471.7410, 17205.00
472.9280, 17089.00
474.1150, 17307.00
475.3020, 17273.01
476.4890, 17256.34
477.6750, 17383.00
478.8610, 17227.00
480.0470, 17369.00
481.2330, 17427.00
482.4190, 17468.00
483.6040, 17505.00
484.7900, 17626.00
485.9750, 17587.00
487.1600, 17916.00
488.3450, 18021.00
489.5290, 18173.00
490.7140, 18122.00
491.8980, 18512.00
493.0820, 18618.00
494.2660, 18835.00
495.4500, 18770.00
496.6340, 18991.00
497.8170, 19234.00
499.0010, 19606.00
500.1840, 19671.00
501.3670, 19915.87
502.5500, 20290.00
503.7320, 20206.00
504.9150, 20567.00
506.0970, 20673.00
507.2790, 20858.09
508.4610, 21306.00
509.6430, 21172.00
510.8250, 21547.00
512.0060, 21461.00
513.1870, 21665.00
514.3680, 21971.00
515.5490, 22366.00
516.7300, 22714.98
517.9110, 22891.00
519.0910, 23429.00
520.2710, 24035.00
521.4510, 24132.00
522.6310, 24888.00
523.8110, 25498.00
524.9910, 26079.00
526.1700, 26846.00
527.3490, 27260.00
528.5280, 28068.00
529.7070, 28778.00
530.8860, 29274.00
532.0650, 29978.00
533.2430, 30373.00
534.4210, 30592.00
535.5990, 30840.00
536.7770, 30721.00
537.9550, 30762.00
539.1320, 30741.00
540.3100, 30520.00
541.4870, 30548.00
542.6640, 30062.00
543.8410, 29468.00
545.0170, 29231.00
546.1940, 28660.00
547.3700, 28378.00
548.5470, 27932.00
549.7230, 27600.00
550.8980, 27212.00
552.0740, 26978.00
553.2500, 26673.00
554.4250, 26478.12
555.6000, 26301.57
556.7750, 26157.00
557.9500, 26065.00
559.1250, 25929.00
560.2990, 25918.00
561.4730, 25725.00
562.6480, 25671.00
563.8220, 25308.00
564.9950, 25264.00
566.1690, 25683.00
567.3430, 25135.00
568.5160, 25088.00
569.6890, 24526.00
570.8620, 24513.00
572.0350, 24453.00
573.2070, 24230.00
574.3800, 23771.00
575.5520, 23519.00
576.7240, 23199.00
577.8960, 22647.00
579.0680, 22394.00
580.2400, 22003.00
581.4110, 21563.00
582.5830, 21209.00
583.7540, 20852.00
584.9250, 20770.00
586.0950, 20504.00
587.2660, 20306.00
588.4370, 19893.00
589.6070, 19785.00
590.7770, 19733.00
591.9470, 19472.00
593.1170, 19339.46
594.2860, 19439.99
595.4560, 19473.08
596.6250, 19442.43
597.7940, 19156.96
598.9630, 19200.54
600.1320, 19112.25
601.3000, 19018.60
602.4690, 19108.49
603.6370, 18860.13
604.8050, 18947.15
605.9730, 18900.30
607.1410, 18914.71
608.3090, 18796.45
609.4760, 18719.21
610.6430, 18774.70
611.8100, 18756.70
612.9770, 18623.21
614.1440, 18641.56
615.3110, 18388.62
616.4770, 18373.79
617.6430, 18461.68
618.8090, 18334.90
619.9750, 18355.73
621.1410, 18320.35
622.3070, 18029.48
623.4720, 18131.00
624.6370, 18075.00
625.8020, 18086.74
626.9670, 18045.00
628.1320, 18050.00
629.2970, 18074.00
630.4610, 18072.74
631.6250, 18103.00
632.7890, 18114.00
633.9530, 18159.00
635.1170, 18190.37
636.2810, 18282.00
637.4440, 18284.00
638.6070, 18389.00
639.7700, 18470.00
640.9330, 18524.20
642.0960, 18774.00
643.2590, 18700.00
644.4210, 18818.43
645.5830, 18973.00
646.7450, 18932.00
647.9070, 19028.00
649.0690, 19216.00
650.2310, 19283.00
651.3920, 19624.00
652.5530, 19663.00
653.7140, 19938.00
654.8750, 20802.00
656.0360, 21666.00
657.1970, 21553.00
658.3570, 21965.00
659.5170, 21575.00
660.6770, 22177.00
661.8370, 23400.00
662.9970, 24113.00
664.1570, 24425.00
665.3160, 25967.00
666.4750, 26614.00
667.6340, 27666.00
668.7930, 28990.00
669.9520, 30105.00
671.1110, 31007.00
672.2690, 31844.00
673.4270, 32578.00
674.5850, 33100.00
675.7430, 32845.00
676.9010, 32686.00
678.0590, 31786.00
679.2160, 30549.00
680.3730, 29557.00
681.5300, 27877.00
682.6870, 26652.00
683.8440, 25152.00
685.0010, 24347.00
686.1570, 23648.00
687.3130, 23051.00
688.4690, 22544.00
689.6250, 22171.00
690.7810, 21837.00
691.9370, 21847.00
693.0920, 21645.00
694.2470, 21774.00
695.4020, 21698.41
696.5570, 21327.00
697.7120, 21601.00
698.8670, 21819.00
700.0210, 21614.00
701.1750, 21552.00
702.3290, 21838.00
703.4830, 21923.00
704.6370, 21792.00
705.7910, 21841.00
706.9440, 21900.00
708.0970, 22079.00
709.2510, 22153.00
710.4030, 21875.00
711.5560, 22077.00
712.7090, 22034.00
713.8610, 22192.00
715.0140, 22073.00
716.1660, 22230.23
717.3180, 22556.66
718.4690, 22489.00
719.6210, 22476.77
720.7730, 22384.24
721.9240, 22164.00
723.0750, 21998.00
724.2260, 21789.00
725.3770, 21653.00
726.5270, 21651.23
727.6780, 21516.53
728.8280, 21622.00
729.9780, 21473.00
731.1280, 21221.00
732.2780, 21349.00
733.4280, 20990.15
734.5770, 20936.72
735.7260, 20561.00
736.8760, 20627.00
738.0250, 20661.00
739.1730, 20413.00
740.3220, 20270.00
741.4700, 20049.00
742.6190, 19888.00
743.7670, 19963.00
744.9150, 19641.00
746.0630, 19667.00
747.2100, 19411.00
748.3580, 19193.00
749.5050, 19043.00
750.6520, 19047.00
751.7990, 18971.00
752.9460, 18749.00
754.0930, 18865.00
755.2390, 18540.00
756.3860, 18629.00
757.5320, 18650.00
758.6780, 18339.00
759.8240, 18355.00
760.9690, 18484.00
762.1150, 18244.00
763.2600, 18346.00
764.4060, 18123.00
765.5510, 18048.00
766.6950, 18211.00
767.8400, 18015.00
768.9850, 18231.00
770.1290, 18082.65
771.2730, 18021.47
772.4170, 17852.00
773.5610, 17840.00
774.7050, 17708.00
775.8480, 17627.00
776.9920, 17562.00
778.1350, 17519.72
779.2780, 17613.00
780.4210, 17485.00
781.5640, 17587.00
782.7060, 17567.00
783.8490, 17563.00
784.9910, 17371.00
786.1330, 17409.00
787.2750, 17296.00
788.4170, 17208.00
789.5580, 17190.00
790.7000, 17259.00
791.8410, 16929.00
792.9820, 17072.00
794.1230, 16902.00
795.2640, 16863.00
796.4040, 16787.00
797.5450, 16933.00
798.6850, 16869.00
799.8250, 16723.00
800.9650, 16587.00
802.1050, 16491.00
803.2450, 16554.00
804.3840, 16285.10
805.5230, 16460.00
806.6630, 16002.00
807.8020, 16086.00
808.9400, 16300.00
810.0790, 16050.00
811.2170, 16032.00
812.3560, 16063.00
813.4940, 15949.00
814.6320, 15947.00
815.7700, 15809.92
816.9070, 15961.15
818.0450, 16044.97
819.1820, 16065.01
820.3190, 15830.23
821.4560, 15924.50
822.5930, 15886.91
823.7300, 15843.90
824.8670, 15984.48
826.0030, 15786.77
827.1390, 15924.44
828.2750, 15928.24
829.4110, 15890.00
830.5470, 15908.00
831.6820, 16111.00
832.8180, 16139.00
833.9530, 16071.00
835.0880, 16229.00
836.2230, 16151.00
837.3580, 16141.00
838.4920, 16383.00
839.6270, 16465.00
840.7610, 16850.00
841.8950, 16545.00
843.0290, 16404.00
844.1630, 16643.00
845.2960, 16695.00
846.4300, 16748.00
847.5630, 16758.00
848.6960, 16980.00
849.8290, 17110.00
850.9620, 17074.00
852.0940, 17382.00
853.2270, 17221.00
854.3590, 17504.00
855.4910, 17619.00
856.6230, 17730.00
857.7550, 17899.00
858.8870, 17884.00
860.0180, 18174.00
861.1500, 18267.00
862.2810, 18616.00
863.4120, 18593.00
864.5430, 18908.00
865.6730, 19169.00
866.8040, 19460.00
867.9340, 19821.00
869.0640, 19860.00
870.1940, 19958.00
871.3240, 20319.00
872.4540, 20654.00
873.5830, 20858.00
874.7130, 21067.00
875.8420, 21227.00
876.9710, 21513.00
878.1000, 21501.00
879.2290, 21880.00
880.3570, 21896.89
881.4860, 22241.00
882.6140, 22097.00
883.7420, 22349.00
884.8700, 22611.00
885.9980, 22603.00
887.1250, 22260.00
888.2530, 22333.00
889.3800, 22351.00
890.5070, 22443.00
891.6340, 22433.00
892.7610, 22360.00
893.8880, 22290.00
895.0140, 22116.00
896.1400, 22119.00
897.2670, 21809.00
898.3930, 21701.00
899.5180, 21850.00
900.6440, 21779.00
901.7700, 21571.00
902.8950, 21518.00
904.0200, 21414.00
905.1450, 21369.00
906.2700, 21207.00
907.3950, 21109.00
908.5190, 21058.20
909.6440, 20936.48
910.7680, 20946.00
911.8920, 20805.00
913.0160, 20724.00
914.1400, 20745.00
915.2630, 20661.00
916.3870, 20700.00
917.5100, 20453.00
918.6330, 20606.00
919.7560, 20537.00
920.8790, 20443.00
922.0010, 20591.00
923.1240, 20429.42
924.2460, 20380.00
925.3680, 20373.00
926.4900, 20133.00
927.6120, 20352.00
928.7340, 20230.00
929.8550, 20170.00
930.9760, 20230.00
932.0980, 20116.00
933.2190, 20137.00
934.3390, 20316.00
935.4600, 20140.00
936.5810, 19961.00
937.7010, 20406.00
938.8210, 20131.00
939.9410, 20307.00
941.0610, 20290.00
942.1810, 20387.00
943.3010, 20575.00
944.4200, 20517.00
945.5390, 20885.00
946.6580, 20708.00
947.7770, 20903.00
948.8960, 20910.00
950.0150, 21035.00
951.1330, 21176.00
952.2510, 21361.00
953.3690, 21373.00
954.4870, 21707.00
955.6050, 21799.00
956.7230, 21818.00
957.8400, 22076.00
958.9580, 22417.00
960.0750, 22380.00
961.1920, 22798.00
962.3090, 22820.00
963.4250, 22930.00
964.5420, 23117.00
965.6580, 23341.79
966.7740, 23728.00
967.8900, 23939.00
969.0060, 24333.00
970.1220, 24646.00
971.2380, 24841.00
972.3530, 25134.49
973.4680, 25228.68
974.5830, 25511.00
975.6980, 25569.00
976.8130, 25606.00
977.9280, 26165.00
979.0420, 25980.00
980.1560, 26202.00
981.2710, 25881.00
982.3850, 26273.00
983.4980, 26127.00
984.6120, 26062.00
985.7260, 26175.00
986.8390, 26047.00
987.9520, 26120.00
989.0650, 25757.00
990.1780, 25795.00
991.2910, 25660.00
992.4030, 25586.00
993.5160, 25404.00
994.6280, 25491.00
995.7400, 25394.00
996.8520, 25203.00
997.9640, 25184.00
999.0750, 24859.00
1000.187, 24790.00
1001.298, 24723.00
1002.409, 24688.00
1003.520, 24658.00
1004.631, 24701.00
1005.741, 24579.00
1006.852, 24394.00
1007.962, 24467.00
1009.072, 24381.00
1010.182, 24501.00
1011.292, 24483.00
1012.402, 24553.00
1013.511, 24447.80
1014.621, 24564.38
1015.730, 24613.60
1016.839, 24599.03
1017.948, 24329.64
1019.056, 24389.33
1020.165, 24317.12
1021.273, 24239.54
1022.382, 24345.51
1023.490, 24113.22
1024.598, 24216.31
1025.706, 24185.52
1026.813, 24216.04
1027.921, 24113.85
1029.028, 24052.67
1030.135, 24124.21
1031.242, 23977.00
1032.349, 24107.00
1033.456, 23913.00
1034.562, 24195.00
1035.668, 24149.00
1036.775, 24156.00
1037.881, 24285.00
1038.987, 24335.00
1040.092, 24412.00
1041.198, 24437.00
1042.303, 24568.00
1043.408, 24788.00
1044.514, 24649.00
1045.618, 24712.00
1046.723, 24595.00
1047.828, 24718.00
1048.932, 24582.00
1050.037, 24849.00
1051.141, 24766.00
1052.245, 24673.00
1053.349, 24748.00
1054.452, 24705.15
1055.556, 24715.00
1056.659, 24764.00
1057.762, 24683.00
1058.865, 24734.00
1059.968, 24897.00
1061.071, 24776.00
1062.174, 25002.00
1063.276, 24818.00
1064.378, 24937.00
1065.480, 24732.00
1066.582, 25139.00
1067.684, 24983.00
1068.786, 25007.98
1069.887, 25111.82
1070.988, 25148.24
1072.090, 25120.84
1073.191, 24838.67
1074.291, 24885.58
1075.392, 24800.59
1076.493, 24710.18
1077.593, 24803.41
1078.693, 24883.00
1079.793, 24910.00
1080.893, 24675.00
1081.993, 24617.00
1083.092, 24595.00
1084.192, 24462.39
1085.291, 24569.00
1086.390, 24375.00
1087.489, 24450.00
1088.588, 24530.00
1089.686, 24476.00
1090.785, 24447.00
1091.883, 24497.00
1092.981, 24400.00
1094.079, 24428.42
1095.177, 24635.00
1096.275, 24433.00
1097.373, 24523.00
1098.470, 24553.00
1099.567, 24278.00
1100.664, 24342.00
1101.761, 24421.00
1102.858, 24196.00
1103.954, 24192.89
1105.051, 24079.18
1106.147, 23942.00
1107.243, 23792.00
1108.339, 23516.50
1109.435, 23534.30
1110.531, 23484.72
1111.626, 23371.48
1112.722, 23003.29
1113.817, 22964.27
1114.912, 22793.39
1116.007, 22617.10
1117.101, 22624.52
1118.196, 22293.51
1119.290, 22298.02
1120.385, 22168.53
1121.479, 22100.43
1122.573, 21899.66
1123.666, 21739.98
1124.760, 21712.91
1125.853, 21612.47
1126.947, 21396.42
1128.040, 21332.34
1129.133, 20996.96
1130.226, 20899.66
1131.318, 20905.19
1132.411, 20695.94
1133.503, 20634.40
1134.596, 20516.55
1135.688, 20143.33
1136.780, 20195.00
1137.871, 20011.00
1138.963, 20077.00
1140.054, 19691.00
1141.146, 19772.00
1142.237, 19883.00
1143.328, 19568.00
1144.419, 19304.00
1145.509, 19240.00
1146.600, 19201.00
1147.690, 19019.00
1148.780, 18949.00
1149.870, 18740.00
1150.960, 18753.00
1152.050, 18561.00
1153.139, 18362.00
1154.229, 18288.00
1155.318, 18213.00
1156.407, 18008.00
1157.496, 17831.00
1158.585, 17758.00
1159.674, 17594.00
1160.762, 17608.00
1161.850, 17596.00
1162.939, 17476.00
1164.027, 17950.00
1165.114, 17278.00
1166.202, 17494.00
1167.290, 17094.00
1168.377, 17207.00
1169.464, 17228.00
1170.551, 17275.00
1171.638, 17188.00
1172.725, 16958.00
1173.812, 17088.00
1174.898, 17064.00
1175.984, 16961.00
1177.071, 17049.00
1178.157, 17068.00
1179.242, 17016.86
1180.328, 17085.00
1181.414, 16971.00
1182.499, 16917.00
1183.584, 16925.00
1184.669, 16934.00
1185.754, 16965.00
1186.839, 17007.00
1187.924, 16911.00
1189.008, 16953.00
1190.092, 16887.00
1191.177, 16974.00
1192.260, 16965.00
1193.344, 16882.00
1194.428, 16871.00
1195.512, 16844.56
1196.595, 16907.00
1197.678, 16836.00
1198.761, 16932.00
1199.844, 16993.00
1200.927, 16918.00
1202.009, 16911.00
1203.092, 16980.00
1204.174, 16944.00
1205.256, 16818.00
1206.338, 16980.00
1207.420, 16812.00
1208.502, 16917.00
1209.583, 17009.00
1210.665, 17139.00
1211.746, 16947.00
1212.827, 17104.00
1213.908, 16890.00
1214.988, 17041.00
1216.069, 17205.00
1217.149, 17534.00
1218.230, 17177.00
1219.310, 17088.00
1220.390, 17113.00
1221.470, 17089.00
1222.549, 16979.00
1223.629, 17088.00
1224.708, 17194.00
1225.787, 17134.00
1226.866, 17063.00
1227.945, 16898.00
1229.024, 16912.46
1230.103, 17003.00
1231.181, 16904.00
1232.259, 17009.00
1233.337, 17053.00
1234.415, 17006.00
1235.493, 17017.00
1236.571, 16947.00
1237.648, 17020.00
1238.726, 17102.00
1239.803, 16937.00
1240.880, 16942.00
1241.957, 17035.00
1243.034, 16983.00
1244.110, 16945.00
1245.187, 17086.00
1246.263, 16858.00
1247.339, 17041.00
1248.415, 16902.00
1249.491, 16843.00
1250.566, 16715.00
1251.642, 16918.00
1252.717, 16705.00
1253.793, 16834.00
1254.868, 16771.00
1255.943, 16545.00
1257.017, 16672.00
1258.092, 16631.00
1259.166, 16635.00
1260.241, 16617.00
1261.315, 16689.36
1262.389, 16658.00
1263.462, 16806.00
1264.536, 16850.00
1265.610, 16778.00
1266.683, 16675.00
1267.756, 16667.00
1268.829, 16655.00
1269.902, 16611.63
1270.975, 16603.51
1272.048, 16606.00
1273.120, 16568.00
1274.192, 16627.00
1275.264, 16628.00
1276.336, 16771.00
1277.408, 16580.00
1278.480, 16723.00
1279.551, 16656.00
1280.623, 16708.00
1281.694, 16729.00
1282.765, 16705.00
1283.836, 16652.00
1284.907, 16640.00
1285.977, 16519.00
1287.048, 16646.00
1288.118, 16662.00
1289.188, 16452.00
1290.258, 16620.00
1291.328, 16718.00
1292.398, 16606.39
1293.467, 16484.00
1294.537, 16542.00
1295.606, 16415.00
1296.675, 16439.00
1297.744, 16422.00
1298.813, 16460.00
1299.882, 16504.35
1300.950, 16451.00
1302.018, 16639.00
1303.086, 16582.00
1304.155, 16676.00
1305.222, 16539.00
1306.290, 16590.11
1307.358, 16708.00
1308.425, 16628.00
1309.492, 16521.00
1310.559, 16566.00
1311.626, 16577.00
1312.693, 16498.88
1313.760, 16566.90
1314.826, 16570.93
1315.893, 16629.00
1316.959, 16630.00
1318.025, 16659.00
1319.091, 16648.00
1320.157, 16632.20
1321.222, 16520.00
1322.288, 16591.00
1323.353, 16487.00
