##NAMES=Arfvedsonite
##RRUFFID=R040127
##IDEAL CHEMISTRY=NaNa_2_(Fe^2+^_4_Fe^3+^)Si_8_O_22_(OH)_2_
##LOCALITY=Mont Saint-Hilaire, Rouville County, Quebec, Canada
##OWNER=RRUFF
##SOURCE=Bob Downs
##DESCRIPTION=Black prismatic crystal associated with white analcime, R040128
##STATUS=The identification of this mineral has been confirmed by X-ray diffraction and chemical analysis
##URL=rruff.info/R040127
##MEASURED CHEMISTRY=(Na_0.61_K_0.39_)Na_2.00_(Fe^2+^_2.40_Mg_0.80_Mn_0.75_Ca_0.05_)_&#931;=4_(Fe^3+^_0.60_Al_0.25_Mn_0.15_)(Si_0.99_Ti_0.01_)_8_O_22_((OH)_0.67_F_0.33_)_2_
##PIN_ID=M00386
##ORIENTATION=Laser parallel to -c* (0 0 -1). Fiducial mark perpendicular to laser is parallel to -a [-1 0 0]
154.7620, 27480.00
155.9950, 27480.00
157.2280, 27664.00
158.4600, 27918.00
159.6920, 28182.00
160.9250, 28175.00
162.1560, 28676.00
163.3880, 28824.00
164.6200, 28690.00
165.8510, 28958.00
167.0820, 28859.00
168.3130, 28776.00
169.5440, 28530.00
170.7750, 28378.00
172.0050, 28312.00
173.2350, 28237.00
174.4650, 28252.00
175.6950, 28201.00
176.9250, 28164.00
178.1550, 28278.00
179.3840, 28321.00
180.6130, 28427.00
181.8420, 28345.00
183.0710, 28465.00
184.3000, 28884.00
185.5280, 28850.00
186.7570, 29083.00
187.9850, 29149.00
189.2130, 29521.00
190.4400, 29867.00
191.6680, 29885.00
192.8960, 30140.00
194.1230, 30475.00
195.3500, 30587.00
196.5770, 30684.00
197.8030, 30790.00
199.0300, 30922.00
200.2560, 31058.00
201.4830, 31224.00
202.7090, 31344.00
203.9340, 31582.00
205.1600, 31614.72
206.3860, 31495.00
207.6110, 31670.00
208.8360, 31817.00
210.0610, 31757.00
211.2860, 31865.00
212.5100, 31996.00
213.7350, 31888.00
214.9590, 31774.00
216.1830, 31687.00
217.4070, 31502.00
218.6310, 31389.00
219.8540, 31301.00
221.0780, 31304.00
222.3010, 31214.00
223.5240, 31154.76
224.7470, 30865.00
225.9690, 31025.00
227.1920, 30834.00
228.4140, 30786.00
229.6360, 30815.00
230.8580, 30946.00
232.0800, 31059.00
233.3020, 31116.87
234.5230, 31175.47
235.7440, 31228.00
236.9650, 31242.00
238.1860, 31205.00
239.4070, 31267.00
240.6280, 31447.00
241.8480, 31346.00
243.0680, 31379.00
244.2880, 31100.00
245.5080, 31575.00
246.7280, 31361.00
247.9470, 31262.00
249.1660, 31357.00
250.3860, 31042.00
251.6040, 31051.00
252.8230, 31214.00
254.0420, 30802.00
255.2600, 31620.00
256.4790, 31048.00
257.6970, 30914.00
258.9150, 31448.00
260.1320, 31163.00
261.3500, 30777.00
262.5670, 30730.00
263.7840, 30723.00
265.0010, 30545.00
266.2180, 30480.00
267.4350, 30517.00
268.6510, 30402.00
269.8680, 30223.00
271.0840, 30160.00
272.3000, 30279.00
273.5160, 30205.00
274.7310, 30231.00
275.9470, 30091.00
277.1620, 30074.96
278.3770, 30071.00
279.5920, 29982.00
280.8070, 29906.00
282.0210, 29870.00
283.2360, 30131.00
284.4500, 29904.00
285.6640, 30206.00
286.8780, 30224.18
288.0920, 29961.00
289.3050, 30358.00
290.5180, 30323.00
291.7320, 30314.00
292.9450, 30165.00
294.1570, 30256.29
295.3700, 30672.00
296.5830, 30482.00
297.7950, 30560.00
299.0070, 30897.00
300.2190, 30877.00
301.4310, 31018.00
302.6420, 30976.00
303.8540, 31201.00
305.0650, 31507.00
306.2760, 31405.00
307.4870, 31790.00
308.6980, 31935.00
309.9080, 32209.00
311.1190, 32001.00
312.3290, 32505.00
313.5390, 32339.00
314.7490, 32650.00
315.9580, 32354.00
317.1680, 32177.00
318.3770, 32180.00
319.5860, 32229.00
320.7950, 32059.00
322.0040, 31733.00
323.2130, 32062.00
324.4210, 31620.00
325.6290, 31554.00
326.8380, 31493.00
328.0460, 31616.00
329.2530, 31280.00
330.4610, 31352.00
331.6680, 31175.00
332.8760, 31151.00
334.0830, 31334.00
335.2890, 31181.00
336.4960, 31340.00
337.7030, 31351.00
338.9090, 31444.00
340.1150, 31534.00
341.3210, 31201.00
342.5270, 31346.00
343.7330, 31646.00
344.9380, 31263.00
346.1440, 31646.00
347.3490, 31582.00
348.5540, 31704.00
349.7590, 31821.00
350.9630, 32029.00
352.1680, 32021.52
353.3720, 31985.00
354.5760, 32011.00
355.7800, 32048.00
356.9840, 31985.00
358.1870, 32005.00
359.3910, 32220.00
360.5940, 32203.00
361.7970, 32167.00
363.0000, 32279.00
364.2030, 32199.00
365.4050, 32345.00
366.6080, 32156.00
367.8100, 32131.00
369.0120, 31967.00
370.2140, 32289.00
371.4150, 31833.00
372.6170, 32029.00
373.8180, 32421.00
375.0190, 32188.00
376.2200, 32228.00
377.4210, 32213.00
378.6220, 32528.00
379.8220, 32284.00
381.0230, 32251.00
382.2230, 31942.00
383.4230, 32292.00
384.6220, 32444.00
385.8220, 32234.00
387.0220, 32292.00
388.2210, 32449.00
389.4200, 32276.00
390.6190, 32259.00
391.8180, 32323.00
393.0160, 32421.00
394.2150, 32491.00
395.4130, 32568.00
396.6110, 32426.00
397.8090, 32326.00
399.0060, 32534.00
400.2040, 32336.00
401.4010, 32315.00
402.5980, 32289.00
403.7950, 32277.00
404.9920, 32366.61
406.1890, 32228.00
407.3860, 32566.00
408.5820, 32637.00
409.7780, 32699.00
410.9740, 32722.00
412.1700, 32839.00
413.3650, 32864.00
414.5610, 33008.45
415.7560, 33144.00
416.9510, 33270.00
418.1460, 33215.00
419.3410, 33267.00
420.5360, 33445.00
421.7300, 33266.00
422.9240, 33051.00
424.1180, 32934.00
425.3120, 33177.00
426.5060, 33178.00
427.7000, 33188.00
428.8930, 33007.00
430.0860, 33081.00
431.2790, 33218.00
432.4720, 33000.00
433.6650, 32817.00
434.8580, 32732.00
436.0500, 32904.00
437.2420, 32363.00
438.4340, 32730.00
439.6260, 32640.00
440.8180, 32920.00
442.0090, 32755.00
443.2010, 32710.00
444.3920, 32701.00
445.5830, 32499.00
446.7740, 32655.00
447.9640, 32695.00
449.1550, 32783.00
450.3450, 32565.00
451.5350, 32629.00
452.7250, 32660.00
453.9150, 32706.00
455.1050, 32810.00
456.2940, 32955.00
457.4830, 33084.00
458.6720, 33049.00
459.8610, 32678.00
461.0500, 32912.00
462.2390, 32584.00
463.4270, 32894.00
464.6150, 32892.00
465.8040, 33118.00
466.9910, 32977.00
468.1790, 33072.84
469.3670, 33165.00
470.5540, 33138.00
471.7410, 33142.00
472.9280, 33229.00
474.1150, 33250.00
475.3020, 33265.00
476.4890, 33261.00
477.6750, 33144.00
478.8610, 33107.00
480.0470, 33154.11
481.2330, 33405.00
482.4190, 33321.00
483.6040, 33528.00
484.7900, 33725.00
485.9750, 33781.00
487.1600, 33945.00
488.3450, 33766.00
489.5290, 33739.00
490.7140, 33715.00
491.8980, 33936.00
493.0820, 33956.00
494.2660, 34072.00
495.4500, 33968.00
496.6340, 34266.00
497.8170, 34402.00
499.0010, 34130.00
500.1840, 34405.00
501.3670, 34293.00
502.5500, 34620.00
503.7320, 34629.00
504.9150, 34524.00
506.0970, 34738.00
507.2790, 34806.00
508.4610, 34773.00
509.6430, 35094.00
510.8250, 34707.00
512.0060, 34986.00
513.1870, 35135.00
514.3680, 35161.00
515.5490, 35113.00
516.7300, 35114.00
517.9110, 35441.00
519.0910, 35727.00
520.2710, 35704.00
521.4510, 35768.00
522.6310, 36062.00
523.8110, 36157.00
524.9910, 36244.00
526.1700, 36728.00
527.3490, 36893.00
528.5280, 36825.00
529.7070, 37371.00
530.8860, 37384.00
532.0650, 37738.00
533.2430, 37992.00
534.4210, 38064.00
535.5990, 38004.00
536.7770, 38140.00
537.9550, 37987.00
539.1320, 38041.00
540.3100, 37795.00
541.4870, 38056.00
542.6640, 37916.00
543.8410, 37529.00
545.0170, 37426.00
546.1940, 37121.00
547.3700, 37027.85
548.5470, 37155.00
549.7230, 36852.00
550.8980, 37044.00
552.0740, 36910.00
553.2500, 36831.00
554.4250, 36560.00
555.6000, 36564.00
556.7750, 36439.00
557.9500, 36666.00
559.1250, 36465.00
560.2990, 36298.00
561.4730, 36565.00
562.6480, 36424.00
563.8220, 36305.00
564.9950, 36632.00
566.1690, 36502.00
567.3430, 36603.00
568.5160, 36716.81
569.6890, 36513.00
570.8620, 36832.00
572.0350, 36816.00
573.2070, 36779.00
574.3800, 36676.00
575.5520, 36612.39
576.7240, 36457.00
577.8960, 36440.00
579.0680, 36271.00
580.2400, 36231.00
581.4110, 36004.00
582.5830, 35919.00
583.7540, 35772.00
584.9250, 35689.00
586.0950, 35655.26
587.2660, 35617.00
588.4370, 35648.00
589.6070, 35443.00
590.7770, 35478.00
591.9470, 35637.00
593.1170, 35345.00
594.2860, 35540.00
595.4560, 35507.00
596.6250, 35326.00
597.7940, 35331.00
598.9630, 35522.00
600.1320, 35495.72
601.3000, 35759.00
602.4690, 35643.00
603.6370, 35552.00
604.8050, 35494.00
605.9730, 35677.00
607.1410, 35516.00
608.3090, 35661.00
609.4760, 35453.00
610.6430, 35581.00
611.8100, 35619.00
612.9770, 35577.00
614.1440, 35736.00
615.3110, 35748.00
616.4770, 35813.00
617.6430, 36014.00
618.8090, 35864.00
619.9750, 35730.00
621.1410, 35897.00
622.3070, 35732.00
623.4720, 35766.00
624.6370, 35723.00
625.8020, 35975.00
626.9670, 36154.00
628.1320, 36038.00
629.2970, 36210.00
630.4610, 36321.00
631.6250, 36207.00
632.7890, 36398.00
633.9530, 36412.00
635.1170, 36103.00
636.2810, 36428.00
637.4440, 36229.00
638.6070, 36637.00
639.7700, 36568.00
640.9330, 36674.00
642.0960, 36842.00
643.2590, 37014.00
644.4210, 36820.00
645.5830, 36962.00
646.7450, 36997.00
647.9070, 36851.00
649.0690, 37151.00
650.2310, 37200.00
651.3920, 37338.00
652.5530, 37427.00
653.7140, 37539.87
654.8750, 37693.08
656.0360, 37831.00
657.1970, 37955.00
658.3570, 38205.00
659.5170, 38246.00
660.6770, 38329.00
661.8370, 38584.00
662.9970, 38928.00
664.1570, 39128.00
665.3160, 39523.00
666.4750, 40086.00
667.6340, 40452.90
668.7930, 41195.00
669.9520, 41491.00
671.1110, 42157.00
672.2690, 42813.00
673.4270, 43157.00
674.5850, 43106.00
675.7430, 42968.00
676.9010, 42754.00
678.0590, 42130.00
679.2160, 41370.00
680.3730, 41024.00
681.5300, 40336.00
682.6870, 40029.00
683.8440, 39447.00
685.0010, 39193.00
686.1570, 38905.00
687.3130, 38565.00
688.4690, 38698.00
689.6250, 38498.00
690.7810, 38251.00
691.9370, 38188.00
693.0920, 38453.00
694.2470, 38268.00
695.4020, 38309.00
696.5570, 37994.00
697.7120, 37952.00
698.8670, 38168.00
700.0210, 37746.00
701.1750, 37772.00
702.3290, 37946.00
703.4830, 37914.00
704.6370, 38040.00
705.7910, 38183.00
706.9440, 38051.00
708.0970, 38338.00
709.2510, 38168.00
710.4030, 38035.00
711.5560, 38107.00
712.7090, 38080.00
713.8610, 38353.00
715.0140, 38126.00
716.1660, 38258.00
717.3180, 38038.00
718.4690, 38203.00
719.6210, 38138.00
720.7730, 38028.00
721.9240, 38096.00
723.0750, 38122.42
724.2260, 38106.00
725.3770, 38343.00
726.5270, 38395.00
727.6780, 38569.00
728.8280, 38288.00
729.9780, 38209.00
731.1280, 38281.00
732.2780, 38153.00
733.4280, 38449.00
734.5770, 38562.00
735.7260, 38686.00
736.8760, 38675.73
738.0250, 38639.00
739.1730, 38645.00
740.3220, 38591.62
741.4700, 38689.00
742.6190, 38545.00
743.7670, 38527.00
744.9150, 38614.00
746.0630, 38660.00
747.2100, 38689.00
748.3580, 38712.00
749.5050, 38587.00
750.6520, 38952.00
751.7990, 38759.00
752.9460, 39084.00
754.0930, 38791.00
755.2390, 38732.00
756.3860, 38805.00
757.5320, 38901.00
758.6780, 39099.00
759.8240, 39134.00
760.9690, 39121.00
762.1150, 39058.00
763.2600, 39113.00
764.4060, 39023.00
765.5510, 39005.00
766.6950, 39217.00
767.8400, 39063.00
768.9850, 39412.00
770.1290, 39367.00
771.2730, 39225.00
772.4170, 39080.00
773.5610, 39487.00
774.7050, 39178.00
775.8480, 39383.00
776.9920, 39561.00
778.1350, 39260.00
779.2780, 39567.00
780.4210, 39538.00
781.5640, 39491.00
782.7060, 39793.00
783.8490, 39666.00
784.9910, 39826.00
786.1330, 39928.00
787.2750, 39649.00
788.4170, 39725.00
789.5580, 39879.00
790.7000, 39930.00
791.8410, 39957.00
792.9820, 40169.00
794.1230, 39942.00
795.2640, 39980.00
796.4040, 39700.00
797.5450, 39857.00
798.6850, 40055.00
799.8250, 40070.00
800.9650, 39898.00
802.1050, 40176.00
803.2450, 40319.00
804.3840, 39919.00
805.5230, 40255.00
806.6630, 40152.00
807.8020, 40118.00
808.9400, 40166.00
810.0790, 40091.00
811.2170, 40493.00
812.3560, 40281.00
813.4940, 40255.00
814.6320, 40458.00
815.7700, 40186.00
816.9070, 40370.00
818.0450, 40740.00
819.1820, 40329.00
820.3190, 40297.00
821.4560, 40496.00
822.5930, 40296.00
823.7300, 40356.00
824.8670, 40501.00
826.0030, 40701.00
827.1390, 40746.89
828.2750, 40854.09
829.4110, 40831.00
830.5470, 40892.00
831.6820, 40761.00
832.8180, 40602.00
833.9530, 40757.00
835.0880, 40800.00
836.2230, 40655.00
837.3580, 40821.00
838.4920, 40782.00
839.6270, 41026.00
840.7610, 41106.00
841.8950, 41129.00
843.0290, 40917.00
844.1630, 41058.00
845.2960, 41294.00
846.4300, 41237.00
847.5630, 41467.00
848.6960, 41843.00
849.8290, 41727.00
850.9620, 41231.00
852.0940, 41391.00
853.2270, 41665.00
854.3590, 41431.00
855.4910, 41749.00
856.6230, 41687.00
857.7550, 41447.00
858.8870, 41631.00
860.0180, 41855.00
861.1500, 41562.00
862.2810, 41793.00
863.4120, 41884.00
864.5430, 41665.00
865.6730, 41688.00
866.8040, 41812.00
867.9340, 41649.00
869.0640, 42116.00
870.1940, 41897.00
871.3240, 42178.00
872.4540, 42348.00
873.5830, 42090.00
874.7130, 41871.00
875.8420, 42228.00
876.9710, 42217.00
878.1000, 42376.00
879.2290, 42160.00
880.3570, 42413.00
881.4860, 42335.00
882.6140, 42804.00
883.7420, 42628.00
884.8700, 42659.00
885.9980, 42619.00
887.1250, 42654.00
888.2530, 42832.00
889.3800, 42809.00
890.5070, 43030.00
891.6340, 42924.00
892.7610, 43115.00
893.8880, 43215.00
895.0140, 43038.00
896.1400, 43266.00
897.2670, 43191.00
898.3930, 43629.00
899.5180, 43382.00
900.6440, 43486.00
901.7700, 43760.00
902.8950, 43782.00
904.0200, 43792.56
905.1450, 43875.00
906.2700, 43764.00
907.3950, 43672.00
908.5190, 43848.00
909.6440, 43942.00
910.7680, 43935.00
911.8920, 43972.00
913.0160, 44182.00
914.1400, 44147.00
915.2630, 43909.00
916.3870, 44188.00
917.5100, 43921.00
918.6330, 44077.57
919.7560, 44266.00
920.8790, 44277.00
922.0010, 44380.00
923.1240, 44429.00
924.2460, 44504.15
925.3680, 44741.00
926.4900, 44601.00
927.6120, 44574.00
928.7340, 44468.00
929.8550, 44847.00
930.9760, 44556.00
932.0980, 44807.00
933.2190, 44919.00
934.3390, 44576.00
935.4600, 44698.00
936.5810, 45034.00
937.7010, 44993.00
938.8210, 45091.00
939.9410, 45174.00
941.0610, 45213.82
942.1810, 44993.00
943.3010, 45280.00
944.4200, 45341.00
945.5390, 45201.00
946.6580, 45603.00
947.7770, 45700.00
948.8960, 45529.00
950.0150, 45649.00
951.1330, 45868.00
952.2510, 45758.00
953.3690, 45769.00
954.4870, 46051.00
955.6050, 46079.00
956.7230, 46144.00
957.8400, 46321.00
958.9580, 46293.00
960.0750, 46698.00
961.1920, 46801.00
962.3090, 46891.00
963.4250, 47161.00
964.5420, 47401.00
965.6580, 47347.00
966.7740, 47690.00
967.8900, 47711.00
969.0060, 48031.00
970.1220, 48148.00
971.2380, 48309.00
972.3530, 48421.00
973.4680, 48617.00
974.5830, 48561.00
975.6980, 48573.00
976.8130, 48801.00
977.9280, 48977.00
979.0420, 48656.00
980.1560, 48541.00
981.2710, 48482.00
982.3850, 48301.52
983.4980, 48223.91
984.6120, 48108.00
985.7260, 48052.00
986.8390, 47970.00
987.9520, 47973.00
989.0650, 47781.00
990.1780, 47895.00
991.2910, 47544.00
992.4030, 47719.00
993.5160, 47372.00
994.6280, 47185.00
995.7400, 47427.00
996.8520, 47323.00
997.9640, 47191.00
999.0750, 47058.00
1000.187, 47025.00
1001.298, 47084.91
1002.409, 47313.00
1003.520, 47292.00
1004.631, 47108.00
1005.741, 47111.00
1006.852, 46937.00
1007.962, 47486.00
1009.072, 47137.00
1010.182, 47014.00
1011.292, 47323.00
1012.402, 46991.00
1013.511, 47570.00
1014.621, 47293.00
1015.730, 47229.00
1016.839, 47436.00
1017.948, 47315.00
1019.056, 47479.00
1020.165, 47578.00
1021.273, 47478.00
1022.382, 47598.00
1023.490, 47462.00
1024.598, 47622.00
1025.706, 47588.00
1026.813, 47462.00
1027.921, 47656.00
1029.028, 47778.00
1030.135, 47734.00
1031.242, 47800.00
1032.349, 47846.71
1033.456, 47899.54
1034.562, 48015.00
1035.668, 48049.00
1036.775, 48306.00
1037.881, 48370.00
1038.987, 48013.00
1040.092, 48319.00
1041.198, 48146.00
1042.303, 48580.00
1043.408, 48790.00
1044.514, 48713.00
1045.618, 48840.00
1046.723, 48651.00
1047.828, 48899.00
1048.932, 48869.00
1050.037, 48935.00
1051.141, 49099.00
1052.245, 49008.00
1053.349, 49278.00
1054.452, 49237.00
1055.556, 49277.00
1056.659, 49496.00
1057.762, 49542.00
1058.865, 49771.00
1059.968, 49802.00
1061.071, 49938.00
1062.174, 50027.00
1063.276, 49882.00
1064.378, 49915.00
1065.480, 50253.00
1066.582, 50458.00
1067.684, 50132.00
1068.786, 50540.00
1069.887, 50109.00
1070.988, 50401.00
1072.090, 50370.00
1073.191, 50415.00
1074.291, 50596.00
1075.392, 50644.00
1076.493, 50218.00
1077.593, 50277.00
1078.693, 50103.00
1079.793, 50292.00
1080.893, 50363.00
1081.993, 50457.00
1083.092, 50603.00
1084.192, 50634.89
1085.291, 50464.00
1086.390, 50702.00
1087.489, 50646.00
1088.588, 50596.00
1089.686, 50891.00
1090.785, 50919.00
1091.883, 51113.00
1092.981, 50975.00
1094.079, 51298.00
1095.177, 51287.00
1096.275, 51570.00
1097.373, 51381.00
1098.470, 51561.00
1099.567, 51765.00
1100.664, 51911.00
1101.761, 51868.00
1102.858, 51826.00
1103.954, 51670.00
1105.051, 51727.00
1106.147, 51510.00
1107.243, 51872.00
1108.339, 51648.00
1109.435, 51931.00
1110.531, 51868.00
1111.626, 52121.00
1112.722, 52169.00
1113.817, 52003.00
1114.912, 52248.00
1116.007, 52229.00
1117.101, 52266.00
1118.196, 52347.00
1119.290, 52185.00
1120.385, 52417.00
1121.479, 52629.00
1122.573, 52495.00
1123.666, 52458.00
1124.760, 52434.00
1125.853, 52696.00
1126.947, 52438.00
1128.040, 52578.00
1129.133, 52363.00
1130.226, 52594.00
1131.318, 52696.00
1132.411, 52620.00
1133.503, 52453.00
1134.596, 52619.00
1135.688, 52261.00
1136.780, 52425.00
1137.871, 52463.00
1138.963, 52712.00
1140.054, 52313.00
1141.146, 52422.00
1142.237, 52395.00
1143.328, 52216.00
1144.419, 52654.00
1145.509, 52604.00
1146.600, 52394.00
1147.690, 52441.00
1148.780, 52389.31
1149.870, 52713.00
1150.960, 52445.00
1152.050, 52258.00
1153.139, 52345.00
1154.229, 52775.00
1155.318, 52380.00
1156.407, 52256.00
1157.496, 52051.00
1158.585, 51887.00
1159.674, 51862.00
1160.762, 52003.00
1161.850, 52005.00
1162.939, 52079.00
1164.027, 52098.80
1165.114, 52119.81
1166.202, 52072.00
1167.290, 52098.00
1168.377, 52019.00
1169.464, 52071.93
1170.551, 52014.00
1171.638, 52176.00
1172.725, 52153.00
1173.812, 52242.00
1174.898, 52340.00
1175.984, 52104.00
1177.071, 52320.00
1178.157, 52276.00
1179.242, 52327.00
1180.328, 52350.00
1181.414, 52334.00
1182.499, 52349.82
1183.584, 52424.00
1184.669, 52381.00
1185.754, 52335.00
1186.839, 52452.00
1187.924, 52723.00
1189.008, 52972.00
1190.092, 52904.00
1191.177, 52799.00
1192.260, 53311.00
1193.344, 52623.00
1194.428, 53062.00
1195.512, 53161.00
1196.595, 53117.00
1197.678, 52977.00
1198.761, 53083.00
1199.844, 53240.00
1200.927, 53033.00
1202.009, 53324.00
1203.092, 53514.00
1204.174, 53576.00
1205.256, 53370.00
1206.338, 53480.00
1207.420, 53434.00
1208.502, 53679.00
1209.583, 53492.00
1210.665, 53641.00
1211.746, 53743.00
1212.827, 53807.00
1213.908, 53871.00
1214.988, 54048.00
1216.069, 53908.00
1217.149, 54071.00
1218.230, 53874.00
1219.310, 54071.00
1220.390, 54054.00
1221.470, 53968.00
1222.549, 54024.00
1223.629, 54091.00
1224.708, 54160.00
1225.787, 54315.00
1226.866, 54157.00
1227.945, 54097.00
1229.024, 54436.00
1230.103, 54622.00
1231.181, 54349.00
1232.259, 54524.00
1233.337, 54662.00
1234.415, 54627.00
1235.493, 54587.00
1236.571, 54565.00
1237.648, 54649.28
1238.726, 54740.00
1239.803, 54836.00
1240.880, 54901.00
1241.957, 54941.00
1243.034, 54941.00
1244.110, 55101.00
1245.187, 54895.00
1246.263, 55211.00
1247.339, 55450.00
1248.415, 55609.00
1249.491, 55265.00
1250.566, 55245.00
1251.642, 55383.00
1252.717, 55290.00
1253.793, 55200.00
1254.868, 55569.00
1255.943, 55517.00
1257.017, 55510.00
1258.092, 55762.00
1259.166, 55829.00
1260.241, 55686.00
1261.315, 55741.00
1262.389, 55796.00
1263.462, 55757.00
1264.536, 55828.00
1265.610, 55958.00
1266.683, 55800.00
1267.756, 55895.00
1268.829, 55938.00
1269.902, 55882.00
1270.975, 55862.00
1272.048, 55939.00
1273.120, 56069.00
1274.192, 56081.00
1275.264, 56549.00
1276.336, 56182.00
1277.408, 56427.00
1278.480, 56546.00
1279.551, 55975.00
1280.623, 55814.00
1281.694, 56368.00
1282.765, 56417.00
1283.836, 56572.00
1284.907, 56760.19
1285.977, 56587.00
1287.048, 56738.00
1288.118, 56876.00
1289.188, 56494.00
1290.258, 56781.00
1291.328, 56644.00
1292.398, 56996.00
1293.467, 57029.00
1294.537, 57351.00
1295.606, 57331.00
1296.675, 57334.00
1297.744, 57719.00
1298.813, 57393.00
1299.882, 57366.00
1300.950, 57674.00
1302.018, 57723.00
1303.086, 57881.00
1304.155, 57665.00
1305.222, 57604.00
1306.290, 57606.00
1307.358, 57895.00
1308.425, 58072.00
1309.492, 57967.00
1310.559, 58024.00
1311.626, 58174.00
1312.693, 58082.00
1313.760, 58463.00
1314.826, 58429.00
1315.893, 58101.00
1316.959, 58100.00
1318.025, 58360.00
