##NAMES=Arsenopyrite
##RRUFFID=R050071
##IDEAL CHEMISTRY=Fe^3+^(AsS)^3-^
##LOCALITY=Yaogangxian mine, Yizhang County, Hunan Province, China
##OWNER=RRUFF
##SOURCE=Rock Currier
##DESCRIPTION=Steel-gray tabular
##STATUS=The identification of this mineral has been confirmed by X-ray diffraction and chemical analysis
##URL=rruff.info/R050071
##MEASURED CHEMISTRY=FeAsS
##PIN_ID=L00162
##ORIENTATION=Laser parallel to -c* (0 0 -1). Fiducial mark perpendicular to laser is parallel to -a [-1 0 0]
71.24100, 37185.00
72.47700, 39623.00
73.71400, 43763.00
74.95100, 48955.00
76.18700, 51105.00
77.42300, 50885.00
78.65900, 49904.00
79.89500, 43259.00
81.13100, 38941.00
82.36700, 38625.00
83.60200, 38731.00
84.83700, 38206.00
86.07200, 38126.00
87.30800, 38581.00
88.54200, 38346.00
89.77700, 38136.00
91.01200, 38488.00
92.24600, 38564.00
93.48000, 37843.00
94.71400, 37836.00
95.94800, 37982.00
97.18200, 36849.00
98.41600, 36858.00
99.64900, 36483.00
100.8830, 37056.00
102.1160, 37650.00
103.3490, 39009.00
104.5820, 40062.00
105.8150, 43538.00
107.0470, 47250.00
108.2800, 47678.93
109.5120, 53733.00
110.7440, 49555.00
111.9760, 49297.00
113.2080, 50133.00
114.4400, 51579.00
115.6710, 52967.00
116.9030, 55033.00
118.1340, 54787.00
119.3650, 47237.00
120.5960, 40514.00
121.8270, 37087.00
123.0580, 36555.00
124.2880, 36041.00
125.5190, 35425.00
126.7490, 35302.00
127.9790, 35012.00
129.2090, 34998.00
130.4390, 35153.00
131.6680, 34931.00
132.8980, 34828.00
134.1270, 35277.00
135.3560, 35403.00
136.5850, 35001.00
137.8140, 34774.00
139.0430, 34503.00
140.2710, 34207.00
141.5000, 34360.00
142.7280, 34502.00
143.9560, 34202.00
145.1840, 34374.00
146.4120, 33893.00
147.6390, 33905.00
148.8670, 33833.00
150.0940, 33948.00
151.3210, 34769.00
152.5490, 34963.00
153.7750, 34701.00
155.0020, 33786.00
156.2290, 34195.00
157.4550, 33914.00
158.6810, 34124.00
159.9080, 34318.00
161.1340, 33837.00
162.3590, 33759.00
163.5850, 34235.00
164.8110, 34199.00
166.0360, 34366.00
167.2610, 34268.00
168.4860, 34257.00
169.7110, 34121.00
170.9360, 33695.00
172.1610, 33609.00
173.3850, 33786.00
174.6100, 33267.00
175.8340, 33556.00
177.0580, 33487.00
178.2820, 33510.00
179.5050, 33586.00
180.7290, 33656.00
181.9520, 33711.00
183.1760, 33887.00
184.3990, 33767.00
185.6220, 33603.00
186.8450, 33433.00
188.0670, 33820.00
189.2900, 33829.00
190.5120, 34277.00
191.7340, 34494.00
192.9560, 34794.00
194.1780, 34888.00
195.4000, 34942.00
196.6220, 34990.00
197.8430, 35007.65
199.0640, 35046.00
200.2860, 34960.00
201.5070, 35114.00
202.7270, 35012.00
203.9480, 34561.00
205.1690, 33995.00
206.3890, 33543.00
207.6090, 32953.00
208.8290, 32631.00
210.0490, 32701.00
211.2690, 33141.00
212.4890, 32777.00
213.7080, 32898.00
214.9280, 33111.00
216.1470, 32915.00
217.3660, 32861.00
218.5850, 32830.00
219.8030, 32748.00
221.0220, 32697.00
222.2400, 32745.00
223.4590, 32603.00
224.6770, 32872.00
225.8950, 32837.00
227.1120, 32820.00
228.3300, 33117.00
229.5480, 32819.00
230.7650, 32567.00
231.9820, 32574.00
233.1990, 32742.00
234.4160, 32678.00
235.6330, 32922.00
236.8490, 32841.00
238.0660, 32624.00
239.2820, 33055.00
240.4980, 32697.00
241.7140, 32924.00
242.9300, 32674.00
244.1460, 32614.00
245.3610, 32487.00
246.5770, 32717.00
247.7920, 32699.00
249.0070, 32688.00
250.2220, 32462.00
251.4370, 32808.00
252.6510, 33034.00
253.8660, 32892.00
255.0800, 33167.00
256.2940, 33077.00
257.5080, 33380.00
258.7220, 34476.00
259.9360, 33886.15
261.1490, 35031.00
262.3630, 33582.00
263.5760, 33518.00
264.7890, 33925.00
266.0020, 33580.00
267.2150, 33552.00
268.4270, 33254.00
269.6400, 33084.00
270.8520, 33385.00
272.0640, 32908.00
273.2760, 32802.00
274.4880, 33178.00
275.7000, 32710.00
276.9120, 33518.00
278.1230, 33481.00
279.3340, 33388.00
280.5450, 33233.00
281.7560, 33233.12
282.9670, 33016.00
284.1780, 33235.00
285.3880, 33180.00
286.5980, 33310.00
287.8090, 33251.00
289.0190, 33278.00
290.2290, 33044.00
291.4380, 33046.00
292.6480, 33067.00
293.8570, 33052.00
295.0670, 33088.00
296.2760, 33108.37
297.4850, 33117.40
298.6930, 33181.00
299.9020, 33178.00
301.1110, 33231.00
302.3190, 33322.00
303.5270, 33302.17
304.7350, 33318.45
305.9430, 33316.00
307.1510, 33288.00
308.3580, 33306.00
309.5660, 33321.00
310.7730, 33409.00
311.9800, 33472.00
313.1870, 33251.00
314.3940, 33253.00
315.6010, 33567.00
316.8070, 33430.00
318.0130, 33555.00
319.2200, 33257.00
320.4260, 33146.00
321.6310, 33626.00
322.8370, 33452.00
324.0430, 33240.00
325.2480, 33506.00
326.4540, 33444.00
327.6590, 33737.00
328.8640, 33810.00
330.0680, 33336.00
331.2730, 33550.00
332.4780, 33593.00
333.6820, 33525.00
334.8860, 33567.00
336.0900, 33389.00
337.2940, 33519.00
338.4980, 33478.00
339.7010, 33613.00
340.9050, 33315.00
342.1080, 33528.00
343.3110, 33926.00
344.5140, 33430.00
345.7170, 33693.00
346.9200, 33638.00
348.1220, 33534.00
349.3240, 33449.00
350.5270, 33616.00
351.7290, 33670.00
352.9310, 33846.00
354.1320, 33768.00
355.3340, 34027.00
356.5350, 33742.00
357.7370, 33770.00
358.9380, 33563.00
360.1390, 33545.00
361.3400, 33620.00
362.5400, 33608.00
363.7410, 33464.00
364.9410, 33793.00
366.1410, 33684.00
367.3410, 33575.00
368.5410, 33733.00
369.7410, 33905.00
370.9400, 33511.00
372.1400, 33610.00
373.3390, 33612.00
374.5380, 33508.00
375.7370, 33647.00
376.9360, 33743.00
378.1350, 33752.00
379.3330, 33646.00
380.5310, 33607.00
381.7300, 33510.00
382.9280, 33701.00
384.1260, 33794.00
385.3230, 33756.00
386.5210, 33863.00
387.7180, 33977.00
388.9160, 33790.00
390.1130, 33890.00
391.3100, 34085.00
392.5060, 33929.00
393.7030, 34081.00
394.9000, 34228.00
396.0960, 33782.00
397.2920, 33831.00
398.4880, 33792.00
399.6840, 34087.00
400.8800, 34119.00
402.0750, 34296.00
403.2710, 34259.00
404.4660, 34085.00
405.6610, 34343.00
406.8560, 33982.00
408.0510, 34431.00
409.2450, 34529.00
410.4400, 34565.00
411.6340, 34365.00
412.8280, 34466.00
414.0220, 34399.08
415.2160, 34268.00
416.4100, 34350.00
417.6030, 34515.00
418.7970, 34475.00
419.9900, 34466.00
421.1830, 34578.00
422.3760, 34415.00
423.5690, 34585.00
424.7610, 34504.70
425.9540, 34639.00
427.1460, 34485.00
428.3380, 34532.00
429.5300, 34651.00
430.7220, 34913.00
431.9140, 34772.00
433.1050, 35015.00
434.2970, 34691.00
435.4880, 35044.00
436.6790, 35058.00
437.8700, 34754.00
439.0610, 34987.00
440.2510, 35228.00
441.4420, 35325.00
442.6320, 35354.00
443.8220, 35404.23
445.0120, 35284.00
446.2020, 35344.00
447.3910, 35180.00
448.5810, 35133.00
449.7700, 35213.00
450.9600, 35089.07
452.1490, 35212.00
453.3370, 35013.00
454.5260, 35200.00
455.7150, 35223.00
456.9030, 35090.00
458.0910, 35407.00
459.2800, 35268.00
460.4670, 35289.00
461.6550, 35330.00
462.8430, 35414.00
464.0300, 35424.00
465.2180, 35482.00
466.4050, 35399.00
467.5920, 35670.00
468.7790, 35579.00
469.9650, 35372.00
471.1520, 35581.00
472.3380, 35565.00
473.5250, 35749.00
474.7110, 35712.00
475.8970, 35640.00
477.0820, 35751.00
478.2680, 35647.00
479.4540, 36016.00
480.6390, 35861.00
481.8240, 35892.00
483.0090, 36156.00
484.1940, 36027.00
485.3780, 36122.00
486.5630, 36266.00
487.7470, 36256.00
488.9320, 36273.00
490.1160, 36331.00
491.3000, 36370.00
492.4830, 36382.00
493.6670, 36624.00
494.8500, 36495.00
496.0340, 36343.00
497.2170, 36786.00
498.4000, 36714.00
499.5820, 36461.00
500.7650, 36573.00
501.9480, 36418.00
503.1300, 36766.00
504.3120, 36711.00
505.4940, 36811.00
506.6760, 36744.00
507.8580, 36712.00
509.0390, 37044.00
510.2210, 36948.00
511.4020, 36915.00
512.5830, 37229.00
513.7640, 37032.00
514.9450, 37067.00
516.1250, 37257.00
517.3060, 37560.00
518.4860, 37294.00
519.6660, 37548.00
520.8460, 37755.00
522.0260, 37397.00
523.2060, 37282.00
524.3850, 37368.00
525.5650, 37510.00
526.7440, 37493.00
527.9230, 37468.00
529.1020, 37428.00
530.2810, 37395.00
531.4590, 37482.00
532.6380, 37466.74
533.8160, 37477.63
534.9940, 37532.00
536.1720, 37520.00
537.3500, 37544.00
538.5270, 37643.00
539.7050, 37691.00
540.8820, 37865.00
542.0590, 37915.00
543.2360, 37983.00
544.4130, 37761.00
545.5900, 37995.00
546.7660, 37889.00
547.9430, 37876.00
549.1190, 38070.00
550.2950, 38076.00
551.4710, 38359.00
552.6470, 38477.00
553.8220, 38451.00
554.9980, 38702.00
556.1730, 38358.00
557.3480, 38482.00
558.5230, 38435.00
559.6980, 38712.00
560.8730, 38735.00
562.0470, 38899.00
563.2220, 38535.00
564.3960, 38482.00
565.5700, 38371.00
566.7440, 38334.00
567.9170, 38727.00
569.0910, 38615.00
570.2640, 38700.00
571.4380, 38628.89
572.6110, 38643.00
573.7840, 38298.00
574.9570, 38160.00
576.1290, 37979.00
577.3020, 37423.00
578.4740, 37441.00
579.6460, 37203.00
580.8180, 37278.00
581.9900, 36859.00
583.1620, 36465.00
584.3330, 36221.00
585.5040, 36107.00
586.6760, 36125.00
587.8470, 35888.00
589.0180, 35931.00
590.1880, 35872.00
591.3590, 35637.00
592.5290, 35687.00
593.7000, 35871.00
594.8700, 35772.00
596.0400, 35867.00
597.2090, 35568.00
598.3790, 35583.00
599.5490, 35739.00
600.7180, 35740.00
601.8870, 35752.00
603.0560, 35789.00
604.2250, 35644.00
605.3940, 35882.00
606.5620, 36002.00
607.7300, 35614.00
608.8990, 35604.00
610.0670, 35873.00
611.2350, 35908.00
612.4020, 35981.00
613.5700, 35773.00
614.7370, 35690.00
615.9050, 35831.00
617.0720, 35948.00
618.2390, 35626.00
619.4060, 35743.00
620.5720, 35699.00
621.7390, 35910.00
622.9050, 35728.00
624.0710, 35890.00
625.2370, 35600.00
626.4030, 35999.00
627.5690, 36065.00
628.7340, 35861.00
629.9000, 35932.00
631.0650, 35817.00
632.2300, 35865.00
633.3950, 36031.00
634.5600, 35802.00
635.7240, 35960.00
636.8890, 35791.00
638.0530, 35938.00
639.2170, 35629.00
640.3810, 35858.00
641.5450, 35951.00
642.7080, 35872.00
643.8720, 35927.67
645.0350, 35733.00
646.1980, 35837.00
647.3610, 35850.00
648.5240, 35865.00
649.6870, 35913.00
650.8490, 35874.00
652.0120, 35896.75
653.1740, 35951.00
654.3360, 35873.00
655.4980, 35940.00
656.6600, 35890.00
657.8210, 35919.00
658.9830, 35689.00
660.1440, 35751.00
661.3050, 35864.00
662.4660, 35839.00
663.6270, 35997.00
664.7870, 35986.00
665.9480, 35826.00
667.1080, 36026.00
668.2680, 35863.00
669.4280, 36042.00
670.5880, 36003.00
671.7480, 36022.00
672.9070, 35934.00
674.0670, 35999.00
675.2260, 36015.00
676.3850, 36027.00
677.5440, 35754.00
678.7030, 35949.00
679.8610, 35852.00
681.0200, 35933.00
682.1780, 35952.00
683.3360, 36030.00
684.4940, 36001.00
685.6520, 35793.00
686.8090, 35820.00
687.9670, 35922.00
689.1240, 36057.00
690.2810, 35876.00
691.4380, 35997.00
692.5950, 36050.00
693.7520, 36088.00
694.9080, 35952.00
696.0650, 36127.00
697.2210, 35893.00
698.3770, 35936.00
699.5330, 35822.00
700.6880, 35813.00
701.8440, 36103.00
702.9990, 35738.00
704.1550, 35948.00
705.3100, 35917.00
706.4650, 35764.00
707.6190, 35854.00
708.7740, 35814.00
709.9290, 35887.00
711.0830, 36090.00
712.2370, 36105.00
713.3910, 35866.00
714.5450, 35803.00
715.6980, 36088.00
716.8520, 35934.00
718.0050, 36253.00
719.1580, 36018.00
720.3110, 36071.54
721.4640, 36165.00
722.6170, 36012.00
723.7700, 36269.00
724.9220, 36253.00
726.0740, 36111.00
727.2260, 36085.00
728.3780, 36313.00
729.5300, 36091.00
730.6810, 36183.00
731.8330, 36117.00
732.9840, 36314.00
734.1350, 36203.00
735.2860, 36077.00
736.4370, 36146.00
737.5880, 36103.00
738.7380, 36504.00
739.8880, 36350.00
741.0390, 36295.00
742.1890, 36362.00
743.3380, 36178.00
744.4880, 36501.00
745.6380, 36463.00
746.7870, 36432.00
747.9360, 36238.00
749.0850, 36351.00
750.2340, 36416.00
751.3830, 36227.00
752.5310, 36519.00
753.6800, 36418.00
754.8280, 36554.00
755.9760, 36473.00
757.1240, 36741.00
758.2720, 36348.00
759.4190, 36659.00
760.5670, 36465.00
761.7140, 36481.00
762.8610, 36517.00
764.0080, 36231.00
765.1550, 36559.00
766.3020, 36394.00
767.4480, 36363.00
768.5950, 36590.00
769.7410, 36324.00
770.8870, 36497.00
772.0330, 36541.00
773.1780, 36549.00
774.3240, 36363.00
775.4690, 36354.00
776.6140, 36313.00
777.7590, 36520.00
778.9040, 36471.00
780.0490, 36614.00
781.1940, 36542.00
782.3380, 36663.00
783.4820, 36549.00
784.6260, 36710.00
785.7700, 36478.00
786.9140, 36709.00
788.0580, 36801.00
789.2010, 36796.00
790.3450, 36647.00
791.4880, 36594.00
792.6310, 36397.00
793.7730, 36452.53
794.9160, 36688.00
796.0590, 36588.00
797.2010, 36668.00
798.3430, 36823.00
799.4850, 36775.00
800.6270, 36638.00
801.7690, 36603.00
802.9100, 36534.00
804.0520, 36640.00
805.1930, 36758.00
806.3340, 36694.00
807.4750, 36704.00
808.6160, 36750.00
809.7560, 36671.00
810.8970, 36706.00
812.0370, 36655.00
813.1770, 36603.00
814.3170, 36668.00
815.4570, 36858.00
816.5960, 36874.00
817.7360, 37019.00
818.8750, 36708.00
820.0140, 36897.00
821.1530, 36703.00
822.2920, 36855.00
823.4310, 36825.00
824.5690, 36786.00
825.7070, 36782.00
826.8460, 36792.34
827.9840, 36671.00
829.1220, 36863.00
830.2590, 36772.00
831.3970, 36835.00
832.5340, 37041.00
833.6710, 36747.00
834.8080, 36769.00
835.9450, 36610.00
837.0820, 36568.00
838.2190, 36896.00
839.3550, 36779.00
840.4910, 36819.00
841.6270, 36964.00
842.7630, 36951.00
843.8990, 36937.00
845.0350, 36931.00
846.1700, 36896.00
847.3060, 36925.00
848.4410, 36905.00
849.5760, 36762.00
850.7100, 36933.00
851.8450, 36865.00
852.9800, 37112.00
854.1140, 36988.00
855.2480, 37068.00
856.3820, 36757.00
857.5160, 37139.00
858.6500, 36913.00
859.7830, 36989.00
860.9170, 36882.00
862.0500, 36850.00
863.1830, 36985.00
864.3160, 36926.00
865.4480, 37292.00
866.5810, 37057.00
867.7130, 36858.00
868.8460, 37198.00
869.9780, 37128.00
871.1100, 37206.00
872.2410, 37130.00
873.3730, 36809.00
874.5050, 37263.00
875.6360, 36998.00
876.7670, 37183.00
877.8980, 37465.00
879.0290, 37291.00
880.1590, 37310.00
881.2900, 37289.00
882.4200, 37329.00
883.5500, 37317.00
884.6800, 37420.00
885.8100, 37361.07
886.9400, 37351.21
888.0690, 37275.00
889.1990, 37337.00
890.3280, 37288.00
891.4570, 37446.00
892.5860, 37277.00
893.7140, 37478.00
894.8430, 37338.00
895.9710, 37495.00
897.1000, 37482.00
898.2280, 37219.00
899.3560, 37541.00
900.4830, 37298.00
901.6110, 37523.00
902.7380, 37332.00
903.8660, 37424.00
904.9930, 37254.00
906.1200, 37469.00
907.2460, 37503.00
908.3730, 37634.00
909.5000, 37543.00
910.6260, 37559.00
911.7520, 37691.00
912.8780, 37586.00
914.0040, 37654.08
915.1290, 37589.00
916.2550, 37702.00
917.3800, 37635.00
918.5050, 37708.00
919.6300, 37778.00
920.7550, 37683.00
921.8800, 37681.00
923.0040, 37758.00
924.1290, 37587.00
925.2530, 37950.00
926.3770, 37602.00
927.5010, 37783.00
928.6250, 37839.00
929.7480, 37772.00
930.8720, 37800.00
931.9950, 37975.00
933.1180, 37858.00
934.2410, 37841.00
935.3640, 37905.00
936.4860, 38267.00
937.6090, 38048.00
938.7310, 37659.00
939.8530, 38018.00
940.9750, 37878.00
942.0970, 37864.00
943.2180, 37830.00
944.3400, 38128.00
945.4610, 38070.00
946.5820, 38129.00
947.7030, 38178.25
948.8240, 38126.24
949.9450, 38167.00
951.0650, 38072.00
952.1860, 38089.00
953.3060, 38081.00
954.4260, 37998.00
955.5460, 38054.00
956.6650, 37961.00
957.7850, 37960.00
958.9040, 37954.57
960.0230, 37981.00
961.1420, 37919.00
962.2610, 38043.00
963.3800, 38003.00
964.4990, 38411.00
965.6170, 38146.00
966.7350, 38421.00
967.8530, 38306.00
968.9710, 38256.00
970.0890, 38226.00
971.2070, 38639.00
972.3240, 38176.00
973.4410, 38442.00
974.5580, 38294.00
975.6750, 38285.00
976.7920, 38169.00
977.9090, 38256.99
979.0250, 38491.00
980.1410, 38475.00
981.2580, 38481.00
982.3740, 38590.00
983.4890, 38498.00
984.6050, 38643.00
985.7200, 38690.00
986.8360, 38681.00
987.9510, 38791.24
989.0660, 38790.52
990.1810, 38915.00
991.2950, 38778.00
992.4100, 38810.00
993.5240, 38667.00
994.6390, 38752.00
995.7530, 38693.57
996.8660, 38694.86
997.9800, 38654.00
999.0940, 38747.00
1000.207, 38745.00
1001.320, 38823.00
1002.433, 38895.00
1003.546, 38883.70
1004.659, 39039.00
1005.772, 38849.00
1006.884, 38906.00
1007.996, 38811.00
1009.108, 38972.00
1010.220, 39051.00
1011.332, 39036.00
1012.444, 38756.00
1013.555, 38929.00
1014.666, 38948.00
1015.777, 38512.00
1016.888, 38986.00
1017.999, 38746.00
1019.110, 39142.00
1020.220, 38834.00
1021.331, 39037.00
1022.441, 38878.00
1023.551, 38950.00
1024.661, 38882.00
1025.770, 38814.00
1026.880, 38975.00
1027.989, 38903.00
1029.098, 38954.00
1030.207, 39006.26
1031.316, 39088.00
1032.425, 39070.00
1033.533, 39025.00
1034.642, 39033.00
1035.750, 39030.00
1036.858, 39070.00
1037.966, 39131.00
1039.073, 39231.00
1040.181, 39107.00
1041.288, 39270.00
1042.396, 39448.00
1043.503, 39211.00
1044.610, 39387.00
1045.716, 39076.00
1046.823, 39494.00
1047.929, 39197.00
1049.036, 39282.00
1050.142, 39271.00
1051.248, 39428.00
1052.353, 39240.00
1053.459, 39451.00
1054.564, 39500.00
1055.670, 39314.00
1056.775, 39338.00
1057.880, 39327.00
1058.985, 39340.00
1060.089, 39061.00
1061.194, 39318.00
1062.298, 39602.00
1063.402, 39351.00
1064.506, 39523.00
1065.610, 39567.00
1066.713, 39119.00
1067.817, 39337.00
1068.920, 39409.00
1070.023, 39419.00
1071.126, 39584.00
1072.229, 39515.00
1073.332, 39051.00
1074.435, 39359.00
1075.537, 39196.00
1076.639, 39392.00
1077.741, 39446.00
1078.843, 39707.00
1079.945, 39325.00
1081.046, 39226.00
1082.148, 39513.00
1083.249, 39187.00
1084.350, 39484.00
1085.451, 39509.00
1086.551, 39356.00
1087.652, 39415.00
1088.752, 39318.00
1089.853, 39136.00
1090.953, 39202.00
1092.053, 39160.72
1093.152, 39630.00
1094.252, 39260.00
1095.351, 39395.00
1096.451, 39494.00
1097.550, 39351.00
1098.649, 39166.00
1099.748, 39576.00
1100.846, 39431.00
1101.945, 39234.00
1103.043, 39196.00
1104.141, 39124.00
1105.239, 39275.00
1106.337, 39408.00
1107.434, 39601.00
1108.532, 39222.00
1109.629, 39256.00
1110.726, 39299.00
1111.823, 39195.00
1112.920, 39214.00
1114.017, 39464.00
1115.113, 39454.00
1116.210, 39637.00
1117.306, 39458.00
1118.402, 39927.00
1119.498, 40069.00
1120.593, 39811.00
1121.689, 40121.00
1122.784, 40062.00
1123.879, 40103.00
1124.974, 40019.00
1126.069, 39838.00
1127.164, 39691.00
1128.259, 39532.00
1129.353, 39453.00
1130.447, 39228.00
1131.541, 38957.00
1132.635, 38753.00
1133.729, 38870.00
1134.822, 38970.00
1135.916, 38712.00
1137.009, 38935.00
1138.102, 38827.00
1139.195, 38693.00
1140.288, 38949.00
1141.380, 38911.00
1142.473, 38684.00
1143.565, 39051.00
1144.657, 38893.00
1145.749, 38790.00
1146.841, 38627.00
1147.932, 38721.00
1149.024, 38720.00
1150.115, 38879.00
1151.206, 38914.00
1152.297, 38804.00
1153.388, 38838.00
1154.479, 38703.00
1155.569, 38517.00
1156.659, 38841.00
1157.750, 38611.00
1158.839, 38859.00
1159.929, 38669.00
1161.019, 38683.00
1162.108, 39030.00
1163.198, 38654.00
1164.287, 38705.00
1165.376, 38619.00
1166.465, 38719.00
1167.553, 38680.00
1168.642, 38676.00
1169.730, 38586.00
1170.818, 38669.00
1171.906, 38674.00
1172.994, 38656.00
1174.082, 38841.00
1175.170, 38689.00
1176.257, 38923.00
1177.344, 38629.00
1178.431, 38755.00
1179.518, 38757.00
1180.605, 38529.00
1181.691, 38932.00
1182.778, 38918.00
1183.864, 38641.00
1184.950, 38695.00
1186.036, 38500.00
1187.122, 38447.01
1188.207, 38654.88
1189.292, 38767.60
1190.378, 38790.26
1191.463, 38453.21
1192.548, 38580.68
1193.632, 38521.99
1194.717, 38455.66
1195.801, 38648.52
1196.886, 38363.79
1197.970, 38552.53
1199.054, 38552.28
1200.137, 38638.54
1201.221, 38537.48
1202.305, 38395.00
1203.388, 38466.00
1204.471, 38464.00
1205.554, 38644.00
1206.637, 38597.00
1207.719, 38577.00
1208.802, 38793.00
1209.884, 38658.00
1210.966, 38610.00
1212.048, 38526.00
1213.130, 38696.00
1214.212, 38361.00
1215.293, 38362.00
1216.374, 38551.00
1217.456, 38720.00
1218.536, 38610.00
1219.617, 38397.00
1220.698, 38512.00
1221.778, 38498.00
1222.859, 38562.00
1223.939, 38460.00
1225.019, 38769.00
1226.099, 38632.00
1227.178, 38612.00
1228.258, 38361.00
1229.337, 38572.00
1230.417, 38612.00
1231.496, 38543.00
1232.574, 38430.00
1233.653, 38460.64
1234.732, 38404.84
1235.810, 38510.00
1236.888, 38318.54
1237.966, 38525.86
1239.044, 38638.02
1240.122, 38660.13
1241.199, 38322.53
1242.277, 38449.43
1243.354, 38390.18
1244.431, 38323.30
1245.508, 38515.58
1246.585, 38427.00
1247.661, 38432.00
1248.738, 38425.00
1249.814, 38783.00
1250.890, 38422.00
1251.966, 38695.00
1253.042, 38470.00
1254.117, 38583.00
1255.193, 38607.00
1256.268, 38674.00
1257.343, 38558.00
