##NAMES=Arsenopyrite
##RRUFFID=R050071
##IDEAL CHEMISTRY=Fe^3+^(AsS)^3-^
##LOCALITY=Yaogangxian mine, Yizhang County, Hunan Province, China
##OWNER=RRUFF
##SOURCE=Rock Currier
##DESCRIPTION=Steel-gray tabular
##STATUS=The identification of this mineral has been confirmed by X-ray diffraction and chemical analysis
##URL=rruff.info/R050071
##MEASURED CHEMISTRY=FeAsS
##PIN_ID=L00167
##ORIENTATION=Laser parallel to (1 0 1). Fiducial mark perpendicular to laser is parallel to b [0 1 0]
72.47700, 25612.00
73.71400, 28752.00
74.95100, 33322.00
76.18700, 38431.00
77.42300, 42272.00
78.65900, 44673.00
79.89500, 43742.00
81.13100, 37104.00
82.36700, 32301.00
83.60200, 30351.00
84.83700, 30185.00
86.07200, 29088.00
87.30800, 28557.00
88.54200, 29074.00
89.77700, 29107.00
91.01200, 29404.00
92.24600, 29583.28
93.48000, 29569.94
94.71400, 29642.00
95.94800, 29533.00
97.18200, 29093.00
98.41600, 28994.00
99.64900, 29123.00
100.8830, 28949.00
102.1160, 29060.00
103.3490, 29346.00
104.5820, 30341.00
105.8150, 31827.00
107.0470, 33886.00
108.2800, 37758.00
109.5120, 41350.00
110.7440, 39206.00
111.9760, 36806.00
113.2080, 38231.00
114.4400, 40734.00
115.6710, 45024.00
116.9030, 50036.00
118.1340, 58814.00
119.3650, 63671.00
120.5960, 56985.00
121.8270, 49025.00
123.0580, 41188.00
124.2880, 33693.00
125.5190, 29736.00
126.7490, 29007.00
127.9790, 28531.00
129.2090, 28778.00
130.4390, 28735.00
131.6680, 28541.00
132.8980, 28468.00
134.1270, 28357.00
135.3560, 28348.00
136.5850, 28630.00
137.8140, 28504.00
139.0430, 28633.00
140.2710, 28567.54
141.5000, 28547.00
142.7280, 28376.00
143.9560, 28319.99
145.1840, 27993.00
146.4120, 28157.00
147.6390, 27927.00
148.8670, 27919.00
150.0940, 27863.00
151.3210, 28038.00
152.5490, 28084.00
153.7750, 28345.00
155.0020, 28388.00
156.2290, 28101.00
157.4550, 28319.00
158.6810, 28326.00
159.9080, 28307.00
161.1340, 28563.00
162.3590, 29155.00
163.5850, 28500.00
164.8110, 28749.00
166.0360, 28682.00
167.2610, 28202.00
168.4860, 27892.00
169.7110, 28196.00
170.9360, 28105.00
172.1610, 28144.00
173.3850, 28216.00
174.6100, 28320.00
175.8340, 28343.00
177.0580, 28150.00
178.2820, 28249.00
179.5050, 28335.00
180.7290, 27993.00
181.9520, 28008.00
183.1760, 28120.00
184.3990, 27949.00
185.6220, 28161.00
186.8450, 28324.00
188.0670, 28461.00
189.2900, 28494.00
190.5120, 28633.00
191.7340, 28968.00
192.9560, 29045.00
194.1780, 28997.00
195.4000, 29082.00
196.6220, 29053.00
197.8430, 29039.00
199.0640, 29270.00
200.2860, 29140.00
201.5070, 29301.00
202.7270, 29392.00
203.9480, 28935.00
205.1690, 28404.00
206.3890, 28203.00
207.6090, 27758.00
208.8290, 27669.00
210.0490, 27801.00
211.2690, 27817.00
212.4890, 27868.00
213.7080, 28150.00
214.9280, 28259.00
216.1470, 27998.00
217.3660, 27723.00
218.5850, 27953.00
219.8030, 27905.00
221.0220, 27907.00
222.2400, 27979.00
223.4590, 27842.00
224.6770, 27983.00
225.8950, 27914.00
227.1120, 27694.00
228.3300, 27809.00
229.5480, 27967.00
230.7650, 27797.00
231.9820, 27905.00
233.1990, 27977.00
234.4160, 27986.00
235.6330, 28207.00
236.8490, 27852.00
238.0660, 28051.00
239.2820, 27924.00
240.4980, 28033.00
241.7140, 28118.00
242.9300, 28098.00
244.1460, 27913.00
245.3610, 28030.00
246.5770, 27919.00
247.7920, 28037.00
249.0070, 28262.00
250.2220, 28213.00
251.4370, 28158.00
252.6510, 28452.00
253.8660, 28301.00
255.0800, 28172.00
256.2940, 28483.00
257.5080, 28816.00
258.7220, 30192.00
259.9360, 29779.96
261.1490, 29816.86
262.3630, 29674.00
263.5760, 29025.00
264.7890, 29184.00
266.0020, 29056.00
267.2150, 29155.00
268.4270, 29489.00
269.6400, 29406.00
270.8520, 29287.00
272.0640, 28906.00
273.2760, 28728.00
274.4880, 28702.00
275.7000, 28642.00
276.9120, 28915.00
278.1230, 28932.00
279.3340, 29134.00
280.5450, 28774.00
281.7560, 28926.00
282.9670, 28885.00
284.1780, 28938.00
285.3880, 28871.00
286.5980, 28876.00
287.8090, 28996.00
289.0190, 28760.00
290.2290, 28750.00
291.4380, 28971.00
292.6480, 28915.00
293.8570, 29092.00
295.0670, 28860.00
296.2760, 29086.00
297.4850, 28947.00
298.6930, 29148.00
299.9020, 29169.00
301.1110, 28974.00
302.3190, 29504.00
303.5270, 29481.00
304.7350, 29192.00
305.9430, 29207.00
307.1510, 29261.00
308.3580, 29453.00
309.5660, 29278.00
310.7730, 29449.00
311.9800, 29308.00
313.1870, 29498.00
314.3940, 29576.00
315.6010, 29373.00
316.8070, 29480.00
318.0130, 29433.00
319.2200, 29638.00
320.4260, 29483.00
321.6310, 29567.00
322.8370, 29684.00
324.0430, 29578.00
325.2480, 29620.00
326.4540, 29813.00
327.6590, 29530.00
328.8640, 29666.00
330.0680, 29829.00
331.2730, 29987.00
332.4780, 30007.10
333.6820, 29885.00
334.8860, 29965.00
336.0900, 29897.00
337.2940, 29740.00
338.4980, 30097.00
339.7010, 29914.00
340.9050, 29754.00
342.1080, 30135.00
343.3110, 30156.00
344.5140, 30084.00
345.7170, 30188.00
346.9200, 29966.00
348.1220, 30103.00
349.3240, 30097.00
350.5270, 30111.00
351.7290, 30358.00
352.9310, 30290.00
354.1320, 30265.00
355.3340, 30277.00
356.5350, 30226.00
357.7370, 30327.00
358.9380, 30280.00
360.1390, 30218.00
361.3400, 30325.00
362.5400, 30204.00
363.7410, 30412.00
364.9410, 30356.00
366.1410, 30428.00
367.3410, 30372.00
368.5410, 30311.00
369.7410, 30238.00
370.9400, 30483.00
372.1400, 30460.00
373.3390, 30595.00
374.5380, 30558.00
375.7370, 30517.00
376.9360, 30364.00
378.1350, 30519.00
379.3330, 30511.00
380.5310, 30435.00
381.7300, 30526.00
382.9280, 30574.00
384.1260, 30448.00
385.3230, 30743.00
386.5210, 30651.00
387.7180, 30752.00
388.9160, 30606.00
390.1130, 30784.00
391.3100, 30675.00
392.5060, 30806.00
393.7030, 30557.00
394.9000, 30875.00
396.0960, 30743.00
397.2920, 30566.00
398.4880, 30700.00
399.6840, 30849.00
400.8800, 31039.00
402.0750, 31020.00
403.2710, 30931.00
404.4660, 31013.00
405.6610, 30991.00
406.8560, 30934.00
408.0510, 31193.00
409.2450, 31089.00
410.4400, 30879.00
411.6340, 31189.00
412.8280, 31144.00
414.0220, 31060.00
415.2160, 31198.00
416.4100, 31190.00
417.6030, 31277.00
418.7970, 31197.00
419.9900, 31202.00
421.1830, 31141.00
422.3760, 31208.00
423.5690, 31217.07
424.7610, 31252.00
425.9540, 31285.00
427.1460, 31329.03
428.3380, 31439.00
429.5300, 31410.00
430.7220, 31475.52
431.9140, 31463.00
433.1050, 31454.00
434.2970, 31483.00
435.4880, 31375.00
436.6790, 31528.00
437.8700, 31577.00
439.0610, 31808.00
440.2510, 31598.00
441.4420, 31750.00
442.6320, 31799.00
443.8220, 31781.00
445.0120, 31642.00
446.2020, 31666.00
447.3910, 31719.00
448.5810, 31923.00
449.7700, 31744.00
450.9600, 32048.00
452.1490, 31986.00
453.3370, 31928.00
454.5260, 31988.00
455.7150, 31794.00
456.9030, 31886.00
458.0910, 31928.00
459.2800, 31982.00
460.4670, 31899.00
461.6550, 32122.00
462.8430, 31962.00
464.0300, 31927.00
465.2180, 32205.00
466.4050, 32011.00
467.5920, 31912.00
468.7790, 32130.00
469.9650, 32272.00
471.1520, 32183.00
472.3380, 32204.00
473.5250, 32282.00
474.7110, 32285.00
475.8970, 32174.00
477.0820, 32185.00
478.2680, 32023.00
479.4540, 32104.51
480.6390, 32353.00
481.8240, 32303.00
483.0090, 32383.00
484.1940, 32621.00
485.3780, 32458.00
486.5630, 32775.00
487.7470, 32650.00
488.9320, 32634.00
490.1160, 32556.00
491.3000, 32697.00
492.4830, 32480.00
493.6670, 32661.00
494.8500, 32860.00
496.0340, 32586.00
497.2170, 32755.00
498.4000, 32947.00
499.5820, 32699.00
500.7650, 32886.00
501.9480, 32803.00
503.1300, 33141.00
504.3120, 32734.00
505.4940, 32786.00
506.6760, 33044.00
507.8580, 32843.00
509.0390, 33114.00
510.2210, 33094.00
511.4020, 32993.00
512.5830, 33012.00
513.7640, 32933.00
514.9450, 33227.00
516.1250, 33129.00
517.3060, 33240.00
518.4860, 33110.00
519.6660, 33206.00
520.8460, 33165.00
522.0260, 33183.00
523.2060, 33230.00
524.3850, 33460.00
525.5650, 33127.00
526.7440, 33489.00
527.9230, 33066.00
529.1020, 33267.00
530.2810, 33240.00
531.4590, 33320.00
532.6380, 33434.00
533.8160, 33521.00
534.9940, 33199.00
536.1720, 33248.00
537.3500, 33222.00
538.5270, 33457.00
539.7050, 33453.00
540.8820, 33493.00
542.0590, 33566.95
543.2360, 33454.00
544.4130, 33571.00
545.5900, 33566.00
546.7660, 33487.00
547.9430, 33763.00
549.1190, 33618.00
550.2950, 33808.00
551.4710, 33602.00
552.6470, 33833.00
553.8220, 34001.00
554.9980, 33768.00
556.1730, 33774.00
557.3480, 33611.00
558.5230, 33835.00
559.6980, 33534.00
560.8730, 33781.00
562.0470, 34054.00
563.2220, 33819.00
564.3960, 34081.00
565.5700, 33865.00
566.7440, 33869.00
567.9170, 33759.00
569.0910, 34030.00
570.2640, 33865.00
571.4380, 33858.00
572.6110, 33782.00
573.7840, 33703.00
574.9570, 33663.00
576.1290, 33598.00
577.3020, 33495.00
578.4740, 33440.29
579.6460, 33548.00
580.8180, 33391.00
581.9900, 33251.00
583.1620, 33440.00
584.3330, 33247.00
585.5040, 33150.00
586.6760, 33237.00
587.8470, 33148.00
589.0180, 33012.00
590.1880, 33144.00
591.3590, 33197.00
592.5290, 32997.00
593.7000, 33121.00
594.8700, 33310.00
596.0400, 33101.00
597.2090, 33218.00
598.3790, 33165.00
599.5490, 33168.00
600.7180, 33279.00
601.8870, 33258.00
603.0560, 33091.00
604.2250, 33129.00
605.3940, 33106.25
606.5620, 33413.00
607.7300, 33150.00
608.8990, 33335.00
610.0670, 33367.00
611.2350, 33294.00
612.4020, 33361.00
613.5700, 33242.00
614.7370, 33059.00
615.9050, 33384.00
617.0720, 33253.00
618.2390, 33446.00
619.4060, 33558.00
620.5720, 33332.00
621.7390, 33383.00
622.9050, 33527.00
624.0710, 33466.00
625.2370, 33552.00
626.4030, 33309.00
627.5690, 33291.00
628.7340, 33487.00
629.9000, 33196.00
631.0650, 33682.00
632.2300, 33591.00
633.3950, 33596.00
634.5600, 33230.00
635.7240, 33466.00
636.8890, 33344.00
638.0530, 33384.00
639.2170, 33433.00
640.3810, 33395.89
641.5450, 33382.00
642.7080, 33419.00
643.8720, 33605.00
645.0350, 33636.00
646.1980, 33650.00
647.3610, 33757.20
648.5240, 33564.00
649.6870, 33826.00
650.8490, 33488.00
652.0120, 33384.00
653.1740, 33642.00
654.3360, 33693.00
655.4980, 33184.00
656.6600, 33505.00
657.8210, 33554.00
658.9830, 33023.00
660.1440, 33357.00
661.3050, 33539.00
662.4660, 33494.00
663.6270, 33513.00
664.7870, 33499.00
665.9480, 33531.00
667.1080, 33617.00
668.2680, 33743.00
669.4280, 33458.00
670.5880, 33715.00
671.7480, 33470.00
672.9070, 33529.00
674.0670, 33410.00
675.2260, 33494.00
676.3850, 33646.00
677.5440, 33623.00
678.7030, 33657.00
679.8610, 33627.00
681.0200, 33685.00
682.1780, 33607.00
683.3360, 33473.00
684.4940, 33684.00
685.6520, 33811.00
686.8090, 33462.00
687.9670, 33672.00
689.1240, 33763.00
690.2810, 33514.00
691.4380, 33652.00
692.5950, 33717.00
693.7520, 33656.00
694.9080, 33499.00
696.0650, 33667.00
697.2210, 33645.00
698.3770, 33653.00
699.5330, 33863.00
700.6880, 33828.00
701.8440, 33797.00
702.9990, 33638.00
704.1550, 33737.00
705.3100, 33699.00
706.4650, 33739.00
707.6190, 33692.00
708.7740, 33756.00
709.9290, 33894.00
711.0830, 33714.00
712.2370, 33879.00
713.3910, 33589.00
714.5450, 33610.00
715.6980, 33907.00
716.8520, 33698.00
718.0050, 33833.00
719.1580, 33984.00
720.3110, 33748.00
721.4640, 34073.00
722.6170, 33767.00
723.7700, 33841.00
724.9220, 33984.00
726.0740, 34013.00
727.2260, 33942.00
728.3780, 33931.00
729.5300, 33931.00
730.6810, 34184.00
731.8330, 33904.00
732.9840, 34050.00
734.1350, 33740.00
735.2860, 34053.00
736.4370, 34310.00
737.5880, 33908.00
738.7380, 34127.00
739.8880, 34048.00
741.0390, 33902.00
742.1890, 34122.00
743.3380, 33849.00
744.4880, 33825.00
745.6380, 34028.00
746.7870, 34302.00
747.9360, 34224.00
749.0850, 34020.00
750.2340, 34096.00
751.3830, 34180.00
752.5310, 34168.00
753.6800, 34353.00
754.8280, 34405.00
755.9760, 34442.00
757.1240, 34498.00
758.2720, 34378.00
759.4190, 34124.00
760.5670, 34048.00
761.7140, 34153.00
762.8610, 34207.00
764.0080, 34205.00
765.1550, 34208.00
766.3020, 34365.00
767.4480, 34331.00
768.5950, 34293.00
769.7410, 34195.00
770.8870, 34278.00
772.0330, 34478.00
773.1780, 34188.00
774.3240, 34417.00
775.4690, 34345.00
776.6140, 34293.00
777.7590, 34292.00
778.9040, 34247.37
780.0490, 34543.00
781.1940, 34289.00
782.3380, 34322.00
783.4820, 34514.00
784.6260, 34360.00
785.7700, 34439.00
786.9140, 34332.00
788.0580, 34401.00
789.2010, 34297.00
790.3450, 34226.00
791.4880, 34481.00
792.6310, 34253.00
793.7730, 34554.00
794.9160, 34309.00
796.0590, 34437.00
797.2010, 34220.00
798.3430, 34521.00
799.4850, 34542.00
800.6270, 34588.00
801.7690, 34375.00
802.9100, 34710.00
804.0520, 34771.00
805.1930, 34652.48
806.3340, 35173.00
807.4750, 34495.00
808.6160, 34503.00
809.7560, 34501.00
810.8970, 34534.00
812.0370, 34539.00
813.1770, 34832.00
814.3170, 34626.00
815.4570, 34762.00
816.5960, 34603.00
817.7360, 34602.00
818.8750, 34588.00
820.0140, 34592.00
821.1530, 34502.00
822.2920, 34603.00
823.4310, 34531.00
824.5690, 34619.00
825.7070, 34688.00
826.8460, 34684.11
827.9840, 34743.80
829.1220, 34768.00
830.2590, 34720.00
831.3970, 34803.00
832.5340, 34637.00
833.6710, 34615.00
834.8080, 34486.00
835.9450, 34725.00
837.0820, 34916.00
838.2190, 34766.00
839.3550, 34792.00
840.4910, 34701.00
841.6270, 34907.00
842.7630, 34918.00
843.8990, 34616.00
845.0350, 34933.00
846.1700, 34399.00
847.3060, 34728.00
848.4410, 34868.00
849.5760, 34850.00
850.7100, 35047.00
851.8450, 34994.90
852.9800, 34987.25
854.1140, 34905.00
855.2480, 34924.00
856.3820, 34817.00
857.5160, 34877.00
858.6500, 34754.00
859.7830, 34955.00
860.9170, 34810.00
862.0500, 34911.00
863.1830, 34976.00
864.3160, 34896.00
865.4480, 34786.00
866.5810, 35098.00
867.7130, 34982.00
868.8460, 35003.00
869.9780, 34844.00
871.1100, 34926.00
872.2410, 35324.00
873.3730, 35188.00
874.5050, 35193.00
875.6360, 35315.00
876.7670, 35249.00
877.8980, 35095.00
879.0290, 35050.00
880.1590, 35054.00
881.2900, 35233.00
882.4200, 35349.00
883.5500, 35333.00
884.6800, 35109.00
885.8100, 35188.00
886.9400, 35062.00
888.0690, 35116.00
889.1990, 35252.00
890.3280, 35229.00
891.4570, 35037.00
892.5860, 35269.00
893.7140, 35157.00
894.8430, 35277.00
895.9710, 35302.00
897.1000, 35202.00
898.2280, 35484.00
899.3560, 35377.00
900.4830, 35228.00
901.6110, 35448.00
902.7380, 35348.00
903.8660, 35418.00
904.9930, 35406.00
906.1200, 35326.00
907.2460, 35495.00
908.3730, 35402.00
909.5000, 35509.00
910.6260, 35654.00
911.7520, 35349.00
912.8780, 35485.00
914.0040, 35633.00
915.1290, 35545.00
916.2550, 35564.00
917.3800, 35493.00
918.5050, 35381.00
919.6300, 35555.00
920.7550, 35769.00
921.8800, 35429.00
923.0040, 35589.00
924.1290, 35517.00
925.2530, 35580.46
926.3770, 35671.07
927.5010, 35852.00
928.6250, 35681.00
929.7480, 35807.00
930.8720, 35477.00
931.9950, 35846.00
933.1180, 35954.00
934.2410, 35833.00
935.3640, 35967.00
936.4860, 35809.00
937.6090, 35776.00
938.7310, 35789.00
939.8530, 35950.00
940.9750, 35934.00
942.0970, 35850.00
943.2180, 35805.00
944.3400, 35894.00
945.4610, 36012.00
946.5820, 36163.00
947.7030, 36051.00
948.8240, 36057.00
949.9450, 36066.04
951.0650, 36105.00
952.1860, 36004.00
953.3060, 36030.00
954.4260, 35954.00
955.5460, 36298.00
956.6650, 36251.00
957.7850, 36310.00
958.9040, 35905.00
960.0230, 35996.00
961.1420, 36085.00
962.2610, 36015.00
963.3800, 36102.00
964.4990, 36148.00
965.6170, 36069.00
966.7350, 35987.00
967.8530, 36084.00
968.9710, 36267.00
970.0890, 36153.00
971.2070, 36260.00
972.3240, 36338.00
973.4410, 36133.00
974.5580, 36246.00
975.6750, 36406.00
976.7920, 36335.63
977.9090, 36437.04
979.0250, 36334.00
980.1410, 36436.00
981.2580, 36310.00
982.3740, 36190.00
983.4890, 36361.00
984.6050, 36284.21
985.7200, 36504.00
986.8360, 36428.00
987.9510, 36367.00
989.0660, 36574.00
990.1810, 36615.00
991.2950, 36698.00
992.4100, 36644.00
993.5240, 36508.00
994.6390, 36608.00
995.7530, 36570.00
996.8660, 36646.00
997.9800, 36657.00
999.0940, 36687.00
1000.207, 36453.00
1001.320, 36695.00
1002.433, 36409.00
1003.546, 36474.00
1004.659, 36562.00
1005.772, 36533.00
1006.884, 36558.00
1007.996, 36585.00
1009.108, 37062.00
1010.220, 36666.00
1011.332, 36534.00
1012.444, 36994.00
1013.555, 36744.00
1014.666, 36587.00
1015.777, 36774.00
1016.888, 36888.00
1017.999, 36589.00
1019.110, 36794.00
1020.220, 36656.00
1021.331, 36630.00
1022.441, 36725.00
1023.551, 37044.00
1024.661, 36831.00
1025.770, 36931.00
1026.880, 36789.00
1027.989, 36776.00
1029.098, 36555.00
1030.207, 36631.65
1031.316, 36645.14
1032.425, 36806.00
1033.533, 36812.00
1034.642, 37037.00
1035.750, 37130.00
1036.858, 37119.71
1037.966, 37158.00
1039.073, 37064.00
1040.181, 37108.00
1041.288, 37034.00
1042.396, 37124.00
1043.503, 36927.00
1044.610, 37130.00
1045.716, 37253.00
1046.823, 37190.00
1047.929, 36999.00
1049.036, 37147.00
1050.142, 37094.00
1051.248, 37252.00
1052.353, 37250.00
1053.459, 37270.71
1054.564, 37207.00
1055.670, 37291.00
1056.775, 37370.00
1057.880, 37367.00
1058.985, 37423.31
1060.089, 37425.00
1061.194, 37479.00
1062.298, 37355.00
1063.402, 37398.00
1064.506, 37182.00
1065.610, 37456.00
1066.713, 37414.00
1067.817, 37130.00
1068.920, 37278.00
1070.023, 37091.00
1071.126, 37599.00
1072.229, 37117.00
1073.332, 37442.00
1074.435, 37587.00
1075.537, 37341.00
1076.639, 37555.00
1077.741, 37649.00
1078.843, 37247.00
1079.945, 37238.00
1081.046, 37330.00
1082.148, 37325.00
1083.249, 37287.76
1084.350, 37360.00
1085.451, 37216.00
1086.551, 37415.00
1087.652, 37486.00
1088.752, 37513.00
1089.853, 37261.00
1090.953, 37345.63
1092.053, 37419.69
1093.152, 37444.00
1094.252, 37453.00
1095.351, 37446.43
1096.451, 37305.00
1097.550, 37328.00
1098.649, 37340.00
1099.748, 37171.00
1100.846, 37296.00
1101.945, 37445.00
1103.043, 37310.00
1104.141, 37210.00
1105.239, 37405.00
1106.337, 37188.00
1107.434, 37360.00
1108.532, 37283.00
1109.629, 37206.00
1110.726, 37461.00
1111.823, 37230.00
1112.920, 37225.00
1114.017, 37304.00
1115.113, 37331.00
1116.210, 37341.00
1117.306, 37435.00
1118.402, 37298.00
1119.498, 37131.00
1120.593, 37379.00
1121.689, 37176.00
1122.784, 37279.00
1123.879, 37263.00
1124.974, 37297.00
1126.069, 37380.00
1127.164, 37134.00
1128.259, 37344.00
1129.353, 37144.00
1130.447, 37017.00
1131.541, 37031.00
1132.635, 36753.00
1133.729, 37041.00
1134.822, 36756.00
1135.916, 37122.00
1137.009, 37019.00
1138.102, 36971.00
1139.195, 36898.00
1140.288, 36907.00
1141.380, 36917.16
1142.473, 36902.00
1143.565, 37018.00
1144.657, 37020.00
1145.749, 37100.00
1146.841, 36920.00
1147.932, 37009.00
1149.024, 37164.00
1150.115, 37005.00
1151.206, 37109.77
1152.297, 37084.00
1153.388, 37128.00
1154.479, 37132.00
1155.569, 37162.00
1156.659, 37187.00
1157.750, 36971.00
1158.839, 36866.00
1159.929, 36788.00
1161.019, 36954.00
1162.108, 36811.00
1163.198, 36766.00
1164.287, 37018.00
1165.376, 36845.00
1166.465, 37000.00
1167.553, 36797.00
1168.642, 36854.00
1169.730, 36865.00
1170.818, 36929.00
1171.906, 36868.00
1172.994, 36772.00
1174.082, 36644.00
1175.170, 36758.00
1176.257, 36827.00
1177.344, 36996.00
1178.431, 36698.00
1179.518, 36762.00
1180.605, 36716.00
1181.691, 36854.00
1182.778, 36794.00
1183.864, 36761.00
1184.950, 36809.00
1186.036, 36745.00
1187.122, 36661.00
1188.207, 36662.13
1189.292, 36801.00
1190.378, 36687.00
1191.463, 36793.00
1192.548, 37022.00
1193.632, 36763.00
1194.717, 36723.00
1195.801, 36934.00
1196.886, 36856.00
1197.970, 36705.00
1199.054, 36837.00
1200.137, 36800.00
1201.221, 36729.00
1202.305, 36803.85
1203.388, 36682.00
1204.471, 36900.00
1205.554, 36839.00
1206.637, 37000.00
1207.719, 36762.00
1208.802, 36726.00
1209.884, 36746.00
1210.966, 36541.00
1212.048, 36816.00
1213.130, 36866.00
1214.212, 36841.00
1215.293, 36820.00
1216.374, 36495.00
1217.456, 36624.00
1218.536, 36674.00
1219.617, 36898.00
1220.698, 36815.00
1221.778, 36716.00
1222.859, 36896.00
1223.939, 37017.00
1225.019, 36662.00
1226.099, 36798.00
1227.178, 36801.00
1228.258, 36698.00
1229.337, 36749.00
1230.417, 37000.00
1231.496, 36897.00
1232.574, 36962.34
1233.653, 36919.00
1234.732, 36901.00
1235.810, 36710.00
1236.888, 36630.00
1237.966, 37194.00
1239.044, 37013.00
1240.122, 37127.00
1241.199, 36762.00
1242.277, 36861.00
1243.354, 36967.00
1244.431, 36878.00
1245.508, 36865.00
1246.585, 36636.00
1247.661, 36878.00
1248.738, 36906.00
1249.814, 36620.00
1250.890, 36833.00
1251.966, 37045.00
1253.042, 36921.00
1254.117, 37002.00
1255.193, 36788.00
1256.268, 36898.00
1257.343, 36956.00
1258.418, 36929.00
1259.493, 36988.53
