##NAMES=Arsenopyrite
##RRUFFID=R050071
##IDEAL CHEMISTRY=Fe^3+^(AsS)^3-^
##LOCALITY=Yaogangxian mine, Yizhang County, Hunan Province, China
##OWNER=RRUFF
##SOURCE=Rock Currier
##DESCRIPTION=Steel-gray tabular
##STATUS=The identification of this mineral has been confirmed by X-ray diffraction and chemical analysis
##URL=rruff.info/R050071
##MEASURED CHEMISTRY=FeAsS
##PIN_ID=L00055
##ORIENTATION=Laser parallel to b* (0 1 0). Fiducial mark perpendicular to laser is parallel to c [0 0 1]
71.24100, 28767.00
72.47700, 32455.00
73.71400, 38523.00
74.95100, 46193.00
76.18700, 52706.00
77.42300, 53035.00
78.65900, 52137.00
79.89500, 47352.00
81.13100, 37878.00
82.36700, 32926.00
83.60200, 31166.00
84.83700, 30805.00
86.07200, 30153.00
87.30800, 30196.00
88.54200, 30502.00
89.77700, 30049.00
91.01200, 30408.00
92.24600, 30969.00
93.48000, 30685.00
94.71400, 30170.00
95.94800, 30568.00
97.18200, 30114.00
98.41600, 29808.00
99.64900, 29847.00
100.8830, 30020.00
102.1160, 30515.00
103.3490, 30954.00
104.5820, 32697.00
105.8150, 35974.00
107.0470, 40889.00
108.2800, 45802.00
109.5120, 47370.00
110.7440, 42742.00
111.9760, 43575.00
113.2080, 47105.00
114.4400, 51748.00
115.6710, 54345.00
116.9030, 56429.00
118.1340, 62600.00
119.3650, 58261.00
120.5960, 43832.00
121.8270, 34394.00
123.0580, 34357.00
124.2880, 32693.00
125.5190, 29668.00
126.7490, 29407.00
127.9790, 29136.00
129.2090, 29200.00
130.4390, 29060.00
131.6680, 29079.00
132.8980, 28866.00
134.1270, 29057.00
135.3560, 29066.00
136.5850, 29034.00
137.8140, 29005.00
139.0430, 29226.00
140.2710, 29494.00
141.5000, 28742.00
142.7280, 28745.00
143.9560, 28438.00
145.1840, 29152.00
146.4120, 28847.00
147.6390, 28408.00
148.8670, 28653.00
150.0940, 28749.00
151.3210, 29188.00
152.5490, 29502.00
153.7750, 28730.00
155.0020, 28747.00
156.2290, 28821.00
157.4550, 28966.00
158.6810, 28638.00
159.9080, 28989.00
161.1340, 29095.00
162.3590, 28993.00
163.5850, 28565.00
164.8110, 28675.00
166.0360, 28826.00
167.2610, 28612.00
168.4860, 28707.00
169.7110, 28859.00
170.9360, 28837.00
172.1610, 28729.00
173.3850, 28550.00
174.6100, 28374.00
175.8340, 28620.00
177.0580, 28295.00
178.2820, 28246.00
179.5050, 28392.00
180.7290, 28462.00
181.9520, 28237.00
183.1760, 28469.00
184.3990, 28617.00
185.6220, 28601.00
186.8450, 28684.00
188.0670, 28658.00
189.2900, 28977.00
190.5120, 29099.00
191.7340, 29069.00
192.9560, 29203.00
194.1780, 29332.00
195.4000, 29513.00
196.6220, 29512.00
197.8430, 29411.00
199.0640, 29498.00
200.2860, 29569.00
201.5070, 29624.00
202.7270, 29582.00
203.9480, 29256.00
205.1690, 28756.00
206.3890, 28390.00
207.6090, 28992.00
208.8290, 27990.00
210.0490, 27965.00
211.2690, 28187.00
212.4890, 28119.00
213.7080, 28222.00
214.9280, 28487.00
216.1470, 28116.00
217.3660, 28171.00
218.5850, 28111.00
219.8030, 28252.00
221.0220, 28236.00
222.2400, 28084.00
223.4590, 28104.00
224.6770, 28083.00
225.8950, 28099.00
227.1120, 28005.00
228.3300, 28176.00
229.5480, 28096.00
230.7650, 28102.00
231.9820, 28181.00
233.1990, 28390.00
234.4160, 28165.00
235.6330, 28328.00
236.8490, 28242.00
238.0660, 28431.00
239.2820, 28071.00
240.4980, 28127.00
241.7140, 28237.00
242.9300, 28181.00
244.1460, 28180.00
245.3610, 28310.00
246.5770, 28251.00
247.7920, 28406.00
249.0070, 28165.00
250.2220, 28479.00
251.4370, 28318.00
252.6510, 28549.00
253.8660, 28549.00
255.0800, 28701.00
256.2940, 28986.00
257.5080, 29358.00
258.7220, 30818.00
259.9360, 32423.00
261.1490, 31309.00
262.3630, 30134.00
263.5760, 30119.00
264.7890, 29734.00
266.0020, 29828.00
267.2150, 29773.00
268.4270, 29935.00
269.6400, 29528.00
270.8520, 29282.00
272.0640, 28868.00
273.2760, 28879.00
274.4880, 28753.00
275.7000, 29038.00
276.9120, 29131.00
278.1230, 29290.00
279.3340, 29497.00
280.5450, 29106.00
281.7560, 29095.00
282.9670, 29333.00
284.1780, 29168.00
285.3880, 29197.00
286.5980, 29135.00
287.8090, 29163.00
289.0190, 28898.00
290.2290, 29045.00
291.4380, 29223.00
292.6480, 29131.00
293.8570, 29101.00
295.0670, 29119.00
296.2760, 29161.00
297.4850, 29284.00
298.6930, 29315.00
299.9020, 29154.00
301.1110, 29256.00
302.3190, 29401.00
303.5270, 29536.00
304.7350, 29246.00
305.9430, 29450.00
307.1510, 29338.00
308.3580, 29479.00
309.5660, 29695.00
310.7730, 29501.00
311.9800, 29594.00
313.1870, 29555.00
314.3940, 29374.00
315.6010, 29605.00
316.8070, 29602.00
318.0130, 29596.00
319.2200, 30433.00
320.4260, 29877.00
321.6310, 29606.00
322.8370, 29875.00
324.0430, 29770.00
325.2480, 29694.00
326.4540, 29763.00
327.6590, 29839.00
328.8640, 29779.00
330.0680, 29883.00
331.2730, 30075.00
332.4780, 30131.00
333.6820, 29903.00
334.8860, 30031.00
336.0900, 30048.00
337.2940, 29908.00
338.4980, 30166.00
339.7010, 30002.00
340.9050, 29968.00
342.1080, 30191.00
343.3110, 30129.00
344.5140, 30114.00
345.7170, 30143.00
346.9200, 30206.00
348.1220, 30051.00
349.3240, 30038.00
350.5270, 30342.00
351.7290, 30192.00
352.9310, 30282.00
354.1320, 30392.00
355.3340, 30527.00
356.5350, 30438.00
357.7370, 30344.00
358.9380, 30366.00
360.1390, 30472.00
361.3400, 30491.00
362.5400, 30114.00
363.7410, 30606.00
364.9410, 30263.00
366.1410, 30419.00
367.3410, 30490.00
368.5410, 30572.00
369.7410, 30949.00
370.9400, 30729.00
372.1400, 30566.00
373.3390, 30429.00
374.5380, 30505.00
375.7370, 30642.00
376.9360, 30507.00
378.1350, 30516.00
379.3330, 30695.00
380.5310, 30647.00
381.7300, 30697.00
382.9280, 30761.00
384.1260, 30672.00
385.3230, 30575.00
386.5210, 30747.00
387.7180, 30701.00
388.9160, 30783.00
390.1130, 30758.00
391.3100, 30624.00
392.5060, 30882.00
393.7030, 31008.00
394.9000, 31003.00
396.0960, 30985.00
397.2920, 31053.00
398.4880, 31023.00
399.6840, 30930.00
400.8800, 31224.00
402.0750, 31079.00
403.2710, 31005.00
404.4660, 31252.00
405.6610, 31049.00
406.8560, 31330.00
408.0510, 31240.00
409.2450, 31221.00
410.4400, 31279.00
411.6340, 31249.00
412.8280, 31339.00
414.0220, 31357.00
415.2160, 31352.00
416.4100, 31329.00
417.6030, 31442.00
418.7970, 31301.00
419.9900, 31553.00
421.1830, 31578.00
422.3760, 31600.63
423.5690, 31695.86
424.7610, 31753.68
425.9540, 31776.12
427.1460, 31657.18
428.3380, 31584.00
429.5300, 31544.00
430.7220, 31579.00
431.9140, 31553.00
433.1050, 31822.00
434.2970, 31821.00
435.4880, 31813.00
436.6790, 31913.00
437.8700, 31764.00
439.0610, 31804.00
440.2510, 31732.00
441.4420, 31906.00
442.6320, 31880.00
443.8220, 31911.00
445.0120, 31863.00
446.2020, 31973.00
447.3910, 31915.00
448.5810, 32080.00
449.7700, 31945.00
450.9600, 32203.00
452.1490, 32130.00
453.3370, 32200.00
454.5260, 32119.00
455.7150, 31948.00
456.9030, 32178.00
458.0910, 32188.00
459.2800, 32285.00
460.4670, 32205.00
461.6550, 32169.00
462.8430, 32332.00
464.0300, 32133.00
465.2180, 32041.00
466.4050, 32198.00
467.5920, 32263.00
468.7790, 32515.00
469.9650, 32272.00
471.1520, 32415.00
472.3380, 32372.00
473.5250, 32398.00
474.7110, 32206.00
475.8970, 32572.00
477.0820, 32332.00
478.2680, 32486.00
479.4540, 32258.00
480.6390, 32826.00
481.8240, 32670.00
483.0090, 32622.00
484.1940, 32663.00
485.3780, 32816.00
486.5630, 32834.00
487.7470, 32655.00
488.9320, 32618.00
490.1160, 32877.00
491.3000, 32866.00
492.4830, 32707.00
493.6670, 32866.00
494.8500, 32744.00
496.0340, 32794.00
497.2170, 32870.00
498.4000, 33078.00
499.5820, 32989.00
500.7650, 32892.00
501.9480, 33099.00
503.1300, 33105.00
504.3120, 33219.00
505.4940, 33153.00
506.6760, 33257.00
507.8580, 33205.00
509.0390, 33128.00
510.2210, 32976.00
511.4020, 33249.00
512.5830, 33176.00
513.7640, 33510.00
514.9450, 33385.59
516.1250, 33514.55
517.3060, 33606.16
518.4860, 33662.34
519.6660, 33577.12
520.8460, 33674.49
522.0260, 33769.00
523.2060, 33561.00
524.3850, 33721.00
525.5650, 33668.00
526.7440, 33638.00
527.9230, 33596.00
529.1020, 33334.00
530.2810, 33523.00
531.4590, 33653.00
532.6380, 33479.00
533.8160, 33917.00
534.9940, 33795.00
536.1720, 33439.00
537.3500, 33682.00
538.5270, 33743.00
539.7050, 33813.00
540.8820, 33651.00
542.0590, 33848.00
543.2360, 33701.00
544.4130, 33731.00
545.5900, 33763.00
546.7660, 33895.00
547.9430, 33864.00
549.1190, 33711.00
550.2950, 33885.00
551.4710, 33834.00
552.6470, 33895.00
553.8220, 33860.00
554.9980, 33970.00
556.1730, 33960.00
557.3480, 33877.00
558.5230, 34123.00
559.6980, 33907.00
560.8730, 34135.00
562.0470, 34430.00
563.2220, 34216.00
564.3960, 33839.00
565.5700, 34141.00
566.7440, 34079.00
567.9170, 34079.00
569.0910, 34304.00
570.2640, 34150.00
571.4380, 34213.00
572.6110, 34441.00
573.7840, 34010.00
574.9570, 33847.00
576.1290, 33973.00
577.3020, 34009.00
578.4740, 33803.00
579.6460, 33926.00
580.8180, 33779.00
581.9900, 33838.00
583.1620, 33651.00
584.3330, 33376.00
585.5040, 33525.00
586.6760, 33418.00
587.8470, 33474.00
589.0180, 33456.00
590.1880, 33227.00
591.3590, 33221.00
592.5290, 33564.00
593.7000, 33282.00
594.8700, 33334.00
596.0400, 33257.00
597.2090, 33254.00
598.3790, 33591.00
599.5490, 33519.00
600.7180, 33321.00
601.8870, 33063.00
603.0560, 33400.00
604.2250, 33589.00
605.3940, 33468.00
606.5620, 33332.00
607.7300, 33662.00
608.8990, 33299.00
610.0670, 33520.00
611.2350, 33429.00
612.4020, 33467.00
613.5700, 33357.00
614.7370, 33422.00
615.9050, 33581.00
617.0720, 33440.00
618.2390, 33523.00
619.4060, 33665.00
620.5720, 33524.00
621.7390, 33630.00
622.9050, 33562.00
624.0710, 33555.00
625.2370, 33762.00
626.4030, 33394.00
627.5690, 33662.00
628.7340, 33847.00
629.9000, 33662.00
631.0650, 33691.00
632.2300, 33620.00
633.3950, 33573.00
634.5600, 33665.73
635.7240, 33744.66
636.8890, 33786.20
638.0530, 33792.35
639.2170, 33657.11
640.3810, 33649.00
641.5450, 33845.00
642.7080, 33539.00
643.8720, 33737.00
645.0350, 33690.00
646.1980, 33664.00
647.3610, 33613.00
648.5240, 33715.00
649.6870, 33589.00
650.8490, 33744.00
652.0120, 33610.00
653.1740, 33712.00
654.3360, 33429.00
655.4980, 33517.00
656.6600, 33597.00
657.8210, 33712.00
658.9830, 33412.00
660.1440, 33461.00
661.3050, 33735.00
662.4660, 33548.00
663.6270, 33690.00
664.7870, 33781.00
665.9480, 33734.00
667.1080, 33764.00
668.2680, 33616.00
669.4280, 33881.00
670.5880, 33777.00
671.7480, 33732.00
672.9070, 33837.00
674.0670, 33830.00
675.2260, 33738.00
676.3850, 33618.00
677.5440, 33650.00
678.7030, 33777.00
679.8610, 33753.00
681.0200, 33785.00
682.1780, 33565.00
683.3360, 33877.00
684.4940, 33793.00
685.6520, 33776.00
686.8090, 33921.00
687.9670, 33907.00
689.1240, 33803.00
690.2810, 33885.00
691.4380, 33747.00
692.5950, 33841.00
693.7520, 33923.00
694.9080, 33702.00
696.0650, 33786.00
697.2210, 33946.00
698.3770, 33812.00
699.5330, 33902.00
700.6880, 33562.00
701.8440, 33905.00
702.9990, 33691.00
704.1550, 33858.00
705.3100, 33561.00
706.4650, 33772.00
707.6190, 33801.00
708.7740, 33799.00
709.9290, 33782.00
711.0830, 33884.00
712.2370, 34029.00
713.3910, 34004.00
714.5450, 34284.00
715.6980, 33935.00
716.8520, 34453.00
718.0050, 34236.00
719.1580, 34213.00
720.3110, 34105.00
721.4640, 34222.00
722.6170, 34058.00
723.7700, 34084.00
724.9220, 34082.00
726.0740, 34132.00
727.2260, 34128.00
728.3780, 34199.00
729.5300, 33977.00
730.6810, 34266.00
731.8330, 34129.00
732.9840, 34105.00
734.1350, 34049.00
735.2860, 34418.00
736.4370, 34073.00
737.5880, 34293.00
738.7380, 34351.00
739.8880, 34395.00
741.0390, 34279.00
742.1890, 34302.00
743.3380, 34246.00
744.4880, 34353.00
745.6380, 34404.00
746.7870, 34578.00
747.9360, 34310.00
749.0850, 34563.00
750.2340, 34377.00
751.3830, 34440.00
752.5310, 34573.00
753.6800, 34279.00
754.8280, 34640.00
755.9760, 34380.00
757.1240, 34440.00
758.2720, 34508.00
759.4190, 34528.00
760.5670, 34363.00
761.7140, 34461.00
762.8610, 34447.00
764.0080, 34224.00
765.1550, 34605.00
766.3020, 34417.00
767.4480, 34410.00
768.5950, 34494.00
769.7410, 34267.00
770.8870, 34575.00
772.0330, 34741.00
773.1780, 34618.00
774.3240, 34728.00
775.4690, 34626.00
776.6140, 34594.00
777.7590, 34580.00
778.9040, 34414.00
780.0490, 34555.00
781.1940, 34347.00
782.3380, 34600.00
783.4820, 34470.00
784.6260, 34583.00
785.7700, 34676.00
786.9140, 34854.00
788.0580, 34518.00
789.2010, 34754.00
790.3450, 34563.00
791.4880, 34824.00
792.6310, 34634.00
793.7730, 34915.00
794.9160, 34681.00
796.0590, 34831.00
797.2010, 34636.00
798.3430, 34678.00
799.4850, 34775.00
800.6270, 34829.00
801.7690, 35146.00
802.9100, 34658.00
804.0520, 34729.00
805.1930, 34857.00
806.3340, 34805.00
807.4750, 34951.00
808.6160, 35004.00
809.7560, 34740.00
810.8970, 34956.00
812.0370, 35535.09
813.1770, 35593.67
814.3170, 35614.86
815.4570, 35600.65
816.5960, 34888.00
817.7360, 34853.00
818.8750, 34944.00
820.0140, 34933.00
821.1530, 34849.00
822.2920, 35046.00
823.4310, 34943.00
824.5690, 34967.00
825.7070, 35012.00
826.8460, 34864.00
827.9840, 35117.00
829.1220, 35100.00
830.2590, 34854.00
831.3970, 34767.00
832.5340, 34895.00
833.6710, 34957.00
834.8080, 35047.00
835.9450, 34956.00
837.0820, 35204.00
838.2190, 34863.00
839.3550, 34905.00
840.4910, 35098.00
841.6270, 35011.00
842.7630, 35285.00
843.8990, 34910.00
845.0350, 35135.00
846.1700, 35079.00
847.3060, 34987.00
848.4410, 34929.00
849.5760, 35241.00
850.7100, 34977.00
851.8450, 35454.00
852.9800, 35132.00
854.1140, 35136.00
855.2480, 35210.00
856.3820, 35341.00
857.5160, 35115.00
858.6500, 35141.00
859.7830, 35192.00
860.9170, 35141.00
862.0500, 35452.00
863.1830, 35101.00
864.3160, 35397.00
865.4480, 35348.00
866.5810, 35527.00
867.7130, 35140.00
868.8460, 35460.00
869.9780, 35005.00
871.1100, 35449.00
872.2410, 35170.00
873.3730, 35193.00
874.5050, 35434.00
875.6360, 35228.00
876.7670, 35258.00
877.8980, 35359.00
879.0290, 35549.00
880.1590, 35561.00
881.2900, 35237.00
882.4200, 35329.00
883.5500, 35125.00
884.6800, 35517.00
885.8100, 35504.00
886.9400, 35454.00
888.0690, 35618.00
889.1990, 35546.00
890.3280, 35529.00
891.4570, 35747.00
892.5860, 35546.00
893.7140, 35735.00
894.8430, 35698.00
895.9710, 35662.00
897.1000, 36018.00
898.2280, 35786.00
899.3560, 35578.00
900.4830, 35801.00
901.6110, 35814.00
902.7380, 35944.00
903.8660, 35683.00
904.9930, 35762.00
906.1200, 35939.00
907.2460, 35990.00
908.3730, 36064.00
909.5000, 35783.00
910.6260, 35772.00
911.7520, 35890.00
912.8780, 35940.00
914.0040, 35763.00
915.1290, 36040.00
916.2550, 35895.00
917.3800, 36147.00
918.5050, 35879.00
919.6300, 35854.00
920.7550, 36001.00
921.8800, 36238.00
923.0040, 36221.00
924.1290, 35948.00
925.2530, 35870.00
926.3770, 35954.00
927.5010, 36215.00
928.6250, 36164.00
929.7480, 36166.00
930.8720, 36091.00
931.9950, 36092.00
933.1180, 36238.00
934.2410, 36316.00
935.3640, 35963.00
936.4860, 36291.00
937.6090, 36017.00
938.7310, 36310.00
939.8530, 36265.00
940.9750, 36292.00
942.0970, 36240.00
943.2180, 36176.00
944.3400, 36264.00
945.4610, 36177.00
946.5820, 36192.00
947.7030, 36439.00
948.8240, 36466.00
949.9450, 36286.00
951.0650, 36268.00
952.1860, 36447.12
953.3060, 36551.38
954.4260, 36618.23
955.5460, 36649.70
956.6650, 36539.76
957.7850, 36612.41
958.9040, 36611.88
960.0230, 36608.36
961.1420, 36706.69
962.2610, 36617.32
963.3800, 36323.00
964.4990, 36626.00
965.6170, 36470.00
966.7350, 36427.00
967.8530, 36457.00
968.9710, 36529.00
970.0890, 36638.00
971.2070, 36689.00
972.3240, 36753.00
973.4410, 36672.00
974.5580, 36667.00
975.6750, 36535.00
976.7920, 36744.00
977.9090, 36948.00
979.0250, 36926.00
980.1410, 36747.00
981.2580, 36853.00
982.3740, 36762.00
983.4890, 36984.00
984.6050, 36808.00
985.7200, 36652.00
986.8360, 36947.00
987.9510, 36954.00
989.0660, 36859.00
990.1810, 36894.00
991.2950, 37200.00
992.4100, 37005.00
993.5240, 37255.00
994.6390, 37102.00
995.7530, 37294.00
996.8660, 37117.00
997.9800, 37068.00
999.0940, 37065.00
1000.207, 37075.00
1001.320, 36765.00
1002.433, 36955.00
1003.546, 37134.00
1004.659, 36873.00
1005.772, 37391.00
1006.884, 37354.00
1007.996, 37018.00
1009.108, 37051.00
1010.220, 37240.00
1011.332, 37265.00
1012.444, 37231.00
1013.555, 37231.00
1014.666, 37550.00
1015.777, 37240.00
1016.888, 37380.00
1017.999, 37348.00
1019.110, 37514.00
1020.220, 37266.00
1021.331, 36992.00
1022.441, 37432.00
1023.551, 37279.00
1024.661, 37219.00
1025.770, 37380.00
1026.880, 37214.00
1027.989, 37368.00
1029.098, 37479.00
1030.207, 37412.00
1031.316, 37229.00
1032.425, 37251.00
1033.533, 37539.00
1034.642, 37449.00
1035.750, 37301.00
1036.858, 37447.00
1037.966, 37430.00
1039.073, 37636.00
1040.181, 37618.00
1041.288, 37651.00
1042.396, 37618.00
1043.503, 37568.00
1044.610, 37630.00
1045.716, 37625.00
1046.823, 37444.00
1047.929, 37464.00
1049.036, 37771.00
1050.142, 37562.00
1051.248, 37689.00
1052.353, 37853.00
1053.459, 37569.00
1054.564, 37716.00
1055.670, 37863.00
1056.775, 37806.00
1057.880, 37917.00
1058.985, 37803.00
1060.089, 37701.00
1061.194, 37722.00
1062.298, 38001.00
1063.402, 37773.00
1064.506, 37748.00
1065.610, 38045.00
1066.713, 37744.00
1067.817, 37794.00
1068.920, 37859.00
1070.023, 37681.00
1071.126, 38039.00
1072.229, 38082.00
1073.332, 38013.00
1074.435, 37666.00
1075.537, 37961.00
1076.639, 37917.00
1077.741, 38030.00
1078.843, 37783.00
1079.945, 37888.00
1081.046, 37841.00
1082.148, 37685.00
1083.249, 37902.00
1084.350, 37792.00
1085.451, 38154.00
1086.551, 37971.00
1087.652, 37879.00
1088.752, 37954.00
1089.853, 37971.00
1090.953, 37850.00
1092.053, 37909.00
1093.152, 37854.00
1094.252, 37541.36
1095.351, 37596.01
1096.451, 37613.23
1097.550, 37595.10
1098.649, 37435.58
1099.748, 38132.00
1100.846, 37714.00
1101.945, 37927.00
1103.043, 37777.00
1104.141, 37767.00
1105.239, 37887.00
1106.337, 37653.00
1107.434, 37959.00
1108.532, 37913.00
1109.629, 37887.00
1110.726, 37871.00
1111.823, 37791.00
1112.920, 37963.00
1114.017, 37347.48
1115.113, 37458.05
1116.210, 37531.23
1117.306, 37569.00
1118.402, 37465.38
1119.498, 37544.34
1120.593, 37550.10
1121.689, 37552.89
1122.784, 37657.52
1123.879, 37855.00
1124.974, 38089.00
1126.069, 37990.00
1127.164, 38024.00
1128.259, 37884.00
1129.353, 37746.00
1130.447, 37651.00
1131.541, 37838.00
1132.635, 37823.00
1133.729, 37549.00
1134.822, 37567.00
1135.916, 37565.00
1137.009, 37532.00
1138.102, 37425.00
1139.195, 37533.00
1140.288, 37320.00
1141.380, 37579.00
1142.473, 37604.00
1143.565, 37540.00
1144.657, 37569.00
1145.749, 37723.00
1146.841, 37587.00
1147.932, 37314.00
1149.024, 37791.00
1150.115, 37572.00
1151.206, 37520.00
1152.297, 37298.00
1153.388, 37602.00
1154.479, 37422.00
1155.569, 37616.00
1156.659, 37504.00
1157.750, 37612.00
1158.839, 37723.00
1159.929, 37425.00
1161.019, 37431.00
1162.108, 37316.00
1163.198, 37704.00
1164.287, 37736.00
1165.376, 37299.00
1166.465, 37523.00
1167.553, 37481.00
1168.642, 37466.00
1169.730, 37269.00
1170.818, 37464.00
1171.906, 37489.00
1172.994, 37491.00
1174.082, 37315.00
1175.170, 37573.00
1176.257, 37610.00
1177.344, 37617.00
1178.431, 37512.00
1179.518, 37442.00
1180.605, 37435.00
1181.691, 37081.00
1182.778, 37537.00
1183.864, 37685.00
1184.950, 37297.00
1186.036, 37459.00
1187.122, 37283.00
1188.207, 37343.00
1189.292, 37310.00
1190.378, 37378.00
1191.463, 37481.00
1192.548, 37469.00
1193.632, 37231.00
1194.717, 37399.00
1195.801, 37343.00
1196.886, 37454.00
1197.970, 37570.00
1199.054, 37501.00
1200.137, 37251.00
1201.221, 37443.00
1202.305, 37312.00
1203.388, 37377.00
1204.471, 37354.00
1205.554, 37707.00
1206.637, 37304.00
1207.719, 37506.00
1208.802, 37319.00
1209.884, 37587.00
1210.966, 37389.00
1212.048, 37503.00
1213.130, 37317.00
1214.212, 37221.00
1215.293, 37539.00
1216.374, 37733.00
1217.456, 37560.00
1218.536, 37467.00
1219.617, 37065.72
1220.698, 37149.06
1221.778, 37195.01
1222.859, 37205.56
1223.939, 37074.73
1225.019, 37126.47
1226.099, 37105.05
1227.178, 37080.62
1228.258, 37158.06
1229.337, 37047.79
1230.417, 37123.61
1231.496, 37125.15
1232.574, 37160.69
1233.653, 37122.60
1234.732, 37445.00
1235.810, 37436.00
1236.888, 37223.00
1237.966, 37454.00
1239.044, 37496.00
1240.122, 37176.00
1241.199, 37713.00
1242.277, 37626.00
1243.354, 37606.00
1244.431, 37723.00
1245.508, 37657.00
1246.585, 37183.00
1247.661, 37584.00
1248.738, 37490.00
1249.814, 37746.00
1250.890, 37667.00
1251.966, 37690.00
1253.042, 37643.00
1254.117, 37787.00
1255.193, 37612.00
1256.268, 37485.00
1257.343, 37439.00
