##NAMES=Arsenopyrite
##RRUFFID=R050071
##IDEAL CHEMISTRY=Fe^3+^(AsS)^3-^
##LOCALITY=Yaogangxian mine, Yizhang County, Hunan Province, China
##OWNER=RRUFF
##SOURCE=Rock Currier
##DESCRIPTION=Steel-gray tabular
##STATUS=The identification of this mineral has been confirmed by X-ray diffraction and chemical analysis
##URL=rruff.info/R050071
##MEASURED CHEMISTRY=FeAsS
##PIN_ID=L00162
##ORIENTATION=Laser parallel to -c* (0 0 -1). Fiducial mark perpendicular to laser is parallel to -a [-1 0 0]
70.00400, 26637.07
71.24100, 31227.00
72.47700, 34667.00
73.71400, 41364.00
74.95100, 47890.00
76.18700, 50660.00
77.42300, 50300.00
78.65900, 46427.00
79.89500, 35746.00
81.13100, 30189.00
82.36700, 29360.00
83.60200, 29699.00
84.83700, 29725.00
86.07200, 29663.00
87.30800, 29578.00
88.54200, 29026.00
89.77700, 29073.00
91.01200, 29717.00
92.24600, 30104.00
93.48000, 29289.00
94.71400, 29403.00
95.94800, 29150.00
97.18200, 28484.00
98.41600, 28480.00
99.64900, 29054.00
100.8830, 29522.00
102.1160, 29929.00
103.3490, 30796.00
104.5820, 33517.00
105.8150, 39070.00
107.0470, 45021.00
108.2800, 45092.24
109.5120, 52579.00
110.7440, 46644.00
111.9760, 46409.00
113.2080, 48441.00
114.4400, 51412.00
115.6710, 53746.00
116.9030, 56598.00
118.1340, 53685.00
119.3650, 41237.00
120.5960, 33052.00
121.8270, 29908.00
123.0580, 29297.00
124.2880, 29276.00
125.5190, 28383.00
126.7490, 28101.00
127.9790, 28010.00
129.2090, 28257.00
130.4390, 28476.00
131.6680, 28245.00
132.8980, 28184.00
134.1270, 28218.00
135.3560, 27966.00
136.5850, 27894.00
137.8140, 27636.00
139.0430, 27916.00
140.2710, 27908.00
141.5000, 27454.00
142.7280, 27190.00
143.9560, 26902.00
145.1840, 26966.00
146.4120, 27142.00
147.6390, 27482.00
148.8670, 27223.00
150.0940, 27478.00
151.3210, 28012.00
152.5490, 27999.00
153.7750, 27340.00
155.0020, 27596.00
156.2290, 27415.00
157.4550, 27790.00
158.6810, 27710.00
159.9080, 27583.00
161.1340, 27516.00
162.3590, 27397.00
163.5850, 27146.00
164.8110, 27390.00
166.0360, 27573.00
167.2610, 27410.00
168.4860, 27416.00
169.7110, 27405.00
170.9360, 27618.00
172.1610, 27674.00
173.3850, 27477.00
174.6100, 27220.00
175.8340, 27099.00
177.0580, 26988.00
178.2820, 27172.00
179.5050, 27127.00
180.7290, 26960.00
181.9520, 27239.00
183.1760, 26985.00
184.3990, 26883.00
185.6220, 27114.00
186.8450, 27236.00
188.0670, 27478.00
189.2900, 27484.00
190.5120, 27806.00
191.7340, 28051.00
192.9560, 28047.00
194.1780, 28027.00
195.4000, 28202.00
196.6220, 28223.00
197.8430, 28270.00
199.0640, 28176.00
200.2860, 28118.00
201.5070, 27998.11
202.7270, 27652.03
203.9480, 27648.00
205.1690, 26983.00
206.3890, 26687.00
207.6090, 26613.00
208.8290, 26322.00
210.0490, 26228.00
211.2690, 26562.00
212.4890, 26653.00
213.7080, 26960.00
214.9280, 26700.00
216.1470, 26575.00
217.3660, 26611.00
218.5850, 26454.00
219.8030, 26658.00
221.0220, 26602.00
222.2400, 26661.00
223.4590, 26669.00
224.6770, 26519.00
225.8950, 26531.00
227.1120, 26395.00
228.3300, 26268.00
229.5480, 26514.00
230.7650, 26392.00
231.9820, 26562.00
233.1990, 26343.00
234.4160, 26453.00
235.6330, 26353.00
236.8490, 26736.00
238.0660, 26549.00
239.2820, 26616.00
240.4980, 26841.00
241.7140, 26606.00
242.9300, 26515.00
244.1460, 26634.00
245.3610, 26617.00
246.5770, 26677.00
247.7920, 26840.00
249.0070, 26742.00
250.2220, 26487.00
251.4370, 26712.00
252.6510, 26755.00
253.8660, 27023.00
255.0800, 26983.00
256.2940, 27297.00
257.5080, 28040.00
258.7220, 29508.00
259.9360, 28864.96
261.1490, 29475.00
262.3630, 28121.00
263.5760, 27859.00
264.7890, 27650.00
266.0020, 27710.00
267.2150, 27463.52
268.4270, 27552.00
269.6400, 27258.00
270.8520, 27195.00
272.0640, 27232.00
273.2760, 27245.00
274.4880, 27138.00
275.7000, 27351.00
276.9120, 27246.00
278.1230, 27537.00
279.3340, 27487.00
280.5450, 27203.00
281.7560, 27231.00
282.9670, 27494.00
284.1780, 27319.00
285.3880, 27371.00
286.5980, 27253.00
287.8090, 27263.00
289.0190, 27393.00
290.2290, 27386.00
291.4380, 27143.00
292.6480, 27375.00
293.8570, 27572.00
295.0670, 27378.00
296.2760, 27503.00
297.4850, 27306.00
298.6930, 27451.00
299.9020, 27501.96
301.1110, 27240.00
302.3190, 27571.00
303.5270, 27716.00
304.7350, 27467.00
305.9430, 27466.00
307.1510, 27710.00
308.3580, 27752.00
309.5660, 27827.00
310.7730, 27669.00
311.9800, 27821.00
313.1870, 27765.00
314.3940, 27705.00
315.6010, 27704.00
316.8070, 27970.00
318.0130, 27735.00
319.2200, 27815.00
320.4260, 28065.00
321.6310, 27976.00
322.8370, 27875.00
324.0430, 27930.00
325.2480, 28006.00
326.4540, 28183.00
327.6590, 28058.00
328.8640, 28009.00
330.0680, 28111.00
331.2730, 27989.00
332.4780, 27920.00
333.6820, 28089.00
334.8860, 28220.00
336.0900, 28105.00
337.2940, 28121.00
338.4980, 27979.00
339.7010, 28233.00
340.9050, 28185.00
342.1080, 28316.00
343.3110, 28133.00
344.5140, 28066.00
345.7170, 28167.00
346.9200, 28291.00
348.1220, 28375.00
349.3240, 28418.00
350.5270, 28126.00
351.7290, 28146.00
352.9310, 28231.00
354.1320, 28174.00
355.3340, 28255.00
356.5350, 28411.00
357.7370, 28336.00
358.9380, 28258.00
360.1390, 28177.00
361.3400, 28394.00
362.5400, 28350.00
363.7410, 28250.00
364.9410, 28415.00
366.1410, 28364.00
367.3410, 28331.00
368.5410, 28238.00
369.7410, 28404.00
370.9400, 28277.00
372.1400, 28392.00
373.3390, 28459.00
374.5380, 28317.00
375.7370, 28404.00
376.9360, 28493.00
378.1350, 28366.23
379.3330, 28712.00
380.5310, 28260.00
381.7300, 28479.00
382.9280, 28552.00
384.1260, 28437.00
385.3230, 28510.00
386.5210, 28529.00
387.7180, 28290.00
388.9160, 28502.00
390.1130, 28562.00
391.3100, 28847.00
392.5060, 28724.00
393.7030, 28807.00
394.9000, 28611.00
396.0960, 28644.00
397.2920, 28672.00
398.4880, 28855.00
399.6840, 29006.00
400.8800, 29075.00
402.0750, 28931.00
403.2710, 28708.00
404.4660, 28887.00
405.6610, 28940.00
406.8560, 28973.00
408.0510, 28965.00
409.2450, 28894.00
410.4400, 28745.00
411.6340, 29125.00
412.8280, 28987.00
414.0220, 29033.00
415.2160, 29279.00
416.4100, 29175.00
417.6030, 29185.00
418.7970, 28985.00
419.9900, 29245.00
421.1830, 29117.00
422.3760, 29216.00
423.5690, 29288.00
424.7610, 29170.00
425.9540, 29322.00
427.1460, 29016.00
428.3380, 29161.00
429.5300, 29340.00
430.7220, 29207.00
431.9140, 29255.00
433.1050, 29484.00
434.2970, 29424.00
435.4880, 29335.00
436.6790, 29281.00
437.8700, 29274.00
439.0610, 29335.00
440.2510, 29441.00
441.4420, 29534.00
442.6320, 29680.00
443.8220, 29572.00
445.0120, 29746.00
446.2020, 29744.00
447.3910, 29491.00
448.5810, 29589.00
449.7700, 29683.00
450.9600, 29631.00
452.1490, 29714.00
453.3370, 29801.00
454.5260, 29921.00
455.7150, 29619.00
456.9030, 29525.00
458.0910, 29496.00
459.2800, 29724.00
460.4670, 29790.00
461.6550, 29815.00
462.8430, 29878.00
464.0300, 29690.00
465.2180, 29766.00
466.4050, 29507.00
467.5920, 29957.00
468.7790, 29758.00
469.9650, 29985.00
471.1520, 29927.00
472.3380, 29909.00
473.5250, 30014.00
474.7110, 29998.00
475.8970, 29926.00
477.0820, 30063.00
478.2680, 30019.00
479.4540, 30112.00
480.6390, 30150.28
481.8240, 30095.66
483.0090, 30239.00
484.1940, 30309.00
485.3780, 30378.66
486.5630, 30416.00
487.7470, 30458.00
488.9320, 30470.51
490.1160, 30394.00
491.3000, 30485.00
492.4830, 30452.00
493.6670, 30486.00
494.8500, 30533.00
496.0340, 30487.13
497.2170, 30524.00
498.4000, 30422.35
499.5820, 30472.07
500.7650, 30431.00
501.9480, 30517.00
503.1300, 30655.00
504.3120, 30547.00
505.4940, 30863.00
506.6760, 30637.00
507.8580, 30941.00
509.0390, 30762.00
510.2210, 30627.00
511.4020, 30761.00
512.5830, 30724.00
513.7640, 30995.00
514.9450, 30970.00
516.1250, 31093.00
517.3060, 31061.00
518.4860, 31221.00
519.6660, 30939.00
520.8460, 30971.00
522.0260, 31048.00
523.2060, 30995.00
524.3850, 31092.00
525.5650, 30980.00
526.7440, 30890.00
527.9230, 30811.00
529.1020, 31083.00
530.2810, 31211.00
531.4590, 31092.00
532.6380, 31250.00
533.8160, 31187.08
534.9940, 31017.00
536.1720, 31113.00
537.3500, 31185.00
538.5270, 31151.00
539.7050, 31361.00
540.8820, 31245.00
542.0590, 31331.00
543.2360, 31207.00
544.4130, 31413.00
545.5900, 31343.00
546.7660, 31330.00
547.9430, 31227.00
549.1190, 31542.00
550.2950, 31352.00
551.4710, 31705.00
552.6470, 31469.00
553.8220, 31481.00
554.9980, 31689.00
556.1730, 31329.00
557.3480, 31473.00
558.5230, 31440.00
559.6980, 31709.00
560.8730, 31450.00
562.0470, 31713.00
563.2220, 31509.00
564.3960, 31509.00
565.5700, 31586.00
566.7440, 31626.00
567.9170, 31675.00
569.0910, 31748.86
570.2640, 31683.23
571.4380, 31823.00
572.6110, 31612.00
573.7840, 31488.00
574.9570, 31586.00
576.1290, 31172.00
577.3020, 31368.00
578.4740, 31157.00
579.6460, 31287.00
580.8180, 31202.00
581.9900, 31039.00
583.1620, 31006.00
584.3330, 30872.00
585.5040, 30748.00
586.6760, 30581.00
587.8470, 30777.00
589.0180, 30500.00
590.1880, 30648.00
591.3590, 30946.00
592.5290, 30858.00
593.7000, 30898.44
594.8700, 30891.76
596.0400, 30691.00
597.2090, 30854.00
598.3790, 30691.00
599.5490, 30916.00
600.7180, 30927.00
601.8870, 30833.00
603.0560, 30757.00
604.2250, 30708.00
605.3940, 30576.00
606.5620, 30910.00
607.7300, 30664.00
608.8990, 30614.00
610.0670, 30965.00
611.2350, 30992.00
612.4020, 30692.00
613.5700, 30789.00
614.7370, 30626.00
615.9050, 30881.00
617.0720, 30779.00
618.2390, 30952.00
619.4060, 30944.00
620.5720, 30738.00
621.7390, 30931.00
622.9050, 30991.00
624.0710, 30946.00
625.2370, 30946.00
626.4030, 30944.00
627.5690, 30910.00
628.7340, 30783.00
629.9000, 31030.00
631.0650, 30820.00
632.2300, 30975.00
633.3950, 30928.00
634.5600, 30977.00
635.7240, 31010.00
636.8890, 30900.00
638.0530, 31011.00
639.2170, 30952.00
640.3810, 31180.00
641.5450, 30894.00
642.7080, 31057.00
643.8720, 30848.00
645.0350, 30983.00
646.1980, 30873.00
647.3610, 30738.00
648.5240, 30959.00
649.6870, 31044.00
650.8490, 30946.00
652.0120, 30765.00
653.1740, 30895.00
654.3360, 30847.00
655.4980, 30771.00
656.6600, 31126.00
657.8210, 30952.00
658.9830, 30690.00
660.1440, 30888.00
661.3050, 30986.00
662.4660, 30890.00
663.6270, 30910.00
664.7870, 30915.82
665.9480, 31071.00
667.1080, 30956.00
668.2680, 30917.00
669.4280, 31033.00
670.5880, 30865.00
671.7480, 30871.00
672.9070, 31025.00
674.0670, 31225.00
675.2260, 31040.00
676.3850, 31052.00
677.5440, 31011.00
678.7030, 31092.00
679.8610, 31059.00
681.0200, 31085.00
682.1780, 31019.00
683.3360, 30954.00
684.4940, 30893.00
685.6520, 30931.00
686.8090, 30866.16
687.9670, 30951.63
689.1240, 30834.00
690.2810, 31018.00
691.4380, 31068.00
692.5950, 30870.00
693.7520, 30954.00
694.9080, 31178.00
696.0650, 31030.00
697.2210, 31067.00
698.3770, 30929.00
699.5330, 31066.00
700.6880, 31129.00
701.8440, 31176.00
702.9990, 30899.00
704.1550, 31088.00
705.3100, 31036.00
706.4650, 31248.00
707.6190, 31201.00
708.7740, 31019.00
709.9290, 31143.00
711.0830, 31182.00
712.2370, 31347.00
713.3910, 31219.00
714.5450, 31157.00
715.6980, 31155.00
716.8520, 31128.00
718.0050, 31237.00
719.1580, 31343.00
720.3110, 31270.00
721.4640, 31183.00
722.6170, 31247.00
723.7700, 31333.00
724.9220, 31382.00
726.0740, 31243.00
727.2260, 31271.00
728.3780, 31260.00
729.5300, 31425.00
730.6810, 31284.00
731.8330, 31456.00
732.9840, 31314.00
734.1350, 31583.00
735.2860, 31436.00
736.4370, 31408.00
737.5880, 31450.00
738.7380, 31565.00
739.8880, 31412.00
741.0390, 31583.00
742.1890, 31336.00
743.3380, 31498.00
744.4880, 31617.00
745.6380, 31708.00
746.7870, 31678.00
747.9360, 31509.00
749.0850, 31565.00
750.2340, 31650.00
751.3830, 31526.00
752.5310, 31785.00
753.6800, 31334.00
754.8280, 31733.00
755.9760, 31687.00
757.1240, 31829.00
758.2720, 32106.00
759.4190, 31905.00
760.5670, 31758.00
761.7140, 31853.00
762.8610, 31526.00
764.0080, 31798.00
765.1550, 31829.00
766.3020, 31832.00
767.4480, 31778.00
768.5950, 31831.00
769.7410, 31876.00
770.8870, 31678.00
772.0330, 31792.00
773.1780, 31776.00
774.3240, 31872.00
775.4690, 31863.20
776.6140, 31868.67
777.7590, 31864.00
778.9040, 31784.00
780.0490, 31822.00
781.1940, 31634.00
782.3380, 31748.00
783.4820, 31912.00
784.6260, 31781.00
785.7700, 31867.00
786.9140, 31877.00
788.0580, 31899.00
789.2010, 31759.00
790.3450, 31951.00
791.4880, 31984.00
792.6310, 31857.00
793.7730, 31973.00
794.9160, 31903.00
796.0590, 31933.00
797.2010, 31954.00
798.3430, 32074.00
799.4850, 31811.00
800.6270, 31950.00
801.7690, 31718.00
802.9100, 31999.00
804.0520, 31883.00
805.1930, 31922.00
806.3340, 31980.00
807.4750, 32019.00
808.6160, 31836.00
809.7560, 31934.00
810.8970, 32017.00
812.0370, 32169.00
813.1770, 31921.00
814.3170, 31823.00
815.4570, 31952.00
816.5960, 31989.00
817.7360, 32158.00
818.8750, 31900.00
820.0140, 31934.00
821.1530, 32004.00
822.2920, 32087.00
823.4310, 31987.00
824.5690, 32051.00
825.7070, 32208.00
826.8460, 32124.00
827.9840, 32067.00
829.1220, 31963.00
830.2590, 31973.00
831.3970, 32086.00
832.5340, 32096.00
833.6710, 32120.00
834.8080, 32181.29
835.9450, 32497.00
837.0820, 32161.00
838.2190, 32296.00
839.3550, 32085.00
840.4910, 31971.00
841.6270, 32407.00
842.7630, 32001.00
843.8990, 32082.00
845.0350, 32033.00
846.1700, 32313.00
847.3060, 32320.00
848.4410, 32386.00
849.5760, 32358.00
850.7100, 32292.00
851.8450, 32323.00
852.9800, 32537.00
854.1140, 32177.00
855.2480, 32506.00
856.3820, 32263.00
857.5160, 32167.00
858.6500, 32472.00
859.7830, 32434.00
860.9170, 32712.00
862.0500, 32627.22
863.1830, 32522.00
864.3160, 32558.00
865.4480, 32476.20
866.5810, 32402.00
867.7130, 32414.00
868.8460, 32468.00
869.9780, 32454.00
871.1100, 32411.00
872.2410, 32396.00
873.3730, 32360.00
874.5050, 32540.00
875.6360, 32576.00
876.7670, 32525.00
877.8980, 32787.00
879.0290, 32474.00
880.1590, 32624.00
881.2900, 32488.00
882.4200, 32688.00
883.5500, 32637.00
884.6800, 32454.00
885.8100, 32610.00
886.9400, 32686.00
888.0690, 32621.00
889.1990, 32765.00
890.3280, 32615.00
891.4570, 32774.00
892.5860, 32444.00
893.7140, 32593.00
894.8430, 32717.00
895.9710, 32692.00
897.1000, 32823.00
898.2280, 33078.00
899.3560, 32890.00
900.4830, 32882.00
901.6110, 33081.00
902.7380, 32930.00
903.8660, 32914.00
904.9930, 32904.00
906.1200, 33114.00
907.2460, 32869.00
908.3730, 32873.00
909.5000, 32958.00
910.6260, 32829.00
911.7520, 33232.00
912.8780, 32966.00
914.0040, 33726.00
915.1290, 33146.00
916.2550, 33219.00
917.3800, 33028.00
918.5050, 33219.00
919.6300, 33180.00
920.7550, 33077.00
921.8800, 33013.00
923.0040, 33098.00
924.1290, 33048.11
925.2530, 33304.00
926.3770, 33043.00
927.5010, 33209.00
928.6250, 33122.00
929.7480, 33260.00
930.8720, 33214.00
931.9950, 33022.00
933.1180, 33229.00
934.2410, 33137.00
935.3640, 33322.00
936.4860, 33563.00
937.6090, 33242.00
938.7310, 33511.00
939.8530, 33378.00
940.9750, 33348.00
942.0970, 33517.00
943.2180, 33306.00
944.3400, 33239.00
945.4610, 33777.00
946.5820, 33543.00
947.7030, 33638.00
948.8240, 33477.00
949.9450, 33734.00
951.0650, 33647.00
952.1860, 33616.00
953.3060, 33833.00
954.4260, 33617.17
955.5460, 33720.00
956.6650, 33463.00
957.7850, 33568.00
958.9040, 33732.00
960.0230, 33660.00
961.1420, 33631.00
962.2610, 33710.00
963.3800, 33746.00
964.4990, 33893.00
965.6170, 33563.00
966.7350, 33714.00
967.8530, 33634.00
968.9710, 33869.00
970.0890, 34127.00
971.2070, 33736.00
972.3240, 33723.00
973.4410, 33828.00
974.5580, 33863.00
975.6750, 33899.44
976.7920, 33811.00
977.9090, 33925.00
979.0250, 34025.00
980.1410, 33921.00
981.2580, 34147.00
982.3740, 34071.00
983.4890, 34080.00
984.6050, 33957.00
985.7200, 34116.00
986.8360, 34139.00
987.9510, 34161.00
989.0660, 34245.00
990.1810, 34330.00
991.2950, 34083.00
992.4100, 34187.00
993.5240, 34246.00
994.6390, 34169.00
995.7530, 34306.00
996.8660, 34256.00
997.9800, 34280.00
999.0940, 34203.00
1000.207, 34323.00
1001.320, 34257.00
1002.433, 34336.00
1003.546, 34502.00
1004.659, 34204.00
1005.772, 34360.00
1006.884, 34465.00
1007.996, 34200.00
1009.108, 34327.00
1010.220, 34237.00
1011.332, 34236.00
1012.444, 34524.00
1013.555, 34174.00
1014.666, 34552.00
1015.777, 34383.00
1016.888, 34501.00
1017.999, 34258.00
1019.110, 34457.00
1020.220, 34670.00
1021.331, 34220.00
1022.441, 34458.00
1023.551, 34639.00
1024.661, 34462.00
1025.770, 34373.00
1026.880, 34402.00
1027.989, 34509.00
1029.098, 34735.00
1030.207, 34555.00
1031.316, 34705.00
1032.425, 34796.00
1033.533, 34603.00
1034.642, 34651.00
1035.750, 34676.00
1036.858, 34545.00
1037.966, 34669.30
1039.073, 34835.00
1040.181, 34806.00
1041.288, 34819.00
1042.396, 34869.00
1043.503, 34749.00
1044.610, 34949.00
1045.716, 34767.00
1046.823, 34931.00
1047.929, 35008.00
1049.036, 34820.00
1050.142, 34723.00
1051.248, 34787.00
1052.353, 35153.00
1053.459, 34868.00
1054.564, 34956.00
1055.670, 35219.00
1056.775, 35044.00
1057.880, 34893.00
1058.985, 34958.00
1060.089, 35182.00
1061.194, 35110.00
1062.298, 35091.00
1063.402, 34995.00
1064.506, 34948.00
1065.610, 35018.00
1066.713, 34989.00
1067.817, 35108.00
1068.920, 35060.00
1070.023, 35023.00
1071.126, 35002.00
1072.229, 34885.00
1073.332, 35062.00
1074.435, 35098.00
1075.537, 35166.00
1076.639, 35122.00
1077.741, 35150.55
1078.843, 34997.00
1079.945, 35115.00
1081.046, 35002.00
1082.148, 34930.00
1083.249, 35106.00
1084.350, 34988.00
1085.451, 35215.00
1086.551, 34795.00
1087.652, 34970.00
1088.752, 35077.00
1089.853, 35266.00
1090.953, 34970.00
1092.053, 34970.00
1093.152, 35211.00
1094.252, 34699.00
1095.351, 35016.00
1096.451, 34863.00
1097.550, 35010.00
1098.649, 35004.00
1099.748, 35041.00
1100.846, 35261.00
1101.945, 35027.00
1103.043, 35115.00
1104.141, 34975.00
1105.239, 34938.00
1106.337, 34966.00
1107.434, 34855.00
1108.532, 34855.84
1109.629, 34803.66
1110.726, 34841.00
1111.823, 34816.00
1112.920, 34916.00
1114.017, 35174.00
1115.113, 35174.00
1116.210, 35292.00
1117.306, 35421.00
1118.402, 35491.00
1119.498, 35614.00
1120.593, 35523.00
1121.689, 35510.00
1122.784, 35501.00
1123.879, 35508.00
1124.974, 35530.00
1126.069, 35537.00
1127.164, 35261.00
1128.259, 35009.00
1129.353, 34960.00
1130.447, 34944.00
1131.541, 34626.00
1132.635, 34553.00
1133.729, 34700.00
1134.822, 34515.00
1135.916, 34617.00
1137.009, 34558.00
1138.102, 34668.00
1139.195, 34590.00
1140.288, 34706.00
1141.380, 34686.00
1142.473, 34663.00
1143.565, 34700.12
1144.657, 34510.00
1145.749, 34620.00
1146.841, 34627.00
1147.932, 34425.00
1149.024, 34657.00
1150.115, 34264.00
1151.206, 34624.00
1152.297, 34634.00
1153.388, 34475.00
1154.479, 34548.00
1155.569, 34548.00
1156.659, 34580.00
1157.750, 34607.44
1158.839, 34481.00
1159.929, 34625.00
1161.019, 34591.00
1162.108, 34554.00
1163.198, 34336.00
1164.287, 34467.00
1165.376, 34415.00
1166.465, 34281.00
1167.553, 34611.00
1168.642, 34599.00
1169.730, 34395.00
1170.818, 34674.00
1171.906, 34521.00
1172.994, 34094.00
1174.082, 34368.00
1175.170, 34349.00
1176.257, 34119.00
1177.344, 34316.00
1178.431, 34402.00
1179.518, 34357.00
1180.605, 34423.00
1181.691, 34391.00
1182.778, 34451.00
1183.864, 34427.00
1184.950, 34277.00
1186.036, 34210.00
1187.122, 34525.00
1188.207, 34620.00
1189.292, 34516.00
1190.378, 34334.00
1191.463, 34308.00
1192.548, 34295.00
1193.632, 34168.00
1194.717, 34341.00
1195.801, 34405.00
1196.886, 34373.00
1197.970, 34341.00
1199.054, 34273.00
1200.137, 34307.00
1201.221, 34062.00
1202.305, 34178.00
1203.388, 34096.00
1204.471, 34100.99
1205.554, 34294.00
1206.637, 34234.00
1207.719, 34337.00
1208.802, 34531.00
1209.884, 34206.00
1210.966, 34727.00
1212.048, 34211.00
1213.130, 34437.00
1214.212, 34199.00
1215.293, 34487.00
1216.374, 34366.00
1217.456, 34380.00
1218.536, 34423.00
1219.617, 34454.00
1220.698, 34313.00
1221.778, 34347.00
1222.859, 34408.00
1223.939, 34398.00
1225.019, 34702.00
1226.099, 34711.00
1227.178, 34426.00
1228.258, 34648.00
1229.337, 34353.00
1230.417, 34463.00
1231.496, 34264.00
1232.574, 34380.00
1233.653, 34305.00
1234.732, 34429.00
1235.810, 34340.00
1236.888, 34357.00
1237.966, 34350.00
1239.044, 34641.00
1240.122, 34475.00
1241.199, 34172.00
1242.277, 34483.00
1243.354, 34408.00
1244.431, 34433.00
1245.508, 34594.00
1246.585, 34385.00
1247.661, 34588.00
1248.738, 34342.00
1249.814, 34535.00
1250.890, 34748.00
1251.966, 34553.00
1253.042, 34340.00
1254.117, 34440.00
1255.193, 34533.00
1256.268, 34697.00
