##NAMES=Arsenopyrite
##RRUFFID=R050071
##IDEAL CHEMISTRY=Fe^3+^(AsS)^3-^
##LOCALITY=Yaogangxian mine, Yizhang County, Hunan Province, China
##OWNER=RRUFF
##SOURCE=Rock Currier
##DESCRIPTION=Steel-gray tabular
##STATUS=The identification of this mineral has been confirmed by X-ray diffraction and chemical analysis
##URL=rruff.info/R050071
##MEASURED CHEMISTRY=FeAsS
##PIN_ID=L00167
##ORIENTATION=Laser parallel to (1 0 1). Fiducial mark perpendicular to laser is parallel to b [0 1 0]
72.47700, 27617.00
73.71400, 32193.00
74.95100, 36623.00
76.18700, 41062.00
77.42300, 42348.00
78.65900, 41750.00
79.89500, 38741.00
81.13100, 34111.00
82.36700, 31305.00
83.60200, 30674.00
84.83700, 30904.00
86.07200, 29951.00
87.30800, 29929.00
88.54200, 30342.00
89.77700, 30565.00
91.01200, 30759.00
92.24600, 31346.00
93.48000, 31135.00
94.71400, 30319.00
95.94800, 30803.00
97.18200, 30842.00
98.41600, 30150.00
99.64900, 30114.00
100.8830, 30288.00
102.1160, 30302.00
103.3490, 31195.00
104.5820, 32284.00
105.8150, 34184.00
107.0470, 37149.00
108.2800, 37929.58
109.5120, 38739.13
110.7440, 41036.00
111.9760, 39658.00
113.2080, 42055.00
114.4400, 44320.00
115.6710, 47428.00
116.9030, 51087.00
118.1340, 56484.00
119.3650, 57394.00
120.5960, 46859.00
121.8270, 35783.00
123.0580, 31614.00
124.2880, 30862.00
125.5190, 29901.00
126.7490, 29713.00
127.9790, 29320.00
129.2090, 29475.00
130.4390, 29534.00
131.6680, 29513.00
132.8980, 29259.00
134.1270, 29102.00
135.3560, 29324.00
136.5850, 29350.00
137.8140, 29511.00
139.0430, 29344.00
140.2710, 29335.00
141.5000, 29106.00
142.7280, 28937.00
143.9560, 28901.00
145.1840, 28810.07
146.4120, 28649.00
147.6390, 28778.00
148.8670, 28945.00
150.0940, 28926.00
151.3210, 29381.00
152.5490, 29587.00
153.7750, 29355.00
155.0020, 28864.00
156.2290, 29009.00
157.4550, 29065.00
158.6810, 29127.00
159.9080, 29548.00
161.1340, 29616.00
162.3590, 29503.00
163.5850, 29136.00
164.8110, 29142.00
166.0360, 29109.00
167.2610, 28995.00
168.4860, 29065.83
169.7110, 29040.00
170.9360, 29106.00
172.1610, 29082.00
173.3850, 29007.00
174.6100, 29126.00
175.8340, 29119.00
177.0580, 28914.00
178.2820, 28878.00
179.5050, 28709.00
180.7290, 28565.00
181.9520, 28896.00
183.1760, 28923.00
184.3990, 28971.00
185.6220, 28807.00
186.8450, 29386.00
188.0670, 29326.00
189.2900, 29377.00
190.5120, 29590.00
191.7340, 29696.00
192.9560, 29800.77
194.1780, 29761.00
195.4000, 30021.00
196.6220, 29985.00
197.8430, 30103.00
199.0640, 30177.00
200.2860, 30008.00
201.5070, 30452.00
202.7270, 30370.00
203.9480, 29909.00
205.1690, 29414.00
206.3890, 29040.00
207.6090, 28780.52
208.8290, 28567.00
210.0490, 28457.00
211.2690, 28559.00
212.4890, 28570.00
213.7080, 28618.74
214.9280, 28651.11
216.1470, 28737.00
217.3660, 28721.00
218.5850, 28687.00
219.8030, 28787.00
221.0220, 28696.00
222.2400, 28973.00
223.4590, 28788.00
224.6770, 28884.00
225.8950, 28666.00
227.1120, 28752.00
228.3300, 28868.00
229.5480, 28866.00
230.7650, 28635.00
231.9820, 28854.00
233.1990, 28695.00
234.4160, 28941.00
235.6330, 28812.00
236.8490, 28847.00
238.0660, 28803.00
239.2820, 28862.00
240.4980, 28845.00
241.7140, 28933.00
242.9300, 28797.00
244.1460, 28892.00
245.3610, 29103.00
246.5770, 28959.00
247.7920, 28923.00
249.0070, 29067.00
250.2220, 29070.00
251.4370, 29088.00
252.6510, 29196.00
253.8660, 29129.00
255.0800, 29405.00
256.2940, 29242.00
257.5080, 29621.00
258.7220, 30618.00
259.9360, 30310.12
261.1490, 30464.17
262.3630, 30383.00
263.5760, 30075.00
264.7890, 30178.00
266.0020, 30161.00
267.2150, 30214.00
268.4270, 29891.00
269.6400, 30252.00
270.8520, 29852.00
272.0640, 29563.00
273.2760, 29525.00
274.4880, 29687.00
275.7000, 29638.00
276.9120, 29821.00
278.1230, 29764.00
279.3340, 29664.00
280.5450, 29804.00
281.7560, 29860.00
282.9670, 29707.00
284.1780, 29615.00
285.3880, 29827.00
286.5980, 29625.00
287.8090, 29730.00
289.0190, 29587.00
290.2290, 29876.00
291.4380, 29949.00
292.6480, 30029.00
293.8570, 29870.00
295.0670, 29993.00
296.2760, 30024.00
297.4850, 29939.00
298.6930, 29990.00
299.9020, 30004.00
301.1110, 30138.00
302.3190, 30068.00
303.5270, 30134.00
304.7350, 30039.00
305.9430, 30068.00
307.1510, 30109.28
308.3580, 30242.00
309.5660, 30202.00
310.7730, 30211.00
311.9800, 30235.00
313.1870, 30163.00
314.3940, 30287.00
315.6010, 30486.00
316.8070, 30284.00
318.0130, 30151.00
319.2200, 30530.00
320.4260, 30346.00
321.6310, 30383.00
322.8370, 30462.00
324.0430, 30569.00
325.2480, 30628.00
326.4540, 30606.00
327.6590, 30584.00
328.8640, 30682.00
330.0680, 30857.00
331.2730, 30885.00
332.4780, 30657.00
333.6820, 30833.00
334.8860, 30744.00
336.0900, 30614.00
337.2940, 30789.00
338.4980, 30861.00
339.7010, 30970.00
340.9050, 30961.00
342.1080, 30967.53
343.3110, 30776.00
344.5140, 30891.00
345.7170, 30835.00
346.9200, 30793.00
348.1220, 31069.00
349.3240, 30946.00
350.5270, 30722.00
351.7290, 30976.00
352.9310, 30924.00
354.1320, 31209.00
355.3340, 31187.00
356.5350, 31077.00
357.7370, 31413.00
358.9380, 30987.00
360.1390, 30956.00
361.3400, 31299.00
362.5400, 31065.00
363.7410, 31130.00
364.9410, 31392.00
366.1410, 31137.00
367.3410, 31210.00
368.5410, 31145.00
369.7410, 31178.00
370.9400, 31228.00
372.1400, 31336.00
373.3390, 31475.00
374.5380, 31351.00
375.7370, 31181.00
376.9360, 31493.00
378.1350, 31373.00
379.3330, 31492.00
380.5310, 31070.00
381.7300, 31515.00
382.9280, 31241.00
384.1260, 31421.00
385.3230, 31313.00
386.5210, 31524.00
387.7180, 31773.00
388.9160, 31497.00
390.1130, 31543.00
391.3100, 31754.00
392.5060, 31440.00
393.7030, 31675.00
394.9000, 31806.00
396.0960, 31539.00
397.2920, 31688.00
398.4880, 31963.00
399.6840, 31625.00
400.8800, 31728.00
402.0750, 31739.00
403.2710, 32033.00
404.4660, 31737.00
405.6610, 31945.00
406.8560, 31823.00
408.0510, 31901.00
409.2450, 31896.00
410.4400, 32021.00
411.6340, 32017.00
412.8280, 32080.19
414.0220, 32071.00
415.2160, 32168.00
416.4100, 32105.00
417.6030, 32109.00
418.7970, 32230.00
419.9900, 32208.00
421.1830, 32169.00
422.3760, 32085.00
423.5690, 32226.00
424.7610, 32022.00
425.9540, 32455.00
427.1460, 32162.00
428.3380, 32320.00
429.5300, 32369.00
430.7220, 32272.00
431.9140, 32485.00
433.1050, 32489.00
434.2970, 32658.00
435.4880, 32678.00
436.6790, 32582.00
437.8700, 32497.00
439.0610, 32445.00
440.2510, 32597.00
441.4420, 32758.00
442.6320, 32467.00
443.8220, 32910.00
445.0120, 32602.00
446.2020, 32594.00
447.3910, 32531.00
448.5810, 32557.00
449.7700, 32505.00
450.9600, 32809.00
452.1490, 32582.00
453.3370, 32799.00
454.5260, 32647.00
455.7150, 32671.00
456.9030, 32840.00
458.0910, 33024.00
459.2800, 32947.00
460.4670, 32813.00
461.6550, 32897.00
462.8430, 33039.00
464.0300, 32785.00
465.2180, 33075.00
466.4050, 32766.00
467.5920, 32936.00
468.7790, 33037.00
469.9650, 33235.00
471.1520, 32901.00
472.3380, 33250.00
473.5250, 33053.00
474.7110, 33106.00
475.8970, 33122.00
477.0820, 33172.00
478.2680, 33295.00
479.4540, 33338.00
480.6390, 33406.00
481.8240, 33397.00
483.0090, 33471.00
484.1940, 33616.00
485.3780, 33563.00
486.5630, 33545.00
487.7470, 33563.00
488.9320, 33492.00
490.1160, 33592.00
491.3000, 33507.00
492.4830, 33645.00
493.6670, 33612.00
494.8500, 33593.00
496.0340, 33864.00
497.2170, 34081.00
498.4000, 33682.00
499.5820, 33830.00
500.7650, 33929.00
501.9480, 34083.00
503.1300, 33903.00
504.3120, 33907.00
505.4940, 33764.00
506.6760, 34066.00
507.8580, 33917.00
509.0390, 33781.00
510.2210, 34135.00
511.4020, 34085.00
512.5830, 34058.00
513.7640, 34139.00
514.9450, 34011.00
516.1250, 34247.00
517.3060, 34141.00
518.4860, 34211.00
519.6660, 34166.00
520.8460, 34179.16
522.0260, 34229.00
523.2060, 34228.00
524.3850, 34235.46
525.5650, 34252.20
526.7440, 34237.00
527.9230, 34266.00
529.1020, 34292.00
530.2810, 34308.00
531.4590, 34086.00
532.6380, 34350.00
533.8160, 34291.00
534.9940, 34616.00
536.1720, 34537.00
537.3500, 34410.00
538.5270, 34960.00
539.7050, 34418.00
540.8820, 34478.00
542.0590, 34376.00
543.2360, 34536.00
544.4130, 34457.80
545.5900, 34524.00
546.7660, 34509.00
547.9430, 34569.00
549.1190, 34850.00
550.2950, 34704.00
551.4710, 34880.00
552.6470, 34736.00
553.8220, 34723.00
554.9980, 34857.00
556.1730, 34714.00
557.3480, 34881.00
558.5230, 34781.00
559.6980, 34909.00
560.8730, 35019.00
562.0470, 35011.00
563.2220, 34838.00
564.3960, 34854.00
565.5700, 35023.00
566.7440, 35108.00
567.9170, 34809.00
569.0910, 35046.00
570.2640, 34971.00
571.4380, 35108.00
572.6110, 34779.00
573.7840, 34861.00
574.9570, 34826.00
576.1290, 34804.00
577.3020, 34761.00
578.4740, 34690.66
579.6460, 34567.00
580.8180, 34558.00
581.9900, 34328.00
583.1620, 34307.00
584.3330, 34304.00
585.5040, 34249.00
586.6760, 34080.00
587.8470, 34164.00
589.0180, 33834.00
590.1880, 34120.00
591.3590, 34269.00
592.5290, 33937.00
593.7000, 34095.00
594.8700, 34051.00
596.0400, 33883.00
597.2090, 34181.00
598.3790, 34084.00
599.5490, 34160.00
600.7180, 34111.00
601.8870, 34114.00
603.0560, 34314.00
604.2250, 34349.00
605.3940, 33866.00
606.5620, 34209.00
607.7300, 33993.00
608.8990, 34006.00
610.0670, 34053.00
611.2350, 34017.00
612.4020, 34161.00
613.5700, 34302.00
614.7370, 33997.00
615.9050, 34148.00
617.0720, 34171.00
618.2390, 34336.00
619.4060, 34137.00
620.5720, 34231.00
621.7390, 34149.00
622.9050, 34391.00
624.0710, 34148.00
625.2370, 34292.00
626.4030, 34335.00
627.5690, 34295.00
628.7340, 34129.00
629.9000, 34258.00
631.0650, 34504.00
632.2300, 34071.00
633.3950, 34195.00
634.5600, 34223.00
635.7240, 34531.00
636.8890, 34410.00
638.0530, 34270.00
639.2170, 34365.00
640.3810, 34144.00
641.5450, 33969.00
642.7080, 34307.00
643.8720, 34382.00
645.0350, 34218.00
646.1980, 34261.00
647.3610, 34245.00
648.5240, 34172.00
649.6870, 34335.00
650.8490, 34306.00
652.0120, 34381.00
653.1740, 34341.00
654.3360, 34345.00
655.4980, 34328.76
656.6600, 34356.67
657.8210, 34327.00
658.9830, 34346.00
660.1440, 34497.00
661.3050, 34315.00
662.4660, 34479.00
663.6270, 34296.00
664.7870, 34238.00
665.9480, 34336.00
667.1080, 34390.00
668.2680, 34338.46
669.4280, 34311.00
670.5880, 34281.00
671.7480, 34330.00
672.9070, 34334.00
674.0670, 34180.00
675.2260, 34363.00
676.3850, 34450.00
677.5440, 34423.00
678.7030, 34190.00
679.8610, 34241.00
681.0200, 34340.00
682.1780, 34206.00
683.3360, 34223.00
684.4940, 34318.00
685.6520, 34228.00
686.8090, 34277.00
687.9670, 34327.37
689.1240, 34465.00
690.2810, 34442.00
691.4380, 34361.00
692.5950, 34404.00
693.7520, 34409.00
694.9080, 34371.00
696.0650, 34179.00
697.2210, 34512.00
698.3770, 34413.00
699.5330, 34535.00
700.6880, 34283.00
701.8440, 34405.00
702.9990, 34188.00
704.1550, 34263.00
705.3100, 34348.00
706.4650, 34487.00
707.6190, 34434.00
708.7740, 34437.00
709.9290, 34426.00
711.0830, 34352.00
712.2370, 34374.00
713.3910, 34318.00
714.5450, 34373.00
715.6980, 34362.63
716.8520, 34416.00
718.0050, 34400.00
719.1580, 34449.00
720.3110, 34506.00
721.4640, 34547.10
722.6170, 34511.00
723.7700, 34688.00
724.9220, 34695.00
726.0740, 34785.00
727.2260, 34613.00
728.3780, 34518.00
729.5300, 34688.00
730.6810, 34653.00
731.8330, 34703.00
732.9840, 34644.00
734.1350, 34433.00
735.2860, 34650.00
736.4370, 34918.00
737.5880, 34639.00
738.7380, 34822.00
739.8880, 34761.00
741.0390, 34625.00
742.1890, 34800.00
743.3380, 34726.00
744.4880, 34817.00
745.6380, 34820.00
746.7870, 34857.00
747.9360, 34487.00
749.0850, 34962.00
750.2340, 34718.00
751.3830, 34599.00
752.5310, 34855.00
753.6800, 34902.00
754.8280, 34829.00
755.9760, 34944.00
757.1240, 34687.00
758.2720, 34911.00
759.4190, 34855.00
760.5670, 35071.00
761.7140, 34950.00
762.8610, 34845.00
764.0080, 35125.00
765.1550, 34810.00
766.3020, 35031.00
767.4480, 34881.00
768.5950, 34898.00
769.7410, 35080.00
770.8870, 35035.00
772.0330, 34945.00
773.1780, 35061.00
774.3240, 34919.00
775.4690, 34968.00
776.6140, 35037.00
777.7590, 34857.00
778.9040, 34913.00
780.0490, 34906.00
781.1940, 34958.00
782.3380, 34997.00
783.4820, 34931.00
784.6260, 34869.00
785.7700, 34988.00
786.9140, 34990.00
788.0580, 35046.00
789.2010, 34902.00
790.3450, 34785.00
791.4880, 35317.00
792.6310, 34977.00
793.7730, 35056.00
794.9160, 35169.00
796.0590, 35073.00
797.2010, 35237.00
798.3430, 34947.00
799.4850, 35187.00
800.6270, 35145.00
801.7690, 35110.00
802.9100, 34940.00
804.0520, 35246.00
805.1930, 35268.00
806.3340, 35343.00
807.4750, 35399.08
808.6160, 35347.00
809.7560, 35355.00
810.8970, 35278.00
812.0370, 35219.00
813.1770, 35156.00
814.3170, 35074.00
815.4570, 35124.02
816.5960, 35305.00
817.7360, 35201.00
818.8750, 35309.00
820.0140, 35277.00
821.1530, 35301.53
822.2920, 35327.21
823.4310, 35314.00
824.5690, 35320.00
825.7070, 35210.00
826.8460, 35150.00
827.9840, 35171.78
829.1220, 35175.40
830.2590, 35207.00
831.3970, 35277.00
832.5340, 35296.00
833.6710, 35310.00
834.8080, 35288.00
835.9450, 35379.00
837.0820, 35276.00
838.2190, 35499.00
839.3550, 35432.00
840.4910, 35331.00
841.6270, 35429.00
842.7630, 35386.00
843.8990, 35272.00
845.0350, 35279.00
846.1700, 35166.00
847.3060, 35286.00
848.4410, 35421.00
849.5760, 35336.00
850.7100, 35372.00
851.8450, 35199.00
852.9800, 35386.00
854.1140, 35380.00
855.2480, 35126.00
856.3820, 35570.00
857.5160, 35462.00
858.6500, 35514.00
859.7830, 35535.00
860.9170, 35410.00
862.0500, 35552.00
863.1830, 35507.00
864.3160, 35489.00
865.4480, 35506.00
866.5810, 35651.00
867.7130, 35842.00
868.8460, 35683.00
869.9780, 35851.00
871.1100, 35727.00
872.2410, 35589.00
873.3730, 35567.00
874.5050, 35628.00
875.6360, 35717.00
876.7670, 35728.00
877.8980, 35610.00
879.0290, 35603.00
880.1590, 35472.00
881.2900, 35815.00
882.4200, 35763.00
883.5500, 35750.00
884.6800, 35666.00
885.8100, 35780.00
886.9400, 35708.00
888.0690, 35714.00
889.1990, 35679.00
890.3280, 36008.00
891.4570, 35780.00
892.5860, 35966.00
893.7140, 36151.00
894.8430, 36108.00
895.9710, 36061.89
897.1000, 35870.00
898.2280, 35861.00
899.3560, 35869.00
900.4830, 36038.00
901.6110, 36222.00
902.7380, 36107.00
903.8660, 36196.05
904.9930, 35861.00
906.1200, 36085.00
907.2460, 36067.00
908.3730, 35897.00
909.5000, 36093.00
910.6260, 36079.00
911.7520, 36119.00
912.8780, 36017.00
914.0040, 35980.00
915.1290, 36205.00
916.2550, 36087.00
917.3800, 36343.00
918.5050, 36357.00
919.6300, 36267.00
920.7550, 36376.00
921.8800, 36321.00
923.0040, 36151.00
924.1290, 36186.00
925.2530, 36214.00
926.3770, 36134.00
927.5010, 36302.00
928.6250, 36233.00
929.7480, 36005.00
930.8720, 36227.00
931.9950, 36445.00
933.1180, 36343.00
934.2410, 36155.00
935.3640, 36366.00
936.4860, 36397.00
937.6090, 36473.00
938.7310, 36437.00
939.8530, 36310.00
940.9750, 36413.00
942.0970, 36421.00
943.2180, 36404.00
944.3400, 36548.00
945.4610, 36376.00
946.5820, 36493.00
947.7030, 36599.00
948.8240, 36468.00
949.9450, 36640.00
951.0650, 36726.00
952.1860, 36671.25
953.3060, 36615.00
954.4260, 36595.00
955.5460, 36620.00
956.6650, 36483.00
957.7850, 36564.00
958.9040, 36666.00
960.0230, 36803.00
961.1420, 36771.00
962.2610, 36620.00
963.3800, 36777.00
964.4990, 36669.00
965.6170, 36849.00
966.7350, 36821.00
967.8530, 36793.00
968.9710, 37337.00
970.0890, 37348.00
971.2070, 37046.00
972.3240, 36911.00
973.4410, 36718.00
974.5580, 36858.00
975.6750, 36849.00
976.7920, 37087.00
977.9090, 37094.00
979.0250, 36885.00
980.1410, 37066.00
981.2580, 37054.00
982.3740, 37011.00
983.4890, 36716.00
984.6050, 37000.00
985.7200, 37010.00
986.8360, 36795.00
987.9510, 36962.00
989.0660, 37126.00
990.1810, 37296.00
991.2950, 37341.09
992.4100, 36970.00
993.5240, 37394.00
994.6390, 37131.00
995.7530, 37112.00
996.8660, 37183.00
997.9800, 37315.00
999.0940, 37206.00
1000.207, 37117.00
1001.320, 37145.00
1002.433, 37257.00
1003.546, 37475.00
1004.659, 37359.00
1005.772, 37424.00
1006.884, 37328.00
1007.996, 37279.00
1009.108, 37268.00
1010.220, 37315.00
1011.332, 37284.00
1012.444, 37366.00
1013.555, 37215.00
1014.666, 37192.00
1015.777, 37308.00
1016.888, 37364.00
1017.999, 37362.00
1019.110, 37722.00
1020.220, 37436.00
1021.331, 37269.00
1022.441, 37518.00
1023.551, 37408.00
1024.661, 37332.00
1025.770, 37411.00
1026.880, 37514.00
1027.989, 37471.00
1029.098, 37667.00
1030.207, 37298.00
1031.316, 37484.00
1032.425, 37492.00
1033.533, 37541.00
1034.642, 37601.00
1035.750, 37665.00
1036.858, 37384.00
1037.966, 37796.00
1039.073, 37613.00
1040.181, 37446.00
1041.288, 37656.00
1042.396, 37719.00
1043.503, 37853.00
1044.610, 37594.00
1045.716, 37879.00
1046.823, 37721.00
1047.929, 37850.00
1049.036, 37865.00
1050.142, 37678.00
1051.248, 37974.00
1052.353, 37876.00
1053.459, 37594.00
1054.564, 37739.00
1055.670, 37899.00
1056.775, 37767.00
1057.880, 37620.00
1058.985, 37880.00
1060.089, 37726.00
1061.194, 38098.00
1062.298, 37779.00
1063.402, 37800.00
1064.506, 37802.00
1065.610, 37861.00
1066.713, 37887.00
1067.817, 38042.00
1068.920, 37722.00
1070.023, 37602.00
1071.126, 38022.00
1072.229, 37751.00
1073.332, 38077.00
1074.435, 38033.00
1075.537, 37976.00
1076.639, 38014.00
1077.741, 37996.00
1078.843, 38162.00
1079.945, 37803.00
1081.046, 37981.00
1082.148, 37753.00
1083.249, 37595.00
1084.350, 38039.00
1085.451, 37904.00
1086.551, 38092.00
1087.652, 37747.00
1088.752, 37761.00
1089.853, 37859.00
1090.953, 38092.00
1092.053, 37842.00
1093.152, 37844.00
1094.252, 38191.00
1095.351, 38015.00
1096.451, 37873.00
1097.550, 37899.00
1098.649, 37934.00
1099.748, 37778.00
1100.846, 37823.00
1101.945, 37947.00
1103.043, 37967.00
1104.141, 37929.00
1105.239, 37915.00
1106.337, 37846.00
1107.434, 37837.59
1108.532, 37829.03
1109.629, 37805.00
1110.726, 37847.00
1111.823, 37852.00
1112.920, 37886.00
1114.017, 37835.00
1115.113, 37781.00
1116.210, 37982.00
1117.306, 37869.00
1118.402, 37901.00
1119.498, 38058.00
1120.593, 38036.00
1121.689, 37966.00
1122.784, 38032.00
1123.879, 38142.00
1124.974, 38064.00
1126.069, 37922.00
1127.164, 37897.00
1128.259, 37773.00
1129.353, 37709.73
1130.447, 37654.05
1131.541, 37551.00
1132.635, 37565.00
1133.729, 37434.00
1134.822, 37439.00
1135.916, 37315.00
1137.009, 37743.00
1138.102, 37306.00
1139.195, 37659.00
1140.288, 37455.00
1141.380, 37215.00
1142.473, 37630.00
1143.565, 37404.00
1144.657, 37463.00
1145.749, 37398.00
1146.841, 37559.00
1147.932, 37497.11
1149.024, 37455.65
1150.115, 37456.00
1151.206, 37288.00
1152.297, 37249.00
1153.388, 37127.00
1154.479, 37229.00
1155.569, 37139.00
1156.659, 37160.00
1157.750, 37151.00
1158.839, 37429.00
1159.929, 37253.00
1161.019, 37404.00
1162.108, 37240.00
1163.198, 37278.00
1164.287, 37156.00
1165.376, 37117.99
1166.465, 37123.21
1167.553, 37117.00
1168.642, 37131.00
1169.730, 37106.63
1170.818, 37341.00
1171.906, 37107.00
1172.994, 37020.00
1174.082, 37114.00
1175.170, 37292.00
1176.257, 37257.00
1177.344, 37249.00
1178.431, 37227.00
1179.518, 37386.00
1180.605, 37248.00
1181.691, 37372.00
1182.778, 37275.00
1183.864, 37313.00
1184.950, 37141.00
1186.036, 37107.00
1187.122, 37172.00
1188.207, 37026.00
1189.292, 37123.00
1190.378, 37113.00
1191.463, 37094.37
1192.548, 37057.00
1193.632, 37087.00
1194.717, 37112.00
1195.801, 37059.00
1196.886, 37220.00
1197.970, 37096.00
1199.054, 37096.00
1200.137, 37267.00
1201.221, 37100.00
1202.305, 37306.00
1203.388, 37149.00
1204.471, 36997.00
1205.554, 36881.00
1206.637, 36841.13
1207.719, 37243.00
1208.802, 36895.00
1209.884, 37062.00
1210.966, 37265.00
1212.048, 36997.00
1213.130, 37124.00
1214.212, 37045.00
1215.293, 37222.00
1216.374, 37031.00
1217.456, 36965.00
1218.536, 36919.00
1219.617, 36955.00
1220.698, 37169.00
1221.778, 37105.00
1222.859, 37103.00
1223.939, 37085.00
1225.019, 36964.00
1226.099, 36854.00
1227.178, 36872.00
1228.258, 37185.00
1229.337, 36985.00
1230.417, 37176.00
1231.496, 37229.00
1232.574, 37031.00
1233.653, 37023.00
1234.732, 37174.00
1235.810, 37059.00
1236.888, 37346.00
1237.966, 37176.00
1239.044, 36984.00
1240.122, 37163.00
1241.199, 36942.00
1242.277, 36989.00
1243.354, 37266.00
1244.431, 36825.00
1245.508, 37057.00
1246.585, 37044.00
1247.661, 37041.00
1248.738, 37240.00
1249.814, 37113.00
1250.890, 37002.00
1251.966, 37117.00
1253.042, 37073.00
1254.117, 37059.00
1255.193, 37109.00
1256.268, 36948.00
1257.343, 37078.00
1258.418, 36893.00
1259.493, 37109.00
