##NAMES=Astrophyllite
##RRUFFID=R060103
##IDEAL CHEMISTRY=K_2_NaFe^2+^_7_Ti^4+^_2_(Si_4_O_12_)_2_O_2_(OH)_4_F
##LOCALITY=Brivik, Norway
##OWNER=RRUFF
##SOURCE=University of Arizona Mineral Museum
##DESCRIPTION=Brown fragment embedded in matrix
##STATUS=The identification of this mineral is confirmed by single-crystal X-ray diffraction and chemical analysis.
##URL=rruff.info/R060103
##MEASURED CHEMISTRY=K_2.00_Na_1.00_(Fe^2+^_0.55_Mn_0.32_Fe^3+^_0.04_Mg_0.04_Ca_0.04_)_7_(Ti_0.66_Zr_0.18_Al_0.16_)_2_Si_8.00_O_26_(OH)_4_F_1.00_
##PIN_ID=M01528
##ORIENTATION=Laser parallel to (1 0 1). Fiducial mark perpendicular to laser is parallel to c [0 0 1]
151.3980, 15984.00
152.6310, 15896.00
153.8640, 15999.00
155.0960, 16010.00
156.3280, 16266.00
157.5600, 16430.00
158.7920, 16469.00
160.0240, 16743.00
161.2560, 16741.00
162.4870, 17152.00
163.7180, 17188.00
164.9490, 17346.00
166.1800, 17465.00
167.4110, 17526.00
168.6410, 17583.00
169.8720, 17560.00
171.1020, 17473.00
172.3320, 17342.00
173.5620, 17016.00
174.7910, 16923.00
176.0210, 16598.00
177.2500, 16291.00
178.4790, 16235.00
179.7080, 15750.00
180.9370, 15487.00
182.1650, 15290.00
183.3940, 15029.00
184.6220, 14952.00
185.8500, 14798.00
187.0780, 14737.00
188.3050, 14574.00
189.5330, 14398.00
190.7600, 14460.00
191.9870, 14323.00
193.2140, 14308.00
194.4410, 14523.00
195.6680, 14248.00
196.8940, 14412.00
198.1200, 14544.00
199.3470, 14468.00
200.5720, 14562.00
201.7980, 14523.00
203.0240, 14693.00
204.2490, 14646.00
205.4740, 14672.42
206.6990, 14698.00
207.9240, 14713.00
209.1490, 14777.00
210.3740, 14900.00
211.5980, 14991.00
212.8220, 15123.72
214.0460, 15263.19
215.2700, 15412.00
216.4930, 15575.00
217.7170, 15731.00
218.9400, 15911.00
220.1630, 16023.00
221.3860, 16205.00
222.6090, 15999.00
223.8320, 16110.00
225.0540, 16076.00
226.2760, 16297.00
227.4980, 16500.00
228.7200, 16334.00
229.9420, 16439.00
231.1630, 16386.00
232.3850, 16195.00
233.6060, 16232.00
234.8270, 16322.00
236.0480, 16197.00
237.2690, 16365.00
238.4890, 16108.00
239.7090, 16214.00
240.9290, 16233.00
242.1490, 16099.00
243.3690, 16081.00
244.5890, 16155.00
245.8080, 15966.00
247.0270, 15970.00
248.2470, 16132.00
249.4650, 16049.00
250.6840, 15979.00
251.9030, 15997.00
253.1210, 16233.00
254.3390, 16068.00
255.5570, 16153.00
256.7750, 15944.00
257.9930, 16067.84
259.2100, 15974.94
260.4280, 15917.18
261.6450, 15858.00
262.8620, 15814.00
264.0790, 15733.00
265.2950, 15672.00
266.5120, 15457.00
267.7280, 15516.00
268.9440, 15291.00
270.1600, 15170.00
271.3760, 15137.00
272.5920, 15263.00
273.8070, 14818.00
275.0220, 14895.00
276.2370, 14717.00
277.4520, 14570.00
278.6670, 14454.00
279.8820, 14693.00
281.0960, 14437.00
282.3100, 14499.00
283.5240, 14258.00
284.7380, 14398.00
285.9520, 14337.00
287.1650, 14483.00
288.3780, 14319.00
289.5920, 14551.00
290.8050, 14350.00
292.0170, 14289.00
293.2300, 14470.00
294.4430, 14568.00
295.6550, 14626.00
296.8670, 14716.99
298.0790, 14893.00
299.2910, 14744.33
300.5020, 14837.00
301.7140, 14709.00
302.9250, 14734.00
304.1360, 14736.00
305.3470, 14786.00
306.5580, 14785.00
307.7680, 14581.00
308.9780, 14588.00
310.1890, 14625.00
311.3990, 14644.00
312.6090, 14290.00
313.8180, 14279.00
315.0280, 14178.00
316.2370, 14245.00
317.4460, 14246.00
318.6550, 14082.00
319.8640, 13957.00
321.0730, 13951.00
322.2810, 13641.00
323.4890, 13709.00
324.6980, 13827.00
325.9060, 13920.00
327.1130, 13560.00
328.3210, 13761.00
329.5280, 13746.00
330.7360, 13951.00
331.9430, 13943.00
333.1500, 14080.00
334.3560, 14373.00
335.5630, 14366.00
336.7690, 14472.00
337.9760, 14480.00
339.1820, 14751.00
340.3870, 14963.00
341.5930, 15172.00
342.7990, 15335.78
344.0040, 15546.00
345.2090, 15576.00
346.4140, 15652.00
347.6190, 15695.00
348.8240, 15605.00
350.0280, 15560.00
351.2330, 15578.00
352.4370, 15331.00
353.6410, 15229.00
354.8440, 15057.00
356.0480, 14718.00
357.2520, 14652.00
358.4550, 14528.00
359.6580, 14254.00
360.8610, 14126.00
362.0640, 13857.00
363.2660, 13735.00
364.4690, 13644.00
365.6710, 13306.00
366.8730, 13566.00
368.0750, 13508.00
369.2770, 13265.00
370.4780, 13134.00
371.6800, 13108.00
372.8810, 12959.00
374.0820, 13090.00
375.2830, 12961.00
376.4830, 12969.00
377.6840, 13053.00
378.8840, 12996.00
380.0840, 12994.00
381.2840, 13107.00
382.4840, 12909.00
383.6840, 13057.00
384.8830, 12951.00
386.0830, 13075.00
387.2820, 12977.00
388.4810, 12893.00
389.6800, 13133.00
390.8780, 12916.00
392.0770, 12800.00
393.2750, 12809.00
394.4730, 12821.00
395.6710, 12632.00
396.8690, 12350.00
398.0660, 12295.00
399.2640, 12248.00
400.4610, 11938.00
401.6580, 11847.00
402.8550, 12003.00
404.0520, 11867.00
405.2490, 11730.00
406.4450, 11740.00
407.6410, 11527.00
408.8370, 11440.00
410.0330, 11587.00
411.2290, 11421.00
412.4240, 11414.00
413.6200, 11557.00
414.8150, 11732.00
416.0100, 11734.00
417.2050, 11657.00
418.4000, 11678.00
419.5940, 11691.00
420.7880, 11806.00
421.9830, 11970.00
423.1770, 11735.00
424.3700, 11908.00
425.5640, 11821.00
426.7580, 11752.73
427.9510, 11856.00
429.1440, 11665.00
430.3370, 11475.00
431.5300, 11485.00
432.7220, 11303.00
433.9150, 11172.00
435.1070, 11110.00
436.2990, 10986.00
437.4910, 10918.82
438.6830, 10964.00
439.8750, 10806.00
441.0660, 10877.00
442.2570, 10881.00
443.4480, 10748.00
444.6390, 10592.00
445.8300, 10751.00
447.0210, 10577.00
448.2110, 10721.00
449.4010, 10689.00
450.5910, 10621.00
451.7810, 10679.00
452.9710, 10797.00
454.1610, 10833.00
455.3500, 10840.00
456.5390, 10887.00
457.7280, 10978.00
458.9170, 10959.00
460.1060, 10918.00
461.2940, 11095.00
462.4830, 10955.00
463.6710, 11157.00
464.8590, 11168.00
466.0470, 11086.00
467.2350, 11115.00
468.4220, 11161.00
469.6090, 11154.00
470.7970, 11014.00
471.9840, 11126.00
473.1700, 11082.00
474.3570, 11207.00
475.5440, 11198.00
476.7300, 11042.00
477.9160, 11063.00
479.1020, 10959.00
480.2880, 10861.00
481.4740, 11027.00
482.6590, 11002.00
483.8440, 10972.00
485.0300, 10903.00
486.2140, 10980.00
487.3990, 11086.00
488.5840, 10895.00
489.7680, 11003.00
490.9530, 10883.00
492.1370, 10966.00
493.3210, 10941.00
494.5040, 10822.00
495.6880, 10838.00
496.8720, 10956.00
498.0550, 10921.00
499.2380, 10822.00
500.4210, 10919.00
501.6040, 10898.00
502.7860, 10910.00
503.9690, 10980.00
505.1510, 10958.00
506.3330, 10977.00
507.5150, 10965.00
508.6970, 11015.00
509.8780, 11043.00
511.0600, 11162.00
512.2410, 11165.00
513.4220, 11206.00
514.6030, 11184.00
515.7840, 11309.00
516.9640, 11264.00
518.1440, 11127.00
519.3250, 11182.00
520.5050, 11255.00
521.6850, 11320.00
522.8640, 11360.13
524.0440, 11388.46
525.2230, 11417.00
526.4020, 11407.92
527.5820, 11387.00
528.7600, 11385.00
529.9390, 11398.00
531.1180, 11404.55
532.2960, 11376.00
533.4740, 11432.00
534.6520, 11449.00
535.8300, 11437.77
537.0080, 11421.00
538.1850, 11497.00
539.3630, 11567.00
540.5400, 11666.00
541.7170, 11602.00
542.8940, 11751.00
544.0700, 11830.00
545.2470, 11777.00
546.4230, 12131.00
547.5990, 12197.00
548.7750, 12571.00
549.9510, 12591.00
551.1270, 12796.00
552.3020, 13109.00
553.4780, 13452.00
554.6530, 13331.00
555.8280, 13602.00
557.0030, 13899.00
558.1770, 13800.00
559.3520, 13806.00
560.5260, 14086.00
561.7000, 13981.00
562.8740, 14002.00
564.0480, 13747.00
565.2220, 13697.00
566.3950, 13718.00
567.5680, 13505.00
568.7420, 13266.00
569.9150, 13368.00
571.0870, 13088.00
572.2600, 12943.00
573.4320, 13025.00
574.6050, 12790.00
575.7770, 12857.00
576.9490, 12709.00
578.1210, 12814.00
579.2920, 12646.00
580.4640, 12852.00
581.6350, 12910.00
582.8060, 12949.00
583.9770, 13146.00
585.1480, 13312.00
586.3190, 13336.00
587.4890, 13420.00
588.6590, 13619.00
589.8290, 13663.00
590.9990, 13596.00
592.1690, 13552.00
593.3390, 13685.00
594.5080, 13875.00
595.6770, 13724.00
596.8470, 13993.00
598.0160, 13915.00
599.1840, 13863.00
600.3530, 14039.00
601.5210, 14200.00
602.6900, 14279.00
603.8580, 14294.51
605.0260, 14172.00
606.1930, 14258.00
607.3610, 14168.00
608.5280, 14231.00
609.6960, 14326.00
610.8630, 14295.00
612.0300, 14696.00
613.1970, 14785.00
614.3630, 15232.00
615.5300, 15578.00
616.6960, 15985.00
617.8620, 16773.00
619.0280, 17277.00
620.1940, 17906.00
621.3590, 18418.00
622.5250, 19093.00
623.6900, 19516.15
624.8550, 19937.00
626.0200, 20050.00
627.1850, 19764.00
628.3490, 19258.00
629.5140, 18844.00
630.6780, 18374.00
631.8420, 17915.00
633.0060, 17510.00
634.1700, 17356.00
635.3330, 17493.00
636.4970, 17610.00
637.6600, 17872.00
638.8230, 18180.00
639.9860, 18520.00
641.1490, 19511.00
642.3110, 20142.00
643.4740, 20661.00
644.6360, 21433.00
645.7980, 22001.00
646.9600, 22703.00
648.1220, 23402.00
649.2840, 23556.00
650.4450, 23844.00
651.6060, 23925.00
652.7670, 23870.00
653.9280, 24018.00
655.0890, 23603.00
656.2500, 23112.00
657.4100, 22543.00
658.5700, 21683.00
659.7300, 20967.00
660.8900, 20201.00
662.0500, 19517.00
663.2100, 19022.00
664.3690, 18666.00
665.5280, 18454.00
666.6880, 18170.64
667.8460, 18054.00
669.0050, 17942.00
670.1640, 17844.00
671.3220, 17994.00
672.4810, 18071.00
673.6390, 18430.00
674.7970, 18578.00
675.9540, 18705.00
677.1120, 18891.00
678.2690, 19199.00
679.4270, 19444.00
680.5840, 19763.00
681.7410, 20064.00
682.8980, 20252.00
684.0540, 20473.00
685.2110, 20827.00
686.3670, 21034.73
687.5230, 21301.01
688.6790, 21576.00
689.8350, 21827.00
690.9900, 22115.00
692.1460, 22457.00
693.3010, 22727.00
694.4560, 22836.00
695.6110, 23193.00
696.7660, 23038.00
697.9210, 23603.00
699.0750, 23563.00
700.2290, 23692.00
701.3840, 23598.00
702.5370, 23812.23
703.6910, 24230.00
704.8450, 24195.00
705.9980, 24294.00
707.1520, 24445.00
708.3050, 24506.00
709.4580, 24642.00
710.6110, 24536.00
711.7630, 24497.00
712.9160, 24416.00
714.0680, 24451.00
715.2200, 24330.00
716.3720, 24378.00
717.5240, 23945.00
718.6760, 23867.00
719.8270, 23608.00
720.9780, 23465.00
722.1300, 23279.00
723.2810, 23014.00
724.4310, 22679.00
725.5820, 22473.00
726.7330, 22292.00
727.8830, 21942.34
729.0330, 21818.00
730.1830, 21346.00
731.3330, 21049.00
732.4830, 20827.00
733.6320, 20305.00
734.7810, 20201.00
735.9310, 19985.00
737.0800, 19421.00
738.2290, 19266.00
739.3770, 19052.00
740.5260, 18684.38
741.6740, 18685.58
742.8220, 18643.92
743.9700, 18562.02
745.1180, 18302.88
746.2660, 18285.14
747.4130, 18178.41
748.5610, 18073.20
749.7080, 18105.15
750.8550, 17900.02
752.0020, 17940.82
753.1490, 17891.10
754.2950, 17890.82
755.4420, 17800.83
756.5880, 17745.72
757.7340, 17791.23
758.8800, 17427.00
760.0250, 17537.00
761.1710, 17548.00
762.3160, 17633.00
763.4620, 17726.00
764.6070, 17534.00
765.7520, 17574.00
766.8960, 17507.00
768.0410, 17371.00
769.1850, 17274.00
770.3300, 17323.00
771.4740, 17179.00
772.6180, 17056.00
773.7610, 17182.00
774.9050, 17148.00
776.0480, 17198.00
777.1920, 17093.00
778.3350, 17166.00
779.4780, 16988.00
780.6200, 17020.00
781.7630, 16880.00
782.9060, 17036.00
784.0480, 17165.00
785.1900, 17030.00
786.3320, 17077.00
787.4740, 16902.00
788.6150, 16915.00
789.7570, 16850.00
790.8980, 16928.00
792.0390, 17011.00
793.1800, 16954.00
794.3210, 16991.24
795.4620, 16698.00
796.6020, 16844.00
797.7420, 16765.00
798.8830, 16451.00
800.0230, 16390.00
801.1620, 16353.00
802.3020, 16355.00
803.4420, 16103.00
804.5810, 16200.00
805.7200, 16147.00
806.8590, 15932.00
807.9980, 15892.00
809.1370, 15591.00
810.2750, 15667.00
811.4140, 15819.00
812.5520, 15482.00
813.6900, 15643.00
814.8280, 15650.00
815.9650, 15463.00
817.1030, 15462.00
818.2400, 15540.00
819.3780, 15667.00
820.5150, 15458.00
821.6520, 15504.00
822.7880, 15619.00
823.9250, 15553.00
825.0610, 15623.00
826.1980, 15642.00
827.3340, 15530.00
828.4700, 15373.00
829.6050, 15592.00
830.7410, 15602.00
831.8760, 15659.00
833.0120, 15789.00
834.1470, 15868.00
835.2820, 15956.00
836.4160, 15842.00
837.5510, 16068.00
838.6860, 16111.00
839.8200, 16501.00
840.9540, 16358.00
842.0880, 16652.00
843.2220, 16757.00
844.3550, 16831.00
845.4890, 16927.00
846.6220, 17098.40
847.7550, 17398.00
848.8880, 17481.00
850.0210, 17733.00
851.1540, 17972.00
852.2860, 18014.00
853.4190, 18384.00
854.5510, 18866.00
855.6830, 19316.00
856.8150, 19500.00
857.9460, 19970.00
859.0780, 20248.00
860.2090, 20271.00
861.3410, 20153.00
862.4720, 19859.00
863.6020, 19567.00
864.7330, 19069.00
865.8640, 18785.00
866.9940, 18277.00
868.1240, 18149.00
869.2540, 17921.00
870.3840, 17562.00
871.5140, 17616.00
872.6440, 17592.00
873.7730, 17449.00
874.9020, 17445.00
876.0320, 17578.00
877.1600, 17353.00
878.2890, 17535.00
879.4180, 17505.00
880.5460, 17541.00
881.6750, 17593.00
882.8030, 17642.73
883.9310, 17726.97
885.0590, 17825.00
886.1860, 17929.00
887.3140, 18072.47
888.4410, 18212.85
889.5680, 18275.00
890.6950, 18404.00
891.8220, 18423.00
892.9490, 18445.00
894.0750, 18904.00
895.2020, 18884.00
896.3280, 19067.00
897.4540, 18964.00
898.5800, 19400.00
899.7050, 19398.00
900.8310, 19609.00
901.9560, 19639.00
903.0820, 19849.00
904.2070, 20169.00
905.3320, 20113.00
906.4560, 20304.00
907.5810, 20529.00
908.7050, 20563.00
909.8300, 20549.00
910.9540, 20884.00
912.0780, 20986.00
913.2010, 20928.00
914.3250, 20961.00
915.4480, 20917.00
916.5720, 21009.00
917.6950, 21040.00
918.8180, 20909.00
919.9410, 21151.00
921.0630, 20817.00
922.1860, 20986.00
923.3080, 20967.00
924.4300, 20879.00
925.5520, 20747.00
926.6740, 20779.00
927.7960, 20813.00
928.9170, 20751.00
930.0390, 20677.00
931.1600, 20511.00
932.2810, 20542.00
933.4020, 20422.00
934.5230, 20259.00
935.6430, 19951.00
936.7640, 19623.00
937.8840, 19467.49
939.0040, 19245.20
940.1240, 19074.00
941.2440, 18993.00
942.3630, 18785.00
943.4830, 18764.00
944.6020, 18457.00
945.7210, 18533.00
946.8400, 18428.78
947.9590, 18215.00
949.0770, 18293.00
950.1960, 18142.00
951.3140, 17911.00
952.4320, 18101.00
953.5500, 17988.00
954.6680, 17837.00
955.7860, 17611.00
956.9030, 17614.00
958.0210, 17213.00
959.1380, 17169.00
960.2550, 16958.00
961.3720, 16885.00
962.4890, 16517.00
963.6050, 16485.00
964.7220, 16349.00
965.8380, 16219.00
966.9540, 16236.00
968.0700, 16019.00
969.1860, 15947.00
970.3010, 15803.00
971.4170, 15633.00
972.5320, 15641.00
973.6470, 15391.00
974.7620, 15421.00
975.8770, 15325.00
976.9910, 15434.00
978.1060, 15468.00
979.2200, 15424.00
980.3340, 15396.00
981.4480, 15481.00
982.5620, 15634.00
983.6760, 15915.00
984.7890, 15785.00
985.9030, 16121.00
987.0160, 16051.00
988.1290, 16056.00
989.2420, 16111.00
990.3550, 16270.00
991.4670, 16363.00
992.5800, 16598.53
993.6920, 16726.00
994.8040, 17276.00
995.9160, 17717.00
997.0280, 18428.00
998.1390, 19275.00
999.2510, 19928.00
1000.362, 20736.00
1001.473, 21245.00
1002.584, 21002.00
1003.695, 20861.00
1004.805, 20369.00
1005.916, 19825.00
1007.026, 19241.00
1008.136, 19437.00
1009.246, 19539.00
1010.356, 19779.00
1011.466, 20049.00
1012.576, 20504.04
1013.685, 21008.00
1014.794, 21653.00
1015.903, 22265.00
1017.012, 22996.00
1018.121, 23529.00
1019.229, 24492.00
1020.338, 25101.00
1021.446, 25602.00
1022.554, 26091.00
1023.662, 26460.00
1024.770, 26905.00
1025.878, 27277.00
1026.985, 27185.00
1028.092, 27530.00
1029.200, 27601.00
1030.307, 27395.00
1031.413, 27174.00
1032.520, 27185.00
1033.627, 26779.00
1034.733, 26649.00
1035.839, 25911.00
1036.945, 25772.00
1038.051, 25301.00
1039.157, 24362.00
1040.262, 24197.00
1041.368, 23833.00
1042.473, 23240.00
1043.578, 22855.94
1044.683, 22420.00
1045.788, 21866.00
1046.893, 21389.00
1047.997, 21082.00
1049.101, 20480.00
1050.205, 19919.00
1051.309, 19649.00
1052.413, 19141.00
1053.517, 18855.00
1054.621, 18491.00
1055.724, 18025.00
1056.827, 17691.00
1057.930, 17545.00
1059.033, 17392.00
1060.136, 17167.00
1061.238, 17116.00
1062.341, 17040.00
1063.443, 16874.00
1064.545, 16867.00
1065.647, 16849.00
1066.749, 16781.00
1067.850, 16927.00
1068.952, 16898.00
1070.053, 16864.00
1071.154, 16772.00
1072.255, 16891.00
1073.356, 16999.00
1074.457, 17200.00
1075.557, 17475.00
1076.658, 17630.00
1077.758, 17644.00
1078.858, 17637.00
1079.958, 18021.00
1081.057, 18222.00
1082.157, 18148.00
1083.256, 18258.00
1084.356, 18164.00
1085.455, 17967.00
1086.554, 17640.00
1087.653, 17756.00
1088.751, 17577.00
1089.850, 17385.00
1090.948, 17235.00
1092.046, 17217.00
1093.144, 16921.00
1094.242, 16980.00
1095.340, 16893.00
1096.437, 16760.00
1097.534, 16702.00
1098.632, 16517.00
1099.729, 16633.00
1100.826, 16545.00
1101.922, 16624.00
1103.019, 16778.00
1104.115, 16594.00
1105.212, 16772.00
1106.308, 16789.00
1107.404, 16651.00
1108.499, 16637.00
1109.595, 16756.00
1110.691, 16630.00
1111.786, 16558.00
1112.881, 16360.00
1113.976, 16334.00
1115.071, 16283.00
1116.166, 16330.00
1117.260, 16271.00
1118.355, 16121.00
1119.449, 16063.00
1120.543, 16064.00
1121.637, 15918.00
1122.731, 15822.00
1123.824, 15936.00
1124.918, 15821.00
1126.011, 15703.00
1127.104, 15847.00
1128.197, 15780.00
1129.290, 15945.00
1130.382, 15890.00
1131.475, 15641.00
1132.567, 16068.00
1133.659, 15638.00
1134.751, 15675.00
1135.843, 15642.00
1136.935, 15556.00
1138.027, 15344.00
1139.118, 15377.00
1140.209, 15327.00
1141.300, 15303.00
1142.391, 15394.00
1143.482, 15360.00
1144.573, 15328.00
1145.663, 15316.00
1146.754, 15374.00
1147.844, 15366.63
1148.934, 15359.00
1150.024, 15407.00
1151.113, 15384.76
1152.203, 15376.88
1153.292, 15342.00
1154.381, 15433.00
1155.470, 15438.00
1156.559, 15499.00
1157.648, 15540.00
1158.737, 15728.00
1159.825, 15520.00
1160.913, 15775.00
1162.001, 15746.00
1163.089, 15711.00
1164.177, 15778.00
1165.265, 15789.97
1166.352, 15983.00
1167.440, 15901.00
1168.527, 16033.00
1169.614, 16103.00
1170.701, 16006.00
1171.788, 16013.00
1172.874, 16070.00
1173.961, 16125.00
1175.047, 16178.00
1176.133, 16186.47
1177.219, 16211.09
1178.305, 16152.00
1179.390, 16214.00
1180.476, 16123.00
1181.561, 16106.00
1182.646, 15952.00
1183.731, 16059.00
1184.816, 16085.00
1185.901, 16172.00
1186.985, 16072.00
1188.070, 16221.00
1189.154, 15952.00
1190.238, 15955.00
1191.322, 15607.00
1192.406, 15696.00
1193.489, 15750.00
1194.573, 15669.00
1195.656, 15778.00
1196.739, 15790.00
1197.822, 15851.00
1198.905, 15932.00
1199.988, 15882.00
1201.070, 15993.00
1202.153, 15892.00
1203.235, 15920.00
1204.317, 15908.00
1205.399, 15946.00
1206.481, 15879.00
1207.562, 15991.00
1208.644, 16152.00
1209.725, 16140.00
1210.806, 16268.00
1211.887, 16467.00
1212.968, 16491.00
1214.049, 16638.00
1215.129, 16480.00
1216.209, 16617.00
1217.290, 16441.00
1218.370, 16440.00
1219.450, 16530.00
1220.529, 16185.00
1221.609, 16352.00
1222.688, 16331.00
1223.768, 16345.00
1224.847, 16386.00
1225.926, 16443.00
1227.005, 16412.00
1228.083, 16577.00
1229.162, 16799.00
1230.240, 16677.00
1231.318, 16839.00
1232.396, 16959.00
1233.474, 16918.00
1234.552, 17244.00
1235.629, 17224.00
1236.707, 17442.00
1237.784, 17291.00
1238.861, 17249.00
1239.938, 17186.00
1241.015, 17240.00
1242.092, 17223.00
1243.168, 17295.00
1244.244, 17322.00
1245.321, 17351.00
1246.397, 17535.00
1247.473, 17555.00
1248.548, 17352.00
1249.624, 17654.00
1250.699, 17535.00
1251.775, 17486.00
1252.850, 17565.00
1253.925, 17657.00
1254.999, 17711.00
1256.074, 17795.00
1257.148, 17677.00
1258.223, 17875.00
1259.297, 18181.00
1260.371, 18119.00
1261.445, 18422.00
1262.519, 18541.00
1263.592, 18598.00
1264.666, 18638.00
1265.739, 18845.00
1266.812, 18939.00
1267.885, 18987.00
1268.958, 19123.89
1270.030, 19199.55
1271.103, 19284.00
1272.175, 19341.00
1273.247, 19386.00
1274.319, 19341.00
1275.391, 19349.00
1276.463, 19164.00
1277.535, 18974.00
1278.606, 19067.00
1279.677, 18895.00
1280.748, 18811.00
1281.819, 18817.00
1282.890, 18737.67
1283.961, 18630.00
1285.031, 18717.00
1286.102, 18626.00
1287.172, 18634.00
1288.242, 18812.00
1289.312, 18969.00
1290.381, 19068.00
1291.451, 19310.00
1292.520, 19235.00
1293.590, 19517.00
1294.659, 19485.00
1295.728, 19383.00
1296.797, 19271.00
1297.865, 19290.00
1298.934, 19222.04
1300.002, 19225.00
1301.070, 19240.00
1302.138, 19255.00
1303.206, 19379.00
1304.274, 19495.00
1305.341, 19784.00
1306.409, 19962.00
1307.476, 19929.00
1308.543, 20157.00
1309.610, 20229.00
1310.677, 20054.00
1311.744, 20307.00
1312.810, 20242.00
1313.877, 20193.00
1314.943, 20373.00
1316.009, 20357.00
1317.075, 20179.00
1318.140, 20046.00
