##NAMES=Astrophyllite
##RRUFFID=R060202
##IDEAL CHEMISTRY=K_2_NaFe^2+^_7_Ti^4+^_2_(Si_4_O_12_)_2_O_2_(OH)_4_F
##LOCALITY=Demix Quarry, Mont Saint-Hilaire, Rouville County, Quebec, Canada
##OWNER=RRUFF
##SOURCE=Royal Ontario Museum
##DESCRIPTION=Aggregate of brown splintered wafers
##STATUS=The identification of this mineral has been confirmed by X-ray diffraction and chemical analysis
##URL=rruff.info/R060202
##MEASURED CHEMISTRY=(K_0.56_Na_0.38_Ca_0.06_)_3_(Fe^2+^_0.52_Mn_0.44_Mg_0.04_)_7_(Ti_0.75_Zr_0.15_Al_0.15_)_2_Si_8_O_24_(O_0.27_OH_0.73_)_7_
##PIN_ID=M00255
##ORIENTATION=Laser parallel to (0 1 1). Fiducial mark perpendicular to laser is parallel to a [1 0 0]
83.60200, 19020.00
84.83700, 20128.00
86.07200, 21221.00
87.30800, 21778.00
88.54200, 22281.00
89.77700, 22865.00
91.01200, 23109.00
92.24600, 23436.00
93.48000, 23582.00
94.71400, 23702.49
95.94800, 23469.00
97.18200, 23796.00
98.41600, 23635.00
99.64900, 23628.00
100.8830, 23706.00
102.1160, 23625.00
103.3490, 23179.00
104.5820, 23099.00
105.8150, 23232.00
107.0470, 23400.00
108.2800, 23654.00
109.5120, 24154.00
110.7440, 24538.00
111.9760, 23416.00
113.2080, 22798.00
114.4400, 22947.00
115.6710, 24003.00
116.9030, 25908.00
118.1340, 25746.00
119.3650, 25478.00
120.5960, 24919.00
121.8270, 24489.00
123.0580, 24249.00
124.2880, 24459.00
125.5190, 24668.00
126.7490, 24633.00
127.9790, 24618.00
129.2090, 24503.00
130.4390, 24483.00
131.6680, 24400.00
132.8980, 24042.00
134.1270, 23758.00
135.3560, 23672.00
136.5850, 23499.00
137.8140, 23565.00
139.0430, 23699.00
140.2710, 23845.00
141.5000, 23841.00
142.7280, 23957.00
143.9560, 23885.00
145.1840, 24127.00
146.4120, 24233.00
147.6390, 24424.00
148.8670, 24306.00
150.0940, 24227.00
151.3210, 24419.00
152.5490, 24692.00
153.7750, 25288.00
155.0020, 25472.00
156.2290, 25732.00
157.4550, 26017.00
158.6810, 26388.00
159.9080, 26930.00
161.1340, 27659.00
162.3590, 28022.00
163.5850, 28542.00
164.8110, 28851.00
166.0360, 29055.00
167.2610, 29268.00
168.4860, 29317.00
169.7110, 29352.00
170.9360, 29350.00
172.1610, 28794.00
173.3850, 28474.00
174.6100, 27860.00
175.8340, 27610.00
177.0580, 27377.00
178.2820, 26627.00
179.5050, 26481.00
180.7290, 26110.00
181.9520, 25999.00
183.1760, 25856.00
184.3990, 25663.00
185.6220, 25667.00
186.8450, 25856.00
188.0670, 25574.00
189.2900, 25762.00
190.5120, 26058.00
191.7340, 26003.00
192.9560, 26361.00
194.1780, 26495.00
195.4000, 27034.00
196.6220, 27368.00
197.8430, 27771.00
199.0640, 28065.00
200.2860, 28303.00
201.5070, 28552.00
202.7270, 29071.00
203.9480, 29057.00
205.1690, 28976.00
206.3890, 28283.00
207.6090, 28169.00
208.8290, 28214.00
210.0490, 28367.00
211.2690, 28224.00
212.4890, 28541.00
213.7080, 28974.00
214.9280, 29175.00
216.1470, 29319.00
217.3660, 29773.00
218.5850, 30038.00
219.8030, 30329.00
221.0220, 30754.00
222.2400, 30938.00
223.4590, 31161.00
224.6770, 31815.00
225.8950, 32770.00
227.1120, 32784.00
228.3300, 33343.00
229.5480, 33524.00
230.7650, 33845.00
231.9820, 33899.00
233.1990, 34516.00
234.4160, 34515.00
235.6330, 34846.00
236.8490, 34814.00
238.0660, 34800.00
239.2820, 34749.00
240.4980, 34444.00
241.7140, 33788.00
242.9300, 33399.00
244.1460, 32861.00
245.3610, 32084.00
246.5770, 31466.00
247.7920, 30860.00
249.0070, 30429.00
250.2220, 29556.00
251.4370, 29070.00
252.6510, 28564.00
253.8660, 28238.00
255.0800, 28053.00
256.2940, 27214.00
257.5080, 27121.00
258.7220, 26710.00
259.9360, 27012.00
261.1490, 26879.00
262.3630, 26342.00
263.5760, 25927.00
264.7890, 25774.00
266.0020, 25571.00
267.2150, 25299.00
268.4270, 25381.00
269.6400, 25168.00
270.8520, 25014.00
272.0640, 24890.00
273.2760, 24786.00
274.4880, 24775.00
275.7000, 24396.00
276.9120, 24437.00
278.1230, 24320.00
279.3340, 24526.00
280.5450, 24305.83
281.7560, 24162.00
282.9670, 23969.00
284.1780, 24137.00
285.3880, 23988.00
286.5980, 24053.00
287.8090, 24029.00
289.0190, 24013.00
290.2290, 23994.00
291.4380, 24002.00
292.6480, 23931.00
293.8570, 23911.00
295.0670, 24039.00
296.2760, 23862.00
297.4850, 23845.00
298.6930, 23721.00
299.9020, 23787.00
301.1110, 24012.00
302.3190, 23910.84
303.5270, 23941.00
304.7350, 23923.00
305.9430, 23915.00
307.1510, 23947.00
308.3580, 23797.00
309.5660, 23744.00
310.7730, 24072.00
311.9800, 23836.00
313.1870, 24037.00
314.3940, 23991.00
315.6010, 24053.00
316.8070, 24125.00
318.0130, 24291.00
319.2200, 24284.00
320.4260, 24325.00
321.6310, 24352.00
322.8370, 24491.00
324.0430, 24594.00
325.2480, 24713.00
326.4540, 24843.79
327.6590, 24605.00
328.8640, 25070.00
330.0680, 25112.00
331.2730, 25153.00
332.4780, 25559.00
333.6820, 25567.00
334.8860, 25750.00
336.0900, 25807.00
337.2940, 26133.00
338.4980, 26441.00
339.7010, 26322.00
340.9050, 26552.00
342.1080, 26702.00
343.3110, 26853.00
344.5140, 27088.00
345.7170, 27074.00
346.9200, 27283.00
348.1220, 27136.00
349.3240, 27169.00
350.5270, 27484.00
351.7290, 27547.00
352.9310, 27283.00
354.1320, 27632.00
355.3340, 27695.00
356.5350, 27585.00
357.7370, 27719.00
358.9380, 27694.00
360.1390, 27661.00
361.3400, 27505.00
362.5400, 27560.00
363.7410, 27437.00
364.9410, 27298.00
366.1410, 27253.28
367.3410, 27111.20
368.5410, 27033.00
369.7410, 26866.00
370.9400, 26707.00
372.1400, 26539.00
373.3390, 26654.00
374.5380, 26835.00
375.7370, 26686.00
376.9360, 26720.00
378.1350, 26942.00
379.3330, 26899.00
380.5310, 27042.00
381.7300, 27054.00
382.9280, 26694.00
384.1260, 26878.00
385.3230, 27055.00
386.5210, 26721.00
387.7180, 26467.00
388.9160, 26498.00
390.1130, 26281.00
391.3100, 26036.00
392.5060, 26012.00
393.7030, 25869.00
394.9000, 25749.00
396.0960, 25607.00
397.2920, 25735.00
398.4880, 25592.00
399.6840, 25333.00
400.8800, 25177.00
402.0750, 25424.00
403.2710, 25152.00
404.4660, 25263.00
405.6610, 25030.00
406.8560, 25176.00
408.0510, 25062.75
409.2450, 25018.00
410.4400, 24921.00
411.6340, 24858.62
412.8280, 24938.00
414.0220, 24768.00
415.2160, 24833.00
416.4100, 24866.00
417.6030, 24998.00
418.7970, 24813.00
419.9900, 24867.00
421.1830, 24785.00
422.3760, 24683.00
423.5690, 24699.00
424.7610, 24726.00
425.9540, 24567.00
427.1460, 24653.00
428.3380, 24306.00
429.5300, 24357.00
430.7220, 24530.00
431.9140, 24191.00
433.1050, 24332.00
434.2970, 24318.00
435.4880, 24310.00
436.6790, 24326.00
437.8700, 24479.00
439.0610, 24581.00
440.2510, 24467.00
441.4420, 24409.00
442.6320, 24317.00
443.8220, 24371.00
445.0120, 24513.00
446.2020, 24640.00
447.3910, 24720.00
448.5810, 24915.00
449.7700, 24835.00
450.9600, 25036.00
452.1490, 25069.00
453.3370, 25300.00
454.5260, 25299.00
455.7150, 25512.00
456.9030, 25453.00
458.0910, 25506.00
459.2800, 25993.00
460.4670, 26276.00
461.6550, 26531.00
462.8430, 26716.00
464.0300, 26885.00
465.2180, 27111.00
466.4050, 27070.00
467.5920, 27212.00
468.7790, 27141.00
469.9650, 27459.00
471.1520, 27417.00
472.3380, 27406.00
473.5250, 27285.00
474.7110, 27064.00
475.8970, 27216.00
477.0820, 27213.00
478.2680, 26974.00
479.4540, 26950.00
480.6390, 26790.00
481.8240, 27062.00
483.0090, 26765.00
484.1940, 26624.00
485.3780, 26771.00
486.5630, 26457.00
487.7470, 26449.00
488.9320, 26359.00
490.1160, 26358.00
491.3000, 26330.00
492.4830, 26319.00
493.6670, 26204.00
494.8500, 26024.00
496.0340, 25932.00
497.2170, 25776.00
498.4000, 25790.00
499.5820, 25785.00
500.7650, 25834.00
501.9480, 25879.00
503.1300, 25762.00
504.3120, 25764.00
505.4940, 25691.00
506.6760, 25573.00
507.8580, 25626.00
509.0390, 25511.00
510.2210, 25547.00
511.4020, 25777.00
512.5830, 25589.00
513.7640, 25569.00
514.9450, 25866.00
516.1250, 25650.00
517.3060, 25613.00
518.4860, 25802.00
519.6660, 25658.00
520.8460, 25973.00
522.0260, 25865.00
523.2060, 25963.00
524.3850, 25993.00
525.5650, 25904.00
526.7440, 26259.00
527.9230, 26351.00
529.1020, 26304.00
530.2810, 26535.00
531.4590, 26648.00
532.6380, 26991.00
533.8160, 27059.00
534.9940, 27397.00
536.1720, 27293.00
537.3500, 27407.00
538.5270, 27690.00
539.7050, 27976.69
540.8820, 28775.00
542.0590, 28955.00
543.2360, 29606.00
544.4130, 30307.00
545.5900, 30639.00
546.7660, 31227.00
547.9430, 32091.00
549.1190, 32867.00
550.2950, 33557.00
551.4710, 34344.00
552.6470, 35092.00
553.8220, 35672.00
554.9980, 36202.00
556.1730, 36444.00
557.3480, 36799.46
558.5230, 36789.00
559.6980, 36925.00
560.8730, 36690.00
562.0470, 36084.00
563.2220, 35936.00
564.3960, 35359.00
565.5700, 34930.00
566.7440, 34560.00
567.9170, 34237.00
569.0910, 33885.46
570.2640, 33594.00
571.4380, 33283.00
572.6110, 32895.00
573.7840, 32634.00
574.9570, 32531.00
576.1290, 32102.00
577.3020, 32178.00
578.4740, 31803.00
579.6460, 32103.00
580.8180, 31981.00
581.9900, 31807.00
583.1620, 32054.00
584.3330, 32094.00
585.5040, 32113.00
586.6760, 32304.00
587.8470, 32367.00
589.0180, 32545.00
590.1880, 32452.00
591.3590, 32820.00
592.5290, 32582.00
593.7000, 32871.00
594.8700, 32732.00
596.0400, 32670.00
597.2090, 32969.00
598.3790, 32990.00
599.5490, 33074.00
600.7180, 33127.98
601.8870, 32971.00
603.0560, 33147.00
604.2250, 32921.00
605.3940, 33001.00
606.5620, 32827.00
607.7300, 33208.00
608.8990, 33357.00
610.0670, 33350.00
611.2350, 33451.00
612.4020, 33525.04
613.5700, 33331.00
614.7370, 33634.00
615.9050, 33632.00
617.0720, 33604.00
618.2390, 33783.00
619.4060, 34072.00
620.5720, 34294.00
621.7390, 34636.00
622.9050, 34851.08
624.0710, 34892.00
625.2370, 35326.00
626.4030, 35450.00
627.5690, 35683.00
628.7340, 36073.00
629.9000, 36236.00
631.0650, 36833.00
632.2300, 37025.00
633.3950, 37328.00
634.5600, 37769.00
635.7240, 38595.00
636.8890, 38872.00
638.0530, 39736.00
639.2170, 40396.00
640.3810, 41061.00
641.5450, 42165.00
642.7080, 43015.00
643.8720, 44124.00
645.0350, 45917.00
646.1980, 47404.00
647.3610, 48487.00
648.5240, 50207.00
649.6870, 51602.00
650.8490, 52932.00
652.0120, 53693.00
653.1740, 53886.00
654.3360, 54112.00
655.4980, 53597.00
656.6600, 52575.00
657.8210, 51546.00
658.9830, 50045.00
660.1440, 48923.00
661.3050, 48131.00
662.4660, 47266.00
663.6270, 46440.00
664.7870, 46179.00
665.9480, 45496.00
667.1080, 45455.00
668.2680, 45469.00
669.4280, 45757.00
670.5880, 45915.00
671.7480, 46326.00
672.9070, 46562.00
674.0670, 46978.00
675.2260, 47672.00
676.3850, 48058.00
677.5440, 48640.00
678.7030, 49058.00
679.8610, 49759.00
681.0200, 50360.00
682.1780, 50939.00
683.3360, 51316.00
684.4940, 51823.00
685.6520, 52033.00
686.8090, 53115.00
687.9670, 53539.00
689.1240, 53797.00
690.2810, 54609.00
691.4380, 54859.00
692.5950, 55191.00
693.7520, 55843.00
694.9080, 56026.02
696.0650, 56162.00
697.2210, 56581.00
698.3770, 56731.00
699.5330, 56856.00
700.6880, 56991.00
701.8440, 57219.00
702.9990, 57563.00
704.1550, 57670.00
705.3100, 57772.00
706.4650, 57849.00
707.6190, 57780.00
708.7740, 57867.00
709.9290, 57717.00
711.0830, 57644.00
712.2370, 57277.00
713.3910, 57186.00
714.5450, 56939.00
715.6980, 56231.00
716.8520, 56177.00
718.0050, 55584.00
719.1580, 55409.00
720.3110, 54663.00
721.4640, 54239.00
722.6170, 53610.00
723.7700, 52945.00
724.9220, 52126.00
726.0740, 51558.00
727.2260, 50954.00
728.3780, 50112.00
729.5300, 49614.00
730.6810, 48751.00
731.8330, 48424.00
732.9840, 47378.00
734.1350, 46999.00
735.2860, 46298.00
736.4370, 45827.00
737.5880, 45131.00
738.7380, 44844.00
739.8880, 44389.00
741.0390, 43712.00
742.1890, 43373.00
743.3380, 42842.00
744.4880, 42736.00
745.6380, 42422.95
746.7870, 42491.00
747.9360, 42063.00
749.0850, 41915.00
750.2340, 41791.00
751.3830, 41420.00
752.5310, 41642.00
753.6800, 41331.00
754.8280, 41018.00
755.9760, 41133.00
757.1240, 40674.00
758.2720, 40227.00
759.4190, 40135.00
760.5670, 39890.00
761.7140, 39465.00
762.8610, 39195.00
764.0080, 38696.00
765.1550, 38286.00
766.3020, 38125.00
767.4480, 37725.00
768.5950, 37352.00
769.7410, 36991.00
770.8870, 36686.00
772.0330, 36398.00
773.1780, 36065.00
774.3240, 35931.00
775.4690, 35758.00
776.6140, 35359.00
777.7590, 35072.00
778.9040, 35225.00
780.0490, 34703.00
781.1940, 34540.00
782.3380, 34668.00
783.4820, 34511.00
784.6260, 34298.00
785.7700, 34125.00
786.9140, 33951.00
788.0580, 33896.00
789.2010, 33858.00
790.3450, 33595.00
791.4880, 33520.00
792.6310, 33368.00
793.7730, 33275.84
794.9160, 33280.00
796.0590, 33085.00
797.2010, 33102.00
798.3430, 32862.00
799.4850, 32812.00
800.6270, 32668.00
801.7690, 32677.00
802.9100, 32494.25
804.0520, 32305.00
805.1930, 32212.00
806.3340, 32218.00
807.4750, 32182.00
808.6160, 32120.05
809.7560, 32056.48
810.8970, 31991.00
812.0370, 31956.00
813.1770, 31844.00
814.3170, 31965.00
815.4570, 31650.00
816.5960, 31491.00
817.7360, 31660.00
818.8750, 31682.00
820.0140, 31668.00
821.1530, 31605.00
822.2920, 31497.00
823.4310, 31659.00
824.5690, 31480.00
825.7070, 31685.00
826.8460, 31335.00
827.9840, 31437.00
829.1220, 31246.00
830.2590, 31467.00
831.3970, 31267.00
832.5340, 31359.00
833.6710, 31467.00
834.8080, 31522.00
835.9450, 31301.00
837.0820, 31284.00
838.2190, 31357.00
839.3550, 31620.00
840.4910, 31653.00
841.6270, 31412.00
842.7630, 31529.00
843.8990, 31102.00
845.0350, 31366.00
846.1700, 31346.00
847.3060, 31212.00
848.4410, 31500.00
849.5760, 31607.00
850.7100, 31838.00
851.8450, 31451.00
852.9800, 31852.00
854.1140, 31658.00
855.2480, 31655.00
856.3820, 31796.00
857.5160, 31925.00
858.6500, 31807.00
859.7830, 31995.00
860.9170, 32040.00
862.0500, 32142.00
863.1830, 32224.00
864.3160, 32333.00
865.4480, 32466.00
866.5810, 32314.00
867.7130, 32261.00
868.8460, 32363.00
869.9780, 32626.00
871.1100, 32378.00
872.2410, 32421.00
873.3730, 32920.00
874.5050, 33014.00
875.6360, 33295.00
876.7670, 33236.00
877.8980, 33126.00
879.0290, 33381.00
880.1590, 33486.00
881.2900, 33481.00
882.4200, 33655.00
883.5500, 33585.00
884.6800, 33856.00
885.8100, 33941.89
886.9400, 34258.00
888.0690, 34238.00
889.1990, 34428.00
890.3280, 34569.00
891.4570, 34692.00
892.5860, 34814.00
893.7140, 34964.00
894.8430, 35071.00
895.9710, 35337.00
897.1000, 35473.00
898.2280, 36026.00
899.3560, 35659.00
900.4830, 35951.00
901.6110, 36234.00
902.7380, 35991.00
903.8660, 36396.00
904.9930, 36657.00
906.1200, 36600.00
907.2460, 36773.00
908.3730, 36958.00
909.5000, 36953.64
910.6260, 36788.00
911.7520, 37041.00
912.8780, 37141.00
914.0040, 37143.00
915.1290, 37299.00
916.2550, 37405.57
917.3800, 37786.00
918.5050, 37579.00
919.6300, 37856.00
920.7550, 37708.00
921.8800, 37664.00
923.0040, 37743.00
924.1290, 37407.00
925.2530, 37633.00
926.3770, 37286.00
927.5010, 37345.00
928.6250, 37553.00
929.7480, 37569.00
930.8720, 37532.00
931.9950, 37286.00
933.1180, 37311.00
934.2410, 37109.00
935.3640, 36982.00
936.4860, 36676.00
937.6090, 36741.00
938.7310, 36600.00
939.8530, 36462.00
940.9750, 36493.00
942.0970, 36561.00
943.2180, 36427.00
944.3400, 36456.00
945.4610, 36111.00
946.5820, 35822.00
947.7030, 35799.00
948.8240, 35776.00
949.9450, 35564.00
951.0650, 35669.00
952.1860, 35520.00
953.3060, 35325.00
954.4260, 35426.00
955.5460, 35220.00
956.6650, 35080.00
957.7850, 35097.00
958.9040, 34992.00
960.0230, 34874.00
961.1420, 34969.00
962.2610, 34589.00
963.3800, 34462.00
964.4990, 34528.00
965.6170, 34437.00
966.7350, 34277.00
967.8530, 34673.00
968.9710, 34500.56
970.0890, 34782.00
971.2070, 34472.00
972.3240, 34480.00
973.4410, 34367.00
974.5580, 34068.00
975.6750, 34107.00
976.7920, 33923.00
977.9090, 33915.14
979.0250, 34278.00
980.1410, 34001.00
981.2580, 34318.00
982.3740, 34500.00
983.4890, 34313.00
984.6050, 34471.17
985.7200, 34297.00
986.8360, 34399.00
987.9510, 34487.00
989.0660, 34419.00
990.1810, 34654.00
991.2950, 34522.00
992.4100, 34709.00
993.5240, 34836.00
994.6390, 34831.00
995.7530, 35081.00
996.8660, 35160.00
997.9800, 35319.00
999.0940, 35505.00
1000.207, 35705.00
1001.320, 35569.00
1002.433, 35794.00
1003.546, 35934.00
1004.659, 35914.00
1005.772, 36136.00
1006.884, 36552.00
1007.996, 36661.00
1009.108, 36928.00
1010.220, 37316.00
1011.332, 37570.00
1012.444, 37865.00
1013.555, 38194.00
1014.666, 38144.00
1015.777, 38493.00
1016.888, 38741.00
1017.999, 39503.00
1019.110, 39398.00
1020.220, 39511.00
1021.331, 39915.00
1022.441, 39874.39
1023.551, 40141.65
1024.661, 40018.00
1025.770, 40434.00
1026.880, 40323.00
1027.989, 40289.00
1029.098, 40330.00
1030.207, 40298.00
1031.316, 40084.00
1032.425, 40269.00
1033.533, 40116.00
1034.642, 39841.00
1035.750, 39584.00
1036.858, 39561.00
1037.966, 39224.00
1039.073, 39462.00
1040.181, 39015.42
1041.288, 38894.00
1042.396, 38373.00
1043.503, 38222.00
1044.610, 38051.00
1045.716, 37892.00
1046.823, 37792.00
1047.929, 37953.00
1049.036, 37557.00
1050.142, 37135.00
1051.248, 37513.00
1052.353, 37352.00
1053.459, 37320.00
1054.564, 37110.00
1055.670, 37169.00
1056.775, 36918.00
1057.880, 36766.00
1058.985, 37099.00
1060.089, 36792.00
1061.194, 36970.00
1062.298, 37042.00
1063.402, 36957.00
1064.506, 37140.00
1065.610, 37171.00
1066.713, 37076.00
1067.817, 37038.00
1068.920, 37022.00
1070.023, 36764.00
1071.126, 36983.00
1072.229, 37290.00
1073.332, 37186.22
1074.435, 37078.00
1075.537, 37183.00
1076.639, 37296.00
1077.741, 37092.00
1078.843, 37187.00
1079.945, 37413.00
1081.046, 37136.00
1082.148, 37080.00
1083.249, 36870.00
1084.350, 36904.00
1085.451, 36854.26
1086.551, 36776.54
1087.652, 36744.00
1088.752, 36813.00
1089.853, 36713.81
1090.953, 36736.00
1092.053, 36659.00
1093.152, 36608.00
1094.252, 36699.00
1095.351, 36448.00
1096.451, 36165.00
1097.550, 36605.00
1098.649, 36307.00
1099.748, 36272.00
1100.846, 36234.00
1101.945, 36116.00
1103.043, 36008.00
1104.141, 36183.00
1105.239, 36202.00
1106.337, 35931.00
1107.434, 36266.00
1108.532, 36196.00
1109.629, 36064.79
1110.726, 36108.24
1111.823, 35949.00
1112.920, 35805.00
1114.017, 36090.00
1115.113, 35749.00
1116.210, 35608.00
1117.306, 36031.00
1118.402, 35797.00
1119.498, 35949.00
1120.593, 36074.00
1121.689, 36185.00
1122.784, 36005.00
1123.879, 36092.00
1124.974, 36030.00
1126.069, 35931.00
1127.164, 36205.00
1128.259, 35949.00
1129.353, 36113.00
1130.447, 36110.00
1131.541, 36168.00
1132.635, 36170.04
1133.729, 36071.00
1134.822, 36090.00
1135.916, 36027.00
1137.009, 35943.00
1138.102, 36094.00
1139.195, 36061.00
1140.288, 35916.00
1141.380, 36172.00
1142.473, 35975.00
1143.565, 36250.00
1144.657, 36117.00
1145.749, 36099.00
1146.841, 36404.00
1147.932, 36272.00
1149.024, 36317.00
1150.115, 36305.00
1151.206, 36467.00
1152.297, 36194.00
1153.388, 36471.00
1154.479, 36112.00
1155.569, 36109.00
1156.659, 36446.00
1157.750, 36629.00
1158.839, 36405.00
1159.929, 36452.00
1161.019, 36526.00
1162.108, 36528.00
1163.198, 36443.00
1164.287, 36482.00
1165.376, 36309.00
1166.465, 36604.00
1167.553, 36791.00
1168.642, 36619.00
1169.730, 36883.00
1170.818, 36690.00
1171.906, 36766.00
1172.994, 36590.00
1174.082, 36690.00
1175.170, 36481.00
1176.257, 36572.57
1177.344, 36799.00
1178.431, 36698.00
1179.518, 36727.00
1180.605, 36763.00
1181.691, 36963.00
1182.778, 36965.18
1183.864, 37025.61
1184.950, 37075.00
1186.036, 37040.00
1187.122, 37061.00
1188.207, 36995.00
1189.292, 36941.00
1190.378, 36956.00
1191.463, 37206.00
1192.548, 36922.00
1193.632, 37145.00
1194.717, 37151.00
1195.801, 37069.00
1196.886, 37093.00
1197.970, 37213.00
1199.054, 37136.00
1200.137, 37223.00
1201.221, 37097.00
1202.305, 37432.00
1203.388, 37433.00
1204.471, 37340.00
1205.554, 37133.00
1206.637, 37542.00
1207.719, 37057.00
1208.802, 37500.00
1209.884, 37410.00
1210.966, 37557.00
1212.048, 37821.00
1213.130, 37673.00
1214.212, 37573.00
1215.293, 37513.00
1216.374, 37409.00
1217.456, 37411.23
1218.536, 37661.00
1219.617, 37437.00
1220.698, 37559.00
1221.778, 37606.00
1222.859, 37463.00
1223.939, 37768.00
1225.019, 37869.00
1226.099, 37948.00
1227.178, 37842.00
1228.258, 38008.00
1229.337, 38046.00
1230.417, 37793.00
1231.496, 38033.00
1232.574, 37715.00
1233.653, 37866.00
1234.732, 38035.00
1235.810, 37877.00
1236.888, 38022.00
1237.966, 37986.00
1239.044, 38074.00
1240.122, 38176.00
1241.199, 38197.00
1242.277, 38249.18
1243.354, 38357.00
1244.431, 38317.00
1245.508, 38279.77
1246.585, 38365.87
1247.661, 38147.00
1248.738, 38305.00
1249.814, 38224.00
1250.890, 38104.00
1251.966, 38534.00
1253.042, 38225.00
1254.117, 38507.00
1255.193, 38457.00
1256.268, 38404.00
1257.343, 38335.00
1258.418, 38530.00
