##NAMES=Astrophyllite
##RRUFFID=R060202
##IDEAL CHEMISTRY=K_2_NaFe^2+^_7_Ti^4+^_2_(Si_4_O_12_)_2_O_2_(OH)_4_F
##LOCALITY=Demix Quarry, Mont Saint-Hilaire, Rouville County, Quebec, Canada
##OWNER=RRUFF
##SOURCE=Royal Ontario Museum
##DESCRIPTION=Aggregate of brown splintered wafers
##STATUS=The identification of this mineral has been confirmed by X-ray diffraction and chemical analysis
##URL=rruff.info/R060202
##MEASURED CHEMISTRY=(K_0.56_Na_0.38_Ca_0.06_)_3_(Fe^2+^_0.52_Mn_0.44_Mg_0.04_)_7_(Ti_0.75_Zr_0.15_Al_0.15_)_2_Si_8_O_24_(O_0.27_OH_0.73_)_7_
##PIN_ID=M00495
##ORIENTATION=Laser parallel to c* (0 0 1). Fiducial mark perpendicular to laser is parallel to a [1 0 0]
145.1840, 33093.00
146.4120, 32664.00
147.6390, 32560.00
148.8670, 32912.00
150.0940, 32919.00
151.3210, 33308.00
152.5490, 33430.15
153.7750, 33562.00
155.0020, 33670.00
156.2290, 33679.00
157.4550, 33601.00
158.6810, 33443.00
159.9080, 33838.00
161.1340, 34054.33
162.3590, 34533.00
163.5850, 34847.00
164.8110, 35371.00
166.0360, 35580.00
167.2610, 35524.00
168.4860, 35088.00
169.7110, 35120.00
170.9360, 35282.00
172.1610, 34987.00
173.3850, 35307.00
174.6100, 34248.00
175.8340, 34228.00
177.0580, 34013.00
178.2820, 33694.00
179.5050, 33533.60
180.7290, 33701.00
181.9520, 33143.00
183.1760, 33090.00
184.3990, 33176.00
185.6220, 33468.00
186.8450, 33576.00
188.0670, 33700.00
189.2900, 33855.00
190.5120, 34153.00
191.7340, 34484.00
192.9560, 34659.00
194.1780, 34945.00
195.4000, 35355.00
196.6220, 35596.00
197.8430, 35815.00
199.0640, 36350.00
200.2860, 37027.00
201.5070, 37349.00
202.7270, 37714.00
203.9480, 37870.00
205.1690, 37097.00
206.3890, 36834.00
207.6090, 36508.00
208.8290, 36712.00
210.0490, 37376.00
211.2690, 38059.00
212.4890, 38557.00
213.7080, 39261.00
214.9280, 40126.00
216.1470, 40233.00
217.3660, 40600.00
218.5850, 40719.00
219.8030, 41629.00
221.0220, 42080.00
222.2400, 42410.00
223.4590, 42608.00
224.6770, 42934.95
225.8950, 43131.84
227.1120, 43354.00
228.3300, 43471.00
229.5480, 43551.00
230.7650, 43578.00
231.9820, 43359.00
233.1990, 43312.00
234.4160, 42969.00
235.6330, 42917.00
236.8490, 42306.00
238.0660, 41842.00
239.2820, 41221.00
240.4980, 40598.69
241.7140, 39866.00
242.9300, 39300.00
244.1460, 38713.00
245.3610, 38078.00
246.5770, 37927.00
247.7920, 36950.00
249.0070, 36820.00
250.2220, 35924.00
251.4370, 35427.00
252.6510, 35250.00
253.8660, 35154.00
255.0800, 34468.00
256.2940, 34377.00
257.5080, 34212.00
258.7220, 35454.00
259.9360, 34710.77
261.1490, 34346.84
262.3630, 34016.00
263.5760, 33007.00
264.7890, 32486.00
266.0020, 32540.00
267.2150, 32376.00
268.4270, 31847.00
269.6400, 31911.00
270.8520, 31702.00
272.0640, 31450.00
273.2760, 31552.00
274.4880, 31258.00
275.7000, 31261.00
276.9120, 31200.83
278.1230, 31440.00
279.3340, 31084.00
280.5450, 31056.00
281.7560, 30975.00
282.9670, 31268.00
284.1780, 31025.00
285.3880, 31254.00
286.5980, 31235.00
287.8090, 31104.00
289.0190, 31124.00
290.2290, 31097.09
291.4380, 31247.00
292.6480, 31150.00
293.8570, 31284.00
295.0670, 31414.00
296.2760, 31380.00
297.4850, 31347.00
298.6930, 31259.00
299.9020, 31400.00
301.1110, 31366.00
302.3190, 31487.00
303.5270, 31365.00
304.7350, 31437.00
305.9430, 31609.00
307.1510, 31762.00
308.3580, 31635.00
309.5660, 31705.00
310.7730, 31943.00
311.9800, 32073.00
313.1870, 32251.00
314.3940, 32380.14
315.6010, 32485.18
316.8070, 32511.00
318.0130, 32668.00
319.2200, 32543.00
320.4260, 32606.00
321.6310, 32727.00
322.8370, 32753.00
324.0430, 32920.00
325.2480, 32906.00
326.4540, 33278.00
327.6590, 33267.00
328.8640, 33350.00
330.0680, 33477.00
331.2730, 33497.00
332.4780, 33648.00
333.6820, 33463.00
334.8860, 33723.00
336.0900, 34041.00
337.2940, 33932.00
338.4980, 34026.00
339.7010, 33951.00
340.9050, 34185.00
342.1080, 34179.00
343.3110, 34317.00
344.5140, 34132.00
345.7170, 34008.00
346.9200, 34220.00
348.1220, 34063.00
349.3240, 33980.00
350.5270, 34167.00
351.7290, 33817.00
352.9310, 33866.00
354.1320, 33868.00
355.3340, 33789.00
356.5350, 33871.00
357.7370, 33707.00
358.9380, 33826.00
360.1390, 33819.44
361.3400, 33770.11
362.5400, 33867.00
363.7410, 33749.00
364.9410, 33707.00
366.1410, 33747.00
367.3410, 33680.23
368.5410, 33698.19
369.7410, 33659.00
370.9400, 33707.00
372.1400, 33717.00
373.3390, 33728.00
374.5380, 33703.00
375.7370, 33623.10
376.9360, 33629.00
378.1350, 33438.00
379.3330, 33368.00
380.5310, 33329.00
381.7300, 33405.00
382.9280, 33211.00
384.1260, 33093.00
385.3230, 32834.00
386.5210, 32785.00
387.7180, 32516.00
388.9160, 32571.00
390.1130, 32467.00
391.3100, 32186.00
392.5060, 31942.00
393.7030, 31717.00
394.9000, 31556.00
396.0960, 31427.00
397.2920, 31546.00
398.4880, 31143.00
399.6840, 30875.00
400.8800, 30690.00
402.0750, 30930.00
403.2710, 30750.00
404.4660, 30362.00
405.6610, 30499.00
406.8560, 30104.00
408.0510, 30629.00
409.2450, 30296.00
410.4400, 30177.23
411.6340, 30198.00
412.8280, 29954.00
414.0220, 29834.00
415.2160, 30156.00
416.4100, 29788.00
417.6030, 29935.00
418.7970, 29738.00
419.9900, 29850.00
421.1830, 29771.00
422.3760, 29784.00
423.5690, 29866.00
424.7610, 29524.00
425.9540, 29709.00
427.1460, 29869.00
428.3380, 29648.00
429.5300, 29719.00
430.7220, 29396.00
431.9140, 29604.00
433.1050, 29444.00
434.2970, 29678.00
435.4880, 29322.00
436.6790, 29256.00
437.8700, 29442.00
439.0610, 29430.00
440.2510, 29648.00
441.4420, 29602.00
442.6320, 29649.00
443.8220, 29403.00
445.0120, 29523.00
446.2020, 29652.00
447.3910, 29519.00
448.5810, 29798.00
449.7700, 29665.00
450.9600, 29627.00
452.1490, 29641.00
453.3370, 29828.00
454.5260, 29668.00
455.7150, 29834.00
456.9030, 29805.00
458.0910, 30015.00
459.2800, 29895.00
460.4670, 30041.00
461.6550, 30184.00
462.8430, 29798.00
464.0300, 30117.00
465.2180, 30145.00
466.4050, 30342.00
467.5920, 30116.00
468.7790, 30263.00
469.9650, 30100.00
471.1520, 30318.00
472.3380, 30102.00
473.5250, 30448.00
474.7110, 30193.00
475.8970, 30322.00
477.0820, 30506.00
478.2680, 30701.00
479.4540, 30714.76
480.6390, 30778.00
481.8240, 30640.00
483.0090, 30751.00
484.1940, 30499.00
485.3780, 30583.00
486.5630, 30940.00
487.7470, 30726.00
488.9320, 30929.00
490.1160, 30987.00
491.3000, 30911.00
492.4830, 30895.00
493.6670, 30941.39
494.8500, 30950.72
496.0340, 31102.00
497.2170, 30948.00
498.4000, 31187.00
499.5820, 30957.00
500.7650, 31083.00
501.9480, 31026.00
503.1300, 31172.00
504.3120, 31288.00
505.4940, 30961.00
506.6760, 31401.00
507.8580, 31195.00
509.0390, 31097.00
510.2210, 31268.00
511.4020, 31199.00
512.5830, 31278.00
513.7640, 31161.00
514.9450, 31337.00
516.1250, 31378.00
517.3060, 31198.00
518.4860, 31557.00
519.6660, 31371.00
520.8460, 31362.00
522.0260, 31445.00
523.2060, 31417.00
524.3850, 31545.00
525.5650, 31373.00
526.7440, 31550.00
527.9230, 31388.00
529.1020, 31751.00
530.2810, 31661.00
531.4590, 32180.00
532.6380, 32073.62
533.8160, 32107.00
534.9940, 32086.00
536.1720, 32214.17
537.3500, 32366.22
538.5270, 32616.00
539.7050, 32833.00
540.8820, 33185.00
542.0590, 33526.00
543.2360, 33951.00
544.4130, 34259.00
545.5900, 34671.00
546.7660, 35132.00
547.9430, 35493.00
549.1190, 35859.27
550.2950, 36312.00
551.4710, 36532.00
552.6470, 36935.00
553.8220, 37289.00
554.9980, 37569.00
556.1730, 37342.00
557.3480, 37793.00
558.5230, 37897.00
559.6980, 37547.00
560.8730, 37727.00
562.0470, 37403.00
563.2220, 37617.00
564.3960, 37139.00
565.5700, 37102.00
566.7440, 36850.00
567.9170, 36800.00
569.0910, 36563.00
570.2640, 36427.00
571.4380, 36213.00
572.6110, 35869.00
573.7840, 35514.00
574.9570, 35653.00
576.1290, 35211.00
577.3020, 35201.00
578.4740, 35139.00
579.6460, 35061.00
580.8180, 35191.00
581.9900, 35421.00
583.1620, 35441.00
584.3330, 35600.00
585.5040, 35164.00
586.6760, 35377.00
587.8470, 35154.00
589.0180, 35427.00
590.1880, 35354.00
591.3590, 35454.00
592.5290, 35525.00
593.7000, 35386.00
594.8700, 35436.00
596.0400, 35574.00
597.2090, 35357.00
598.3790, 35295.00
599.5490, 35205.00
600.7180, 35351.00
601.8870, 35184.44
603.0560, 35211.00
604.2250, 35076.00
605.3940, 35022.00
606.5620, 35160.00
607.7300, 35068.00
608.8990, 35161.00
610.0670, 35055.00
611.2350, 35110.00
612.4020, 35076.00
613.5700, 35205.00
614.7370, 35272.00
615.9050, 35199.00
617.0720, 35371.00
618.2390, 35312.00
619.4060, 35791.00
620.5720, 35828.00
621.7390, 36122.00
622.9050, 36220.00
624.0710, 36584.00
625.2370, 36919.00
626.4030, 36864.00
627.5690, 37080.00
628.7340, 37517.00
629.9000, 37517.00
631.0650, 37858.00
632.2300, 38723.00
633.3950, 39001.00
634.5600, 39675.00
635.7240, 40236.00
636.8890, 41130.00
638.0530, 41666.00
639.2170, 42928.00
640.3810, 43819.00
641.5450, 45015.00
642.7080, 46543.00
643.8720, 47318.00
645.0350, 49487.00
646.1980, 50845.00
647.3610, 52267.00
648.5240, 53582.00
649.6870, 54369.00
650.8490, 55065.00
652.0120, 54869.00
653.1740, 55004.00
654.3360, 54389.00
655.4980, 53837.00
656.6600, 52521.00
657.8210, 51952.00
658.9830, 50746.00
660.1440, 49396.00
661.3050, 48094.00
662.4660, 47173.00
663.6270, 46250.00
664.7870, 45192.00
665.9480, 44314.00
667.1080, 43807.00
668.2680, 43241.00
669.4280, 43209.00
670.5880, 42945.00
671.7480, 42876.00
672.9070, 42665.00
674.0670, 42651.00
675.2260, 43001.00
676.3850, 43083.00
677.5440, 43436.00
678.7030, 43453.00
679.8610, 43656.00
681.0200, 43759.00
682.1780, 44139.00
683.3360, 44317.00
684.4940, 44645.00
685.6520, 44804.00
686.8090, 45295.00
687.9670, 45245.00
689.1240, 45357.00
690.2810, 46004.00
691.4380, 45814.00
692.5950, 45705.00
693.7520, 46403.00
694.9080, 46280.00
696.0650, 46342.00
697.2210, 45930.00
698.3770, 46222.00
699.5330, 46506.00
700.6880, 46496.00
701.8440, 46710.67
702.9990, 46698.00
704.1550, 46770.00
705.3100, 46945.00
706.4650, 46704.00
707.6190, 46870.00
708.7740, 46685.00
709.9290, 46850.00
711.0830, 46835.00
712.2370, 46995.00
713.3910, 46602.00
714.5450, 46268.00
715.6980, 46140.00
716.8520, 45798.00
718.0050, 45448.00
719.1580, 45289.00
720.3110, 44875.00
721.4640, 44569.00
722.6170, 43963.00
723.7700, 43682.00
724.9220, 43243.00
726.0740, 42856.00
727.2260, 42272.00
728.3780, 42031.00
729.5300, 41541.00
730.6810, 41120.00
731.8330, 40870.00
732.9840, 40561.00
734.1350, 40296.00
735.2860, 40162.00
736.4370, 39753.00
737.5880, 39734.00
738.7380, 39584.00
739.8880, 39463.00
741.0390, 38775.00
742.1890, 38734.00
743.3380, 38542.00
744.4880, 38655.00
745.6380, 38251.00
746.7870, 38331.00
747.9360, 38012.00
749.0850, 38018.00
750.2340, 37952.00
751.3830, 37844.00
752.5310, 37548.00
753.6800, 37714.00
754.8280, 37462.00
755.9760, 37568.00
757.1240, 37305.00
758.2720, 37456.00
759.4190, 37187.00
760.5670, 36955.00
761.7140, 36809.00
762.8610, 36695.00
764.0080, 36448.00
765.1550, 36258.00
766.3020, 36406.00
767.4480, 36034.00
768.5950, 36082.00
769.7410, 35953.00
770.8870, 35877.00
772.0330, 35675.00
773.1780, 35657.00
774.3240, 35482.00
775.4690, 35191.00
776.6140, 35375.00
777.7590, 34987.00
778.9040, 35103.00
780.0490, 35223.00
781.1940, 35062.00
782.3380, 35073.23
783.4820, 34982.00
784.6260, 34904.00
785.7700, 34806.00
786.9140, 34810.00
788.0580, 34966.00
789.2010, 34868.00
790.3450, 34794.34
791.4880, 34250.00
792.6310, 34528.00
793.7730, 34395.00
794.9160, 34318.00
796.0590, 34418.00
797.2010, 33916.00
798.3430, 34167.00
799.4850, 33896.00
800.6270, 33929.00
801.7690, 33897.00
802.9100, 33862.00
804.0520, 34554.00
805.1930, 33812.00
806.3340, 33923.00
807.4750, 33388.00
808.6160, 33889.00
809.7560, 33954.00
810.8970, 33967.00
812.0370, 33418.00
813.1770, 33106.00
814.3170, 32925.00
815.4570, 32874.00
816.5960, 32904.00
817.7360, 32798.00
818.8750, 33041.00
820.0140, 32866.00
821.1530, 32850.00
822.2920, 32947.00
823.4310, 32734.00
824.5690, 32903.00
825.7070, 32754.00
826.8460, 32688.00
827.9840, 32894.00
829.1220, 32841.00
830.2590, 32681.00
831.3970, 32873.00
832.5340, 32804.00
833.6710, 32721.00
834.8080, 33018.00
835.9450, 32821.00
837.0820, 32748.00
838.2190, 32839.00
839.3550, 32803.00
840.4910, 32630.00
841.6270, 32898.00
842.7630, 32672.00
843.8990, 33049.00
845.0350, 33001.00
846.1700, 32724.00
847.3060, 32778.00
848.4410, 33055.00
849.5760, 33040.00
850.7100, 33293.00
851.8450, 33298.00
852.9800, 33271.50
854.1140, 33167.00
855.2480, 33212.00
856.3820, 33275.00
857.5160, 33404.00
858.6500, 33414.00
859.7830, 33585.00
860.9170, 33699.00
862.0500, 33696.00
863.1830, 33875.00
864.3160, 33781.00
865.4480, 33822.00
866.5810, 34195.00
867.7130, 34175.00
868.8460, 34179.00
869.9780, 34321.00
871.1100, 34477.00
872.2410, 34524.00
873.3730, 34741.00
874.5050, 34895.00
875.6360, 35172.00
876.7670, 35153.00
877.8980, 35181.00
879.0290, 35267.00
880.1590, 35450.00
881.2900, 35511.00
882.4200, 35812.00
883.5500, 36074.00
884.6800, 36147.00
885.8100, 36141.00
886.9400, 36393.00
888.0690, 36565.00
889.1990, 36672.94
890.3280, 36923.00
891.4570, 36983.00
892.5860, 37115.00
893.7140, 37307.00
894.8430, 37251.00
895.9710, 37406.00
897.1000, 37791.00
898.2280, 37898.00
899.3560, 38245.00
900.4830, 38195.00
901.6110, 38408.00
902.7380, 38708.00
903.8660, 38759.00
904.9930, 38748.00
906.1200, 39391.00
907.2460, 39583.00
908.3730, 39592.00
909.5000, 39613.00
910.6260, 39618.00
911.7520, 39778.24
912.8780, 40116.00
914.0040, 40204.00
915.1290, 40060.00
916.2550, 40404.00
917.3800, 40397.00
918.5050, 40646.00
919.6300, 40762.00
920.7550, 40528.00
921.8800, 40771.00
923.0040, 40653.00
924.1290, 40511.00
925.2530, 40498.00
926.3770, 40488.00
927.5010, 40509.00
928.6250, 40318.00
929.7480, 40459.00
930.8720, 40429.00
931.9950, 40759.00
933.1180, 40332.00
934.2410, 40010.00
935.3640, 39886.00
936.4860, 39254.00
937.6090, 39070.00
938.7310, 39162.00
939.8530, 39232.00
940.9750, 39086.00
942.0970, 38811.00
943.2180, 38638.00
944.3400, 38495.73
945.4610, 38358.00
946.5820, 38205.00
947.7030, 38177.00
948.8240, 37977.50
949.9450, 37712.82
951.0650, 37602.00
952.1860, 37126.00
953.3060, 37128.00
954.4260, 36960.00
955.5460, 37150.00
956.6650, 36847.00
957.7850, 36965.00
958.9040, 36620.00
960.0230, 36466.00
961.1420, 36288.00
962.2610, 36392.00
963.3800, 36075.00
964.4990, 36024.00
965.6170, 35746.00
966.7350, 35728.00
967.8530, 35860.00
968.9710, 35610.00
970.0890, 35527.00
971.2070, 35501.98
972.3240, 35442.66
973.4410, 35442.00
974.5580, 35470.00
975.6750, 35585.00
976.7920, 35576.00
977.9090, 35539.00
979.0250, 35517.00
980.1410, 35448.00
981.2580, 35544.82
982.3740, 35578.00
983.4890, 35720.00
984.6050, 35729.00
985.7200, 35758.00
986.8360, 35947.00
987.9510, 35720.00
989.0660, 36039.00
990.1810, 35955.00
991.2950, 35911.00
992.4100, 36117.00
993.5240, 36139.00
994.6390, 36389.00
995.7530, 36619.00
996.8660, 36701.00
997.9800, 36878.00
999.0940, 37113.00
1000.207, 37221.00
1001.320, 37304.00
1002.433, 37609.00
1003.546, 37859.00
1004.659, 37839.00
1005.772, 38409.00
1006.884, 38337.00
1007.996, 38991.00
1009.108, 39188.00
1010.220, 39408.00
1011.332, 39852.00
1012.444, 40367.00
1013.555, 40379.00
1014.666, 40931.00
1015.777, 41321.00
1016.888, 42023.00
1017.999, 42181.00
1019.110, 42287.00
1020.220, 42562.00
1021.331, 43137.00
1022.441, 43580.00
1023.551, 43860.00
1024.661, 43937.00
1025.770, 44421.00
1026.880, 44468.00
1027.989, 44213.00
1029.098, 44324.00
1030.207, 44127.00
1031.316, 44110.00
1032.425, 44001.00
1033.533, 43775.75
1034.642, 43542.00
1035.750, 43294.00
1036.858, 42869.00
1037.966, 42546.00
1039.073, 42488.00
1040.181, 42031.00
1041.288, 41657.00
1042.396, 41331.00
1043.503, 40907.00
1044.610, 40446.00
1045.716, 39820.00
1046.823, 39740.00
1047.929, 39279.00
1049.036, 39105.00
1050.142, 38782.00
1051.248, 38713.00
1052.353, 38450.34
1053.459, 38312.00
1054.564, 38080.00
1055.670, 37892.00
1056.775, 37818.00
1057.880, 37866.00
1058.985, 37352.00
1060.089, 37167.00
1061.194, 37324.00
1062.298, 37101.06
1063.402, 37147.00
1064.506, 36984.00
1065.610, 37130.00
1066.713, 36796.00
1067.817, 36784.00
1068.920, 36807.00
1070.023, 36753.00
1071.126, 36926.00
1072.229, 36786.00
1073.332, 36767.00
1074.435, 36605.00
1075.537, 36643.00
1076.639, 36813.00
1077.741, 36614.00
1078.843, 36667.00
1079.945, 36810.00
1081.046, 36599.00
1082.148, 36834.00
1083.249, 36581.00
1084.350, 36872.00
1085.451, 36713.00
1086.551, 37217.00
1087.652, 36712.00
1088.752, 36551.00
1089.853, 36627.00
1090.953, 36393.00
1092.053, 36628.00
1093.152, 36485.00
1094.252, 36518.00
1095.351, 36539.00
1096.451, 36427.82
1097.550, 36308.00
1098.649, 36359.00
1099.748, 36009.00
1100.846, 36126.00
1101.945, 36326.00
1103.043, 36069.00
1104.141, 36014.00
1105.239, 35669.00
1106.337, 35986.00
1107.434, 35860.00
1108.532, 35891.00
1109.629, 35589.00
1110.726, 35441.00
1111.823, 35395.00
1112.920, 35506.00
1114.017, 35315.00
1115.113, 35490.00
1116.210, 35206.00
1117.306, 35440.00
1118.402, 35398.00
1119.498, 35351.00
1120.593, 35471.29
1121.689, 35446.81
1122.784, 35546.00
1123.879, 35474.00
1124.974, 35460.00
1126.069, 35362.00
1127.164, 35256.00
1128.259, 35191.77
1129.353, 35088.38
1130.447, 35014.00
1131.541, 34843.00
1132.635, 34756.00
1133.729, 34728.08
1134.822, 34605.57
1135.916, 34744.00
1137.009, 34783.00
1138.102, 34876.00
1139.195, 34918.00
1140.288, 34900.00
1141.380, 34567.00
1142.473, 34621.00
1143.565, 34735.00
1144.657, 34611.00
1145.749, 34816.00
1146.841, 34602.00
1147.932, 34589.00
1149.024, 34780.00
1150.115, 34577.00
1151.206, 34667.00
1152.297, 34696.00
1153.388, 34589.00
1154.479, 34535.00
1155.569, 34502.00
1156.659, 34602.00
1157.750, 34704.00
1158.839, 34412.00
1159.929, 34714.00
1161.019, 34501.00
1162.108, 34752.00
1163.198, 34459.00
1164.287, 34465.00
1165.376, 34576.00
1166.465, 34376.00
1167.553, 34819.00
1168.642, 34561.00
1169.730, 34566.98
1170.818, 34717.56
1171.906, 34382.00
1172.994, 34813.00
1174.082, 34773.00
1175.170, 34732.00
1176.257, 34718.00
1177.344, 34696.33
1178.431, 34804.00
1179.518, 34651.00
1180.605, 34746.00
1181.691, 34676.00
1182.778, 34778.00
1183.864, 34567.00
1184.950, 34763.00
1186.036, 34432.00
1187.122, 34810.00
1188.207, 34843.00
1189.292, 34696.00
1190.378, 34725.00
1191.463, 34728.00
1192.548, 34694.00
1193.632, 34558.00
1194.717, 34750.00
1195.801, 34760.00
1196.886, 34592.00
1197.970, 34718.00
1199.054, 34789.00
1200.137, 35098.00
1201.221, 34737.00
1202.305, 34788.00
1203.388, 34523.00
1204.471, 34491.00
1205.554, 34661.00
1206.637, 34634.00
1207.719, 34679.00
1208.802, 34677.00
1209.884, 34669.93
1210.966, 34712.00
1212.048, 34689.00
1213.130, 34617.00
1214.212, 34692.00
1215.293, 34660.00
1216.374, 34570.00
1217.456, 34800.00
1218.536, 34695.00
1219.617, 34875.00
1220.698, 34783.00
1221.778, 34750.00
1222.859, 34768.00
1223.939, 34800.00
1225.019, 34830.00
1226.099, 34842.00
1227.178, 34609.00
1228.258, 34698.00
1229.337, 34758.00
1230.417, 34930.00
1231.496, 34670.00
1232.574, 34794.00
1233.653, 34825.00
1234.732, 34646.00
1235.810, 34691.00
1236.888, 34677.00
1237.966, 34808.00
1239.044, 34863.00
1240.122, 34582.00
1241.199, 34640.00
1242.277, 34608.88
1243.354, 34631.33
1244.431, 34607.00
1245.508, 34784.00
1246.585, 34733.00
1247.661, 34704.00
1248.738, 34813.70
1249.814, 34769.00
1250.890, 34918.00
1251.966, 34837.00
1253.042, 34834.00
1254.117, 34859.00
1255.193, 34810.00
1256.268, 34528.00
1257.343, 34788.00
1258.418, 34583.00
1259.493, 35030.00
1260.567, 34491.00
1261.642, 34745.00
1262.716, 35032.00
1263.790, 34866.00
1264.864, 35064.00
1265.938, 34814.00
1267.011, 34782.00
1268.085, 34709.00
1269.158, 34890.00
1270.231, 34746.00
1271.304, 34941.00
1272.377, 34897.00
1273.450, 34881.00
1274.522, 34980.00
1275.594, 34933.00
1276.666, 34858.00
1277.738, 34716.00
1278.810, 34835.00
1279.882, 34737.00
1280.953, 34748.00
1282.025, 34986.00
1283.096, 34986.00
1284.167, 34878.00
1285.238, 35178.00
1286.308, 34806.00
1287.379, 35101.00
1288.449, 34956.00
1289.519, 34885.00
1290.589, 34993.00
1291.659, 35166.00
1292.729, 35152.00
1293.798, 35116.00
1294.868, 35298.00
1295.937, 35214.00
1297.006, 34974.00
1298.075, 34875.00
1299.143, 34969.00
1300.212, 35094.00
1301.280, 34953.00
1302.348, 35142.00
1303.416, 35225.00
1304.484, 35165.00
1305.552, 35271.00
1306.620, 35327.00
1307.687, 35112.00
1308.754, 35037.00
1309.821, 35251.00
1310.888, 35031.00
1311.955, 34977.00
