##NAMES=Astrophyllite
##RRUFFID=R060103
##IDEAL CHEMISTRY=K_2_NaFe^2+^_7_Ti^4+^_2_(Si_4_O_12_)_2_O_2_(OH)_4_F
##LOCALITY=Brivik, Norway
##OWNER=RRUFF
##SOURCE=University of Arizona Mineral Museum
##DESCRIPTION=Brown fragment embedded in matrix
##STATUS=The identification of this mineral is confirmed by single-crystal X-ray diffraction and chemical analysis.
##URL=rruff.info/R060103
##MEASURED CHEMISTRY=K_2.00_Na_1.00_(Fe^2+^_0.55_Mn_0.32_Fe^3+^_0.04_Mg_0.04_Ca_0.04_)_7_(Ti_0.66_Zr_0.18_Al_0.16_)_2_Si_8.00_O_26_(OH)_4_F_1.00_
##PIN_ID=M01528
##ORIENTATION=Laser parallel to (1 0 1). Fiducial mark perpendicular to laser is parallel to c [0 0 1]
150.1650, 24781.00
151.3980, 24803.00
152.6310, 24868.00
153.8640, 24987.00
155.0960, 25147.00
156.3280, 25173.00
157.5600, 25202.00
158.7920, 25393.66
160.0240, 25627.00
161.2560, 25747.00
162.4870, 26033.00
163.7180, 26252.00
164.9490, 26429.00
166.1800, 26265.00
167.4110, 26525.00
168.6410, 26308.00
169.8720, 26478.00
171.1020, 26532.00
172.3320, 26346.00
173.5620, 26338.00
174.7910, 26181.00
176.0210, 26008.00
177.2500, 25758.00
178.4790, 25356.00
179.7080, 25301.00
180.9370, 24807.00
182.1650, 25016.00
183.3940, 24640.00
184.6220, 24513.00
185.8500, 24527.00
187.0780, 24297.00
188.3050, 24153.00
189.5330, 24462.00
190.7600, 24290.00
191.9870, 24320.00
193.2140, 24430.00
194.4410, 23911.77
195.6680, 24049.10
196.8940, 24142.42
198.1200, 24194.12
199.3470, 24079.60
200.5720, 24179.71
201.7980, 24193.80
203.0240, 24204.38
204.2490, 24334.70
205.4740, 24244.30
206.6990, 24372.72
207.9240, 24413.79
209.1490, 24717.00
210.3740, 24714.00
211.5980, 25272.00
212.8220, 25198.00
214.0460, 25465.00
215.2700, 25768.00
216.4930, 25701.00
217.7170, 25966.00
218.9400, 25926.00
220.1630, 26318.00
221.3860, 26267.00
222.6090, 26523.00
223.8320, 26660.00
225.0540, 26726.00
226.2760, 26757.00
227.4980, 26871.00
228.7200, 26831.00
229.9420, 26964.00
231.1630, 26965.00
232.3850, 27111.00
233.6060, 27277.00
234.8270, 27316.00
236.0480, 27238.00
237.2690, 27217.00
238.4890, 27214.00
239.7090, 27319.00
240.9290, 27159.00
242.1490, 27247.00
243.3690, 26935.00
244.5890, 26967.00
245.8080, 26882.00
247.0270, 26792.00
248.2470, 26775.00
249.4650, 26662.00
250.6840, 26656.00
251.9030, 26812.00
253.1210, 26958.00
254.3390, 26537.00
255.5570, 26720.00
256.7750, 26862.00
257.9930, 26595.00
259.2100, 27063.00
260.4280, 27013.00
261.6450, 26673.00
262.8620, 26537.00
264.0790, 26591.00
265.2950, 26064.00
266.5120, 26302.00
267.7280, 26095.00
268.9440, 26115.00
270.1600, 26017.76
271.3760, 25787.00
272.5920, 25718.00
273.8070, 25373.00
275.0220, 25197.00
276.2370, 25215.00
277.4520, 25100.00
278.6670, 25112.00
279.8820, 25054.38
281.0960, 25009.00
282.3100, 24941.00
283.5240, 24944.00
284.7380, 24853.00
285.9520, 24810.00
287.1650, 24713.00
288.3780, 24658.00
289.5920, 24832.00
290.8050, 24715.00
292.0170, 24751.00
293.2300, 25075.00
294.4430, 24926.00
295.6550, 25019.00
296.8670, 25051.00
298.0790, 25478.00
299.2910, 25186.00
300.5020, 25082.00
301.7140, 25456.00
302.9250, 25395.00
304.1360, 25656.00
305.3470, 25454.00
306.5580, 25562.00
307.7680, 25630.00
308.9780, 25644.00
310.1890, 25437.00
311.3990, 25608.00
312.6090, 25575.00
313.8180, 25493.00
315.0280, 25682.00
316.2370, 25488.00
317.4460, 25318.00
318.6550, 25349.00
319.8640, 25256.00
321.0730, 25332.10
322.2810, 25383.53
323.4890, 25402.36
324.6980, 25390.91
325.9060, 25224.59
327.1130, 25284.33
328.3210, 25269.38
329.5280, 25262.25
330.7360, 25386.28
331.9430, 25300.90
333.1500, 25445.70
334.3560, 25514.43
335.5630, 25643.00
336.7690, 25753.00
337.9760, 25881.00
339.1820, 26042.23
340.3870, 26227.00
341.5930, 26379.00
342.7990, 26604.00
344.0040, 26799.00
345.2090, 26797.00
346.4140, 26948.00
347.6190, 26715.00
348.8240, 26986.00
350.0280, 27030.00
351.2330, 26808.00
352.4370, 26853.00
353.6410, 26566.00
354.8440, 26531.00
356.0480, 26207.00
357.2520, 26127.00
358.4550, 25961.00
359.6580, 25943.00
360.8610, 25654.00
362.0640, 25522.00
363.2660, 25605.00
364.4690, 25443.00
365.6710, 25467.00
366.8730, 25066.00
368.0750, 25052.00
369.2770, 25052.00
370.4780, 24905.00
371.6800, 25218.00
372.8810, 24990.00
374.0820, 24895.00
375.2830, 24868.00
376.4830, 25146.00
377.6840, 24948.00
378.8840, 25163.00
380.0840, 25098.00
381.2840, 25231.00
382.4840, 25233.00
383.6840, 25133.00
384.8830, 25241.00
386.0830, 25344.00
387.2820, 25433.00
388.4810, 25415.00
389.6800, 25428.97
390.8780, 25491.00
392.0770, 25301.00
393.2750, 25091.00
394.4730, 24909.00
395.6710, 24882.00
396.8690, 24708.27
398.0660, 24655.00
399.2640, 24479.00
400.4610, 24500.00
401.6580, 24359.00
402.8550, 24031.00
404.0520, 24105.00
405.2490, 24019.00
406.4450, 24033.00
407.6410, 23940.00
408.8370, 24004.00
410.0330, 23798.00
411.2290, 23892.00
412.4240, 23855.00
413.6200, 23907.00
414.8150, 23973.00
416.0100, 24176.00
417.2050, 24353.00
418.4000, 24292.00
419.5940, 24278.00
420.7880, 24605.00
421.9830, 24378.00
423.1770, 24439.00
424.3700, 24427.00
425.5640, 24691.00
426.7580, 24373.00
427.9510, 24415.00
429.1440, 24184.00
430.3370, 24197.00
431.5300, 24248.00
432.7220, 24014.00
433.9150, 24133.00
435.1070, 23822.00
436.2990, 23873.00
437.4910, 23904.00
438.6830, 23784.00
439.8750, 23648.00
441.0660, 23628.00
442.2570, 23664.00
443.4480, 23508.00
444.6390, 23370.00
445.8300, 23510.00
447.0210, 23436.00
448.2110, 23502.00
449.4010, 23662.00
450.5910, 23454.00
451.7810, 23777.00
452.9710, 23611.00
454.1610, 23722.00
455.3500, 23758.00
456.5390, 23680.71
457.7280, 23782.00
458.9170, 23667.00
460.1060, 23770.00
461.2940, 23902.00
462.4830, 24047.00
463.6710, 24195.00
464.8590, 23994.00
466.0470, 24101.00
467.2350, 24110.00
468.4220, 24309.00
469.6090, 24213.00
470.7970, 24362.00
471.9840, 24319.00
473.1700, 24370.00
474.3570, 24330.00
475.5440, 24412.00
476.7300, 24181.00
477.9160, 24253.00
479.1020, 24412.00
480.2880, 24248.00
481.4740, 24546.00
482.6590, 24360.00
483.8440, 24222.00
485.0300, 24365.00
486.2140, 24457.00
487.3990, 24329.00
488.5840, 24330.00
489.7680, 24321.00
490.9530, 24262.32
492.1370, 24530.00
493.3210, 24237.00
494.5040, 24430.00
495.6880, 24497.00
496.8720, 24280.00
498.0550, 24454.00
499.2380, 24483.00
500.4210, 24326.00
501.6040, 24519.00
502.7860, 24523.00
503.9690, 24450.00
505.1510, 24554.00
506.3330, 24364.00
507.5150, 24606.00
508.6970, 24534.00
509.8780, 24708.00
511.0600, 24583.00
512.2410, 24536.00
513.4220, 24842.00
514.6030, 24879.00
515.7840, 24814.00
516.9640, 24812.00
518.1440, 24924.00
519.3250, 25000.00
520.5050, 25024.00
521.6850, 25021.00
522.8640, 24963.00
524.0440, 24973.00
525.2230, 24958.00
526.4020, 25100.00
527.5820, 25128.00
528.7600, 25141.00
529.9390, 25033.00
531.1180, 24939.00
532.2960, 25100.00
533.4740, 25298.00
534.6520, 25225.00
535.8300, 25330.00
537.0080, 25273.00
538.1850, 25293.03
539.3630, 25367.88
540.5400, 25364.00
541.7170, 25452.00
542.8940, 25609.00
544.0700, 25556.00
545.2470, 25887.00
546.4230, 26120.00
547.5990, 26193.00
548.7750, 26360.00
549.9510, 26680.00
551.1270, 26906.00
552.3020, 27052.00
553.4780, 27451.00
554.6530, 27737.00
555.8280, 28011.00
557.0030, 27936.00
558.1770, 28368.00
559.3520, 28441.00
560.5260, 28339.00
561.7000, 28563.00
562.8740, 28374.00
564.0480, 28249.00
565.2220, 28073.00
566.3950, 27943.00
567.5680, 27812.00
568.7420, 27914.00
569.9150, 27846.00
571.0870, 27661.00
572.2600, 27634.13
573.4320, 27495.00
574.6050, 27313.00
575.7770, 27279.00
576.9490, 26959.00
578.1210, 27130.00
579.2920, 26965.00
580.4640, 27279.00
581.6350, 27288.00
582.8060, 27430.00
583.9770, 27604.00
585.1480, 27790.00
586.3190, 27781.00
587.4890, 27908.00
588.6590, 28138.00
589.8290, 28075.00
590.9990, 28160.38
592.1690, 28061.00
593.3390, 28186.00
594.5080, 28266.00
595.6770, 28371.00
596.8470, 28435.00
598.0160, 28595.00
599.1840, 28786.00
600.3530, 28673.00
601.5210, 28492.00
602.6900, 28495.00
603.8580, 28650.00
605.0260, 28666.00
606.1930, 28721.00
607.3610, 28763.00
608.5280, 28763.00
609.6960, 28793.00
610.8630, 29280.00
612.0300, 29020.00
613.1970, 29592.00
614.3630, 29566.00
615.5300, 30044.00
616.6960, 30794.00
617.8620, 31502.00
619.0280, 31903.00
620.1940, 32431.00
621.3590, 33142.00
622.5250, 33680.00
623.6900, 33962.00
624.8550, 34243.92
626.0200, 34331.00
627.1850, 34240.00
628.3490, 33843.00
629.5140, 33375.00
630.6780, 32820.00
631.8420, 32535.00
633.0060, 32305.00
634.1700, 32007.00
635.3330, 32316.00
636.4970, 32352.00
637.6600, 33012.00
638.8230, 33140.00
639.9860, 33590.00
641.1490, 33987.00
642.3110, 34796.00
643.4740, 35461.00
644.6360, 36201.00
645.7980, 37128.00
646.9600, 37585.00
648.1220, 38325.00
649.2840, 38523.00
650.4450, 39188.00
651.6060, 39219.00
652.7670, 39418.00
653.9280, 39581.00
655.0890, 39301.00
656.2500, 38682.00
657.4100, 38056.00
658.5700, 37555.00
659.7300, 36711.00
660.8900, 36046.00
662.0500, 35171.00
663.2100, 34400.00
664.3690, 33844.00
665.5280, 33507.00
666.6880, 33315.00
667.8460, 32918.00
669.0050, 32874.00
670.1640, 32790.00
671.3220, 33095.00
672.4810, 32920.00
673.6390, 33170.00
674.7970, 33270.00
675.9540, 33245.00
677.1120, 33681.00
678.2690, 33802.00
679.4270, 34163.00
680.5840, 34496.00
681.7410, 34501.00
682.8980, 34842.00
684.0540, 35109.00
685.2110, 35182.00
686.3670, 35340.00
687.5230, 35730.00
688.6790, 35947.00
689.8350, 36144.00
690.9900, 36447.00
692.1460, 36459.00
693.3010, 36950.00
694.4560, 36738.00
695.6110, 36979.00
696.7660, 37547.00
697.9210, 37473.00
699.0750, 37853.00
700.2290, 37917.00
701.3840, 37785.00
702.5370, 38084.00
703.6910, 38291.00
704.8450, 38326.00
705.9980, 38275.00
707.1520, 38484.00
708.3050, 38438.00
709.4580, 38637.00
710.6110, 38675.00
711.7630, 38625.00
712.9160, 38566.00
714.0680, 38622.00
715.2200, 38780.00
716.3720, 38424.00
717.5240, 38386.00
718.6760, 38018.00
719.8270, 38001.00
720.9780, 37987.00
722.1300, 38096.00
723.2810, 37481.00
724.4310, 37479.00
725.5820, 37205.00
726.7330, 36660.00
727.8830, 36604.00
729.0330, 36330.00
730.1830, 36325.00
731.3330, 36119.00
732.4830, 35561.00
733.6320, 35532.00
734.7810, 35195.00
735.9310, 34973.00
737.0800, 34769.00
738.2290, 34354.00
739.3770, 34475.00
740.5260, 34117.00
741.6740, 34081.00
742.8220, 34063.00
743.9700, 34095.00
745.1180, 33811.00
746.2660, 33669.00
747.4130, 33642.00
748.5610, 33438.00
749.7080, 33583.00
750.8550, 33659.00
752.0020, 33740.00
753.1490, 33472.00
754.2950, 33387.00
755.4420, 33479.00
756.5880, 33367.00
757.7340, 33510.00
758.8800, 33236.00
760.0250, 33605.00
761.1710, 33519.00
762.3160, 33269.00
763.4620, 33479.00
764.6070, 33367.00
765.7520, 33459.00
766.8960, 33381.00
768.0410, 33609.00
769.1850, 33051.00
770.3300, 33366.00
771.4740, 33178.00
772.6180, 32961.00
773.7610, 33132.00
774.9050, 33096.00
776.0480, 33231.00
777.1920, 32966.00
778.3350, 33126.00
779.4780, 33056.00
780.6200, 33089.00
781.7630, 33281.00
782.9060, 33002.00
784.0480, 33211.00
785.1900, 33142.00
786.3320, 33005.00
787.4740, 33018.00
788.6150, 32995.00
789.7570, 33010.00
790.8980, 33016.24
792.0390, 33067.00
793.1800, 33073.00
794.3210, 33115.00
795.4620, 33118.47
796.6020, 33218.00
797.7420, 33117.00
798.8830, 33185.00
800.0230, 33180.00
801.1620, 33114.24
802.3020, 33065.96
803.4420, 32982.00
804.5810, 32938.00
805.7200, 32818.00
806.8590, 32909.00
807.9980, 32857.00
809.1370, 32735.00
810.2750, 32622.00
811.4140, 32676.00
812.5520, 32673.00
813.6900, 32843.00
814.8280, 32618.00
815.9650, 32875.00
817.1030, 32758.00
818.2400, 32654.00
819.3780, 32890.00
820.5150, 32635.00
821.6520, 32789.00
822.7880, 32769.00
823.9250, 32598.00
825.0610, 32877.00
826.1980, 32756.00
827.3340, 33130.00
828.4700, 33030.00
829.6050, 33180.00
830.7410, 33422.00
831.8760, 33243.00
833.0120, 33393.00
834.1470, 33487.00
835.2820, 33581.00
836.4160, 33820.00
837.5510, 33645.00
838.6860, 33743.00
839.8200, 34160.00
840.9540, 34035.00
842.0880, 34194.00
843.2220, 34170.00
844.3550, 34351.66
845.4890, 34629.00
846.6220, 34821.00
847.7550, 34962.00
848.8880, 35290.00
850.0210, 35352.00
851.1540, 35740.00
852.2860, 35935.00
853.4190, 36415.00
854.5510, 37030.00
855.6830, 37128.00
856.8150, 37759.00
857.9460, 37950.00
859.0780, 37989.00
860.2090, 38282.00
861.3410, 37929.00
862.4720, 37805.00
863.6020, 37540.00
864.7330, 37151.00
865.8640, 36827.00
866.9940, 36644.00
868.1240, 36359.00
869.2540, 36092.00
870.3840, 36065.00
871.5140, 35585.00
872.6440, 35755.00
873.7730, 35446.00
874.9020, 35776.00
876.0320, 35483.00
877.1600, 35606.00
878.2890, 35571.00
879.4180, 35540.00
880.5460, 35444.00
881.6750, 35776.00
882.8030, 35776.00
883.9310, 35687.00
885.0590, 35838.00
886.1860, 35807.00
887.3140, 35802.00
888.4410, 36090.00
889.5680, 36464.00
890.6950, 36405.00
891.8220, 36911.00
892.9490, 37055.00
894.0750, 37158.00
895.2020, 37208.00
896.3280, 37338.00
897.4540, 37588.00
898.5800, 37517.00
899.7050, 37803.00
900.8310, 37711.00
901.9560, 37879.00
903.0820, 38269.00
904.2070, 38353.00
905.3320, 38617.00
906.4560, 38768.00
907.5810, 38988.00
908.7050, 39345.00
909.8300, 39347.00
910.9540, 39583.00
912.0780, 39400.00
913.2010, 39582.00
914.3250, 39740.00
915.4480, 39674.00
916.5720, 39579.00
917.6950, 39661.00
918.8180, 39528.00
919.9410, 39439.00
921.0630, 39445.00
922.1860, 39495.00
923.3080, 39602.00
924.4300, 39674.00
925.5520, 39589.00
926.6740, 39563.00
927.7960, 39686.00
928.9170, 39565.00
930.0390, 39545.00
931.1600, 39459.00
932.2810, 39468.00
933.4020, 39314.00
934.5230, 39215.00
935.6430, 39063.00
936.7640, 38861.43
937.8840, 38705.82
939.0040, 38415.00
940.1240, 38340.00
941.2440, 38097.00
942.3630, 37949.00
943.4830, 37781.55
944.6020, 37734.00
945.7210, 37416.00
946.8400, 37346.00
947.9590, 37155.00
949.0770, 36963.00
950.1960, 37259.00
951.3140, 37092.00
952.4320, 37099.00
953.5500, 37039.00
954.6680, 36994.00
955.7860, 36509.00
956.9030, 36629.00
958.0210, 36235.00
959.1380, 36283.00
960.2550, 36086.00
961.3720, 35949.00
962.4890, 35825.00
963.6050, 35689.00
964.7220, 35658.00
965.8380, 35404.00
966.9540, 35361.00
968.0700, 35409.00
969.1860, 35125.00
970.3010, 34943.00
971.4170, 34868.00
972.5320, 34784.00
973.6470, 34678.00
974.7620, 34700.00
975.8770, 34554.00
976.9910, 34617.00
978.1060, 34668.00
979.2200, 34810.00
980.3340, 34804.00
981.4480, 34745.00
982.5620, 34866.00
983.6760, 34979.27
984.7890, 35084.00
985.9030, 35329.00
987.0160, 35376.00
988.1290, 35500.00
989.2420, 35698.00
990.3550, 35678.00
991.4670, 35718.00
992.5800, 35981.00
993.6920, 36283.00
994.8040, 36786.00
995.9160, 37119.00
997.0280, 37828.00
998.1390, 38515.00
999.2510, 39407.00
1000.362, 40188.00
1001.473, 40410.00
1002.584, 40651.00
1003.695, 40097.00
1004.805, 39608.00
1005.916, 38944.00
1007.026, 38651.66
1008.136, 38267.00
1009.246, 38247.00
1010.356, 38327.00
1011.466, 38621.00
1012.576, 38931.39
1013.685, 39216.00
1014.794, 39892.00
1015.903, 40485.00
1017.012, 41098.00
1018.121, 41384.00
1019.229, 42005.00
1020.338, 42340.00
1021.446, 42958.00
1022.554, 42861.00
1023.662, 43435.00
1024.770, 43648.00
1025.878, 44208.00
1026.985, 43910.00
1028.092, 44027.00
1029.200, 44156.00
1030.307, 44142.00
1031.413, 43888.00
1032.520, 44106.00
1033.627, 43363.00
1034.733, 43368.00
1035.839, 43147.00
1036.945, 42765.00
1038.051, 42644.00
1039.157, 42210.00
1040.262, 42272.00
1041.368, 41860.00
1042.473, 41402.00
1043.578, 40899.00
1044.683, 40653.00
1045.788, 40021.00
1046.893, 40021.00
1047.997, 39920.00
1049.101, 39416.00
1050.205, 39107.00
1051.309, 39029.00
1052.413, 38506.00
1053.517, 38351.00
1054.621, 38256.00
1055.724, 37971.00
1056.827, 37840.37
1057.930, 37402.00
1059.033, 37507.00
1060.136, 37196.00
1061.238, 37099.00
1062.341, 37026.00
1063.443, 36987.45
1064.545, 37018.46
1065.647, 37096.00
1066.749, 37091.00
1067.850, 37163.00
1068.952, 37077.00
1070.053, 37326.00
1071.154, 37329.00
1072.255, 37510.00
1073.356, 37711.80
1074.457, 37663.00
1075.557, 38107.00
1076.658, 38331.00
1077.758, 38473.00
1078.858, 38534.00
1079.958, 38787.00
1081.057, 38712.00
1082.157, 38966.00
1083.256, 39030.00
1084.356, 38738.00
1085.455, 38868.00
1086.554, 38691.00
1087.653, 38691.00
1088.751, 38363.00
1089.850, 38237.00
1090.948, 38132.00
1092.046, 38230.00
1093.144, 37843.00
1094.242, 38006.00
1095.340, 37833.00
1096.437, 37835.00
1097.534, 37915.00
1098.632, 37670.00
1099.729, 38118.00
1100.826, 37833.00
1101.922, 37661.00
1103.019, 37819.00
1104.115, 37944.00
1105.212, 37994.00
1106.308, 38218.00
1107.404, 38171.00
1108.499, 38170.61
1109.595, 38028.00
1110.691, 38036.00
1111.786, 37837.00
1112.881, 37775.00
1113.976, 37560.00
1115.071, 37608.00
1116.166, 37596.55
1117.260, 37681.00
1118.355, 37686.00
1119.449, 37812.00
1120.543, 37794.00
1121.637, 37560.00
1122.731, 37817.00
1123.824, 37536.00
1124.918, 37508.00
1126.011, 37641.00
1127.104, 37982.00
1128.197, 37723.00
1129.290, 37594.00
1130.382, 37697.00
1131.475, 37586.00
1132.567, 37549.30
1133.659, 37756.00
1134.751, 37415.00
1135.843, 37453.00
1136.935, 37347.00
1138.027, 37054.00
1139.118, 37241.00
1140.209, 37296.00
1141.300, 37439.00
1142.391, 37530.00
1143.482, 37196.00
1144.573, 37344.00
1145.663, 37513.00
1146.754, 37334.00
1147.844, 37626.00
1148.934, 37219.00
1150.024, 37776.00
1151.113, 37523.00
1152.203, 37940.00
1153.292, 37667.00
1154.381, 37743.00
1155.470, 38180.00
1156.559, 37543.00
1157.648, 37818.00
1158.737, 37884.00
1159.825, 37951.00
1160.913, 38003.00
1162.001, 38057.00
1163.089, 38348.00
1164.177, 38479.00
1165.265, 38604.00
1166.352, 38209.00
1167.440, 38500.00
1168.527, 38494.00
1169.614, 38735.00
1170.701, 38587.00
1171.788, 38647.02
1172.874, 38637.00
1173.961, 38569.00
1175.047, 38606.00
1176.133, 38510.00
1177.219, 38845.00
1178.305, 38791.00
1179.390, 38617.00
1180.476, 38784.00
1181.561, 38508.00
1182.646, 38706.00
1183.731, 38927.00
1184.816, 38726.00
1185.901, 38669.00
1186.985, 38981.00
1188.070, 38769.00
1189.154, 38730.00
1190.238, 38720.00
1191.322, 38758.00
1192.406, 38707.46
1193.489, 38731.66
1194.573, 38681.00
1195.656, 38700.00
1196.739, 38755.00
1197.822, 38651.00
1198.905, 38586.00
1199.988, 38818.00
1201.070, 38676.00
1202.153, 38712.00
1203.235, 38737.00
1204.317, 38531.00
1205.399, 39147.00
1206.481, 38861.00
1207.562, 39020.00
1208.644, 39342.00
1209.725, 39165.00
1210.806, 39446.00
1211.887, 39456.00
1212.968, 39537.00
1214.049, 39642.00
1215.129, 39812.00
1216.209, 39517.00
1217.290, 39584.00
1218.370, 39684.00
1219.450, 39520.00
1220.529, 39571.00
1221.609, 39455.00
1222.688, 39289.00
1223.768, 39460.00
1224.847, 39486.00
1225.926, 39513.00
1227.005, 39945.00
1228.083, 39709.00
1229.162, 40066.00
1230.240, 40156.00
1231.318, 40282.00
1232.396, 40238.00
1233.474, 40267.00
1234.552, 40389.81
1235.629, 40490.00
1236.707, 40653.00
1237.784, 40652.00
1238.861, 40848.00
1239.938, 40682.00
1241.015, 40725.00
1242.092, 40898.00
1243.168, 40916.00
1244.244, 40877.00
1245.321, 40978.00
1246.397, 40955.64
1247.473, 41274.00
1248.548, 40989.00
1249.624, 40987.00
1250.699, 41020.00
1251.775, 40794.00
1252.850, 41037.00
1253.925, 41361.00
1254.999, 41183.00
1256.074, 41523.00
1257.148, 41661.00
1258.223, 41582.00
1259.297, 41791.00
1260.371, 42288.00
1261.445, 41951.00
1262.519, 42165.00
1263.592, 42684.00
1264.666, 42435.00
1265.739, 42939.00
1266.812, 43083.00
1267.885, 43086.00
1268.958, 42978.00
1270.030, 43198.00
1271.103, 42965.00
1272.175, 43173.00
1273.247, 43443.00
1274.319, 43488.00
1275.391, 43379.00
1276.463, 43382.00
1277.535, 42998.00
1278.606, 42855.00
1279.677, 42556.00
1280.748, 42724.00
1281.819, 42744.00
1282.890, 42543.00
1283.961, 42706.00
1285.031, 42652.00
1286.102, 42757.00
1287.172, 42852.22
1288.242, 42872.00
1289.312, 43090.00
1290.381, 43154.00
1291.451, 43348.00
1292.520, 43528.00
1293.590, 43486.00
1294.659, 43581.00
1295.728, 43554.00
1296.797, 43314.00
1297.865, 43399.00
1298.934, 43660.00
1300.002, 43467.00
1301.070, 43775.00
1302.138, 43535.00
1303.206, 43654.00
1304.274, 44094.00
1305.341, 44041.00
1306.409, 44278.00
1307.476, 44546.00
1308.543, 44405.00
1309.610, 44735.00
1310.677, 44487.00
1311.744, 44720.00
1312.810, 44850.00
1313.877, 44698.00
1314.943, 44938.00
1316.009, 44817.00
1317.075, 44673.00
