##NAMES=Astrophyllite
##RRUFFID=R060202
##IDEAL CHEMISTRY=K_2_NaFe^2+^_7_Ti^4+^_2_(Si_4_O_12_)_2_O_2_(OH)_4_F
##LOCALITY=Demix Quarry, Mont Saint-Hilaire, Rouville County, Quebec, Canada
##OWNER=RRUFF
##SOURCE=Royal Ontario Museum
##DESCRIPTION=Aggregate of brown splintered wafers
##STATUS=The identification of this mineral has been confirmed by X-ray diffraction and chemical analysis
##URL=rruff.info/R060202
##MEASURED CHEMISTRY=(K_0.56_Na_0.38_Ca_0.06_)_3_(Fe^2+^_0.52_Mn_0.44_Mg_0.04_)_7_(Ti_0.75_Zr_0.15_Al_0.15_)_2_Si_8_O_24_(O_0.27_OH_0.73_)_7_
##PIN_ID=M00170
##ORIENTATION=Laser parallel to (-1 0 -1). Fiducial mark perpendicular to laser is parallel to -b [0 -1 0]
124.2880, 29195.00
125.5190, 29309.00
126.7490, 29419.00
127.9790, 29604.91
129.2090, 29792.00
130.4390, 29987.00
131.6680, 30137.00
132.8980, 30353.00
134.1270, 30178.00
135.3560, 30230.00
136.5850, 30394.00
137.8140, 30647.00
139.0430, 30682.00
140.2710, 30298.00
141.5000, 30251.00
142.7280, 29702.00
143.9560, 29679.00
145.1840, 29533.00
146.4120, 29901.00
147.6390, 30103.00
148.8670, 30046.00
150.0940, 30075.00
151.3210, 30324.00
152.5490, 30491.90
153.7750, 30750.07
155.0020, 31093.00
156.2290, 31355.00
157.4550, 31674.00
158.6810, 31977.00
159.9080, 32557.00
161.1340, 32502.00
162.3590, 33291.00
163.5850, 33289.00
164.8110, 33522.00
166.0360, 33813.00
167.2610, 33611.00
168.4860, 33943.00
169.7110, 33924.00
170.9360, 33902.00
172.1610, 33362.00
173.3850, 33434.00
174.6100, 32916.00
175.8340, 32916.00
177.0580, 32362.00
178.2820, 32112.00
179.5050, 31896.00
180.7290, 31614.00
181.9520, 31470.00
183.1760, 31211.00
184.3990, 31218.00
185.6220, 31117.00
186.8450, 31106.00
188.0670, 31190.00
189.2900, 31085.00
190.5120, 31147.00
191.7340, 31234.00
192.9560, 30971.00
194.1780, 31311.00
195.4000, 31211.00
196.6220, 31391.00
197.8430, 31679.00
199.0640, 31634.00
200.2860, 31644.00
201.5070, 31910.00
202.7270, 32131.00
203.9480, 32154.00
205.1690, 32232.00
206.3890, 31937.00
207.6090, 32287.00
208.8290, 32043.00
210.0490, 32096.00
211.2690, 32301.00
212.4890, 32539.00
213.7080, 32748.00
214.9280, 32870.05
216.1470, 32941.00
217.3660, 33081.00
218.5850, 33199.00
219.8030, 33296.00
221.0220, 33412.00
222.2400, 33735.00
223.4590, 33684.00
224.6770, 33939.00
225.8950, 33907.00
227.1120, 34407.00
228.3300, 34294.00
229.5480, 34634.00
230.7650, 34929.00
231.9820, 34785.00
233.1990, 35013.00
234.4160, 35128.00
235.6330, 35183.00
236.8490, 35406.00
238.0660, 35513.00
239.2820, 35447.00
240.4980, 35670.00
241.7140, 35631.00
242.9300, 35297.00
244.1460, 35577.00
245.3610, 35471.00
246.5770, 35348.00
247.7920, 35595.00
249.0070, 35379.00
250.2220, 35536.00
251.4370, 35574.00
252.6510, 35594.00
253.8660, 35795.00
255.0800, 35658.00
256.2940, 35633.00
257.5080, 35926.00
258.7220, 35893.00
259.9360, 36093.00
261.1490, 36030.00
262.3630, 35424.00
263.5760, 35040.00
264.7890, 35129.00
266.0020, 34739.00
267.2150, 34334.00
268.4270, 34531.00
269.6400, 34259.00
270.8520, 34101.00
272.0640, 33633.00
273.2760, 33632.36
274.4880, 33623.00
275.7000, 33575.00
276.9120, 33548.00
278.1230, 33645.00
279.3340, 33425.00
280.5450, 33251.00
281.7560, 33372.00
282.9670, 33270.00
284.1780, 33229.00
285.3880, 33206.00
286.5980, 33247.00
287.8090, 33247.00
289.0190, 33262.00
290.2290, 33437.00
291.4380, 33418.00
292.6480, 33500.00
293.8570, 33373.00
295.0670, 33427.00
296.2760, 33436.00
297.4850, 33301.00
298.6930, 33341.00
299.9020, 33226.00
301.1110, 33421.00
302.3190, 33145.00
303.5270, 33286.00
304.7350, 33458.00
305.9430, 33614.00
307.1510, 33467.00
308.3580, 33620.00
309.5660, 33546.00
310.7730, 33624.00
311.9800, 33675.00
313.1870, 33710.00
314.3940, 33745.79
315.6010, 33912.00
316.8070, 33797.00
318.0130, 33910.00
319.2200, 33972.00
320.4260, 33833.00
321.6310, 34183.00
322.8370, 34148.00
324.0430, 34082.00
325.2480, 34133.00
326.4540, 34119.03
327.6590, 34074.00
328.8640, 34207.00
330.0680, 34248.00
331.2730, 34372.07
332.4780, 34386.00
333.6820, 34522.00
334.8860, 34640.00
336.0900, 34566.00
337.2940, 35010.00
338.4980, 34853.00
339.7010, 34904.00
340.9050, 34972.00
342.1080, 34908.00
343.3110, 35108.00
344.5140, 34901.00
345.7170, 34839.00
346.9200, 35230.00
348.1220, 35042.00
349.3240, 35022.00
350.5270, 35177.00
351.7290, 34841.00
352.9310, 34820.00
354.1320, 34585.00
355.3340, 34688.00
356.5350, 34896.00
357.7370, 34652.00
358.9380, 34762.00
360.1390, 34614.00
361.3400, 34780.00
362.5400, 34654.00
363.7410, 34930.00
364.9410, 34633.00
366.1410, 34703.00
367.3410, 35061.00
368.5410, 34765.00
369.7410, 34631.00
370.9400, 34540.00
372.1400, 34658.00
373.3390, 34880.00
374.5380, 34866.00
375.7370, 34755.00
376.9360, 34848.00
378.1350, 34669.00
379.3330, 34793.00
380.5310, 34539.00
381.7300, 34366.00
382.9280, 34938.00
384.1260, 34381.00
385.3230, 34738.00
386.5210, 34754.00
387.7180, 34847.00
388.9160, 34743.00
390.1130, 34538.00
391.3100, 34648.00
392.5060, 34737.00
393.7030, 34840.00
394.9000, 34880.00
396.0960, 34827.00
397.2920, 34774.00
398.4880, 34749.08
399.6840, 34736.83
400.8800, 34687.00
402.0750, 34691.00
403.2710, 34756.00
404.4660, 34626.00
405.6610, 34843.00
406.8560, 34558.00
408.0510, 34600.00
409.2450, 34753.00
410.4400, 34819.00
411.6340, 34860.52
412.8280, 35054.00
414.0220, 34935.00
415.2160, 34895.00
416.4100, 34947.59
417.6030, 35051.00
418.7970, 35157.00
419.9900, 35343.00
421.1830, 35397.00
422.3760, 35505.00
423.5690, 35261.00
424.7610, 35302.00
425.9540, 35401.00
427.1460, 35048.00
428.3380, 35283.00
429.5300, 35069.00
430.7220, 35196.00
431.9140, 34750.00
433.1050, 34919.00
434.2970, 34957.00
435.4880, 34642.00
436.6790, 34512.00
437.8700, 34765.00
439.0610, 34575.00
440.2510, 34562.00
441.4420, 34570.00
442.6320, 34618.00
443.8220, 34658.00
445.0120, 34700.00
446.2020, 34471.00
447.3910, 34539.00
448.5810, 34534.00
449.7700, 34439.00
450.9600, 34527.00
452.1490, 34699.00
453.3370, 34767.00
454.5260, 34832.00
455.7150, 34781.00
456.9030, 34987.00
458.0910, 35101.00
459.2800, 34955.00
460.4670, 34979.00
461.6550, 34915.00
462.8430, 35314.00
464.0300, 35202.00
465.2180, 35519.00
466.4050, 35097.00
467.5920, 35364.00
468.7790, 35298.00
469.9650, 35548.00
471.1520, 35615.00
472.3380, 35588.00
473.5250, 35563.00
474.7110, 35340.00
475.8970, 35438.00
477.0820, 35578.00
478.2680, 35338.00
479.4540, 35328.00
480.6390, 35576.00
481.8240, 35569.00
483.0090, 35539.00
484.1940, 35392.00
485.3780, 35476.00
486.5630, 35479.00
487.7470, 35528.00
488.9320, 35548.00
490.1160, 35506.00
491.3000, 35572.66
492.4830, 35483.00
493.6670, 35612.00
494.8500, 35632.00
496.0340, 35563.00
497.2170, 35489.00
498.4000, 35494.00
499.5820, 35456.00
500.7650, 35358.00
501.9480, 35515.00
503.1300, 35682.00
504.3120, 35564.00
505.4940, 35719.00
506.6760, 35653.00
507.8580, 35670.00
509.0390, 35639.00
510.2210, 35671.00
511.4020, 35517.00
512.5830, 35771.00
513.7640, 35810.00
514.9450, 35636.00
516.1250, 35873.00
517.3060, 36068.00
518.4860, 35943.00
519.6660, 35990.00
520.8460, 36204.00
522.0260, 36085.00
523.2060, 35934.00
524.3850, 36080.00
525.5650, 36341.00
526.7440, 36275.00
527.9230, 36203.00
529.1020, 36450.00
530.2810, 36302.00
531.4590, 36657.00
532.6380, 36649.00
533.8160, 36671.00
534.9940, 36828.00
536.1720, 36763.00
537.3500, 36703.00
538.5270, 37177.00
539.7050, 37176.00
540.8820, 37425.00
542.0590, 37716.00
543.2360, 37919.00
544.4130, 37724.00
545.5900, 38176.00
546.7660, 38371.00
547.9430, 38532.00
549.1190, 38926.00
550.2950, 39099.00
551.4710, 39451.00
552.6470, 39432.00
553.8220, 39561.00
554.9980, 39635.00
556.1730, 39898.00
557.3480, 39665.00
558.5230, 40046.00
559.6980, 39724.00
560.8730, 39931.00
562.0470, 39714.00
563.2220, 39488.00
564.3960, 39425.00
565.5700, 39171.00
566.7440, 39407.00
567.9170, 39328.00
569.0910, 39102.00
570.2640, 39342.00
571.4380, 39224.00
572.6110, 39022.00
573.7840, 39073.00
574.9570, 39040.00
576.1290, 38809.00
577.3020, 38877.00
578.4740, 39080.00
579.6460, 38820.00
580.8180, 39025.00
581.9900, 39085.00
583.1620, 39271.00
584.3330, 39432.50
585.5040, 39628.00
586.6760, 39740.00
587.8470, 39738.00
589.0180, 39796.00
590.1880, 39933.00
591.3590, 39727.00
592.5290, 39965.00
593.7000, 39814.00
594.8700, 39932.00
596.0400, 40282.00
597.2090, 40014.00
598.3790, 40493.00
599.5490, 40509.00
600.7180, 40406.00
601.8870, 40423.00
603.0560, 40692.00
604.2250, 40620.98
605.3940, 40750.00
606.5620, 40816.00
607.7300, 40936.00
608.8990, 41238.00
610.0670, 41182.00
611.2350, 41240.00
612.4020, 41611.00
613.5700, 41786.00
614.7370, 41680.00
615.9050, 41979.00
617.0720, 42120.00
618.2390, 41910.00
619.4060, 42151.00
620.5720, 42266.00
621.7390, 42166.00
622.9050, 42670.00
624.0710, 42743.00
625.2370, 43083.00
626.4030, 42978.00
627.5690, 43112.00
628.7340, 43185.00
629.9000, 43316.15
631.0650, 43548.00
632.2300, 43636.00
633.3950, 43965.00
634.5600, 44017.00
635.7240, 44467.00
636.8890, 44654.00
638.0530, 45087.00
639.2170, 45671.00
640.3810, 45829.00
641.5450, 46162.00
642.7080, 46974.00
643.8720, 47356.00
645.0350, 47810.00
646.1980, 48550.00
647.3610, 49420.00
648.5240, 49907.00
649.6870, 50624.00
650.8490, 50884.00
652.0120, 51342.00
653.1740, 51773.00
654.3360, 51802.00
655.4980, 51293.00
656.6600, 50858.00
657.8210, 50497.00
658.9830, 50329.00
660.1440, 49837.00
661.3050, 49204.00
662.4660, 49032.00
663.6270, 48988.00
664.7870, 49688.00
665.9480, 50182.00
667.1080, 49070.00
668.2680, 48700.00
669.4280, 48747.00
670.5880, 48789.00
671.7480, 48991.00
672.9070, 49137.00
674.0670, 49337.00
675.2260, 49667.00
676.3850, 50211.00
677.5440, 50322.00
678.7030, 50829.00
679.8610, 50923.00
681.0200, 50968.00
682.1780, 51518.00
683.3360, 51473.00
684.4940, 51996.00
685.6520, 52359.00
686.8090, 52567.00
687.9670, 52629.00
689.1240, 52726.00
690.2810, 52924.00
691.4380, 53140.00
692.5950, 53261.00
693.7520, 53677.00
694.9080, 53746.00
696.0650, 53741.00
697.2210, 53648.00
698.3770, 53660.00
699.5330, 53489.00
700.6880, 53611.00
701.8440, 53571.41
702.9990, 53399.00
704.1550, 53562.00
705.3100, 53785.00
706.4650, 53672.00
707.6190, 53784.00
708.7740, 53487.00
709.9290, 53630.00
711.0830, 53304.00
712.2370, 53333.00
713.3910, 53117.00
714.5450, 53105.00
715.6980, 52824.16
716.8520, 52451.00
718.0050, 52257.00
719.1580, 52220.00
720.3110, 52008.00
721.4640, 51578.00
722.6170, 51449.00
723.7700, 50904.00
724.9220, 50869.00
726.0740, 50474.00
727.2260, 50310.00
728.3780, 49833.00
729.5300, 49630.00
730.6810, 49348.00
731.8330, 49074.94
732.9840, 49138.00
734.1350, 48676.00
735.2860, 48650.00
736.4370, 48554.00
737.5880, 48290.00
738.7380, 48202.00
739.8880, 47713.00
741.0390, 47938.00
742.1890, 47885.00
743.3380, 48065.00
744.4880, 47812.00
745.6380, 47687.00
746.7870, 47548.00
747.9360, 47721.00
749.0850, 47517.00
750.2340, 47478.00
751.3830, 47449.00
752.5310, 47280.00
753.6800, 47224.00
754.8280, 47064.00
755.9760, 47061.00
757.1240, 47193.00
758.2720, 47223.00
759.4190, 47268.49
760.5670, 47272.98
761.7140, 47271.00
762.8610, 47259.00
764.0080, 47266.54
765.1550, 47216.83
766.3020, 47249.00
767.4480, 47106.00
768.5950, 47035.00
769.7410, 46957.00
770.8870, 47012.00
772.0330, 47171.00
773.1780, 47197.00
774.3240, 47211.00
775.4690, 47399.00
776.6140, 47263.00
777.7590, 47174.00
778.9040, 47201.00
780.0490, 47167.11
781.1940, 47341.00
782.3380, 47253.00
783.4820, 47461.00
784.6260, 47567.00
785.7700, 47366.00
786.9140, 47733.00
788.0580, 47138.00
789.2010, 47377.00
790.3450, 47396.00
791.4880, 47014.00
792.6310, 47024.00
793.7730, 46911.00
794.9160, 46894.00
796.0590, 47028.00
797.2010, 46672.00
798.3430, 46403.00
799.4850, 46652.00
800.6270, 46365.00
801.7690, 46247.00
802.9100, 46021.00
804.0520, 45956.96
805.1930, 45905.00
806.3340, 45908.00
807.4750, 45766.00
808.6160, 45803.00
809.7560, 45435.00
810.8970, 45258.00
812.0370, 45399.00
813.1770, 45627.00
814.3170, 45075.00
815.4570, 45113.00
816.5960, 45340.00
817.7360, 44996.00
818.8750, 45049.00
820.0140, 44914.00
821.1530, 44988.00
822.2920, 44908.00
823.4310, 44770.00
824.5690, 45066.00
825.7070, 45078.00
826.8460, 44897.00
827.9840, 44928.00
829.1220, 44917.00
830.2590, 45102.00
831.3970, 45024.89
832.5340, 45076.00
833.6710, 44955.00
834.8080, 44955.00
835.9450, 44888.00
837.0820, 44742.00
838.2190, 45348.00
839.3550, 44977.00
840.4910, 45203.00
841.6270, 45245.00
842.7630, 45066.00
843.8990, 45035.00
845.0350, 45500.00
846.1700, 45162.00
847.3060, 45256.00
848.4410, 45233.00
849.5760, 45138.00
850.7100, 45341.00
851.8450, 45834.00
852.9800, 45324.00
854.1140, 46068.00
855.2480, 45652.00
856.3820, 46173.00
857.5160, 46221.00
858.6500, 46161.00
859.7830, 46108.00
860.9170, 46052.00
862.0500, 46219.00
863.1830, 46178.73
864.3160, 46244.00
865.4480, 46430.00
866.5810, 46528.00
867.7130, 46630.25
868.8460, 46733.00
869.9780, 46855.00
871.1100, 46952.00
872.2410, 47120.00
873.3730, 47109.00
874.5050, 47544.00
875.6360, 47254.00
876.7670, 47422.00
877.8980, 47790.00
879.0290, 47842.00
880.1590, 47992.71
881.2900, 48134.00
882.4200, 48222.00
883.5500, 48281.00
884.6800, 48573.00
885.8100, 48553.00
886.9400, 48831.00
888.0690, 48996.00
889.1990, 49149.59
890.3280, 49452.74
891.4570, 49512.00
892.5860, 49650.00
893.7140, 49765.59
894.8430, 49961.00
895.9710, 50119.00
897.1000, 50437.00
898.2280, 50566.00
899.3560, 50667.00
900.4830, 51050.00
901.6110, 51383.00
902.7380, 51582.93
903.8660, 51888.00
904.9930, 52083.00
906.1200, 52425.00
907.2460, 52673.00
908.3730, 52676.00
909.5000, 52704.00
910.6260, 52973.00
911.7520, 53172.00
912.8780, 53439.00
914.0040, 53674.00
915.1290, 53680.00
916.2550, 53956.00
917.3800, 54297.00
918.5050, 54150.00
919.6300, 54714.00
920.7550, 54307.00
921.8800, 54539.00
923.0040, 54680.00
924.1290, 54747.00
925.2530, 54793.00
926.3770, 54883.00
927.5010, 54778.00
928.6250, 54682.00
929.7480, 55029.00
930.8720, 54859.00
931.9950, 54835.00
933.1180, 54672.00
934.2410, 54851.00
935.3640, 54785.00
936.4860, 54733.00
937.6090, 54570.00
938.7310, 54172.00
939.8530, 54204.00
940.9750, 54007.02
942.0970, 53598.00
943.2180, 53770.00
944.3400, 53590.00
945.4610, 53345.00
946.5820, 53068.00
947.7030, 52928.00
948.8240, 52651.60
949.9450, 53064.00
951.0650, 52348.00
952.1860, 52266.00
953.3060, 52489.00
954.4260, 51740.00
955.5460, 52100.00
956.6650, 51642.00
957.7850, 51375.00
958.9040, 51533.00
960.0230, 51746.00
961.1420, 51460.00
962.2610, 51502.00
963.3800, 51007.00
964.4990, 50688.00
965.6170, 50699.00
966.7350, 50362.00
967.8530, 50568.00
968.9710, 50589.00
970.0890, 50460.00
971.2070, 50482.00
972.3240, 50724.00
973.4410, 50775.00
974.5580, 50533.00
975.6750, 50704.00
976.7920, 50571.00
977.9090, 50320.00
979.0250, 50556.00
980.1410, 50435.00
981.2580, 50701.00
982.3740, 51027.00
983.4890, 50729.00
984.6050, 50945.00
985.7200, 51073.00
986.8360, 50979.00
987.9510, 51179.00
989.0660, 51280.00
990.1810, 51471.00
991.2950, 51368.00
992.4100, 51704.00
993.5240, 51454.00
994.6390, 51960.00
995.7530, 52089.00
996.8660, 52281.00
997.9800, 52571.00
999.0940, 52941.00
1000.207, 53197.00
1001.320, 53103.00
1002.433, 53391.00
1003.546, 53821.00
1004.659, 53902.00
1005.772, 54271.00
1006.884, 54549.00
1007.996, 55013.00
1009.108, 55504.00
1010.220, 55726.00
1011.332, 56392.00
1012.444, 56795.00
1013.555, 57335.00
1014.666, 58278.00
1015.777, 58628.00
1016.888, 59012.00
1017.999, 59498.00
1019.110, 60381.00
1020.220, 60848.00
1021.331, 61254.00
1022.441, 61970.00
1023.551, 62067.00
1024.661, 62923.00
1025.770, 63229.00
1026.880, 63516.00
1027.989, 63897.00
1029.098, 63666.00
1030.207, 63976.00
1031.316, 63849.00
1032.425, 63778.00
1033.533, 63744.00
1034.642, 63782.00
1035.750, 63398.00
1036.858, 63342.00
1037.966, 62930.00
1039.073, 62056.00
1040.181, 61946.00
1041.288, 61562.00
1042.396, 60898.00
1043.503, 60806.00
1044.610, 59712.00
1045.716, 59155.00
1046.823, 59075.00
1047.929, 58390.00
1049.036, 57676.00
1050.142, 57331.00
1051.248, 57135.00
1052.353, 56457.00
1053.459, 56440.00
1054.564, 55887.00
1055.670, 55768.00
1056.775, 55617.00
1057.880, 55234.00
1058.985, 55017.00
1060.089, 54843.00
1061.194, 54755.00
1062.298, 54553.25
1063.402, 54548.00
1064.506, 54330.00
1065.610, 54164.00
1066.713, 54255.00
1067.817, 54406.00
1068.920, 54222.00
1070.023, 54293.00
1071.126, 53946.00
1072.229, 54197.00
1073.332, 54066.00
1074.435, 53938.00
1075.537, 54084.00
1076.639, 54417.00
1077.741, 54119.00
1078.843, 54130.00
1079.945, 54290.00
1081.046, 53816.00
1082.148, 54225.00
1083.249, 54126.00
1084.350, 53818.00
1085.451, 54082.00
1086.551, 54205.00
1087.652, 54128.00
1088.752, 53930.00
1089.853, 54013.00
1090.953, 54216.00
1092.053, 54104.00
1093.152, 54123.00
1094.252, 54129.00
1095.351, 54192.00
1096.451, 54188.00
1097.550, 53860.00
1098.649, 53825.00
1099.748, 53790.00
1100.846, 53608.00
1101.945, 53780.00
1103.043, 53928.00
1104.141, 53571.00
1105.239, 53516.00
1106.337, 53678.00
1107.434, 53558.00
1108.532, 53475.00
1109.629, 53710.00
1110.726, 53174.00
1111.823, 53533.00
1112.920, 53348.00
1114.017, 53300.00
1115.113, 53564.00
1116.210, 53640.00
1117.306, 53485.00
1118.402, 53561.00
1119.498, 53711.00
1120.593, 53678.00
1121.689, 53711.00
1122.784, 53663.00
1123.879, 53601.00
1124.974, 53697.00
1126.069, 53720.00
1127.164, 53500.00
1128.259, 53376.00
1129.353, 53871.00
1130.447, 53760.00
1131.541, 53974.00
1132.635, 53719.00
1133.729, 53746.00
1134.822, 54023.00
1135.916, 54290.00
1137.009, 53829.00
1138.102, 53788.00
1139.195, 53936.00
1140.288, 53825.00
1141.380, 54026.00
1142.473, 53892.00
1143.565, 53829.00
1144.657, 53980.00
1145.749, 54172.00
1146.841, 54136.64
1147.932, 54107.00
1149.024, 54164.00
1150.115, 54202.00
1151.206, 54157.00
1152.297, 54033.00
1153.388, 54284.00
1154.479, 54236.00
1155.569, 54486.00
1156.659, 54033.00
1157.750, 54411.00
1158.839, 54303.00
1159.929, 54412.00
1161.019, 54667.00
1162.108, 54711.00
1163.198, 54759.00
1164.287, 54951.00
1165.376, 54784.00
1166.465, 54555.00
1167.553, 54819.00
1168.642, 54845.00
1169.730, 54478.00
1170.818, 55148.00
1171.906, 54895.00
1172.994, 54983.00
1174.082, 54949.00
1175.170, 55050.00
1176.257, 55027.00
1177.344, 55307.00
1178.431, 55062.00
1179.518, 54852.00
1180.605, 55465.00
1181.691, 55142.00
1182.778, 55279.00
1183.864, 55411.00
1184.950, 55285.00
1186.036, 55344.00
1187.122, 55245.00
1188.207, 55441.23
1189.292, 55526.00
1190.378, 55599.00
1191.463, 55909.00
1192.548, 55838.14
1193.632, 55592.00
1194.717, 55834.00
1195.801, 55643.00
1196.886, 55639.00
1197.970, 56080.00
1199.054, 55483.00
1200.137, 55726.00
1201.221, 55958.00
1202.305, 55696.00
1203.388, 56025.00
1204.471, 56289.00
1205.554, 56320.00
1206.637, 56372.00
1207.719, 56223.00
1208.802, 56204.00
1209.884, 56311.00
1210.966, 56145.00
1212.048, 56139.00
1213.130, 56454.00
1214.212, 56240.00
1215.293, 56519.00
1216.374, 56504.00
1217.456, 56448.00
1218.536, 56397.00
1219.617, 56715.00
1220.698, 56679.00
1221.778, 56414.00
1222.859, 56674.00
1223.939, 56533.00
1225.019, 56833.00
1226.099, 57084.00
1227.178, 56887.00
1228.258, 57035.00
1229.337, 57275.00
1230.417, 56945.00
1231.496, 56994.00
1232.574, 57003.00
1233.653, 56979.00
1234.732, 57038.96
1235.810, 57205.00
1236.888, 57134.00
1237.966, 57188.00
1239.044, 57265.00
1240.122, 57230.00
1241.199, 57131.00
1242.277, 57576.00
1243.354, 57421.00
1244.431, 57529.00
1245.508, 57370.00
1246.585, 57464.00
1247.661, 57474.00
1248.738, 57658.00
1249.814, 57474.00
1250.890, 57669.00
1251.966, 57260.00
1253.042, 57827.00
1254.117, 57720.00
1255.193, 57551.00
1256.268, 57812.00
1257.343, 57741.00
1258.418, 57522.00
1259.493, 58082.00
1260.567, 57579.00
1261.642, 57828.00
1262.716, 58237.00
1263.790, 58158.00
1264.864, 58054.00
1265.938, 58461.00
1267.011, 57987.00
1268.085, 58380.00
1269.158, 58222.00
1270.231, 57979.00
1271.304, 57854.00
1272.377, 58166.00
1273.450, 57886.00
1274.522, 58153.00
1275.594, 58252.00
1276.666, 58064.00
1277.738, 58095.00
1278.810, 58658.00
1279.882, 58276.00
1280.953, 58465.00
1282.025, 58684.00
1283.096, 58516.00
1284.167, 58515.00
1285.238, 58797.00
1286.308, 58747.00
1287.379, 58514.00
1288.449, 59163.00
1289.519, 59031.00
1290.589, 59343.00
1291.659, 59163.00
1292.729, 59142.00
