##NAMES=Astrophyllite
##RRUFFID=R060202
##IDEAL CHEMISTRY=K_2_NaFe^2+^_7_Ti^4+^_2_(Si_4_O_12_)_2_O_2_(OH)_4_F
##LOCALITY=Demix Quarry, Mont Saint-Hilaire, Rouville County, Quebec, Canada
##OWNER=RRUFF
##SOURCE=Royal Ontario Museum
##DESCRIPTION=Aggregate of brown splintered wafers
##STATUS=The identification of this mineral has been confirmed by X-ray diffraction and chemical analysis
##URL=rruff.info/R060202
##MEASURED CHEMISTRY=(K_0.56_Na_0.38_Ca_0.06_)_3_(Fe^2+^_0.52_Mn_0.44_Mg_0.04_)_7_(Ti_0.75_Zr_0.15_Al_0.15_)_2_Si_8_O_24_(O_0.27_OH_0.73_)_7_
##PIN_ID=M00170
##ORIENTATION=Laser parallel to (-1 0 -1). Fiducial mark perpendicular to laser is parallel to -b [0 -1 0]
118.1340, 18817.00
119.3650, 18807.00
120.5960, 18589.00
121.8270, 18391.00
123.0580, 18661.00
124.2880, 18602.00
125.5190, 18313.00
126.7490, 18376.00
127.9790, 18388.00
129.2090, 18544.00
130.4390, 18625.00
131.6680, 18985.00
132.8980, 18864.00
134.1270, 19016.00
135.3560, 19015.00
136.5850, 18972.00
137.8140, 18880.00
139.0430, 18874.71
140.2710, 18824.82
141.5000, 18803.00
142.7280, 18778.00
143.9560, 18729.00
145.1840, 18727.00
146.4120, 19112.00
147.6390, 19447.00
148.8670, 19976.00
150.0940, 20160.00
151.3210, 20540.00
152.5490, 21165.00
153.7750, 21549.00
155.0020, 21833.00
156.2290, 22426.00
157.4550, 23156.00
158.6810, 23795.00
159.9080, 24603.00
161.1340, 25234.00
162.3590, 26204.00
163.5850, 26975.00
164.8110, 27515.00
166.0360, 27857.00
167.2610, 28188.00
168.4860, 28157.00
169.7110, 27933.00
170.9360, 27781.00
172.1610, 26969.00
173.3850, 26152.00
174.6100, 25668.00
175.8340, 24749.00
177.0580, 23857.00
178.2820, 23182.00
179.5050, 22710.00
180.7290, 21881.00
181.9520, 21442.00
183.1760, 21173.00
184.3990, 20611.00
185.6220, 20404.00
186.8450, 20079.00
188.0670, 19871.00
189.2900, 19840.00
190.5120, 19744.00
191.7340, 19636.00
192.9560, 19611.00
194.1780, 19529.00
195.4000, 19506.00
196.6220, 19649.00
197.8430, 19534.00
199.0640, 19641.00
200.2860, 19977.00
201.5070, 19870.00
202.7270, 20084.00
203.9480, 20098.00
205.1690, 19838.00
206.3890, 19702.00
207.6090, 19616.00
208.8290, 19699.00
210.0490, 19650.00
211.2690, 19752.00
212.4890, 19790.00
213.7080, 19967.00
214.9280, 19969.00
216.1470, 20190.00
217.3660, 19779.00
218.5850, 19758.00
219.8030, 19782.00
221.0220, 19651.00
222.2400, 19521.00
223.4590, 19388.00
224.6770, 19349.00
225.8950, 19176.00
227.1120, 19093.00
228.3300, 19109.00
229.5480, 18788.00
230.7650, 18974.00
231.9820, 18738.00
233.1990, 18672.00
234.4160, 19141.00
235.6330, 18796.00
236.8490, 18717.00
238.0660, 18476.00
239.2820, 18356.00
240.4980, 18421.00
241.7140, 18259.00
242.9300, 18405.00
244.1460, 18181.00
245.3610, 18122.00
246.5770, 18169.00
247.7920, 18076.00
249.0070, 18111.00
250.2220, 18044.14
251.4370, 17712.00
252.6510, 17894.00
253.8660, 17884.00
255.0800, 17761.00
256.2940, 17905.00
257.5080, 17969.00
258.7220, 18258.00
259.9360, 18955.00
261.1490, 18504.00
262.3630, 18008.00
263.5760, 18437.00
264.7890, 19149.00
266.0020, 18515.93
267.2150, 19673.00
268.4270, 17925.00
269.6400, 17830.00
270.8520, 17809.00
272.0640, 17758.00
273.2760, 17700.84
274.4880, 17675.45
275.7000, 17684.00
276.9120, 17567.00
278.1230, 17723.00
279.3340, 17600.00
280.5450, 17553.00
281.7560, 17349.00
282.9670, 17364.00
284.1780, 17306.00
285.3880, 17267.00
286.5980, 17433.00
287.8090, 17346.00
289.0190, 17361.00
290.2290, 17151.00
291.4380, 17094.00
292.6480, 17269.00
293.8570, 17134.00
295.0670, 17388.00
296.2760, 17238.00
297.4850, 17068.00
298.6930, 17011.00
299.9020, 17037.00
301.1110, 17007.19
302.3190, 17119.00
303.5270, 17081.00
304.7350, 17064.00
305.9430, 17074.00
307.1510, 17217.00
308.3580, 17051.00
309.5660, 17011.00
310.7730, 17287.00
311.9800, 17324.00
313.1870, 17109.00
314.3940, 17146.00
315.6010, 17210.00
316.8070, 17124.00
318.0130, 17111.00
319.2200, 17173.00
320.4260, 17237.00
321.6310, 17305.00
322.8370, 17133.00
324.0430, 17293.00
325.2480, 17218.00
326.4540, 17315.00
327.6590, 17297.00
328.8640, 17475.00
330.0680, 17407.00
331.2730, 17511.00
332.4780, 17440.00
333.6820, 17687.00
334.8860, 17615.00
336.0900, 17752.00
337.2940, 17807.00
338.4980, 17915.00
339.7010, 17822.00
340.9050, 17889.00
342.1080, 18043.00
343.3110, 18188.00
344.5140, 17842.00
345.7170, 17965.00
346.9200, 17967.00
348.1220, 18047.00
349.3240, 18094.00
350.5270, 18029.00
351.7290, 17941.00
352.9310, 17892.00
354.1320, 17656.00
355.3340, 17819.00
356.5350, 17735.00
357.7370, 17779.00
358.9380, 17577.00
360.1390, 17571.00
361.3400, 17727.00
362.5400, 17423.00
363.7410, 17507.00
364.9410, 17440.00
366.1410, 17408.00
367.3410, 17341.00
368.5410, 17356.00
369.7410, 17180.00
370.9400, 17212.00
372.1400, 17086.00
373.3390, 17037.00
374.5380, 17028.00
375.7370, 17042.00
376.9360, 16966.00
378.1350, 16812.00
379.3330, 16756.00
380.5310, 16604.00
381.7300, 16810.00
382.9280, 16734.00
384.1260, 16664.00
385.3230, 16509.00
386.5210, 16555.00
387.7180, 16764.00
388.9160, 16474.00
390.1130, 16485.00
391.3100, 16598.00
392.5060, 16439.00
393.7030, 16399.00
394.9000, 16366.00
396.0960, 16479.00
397.2920, 16407.00
398.4880, 16441.00
399.6840, 16463.00
400.8800, 16360.96
402.0750, 16250.00
403.2710, 16201.00
404.4660, 16043.00
405.6610, 15993.00
406.8560, 16031.00
408.0510, 15654.00
409.2450, 15928.00
410.4400, 15853.00
411.6340, 15721.00
412.8280, 15827.00
414.0220, 15875.00
415.2160, 15810.00
416.4100, 15833.00
417.6030, 15832.00
418.7970, 15928.00
419.9900, 15750.00
421.1830, 16025.00
422.3760, 15841.00
423.5690, 16011.00
424.7610, 16006.00
425.9540, 16041.00
427.1460, 16013.00
428.3380, 15856.00
429.5300, 15838.00
430.7220, 15875.00
431.9140, 15894.00
433.1050, 16074.00
434.2970, 16142.00
435.4880, 16216.92
436.6790, 16133.00
437.8700, 16336.00
439.0610, 16253.00
440.2510, 16238.00
441.4420, 16262.00
442.6320, 16430.00
443.8220, 16317.00
445.0120, 16519.00
446.2020, 16446.00
447.3910, 16503.00
448.5810, 16470.00
449.7700, 16523.42
450.9600, 16583.84
452.1490, 16685.00
453.3370, 16713.00
454.5260, 16867.00
455.7150, 16897.00
456.9030, 16963.00
458.0910, 17072.00
459.2800, 17109.00
460.4670, 17215.00
461.6550, 17249.11
462.8430, 17125.00
464.0300, 17316.00
465.2180, 17202.00
466.4050, 17215.00
467.5920, 17212.00
468.7790, 17149.00
469.9650, 17279.00
471.1520, 17253.00
472.3380, 17237.00
473.5250, 17127.00
474.7110, 16958.00
475.8970, 17096.00
477.0820, 17071.00
478.2680, 17121.00
479.4540, 17187.00
480.6390, 17196.00
481.8240, 17169.35
483.0090, 16915.00
484.1940, 17166.00
485.3780, 16899.00
486.5630, 17104.00
487.7470, 16980.00
488.9320, 16917.00
490.1160, 17009.00
491.3000, 16979.00
492.4830, 17029.00
493.6670, 16926.00
494.8500, 16963.00
496.0340, 16857.00
497.2170, 16853.00
498.4000, 16758.00
499.5820, 16811.21
500.7650, 16841.00
501.9480, 16928.00
503.1300, 16857.00
504.3120, 16894.00
505.4940, 16795.00
506.6760, 16907.00
507.8580, 16921.00
509.0390, 16917.00
510.2210, 17021.00
511.4020, 16929.00
512.5830, 16775.00
513.7640, 16837.00
514.9450, 17019.00
516.1250, 16847.00
517.3060, 16967.00
518.4860, 16826.00
519.6660, 17111.00
520.8460, 17073.00
522.0260, 17025.00
523.2060, 17069.00
524.3850, 17063.00
525.5650, 17126.37
526.7440, 17163.00
527.9230, 17204.48
529.1020, 17245.00
530.2810, 17320.00
531.4590, 17435.00
532.6380, 17523.00
533.8160, 17544.00
534.9940, 17734.00
536.1720, 17658.00
537.3500, 17648.00
538.5270, 17825.00
539.7050, 17885.00
540.8820, 18141.00
542.0590, 18213.00
543.2360, 18357.00
544.4130, 18670.00
545.5900, 18818.00
546.7660, 19065.00
547.9430, 19089.00
549.1190, 19765.00
550.2950, 19443.00
551.4710, 19894.00
552.6470, 20070.00
553.8220, 20081.00
554.9980, 20184.00
556.1730, 20337.00
557.3480, 20251.00
558.5230, 20375.00
559.6980, 20171.00
560.8730, 20243.00
562.0470, 20003.00
563.2220, 19969.00
564.3960, 19796.00
565.5700, 19611.00
566.7440, 19689.00
567.9170, 19495.00
569.0910, 19420.00
570.2640, 19504.00
571.4380, 19412.00
572.6110, 19478.00
573.7840, 19398.00
574.9570, 19335.00
576.1290, 19433.00
577.3020, 19605.00
578.4740, 19669.00
579.6460, 19884.00
580.8180, 19854.00
581.9900, 19824.00
583.1620, 19925.00
584.3330, 20247.00
585.5040, 20248.00
586.6760, 20541.00
587.8470, 20589.00
589.0180, 20637.00
590.1880, 20903.00
591.3590, 21054.00
592.5290, 21176.00
593.7000, 21385.00
594.8700, 21545.00
596.0400, 21750.00
597.2090, 21718.00
598.3790, 21836.00
599.5490, 22086.00
600.7180, 22099.00
601.8870, 22363.00
603.0560, 22336.00
604.2250, 22466.00
605.3940, 22564.00
606.5620, 22885.00
607.7300, 22957.00
608.8990, 23283.00
610.0670, 23480.00
611.2350, 23711.00
612.4020, 23795.00
613.5700, 24150.00
614.7370, 24220.00
615.9050, 24332.00
617.0720, 24547.00
618.2390, 24474.00
619.4060, 24950.00
620.5720, 24931.00
621.7390, 25025.00
622.9050, 25484.00
624.0710, 25216.00
625.2370, 25581.00
626.4030, 25827.00
627.5690, 25971.00
628.7340, 26104.00
629.9000, 26274.00
631.0650, 26459.00
632.2300, 26894.00
633.3950, 27015.00
634.5600, 27129.00
635.7240, 27219.00
636.8890, 27767.00
638.0530, 27898.00
639.2170, 28270.00
640.3810, 28780.00
641.5450, 29158.00
642.7080, 29711.00
643.8720, 30114.56
645.0350, 30471.00
646.1980, 31003.00
647.3610, 31448.00
648.5240, 31965.00
649.6870, 32347.00
650.8490, 32666.00
652.0120, 33071.00
653.1740, 33089.00
654.3360, 33174.00
655.4980, 32915.00
656.6600, 32931.00
657.8210, 32364.00
658.9830, 32362.00
660.1440, 31877.00
661.3050, 31835.00
662.4660, 31631.00
663.6270, 31613.00
664.7870, 31836.00
665.9480, 32196.00
667.1080, 32122.00
668.2680, 32353.00
669.4280, 32625.00
670.5880, 32849.00
671.7480, 33464.00
672.9070, 33912.00
674.0670, 34104.00
675.2260, 34418.00
676.3850, 35150.00
677.5440, 35323.00
678.7030, 35934.00
679.8610, 36249.00
681.0200, 36721.00
682.1780, 37244.00
683.3360, 37518.00
684.4940, 37925.00
685.6520, 38475.00
686.8090, 38625.00
687.9670, 38795.00
689.1240, 39266.00
690.2810, 39690.00
691.4380, 39849.00
692.5950, 40038.00
693.7520, 40129.00
694.9080, 40292.00
696.0650, 40971.00
697.2210, 40647.00
698.3770, 41149.00
699.5330, 41016.00
700.6880, 41333.00
701.8440, 40980.00
702.9990, 40923.00
704.1550, 41033.00
705.3100, 40969.00
706.4650, 40710.00
707.6190, 40824.00
708.7740, 40627.00
709.9290, 40488.00
711.0830, 40310.00
712.2370, 39812.00
713.3910, 39205.00
714.5450, 39041.00
715.6980, 38487.00
716.8520, 38434.00
718.0050, 38130.00
719.1580, 37688.00
720.3110, 37401.04
721.4640, 36608.00
722.6170, 36539.00
723.7700, 35921.00
724.9220, 35424.00
726.0740, 35128.00
727.2260, 34549.00
728.3780, 34247.00
729.5300, 33822.00
730.6810, 33420.00
731.8330, 32905.00
732.9840, 32357.00
734.1350, 32178.00
735.2860, 31937.00
736.4370, 31661.00
737.5880, 31222.00
738.7380, 31014.00
739.8880, 30772.00
741.0390, 30440.00
742.1890, 30240.00
743.3380, 30245.00
744.4880, 30245.00
745.6380, 29836.00
746.7870, 29989.00
747.9360, 29832.00
749.0850, 29634.00
750.2340, 29476.00
751.3830, 29212.00
752.5310, 29161.00
753.6800, 29391.00
754.8280, 29182.00
755.9760, 29182.00
757.1240, 29169.00
758.2720, 29090.00
759.4190, 28981.00
760.5670, 28934.99
761.7140, 28654.00
762.8610, 28748.00
764.0080, 28638.00
765.1550, 28462.00
766.3020, 28723.00
767.4480, 28648.00
768.5950, 28530.00
769.7410, 28641.00
770.8870, 28694.00
772.0330, 28806.00
773.1780, 28698.00
774.3240, 28686.00
775.4690, 28673.00
776.6140, 28969.00
777.7590, 28823.00
778.9040, 28902.00
780.0490, 29244.00
781.1940, 29124.00
782.3380, 28982.00
783.4820, 29006.00
784.6260, 29117.00
785.7700, 29089.00
786.9140, 28819.00
788.0580, 28907.00
789.2010, 28809.00
790.3450, 28745.00
791.4880, 28203.00
792.6310, 28234.00
793.7730, 27929.00
794.9160, 27502.00
796.0590, 27516.00
797.2010, 27176.00
798.3430, 26796.00
799.4850, 26325.00
800.6270, 25925.00
801.7690, 25732.00
802.9100, 25299.31
804.0520, 25244.00
805.1930, 24659.00
806.3340, 24452.00
807.4750, 24213.00
808.6160, 23870.00
809.7560, 23638.00
810.8970, 23268.00
812.0370, 23067.94
813.1770, 22825.00
814.3170, 22707.00
815.4570, 22535.47
816.5960, 22349.83
817.7360, 22196.00
818.8750, 22031.00
820.0140, 21871.00
821.1530, 21768.00
822.2920, 21792.00
823.4310, 21499.00
824.5690, 21534.00
825.7070, 21377.00
826.8460, 21292.00
827.9840, 21546.00
829.1220, 21176.00
830.2590, 21190.00
831.3970, 21220.00
832.5340, 20874.00
833.6710, 20995.00
834.8080, 20859.00
835.9450, 20838.00
837.0820, 20643.00
838.2190, 20830.00
839.3550, 20743.00
840.4910, 20670.00
841.6270, 20517.00
842.7630, 20746.00
843.8990, 20493.00
845.0350, 20663.00
846.1700, 20618.00
847.3060, 20599.00
848.4410, 20417.00
849.5760, 20436.00
850.7100, 20537.00
851.8450, 20392.00
852.9800, 20361.00
854.1140, 20409.00
855.2480, 20307.00
856.3820, 20446.00
857.5160, 20307.00
858.6500, 20355.00
859.7830, 20352.00
860.9170, 20326.99
862.0500, 20482.00
863.1830, 20334.00
864.3160, 20473.00
865.4480, 20463.00
866.5810, 20522.00
867.7130, 20593.64
868.8460, 20675.00
869.9780, 20698.00
871.1100, 20710.00
872.2410, 20734.00
873.3730, 20852.00
874.5050, 20922.00
875.6360, 20898.00
876.7670, 20964.38
877.8980, 20991.00
879.0290, 20911.00
880.1590, 21007.00
881.2900, 20808.00
882.4200, 21003.00
883.5500, 21324.00
884.6800, 20946.00
885.8100, 20858.00
886.9400, 21231.00
888.0690, 21140.00
889.1990, 21231.00
890.3280, 21362.00
891.4570, 21224.00
892.5860, 21259.00
893.7140, 21361.00
894.8430, 21402.00
895.9710, 21420.00
897.1000, 21229.00
898.2280, 21173.00
899.3560, 21398.00
900.4830, 21554.00
901.6110, 21487.00
902.7380, 21325.00
903.8660, 21690.00
904.9930, 21504.00
906.1200, 21586.00
907.2460, 21828.00
908.3730, 21833.00
909.5000, 21842.00
910.6260, 21802.00
911.7520, 21901.00
912.8780, 21966.00
914.0040, 22037.00
915.1290, 22114.00
916.2550, 22085.00
917.3800, 22206.00
918.5050, 22118.00
919.6300, 22048.00
920.7550, 22308.00
921.8800, 22134.00
923.0040, 22282.00
924.1290, 22386.00
925.2530, 22138.00
926.3770, 22405.00
927.5010, 22384.00
928.6250, 22309.00
929.7480, 22473.00
930.8720, 22521.00
931.9950, 22348.00
933.1180, 22671.00
934.2410, 22451.00
935.3640, 22611.00
936.4860, 22643.00
937.6090, 22713.00
938.7310, 22820.00
939.8530, 22597.00
940.9750, 22672.00
942.0970, 22792.00
943.2180, 22803.00
944.3400, 23066.00
945.4610, 22933.00
946.5820, 23028.00
947.7030, 22997.00
948.8240, 23198.00
949.9450, 22936.00
951.0650, 22818.00
952.1860, 23093.00
953.3060, 22921.00
954.4260, 22682.00
955.5460, 22786.00
956.6650, 22741.00
957.7850, 22834.00
958.9040, 22624.00
960.0230, 22910.00
961.1420, 22616.00
962.2610, 22802.00
963.3800, 22839.00
964.4990, 22615.00
965.6170, 22941.00
966.7350, 22948.00
967.8530, 22897.00
968.9710, 22928.00
970.0890, 22786.00
971.2070, 23048.00
972.3240, 23162.00
973.4410, 23219.00
974.5580, 23140.00
975.6750, 23355.00
976.7920, 23239.00
977.9090, 23419.00
979.0250, 23816.00
980.1410, 23636.00
981.2580, 23921.00
982.3740, 24108.00
983.4890, 24111.00
984.6050, 24219.00
985.7200, 24540.00
986.8360, 24647.00
987.9510, 25144.00
989.0660, 25326.00
990.1810, 25232.00
991.2950, 25508.00
992.4100, 26053.00
993.5240, 26298.00
994.6390, 26641.00
995.7530, 26815.00
996.8660, 27352.00
997.9800, 27778.00
999.0940, 28121.00
1000.207, 28450.00
1001.320, 29276.00
1002.433, 29638.00
1003.546, 30443.00
1004.659, 31147.00
1005.772, 31655.00
1006.884, 32493.00
1007.996, 33661.00
1009.108, 34225.00
1010.220, 35380.00
1011.332, 36733.00
1012.444, 37762.00
1013.555, 38921.00
1014.666, 40355.00
1015.777, 41684.00
1016.888, 42865.00
1017.999, 44370.00
1019.110, 45741.00
1020.220, 47071.00
1021.331, 48028.00
1022.441, 49441.00
1023.551, 50606.00
1024.661, 51713.00
1025.770, 52338.00
1026.880, 53342.00
1027.989, 54198.00
1029.098, 54827.00
1030.207, 54770.00
1031.316, 54600.00
1032.425, 54358.00
1033.533, 53645.00
1034.642, 53049.00
1035.750, 52324.00
1036.858, 51209.00
1037.966, 50321.00
1039.073, 48954.00
1040.181, 48079.00
1041.288, 46532.00
1042.396, 45137.00
1043.503, 43966.00
1044.610, 42358.00
1045.716, 40877.00
1046.823, 39655.00
1047.929, 38430.00
1049.036, 37173.00
1050.142, 35843.00
1051.248, 35168.00
1052.353, 33787.00
1053.459, 33062.00
1054.564, 32274.00
1055.670, 31525.00
1056.775, 30849.00
1057.880, 30483.00
1058.985, 29770.00
1060.089, 29520.00
1061.194, 29116.00
1062.298, 28513.00
1063.402, 28532.00
1064.506, 28292.00
1065.610, 27872.00
1066.713, 27800.00
1067.817, 27535.00
1068.920, 27238.00
1070.023, 27317.00
1071.126, 27057.00
1072.229, 26904.00
1073.332, 26701.00
1074.435, 26848.00
1075.537, 26615.00
1076.639, 26584.00
1077.741, 26281.00
1078.843, 26268.00
1079.945, 26126.00
1081.046, 26088.00
1082.148, 26203.00
1083.249, 26070.00
1084.350, 25698.00
1085.451, 25808.00
1086.551, 25553.00
1087.652, 25725.00
1088.752, 25382.00
1089.853, 25171.00
1090.953, 25277.00
1092.053, 25115.00
1093.152, 25089.00
1094.252, 24733.00
1095.351, 24644.00
1096.451, 24667.00
1097.550, 24347.00
1098.649, 24251.00
1099.748, 24180.00
1100.846, 23920.00
1101.945, 23613.00
1103.043, 23604.00
1104.141, 23323.00
1105.239, 23297.00
1106.337, 23313.00
1107.434, 23032.00
1108.532, 22908.00
1109.629, 22929.00
1110.726, 22519.00
1111.823, 22649.00
1112.920, 22657.00
1114.017, 22290.00
1115.113, 22268.00
1116.210, 22494.00
1117.306, 22535.00
1118.402, 22715.00
1119.498, 22670.00
1120.593, 22668.00
1121.689, 22584.00
1122.784, 22747.00
1123.879, 22705.00
1124.974, 22833.00
1126.069, 22693.87
1127.164, 22327.00
1128.259, 22297.00
1129.353, 22230.00
1130.447, 21861.00
1131.541, 21864.00
1132.635, 22056.00
1133.729, 21949.00
1134.822, 22043.00
1135.916, 21747.00
1137.009, 21926.00
1138.102, 21885.00
1139.195, 21805.00
1140.288, 21840.00
1141.380, 21870.00
1142.473, 21875.00
1143.565, 21814.00
1144.657, 21829.00
1145.749, 21862.00
1146.841, 21710.00
1147.932, 21791.00
1149.024, 21768.00
1150.115, 21782.00
1151.206, 21673.00
1152.297, 21639.00
1153.388, 21704.00
1154.479, 21769.00
1155.569, 21686.00
1156.659, 21719.00
1157.750, 21883.00
1158.839, 21929.00
1159.929, 21868.00
1161.019, 21881.00
1162.108, 21950.00
1163.198, 21628.00
1164.287, 21879.00
1165.376, 21675.00
1166.465, 21873.00
1167.553, 22045.00
1168.642, 22069.00
1169.730, 22132.74
1170.818, 22076.00
1171.906, 22043.00
1172.994, 22026.00
1174.082, 21846.00
1175.170, 22152.00
1176.257, 22073.00
1177.344, 22189.00
1178.431, 21952.00
1179.518, 22058.00
1180.605, 22344.00
1181.691, 21960.00
1182.778, 22079.00
1183.864, 22109.00
1184.950, 22249.00
1186.036, 21942.00
1187.122, 21912.00
1188.207, 22091.00
1189.292, 22080.00
1190.378, 22199.00
1191.463, 22048.00
1192.548, 21922.00
1193.632, 22051.00
1194.717, 22040.00
1195.801, 21969.00
1196.886, 22079.00
1197.970, 22121.00
1199.054, 22023.00
1200.137, 22172.00
1201.221, 22228.00
1202.305, 22197.00
1203.388, 22171.00
1204.471, 22372.00
1205.554, 22236.00
1206.637, 22387.00
1207.719, 22289.00
1208.802, 22053.00
1209.884, 22168.00
1210.966, 22317.00
1212.048, 22174.00
1213.130, 22310.00
1214.212, 22304.00
1215.293, 22203.00
1216.374, 22428.00
1217.456, 22234.00
1218.536, 22301.00
1219.617, 22545.00
1220.698, 22295.00
1221.778, 22199.00
1222.859, 22404.00
1223.939, 22500.00
1225.019, 22463.00
1226.099, 22324.00
1227.178, 22504.00
1228.258, 22397.00
1229.337, 22405.00
1230.417, 22391.00
1231.496, 22442.00
1232.574, 22449.00
1233.653, 22384.00
1234.732, 22402.54
1235.810, 22379.00
1236.888, 22505.00
1237.966, 22508.32
1239.044, 22642.00
1240.122, 22566.00
1241.199, 22572.00
1242.277, 22515.00
1243.354, 22583.00
1244.431, 22371.00
1245.508, 22501.00
1246.585, 22421.00
1247.661, 22501.00
1248.738, 22548.00
1249.814, 22432.00
1250.890, 22516.99
1251.966, 22471.00
1253.042, 22533.00
1254.117, 22503.00
1255.193, 22462.00
1256.268, 22496.20
1257.343, 22529.00
1258.418, 22510.00
1259.493, 22618.00
1260.567, 22630.35
1261.642, 22620.52
1262.716, 22777.00
1263.790, 22671.00
1264.864, 22505.00
1265.938, 22702.00
1267.011, 22869.00
1268.085, 22619.00
1269.158, 22591.00
1270.231, 22564.00
1271.304, 22532.00
1272.377, 22411.00
1273.450, 22663.00
1274.522, 22440.00
1275.594, 22510.00
1276.666, 22656.00
1277.738, 22662.00
1278.810, 22737.00
1279.882, 22606.00
1280.953, 22848.00
1282.025, 22544.00
1283.096, 22807.00
1284.167, 22768.00
1285.238, 22828.00
1286.308, 22806.00
1287.379, 22779.00
