##NAMES=Astrophyllite
##RRUFFID=R060202
##IDEAL CHEMISTRY=K_2_NaFe^2+^_7_Ti^4+^_2_(Si_4_O_12_)_2_O_2_(OH)_4_F
##LOCALITY=Demix Quarry, Mont Saint-Hilaire, Rouville County, Quebec, Canada
##OWNER=RRUFF
##SOURCE=Royal Ontario Museum
##DESCRIPTION=Aggregate of brown splintered wafers
##STATUS=The identification of this mineral has been confirmed by X-ray diffraction and chemical analysis
##URL=rruff.info/R060202
##MEASURED CHEMISTRY=(K_0.56_Na_0.38_Ca_0.06_)_3_(Fe^2+^_0.52_Mn_0.44_Mg_0.04_)_7_(Ti_0.75_Zr_0.15_Al_0.15_)_2_Si_8_O_24_(O_0.27_OH_0.73_)_7_
##PIN_ID=M00215
##ORIENTATION=Laser parallel to (1 1 0). Fiducial mark perpendicular to laser is parallel to -c [0 0 -1]
79.89500, 18199.00
81.13100, 19111.00
82.36700, 20188.00
83.60200, 21675.00
84.83700, 23116.00
86.07200, 24029.00
87.30800, 24752.00
88.54200, 25380.00
89.77700, 26033.00
91.01200, 26576.00
92.24600, 26967.00
93.48000, 27116.00
94.71400, 26765.00
95.94800, 26893.00
97.18200, 26788.00
98.41600, 26500.00
99.64900, 26283.66
100.8830, 25909.19
102.1160, 25604.00
103.3490, 25119.00
104.5820, 24924.00
105.8150, 24654.00
107.0470, 24997.00
108.2800, 25447.00
109.5120, 26265.00
110.7440, 26003.00
111.9760, 24502.00
113.2080, 23751.00
114.4400, 23837.00
115.6710, 24505.00
116.9030, 24666.00
118.1340, 25015.00
119.3650, 24373.00
120.5960, 23509.00
121.8270, 23145.00
123.0580, 23378.00
124.2880, 24067.00
125.5190, 24329.00
126.7490, 24538.00
127.9790, 24467.00
129.2090, 24525.00
130.4390, 24285.00
131.6680, 23967.00
132.8980, 23409.00
134.1270, 22787.00
135.3560, 22098.00
136.5850, 21728.00
137.8140, 21460.00
139.0430, 21483.00
140.2710, 21223.00
141.5000, 20899.00
142.7280, 20765.00
143.9560, 20197.00
145.1840, 20342.00
146.4120, 20297.00
147.6390, 20474.00
148.8670, 20768.00
150.0940, 20611.00
151.3210, 20729.00
152.5490, 21153.00
153.7750, 21470.00
155.0020, 21709.00
156.2290, 21992.00
157.4550, 22241.00
158.6810, 22715.00
159.9080, 23097.00
161.1340, 23745.00
162.3590, 24257.00
163.5850, 25141.00
164.8110, 25250.00
166.0360, 25725.00
167.2610, 26444.00
168.4860, 26249.00
169.7110, 26479.00
170.9360, 26580.00
172.1610, 26307.00
173.3850, 25526.00
174.6100, 25237.00
175.8340, 24754.00
177.0580, 24236.00
178.2820, 23960.00
179.5050, 23500.00
180.7290, 23292.00
181.9520, 22742.00
183.1760, 22420.00
184.3990, 22386.00
185.6220, 22315.00
186.8450, 22509.00
188.0670, 22389.00
189.2900, 22419.00
190.5120, 22654.00
191.7340, 22751.00
192.9560, 22836.00
194.1780, 23270.00
195.4000, 23505.00
196.6220, 23793.00
197.8430, 24272.00
199.0640, 24730.00
200.2860, 24993.00
201.5070, 25488.00
202.7270, 25544.71
203.9480, 26027.00
205.1690, 25623.00
206.3890, 25089.00
207.6090, 25026.00
208.8290, 24873.00
210.0490, 24836.00
211.2690, 25082.00
212.4890, 25312.00
213.7080, 25767.00
214.9280, 26157.00
216.1470, 26391.00
217.3660, 26934.00
218.5850, 27170.00
219.8030, 27600.00
221.0220, 27980.00
222.2400, 28600.00
223.4590, 28857.00
224.6770, 29489.00
225.8950, 29937.00
227.1120, 30490.00
228.3300, 31221.00
229.5480, 31844.14
230.7650, 32586.00
231.9820, 33365.00
233.1990, 33964.00
234.4160, 34831.00
235.6330, 35620.00
236.8490, 36095.00
238.0660, 36536.00
239.2820, 37239.00
240.4980, 37401.00
241.7140, 37749.00
242.9300, 37889.00
244.1460, 37729.00
245.3610, 37703.00
246.5770, 37938.00
247.7920, 37464.00
249.0070, 37649.00
250.2220, 37473.00
251.4370, 37524.00
252.6510, 37541.00
253.8660, 38052.00
255.0800, 38090.00
256.2940, 38141.00
257.5080, 38446.00
258.7220, 38195.00
259.9360, 37857.00
261.1490, 37696.00
262.3630, 36148.00
263.5760, 34992.00
264.7890, 33212.00
266.0020, 32170.00
267.2150, 30807.00
268.4270, 29583.00
269.6400, 28637.00
270.8520, 27686.00
272.0640, 26826.00
273.2760, 25926.00
274.4880, 25238.00
275.7000, 24441.00
276.9120, 24046.00
278.1230, 23356.00
279.3340, 22951.00
280.5450, 22895.00
281.7560, 22336.00
282.9670, 22009.00
284.1780, 21816.00
285.3880, 21614.00
286.5980, 21357.00
287.8090, 21356.00
289.0190, 21159.00
290.2290, 20893.00
291.4380, 20841.00
292.6480, 20936.00
293.8570, 20757.00
295.0670, 20653.00
296.2760, 20914.00
297.4850, 20608.00
298.6930, 20596.00
299.9020, 20639.00
301.1110, 20585.00
302.3190, 20598.00
303.5270, 20500.00
304.7350, 20629.00
305.9430, 20656.00
307.1510, 20570.00
308.3580, 20612.91
309.5660, 20301.00
310.7730, 20507.00
311.9800, 20506.00
313.1870, 20361.00
314.3940, 20488.00
315.6010, 20468.00
316.8070, 20461.00
318.0130, 20409.00
319.2200, 20588.00
320.4260, 20497.00
321.6310, 20474.00
322.8370, 20749.00
324.0430, 20534.00
325.2480, 20642.00
326.4540, 20727.00
327.6590, 20912.00
328.8640, 20941.12
330.0680, 20760.00
331.2730, 21045.00
332.4780, 20998.00
333.6820, 21044.00
334.8860, 21282.00
336.0900, 21388.00
337.2940, 21503.00
338.4980, 21850.00
339.7010, 22081.00
340.9050, 22157.00
342.1080, 22510.00
343.3110, 22868.00
344.5140, 23078.00
345.7170, 23030.00
346.9200, 23618.00
348.1220, 23530.00
349.3240, 23029.00
350.5270, 22865.00
351.7290, 23098.00
352.9310, 23076.00
354.1320, 23140.00
355.3340, 23259.00
356.5350, 23505.00
357.7370, 23478.00
358.9380, 23638.00
360.1390, 23804.00
361.3400, 23482.00
362.5400, 23628.00
363.7410, 23571.00
364.9410, 23628.00
366.1410, 23399.00
367.3410, 23344.00
368.5410, 23090.00
369.7410, 22893.00
370.9400, 22795.00
372.1400, 22744.00
373.3390, 22667.00
374.5380, 22449.00
375.7370, 22615.00
376.9360, 22361.00
378.1350, 22724.00
379.3330, 22611.00
380.5310, 23130.00
381.7300, 23077.00
382.9280, 22999.00
384.1260, 23317.00
385.3230, 23330.00
386.5210, 23387.54
387.7180, 23230.00
388.9160, 23427.00
390.1130, 23329.00
391.3100, 23234.00
392.5060, 23165.00
393.7030, 23249.00
394.9000, 23293.00
396.0960, 23333.02
397.2920, 23423.83
398.4880, 23443.00
399.6840, 23586.00
400.8800, 23580.00
402.0750, 23650.00
403.2710, 23627.00
404.4660, 23847.00
405.6610, 23699.00
406.8560, 23912.00
408.0510, 23586.00
409.2450, 23728.00
410.4400, 23885.00
411.6340, 23807.00
412.8280, 23843.00
414.0220, 24233.00
415.2160, 24332.00
416.4100, 24393.00
417.6030, 24591.00
418.7970, 24771.00
419.9900, 24986.00
421.1830, 25010.00
422.3760, 25020.00
423.5690, 24732.00
424.7610, 24474.00
425.9540, 24135.00
427.1460, 23939.00
428.3380, 23689.00
429.5300, 23304.04
430.7220, 22907.00
431.9140, 22603.00
433.1050, 22187.10
434.2970, 21840.76
435.4880, 21420.00
436.6790, 21115.00
437.8700, 20757.00
439.0610, 20391.00
440.2510, 20257.00
441.4420, 19980.00
442.6320, 19949.00
443.8220, 19783.00
445.0120, 19567.00
446.2020, 19425.00
447.3910, 19331.00
448.5810, 19419.00
449.7700, 19485.00
450.9600, 19259.00
452.1490, 19491.40
453.3370, 19540.00
454.5260, 19775.00
455.7150, 19845.00
456.9030, 19997.00
458.0910, 20110.00
459.2800, 20327.00
460.4670, 20607.00
461.6550, 20898.00
462.8430, 21081.00
464.0300, 21279.00
465.2180, 21664.00
466.4050, 21691.00
467.5920, 21991.00
468.7790, 22087.00
469.9650, 22154.00
471.1520, 22183.00
472.3380, 22131.67
473.5250, 21771.00
474.7110, 21883.00
475.8970, 21713.00
477.0820, 21435.00
478.2680, 21379.00
479.4540, 21462.00
480.6390, 21335.00
481.8240, 21547.00
483.0090, 21171.00
484.1940, 21208.00
485.3780, 21245.00
486.5630, 21002.00
487.7470, 21339.00
488.9320, 21108.00
490.1160, 20867.00
491.3000, 20899.00
492.4830, 20583.00
493.6670, 20584.00
494.8500, 20489.00
496.0340, 20448.00
497.2170, 19972.00
498.4000, 20010.00
499.5820, 19860.00
500.7650, 19949.00
501.9480, 19821.00
503.1300, 19728.00
504.3120, 19812.00
505.4940, 19808.00
506.6760, 19606.00
507.8580, 19701.00
509.0390, 19786.00
510.2210, 19635.00
511.4020, 19560.00
512.5830, 19684.00
513.7640, 19714.00
514.9450, 19685.00
516.1250, 19605.00
517.3060, 19573.00
518.4860, 19539.24
519.6660, 19507.00
520.8460, 19462.00
522.0260, 19468.00
523.2060, 19383.00
524.3850, 19503.00
525.5650, 19402.00
526.7440, 19504.00
527.9230, 19862.00
529.1020, 19697.00
530.2810, 19815.00
531.4590, 19807.00
532.6380, 19870.00
533.8160, 19869.00
534.9940, 20110.00
536.1720, 20470.00
537.3500, 20567.00
538.5270, 20629.00
539.7050, 21405.00
540.8820, 21293.00
542.0590, 21811.00
543.2360, 22402.00
544.4130, 22885.00
545.5900, 23394.00
546.7660, 24325.00
547.9430, 25150.00
549.1190, 26246.00
550.2950, 26913.00
551.4710, 28148.00
552.6470, 29013.00
553.8220, 29779.00
554.9980, 30469.00
556.1730, 31091.00
557.3480, 31560.00
558.5230, 31641.00
559.6980, 31664.00
560.8730, 31387.00
562.0470, 31044.00
563.2220, 30452.00
564.3960, 29789.00
565.5700, 29298.00
566.7440, 28564.00
567.9170, 28220.00
569.0910, 27725.00
570.2640, 27206.00
571.4380, 26449.00
572.6110, 26330.00
573.7840, 25560.00
574.9570, 25450.00
576.1290, 25063.00
577.3020, 24568.00
578.4740, 24440.00
579.6460, 24319.00
580.8180, 24113.00
581.9900, 23940.00
583.1620, 23729.00
584.3330, 23612.00
585.5040, 23833.00
586.6760, 23892.00
587.8470, 23862.00
589.0180, 23910.00
590.1880, 23977.19
591.3590, 24126.00
592.5290, 24180.00
593.7000, 24464.00
594.8700, 24680.00
596.0400, 24657.00
597.2090, 25059.00
598.3790, 24708.00
599.5490, 24639.00
600.7180, 24450.00
601.8870, 24572.00
603.0560, 24642.00
604.2250, 24530.00
605.3940, 24699.00
606.5620, 24703.00
607.7300, 24721.00
608.8990, 24888.00
610.0670, 24939.00
611.2350, 25140.00
612.4020, 25122.00
613.5700, 25328.00
614.7370, 25706.00
615.9050, 25419.00
617.0720, 25906.00
618.2390, 26037.00
619.4060, 26103.00
620.5720, 26151.00
621.7390, 26560.00
622.9050, 26687.00
624.0710, 27103.00
625.2370, 27226.00
626.4030, 27624.00
627.5690, 27688.00
628.7340, 27977.00
629.9000, 28216.00
631.0650, 28549.00
632.2300, 28872.00
633.3950, 29282.00
634.5600, 29732.00
635.7240, 30349.00
636.8890, 30856.00
638.0530, 31719.00
639.2170, 32387.00
640.3810, 33254.00
641.5450, 34248.00
642.7080, 35476.26
643.8720, 36718.00
645.0350, 38424.00
646.1980, 40220.00
647.3610, 42099.00
648.5240, 43957.00
649.6870, 46554.00
650.8490, 48959.00
652.0120, 50950.00
653.1740, 52330.00
654.3360, 52773.00
655.4980, 52454.00
656.6600, 51542.00
657.8210, 49688.00
658.9830, 47701.00
660.1440, 45623.00
661.3050, 44347.00
662.4660, 42545.00
663.6270, 41279.00
664.7870, 40537.00
665.9480, 39705.00
667.1080, 39471.00
668.2680, 39252.00
669.4280, 39345.00
670.5880, 39299.00
671.7480, 39720.00
672.9070, 40350.00
674.0670, 40689.00
675.2260, 41237.00
676.3850, 41901.00
677.5440, 42700.00
678.7030, 43430.00
679.8610, 44129.65
681.0200, 45120.00
682.1780, 45536.00
683.3360, 46389.00
684.4940, 47090.00
685.6520, 48109.00
686.8090, 48260.00
687.9670, 49364.00
689.1240, 49577.00
690.2810, 50207.00
691.4380, 50583.00
692.5950, 51047.00
693.7520, 51815.00
694.9080, 51701.00
696.0650, 52388.00
697.2210, 52580.00
698.3770, 52771.00
699.5330, 52863.00
700.6880, 53021.84
701.8440, 53113.07
702.9990, 53210.00
704.1550, 53240.00
705.3100, 53225.00
706.4650, 53197.00
707.6190, 53140.00
708.7740, 52714.00
709.9290, 52792.00
711.0830, 52517.00
712.2370, 52357.00
713.3910, 52182.00
714.5450, 51595.00
715.6980, 51163.00
716.8520, 50493.00
718.0050, 49691.00
719.1580, 49089.00
720.3110, 48445.75
721.4640, 47995.00
722.6170, 47053.00
723.7700, 46123.00
724.9220, 44956.00
726.0740, 44396.00
727.2260, 43367.00
728.3780, 42462.00
729.5300, 41786.00
730.6810, 40761.00
731.8330, 39852.00
732.9840, 39201.00
734.1350, 38233.00
735.2860, 37664.00
736.4370, 37043.00
737.5880, 36470.00
738.7380, 35791.18
739.8880, 35206.43
741.0390, 34529.00
742.1890, 34012.00
743.3380, 33629.00
744.4880, 33103.00
745.6380, 32845.00
746.7870, 32465.00
747.9360, 32188.00
749.0850, 32083.00
750.2340, 31709.00
751.3830, 31611.00
752.5310, 31638.00
753.6800, 31409.00
754.8280, 31084.00
755.9760, 31051.00
757.1240, 30699.00
758.2720, 30674.00
759.4190, 30766.00
760.5670, 29804.00
761.7140, 29774.00
762.8610, 29660.00
764.0080, 29000.00
765.1550, 28813.00
766.3020, 28562.00
767.4480, 28245.00
768.5950, 27766.00
769.7410, 27604.00
770.8870, 27259.00
772.0330, 26857.00
773.1780, 26698.00
774.3240, 26578.00
775.4690, 26109.00
776.6140, 26128.00
777.7590, 26049.00
778.9040, 25972.00
780.0490, 25709.00
781.1940, 25709.00
782.3380, 25523.00
783.4820, 25283.00
784.6260, 25491.00
785.7700, 25168.00
786.9140, 25172.00
788.0580, 25065.00
789.2010, 25001.00
790.3450, 25009.00
791.4880, 24885.89
792.6310, 24565.00
793.7730, 24617.00
794.9160, 24344.00
796.0590, 24002.00
797.2010, 23893.00
798.3430, 23555.00
799.4850, 23245.00
800.6270, 23391.00
801.7690, 23378.00
802.9100, 23612.00
804.0520, 22867.00
805.1930, 22636.00
806.3340, 22527.00
807.4750, 22369.00
808.6160, 22332.00
809.7560, 21999.00
810.8970, 21999.00
812.0370, 22091.00
813.1770, 21870.00
814.3170, 21679.00
815.4570, 21792.00
816.5960, 21645.00
817.7360, 21642.00
818.8750, 21275.00
820.0140, 21240.00
821.1530, 21331.00
822.2920, 21168.00
823.4310, 21316.00
824.5690, 21041.00
825.7070, 21263.00
826.8460, 21120.00
827.9840, 21041.00
829.1220, 20879.00
830.2590, 21062.00
831.3970, 21238.00
832.5340, 21095.00
833.6710, 21213.00
834.8080, 20941.00
835.9450, 21116.00
837.0820, 21364.00
838.2190, 21264.00
839.3550, 21093.00
840.4910, 21388.00
841.6270, 21188.00
842.7630, 21502.00
843.8990, 21516.00
845.0350, 21389.00
846.1700, 21573.00
847.3060, 21513.00
848.4410, 21661.00
849.5760, 21862.00
850.7100, 22010.00
851.8450, 22176.00
852.9800, 22223.00
854.1140, 22491.00
855.2480, 22637.00
856.3820, 22801.00
857.5160, 22769.00
858.6500, 23063.00
859.7830, 23138.00
860.9170, 23594.00
862.0500, 23717.00
863.1830, 23927.00
864.3160, 24194.00
865.4480, 24312.00
866.5810, 24624.00
867.7130, 24938.00
868.8460, 25104.00
869.9780, 25432.00
871.1100, 25754.00
872.2410, 26096.69
873.3730, 26502.00
874.5050, 26902.00
875.6360, 27314.00
876.7670, 27745.00
877.8980, 28140.00
879.0290, 28737.00
880.1590, 29398.00
881.2900, 29911.00
882.4200, 30325.00
883.5500, 30819.00
884.6800, 31434.00
885.8100, 31990.00
886.9400, 32318.00
888.0690, 33096.00
889.1990, 33608.46
890.3280, 34629.00
891.4570, 34886.00
892.5860, 35382.00
893.7140, 36063.00
894.8430, 36510.00
895.9710, 37362.00
897.1000, 38224.00
898.2280, 38871.00
899.3560, 39581.00
900.4830, 40412.00
901.6110, 40952.00
902.7380, 41993.00
903.8660, 42826.00
904.9930, 43622.00
906.1200, 44354.00
907.2460, 45140.00
908.3730, 46126.00
909.5000, 46836.00
910.6260, 47680.00
911.7520, 48632.00
912.8780, 49224.00
914.0040, 49857.00
915.1290, 50512.00
916.2550, 50845.00
917.3800, 51043.00
918.5050, 51680.00
919.6300, 51966.00
920.7550, 51648.00
921.8800, 52037.00
923.0040, 52215.00
924.1290, 52393.00
925.2530, 52247.00
926.3770, 52391.00
927.5010, 52104.00
928.6250, 51947.00
929.7480, 51831.00
930.8720, 51305.00
931.9950, 51314.00
933.1180, 50553.00
934.2410, 50423.00
935.3640, 49683.00
936.4860, 48834.00
937.6090, 48358.00
938.7310, 47451.00
939.8530, 45947.00
940.9750, 45150.00
942.0970, 44203.00
943.2180, 43323.00
944.3400, 42073.00
945.4610, 41319.00
946.5820, 40170.00
947.7030, 39202.00
948.8240, 38667.00
949.9450, 37668.00
951.0650, 36865.00
952.1860, 35952.00
953.3060, 35327.00
954.4260, 34681.00
955.5460, 33969.00
956.6650, 33264.00
957.7850, 32066.00
958.9040, 31352.00
960.0230, 30438.00
961.1420, 29866.00
962.2610, 29014.00
963.3800, 28476.00
964.4990, 27756.00
965.6170, 27388.00
966.7350, 26697.00
967.8530, 26154.00
968.9710, 25844.00
970.0890, 25520.00
971.2070, 25123.00
972.3240, 24853.00
973.4410, 24494.00
974.5580, 24476.00
975.6750, 24333.00
976.7920, 24012.00
977.9090, 23917.00
979.0250, 23583.00
980.1410, 23518.00
981.2580, 23407.00
982.3740, 23328.00
983.4890, 23320.66
984.6050, 23293.00
985.7200, 23304.00
986.8360, 23328.00
987.9510, 23276.00
989.0660, 23400.00
990.1810, 23241.00
991.2950, 23313.00
992.4100, 23405.00
993.5240, 23443.00
994.6390, 23447.00
995.7530, 23566.00
996.8660, 23713.00
997.9800, 23878.00
999.0940, 24225.00
1000.207, 24370.00
1001.320, 24377.00
1002.433, 24653.00
1003.546, 24694.00
1004.659, 24615.00
1005.772, 24894.00
1006.884, 24979.00
1007.996, 25066.00
1009.108, 25438.00
1010.220, 25691.00
1011.332, 25996.00
1012.444, 26492.00
1013.555, 26910.00
1014.666, 26834.00
1015.777, 27739.00
1016.888, 27615.00
1017.999, 28087.00
1019.110, 28683.00
1020.220, 28922.00
1021.331, 29237.00
1022.441, 29564.00
1023.551, 29723.00
1024.661, 29928.00
1025.770, 30113.00
1026.880, 30580.00
1027.989, 30379.00
1029.098, 30575.00
1030.207, 30642.00
1031.316, 30507.00
1032.425, 30565.00
1033.533, 30347.00
1034.642, 30146.00
1035.750, 30118.00
1036.858, 29905.00
1037.966, 29376.00
1039.073, 29345.00
1040.181, 28827.00
1041.288, 28447.00
1042.396, 28198.00
1043.503, 27932.00
1044.610, 27630.00
1045.716, 27265.00
1046.823, 26889.00
1047.929, 26835.00
1049.036, 26382.00
1050.142, 26141.00
1051.248, 25888.00
1052.353, 25845.00
1053.459, 25578.00
1054.564, 25571.00
1055.670, 25214.00
1056.775, 25167.00
1057.880, 25106.00
1058.985, 24953.00
1060.089, 24718.00
1061.194, 24816.00
1062.298, 24633.00
1063.402, 24459.00
1064.506, 24688.00
1065.610, 24579.00
1066.713, 24675.00
1067.817, 24478.00
1068.920, 24693.00
1070.023, 24480.00
1071.126, 24629.00
1072.229, 24706.00
1073.332, 24692.00
1074.435, 24913.00
1075.537, 24861.00
1076.639, 24673.00
1077.741, 24748.00
1078.843, 25081.00
1079.945, 24742.00
1081.046, 24716.00
1082.148, 24746.00
1083.249, 24528.00
1084.350, 24491.00
1085.451, 24565.00
1086.551, 24404.00
1087.652, 24469.00
1088.752, 24427.00
1089.853, 23916.00
1090.953, 24047.00
1092.053, 24020.00
1093.152, 23713.00
1094.252, 23963.00
1095.351, 23790.00
1096.451, 23639.00
1097.550, 23466.00
1098.649, 23462.00
1099.748, 23259.00
1100.846, 23259.00
1101.945, 23105.00
1103.043, 23058.00
1104.141, 22973.00
1105.239, 22929.00
1106.337, 22770.00
1107.434, 22772.00
1108.532, 22575.00
1109.629, 22515.00
1110.726, 22496.00
1111.823, 22455.00
1112.920, 22394.44
1114.017, 22492.00
1115.113, 22280.00
1116.210, 22197.00
1117.306, 22151.00
1118.402, 22203.00
1119.498, 22030.00
1120.593, 22221.00
1121.689, 22171.00
1122.784, 22021.00
1123.879, 22139.00
1124.974, 22079.00
1126.069, 22014.00
1127.164, 22106.00
1128.259, 22081.00
1129.353, 22086.00
1130.447, 21851.00
1131.541, 22023.00
1132.635, 21906.00
1133.729, 21783.00
1134.822, 22038.00
1135.916, 21892.00
1137.009, 22121.00
1138.102, 21856.00
1139.195, 22045.00
1140.288, 21948.00
1141.380, 21981.00
1142.473, 21980.00
1143.565, 21906.00
1144.657, 21764.00
1145.749, 21796.00
1146.841, 21766.00
1147.932, 21916.00
1149.024, 21875.00
1150.115, 21913.00
1151.206, 21950.00
1152.297, 21958.00
1153.388, 22019.46
1154.479, 21933.00
1155.569, 22090.00
1156.659, 22070.00
1157.750, 22021.00
1158.839, 21896.00
1159.929, 21840.00
1161.019, 22034.00
1162.108, 22034.00
1163.198, 21877.00
1164.287, 21991.00
1165.376, 21900.00
1166.465, 22034.00
1167.553, 22041.00
1168.642, 21955.00
1169.730, 21942.00
1170.818, 22043.00
1171.906, 21935.00
1172.994, 22172.00
1174.082, 22082.00
1175.170, 22164.00
1176.257, 22110.00
1177.344, 22138.00
1178.431, 22023.00
1179.518, 22240.00
1180.605, 22185.39
1181.691, 22023.00
1182.778, 22190.00
1183.864, 22251.00
1184.950, 22145.00
1186.036, 22230.00
1187.122, 22007.00
1188.207, 22079.00
1189.292, 22134.00
1190.378, 22139.00
1191.463, 22218.88
1192.548, 22118.00
1193.632, 22283.00
1194.717, 22232.00
1195.801, 22140.00
1196.886, 22430.00
1197.970, 22090.00
1199.054, 22247.00
1200.137, 22298.00
1201.221, 22246.00
1202.305, 22249.00
1203.388, 22255.00
1204.471, 22302.00
1205.554, 22342.00
1206.637, 22293.29
1207.719, 22328.00
1208.802, 22219.00
1209.884, 22267.00
1210.966, 22292.00
1212.048, 22332.00
1213.130, 22317.00
1214.212, 22317.00
1215.293, 22571.00
1216.374, 22531.00
1217.456, 22475.00
1218.536, 22386.00
1219.617, 22377.00
1220.698, 22421.00
1221.778, 22502.00
1222.859, 22464.00
1223.939, 22395.00
1225.019, 22488.00
1226.099, 22460.53
1227.178, 22501.00
1228.258, 22508.00
1229.337, 22654.00
1230.417, 22672.00
1231.496, 23151.00
1232.574, 22554.00
1233.653, 22627.00
1234.732, 22481.00
1235.810, 23028.00
1236.888, 22737.00
1237.966, 22655.00
1239.044, 22910.00
1240.122, 22686.00
1241.199, 22663.00
1242.277, 22736.00
1243.354, 22702.00
1244.431, 22715.79
1245.508, 22739.27
1246.585, 22697.00
1247.661, 22816.00
1248.738, 22782.00
1249.814, 22926.00
1250.890, 22862.00
1251.966, 22830.00
1253.042, 22807.00
1254.117, 23010.00
1255.193, 22861.00
