##NAMES=Astrophyllite
##RRUFFID=R060103
##IDEAL CHEMISTRY=K_2_NaFe^2+^_7_Ti^4+^_2_(Si_4_O_12_)_2_O_2_(OH)_4_F
##LOCALITY=Brivik, Norway
##OWNER=RRUFF
##SOURCE=University of Arizona Mineral Museum
##DESCRIPTION=Brown fragment embedded in matrix
##STATUS=The identification of this mineral is confirmed by single-crystal X-ray diffraction and chemical analysis.
##URL=rruff.info/R060103
##MEASURED CHEMISTRY=K_2.00_Na_1.00_(Fe^2+^_0.55_Mn_0.32_Fe^3+^_0.04_Mg_0.04_Ca_0.04_)_7_(Ti_0.66_Zr_0.18_Al_0.16_)_2_Si_8.00_O_26_(OH)_4_F_1.00_
##PIN_ID=M01031
##ORIENTATION=Laser parallel to c* (0 0 1). Fiducial mark perpendicular to laser is parallel to a [1 0 0]
150.1650, 13371.00
151.3980, 13422.00
152.6310, 13417.00
153.8640, 13363.00
155.0960, 13405.00
156.3280, 13511.00
157.5600, 13539.00
158.7920, 13624.00
160.0240, 13779.00
161.2560, 13892.00
162.4870, 13916.00
163.7180, 13967.00
164.9490, 14099.00
166.1800, 14229.00
167.4110, 14246.00
168.6410, 14254.00
169.8720, 14280.00
171.1020, 14315.00
172.3320, 14280.00
173.5620, 14212.27
174.7910, 14085.00
176.0210, 13997.00
177.2500, 13855.00
178.4790, 13727.00
179.7080, 13676.00
180.9370, 13533.00
182.1650, 13493.00
183.3940, 13307.00
184.6220, 13120.00
185.8500, 13032.00
187.0780, 13029.00
188.3050, 13011.00
189.5330, 12959.20
190.7600, 12909.00
191.9870, 12944.00
193.2140, 13021.00
194.4410, 13141.00
195.6680, 13115.00
196.8940, 13078.00
198.1200, 13026.00
199.3470, 13069.00
200.5720, 13096.00
201.7980, 13313.00
203.0240, 13482.00
204.2490, 13397.00
205.4740, 13472.00
206.6990, 13482.00
207.9240, 13496.00
209.1490, 13508.00
210.3740, 13537.00
211.5980, 13661.00
212.8220, 13943.00
214.0460, 13957.00
215.2700, 14046.00
216.4930, 14412.00
217.7170, 14511.00
218.9400, 14527.00
220.1630, 14861.00
221.3860, 14982.00
222.6090, 15178.00
223.8320, 15370.00
225.0540, 15465.00
226.2760, 15628.00
227.4980, 15940.00
228.7200, 15949.00
229.9420, 16123.00
231.1630, 16350.00
232.3850, 16411.00
233.6060, 16585.00
234.8270, 16547.00
236.0480, 16665.00
237.2690, 16670.00
238.4890, 16696.00
239.7090, 16518.00
240.9290, 16555.00
242.1490, 16360.00
243.3690, 16398.00
244.5890, 16439.00
245.8080, 16330.00
247.0270, 16316.00
248.2470, 16246.00
249.4650, 16262.00
250.6840, 15969.00
251.9030, 15944.00
253.1210, 15791.00
254.3390, 15816.00
255.5570, 15836.00
256.7750, 15791.00
257.9930, 15795.00
259.2100, 15784.00
260.4280, 15682.00
261.6450, 15245.00
262.8620, 15034.00
264.0790, 14899.00
265.2950, 14679.00
266.5120, 14464.00
267.7280, 14227.00
268.9440, 13994.00
270.1600, 13949.00
271.3760, 13693.00
272.5920, 13671.00
273.8070, 13504.00
275.0220, 13267.00
276.2370, 13107.00
277.4520, 13073.00
278.6670, 13110.00
279.8820, 13062.00
281.0960, 12819.00
282.3100, 12811.00
283.5240, 12664.00
284.7380, 12776.00
285.9520, 12672.00
287.1650, 12568.00
288.3780, 12519.00
289.5920, 12606.00
290.8050, 12592.00
292.0170, 12545.00
293.2300, 12736.00
294.4430, 12616.00
295.6550, 12667.00
296.8670, 12776.00
298.0790, 12684.00
299.2910, 12741.00
300.5020, 12608.00
301.7140, 12753.00
302.9250, 12665.00
304.1360, 12789.00
305.3470, 12702.00
306.5580, 12755.00
307.7680, 12680.00
308.9780, 12786.00
310.1890, 12737.00
311.3990, 12751.00
312.6090, 12924.00
313.8180, 12733.00
315.0280, 12821.00
316.2370, 12888.00
317.4460, 12781.00
318.6550, 13010.00
319.8640, 12884.00
321.0730, 13050.00
322.2810, 12952.00
323.4890, 13005.00
324.6980, 13011.00
325.9060, 12912.00
327.1130, 13035.00
328.3210, 12985.00
329.5280, 13161.00
330.7360, 13212.00
331.9430, 13215.00
333.1500, 13274.00
334.3560, 13292.00
335.5630, 13330.00
336.7690, 13371.00
337.9760, 13419.00
339.1820, 13714.00
340.3870, 13690.00
341.5930, 13705.00
342.7990, 13969.00
344.0040, 13894.00
345.2090, 14158.00
346.4140, 14286.00
347.6190, 14313.00
348.8240, 14414.00
350.0280, 14562.00
351.2330, 14684.00
352.4370, 14680.00
353.6410, 14868.00
354.8440, 14889.35
356.0480, 15025.00
357.2520, 14963.00
358.4550, 14925.00
359.6580, 14882.21
360.8610, 14963.00
362.0640, 14817.00
363.2660, 14890.00
364.4690, 14841.00
365.6710, 14588.00
366.8730, 14635.00
368.0750, 14484.00
369.2770, 14347.00
370.4780, 14424.00
371.6800, 14256.00
372.8810, 14286.00
374.0820, 14026.00
375.2830, 14251.00
376.4830, 14023.00
377.6840, 13940.00
378.8840, 14042.00
380.0840, 14026.00
381.2840, 13924.00
382.4840, 13940.00
383.6840, 14069.00
384.8830, 13994.00
386.0830, 14094.00
387.2820, 14067.00
388.4810, 13898.00
389.6800, 13960.00
390.8780, 13919.00
392.0770, 13902.00
393.2750, 13768.00
394.4730, 13893.00
395.6710, 13652.00
396.8690, 13735.00
398.0660, 13611.00
399.2640, 13589.00
400.4610, 13471.00
401.6580, 13555.00
402.8550, 13538.00
404.0520, 13447.00
405.2490, 13670.00
406.4450, 13475.00
407.6410, 13515.00
408.8370, 13545.00
410.0330, 13501.00
411.2290, 13522.00
412.4240, 13480.00
413.6200, 13544.00
414.8150, 13573.00
416.0100, 13590.00
417.2050, 13750.00
418.4000, 13689.00
419.5940, 13866.00
420.7880, 13765.00
421.9830, 13805.00
423.1770, 13673.00
424.3700, 13647.00
425.5640, 13608.92
426.7580, 13740.00
427.9510, 13556.00
429.1440, 13453.00
430.3370, 13498.00
431.5300, 13300.00
432.7220, 13363.00
433.9150, 13282.00
435.1070, 13175.00
436.2990, 13170.00
437.4910, 13324.00
438.6830, 13112.00
439.8750, 13128.00
441.0660, 13111.00
442.2570, 12975.00
443.4480, 13029.00
444.6390, 12967.00
445.8300, 12989.00
447.0210, 13131.00
448.2110, 13152.00
449.4010, 13020.00
450.5910, 13117.00
451.7810, 13108.00
452.9710, 13077.00
454.1610, 13053.00
455.3500, 13115.79
456.5390, 13376.00
457.7280, 13288.00
458.9170, 13377.00
460.1060, 13534.00
461.2940, 13508.00
462.4830, 13652.00
463.6710, 13564.00
464.8590, 13756.00
466.0470, 13687.00
467.2350, 13848.00
468.4220, 13722.00
469.6090, 13917.00
470.7970, 13894.00
471.9840, 13956.00
473.1700, 13784.00
474.3570, 13828.00
475.5440, 13860.00
476.7300, 13995.00
477.9160, 13844.00
479.1020, 13777.00
480.2880, 13904.00
481.4740, 14081.00
482.6590, 13960.00
483.8440, 14191.00
485.0300, 14068.00
486.2140, 14013.00
487.3990, 14143.00
488.5840, 14238.00
489.7680, 14220.00
490.9530, 14337.00
492.1370, 14292.00
493.3210, 14299.00
494.5040, 14433.00
495.6880, 14433.00
496.8720, 14409.00
498.0550, 14659.00
499.2380, 14581.00
500.4210, 14359.00
501.6040, 14469.00
502.7860, 14465.00
503.9690, 14627.00
505.1510, 14632.00
506.3330, 14519.00
507.5150, 14366.00
508.6970, 14311.00
509.8780, 14232.00
511.0600, 14184.00
512.2410, 14017.00
513.4220, 13919.00
514.6030, 13801.00
515.7840, 13929.00
516.9640, 13821.00
518.1440, 13820.00
519.3250, 13746.00
520.5050, 13822.00
521.6850, 13877.00
522.8640, 13642.00
524.0440, 13639.00
525.2230, 13721.00
526.4020, 13783.00
527.5820, 13723.00
528.7600, 13748.00
529.9390, 13744.00
531.1180, 13792.89
532.2960, 13902.00
533.4740, 13937.00
534.6520, 13913.00
535.8300, 13988.00
537.0080, 13878.00
538.1850, 14124.00
539.3630, 14008.00
540.5400, 14267.00
541.7170, 14367.00
542.8940, 14437.00
544.0700, 14567.00
545.2470, 14602.00
546.4230, 14790.00
547.5990, 15096.00
548.7750, 15236.00
549.9510, 15639.00
551.1270, 15710.00
552.3020, 16066.00
553.4780, 16514.00
554.6530, 16488.00
555.8280, 16846.00
557.0030, 17021.00
558.1770, 17262.00
559.3520, 17293.00
560.5260, 17346.00
561.7000, 17296.00
562.8740, 17294.00
564.0480, 17165.00
565.2220, 16989.00
566.3950, 17022.00
567.5680, 16667.00
568.7420, 16717.00
569.9150, 16541.00
571.0870, 16375.00
572.2600, 16277.00
573.4320, 16046.00
574.6050, 15901.00
575.7770, 15825.00
576.9490, 15887.00
578.1210, 15808.00
579.2920, 15716.00
580.4640, 15721.00
581.6350, 15683.32
582.8060, 15665.00
583.9770, 15685.00
585.1480, 15755.00
586.3190, 15762.00
587.4890, 15986.00
588.6590, 15893.00
589.8290, 15967.00
590.9990, 16043.00
592.1690, 16275.00
593.3390, 16201.00
594.5080, 16230.00
595.6770, 16408.00
596.8470, 16281.00
598.0160, 16535.00
599.1840, 16525.00
600.3530, 16490.00
601.5210, 16509.00
602.6900, 16546.00
603.8580, 16509.32
605.0260, 16510.20
606.1930, 16475.00
607.3610, 16456.00
608.5280, 16447.00
609.6960, 16412.00
610.8630, 16738.00
612.0300, 16504.00
613.1970, 16733.00
614.3630, 16589.00
615.5300, 16887.00
616.6960, 16850.00
617.8620, 16955.00
619.0280, 17179.00
620.1940, 17320.00
621.3590, 17346.00
622.5250, 17427.00
623.6900, 17587.00
624.8550, 17563.00
626.0200, 17638.00
627.1850, 17748.00
628.3490, 17823.00
629.5140, 17847.30
630.6780, 17727.00
631.8420, 17932.00
633.0060, 17748.00
634.1700, 17903.00
635.3330, 17876.00
636.4970, 18123.67
637.6600, 18501.00
638.8230, 18746.00
639.9860, 19142.00
641.1490, 19487.00
642.3110, 19872.00
643.4740, 20306.00
644.6360, 20794.00
645.7980, 21529.00
646.9600, 22010.00
648.1220, 22663.00
649.2840, 23328.00
650.4450, 23784.00
651.6060, 24302.00
652.7670, 24575.00
653.9280, 24879.00
655.0890, 24836.00
656.2500, 24659.00
657.4100, 24067.00
658.5700, 23568.00
659.7300, 23090.00
660.8900, 22548.00
662.0500, 21851.00
663.2100, 21477.00
664.3690, 20848.00
665.5280, 20448.00
666.6880, 20428.00
667.8460, 20079.00
669.0050, 20078.00
670.1640, 19894.00
671.3220, 19974.00
672.4810, 19910.00
673.6390, 19922.00
674.7970, 20031.00
675.9540, 19939.00
677.1120, 20180.00
678.2690, 20314.02
679.4270, 20585.00
680.5840, 20707.00
681.7410, 21013.00
682.8980, 21121.00
684.0540, 21271.00
685.2110, 21590.00
686.3670, 21680.00
687.5230, 22068.00
688.6790, 22386.00
689.8350, 22251.00
690.9900, 22422.00
692.1460, 22943.00
693.3010, 23006.00
694.4560, 23081.00
695.6110, 23317.00
696.7660, 23305.00
697.9210, 23487.00
699.0750, 23715.00
700.2290, 23743.00
701.3840, 23777.00
702.5370, 23869.00
703.6910, 24193.00
704.8450, 24162.00
705.9980, 24232.00
707.1520, 24405.00
708.3050, 24349.00
709.4580, 24327.00
710.6110, 24519.00
711.7630, 24503.00
712.9160, 24518.00
714.0680, 24525.00
715.2200, 24364.00
716.3720, 24419.00
717.5240, 24254.00
718.6760, 24095.00
719.8270, 24001.00
720.9780, 23955.00
722.1300, 23615.00
723.2810, 23507.00
724.4310, 23447.00
725.5820, 23230.00
726.7330, 23087.60
727.8830, 22726.00
729.0330, 22660.00
730.1830, 22224.00
731.3330, 21909.00
732.4830, 21770.00
733.6320, 21386.00
734.7810, 21331.00
735.9310, 21140.00
737.0800, 20834.00
738.2290, 20732.00
739.3770, 20641.00
740.5260, 20432.00
741.6740, 20330.00
742.8220, 20275.00
743.9700, 19973.00
745.1180, 19883.00
746.2660, 19845.00
747.4130, 19668.00
748.5610, 19705.00
749.7080, 19744.00
750.8550, 19722.00
752.0020, 19651.00
753.1490, 19694.00
754.2950, 19545.00
755.4420, 19369.00
756.5880, 19453.00
757.7340, 19580.00
758.8800, 19441.00
760.0250, 19401.00
761.1710, 19447.00
762.3160, 19464.00
763.4620, 19458.00
764.6070, 19055.00
765.7520, 19068.00
766.8960, 19009.00
768.0410, 19144.00
769.1850, 18951.00
770.3300, 18940.00
771.4740, 18868.00
772.6180, 18803.00
773.7610, 18741.00
774.9050, 18631.00
776.0480, 18824.00
777.1920, 18744.00
778.3350, 18559.00
779.4780, 18636.00
780.6200, 18473.00
781.7630, 18573.00
782.9060, 18485.00
784.0480, 18553.00
785.1900, 18698.00
786.3320, 18831.00
787.4740, 18524.00
788.6150, 18449.00
789.7570, 18229.72
790.8980, 18405.03
792.0390, 18502.10
793.1800, 18525.14
794.3210, 18252.42
795.4620, 18361.61
796.6020, 18317.76
797.7420, 18267.62
798.8830, 18430.57
800.0230, 18200.87
801.1620, 18360.44
802.3020, 18364.62
803.4420, 18453.00
804.5810, 18246.00
805.7200, 18556.00
806.8590, 18452.00
807.9980, 18602.00
809.1370, 18611.00
810.2750, 18728.00
811.4140, 18702.00
812.5520, 18707.00
813.6900, 18636.00
814.8280, 18585.00
815.9650, 18483.00
817.1030, 18391.57
818.2400, 18136.00
819.3780, 18214.00
820.5150, 18097.00
821.6520, 18093.00
822.7880, 18097.80
823.9250, 18047.00
825.0610, 18088.00
826.1980, 18064.00
827.3340, 18049.00
828.4700, 18178.00
829.6050, 18153.00
830.7410, 18192.00
831.8760, 18177.00
833.0120, 18091.00
834.1470, 18285.00
835.2820, 18370.00
836.4160, 18338.00
837.5510, 18490.00
838.6860, 18373.00
839.8200, 18502.00
840.9540, 18442.00
842.0880, 18439.00
843.2220, 18692.00
844.3550, 18912.00
845.4890, 18978.00
846.6220, 19328.00
847.7550, 19344.00
848.8880, 19383.00
850.0210, 20093.00
851.1540, 20205.00
852.2860, 20776.00
853.4190, 20638.00
854.5510, 21073.00
855.6830, 21339.00
856.8150, 21303.00
857.9460, 21728.00
859.0780, 21580.00
860.2090, 21606.00
861.3410, 21184.00
862.4720, 21080.00
863.6020, 20924.00
864.7330, 20820.00
865.8640, 20636.00
866.9940, 20409.00
868.1240, 20188.00
869.2540, 20133.00
870.3840, 20004.00
871.5140, 20043.00
872.6440, 20036.00
873.7730, 19908.00
874.9020, 20099.00
876.0320, 19962.00
877.1600, 20095.00
878.2890, 20244.00
879.4180, 20449.00
880.5460, 20454.00
881.6750, 20779.00
882.8030, 20724.00
883.9310, 20803.00
885.0590, 20924.00
886.1860, 21040.41
887.3140, 21207.00
888.4410, 21401.00
889.5680, 21621.00
890.6950, 21800.00
891.8220, 22063.00
892.9490, 22237.71
894.0750, 22369.91
895.2020, 22642.00
896.3280, 22581.00
897.4540, 22807.00
898.5800, 22899.00
899.7050, 23056.13
900.8310, 23423.00
901.9560, 23449.00
903.0820, 23706.00
904.2070, 23916.00
905.3320, 23949.00
906.4560, 24172.00
907.5810, 24425.00
908.7050, 24534.00
909.8300, 24839.00
910.9540, 24779.00
912.0780, 24966.00
913.2010, 25217.00
914.3250, 25246.00
915.4480, 25254.00
916.5720, 25475.00
917.6950, 25270.00
918.8180, 25285.00
919.9410, 25450.00
921.0630, 25266.00
922.1860, 25414.00
923.3080, 25213.00
924.4300, 25046.00
925.5520, 25003.00
926.6740, 24909.00
927.7960, 24780.35
928.9170, 24759.00
930.0390, 24580.00
931.1600, 24570.00
932.2810, 24551.00
933.4020, 24370.00
934.5230, 24164.00
935.6430, 23900.00
936.7640, 23717.00
937.8840, 23565.00
939.0040, 23349.00
940.1240, 23089.00
941.2440, 22921.00
942.3630, 22727.00
943.4830, 22535.27
944.6020, 22418.00
945.7210, 22212.00
946.8400, 22110.00
947.9590, 22006.00
949.0770, 21799.00
950.1960, 21814.00
951.3140, 21941.00
952.4320, 21706.00
953.5500, 21703.00
954.6680, 21506.00
955.7860, 21284.00
956.9030, 21189.00
958.0210, 20976.00
959.1380, 20834.00
960.2550, 20936.00
961.3720, 20929.00
962.4890, 20701.00
963.6050, 20584.00
964.7220, 20439.00
965.8380, 20456.00
966.9540, 20141.00
968.0700, 20276.00
969.1860, 20197.00
970.3010, 19993.00
971.4170, 19995.00
972.5320, 20095.00
973.6470, 20072.00
974.7620, 20175.00
975.8770, 20026.00
976.9910, 19942.00
978.1060, 19792.00
979.2200, 19958.00
980.3340, 19868.00
981.4480, 19878.00
982.5620, 20089.00
983.6760, 19890.00
984.7890, 20112.00
985.9030, 20290.00
987.0160, 20143.00
988.1290, 20333.00
989.2420, 20109.00
990.3550, 20179.00
991.4670, 20257.00
992.5800, 20530.00
993.6920, 20386.00
994.8040, 20560.00
995.9160, 20714.00
997.0280, 21128.00
998.1390, 21366.00
999.2510, 21452.00
1000.362, 21697.00
1001.473, 21881.00
1002.584, 22046.00
1003.695, 21854.00
1004.805, 21788.00
1005.916, 21385.00
1007.026, 21452.00
1008.136, 21475.00
1009.246, 21449.00
1010.356, 21458.00
1011.466, 21484.00
1012.576, 21505.00
1013.685, 21811.00
1014.794, 22020.00
1015.903, 22113.00
1017.012, 22168.00
1018.121, 22436.00
1019.229, 22625.00
1020.338, 22530.00
1021.446, 22870.00
1022.554, 22941.00
1023.662, 22890.00
1024.770, 22963.00
1025.878, 22991.50
1026.985, 23107.00
1028.092, 23054.00
1029.200, 23151.00
1030.307, 23133.00
1031.413, 22908.00
1032.520, 23154.00
1033.627, 23039.00
1034.733, 22969.00
1035.839, 23026.00
1036.945, 22894.99
1038.051, 22571.00
1039.157, 22787.00
1040.262, 22540.00
1041.368, 22569.00
1042.473, 22403.00
1043.578, 22265.00
1044.683, 22054.00
1045.788, 21920.27
1046.893, 21917.00
1047.997, 21635.00
1049.101, 21624.00
1050.205, 21528.42
1051.309, 21631.00
1052.413, 21549.00
1053.517, 21540.00
1054.621, 21617.00
1055.724, 21196.00
1056.827, 21329.00
1057.930, 21155.00
1059.033, 21269.00
1060.136, 21175.00
1061.238, 21247.00
1062.341, 21288.00
1063.443, 21144.00
1064.545, 21167.00
1065.647, 21097.00
1066.749, 21136.69
1067.850, 21157.19
1068.952, 21295.00
1070.053, 21251.00
1071.154, 21390.00
1072.255, 21468.00
1073.356, 21478.00
1074.457, 21575.00
1075.557, 21533.00
1076.658, 21538.00
1077.758, 21633.00
1078.858, 21721.00
1079.958, 21809.00
1081.057, 21779.00
1082.157, 22088.00
1083.256, 21972.00
1084.356, 22064.00
1085.455, 21933.00
1086.554, 21886.00
1087.653, 21965.00
1088.751, 22061.00
1089.850, 21816.00
1090.948, 21894.00
1092.046, 21854.00
1093.144, 22104.00
1094.242, 21793.00
1095.340, 21796.00
1096.437, 22166.00
1097.534, 22095.00
1098.632, 22212.00
1099.729, 22105.00
1100.826, 22215.00
1101.922, 22074.00
1103.019, 22212.00
1104.115, 22327.00
1105.212, 22374.00
1106.308, 22489.00
1107.404, 22514.00
1108.499, 22764.00
1109.595, 22667.00
1110.691, 22899.00
1111.786, 22743.00
1112.881, 22646.00
1113.976, 22630.00
1115.071, 22608.00
1116.166, 22600.00
1117.260, 22521.00
1118.355, 22248.00
1119.449, 22223.00
1120.543, 22025.00
1121.637, 22066.00
1122.731, 22004.00
1123.824, 21928.00
1124.918, 21968.00
1126.011, 21872.00
1127.104, 21657.00
1128.197, 21843.00
1129.290, 21771.00
1130.382, 21753.00
1131.475, 21910.00
1132.567, 21784.00
1133.659, 22014.00
1134.751, 21810.00
1135.843, 21797.00
1136.935, 21796.00
1138.027, 21815.00
1139.118, 21679.00
1140.209, 21668.00
1141.300, 21681.00
1142.391, 21793.00
1143.482, 21829.00
1144.573, 21882.00
1145.663, 21728.00
1146.754, 21799.00
1147.844, 21773.24
1148.934, 21896.00
1150.024, 21790.00
1151.113, 21949.00
1152.203, 21986.00
1153.292, 21920.00
1154.381, 22402.00
1155.470, 22223.00
1156.559, 22175.00
1157.648, 22045.00
1158.737, 22318.00
1159.825, 22227.00
1160.913, 22230.00
1162.001, 22259.00
1163.089, 22281.00
1164.177, 22223.00
1165.265, 22416.00
1166.352, 22294.00
1167.440, 22359.00
1168.527, 22161.00
1169.614, 22327.00
1170.701, 22257.00
1171.788, 22456.00
1172.874, 22134.00
1173.961, 22222.00
1175.047, 22429.00
1176.133, 22622.00
1177.219, 22354.00
1178.305, 22320.00
1179.390, 22334.00
1180.476, 22191.00
1181.561, 22299.00
1182.646, 22423.00
1183.731, 22337.00
1184.816, 22371.00
1185.901, 22247.00
1186.985, 22335.00
1188.070, 22448.00
1189.154, 22443.00
1190.238, 22307.00
1191.322, 22243.00
1192.406, 22247.00
1193.489, 22203.00
1194.573, 22169.00
1195.656, 22310.00
1196.739, 22298.00
1197.822, 22142.00
1198.905, 22364.00
1199.988, 22518.00
1201.070, 22377.00
1202.153, 22543.00
1203.235, 22243.00
1204.317, 22429.00
1205.399, 22360.00
1206.481, 22371.00
1207.562, 22533.00
1208.644, 22186.00
1209.725, 22845.00
1210.806, 23067.00
1211.887, 22625.00
1212.968, 22666.00
1214.049, 22737.00
1215.129, 22927.00
1216.209, 22834.00
1217.290, 22803.00
1218.370, 22827.00
1219.450, 22664.00
1220.529, 22886.00
1221.609, 23000.00
1222.688, 22950.00
1223.768, 22896.00
1224.847, 22880.00
1225.926, 23096.00
1227.005, 23086.00
1228.083, 23186.00
1229.162, 23233.00
1230.240, 23044.00
1231.318, 23242.00
1232.396, 23144.00
1233.474, 23333.00
1234.552, 23584.00
1235.629, 23574.00
1236.707, 23363.00
1237.784, 23554.00
1238.861, 23442.00
1239.938, 23494.00
1241.015, 23599.00
1242.092, 23770.00
1243.168, 23648.00
1244.244, 23759.00
1245.321, 23787.00
1246.397, 23818.00
1247.473, 23926.00
1248.548, 23733.00
1249.624, 23819.00
1250.699, 23883.00
1251.775, 23670.00
1252.850, 23853.00
1253.925, 23797.00
1254.999, 23911.00
1256.074, 23991.00
1257.148, 24066.00
1258.223, 23787.00
1259.297, 23960.00
1260.371, 23797.00
1261.445, 23830.00
1262.519, 23916.52
1263.592, 24152.00
1264.666, 24080.00
1265.739, 24218.00
1266.812, 24318.00
1267.885, 24335.00
1268.958, 24385.00
1270.030, 24417.00
1271.103, 24715.00
1272.175, 24486.00
1273.247, 24637.00
1274.319, 24488.00
1275.391, 24555.00
1276.463, 24316.00
1277.535, 24326.00
1278.606, 24156.00
1279.677, 24010.00
1280.748, 24219.00
1281.819, 24409.00
1282.890, 24482.00
1283.961, 24172.00
1285.031, 24297.00
1286.102, 24264.00
1287.172, 24203.00
1288.242, 24248.00
1289.312, 24434.00
1290.381, 24332.00
1291.451, 24472.00
1292.520, 24427.00
1293.590, 24520.00
1294.659, 24567.00
1295.728, 24771.00
1296.797, 24696.00
1297.865, 24507.00
1298.934, 24806.00
1300.002, 24684.00
1301.070, 24793.00
1302.138, 24370.00
1303.206, 24569.00
1304.274, 24541.00
1305.341, 24684.00
1306.409, 24528.00
1307.476, 24745.00
1308.543, 24815.00
1309.610, 24870.00
1310.677, 24671.00
1311.744, 24980.00
1312.810, 25040.00
1313.877, 24912.00
1314.943, 25169.00
1316.009, 24904.00
1317.075, 24984.00
