##NAMES=Astrophyllite
##RRUFFID=R060202
##IDEAL CHEMISTRY=K_2_NaFe^2+^_7_Ti^4+^_2_(Si_4_O_12_)_2_O_2_(OH)_4_F
##LOCALITY=Demix Quarry, Mont Saint-Hilaire, Rouville County, Quebec, Canada
##OWNER=RRUFF
##SOURCE=Royal Ontario Museum
##DESCRIPTION=Aggregate of brown splintered wafers
##STATUS=The identification of this mineral has been confirmed by X-ray diffraction and chemical analysis
##URL=rruff.info/R060202
##MEASURED CHEMISTRY=(K_0.56_Na_0.38_Ca_0.06_)_3_(Fe^2+^_0.52_Mn_0.44_Mg_0.04_)_7_(Ti_0.75_Zr_0.15_Al_0.15_)_2_Si_8_O_24_(O_0.27_OH_0.73_)_7_
##PIN_ID=M00255
##ORIENTATION=Laser parallel to (0 1 1). Fiducial mark perpendicular to laser is parallel to a [1 0 0]
87.30800, 20287.00
88.54200, 20625.00
89.77700, 21473.00
91.01200, 21803.00
92.24600, 22379.00
93.48000, 22913.00
94.71400, 22944.00
95.94800, 23666.00
97.18200, 23724.00
98.41600, 23851.00
99.64900, 24265.00
100.8830, 23968.00
102.1160, 23845.00
103.3490, 23677.00
104.5820, 23456.00
105.8150, 23439.00
107.0470, 23568.00
108.2800, 23665.00
109.5120, 23525.58
110.7440, 24509.00
111.9760, 23342.00
113.2080, 22993.00
114.4400, 23075.00
115.6710, 23724.00
116.9030, 23908.00
118.1340, 24017.00
119.3650, 24039.00
120.5960, 23778.00
121.8270, 23625.00
123.0580, 23628.00
124.2880, 23770.00
125.5190, 23765.94
126.7490, 23830.00
127.9790, 23977.00
129.2090, 23807.00
130.4390, 23920.00
131.6680, 23685.00
132.8980, 23466.00
134.1270, 23257.00
135.3560, 23089.00
136.5850, 23035.72
137.8140, 23007.00
139.0430, 23011.00
140.2710, 22928.14
141.5000, 22867.21
142.7280, 22773.00
143.9560, 22781.00
145.1840, 22675.00
146.4120, 22833.00
147.6390, 23096.00
148.8670, 23326.00
150.0940, 23075.00
151.3210, 23490.00
152.5490, 23592.00
153.7750, 24015.00
155.0020, 24243.00
156.2290, 24379.00
157.4550, 24603.00
158.6810, 24951.00
159.9080, 25238.00
161.1340, 25523.66
162.3590, 25753.00
163.5850, 26124.00
164.8110, 26377.00
166.0360, 26689.00
167.2610, 26478.00
168.4860, 26711.00
169.7110, 26410.00
170.9360, 26431.00
172.1610, 26324.00
173.3850, 26153.00
174.6100, 25674.00
175.8340, 25518.00
177.0580, 25083.00
178.2820, 25013.00
179.5050, 24836.00
180.7290, 25039.00
181.9520, 24788.00
183.1760, 24739.00
184.3990, 24728.00
185.6220, 24654.00
186.8450, 24732.00
188.0670, 24797.00
189.2900, 25039.00
190.5120, 25050.00
191.7340, 25316.00
192.9560, 25460.00
194.1780, 25494.00
195.4000, 25740.00
196.6220, 25914.00
197.8430, 26193.00
199.0640, 26453.64
200.2860, 26683.00
201.5070, 26964.00
202.7270, 27308.00
203.9480, 27434.00
205.1690, 27212.00
206.3890, 26977.00
207.6090, 26772.00
208.8290, 27133.00
210.0490, 27170.00
211.2690, 27630.00
212.4890, 27711.00
213.7080, 27796.00
214.9280, 28117.00
216.1470, 28313.00
217.3660, 28678.00
218.5850, 28940.00
219.8030, 29073.00
221.0220, 29246.00
222.2400, 29959.00
223.4590, 29953.00
224.6770, 30342.00
225.8950, 30881.00
227.1120, 30887.00
228.3300, 31483.00
229.5480, 31735.00
230.7650, 31775.00
231.9820, 32190.00
233.1990, 32262.00
234.4160, 32448.00
235.6330, 32498.00
236.8490, 32447.00
238.0660, 32711.00
239.2820, 32733.00
240.4980, 32736.00
241.7140, 32552.00
242.9300, 32264.00
244.1460, 32221.00
245.3610, 32111.00
246.5770, 32118.00
247.7920, 31979.00
249.0070, 31693.00
250.2220, 31475.00
251.4370, 31506.00
252.6510, 31220.00
253.8660, 31077.00
255.0800, 30868.12
256.2940, 30619.43
257.5080, 30411.00
258.7220, 30252.00
259.9360, 30131.00
261.1490, 30193.00
262.3630, 29352.00
263.5760, 28917.00
264.7890, 28356.00
266.0020, 28205.00
267.2150, 27821.00
268.4270, 27358.00
269.6400, 27366.00
270.8520, 27043.00
272.0640, 26759.00
273.2760, 26606.00
274.4880, 26591.00
275.7000, 26316.00
276.9120, 26344.00
278.1230, 25983.00
279.3340, 26108.00
280.5450, 25971.00
281.7560, 25977.00
282.9670, 25982.00
284.1780, 25986.00
285.3880, 26023.00
286.5980, 25950.00
287.8090, 25952.00
289.0190, 25952.22
290.2290, 25990.00
291.4380, 25950.00
292.6480, 26026.00
293.8570, 26024.00
295.0670, 26125.00
296.2760, 26117.00
297.4850, 26074.00
298.6930, 26093.66
299.9020, 26115.00
301.1110, 26032.00
302.3190, 26113.00
303.5270, 26071.00
304.7350, 26094.00
305.9430, 26175.00
307.1510, 26309.00
308.3580, 26139.00
309.5660, 25963.00
310.7730, 26436.00
311.9800, 26290.00
313.1870, 26369.00
314.3940, 26268.00
315.6010, 26366.00
316.8070, 26371.63
318.0130, 26172.00
319.2200, 26412.00
320.4260, 26489.00
321.6310, 26459.00
322.8370, 26629.00
324.0430, 26769.00
325.2480, 26685.00
326.4540, 26960.00
327.6590, 26821.00
328.8640, 26890.00
330.0680, 27254.00
331.2730, 27079.00
332.4780, 27424.00
333.6820, 27251.00
334.8860, 27359.00
336.0900, 27292.00
337.2940, 27609.00
338.4980, 27735.00
339.7010, 27713.00
340.9050, 27745.00
342.1080, 27945.63
343.3110, 27972.00
344.5140, 28272.00
345.7170, 28249.00
346.9200, 28238.00
348.1220, 28118.00
349.3240, 28340.00
350.5270, 28237.00
351.7290, 28202.00
352.9310, 28390.00
354.1320, 28474.00
355.3340, 28493.00
356.5350, 28768.00
357.7370, 28519.00
358.9380, 28445.00
360.1390, 28486.00
361.3400, 28695.00
362.5400, 28503.00
363.7410, 28459.00
364.9410, 28652.00
366.1410, 28461.00
367.3410, 28397.00
368.5410, 28548.00
369.7410, 28530.00
370.9400, 28654.00
372.1400, 28503.00
373.3390, 28472.00
374.5380, 28600.00
375.7370, 28562.00
376.9360, 28671.00
378.1350, 28617.00
379.3330, 28675.00
380.5310, 28817.00
381.7300, 28749.00
382.9280, 28798.00
384.1260, 28751.83
385.3230, 28640.69
386.5210, 28582.00
387.7180, 28469.00
388.9160, 28317.00
390.1130, 28408.00
391.3100, 28445.00
392.5060, 28307.00
393.7030, 28361.00
394.9000, 28147.00
396.0960, 28116.00
397.2920, 28189.00
398.4880, 28209.00
399.6840, 27956.00
400.8800, 28291.00
402.0750, 28146.00
403.2710, 28091.00
404.4660, 28313.00
405.6610, 28185.00
406.8560, 28198.00
408.0510, 27980.00
409.2450, 28137.00
410.4400, 28171.00
411.6340, 28032.00
412.8280, 28047.00
414.0220, 28226.00
415.2160, 28077.00
416.4100, 28123.00
417.6030, 28153.00
418.7970, 28052.00
419.9900, 28168.00
421.1830, 28142.91
422.3760, 28052.00
423.5690, 28189.00
424.7610, 27865.00
425.9540, 27867.00
427.1460, 27713.00
428.3380, 27835.00
429.5300, 27832.00
430.7220, 27593.00
431.9140, 27346.00
433.1050, 27439.00
434.2970, 27513.00
435.4880, 27544.00
436.6790, 27382.00
437.8700, 27150.00
439.0610, 27296.00
440.2510, 27360.00
441.4420, 27189.00
442.6320, 27360.00
443.8220, 27270.00
445.0120, 27258.00
446.2020, 27435.00
447.3910, 27562.00
448.5810, 27321.00
449.7700, 27508.00
450.9600, 27418.00
452.1490, 27611.00
453.3370, 27753.00
454.5260, 27454.00
455.7150, 27766.00
456.9030, 27977.00
458.0910, 28028.00
459.2800, 28312.00
460.4670, 28109.00
461.6550, 28344.00
462.8430, 28502.00
464.0300, 28435.00
465.2180, 28584.00
466.4050, 28463.00
467.5920, 28811.00
468.7790, 28428.00
469.9650, 28739.00
471.1520, 28637.00
472.3380, 28816.00
473.5250, 28873.00
474.7110, 28694.00
475.8970, 28886.00
477.0820, 28770.00
478.2680, 28847.00
479.4540, 28775.00
480.6390, 28449.00
481.8240, 28486.00
483.0090, 28445.00
484.1940, 28543.00
485.3780, 28878.00
486.5630, 28616.00
487.7470, 28685.00
488.9320, 28651.00
490.1160, 28460.00
491.3000, 28450.00
492.4830, 28547.00
493.6670, 28435.00
494.8500, 28481.82
496.0340, 28515.00
497.2170, 28557.00
498.4000, 28465.00
499.5820, 28661.00
500.7650, 28513.00
501.9480, 28704.00
503.1300, 28556.00
504.3120, 28762.00
505.4940, 28720.00
506.6760, 28578.00
507.8580, 28490.00
509.0390, 28693.00
510.2210, 28535.00
511.4020, 28736.00
512.5830, 28761.00
513.7640, 28894.00
514.9450, 28950.00
516.1250, 28790.00
517.3060, 28815.00
518.4860, 28967.00
519.6660, 28794.00
520.8460, 28767.00
522.0260, 28834.00
523.2060, 28866.00
524.3850, 29138.00
525.5650, 29145.00
526.7440, 29249.00
527.9230, 29244.00
529.1020, 29206.00
530.2810, 29305.00
531.4590, 29578.00
532.6380, 29559.00
533.8160, 30028.00
534.9940, 29896.00
536.1720, 29973.00
537.3500, 30322.00
538.5270, 30282.00
539.7050, 30553.00
540.8820, 30845.00
542.0590, 31178.00
543.2360, 31462.00
544.4130, 31758.00
545.5900, 32079.00
546.7660, 32437.00
547.9430, 32804.00
549.1190, 33201.94
550.2950, 33634.00
551.4710, 33966.00
552.6470, 34336.00
553.8220, 34557.00
554.9980, 34517.00
556.1730, 34790.00
557.3480, 35014.00
558.5230, 34743.00
559.6980, 34793.00
560.8730, 34685.00
562.0470, 34450.00
563.2220, 34545.00
564.3960, 34299.00
565.5700, 34236.00
566.7440, 33966.00
567.9170, 33678.00
569.0910, 33872.00
570.2640, 33505.00
571.4380, 33123.00
572.6110, 33160.00
573.7840, 33197.00
574.9570, 33017.00
576.1290, 33079.00
577.3020, 33224.00
578.4740, 33140.00
579.6460, 33020.00
580.8180, 32932.00
581.9900, 32905.16
583.1620, 32952.64
584.3330, 32945.00
585.5040, 33140.00
586.6760, 33328.00
587.8470, 33411.00
589.0180, 33526.02
590.1880, 33706.00
591.3590, 33606.00
592.5290, 33581.00
593.7000, 33508.00
594.8700, 33724.00
596.0400, 33719.00
597.2090, 33793.00
598.3790, 33785.00
599.5490, 33904.00
600.7180, 33934.41
601.8870, 33893.00
603.0560, 33990.00
604.2250, 33849.00
605.3940, 33744.00
606.5620, 34056.00
607.7300, 33990.00
608.8990, 34190.00
610.0670, 34114.00
611.2350, 34389.00
612.4020, 34411.00
613.5700, 34405.00
614.7370, 34426.00
615.9050, 34674.00
617.0720, 34852.00
618.2390, 34989.00
619.4060, 35434.00
620.5720, 35198.00
621.7390, 35398.00
622.9050, 35234.00
624.0710, 35697.00
625.2370, 35903.00
626.4030, 35999.00
627.5690, 36163.00
628.7340, 36477.00
629.9000, 36565.00
631.0650, 36882.00
632.2300, 37198.00
633.3950, 37468.00
634.5600, 37837.00
635.7240, 38320.00
636.8890, 38494.00
638.0530, 39165.00
639.2170, 39625.00
640.3810, 40367.00
641.5450, 41132.00
642.7080, 41765.00
643.8720, 42800.00
645.0350, 43821.00
646.1980, 44875.00
647.3610, 46020.00
648.5240, 46770.00
649.6870, 47512.00
650.8490, 48111.00
652.0120, 48434.00
653.1740, 48401.00
654.3360, 48458.00
655.4980, 47745.00
656.6600, 46748.00
657.8210, 46250.00
658.9830, 44961.00
660.1440, 45185.00
661.3050, 45232.00
662.4660, 45049.00
663.6270, 43656.00
664.7870, 43321.00
665.9480, 43190.00
667.1080, 42640.00
668.2680, 42596.26
669.4280, 42295.00
670.5880, 42532.00
671.7480, 42661.00
672.9070, 43025.00
674.0670, 43175.00
675.2260, 43458.00
676.3850, 43724.35
677.5440, 43977.02
678.7030, 44244.00
679.8610, 44557.00
681.0200, 44825.00
682.1780, 45126.00
683.3360, 45676.00
684.4940, 45876.00
685.6520, 46208.00
686.8090, 46510.00
687.9670, 46690.00
689.1240, 46863.00
690.2810, 47199.00
691.4380, 47196.00
692.5950, 47432.42
693.7520, 47522.00
694.9080, 47694.00
696.0650, 47884.00
697.2210, 47924.00
698.3770, 47940.00
699.5330, 48172.00
700.6880, 48136.00
701.8440, 48149.00
702.9990, 48535.00
704.1550, 48677.00
705.3100, 48399.00
706.4650, 48217.00
707.6190, 48076.00
708.7740, 48505.00
709.9290, 48633.00
711.0830, 48220.00
712.2370, 48099.00
713.3910, 48106.00
714.5450, 47697.00
715.6980, 47386.00
716.8520, 47212.00
718.0050, 46968.00
719.1580, 46700.00
720.3110, 46288.00
721.4640, 46134.00
722.6170, 45903.00
723.7700, 45428.00
724.9220, 44955.00
726.0740, 44527.00
727.2260, 44637.00
728.3780, 44117.00
729.5300, 43784.00
730.6810, 43248.00
731.8330, 43104.00
732.9840, 42990.00
734.1350, 42667.00
735.2860, 42175.00
736.4370, 42369.00
737.5880, 41709.00
738.7380, 41550.00
739.8880, 41569.00
741.0390, 41345.00
742.1890, 41326.00
743.3380, 41192.14
744.4880, 40886.00
745.6380, 40914.00
746.7870, 40778.00
747.9360, 40589.00
749.0850, 40781.00
750.2340, 40396.00
751.3830, 40168.00
752.5310, 40390.00
753.6800, 40227.00
754.8280, 40141.00
755.9760, 39991.00
757.1240, 39836.56
758.2720, 39812.00
759.4190, 39523.00
760.5670, 39472.00
761.7140, 39343.00
762.8610, 39379.00
764.0080, 39193.00
765.1550, 38949.00
766.3020, 38915.00
767.4480, 38619.00
768.5950, 38595.00
769.7410, 38631.00
770.8870, 38199.00
772.0330, 38053.00
773.1780, 37930.00
774.3240, 37754.00
775.4690, 37896.00
776.6140, 37662.00
777.7590, 37729.00
778.9040, 37505.00
780.0490, 37363.00
781.1940, 37772.00
782.3380, 37702.00
783.4820, 37610.00
784.6260, 37494.00
785.7700, 37312.00
786.9140, 37434.00
788.0580, 37106.00
789.2010, 37194.00
790.3450, 37312.00
791.4880, 36970.00
792.6310, 37362.00
793.7730, 37194.00
794.9160, 37236.00
796.0590, 37061.00
797.2010, 36945.00
798.3430, 37006.00
799.4850, 36658.00
800.6270, 36930.00
801.7690, 36775.00
802.9100, 36645.00
804.0520, 36846.00
805.1930, 36884.00
806.3340, 36875.00
807.4750, 37048.00
808.6160, 36828.00
809.7560, 36521.00
810.8970, 36906.00
812.0370, 36799.00
813.1770, 36372.00
814.3170, 36517.00
815.4570, 36584.00
816.5960, 36571.00
817.7360, 36777.00
818.8750, 36658.00
820.0140, 36792.00
821.1530, 36765.00
822.2920, 36643.00
823.4310, 36829.00
824.5690, 36720.00
825.7070, 36793.00
826.8460, 36817.00
827.9840, 37042.00
829.1220, 37016.65
830.2590, 36873.00
831.3970, 37082.00
832.5340, 36987.00
833.6710, 37036.00
834.8080, 36906.00
835.9450, 36949.00
837.0820, 36954.42
838.2190, 37072.00
839.3550, 37018.00
840.4910, 37121.00
841.6270, 37180.00
842.7630, 37399.00
843.8990, 37364.00
845.0350, 37504.00
846.1700, 37457.09
847.3060, 37451.00
848.4410, 37487.00
849.5760, 37503.74
850.7100, 37649.54
851.8450, 37615.00
852.9800, 37780.00
854.1140, 37874.55
855.2480, 38074.00
856.3820, 38206.00
857.5160, 38417.00
858.6500, 38623.00
859.7830, 38495.00
860.9170, 38796.00
862.0500, 38732.00
863.1830, 39230.00
864.3160, 39168.00
865.4480, 39457.00
866.5810, 39526.10
867.7130, 39512.00
868.8460, 39608.00
869.9780, 40047.00
871.1100, 40174.00
872.2410, 40333.00
873.3730, 40412.00
874.5050, 40612.53
875.6360, 40928.00
876.7670, 41009.00
877.8980, 41209.00
879.0290, 41457.00
880.1590, 41482.00
881.2900, 41755.00
882.4200, 42109.00
883.5500, 42068.00
884.6800, 42551.00
885.8100, 42753.00
886.9400, 42828.00
888.0690, 43094.00
889.1990, 43440.00
890.3280, 43649.00
891.4570, 43897.00
892.5860, 43966.00
893.7140, 44401.00
894.8430, 44520.00
895.9710, 45024.00
897.1000, 45450.00
898.2280, 45440.00
899.3560, 45831.00
900.4830, 46260.00
901.6110, 46359.00
902.7380, 46669.00
903.8660, 46496.00
904.9930, 47328.00
906.1200, 47661.00
907.2460, 47182.00
908.3730, 47902.00
909.5000, 47961.00
910.6260, 48039.00
911.7520, 48251.00
912.8780, 48722.00
914.0040, 48939.00
915.1290, 48875.00
916.2550, 49261.00
917.3800, 49189.00
918.5050, 49469.00
919.6300, 49385.00
920.7550, 49153.00
921.8800, 49426.00
923.0040, 49147.00
924.1290, 49136.00
925.2530, 49403.00
926.3770, 48838.00
927.5010, 48818.00
928.6250, 49002.00
929.7480, 48958.00
930.8720, 48623.00
931.9950, 48742.00
933.1180, 48208.00
934.2410, 48501.00
935.3640, 48218.00
936.4860, 47887.00
937.6090, 47837.00
938.7310, 47275.00
939.8530, 47320.00
940.9750, 47068.00
942.0970, 46873.00
943.2180, 46811.00
944.3400, 46416.00
945.4610, 46402.00
946.5820, 46017.00
947.7030, 46029.00
948.8240, 46195.00
949.9450, 45524.00
951.0650, 45689.00
952.1860, 45647.00
953.3060, 45227.00
954.4260, 45244.00
955.5460, 44730.00
956.6650, 44291.00
957.7850, 44447.00
958.9040, 44042.00
960.0230, 43975.00
961.1420, 43569.00
962.2610, 43584.00
963.3800, 43377.00
964.4990, 43138.00
965.6170, 43020.00
966.7350, 42910.43
967.8530, 42759.82
968.9710, 42847.00
970.0890, 42582.00
971.2070, 42650.00
972.3240, 42672.00
973.4410, 42450.00
974.5580, 42593.00
975.6750, 42447.00
976.7920, 42639.00
977.9090, 42534.00
979.0250, 42538.00
980.1410, 42637.00
981.2580, 42456.00
982.3740, 42551.00
983.4890, 42531.00
984.6050, 42511.00
985.7200, 42433.00
986.8360, 42579.00
987.9510, 42530.00
989.0660, 42763.00
990.1810, 42795.00
991.2950, 42996.00
992.4100, 43097.00
993.5240, 43212.47
994.6390, 43347.00
995.7530, 43434.00
996.8660, 43521.00
997.9800, 43572.00
999.0940, 43728.13
1000.207, 43793.00
1001.320, 44058.00
1002.433, 44196.00
1003.546, 44417.00
1004.659, 44575.71
1005.772, 44472.00
1006.884, 44923.00
1007.996, 44930.00
1009.108, 45194.00
1010.220, 45379.00
1011.332, 45588.00
1012.444, 45874.00
1013.555, 46153.00
1014.666, 46378.00
1015.777, 46485.00
1016.888, 47017.00
1017.999, 46920.00
1019.110, 47457.00
1020.220, 47629.00
1021.331, 47659.00
1022.441, 47778.00
1023.551, 48156.00
1024.661, 47981.00
1025.770, 48191.00
1026.880, 48281.00
1027.989, 48241.00
1029.098, 48277.00
1030.207, 48452.00
1031.316, 48187.00
1032.425, 48444.00
1033.533, 48239.00
1034.642, 47952.00
1035.750, 48007.00
1036.858, 47887.00
1037.966, 47770.00
1039.073, 47347.00
1040.181, 47450.00
1041.288, 47096.00
1042.396, 47012.00
1043.503, 46591.00
1044.610, 46817.00
1045.716, 46786.00
1046.823, 46803.00
1047.929, 46659.00
1049.036, 46518.09
1050.142, 46330.00
1051.248, 46108.00
1052.353, 46124.00
1053.459, 45935.00
1054.564, 45628.00
1055.670, 45831.00
1056.775, 45824.00
1057.880, 46075.00
1058.985, 46050.61
1060.089, 45836.00
1061.194, 46063.00
1062.298, 46128.00
1063.402, 46171.00
1064.506, 45750.00
1065.610, 46029.00
1066.713, 45959.00
1067.817, 45909.00
1068.920, 46225.00
1070.023, 45845.00
1071.126, 45910.00
1072.229, 46266.00
1073.332, 45967.00
1074.435, 46404.00
1075.537, 46323.00
1076.639, 45952.00
1077.741, 45913.00
1078.843, 46156.00
1079.945, 46521.00
1081.046, 46493.00
1082.148, 46198.00
1083.249, 46073.00
1084.350, 46466.00
1085.451, 46443.00
1086.551, 46490.00
1087.652, 46618.00
1088.752, 46489.00
1089.853, 46429.00
1090.953, 46475.00
1092.053, 46422.00
1093.152, 46382.00
1094.252, 46337.00
1095.351, 46600.00
1096.451, 46437.00
1097.550, 46362.00
1098.649, 46835.00
1099.748, 46304.00
1100.846, 46412.00
1101.945, 46399.00
1103.043, 46521.00
1104.141, 46298.00
1105.239, 46134.00
1106.337, 46213.00
1107.434, 46325.00
1108.532, 46310.00
1109.629, 46376.00
1110.726, 46328.00
1111.823, 46394.00
1112.920, 46198.00
1114.017, 46556.00
1115.113, 46207.00
1116.210, 46557.00
1117.306, 46449.00
1118.402, 46509.00
1119.498, 46398.00
1120.593, 46559.00
1121.689, 46652.00
1122.784, 46448.00
1123.879, 46916.00
1124.974, 46856.00
1126.069, 46595.00
1127.164, 47032.00
1128.259, 46926.00
1129.353, 46721.00
1130.447, 47081.00
1131.541, 47232.00
1132.635, 47005.00
1133.729, 47234.00
1134.822, 46965.00
1135.916, 46874.00
1137.009, 46936.00
1138.102, 47035.00
1139.195, 46983.00
1140.288, 47067.51
1141.380, 47238.00
1142.473, 47155.00
1143.565, 47474.00
1144.657, 47561.00
1145.749, 47700.00
1146.841, 47716.35
1147.932, 47010.00
1149.024, 47576.00
1150.115, 47534.00
1151.206, 47381.00
1152.297, 47730.00
1153.388, 47821.00
1154.479, 47888.00
1155.569, 47722.00
1156.659, 47987.00
1157.750, 48059.00
1158.839, 47694.00
1159.929, 47755.00
1161.019, 47743.00
1162.108, 47865.00
1163.198, 47791.00
1164.287, 48281.00
1165.376, 48326.00
1166.465, 48346.00
1167.553, 48313.00
1168.642, 48381.00
1169.730, 48604.00
1170.818, 48591.00
1171.906, 48296.00
1172.994, 48738.00
1174.082, 48607.00
1175.170, 48487.00
1176.257, 48649.00
1177.344, 48741.00
1178.431, 48627.00
1179.518, 48984.00
1180.605, 48802.00
1181.691, 48841.00
1182.778, 49150.00
1183.864, 49017.00
1184.950, 49215.00
1186.036, 49277.00
1187.122, 49177.00
1188.207, 49289.09
1189.292, 49162.00
1190.378, 49349.00
1191.463, 49376.00
1192.548, 49479.00
1193.632, 49509.07
1194.717, 49385.00
1195.801, 49542.00
1196.886, 49507.00
1197.970, 49568.00
1199.054, 49676.00
1200.137, 49587.00
1201.221, 49413.00
1202.305, 49886.00
1203.388, 49630.00
1204.471, 49825.00
1205.554, 49633.00
1206.637, 49972.00
1207.719, 49878.00
1208.802, 50113.00
1209.884, 49841.00
1210.966, 49854.00
1212.048, 50076.00
1213.130, 50154.00
1214.212, 50042.00
1215.293, 50336.00
1216.374, 49973.00
1217.456, 50166.00
1218.536, 50608.00
1219.617, 50257.00
1220.698, 50503.00
1221.778, 50570.00
1222.859, 50571.00
1223.939, 50795.00
1225.019, 50559.00
1226.099, 50726.00
1227.178, 50670.00
1228.258, 50672.00
1229.337, 50920.00
1230.417, 50718.00
1231.496, 51023.00
1232.574, 50946.00
1233.653, 51021.00
1234.732, 51310.00
1235.810, 51300.00
1236.888, 50986.00
1237.966, 51224.00
1239.044, 51232.00
1240.122, 51204.00
1241.199, 51283.00
1242.277, 51353.00
1243.354, 51282.00
1244.431, 51146.00
1245.508, 51536.00
1246.585, 51527.00
1247.661, 51817.00
1248.738, 51898.00
1249.814, 51607.00
1250.890, 51632.00
1251.966, 51869.00
1253.042, 51690.00
1254.117, 51861.00
1255.193, 51773.00
1256.268, 51827.00
1257.343, 51975.00
1258.418, 52082.00
1259.493, 52054.00
1260.567, 52293.00
1261.642, 52617.00
