##NAMES=Astrophyllite
##RRUFFID=R060202
##IDEAL CHEMISTRY=K_2_NaFe^2+^_7_Ti^4+^_2_(Si_4_O_12_)_2_O_2_(OH)_4_F
##LOCALITY=Demix Quarry, Mont Saint-Hilaire, Rouville County, Quebec, Canada
##OWNER=RRUFF
##SOURCE=Royal Ontario Museum
##DESCRIPTION=Aggregate of brown splintered wafers
##STATUS=The identification of this mineral has been confirmed by X-ray diffraction and chemical analysis
##URL=rruff.info/R060202
##MEASURED CHEMISTRY=(K_0.56_Na_0.38_Ca_0.06_)_3_(Fe^2+^_0.52_Mn_0.44_Mg_0.04_)_7_(Ti_0.75_Zr_0.15_Al_0.15_)_2_Si_8_O_24_(O_0.27_OH_0.73_)_7_
##PIN_ID=M00260
##ORIENTATION=Laser parallel to -b* (0 -1 0). Fiducial mark perpendicular to laser is parallel to c [0 0 1]
143.9560, 22367.15
145.1840, 22469.00
146.4120, 22757.00
147.6390, 23038.00
148.8670, 23247.39
150.0940, 23534.68
151.3210, 23729.00
152.5490, 24056.00
153.7750, 24225.00
155.0020, 24484.00
156.2290, 24598.00
157.4550, 24902.00
158.6810, 24959.00
159.9080, 25479.00
161.1340, 25453.00
162.3590, 25910.00
163.5850, 25801.00
164.8110, 25549.00
166.0360, 25457.00
167.2610, 25230.00
168.4860, 25015.00
169.7110, 24830.00
170.9360, 24403.00
172.1610, 24407.00
173.3850, 23860.00
174.6100, 23746.00
175.8340, 23825.00
177.0580, 23617.00
178.2820, 23274.00
179.5050, 23130.00
180.7290, 23414.00
181.9520, 23164.00
183.1760, 23459.00
184.3990, 23365.00
185.6220, 23484.00
186.8450, 23597.00
188.0670, 23913.00
189.2900, 24211.00
190.5120, 24630.00
191.7340, 24792.00
192.9560, 25051.00
194.1780, 25456.00
195.4000, 25603.00
196.6220, 25772.00
197.8430, 26130.00
199.0640, 26364.00
200.2860, 26750.00
201.5070, 26393.00
202.7270, 25911.00
203.9480, 25697.00
205.1690, 25885.00
206.3890, 26101.00
207.6090, 26132.00
208.8290, 26559.00
210.0490, 26999.00
211.2690, 27399.00
212.4890, 27826.00
213.7080, 27915.00
214.9280, 28238.00
216.1470, 28529.00
217.3660, 28793.00
218.5850, 29406.00
219.8030, 29754.00
221.0220, 30318.00
222.2400, 30650.88
223.4590, 31060.00
224.6770, 31255.00
225.8950, 31789.00
227.1120, 32021.00
228.3300, 32170.00
229.5480, 32722.00
230.7650, 32866.00
231.9820, 32863.00
233.1990, 33256.00
234.4160, 32968.00
235.6330, 33025.00
236.8490, 32794.00
238.0660, 32527.00
239.2820, 32100.00
240.4980, 31815.00
241.7140, 31601.00
242.9300, 31516.00
244.1460, 31370.00
245.3610, 30981.00
246.5770, 30880.00
247.7920, 30687.00
249.0070, 30708.00
250.2220, 30397.00
251.4370, 29894.00
252.6510, 29949.00
253.8660, 29634.00
255.0800, 29068.00
256.2940, 29814.00
257.5080, 30416.00
258.7220, 28573.00
259.9360, 27133.00
261.1490, 26491.00
262.3630, 26086.00
263.5760, 25785.00
264.7890, 25317.00
266.0020, 24951.00
267.2150, 24319.00
268.4270, 24027.00
269.6400, 23678.00
270.8520, 23649.00
272.0640, 23234.00
273.2760, 23282.00
274.4880, 23066.00
275.7000, 22553.00
276.9120, 22805.00
278.1230, 22289.00
279.3340, 22363.00
280.5450, 22387.00
281.7560, 22443.00
282.9670, 22109.00
284.1780, 22134.00
285.3880, 22170.00
286.5980, 21972.00
287.8090, 22152.00
289.0190, 22006.00
290.2290, 21939.00
291.4380, 22008.00
292.6480, 22042.00
293.8570, 21804.00
295.0670, 22046.00
296.2760, 22003.00
297.4850, 21913.00
298.6930, 22148.00
299.9020, 21945.00
301.1110, 22117.00
302.3190, 22179.00
303.5270, 21990.00
304.7350, 22178.00
305.9430, 22189.00
307.1510, 22104.00
308.3580, 22039.00
309.5660, 22251.00
310.7730, 22307.00
311.9800, 22269.00
313.1870, 22354.00
314.3940, 22315.00
315.6010, 22531.00
316.8070, 22576.00
318.0130, 22396.00
319.2200, 22576.00
320.4260, 22495.00
321.6310, 22595.00
322.8370, 22597.00
324.0430, 22605.00
325.2480, 22850.00
326.4540, 22962.00
327.6590, 22933.00
328.8640, 23292.00
330.0680, 23363.00
331.2730, 23427.00
332.4780, 23584.00
333.6820, 23746.00
334.8860, 23883.00
336.0900, 23899.00
337.2940, 24075.00
338.4980, 24117.00
339.7010, 24073.00
340.9050, 24276.00
342.1080, 23998.48
343.3110, 24208.94
344.5140, 24343.02
345.7170, 24404.83
346.9200, 24177.89
348.1220, 24323.78
349.3240, 24320.24
350.5270, 24310.61
351.7290, 24508.98
352.9310, 24324.01
354.1320, 24519.04
355.3340, 24562.41
356.5350, 24675.17
357.7370, 24761.00
358.9380, 24454.00
360.1390, 24515.00
361.3400, 24363.00
362.5400, 24368.00
363.7410, 24205.00
364.9410, 24103.00
366.1410, 24170.00
367.3410, 23972.00
368.5410, 23987.00
369.7410, 24206.00
370.9400, 24159.00
372.1400, 24261.94
373.3390, 24221.00
374.5380, 24325.00
375.7370, 24301.00
376.9360, 24213.00
378.1350, 24402.00
379.3330, 24228.00
380.5310, 24263.00
381.7300, 24039.00
382.9280, 24035.96
384.1260, 24091.00
385.3230, 23963.00
386.5210, 23861.00
387.7180, 23808.24
388.9160, 23764.63
390.1130, 23807.00
391.3100, 23767.00
392.5060, 23779.00
393.7030, 23827.00
394.9000, 23838.00
396.0960, 23753.00
397.2920, 23505.00
398.4880, 23544.00
399.6840, 23486.00
400.8800, 23437.00
402.0750, 23405.00
403.2710, 23402.29
404.4660, 23386.07
405.6610, 23499.00
406.8560, 23474.00
408.0510, 23673.00
409.2450, 23912.00
410.4400, 23753.00
411.6340, 23916.00
412.8280, 24070.00
414.0220, 23694.00
415.2160, 23868.00
416.4100, 23754.00
417.6030, 23736.00
418.7970, 23705.00
419.9900, 23639.00
421.1830, 23366.00
422.3760, 23364.00
423.5690, 23112.00
424.7610, 22722.00
425.9540, 22810.00
427.1460, 22834.00
428.3380, 22408.00
429.5300, 22325.00
430.7220, 22138.00
431.9140, 22237.00
433.1050, 22072.00
434.2970, 22105.00
435.4880, 22080.12
436.6790, 21892.00
437.8700, 21963.00
439.0610, 21902.00
440.2510, 21683.00
441.4420, 21674.00
442.6320, 21657.00
443.8220, 21770.00
445.0120, 21722.00
446.2020, 21770.00
447.3910, 21643.00
448.5810, 21817.00
449.7700, 22031.00
450.9600, 22091.00
452.1490, 21964.00
453.3370, 22359.00
454.5260, 22406.00
455.7150, 22735.00
456.9030, 22838.71
458.0910, 23023.00
459.2800, 23035.00
460.4670, 23153.00
461.6550, 23248.00
462.8430, 23249.00
464.0300, 23458.00
465.2180, 23333.00
466.4050, 23257.00
467.5920, 23211.00
468.7790, 23283.00
469.9650, 23247.00
471.1520, 23172.00
472.3380, 23257.00
473.5250, 23178.00
474.7110, 23211.00
475.8970, 23233.00
477.0820, 23200.00
478.2680, 23124.00
479.4540, 22969.00
480.6390, 23010.00
481.8240, 23019.00
483.0090, 23136.00
484.1940, 23131.00
485.3780, 22881.00
486.5630, 22726.00
487.7470, 22791.00
488.9320, 22710.00
490.1160, 22735.00
491.3000, 22712.00
492.4830, 22645.00
493.6670, 22462.00
494.8500, 22573.00
496.0340, 22417.00
497.2170, 22684.00
498.4000, 22562.00
499.5820, 22506.00
500.7650, 22361.00
501.9480, 22470.00
503.1300, 22261.00
504.3120, 22512.00
505.4940, 22660.00
506.6760, 22548.00
507.8580, 22440.00
509.0390, 22206.00
510.2210, 22429.00
511.4020, 22444.00
512.5830, 22295.00
513.7640, 22336.00
514.9450, 22385.00
516.1250, 22101.00
517.3060, 22422.00
518.4860, 22297.00
519.6660, 22559.00
520.8460, 22377.00
522.0260, 22569.00
523.2060, 22576.00
524.3850, 22685.00
525.5650, 22612.00
526.7440, 22906.00
527.9230, 22988.00
529.1020, 22884.00
530.2810, 22996.00
531.4590, 23254.00
532.6380, 23480.00
533.8160, 23807.00
534.9940, 24047.00
536.1720, 24344.63
537.3500, 24668.00
538.5270, 24949.00
539.7050, 25443.00
540.8820, 25791.00
542.0590, 26378.00
543.2360, 27202.00
544.4130, 27780.00
545.5900, 28375.00
546.7660, 28763.00
547.9430, 29316.00
549.1190, 29968.00
550.2950, 30375.00
551.4710, 30531.00
552.6470, 30895.00
553.8220, 30781.00
554.9980, 30690.00
556.1730, 30602.00
557.3480, 30093.00
558.5230, 29912.00
559.6980, 29630.00
560.8730, 29334.00
562.0470, 28919.00
563.2220, 28381.00
564.3960, 28071.00
565.5700, 27834.00
566.7440, 27426.00
567.9170, 27306.00
569.0910, 27060.00
570.2640, 26653.00
571.4380, 26670.00
572.6110, 26440.07
573.7840, 26241.00
574.9570, 26247.00
576.1290, 26029.00
577.3020, 25956.00
578.4740, 25844.00
579.6460, 25890.00
580.8180, 26009.00
581.9900, 25915.00
583.1620, 25964.00
584.3330, 25865.00
585.5040, 25942.00
586.6760, 26165.00
587.8470, 26251.00
589.0180, 26191.00
590.1880, 26105.00
591.3590, 26167.00
592.5290, 26173.00
593.7000, 26132.00
594.8700, 26304.00
596.0400, 26270.00
597.2090, 25990.00
598.3790, 26040.00
599.5490, 26126.00
600.7180, 26144.00
601.8870, 26459.00
603.0560, 26155.00
604.2250, 26433.00
605.3940, 26482.00
606.5620, 26351.00
607.7300, 26546.00
608.8990, 26472.00
610.0670, 26760.00
611.2350, 26771.00
612.4020, 26842.00
613.5700, 26865.00
614.7370, 26886.00
615.9050, 27326.00
617.0720, 27502.00
618.2390, 27741.00
619.4060, 27951.00
620.5720, 28150.00
621.7390, 28206.00
622.9050, 28499.00
624.0710, 28615.00
625.2370, 28925.00
626.4030, 29311.00
627.5690, 29469.00
628.7340, 29945.00
629.9000, 30086.00
631.0650, 30834.00
632.2300, 31293.00
633.3950, 31879.00
634.5600, 32772.46
635.7240, 33307.09
636.8890, 34725.00
638.0530, 35083.00
639.2170, 36344.00
640.3810, 38153.00
641.5450, 39103.00
642.7080, 40985.00
643.8720, 42374.00
645.0350, 43973.00
646.1980, 45358.00
647.3610, 46147.00
648.5240, 46280.93
649.6870, 45907.00
650.8490, 45436.00
652.0120, 44376.00
653.1740, 43436.00
654.3360, 42454.00
655.4980, 41116.00
656.6600, 40378.00
657.8210, 39399.00
658.9830, 38638.00
660.1440, 38197.00
661.3050, 37579.00
662.4660, 37354.00
663.6270, 37319.00
664.7870, 37059.00
665.9480, 37241.00
667.1080, 37308.00
668.2680, 37383.00
669.4280, 37839.00
670.5880, 38228.00
671.7480, 38405.00
672.9070, 38814.00
674.0670, 39521.00
675.2260, 39831.00
676.3850, 40351.00
677.5440, 40770.00
678.7030, 41084.00
679.8610, 41750.00
681.0200, 42130.00
682.1780, 42631.00
683.3360, 43108.00
684.4940, 43363.00
685.6520, 43770.00
686.8090, 44194.00
687.9670, 44493.00
689.1240, 44700.00
690.2810, 44950.49
691.4380, 45084.44
692.5950, 45247.00
693.7520, 45299.00
694.9080, 45350.00
696.0650, 45440.00
697.2210, 45567.00
698.3770, 45562.63
699.5330, 45716.00
700.6880, 45635.00
701.8440, 45674.00
702.9990, 45823.00
704.1550, 45427.00
705.3100, 45529.00
706.4650, 44919.00
707.6190, 44953.00
708.7740, 44506.00
709.9290, 44232.00
711.0830, 43982.27
712.2370, 43784.00
713.3910, 43287.00
714.5450, 42924.00
715.6980, 42459.00
716.8520, 41951.00
718.0050, 41319.00
719.1580, 40902.00
720.3110, 40225.98
721.4640, 39647.00
722.6170, 38957.00
723.7700, 38154.00
724.9220, 37544.00
726.0740, 37068.00
727.2260, 36719.00
728.3780, 35676.00
729.5300, 35763.00
730.6810, 34959.00
731.8330, 34700.00
732.9840, 34164.00
734.1350, 33746.00
735.2860, 33614.00
736.4370, 33133.00
737.5880, 32957.00
738.7380, 32486.00
739.8880, 32292.00
741.0390, 32088.73
742.1890, 31862.97
743.3380, 31774.00
744.4880, 31583.00
745.6380, 31457.00
746.7870, 31322.00
747.9360, 31159.00
749.0850, 31199.00
750.2340, 30841.00
751.3830, 30914.00
752.5310, 30836.00
753.6800, 30588.00
754.8280, 30553.00
755.9760, 30133.00
757.1240, 29926.00
758.2720, 29854.71
759.4190, 29593.95
760.5670, 29584.00
761.7140, 29327.00
762.8610, 29201.57
764.0080, 29039.05
765.1550, 28893.00
766.3020, 28661.00
767.4480, 28472.00
768.5950, 28262.00
769.7410, 28211.00
770.8870, 28166.00
772.0330, 28226.00
773.1780, 28092.00
774.3240, 27813.24
775.4690, 27883.94
776.6140, 27878.26
777.7590, 27800.31
778.9040, 27433.62
780.0490, 27439.78
781.1940, 27296.52
782.3380, 27147.21
783.4820, 27205.94
784.6260, 26881.33
785.7700, 26936.76
786.9140, 26840.49
788.0580, 26813.64
789.2010, 26636.54
790.3450, 26505.79
791.4880, 26525.53
792.6310, 26461.98
793.7730, 26267.66
794.9160, 26245.32
796.0590, 25915.55
797.2010, 25855.65
798.3430, 25912.14
799.4850, 25804.00
800.6270, 25412.00
801.7690, 25470.00
802.9100, 25239.00
804.0520, 25389.00
805.1930, 25359.00
806.3340, 25137.00
807.4750, 24916.00
808.6160, 24880.91
809.7560, 24889.00
810.8970, 24760.00
812.0370, 24815.00
813.1770, 24828.00
814.3170, 24650.00
815.4570, 24785.00
816.5960, 24678.00
817.7360, 24612.00
818.8750, 24621.00
820.0140, 24489.00
821.1530, 24572.00
822.2920, 24516.00
823.4310, 24643.00
824.5690, 24587.00
825.7070, 24432.00
826.8460, 24526.00
827.9840, 24489.00
829.1220, 24248.00
830.2590, 24283.00
831.3970, 24339.00
832.5340, 24298.56
833.6710, 24372.61
834.8080, 24403.00
835.9450, 24517.00
837.0820, 24585.00
838.2190, 24764.00
839.3550, 24527.00
840.4910, 24875.00
841.6270, 24561.00
842.7630, 24885.00
843.8990, 24783.00
845.0350, 24801.00
846.1700, 24658.00
847.3060, 25051.00
848.4410, 25050.00
849.5760, 25219.00
850.7100, 25170.00
851.8450, 25352.00
852.9800, 25288.00
854.1140, 25327.00
855.2480, 25608.00
856.3820, 25767.00
857.5160, 25773.00
858.6500, 26072.00
859.7830, 26310.00
860.9170, 26243.00
862.0500, 26279.00
863.1830, 26689.00
864.3160, 26669.00
865.4480, 26739.00
866.5810, 27257.00
867.7130, 27279.00
868.8460, 27428.00
869.9780, 27709.00
871.1100, 27767.00
872.2410, 28059.00
873.3730, 28262.00
874.5050, 28671.00
875.6360, 28844.00
876.7670, 29085.00
877.8980, 29167.00
879.0290, 29610.00
880.1590, 29880.00
881.2900, 30288.00
882.4200, 30302.00
883.5500, 30601.00
884.6800, 30939.00
885.8100, 31030.00
886.9400, 31537.00
888.0690, 31830.63
889.1990, 32423.00
890.3280, 32514.00
891.4570, 33048.00
892.5860, 33191.00
893.7140, 33596.00
894.8430, 33873.00
895.9710, 34331.00
897.1000, 34673.00
898.2280, 35251.00
899.3560, 35494.00
900.4830, 36096.00
901.6110, 36606.00
902.7380, 36984.00
903.8660, 37207.00
904.9930, 37722.00
906.1200, 37887.00
907.2460, 38459.00
908.3730, 38641.00
909.5000, 39219.00
910.6260, 39360.00
911.7520, 39976.00
912.8780, 39777.00
914.0040, 40196.00
915.1290, 40093.00
916.2550, 40435.00
917.3800, 40531.00
918.5050, 40249.00
919.6300, 40782.00
920.7550, 40626.00
921.8800, 40477.00
923.0040, 40396.00
924.1290, 40340.00
925.2530, 40259.00
926.3770, 40064.00
927.5010, 40076.00
928.6250, 39983.00
929.7480, 39572.00
930.8720, 39251.00
931.9950, 39005.00
933.1180, 38397.00
934.2410, 37874.00
935.3640, 37433.00
936.4860, 36827.00
937.6090, 36608.00
938.7310, 35981.00
939.8530, 35439.00
940.9750, 34796.00
942.0970, 34370.00
943.2180, 33580.00
944.3400, 33680.00
945.4610, 33783.00
946.5820, 32615.00
947.7030, 32165.00
948.8240, 31946.00
949.9450, 31497.00
951.0650, 31247.00
952.1860, 30712.00
953.3060, 30311.00
954.4260, 30022.00
955.5460, 29620.00
956.6650, 29295.11
957.7850, 28940.00
958.9040, 28623.00
960.0230, 28494.00
961.1420, 28166.00
962.2610, 27992.84
963.3800, 27815.00
964.4990, 27636.00
965.6170, 27471.00
966.7350, 27343.00
967.8530, 27170.00
968.9710, 27071.51
970.0890, 26975.77
971.2070, 26919.00
972.3240, 26791.00
973.4410, 26810.00
974.5580, 26644.00
975.6750, 26805.00
976.7920, 26732.00
977.9090, 26552.00
979.0250, 26757.00
980.1410, 26588.00
981.2580, 26475.00
982.3740, 26795.00
983.4890, 26788.00
984.6050, 26704.00
985.7200, 26769.00
986.8360, 26654.00
987.9510, 26726.00
989.0660, 26773.00
990.1810, 26883.00
991.2950, 26967.00
992.4100, 27039.86
993.5240, 27162.00
994.6390, 27205.51
995.7530, 27310.00
996.8660, 27409.00
997.9800, 27558.88
999.0940, 27707.60
1000.207, 27902.00
1001.320, 28072.00
1002.433, 28233.15
1003.546, 28458.00
1004.659, 28622.00
1005.772, 28764.00
1006.884, 28944.00
1007.996, 29277.00
1009.108, 29643.00
1010.220, 29850.38
1011.332, 30178.00
1012.444, 30343.00
1013.555, 30546.00
1014.666, 30752.00
1015.777, 30968.84
1016.888, 31304.00
1017.999, 31489.00
1019.110, 31784.00
1020.220, 32168.00
1021.331, 32165.00
1022.441, 32361.00
1023.551, 32557.00
1024.661, 32478.00
1025.770, 32691.00
1026.880, 32656.00
1027.989, 32736.00
1029.098, 32378.00
1030.207, 32338.00
1031.316, 31993.00
1032.425, 31899.00
1033.533, 31956.00
1034.642, 31602.00
1035.750, 31598.00
1036.858, 31060.00
1037.966, 31105.00
1039.073, 30729.55
1040.181, 30770.00
1041.288, 30202.00
1042.396, 29912.00
1043.503, 29879.00
1044.610, 29562.00
1045.716, 29473.00
1046.823, 29096.00
1047.929, 29207.00
1049.036, 28802.00
1050.142, 28739.00
1051.248, 28538.00
1052.353, 28393.00
1053.459, 28256.00
1054.564, 28148.00
1055.670, 28085.00
1056.775, 27928.00
1057.880, 27998.00
1058.985, 27851.00
1060.089, 28001.00
1061.194, 27770.00
1062.298, 28024.00
1063.402, 27890.00
1064.506, 27800.00
1065.610, 27858.00
1066.713, 27914.00
1067.817, 27671.00
1068.920, 27654.00
1070.023, 27818.00
1071.126, 27805.00
1072.229, 27855.00
1073.332, 27855.00
1074.435, 27739.00
1075.537, 27864.12
1076.639, 27729.00
1077.741, 27988.00
1078.843, 27931.00
1079.945, 27898.00
1081.046, 27778.00
1082.148, 27788.00
1083.249, 27759.00
1084.350, 27836.00
1085.451, 27600.00
1086.551, 27527.00
1087.652, 27559.00
1088.752, 27579.00
1089.853, 27351.00
1090.953, 27483.00
1092.053, 27504.00
1093.152, 27338.00
1094.252, 27169.00
1095.351, 27368.00
1096.451, 27177.00
1097.550, 27137.00
1098.649, 27063.00
1099.748, 26981.00
1100.846, 27066.00
1101.945, 26785.00
1103.043, 26911.00
1104.141, 26893.00
1105.239, 26523.00
1106.337, 26688.00
1107.434, 26465.00
1108.532, 26580.00
1109.629, 26475.00
1110.726, 26562.00
1111.823, 26466.00
1112.920, 26482.00
1114.017, 26463.00
1115.113, 26393.00
1116.210, 26417.00
1117.306, 26408.00
1118.402, 26555.00
1119.498, 26467.00
1120.593, 26583.00
1121.689, 26430.00
1122.784, 26532.00
1123.879, 26326.00
1124.974, 26542.00
1126.069, 26863.00
1127.164, 26302.00
1128.259, 26145.00
1129.353, 26309.00
1130.447, 26190.00
1131.541, 26222.00
1132.635, 26306.00
1133.729, 26383.00
1134.822, 26313.00
1135.916, 26524.00
1137.009, 26195.00
1138.102, 26262.00
1139.195, 26075.00
1140.288, 26364.00
1141.380, 26264.00
1142.473, 26198.00
1143.565, 26529.00
1144.657, 26338.00
1145.749, 26252.00
1146.841, 26300.00
1147.932, 26121.00
1149.024, 26149.00
1150.115, 26080.00
1151.206, 26264.00
1152.297, 26300.00
1153.388, 26346.00
1154.479, 26265.00
1155.569, 26283.66
1156.659, 26321.00
1157.750, 26252.00
1158.839, 26294.71
1159.929, 26079.00
1161.019, 26304.00
1162.108, 26226.00
1163.198, 26199.00
1164.287, 26366.00
1165.376, 26094.00
1166.465, 26522.00
1167.553, 26562.00
1168.642, 26392.00
1169.730, 26445.00
1170.818, 26493.00
1171.906, 26575.00
1172.994, 26570.87
1174.082, 26413.00
1175.170, 26554.00
1176.257, 26500.00
1177.344, 26450.00
1178.431, 26544.00
1179.518, 26582.00
1180.605, 26499.00
1181.691, 26412.00
1182.778, 26415.00
1183.864, 26525.00
1184.950, 26602.00
1186.036, 26489.00
1187.122, 26408.00
1188.207, 26671.00
1189.292, 26414.00
1190.378, 26538.00
1191.463, 26305.00
1192.548, 26401.00
1193.632, 26514.00
1194.717, 26367.00
1195.801, 26655.00
1196.886, 26550.00
1197.970, 26528.00
1199.054, 26588.00
1200.137, 26624.00
1201.221, 26708.00
1202.305, 26602.00
1203.388, 26514.00
1204.471, 26419.00
1205.554, 26582.00
1206.637, 26380.00
1207.719, 26663.00
1208.802, 26824.00
1209.884, 26629.83
1210.966, 26657.00
1212.048, 26473.00
1213.130, 26644.00
1214.212, 26847.00
1215.293, 26922.00
1216.374, 26683.00
1217.456, 26838.00
1218.536, 26928.00
1219.617, 26753.00
1220.698, 26916.00
1221.778, 26879.00
1222.859, 26813.00
1223.939, 26979.00
1225.019, 26779.00
1226.099, 26735.00
1227.178, 26935.00
1228.258, 26751.00
1229.337, 26975.00
1230.417, 26856.00
1231.496, 27005.00
1232.574, 26809.00
1233.653, 26838.00
1234.732, 27059.00
1235.810, 27042.00
1236.888, 26831.00
1237.966, 27246.00
1239.044, 27081.00
1240.122, 26886.00
1241.199, 27048.00
1242.277, 26975.00
1243.354, 27225.00
1244.431, 27187.00
1245.508, 26980.00
1246.585, 27216.00
1247.661, 27000.00
1248.738, 27182.00
1249.814, 27130.56
1250.890, 27315.38
1251.966, 27423.83
1253.042, 27460.00
1254.117, 27207.42
1255.193, 27327.70
1256.268, 27298.55
1257.343, 27263.27
1258.418, 27436.02
1259.493, 27225.44
1260.567, 27394.88
1261.642, 27412.63
1262.716, 27499.80
1263.790, 27436.62
1264.864, 27419.88
1265.938, 27553.54
1267.011, 27603.90
1268.085, 27523.42
1269.158, 27614.99
1270.231, 27399.14
1271.304, 27453.05
1272.377, 27623.37
1273.450, 27550.43
1274.522, 27644.74
1275.594, 27675.36
1276.666, 27416.48
1277.738, 27661.05
1278.810, 27687.90
1279.882, 27491.19
1280.953, 27718.50
1282.025, 27552.61
1283.096, 27527.06
1284.167, 27607.14
1285.238, 27577.11
1286.308, 27720.67
1287.379, 27697.00
1288.449, 27658.37
1289.519, 27684.96
1290.589, 27526.75
1291.659, 27711.37
1292.729, 27661.81
1293.798, 27728.64
1294.868, 27821.87
1295.937, 27713.06
1297.006, 27818.13
1298.075, 27591.54
1299.143, 27642.45
1300.212, 27663.49
1301.280, 27861.90
1302.348, 27636.91
1303.416, 27680.11
1304.484, 27837.51
1305.552, 27835.12
1306.620, 27899.54
1307.687, 27766.17
1308.754, 27818.60
1309.821, 27819.82
