##NAMES=Astrophyllite
##RRUFFID=R060103
##IDEAL CHEMISTRY=K_2_NaFe^2+^_7_Ti^4+^_2_(Si_4_O_12_)_2_O_2_(OH)_4_F
##LOCALITY=Brivik, Norway
##OWNER=RRUFF
##SOURCE=University of Arizona Mineral Museum
##DESCRIPTION=Brown fragment embedded in matrix
##STATUS=The identification of this mineral is confirmed by single-crystal X-ray diffraction and chemical analysis.
##URL=rruff.info/R060103
##MEASURED CHEMISTRY=K_2.00_Na_1.00_(Fe^2+^_0.55_Mn_0.32_Fe^3+^_0.04_Mg_0.04_Ca_0.04_)_7_(Ti_0.66_Zr_0.18_Al_0.16_)_2_Si_8.00_O_26_(OH)_4_F_1.00_
##PIN_ID=M01690
##ORIENTATION=Laser parallel to (0 1 1). Fiducial mark perpendicular to laser is parallel to a [1 0 0]
150.1650, 9633.000
151.3980, 9694.000
152.6310, 9645.000
153.8640, 9682.000
155.0960, 9908.000
156.3280, 9879.000
157.5600, 10060.00
158.7920, 10100.00
160.0240, 10229.24
161.2560, 10432.00
162.4870, 10517.00
163.7180, 10666.00
164.9490, 10825.00
166.1800, 10933.00
167.4110, 11009.00
168.6410, 11133.00
169.8720, 11221.00
171.1020, 11217.63
172.3320, 11072.00
173.5620, 11179.00
174.7910, 11021.00
176.0210, 10979.00
177.2500, 11031.00
178.4790, 10813.00
179.7080, 10553.00
180.9370, 10539.00
182.1650, 10371.00
183.3940, 10357.00
184.6220, 10242.00
185.8500, 10203.00
187.0780, 10262.00
188.3050, 10262.00
189.5330, 10353.00
190.7600, 10399.00
191.9870, 10407.00
193.2140, 10323.00
194.4410, 10444.00
195.6680, 10496.00
196.8940, 10599.00
198.1200, 10700.00
199.3470, 10781.52
200.5720, 10905.17
201.7980, 10963.00
203.0240, 11091.00
204.2490, 11166.00
205.4740, 11145.00
206.6990, 11134.00
207.9240, 11301.00
209.1490, 11277.00
210.3740, 11221.00
211.5980, 11465.00
212.8220, 11530.00
214.0460, 11626.00
215.2700, 11777.00
216.4930, 11834.37
217.7170, 12069.00
218.9400, 12066.00
220.1630, 12201.00
221.3860, 12461.00
222.6090, 12571.00
223.8320, 12645.00
225.0540, 12715.00
226.2760, 12860.00
227.4980, 13094.00
228.7200, 13031.00
229.9420, 13227.00
231.1630, 13231.00
232.3850, 13525.00
233.6060, 13539.00
234.8270, 13744.00
236.0480, 13736.00
237.2690, 13870.00
238.4890, 13873.00
239.7090, 13821.00
240.9290, 13964.00
242.1490, 13784.00
243.3690, 13742.00
244.5890, 13600.00
245.8080, 13513.00
247.0270, 13464.00
248.2470, 13313.00
249.4650, 13324.00
250.6840, 13219.00
251.9030, 13217.00
253.1210, 13013.00
254.3390, 12989.00
255.5570, 12969.00
256.7750, 12945.00
257.9930, 12889.00
259.2100, 13004.00
260.4280, 13023.00
261.6450, 12708.00
262.8620, 12697.00
264.0790, 12467.00
265.2950, 12308.00
266.5120, 12152.00
267.7280, 12034.00
268.9440, 11934.00
270.1600, 11972.00
271.3760, 11793.00
272.5920, 11856.00
273.8070, 11698.00
275.0220, 11591.00
276.2370, 11407.00
277.4520, 11580.00
278.6670, 11426.00
279.8820, 11450.00
281.0960, 11300.00
282.3100, 11266.00
283.5240, 11311.00
284.7380, 11253.00
285.9520, 11168.00
287.1650, 11125.00
288.3780, 11206.00
289.5920, 11160.00
290.8050, 11144.00
292.0170, 11204.00
293.2300, 11141.00
294.4430, 11186.00
295.6550, 11257.00
296.8670, 11295.00
298.0790, 11328.36
299.2910, 11360.00
300.5020, 11353.00
301.7140, 11393.00
302.9250, 11352.00
304.1360, 11368.64
305.3470, 11431.00
306.5580, 11379.00
307.7680, 11485.00
308.9780, 11524.00
310.1890, 11595.00
311.3990, 11704.00
312.6090, 11602.00
313.8180, 11688.00
315.0280, 11682.00
316.2370, 11523.00
317.4460, 11666.00
318.6550, 11783.00
319.8640, 11764.00
321.0730, 11763.00
322.2810, 11596.00
323.4890, 11706.00
324.6980, 11672.00
325.9060, 11719.00
327.1130, 11769.00
328.3210, 11691.00
329.5280, 11609.00
330.7360, 11815.00
331.9430, 11721.00
333.1500, 11770.00
334.3560, 11925.00
335.5630, 11895.00
336.7690, 11881.00
337.9760, 12151.00
339.1820, 12087.00
340.3870, 12233.00
341.5930, 12297.00
342.7990, 12432.00
344.0040, 12398.00
345.2090, 12506.00
346.4140, 12672.00
347.6190, 12603.00
348.8240, 12717.00
350.0280, 12739.00
351.2330, 12587.00
352.4370, 12639.00
353.6410, 12644.00
354.8440, 12562.00
356.0480, 12630.00
357.2520, 12475.00
358.4550, 12479.00
359.6580, 12588.00
360.8610, 12336.00
362.0640, 12434.00
363.2660, 12309.00
364.4690, 12301.20
365.6710, 12418.22
366.8730, 12481.12
368.0750, 12492.80
369.2770, 12299.87
370.4780, 12371.16
371.6800, 12336.56
372.8810, 12297.62
374.0820, 12406.09
375.2830, 12242.93
376.4830, 12349.07
377.6840, 12347.71
378.8840, 12395.55
380.0840, 12336.86
381.2840, 12311.07
382.4840, 12391.85
383.6840, 12413.63
384.8830, 12342.67
386.0830, 12393.64
387.2820, 12226.76
388.4810, 12251.06
389.6800, 12357.83
390.8780, 12292.24
392.0770, 12345.16
393.2750, 12352.95
394.4730, 12255.00
395.6710, 12152.00
396.8690, 12166.00
398.0660, 12138.00
399.2640, 12150.00
400.4610, 12078.00
401.6580, 12174.00
402.8550, 12055.00
404.0520, 12101.00
405.2490, 11980.00
406.4450, 11891.00
407.6410, 11938.00
408.8370, 11805.00
410.0330, 11845.00
411.2290, 11951.00
412.4240, 11826.00
413.6200, 11857.00
414.8150, 11941.00
416.0100, 11905.00
417.2050, 12001.00
418.4000, 11936.00
419.5940, 11802.00
420.7880, 11898.00
421.9830, 11774.00
423.1770, 11950.00
424.3700, 12071.00
425.5640, 12025.00
426.7580, 11851.00
427.9510, 11897.00
429.1440, 11759.00
430.3370, 11768.00
431.5300, 11739.00
432.7220, 11719.00
433.9150, 11655.00
435.1070, 11752.00
436.2990, 11568.00
437.4910, 11605.00
438.6830, 11561.00
439.8750, 11655.00
441.0660, 11482.00
442.2570, 11505.00
443.4480, 11462.00
444.6390, 11463.00
445.8300, 11416.00
447.0210, 11480.00
448.2110, 11472.00
449.4010, 11544.00
450.5910, 11683.00
451.7810, 11487.00
452.9710, 11493.00
454.1610, 11669.00
455.3500, 11481.00
456.5390, 11603.00
457.7280, 11727.00
458.9170, 11773.00
460.1060, 11808.00
461.2940, 11883.23
462.4830, 11902.00
463.6710, 11935.00
464.8590, 12002.00
466.0470, 11931.00
467.2350, 12128.00
468.4220, 12270.00
469.6090, 12377.00
470.7970, 12287.00
471.9840, 12252.00
473.1700, 12266.00
474.3570, 12258.00
475.5440, 12217.00
476.7300, 12320.00
477.9160, 12319.00
479.1020, 12188.00
480.2880, 12215.00
481.4740, 12280.00
482.6590, 12292.00
483.8440, 12296.00
485.0300, 12274.00
486.2140, 12284.41
487.3990, 12292.00
488.5840, 12278.00
489.7680, 12246.00
490.9530, 12231.00
492.1370, 12354.00
493.3210, 12330.00
494.5040, 12253.00
495.6880, 12101.00
496.8720, 12155.04
498.0550, 12205.00
499.2380, 12191.00
500.4210, 12204.00
501.6040, 12190.00
502.7860, 12188.00
503.9690, 12130.00
505.1510, 12268.00
506.3330, 12143.00
507.5150, 12165.00
508.6970, 12297.00
509.8780, 12101.00
511.0600, 12131.00
512.2410, 12049.00
513.4220, 12084.00
514.6030, 12011.00
515.7840, 12004.00
516.9640, 12269.00
518.1440, 12070.00
519.3250, 12256.00
520.5050, 12092.00
521.6850, 12149.00
522.8640, 12144.00
524.0440, 12284.00
525.2230, 12184.00
526.4020, 12277.00
527.5820, 12290.00
528.7600, 12146.00
529.9390, 12337.00
531.1180, 12250.00
532.2960, 12327.00
533.4740, 12366.00
534.6520, 12396.00
535.8300, 12397.00
537.0080, 12474.00
538.1850, 12387.00
539.3630, 12555.00
540.5400, 12669.00
541.7170, 12772.00
542.8940, 12737.00
544.0700, 12907.00
545.2470, 12882.00
546.4230, 13041.00
547.5990, 13301.00
548.7750, 13456.00
549.9510, 13680.00
551.1270, 13934.00
552.3020, 14151.00
553.4780, 14400.83
554.6530, 14586.00
555.8280, 14874.00
557.0030, 15038.00
558.1770, 15229.00
559.3520, 15481.00
560.5260, 15479.00
561.7000, 15481.00
562.8740, 15651.00
564.0480, 15519.00
565.2220, 15359.00
566.3950, 15174.00
567.5680, 15161.00
568.7420, 14724.00
569.9150, 14725.00
571.0870, 14451.00
572.2600, 14488.00
573.4320, 14324.00
574.6050, 14173.00
575.7770, 13928.00
576.9490, 14046.00
578.1210, 13912.00
579.2920, 13818.00
580.4640, 13978.00
581.6350, 13826.00
582.8060, 13872.71
583.9770, 13892.50
585.1480, 13900.05
586.3190, 13896.22
587.4890, 13837.17
588.6590, 13856.85
589.8290, 13849.51
590.9990, 13844.17
592.1690, 13884.18
593.3390, 13849.82
594.5080, 13895.62
595.6770, 13913.94
596.8470, 13949.56
598.0160, 13874.75
599.1840, 14021.21
600.3530, 14113.57
601.5210, 14154.68
602.6900, 13991.21
603.8580, 14091.93
605.0260, 14086.76
606.1930, 14077.23
607.3610, 14215.14
608.5280, 14081.39
609.6960, 14216.96
610.8630, 14245.01
612.0300, 14322.26
613.1970, 14304.00
614.3630, 14420.00
615.5300, 14225.00
616.6960, 14560.00
617.8620, 14473.00
619.0280, 14731.00
620.1940, 14710.00
621.3590, 14775.00
622.5250, 15032.00
623.6900, 14839.00
624.8550, 15053.00
626.0200, 14966.00
627.1850, 15225.00
628.3490, 15162.00
629.5140, 15142.00
630.6780, 15113.00
631.8420, 15328.00
633.0060, 15515.00
634.1700, 15665.00
635.3330, 15821.00
636.4970, 16020.00
637.6600, 16122.00
638.8230, 16271.00
639.9860, 16515.00
641.1490, 16734.00
642.3110, 17004.75
643.4740, 17447.00
644.6360, 17649.00
645.7980, 18045.00
646.9600, 18485.00
648.1220, 19174.00
649.2840, 19536.00
650.4450, 20047.00
651.6060, 20773.00
652.7670, 21212.00
653.9280, 21820.00
655.0890, 22022.00
656.2500, 22160.00
657.4100, 21940.00
658.5700, 21656.00
659.7300, 21135.00
660.8900, 20611.00
662.0500, 20132.00
663.2100, 19508.00
664.3690, 19216.00
665.5280, 18723.00
666.6880, 18597.00
667.8460, 18350.00
669.0050, 18372.00
670.1640, 18444.00
671.3220, 18146.00
672.4810, 18476.00
673.6390, 18394.00
674.7970, 18590.00
675.9540, 18737.00
677.1120, 18866.00
678.2690, 19059.00
679.4270, 19199.43
680.5840, 19374.54
681.7410, 19560.00
682.8980, 19743.00
684.0540, 20014.00
685.2110, 20247.00
686.3670, 20413.00
687.5230, 20649.00
688.6790, 20819.00
689.8350, 21118.00
690.9900, 21076.00
692.1460, 21489.00
693.3010, 21500.00
694.4560, 21571.00
695.6110, 21941.00
696.7660, 21994.00
697.9210, 22171.00
699.0750, 22158.00
700.2290, 22316.00
701.3840, 22577.00
702.5370, 22509.00
703.6910, 22569.00
704.8450, 22884.00
705.9980, 22867.00
707.1520, 23028.00
708.3050, 22816.00
709.4580, 23098.00
710.6110, 23012.00
711.7630, 23119.00
712.9160, 23101.00
714.0680, 22972.00
715.2200, 22955.00
716.3720, 22985.00
717.5240, 22868.00
718.6760, 22692.00
719.8270, 22464.00
720.9780, 22199.00
722.1300, 22186.00
723.2810, 21936.00
724.4310, 21866.00
725.5820, 21513.00
726.7330, 21230.00
727.8830, 21032.00
729.0330, 20757.00
730.1830, 20643.00
731.3330, 20204.00
732.4830, 20228.00
733.6320, 19851.00
734.7810, 19890.00
735.9310, 19650.71
737.0800, 19159.00
738.2290, 19192.00
739.3770, 18959.00
740.5260, 18608.00
741.6740, 18656.00
742.8220, 18745.00
743.9700, 18308.00
745.1180, 18348.00
746.2660, 18178.00
747.4130, 18186.00
748.5610, 18104.71
749.7080, 18021.00
750.8550, 17961.00
752.0020, 17909.00
753.1490, 17849.00
754.2950, 17782.00
755.4420, 17927.00
756.5880, 17678.00
757.7340, 17543.00
758.8800, 17779.00
760.0250, 17643.00
761.1710, 17506.00
762.3160, 17606.00
763.4620, 17369.00
764.6070, 17438.00
765.7520, 17432.00
766.8960, 17479.00
768.0410, 17412.00
769.1850, 17396.00
770.3300, 17231.00
771.4740, 17329.00
772.6180, 17276.00
773.7610, 17049.00
774.9050, 17263.00
776.0480, 17054.00
777.1920, 17210.00
778.3350, 17123.00
779.4780, 17071.00
780.6200, 17182.00
781.7630, 17161.00
782.9060, 17032.00
784.0480, 16933.00
785.1900, 17126.00
786.3320, 17048.00
787.4740, 16978.00
788.6150, 17076.00
789.7570, 17015.00
790.8980, 16896.00
792.0390, 16926.00
793.1800, 16903.00
794.3210, 16842.00
795.4620, 17045.00
796.6020, 17026.00
797.7420, 16839.00
798.8830, 16663.00
800.0230, 16937.00
801.1620, 16631.00
802.3020, 16672.00
803.4420, 16553.00
804.5810, 16707.00
805.7200, 16548.00
806.8590, 16515.00
807.9980, 16482.00
809.1370, 16445.00
810.2750, 16626.00
811.4140, 16275.00
812.5520, 16472.00
813.6900, 16255.00
814.8280, 16286.00
815.9650, 16237.00
817.1030, 16393.00
818.2400, 16333.00
819.3780, 16376.00
820.5150, 16293.00
821.6520, 16122.00
822.7880, 16421.00
823.9250, 16251.00
825.0610, 16321.00
826.1980, 16179.00
827.3340, 16281.00
828.4700, 16103.00
829.6050, 16319.00
830.7410, 16331.00
831.8760, 16234.00
833.0120, 16191.00
834.1470, 16264.00
835.2820, 16201.00
836.4160, 16451.00
837.5510, 16385.00
838.6860, 16347.00
839.8200, 16232.00
840.9540, 16299.00
842.0880, 16530.00
843.2220, 16486.00
844.3550, 16384.00
845.4890, 16458.00
846.6220, 16326.00
847.7550, 16352.00
848.8880, 16208.00
850.0210, 16426.00
851.1540, 16386.00
852.2860, 16365.00
853.4190, 16553.00
854.5510, 16436.00
855.6830, 16793.00
856.8150, 16720.00
857.9460, 16576.00
859.0780, 16710.00
860.2090, 16681.00
861.3410, 16719.00
862.4720, 16695.00
863.6020, 16808.00
864.7330, 16799.00
865.8640, 16932.00
866.9940, 16523.00
868.1240, 16660.00
869.2540, 16743.00
870.3840, 16774.00
871.5140, 16886.00
872.6440, 16998.00
873.7730, 16990.00
874.9020, 16958.00
876.0320, 17098.00
877.1600, 17066.00
878.2890, 17233.00
879.4180, 17159.00
880.5460, 17272.00
881.6750, 17247.00
882.8030, 17297.00
883.9310, 17470.00
885.0590, 17766.00
886.1860, 17805.00
887.3140, 17937.00
888.4410, 17897.00
889.5680, 18167.00
890.6950, 18357.00
891.8220, 18138.00
892.9490, 18505.00
894.0750, 18627.00
895.2020, 18712.00
896.3280, 18852.00
897.4540, 19052.00
898.5800, 19195.00
899.7050, 19242.00
900.8310, 19533.00
901.9560, 19779.00
903.0820, 19654.00
904.2070, 19579.00
905.3320, 20119.00
906.4560, 20434.00
907.5810, 20466.00
908.7050, 20529.00
909.8300, 20723.00
910.9540, 20892.00
912.0780, 21060.00
913.2010, 21198.00
914.3250, 21338.88
915.4480, 21409.00
916.5720, 21511.00
917.6950, 21579.00
918.8180, 21489.00
919.9410, 21433.00
921.0630, 21589.00
922.1860, 21522.00
923.3080, 21649.00
924.4300, 21616.00
925.5520, 21635.00
926.6740, 21363.00
927.7960, 21430.00
928.9170, 21429.00
930.0390, 21356.00
931.1600, 21380.00
932.2810, 21227.00
933.4020, 21400.00
934.5230, 21262.00
935.6430, 21206.00
936.7640, 20757.00
937.8840, 20794.00
939.0040, 20669.00
940.1240, 20641.00
941.2440, 20364.00
942.3630, 20127.00
943.4830, 19879.00
944.6020, 20035.00
945.7210, 19982.00
946.8400, 19627.00
947.9590, 19565.00
949.0770, 19277.00
950.1960, 19411.00
951.3140, 19400.00
952.4320, 19259.00
953.5500, 19200.00
954.6680, 19100.00
955.7860, 18958.00
956.9030, 18642.00
958.0210, 18545.00
959.1380, 18536.00
960.2550, 18667.00
961.3720, 18493.00
962.4890, 18413.00
963.6050, 18334.00
964.7220, 18236.00
965.8380, 18218.83
966.9540, 18295.00
968.0700, 18183.00
969.1860, 18167.00
970.3010, 18141.00
971.4170, 17983.00
972.5320, 18034.00
973.6470, 17829.00
974.7620, 17964.00
975.8770, 17840.00
976.9910, 17885.00
978.1060, 18032.00
979.2200, 17970.00
980.3340, 17844.00
981.4480, 17929.00
982.5620, 18042.00
983.6760, 17924.00
984.7890, 18048.00
985.9030, 17910.00
987.0160, 18015.00
988.1290, 17964.00
989.2420, 18148.00
990.3550, 18021.00
991.4670, 18067.00
992.5800, 18256.00
993.6920, 18367.00
994.8040, 18451.00
995.9160, 18417.00
997.0280, 18539.00
998.1390, 18612.00
999.2510, 18905.00
1000.362, 18945.00
1001.473, 19169.00
1002.584, 18997.00
1003.695, 19127.00
1004.805, 19100.00
1005.916, 19061.00
1007.026, 18812.00
1008.136, 19029.00
1009.246, 18896.00
1010.356, 19018.00
1011.466, 19222.00
1012.576, 19249.00
1013.685, 19324.00
1014.794, 19471.00
1015.903, 19634.00
1017.012, 19714.00
1018.121, 19776.00
1019.229, 19929.00
1020.338, 20096.00
1021.446, 20320.00
1022.554, 20284.00
1023.662, 20449.00
1024.770, 20770.00
1025.878, 20426.00
1026.985, 20895.00
1028.092, 20710.00
1029.200, 20786.00
1030.307, 20872.00
1031.413, 20861.00
1032.520, 21043.00
1033.627, 21108.00
1034.733, 20828.00
1035.839, 21046.00
1036.945, 21049.00
1038.051, 21106.00
1039.157, 20817.00
1040.262, 20887.00
1041.368, 20595.00
1042.473, 20490.00
1043.578, 20645.00
1044.683, 20498.00
1045.788, 20523.00
1046.893, 20301.00
1047.997, 20181.00
1049.101, 20046.00
1050.205, 20037.00
1051.309, 19965.00
1052.413, 19739.00
1053.517, 19741.00
1054.621, 19572.00
1055.724, 19685.00
1056.827, 19445.00
1057.930, 19346.00
1059.033, 19387.00
1060.136, 19371.00
1061.238, 19346.00
1062.341, 19264.00
1063.443, 19379.00
1064.545, 19366.00
1065.647, 19276.00
1066.749, 19202.00
1067.850, 19400.00
1068.952, 19201.00
1070.053, 19366.00
1071.154, 19352.00
1072.255, 19426.00
1073.356, 19509.00
1074.457, 19487.52
1075.557, 19342.00
1076.658, 19541.00
1077.758, 19468.00
1078.858, 19607.00
1079.958, 19455.00
1081.057, 19586.00
1082.157, 19733.00
1083.256, 19516.00
1084.356, 19631.00
1085.455, 19497.00
1086.554, 19492.00
1087.653, 19518.00
1088.751, 19473.00
1089.850, 19558.00
1090.948, 19433.00
1092.046, 19637.00
1093.144, 19603.00
1094.242, 19435.00
1095.340, 19529.00
1096.437, 19504.00
1097.534, 19562.00
1098.632, 19552.00
1099.729, 19526.00
1100.826, 19561.00
1101.922, 19643.00
1103.019, 19634.00
1104.115, 19626.00
1105.212, 19606.00
1106.308, 19762.00
1107.404, 19841.00
1108.499, 19700.00
1109.595, 19942.00
1110.691, 20041.00
1111.786, 20055.00
1112.881, 19988.00
1113.976, 19948.00
1115.071, 19809.00
1116.166, 19700.00
1117.260, 19604.00
1118.355, 19696.00
1119.449, 19866.00
1120.543, 19623.00
1121.637, 19387.00
1122.731, 19583.00
1123.824, 19582.00
1124.918, 19571.00
1126.011, 19652.00
1127.104, 19639.00
1128.197, 19661.48
1129.290, 19546.00
1130.382, 19644.00
1131.475, 19728.00
1132.567, 19641.00
1133.659, 19524.00
1134.751, 19643.00
1135.843, 19634.00
1136.935, 19653.00
1138.027, 19682.00
1139.118, 19806.00
1140.209, 19619.00
1141.300, 19522.00
1142.391, 19705.00
1143.482, 19681.00
1144.573, 19842.00
1145.663, 19784.00
1146.754, 19818.00
1147.844, 19992.00
1148.934, 19836.00
1150.024, 19807.00
1151.113, 19932.00
1152.203, 19758.00
1153.292, 19758.00
1154.381, 19898.00
1155.470, 19847.00
1156.559, 19895.00
1157.648, 19884.00
1158.737, 19891.82
1159.825, 20091.00
1160.913, 19938.00
1162.001, 20089.00
1163.089, 20163.00
1164.177, 19932.00
1165.265, 20032.00
1166.352, 20100.00
1167.440, 19964.00
1168.527, 20167.00
1169.614, 19898.00
1170.701, 20016.00
1171.788, 20114.00
1172.874, 20181.00
1173.961, 20228.00
1175.047, 20271.80
1176.133, 20175.00
1177.219, 20315.00
1178.305, 20326.00
1179.390, 20340.00
1180.476, 20436.00
1181.561, 20397.00
1182.646, 20395.00
1183.731, 20599.00
1184.816, 20855.00
1185.901, 20622.00
1186.985, 20884.00
1188.070, 20471.00
1189.154, 20466.00
1190.238, 20570.00
1191.322, 20627.00
1192.406, 20507.00
1193.489, 20370.00
1194.573, 20518.00
1195.656, 20506.00
1196.739, 20364.00
1197.822, 20509.00
1198.905, 20441.57
1199.988, 20501.00
1201.070, 20452.00
1202.153, 20450.00
1203.235, 20456.00
1204.317, 20318.00
1205.399, 20632.00
1206.481, 20632.00
1207.562, 20588.00
1208.644, 20532.00
1209.725, 20717.00
1210.806, 20613.00
1211.887, 20743.00
1212.968, 20854.00
1214.049, 20744.00
1215.129, 20854.00
1216.209, 21005.00
1217.290, 20988.00
1218.370, 21240.00
1219.450, 20962.00
1220.529, 20968.00
1221.609, 20890.00
1222.688, 21097.00
1223.768, 21339.00
1224.847, 21151.00
1225.926, 21159.00
1227.005, 21185.00
1228.083, 21103.00
1229.162, 21120.00
1230.240, 21215.00
1231.318, 21360.00
1232.396, 21411.00
1233.474, 21313.00
1234.552, 21199.00
1235.629, 21336.00
1236.707, 21273.00
1237.784, 21367.00
1238.861, 21481.00
1239.938, 21322.00
1241.015, 21295.00
1242.092, 21470.00
1243.168, 21449.00
1244.244, 21366.00
1245.321, 21592.00
1246.397, 21579.00
1247.473, 21540.00
1248.548, 21607.00
1249.624, 21682.00
1250.699, 21600.00
1251.775, 21642.46
1252.850, 21532.00
1253.925, 21607.00
1254.999, 21726.00
1256.074, 21717.00
1257.148, 21694.00
1258.223, 21668.00
1259.297, 21738.00
1260.371, 21544.00
1261.445, 21749.00
1262.519, 21795.00
1263.592, 21676.00
1264.666, 21741.00
1265.739, 21741.00
1266.812, 21706.00
1267.885, 21485.00
1268.958, 21734.00
1270.030, 21515.00
1271.103, 21755.00
1272.175, 21622.00
1273.247, 21859.00
1274.319, 21863.00
1275.391, 21698.00
1276.463, 21974.00
1277.535, 21816.00
1278.606, 21921.00
1279.677, 21937.00
1280.748, 21865.00
1281.819, 21898.00
1282.890, 21889.00
1283.961, 21904.00
1285.031, 21901.00
1286.102, 22015.00
1287.172, 21957.00
1288.242, 22039.00
1289.312, 22156.00
1290.381, 22146.00
1291.451, 22179.00
1292.520, 22232.00
1293.590, 22283.00
1294.659, 22055.00
1295.728, 22308.00
1296.797, 22251.00
1297.865, 22098.00
1298.934, 22276.00
1300.002, 22355.00
1301.070, 22236.00
1302.138, 22321.00
1303.206, 22240.00
1304.274, 22205.00
1305.341, 22088.00
1306.409, 22288.00
1307.476, 22230.00
1308.543, 22435.00
1309.610, 22454.00
1310.677, 22501.00
1311.744, 22417.00
1312.810, 22400.00
1313.877, 22549.00
1314.943, 22284.00
1316.009, 22328.00
1317.075, 22382.00
