##NAMES=Astrophyllite
##RRUFFID=R060202
##IDEAL CHEMISTRY=K_2_NaFe^2+^_7_Ti^4+^_2_(Si_4_O_12_)_2_O_2_(OH)_4_F
##LOCALITY=Demix Quarry, Mont Saint-Hilaire, Rouville County, Quebec, Canada
##OWNER=RRUFF
##SOURCE=Royal Ontario Museum
##DESCRIPTION=Aggregate of brown splintered wafers
##STATUS=The identification of this mineral has been confirmed by X-ray diffraction and chemical analysis
##URL=rruff.info/R060202
##MEASURED CHEMISTRY=(K_0.56_Na_0.38_Ca_0.06_)_3_(Fe^2+^_0.52_Mn_0.44_Mg_0.04_)_7_(Ti_0.75_Zr_0.15_Al_0.15_)_2_Si_8_O_24_(O_0.27_OH_0.73_)_7_
##PIN_ID=M00255
##ORIENTATION=Laser parallel to (0 1 1). Fiducial mark perpendicular to laser is parallel to a [1 0 0]
91.01200, 19481.00
92.24600, 19899.04
93.48000, 20767.00
94.71400, 20758.00
95.94800, 21424.00
97.18200, 21825.00
98.41600, 21881.00
99.64900, 22638.00
100.8830, 22581.00
102.1160, 22527.00
103.3490, 22355.00
104.5820, 21725.06
105.8150, 22102.92
107.0470, 22290.48
108.2800, 22297.88
109.5120, 21585.75
110.7440, 21802.81
111.9760, 21647.49
113.2080, 21476.89
114.4400, 21578.00
115.6710, 22004.00
116.9030, 22098.00
118.1340, 22280.00
119.3650, 22127.00
120.5960, 22257.00
121.8270, 22208.00
123.0580, 22263.00
124.2880, 22560.00
125.5190, 22752.00
126.7490, 22542.00
127.9790, 22672.00
129.2090, 23008.00
130.4390, 22779.00
131.6680, 23015.00
132.8980, 22747.00
134.1270, 22639.00
135.3560, 22547.00
136.5850, 22286.00
137.8140, 22379.00
139.0430, 22354.00
140.2710, 22234.00
141.5000, 22021.00
142.7280, 21644.00
143.9560, 21477.00
145.1840, 21496.00
146.4120, 21497.00
147.6390, 21727.00
148.8670, 21638.00
150.0940, 21677.00
151.3210, 21903.00
152.5490, 22272.00
153.7750, 22316.00
155.0020, 22290.00
156.2290, 22395.00
157.4550, 22457.00
158.6810, 22604.49
159.9080, 22938.00
161.1340, 23033.00
162.3590, 23353.00
163.5850, 23723.00
164.8110, 23694.00
166.0360, 24117.00
167.2610, 23895.00
168.4860, 24029.00
169.7110, 24034.00
170.9360, 24054.00
172.1610, 23978.00
173.3850, 23760.00
174.6100, 23478.00
175.8340, 23284.00
177.0580, 23469.00
178.2820, 23024.00
179.5050, 23134.00
180.7290, 23043.00
181.9520, 22913.00
183.1760, 22854.00
184.3990, 22877.00
185.6220, 22816.00
186.8450, 22901.00
188.0670, 23050.00
189.2900, 23223.00
190.5120, 23279.00
191.7340, 23293.00
192.9560, 23665.00
194.1780, 23879.00
195.4000, 23916.00
196.6220, 24062.00
197.8430, 24269.00
199.0640, 24542.00
200.2860, 24874.00
201.5070, 25011.00
202.7270, 25636.00
203.9480, 25591.00
205.1690, 25436.00
206.3890, 24891.00
207.6090, 24972.00
208.8290, 24957.00
210.0490, 25111.00
211.2690, 25358.00
212.4890, 25584.00
213.7080, 25997.00
214.9280, 26159.00
216.1470, 26637.00
217.3660, 26796.20
218.5850, 27087.00
219.8030, 27207.00
221.0220, 27361.00
222.2400, 27620.00
223.4590, 27772.00
224.6770, 28382.00
225.8950, 28418.00
227.1120, 28622.00
228.3300, 29284.00
229.5480, 29301.00
230.7650, 29840.00
231.9820, 29852.00
233.1990, 30096.00
234.4160, 30538.00
235.6330, 30689.00
236.8490, 31010.00
238.0660, 31241.00
239.2820, 31361.00
240.4980, 31428.00
241.7140, 31712.50
242.9300, 31877.93
244.1460, 32239.00
245.3610, 32376.00
246.5770, 32692.00
247.7920, 32983.00
249.0070, 33052.27
250.2220, 32979.00
251.4370, 33242.00
252.6510, 33268.00
253.8660, 33385.00
255.0800, 33465.00
256.2940, 33144.00
257.5080, 33266.00
258.7220, 32874.00
259.9360, 32235.00
261.1490, 32205.00
262.3630, 31310.00
263.5760, 30591.00
264.7890, 29858.00
266.0020, 29234.02
267.2150, 28766.00
268.4270, 28144.00
269.6400, 27733.00
270.8520, 27258.00
272.0640, 27064.00
273.2760, 26866.00
274.4880, 26590.00
275.7000, 26028.00
276.9120, 26115.00
278.1230, 26039.00
279.3340, 25551.00
280.5450, 25766.00
281.7560, 25422.00
282.9670, 25248.00
284.1780, 25185.00
285.3880, 25476.00
286.5980, 25325.00
287.8090, 25404.00
289.0190, 25319.00
290.2290, 25307.00
291.4380, 25387.00
292.6480, 25269.00
293.8570, 25349.79
295.0670, 25274.00
296.2760, 25410.00
297.4850, 25401.00
298.6930, 25392.00
299.9020, 25629.00
301.1110, 25461.00
302.3190, 25569.19
303.5270, 25760.00
304.7350, 25678.00
305.9430, 25435.00
307.1510, 25597.00
308.3580, 25683.00
309.5660, 25441.00
310.7730, 25613.73
311.9800, 25712.00
313.1870, 25832.00
314.3940, 25857.03
315.6010, 25953.00
316.8070, 25794.00
318.0130, 25712.00
319.2200, 25543.00
320.4260, 25917.00
321.6310, 25620.00
322.8370, 25914.00
324.0430, 25807.00
325.2480, 25962.00
326.4540, 26033.00
327.6590, 25933.00
328.8640, 26043.49
330.0680, 26090.29
331.2730, 26132.00
332.4780, 26215.00
333.6820, 26350.00
334.8860, 26314.00
336.0900, 26569.00
337.2940, 26692.00
338.4980, 26698.00
339.7010, 26933.00
340.9050, 26835.00
342.1080, 26803.00
343.3110, 26908.00
344.5140, 26732.00
345.7170, 26866.00
346.9200, 26864.00
348.1220, 26967.00
349.3240, 26918.02
350.5270, 26985.00
351.7290, 26764.00
352.9310, 26855.00
354.1320, 26724.00
355.3340, 26783.00
356.5350, 26917.00
357.7370, 26760.00
358.9380, 26780.00
360.1390, 26669.00
361.3400, 26804.00
362.5400, 26504.00
363.7410, 26745.00
364.9410, 26594.00
366.1410, 26356.00
367.3410, 26340.00
368.5410, 26437.00
369.7410, 26502.00
370.9400, 26324.00
372.1400, 26425.00
373.3390, 26475.00
374.5380, 26503.00
375.7370, 26556.00
376.9360, 26829.00
378.1350, 26707.00
379.3330, 26806.00
380.5310, 26659.00
381.7300, 26886.00
382.9280, 26744.00
384.1260, 26820.00
385.3230, 26787.00
386.5210, 26807.00
387.7180, 26975.18
388.9160, 26907.70
390.1130, 27306.00
391.3100, 26973.00
392.5060, 27046.00
393.7030, 27251.00
394.9000, 27121.00
396.0960, 27065.00
397.2920, 27408.00
398.4880, 27242.00
399.6840, 26991.00
400.8800, 27213.00
402.0750, 27355.00
403.2710, 27397.00
404.4660, 27333.00
405.6610, 27315.00
406.8560, 27258.00
408.0510, 27479.00
409.2450, 27411.00
410.4400, 27498.00
411.6340, 27348.00
412.8280, 27690.00
414.0220, 27846.00
415.2160, 27669.00
416.4100, 27885.00
417.6030, 28123.00
418.7970, 27853.00
419.9900, 27970.00
421.1830, 27810.00
422.3760, 27738.00
423.5690, 27667.00
424.7610, 27539.00
425.9540, 27418.00
427.1460, 27656.00
428.3380, 27224.00
429.5300, 26843.00
430.7220, 26991.00
431.9140, 26746.95
433.1050, 26634.64
434.2970, 26719.00
435.4880, 26362.00
436.6790, 26319.00
437.8700, 26093.00
439.0610, 26019.00
440.2510, 25950.00
441.4420, 25785.00
442.6320, 26046.00
443.8220, 25900.00
445.0120, 25895.00
446.2020, 25660.00
447.3910, 25547.00
448.5810, 25772.00
449.7700, 25600.00
450.9600, 25605.00
452.1490, 25827.00
453.3370, 25764.00
454.5260, 25886.00
455.7150, 26094.00
456.9030, 25969.00
458.0910, 26027.00
459.2800, 26227.00
460.4670, 26218.00
461.6550, 26159.00
462.8430, 26058.00
464.0300, 26100.00
465.2180, 26381.00
466.4050, 26400.00
467.5920, 26264.00
468.7790, 26519.00
469.9650, 26468.00
471.1520, 26575.00
472.3380, 26443.00
473.5250, 26539.00
474.7110, 26407.00
475.8970, 26182.00
477.0820, 26330.00
478.2680, 26215.00
479.4540, 26337.00
480.6390, 26471.00
481.8240, 26392.00
483.0090, 26528.00
484.1940, 26372.00
485.3780, 26532.00
486.5630, 26368.00
487.7470, 26262.00
488.9320, 26389.00
490.1160, 26401.00
491.3000, 26401.00
492.4830, 26440.12
493.6670, 26343.00
494.8500, 26413.00
496.0340, 26350.00
497.2170, 26274.00
498.4000, 26329.00
499.5820, 26363.00
500.7650, 26360.00
501.9480, 26327.00
503.1300, 26431.00
504.3120, 26441.00
505.4940, 26383.00
506.6760, 26462.00
507.8580, 26483.82
509.0390, 26390.00
510.2210, 26562.00
511.4020, 26555.00
512.5830, 26499.00
513.7640, 26450.00
514.9450, 26337.00
516.1250, 27138.48
517.3060, 26839.49
518.4860, 26922.77
519.6660, 26780.00
520.8460, 26689.00
522.0260, 26548.00
523.2060, 26399.00
524.3850, 26617.00
525.5650, 26678.00
526.7440, 26610.00
527.9230, 26610.00
529.1020, 26701.00
530.2810, 26703.00
531.4590, 26855.00
532.6380, 26868.00
533.8160, 27087.00
534.9940, 27108.00
536.1720, 27393.00
537.3500, 27495.00
538.5270, 27369.00
539.7050, 27491.00
540.8820, 27770.00
542.0590, 27638.00
543.2360, 27806.00
544.4130, 28036.00
545.5900, 28459.00
546.7660, 28570.00
547.9430, 28827.00
549.1190, 29285.00
550.2950, 29239.00
551.4710, 29642.00
552.6470, 29782.00
553.8220, 30081.00
554.9980, 30242.00
556.1730, 30428.00
557.3480, 30595.00
558.5230, 30562.00
559.6980, 30505.00
560.8730, 30280.00
562.0470, 30427.00
563.2220, 30599.00
564.3960, 30181.00
565.5700, 30185.00
566.7440, 29998.00
567.9170, 29879.00
569.0910, 29691.00
570.2640, 29734.00
571.4380, 29597.26
572.6110, 29665.00
573.7840, 29466.00
574.9570, 29369.00
576.1290, 29310.00
577.3020, 29490.00
578.4740, 29382.00
579.6460, 29435.00
580.8180, 29176.00
581.9900, 29238.00
583.1620, 29220.87
584.3330, 29493.00
585.5040, 29299.00
586.6760, 29573.00
587.8470, 29679.00
589.0180, 29900.00
590.1880, 29850.00
591.3590, 29957.00
592.5290, 30126.00
593.7000, 30055.00
594.8700, 29767.00
596.0400, 30125.00
597.2090, 29867.00
598.3790, 30024.00
599.5490, 30367.00
600.7180, 29996.00
601.8870, 30163.00
603.0560, 30364.00
604.2250, 30034.00
605.3940, 30165.00
606.5620, 30365.00
607.7300, 30357.00
608.8990, 30410.00
610.0670, 30198.00
611.2350, 30202.00
612.4020, 30244.00
613.5700, 30400.00
614.7370, 30703.00
615.9050, 30671.00
617.0720, 30623.00
618.2390, 30937.00
619.4060, 30749.00
620.5720, 30862.00
621.7390, 31156.00
622.9050, 31259.00
624.0710, 31369.03
625.2370, 31336.00
626.4030, 31602.00
627.5690, 31606.00
628.7340, 31888.00
629.9000, 31938.00
631.0650, 32208.00
632.2300, 32562.00
633.3950, 32417.00
634.5600, 32840.00
635.7240, 33178.00
636.8890, 33330.00
638.0530, 33793.00
639.2170, 34011.00
640.3810, 34588.00
641.5450, 35175.00
642.7080, 35477.00
643.8720, 36197.00
645.0350, 36830.00
646.1980, 37382.00
647.3610, 38348.00
648.5240, 38929.00
649.6870, 39744.00
650.8490, 39963.00
652.0120, 40465.00
653.1740, 40899.00
654.3360, 40760.00
655.4980, 41006.00
656.6600, 40482.00
657.8210, 39524.00
658.9830, 38719.00
660.1440, 38252.00
661.3050, 37950.00
662.4660, 37215.00
663.6270, 36857.00
664.7870, 36658.00
665.9480, 36404.00
667.1080, 36259.00
668.2680, 36366.00
669.4280, 36415.00
670.5880, 36327.00
671.7480, 36604.00
672.9070, 36479.00
674.0670, 36951.00
675.2260, 36733.00
676.3850, 36868.00
677.5440, 37075.00
678.7030, 37365.00
679.8610, 37762.00
681.0200, 37943.00
682.1780, 37927.00
683.3360, 38069.00
684.4940, 38513.00
685.6520, 38430.00
686.8090, 39103.00
687.9670, 38914.00
689.1240, 39335.00
690.2810, 39055.00
691.4380, 39538.00
692.5950, 39548.00
693.7520, 39642.00
694.9080, 39749.00
696.0650, 40002.00
697.2210, 40161.00
698.3770, 40215.01
699.5330, 40007.00
700.6880, 40275.00
701.8440, 40170.00
702.9990, 40133.00
704.1550, 40322.00
705.3100, 40202.00
706.4650, 40314.00
707.6190, 40453.00
708.7740, 40230.00
709.9290, 40544.00
711.0830, 40263.00
712.2370, 40300.00
713.3910, 40315.00
714.5450, 40409.00
715.6980, 40125.00
716.8520, 40076.00
718.0050, 39741.00
719.1580, 39588.00
720.3110, 39189.00
721.4640, 38936.00
722.6170, 38757.67
723.7700, 38610.00
724.9220, 38428.00
726.0740, 38171.54
727.2260, 38058.00
728.3780, 37613.00
729.5300, 37257.00
730.6810, 37176.00
731.8330, 36935.00
732.9840, 36737.00
734.1350, 36822.00
735.2860, 36605.00
736.4370, 36559.00
737.5880, 36319.00
738.7380, 36086.00
739.8880, 35934.00
741.0390, 35626.00
742.1890, 35839.00
743.3380, 35500.00
744.4880, 35430.00
745.6380, 35650.00
746.7870, 35662.00
747.9360, 35247.00
749.0850, 35420.00
750.2340, 35206.00
751.3830, 35188.00
752.5310, 35351.00
753.6800, 35160.00
754.8280, 34816.00
755.9760, 34816.00
757.1240, 34705.00
758.2720, 35078.00
759.4190, 34819.00
760.5670, 34736.00
761.7140, 34635.00
762.8610, 34547.00
764.0080, 34426.00
765.1550, 34406.00
766.3020, 34453.00
767.4480, 34174.00
768.5950, 33909.00
769.7410, 34258.00
770.8870, 33845.00
772.0330, 33847.00
773.1780, 33704.00
774.3240, 33677.00
775.4690, 33645.23
776.6140, 33462.00
777.7590, 33642.00
778.9040, 33485.00
780.0490, 33564.00
781.1940, 33287.00
782.3380, 33655.00
783.4820, 33410.00
784.6260, 33412.00
785.7700, 33402.00
786.9140, 33420.00
788.0580, 33343.00
789.2010, 33498.00
790.3450, 33420.00
791.4880, 33503.00
792.6310, 33649.00
793.7730, 33307.00
794.9160, 33253.00
796.0590, 33180.00
797.2010, 33126.00
798.3430, 33786.00
799.4850, 33395.00
800.6270, 33111.00
801.7690, 34673.00
802.9100, 33313.00
804.0520, 33324.00
805.1930, 33402.00
806.3340, 32791.00
807.4750, 32979.00
808.6160, 33362.00
809.7560, 33063.00
810.8970, 33302.00
812.0370, 32947.00
813.1770, 33050.00
814.3170, 32946.00
815.4570, 33017.00
816.5960, 33009.00
817.7360, 33150.00
818.8750, 33214.00
820.0140, 33186.00
821.1530, 33304.00
822.2920, 33029.00
823.4310, 32913.00
824.5690, 33183.00
825.7070, 33262.00
826.8460, 33297.00
827.9840, 33408.00
829.1220, 33352.00
830.2590, 33641.00
831.3970, 33349.00
832.5340, 33334.00
833.6710, 33647.00
834.8080, 33513.00
835.9450, 33527.00
837.0820, 33449.00
838.2190, 33725.00
839.3550, 33838.00
840.4910, 33761.00
841.6270, 33806.00
842.7630, 33875.00
843.8990, 34023.00
845.0350, 34103.00
846.1700, 34153.00
847.3060, 34334.00
848.4410, 33941.00
849.5760, 34403.00
850.7100, 34286.00
851.8450, 34395.00
852.9800, 34660.00
854.1140, 34842.00
855.2480, 34892.00
856.3820, 35234.00
857.5160, 35121.00
858.6500, 35553.00
859.7830, 35621.00
860.9170, 35592.00
862.0500, 35723.00
863.1830, 35638.00
864.3160, 36115.00
865.4480, 35981.00
866.5810, 36694.00
867.7130, 36700.00
868.8460, 36874.00
869.9780, 37508.00
871.1100, 37345.00
872.2410, 37576.00
873.3730, 37679.00
874.5050, 37790.00
875.6360, 38099.21
876.7670, 38683.00
877.8980, 38745.00
879.0290, 39009.00
880.1590, 39446.00
881.2900, 39641.00
882.4200, 40190.00
883.5500, 40656.00
884.6800, 40868.00
885.8100, 41581.00
886.9400, 41434.00
888.0690, 41714.00
889.1990, 42004.00
890.3280, 42262.00
891.4570, 42561.00
892.5860, 43076.00
893.7140, 43645.00
894.8430, 43837.00
895.9710, 44634.00
897.1000, 44595.00
898.2280, 44956.00
899.3560, 45666.00
900.4830, 46032.00
901.6110, 46403.00
902.7380, 46816.00
903.8660, 47079.00
904.9930, 47311.00
906.1200, 47876.00
907.2460, 48392.00
908.3730, 48934.00
909.5000, 49257.68
910.6260, 49656.00
911.7520, 49818.00
912.8780, 50138.00
914.0040, 50367.00
915.1290, 50518.00
916.2550, 50670.00
917.3800, 50809.00
918.5050, 51056.00
919.6300, 51102.00
920.7550, 51102.00
921.8800, 51355.00
923.0040, 51155.00
924.1290, 51200.00
925.2530, 51078.00
926.3770, 51033.00
927.5010, 50691.00
928.6250, 50306.00
929.7480, 50272.00
930.8720, 50163.00
931.9950, 50156.00
933.1180, 49619.00
934.2410, 49358.00
935.3640, 49170.00
936.4860, 48478.00
937.6090, 48263.00
938.7310, 47989.00
939.8530, 47409.00
940.9750, 47149.00
942.0970, 46615.00
943.2180, 46388.00
944.3400, 46048.00
945.4610, 45669.00
946.5820, 45395.69
947.7030, 45259.00
948.8240, 44785.00
949.9450, 44464.00
951.0650, 44208.00
952.1860, 43559.00
953.3060, 43305.00
954.4260, 43179.00
955.5460, 42548.00
956.6650, 42387.00
957.7850, 41869.00
958.9040, 41835.00
960.0230, 41169.00
961.1420, 41078.00
962.2610, 40754.00
963.3800, 40238.00
964.4990, 40018.00
965.6170, 39819.00
966.7350, 39454.00
967.8530, 39403.00
968.9710, 39104.00
970.0890, 38937.00
971.2070, 38759.00
972.3240, 38789.00
973.4410, 38363.00
974.5580, 38397.00
975.6750, 38493.00
976.7920, 38132.00
977.9090, 38157.00
979.0250, 38225.00
980.1410, 38150.00
981.2580, 38234.00
982.3740, 38107.00
983.4890, 38248.00
984.6050, 37984.00
985.7200, 37920.00
986.8360, 38059.00
987.9510, 37892.00
989.0660, 38308.00
990.1810, 38160.00
991.2950, 38326.00
992.4100, 38411.00
993.5240, 38269.00
994.6390, 38206.00
995.7530, 38317.00
996.8660, 38324.00
997.9800, 38528.00
999.0940, 38623.00
1000.207, 38865.00
1001.320, 38954.90
1002.433, 38868.00
1003.546, 39166.00
1004.659, 39251.00
1005.772, 39347.00
1006.884, 39660.00
1007.996, 39731.00
1009.108, 39524.00
1010.220, 39945.00
1011.332, 40028.00
1012.444, 40398.00
1013.555, 40491.00
1014.666, 40730.00
1015.777, 40869.00
1016.888, 41041.87
1017.999, 41600.00
1019.110, 41411.00
1020.220, 41771.00
1021.331, 42007.00
1022.441, 42044.00
1023.551, 42119.00
1024.661, 42235.33
1025.770, 42142.00
1026.880, 42349.00
1027.989, 42390.00
1029.098, 42370.00
1030.207, 42725.00
1031.316, 42584.00
1032.425, 42502.00
1033.533, 42211.00
1034.642, 42087.00
1035.750, 42138.00
1036.858, 41681.00
1037.966, 41708.00
1039.073, 41504.00
1040.181, 41411.00
1041.288, 41320.10
1042.396, 41088.00
1043.503, 41088.00
1044.610, 41062.00
1045.716, 40938.00
1046.823, 40870.00
1047.929, 40494.00
1049.036, 40211.00
1050.142, 39872.00
1051.248, 40083.00
1052.353, 40008.00
1053.459, 39952.00
1054.564, 39721.00
1055.670, 40195.00
1056.775, 40013.00
1057.880, 39615.00
1058.985, 40005.00
1060.089, 39637.00
1061.194, 39793.00
1062.298, 39785.00
1063.402, 39790.00
1064.506, 39755.00
1065.610, 39872.00
1066.713, 39749.00
1067.817, 39697.00
1068.920, 39780.00
1070.023, 40125.00
1071.126, 39971.00
1072.229, 40024.00
1073.332, 40165.00
1074.435, 39831.00
1075.537, 39735.00
1076.639, 39963.00
1077.741, 39630.00
1078.843, 39822.00
1079.945, 39787.00
1081.046, 40039.00
1082.148, 40059.00
1083.249, 40129.77
1084.350, 39952.00
1085.451, 40137.00
1086.551, 40252.00
1087.652, 40029.00
1088.752, 40214.00
1089.853, 39742.00
1090.953, 39932.00
1092.053, 39895.00
1093.152, 39901.00
1094.252, 39993.00
1095.351, 40046.00
1096.451, 39941.00
1097.550, 39979.00
1098.649, 40281.00
1099.748, 39955.00
1100.846, 40070.00
1101.945, 39609.00
1103.043, 39733.00
1104.141, 39702.00
1105.239, 39953.00
1106.337, 39890.54
1107.434, 39861.00
1108.532, 39873.00
1109.629, 40031.00
1110.726, 40058.00
1111.823, 40042.00
1112.920, 39861.00
1114.017, 39870.00
1115.113, 39537.00
1116.210, 39989.00
1117.306, 39801.00
1118.402, 39777.00
1119.498, 40037.00
1120.593, 40005.00
1121.689, 40049.00
1122.784, 40210.00
1123.879, 40175.00
1124.974, 40243.00
1126.069, 40315.00
1127.164, 40135.00
1128.259, 40192.00
1129.353, 40115.30
1130.447, 40141.00
1131.541, 40068.00
1132.635, 39918.00
1133.729, 40042.00
1134.822, 40031.57
1135.916, 40154.00
1137.009, 40168.00
1138.102, 40322.00
1139.195, 40333.00
1140.288, 40616.00
1141.380, 40418.00
1142.473, 40332.00
1143.565, 40266.00
1144.657, 40007.00
1145.749, 40496.00
1146.841, 40488.00
1147.932, 40680.00
1149.024, 40423.00
1150.115, 40589.00
1151.206, 40690.00
1152.297, 40772.00
1153.388, 40790.00
1154.479, 40533.00
1155.569, 40393.00
1156.659, 40609.00
1157.750, 40434.00
1158.839, 40701.00
1159.929, 40819.00
1161.019, 40772.00
1162.108, 40964.00
1163.198, 40927.00
1164.287, 40921.00
1165.376, 40913.00
1166.465, 41222.00
1167.553, 40886.00
1168.642, 40990.00
1169.730, 41321.00
1170.818, 41174.00
1171.906, 41019.00
1172.994, 40899.00
1174.082, 40924.00
1175.170, 40974.73
1176.257, 41055.73
1177.344, 41224.00
1178.431, 41329.00
1179.518, 41395.00
1180.605, 41485.00
1181.691, 41375.00
1182.778, 41274.00
1183.864, 41393.00
1184.950, 41214.00
1186.036, 41596.00
1187.122, 41270.00
1188.207, 41605.00
1189.292, 41574.00
1190.378, 41791.00
1191.463, 41810.00
1192.548, 41884.00
1193.632, 41824.00
1194.717, 41719.00
1195.801, 41873.00
1196.886, 41616.00
1197.970, 41458.00
1199.054, 41933.00
1200.137, 42189.00
1201.221, 42036.00
1202.305, 41941.00
1203.388, 42314.00
1204.471, 41796.00
1205.554, 42304.00
1206.637, 42227.00
1207.719, 42018.00
1208.802, 42505.00
1209.884, 42156.00
1210.966, 42184.00
1212.048, 42421.00
1213.130, 42385.00
1214.212, 42198.00
1215.293, 42524.00
1216.374, 42334.00
1217.456, 42530.00
1218.536, 42578.00
1219.617, 42719.00
1220.698, 42652.70
1221.778, 42619.00
1222.859, 42535.00
1223.939, 42489.00
1225.019, 42592.00
1226.099, 42717.00
1227.178, 42839.00
1228.258, 42705.00
1229.337, 42716.00
1230.417, 42467.00
1231.496, 42726.00
1232.574, 43097.00
1233.653, 42687.00
1234.732, 42932.00
1235.810, 42854.00
1236.888, 42757.00
1237.966, 43117.00
1239.044, 43278.00
1240.122, 42986.00
1241.199, 43066.00
1242.277, 42993.00
1243.354, 43249.00
1244.431, 43318.00
1245.508, 43400.00
1246.585, 43225.00
1247.661, 42983.00
1248.738, 43265.00
1249.814, 43025.00
1250.890, 43357.00
1251.966, 43152.00
1253.042, 43245.00
1254.117, 43378.00
1255.193, 43338.00
1256.268, 43623.00
1257.343, 43714.00
1258.418, 43530.00
1259.493, 43320.00
1260.567, 43714.00
1261.642, 43480.00
1262.716, 43437.00
1263.790, 43591.00
1264.864, 43276.00
