##NAMES=Astrophyllite
##RRUFFID=R060202
##IDEAL CHEMISTRY=K_2_NaFe^2+^_7_Ti^4+^_2_(Si_4_O_12_)_2_O_2_(OH)_4_F
##LOCALITY=Demix Quarry, Mont Saint-Hilaire, Rouville County, Quebec, Canada
##OWNER=RRUFF
##SOURCE=Royal Ontario Museum
##DESCRIPTION=Aggregate of brown splintered wafers
##STATUS=The identification of this mineral has been confirmed by X-ray diffraction and chemical analysis
##URL=rruff.info/R060202
##MEASURED CHEMISTRY=(K_0.56_Na_0.38_Ca_0.06_)_3_(Fe^2+^_0.52_Mn_0.44_Mg_0.04_)_7_(Ti_0.75_Zr_0.15_Al_0.15_)_2_Si_8_O_24_(O_0.27_OH_0.73_)_7_
##PIN_ID=M00215
##ORIENTATION=Laser parallel to (1 1 0). Fiducial mark perpendicular to laser is parallel to -c [0 0 -1]
79.89500, 17173.00
81.13100, 18006.00
82.36700, 19542.00
83.60200, 20686.00
84.83700, 22116.00
86.07200, 23067.00
87.30800, 23953.00
88.54200, 24957.00
89.77700, 25522.00
91.01200, 26326.00
92.24600, 26689.00
93.48000, 26951.00
94.71400, 26847.00
95.94800, 27145.00
97.18200, 27256.00
98.41600, 27292.00
99.64900, 27074.49
100.8830, 26933.00
102.1160, 26336.00
103.3490, 25551.00
104.5820, 25059.00
105.8150, 24759.00
107.0470, 24745.00
108.2800, 24743.00
109.5120, 24251.64
110.7440, 25101.00
111.9760, 23452.00
113.2080, 22815.00
114.4400, 22623.00
115.6710, 22758.00
116.9030, 22916.00
118.1340, 22630.00
119.3650, 22291.00
120.5960, 21993.00
121.8270, 22011.00
123.0580, 22408.00
124.2880, 22579.00
125.5190, 22714.00
126.7490, 22817.00
127.9790, 23135.00
129.2090, 23280.00
130.4390, 22924.00
131.6680, 22684.00
132.8980, 21783.00
134.1270, 21203.00
135.3560, 20961.00
136.5850, 21611.00
137.8140, 20790.00
139.0430, 20556.00
140.2710, 20330.00
141.5000, 20041.00
142.7280, 19725.00
143.9560, 19573.00
145.1840, 19570.00
146.4120, 19508.00
147.6390, 19602.00
148.8670, 19803.00
150.0940, 19492.00
151.3210, 19944.00
152.5490, 20043.00
153.7750, 20481.00
155.0020, 20726.00
156.2290, 20966.00
157.4550, 21099.00
158.6810, 21631.00
159.9080, 21947.00
161.1340, 22422.00
162.3590, 22794.00
163.5850, 23235.00
164.8110, 23503.00
166.0360, 24064.00
167.2610, 24346.00
168.4860, 24526.00
169.7110, 24605.56
170.9360, 24564.00
172.1610, 24315.00
173.3850, 24103.00
174.6100, 23653.00
175.8340, 23253.00
177.0580, 22604.00
178.2820, 22279.00
179.5050, 21969.00
180.7290, 21792.00
181.9520, 21352.00
183.1760, 21249.00
184.3990, 21074.00
185.6220, 20966.00
186.8450, 21095.00
188.0670, 20931.00
189.2900, 21049.00
190.5120, 21156.00
191.7340, 21227.00
192.9560, 21462.00
194.1780, 21782.00
195.4000, 22011.00
196.6220, 22340.00
197.8430, 22666.00
199.0640, 22858.00
200.2860, 23473.00
201.5070, 23874.00
202.7270, 24172.00
203.9480, 24578.00
205.1690, 23880.00
206.3890, 23643.00
207.6090, 23497.00
208.8290, 23616.00
210.0490, 23623.00
211.2690, 23631.00
212.4890, 24413.00
213.7080, 24631.00
214.9280, 24923.00
216.1470, 25401.00
217.3660, 25633.00
218.5850, 26116.00
219.8030, 26627.00
221.0220, 27142.00
222.2400, 27514.00
223.4590, 27908.00
224.6770, 28305.00
225.8950, 28708.00
227.1120, 29209.00
228.3300, 29813.00
229.5480, 30243.00
230.7650, 30822.00
231.9820, 31432.00
233.1990, 32202.00
234.4160, 32306.00
235.6330, 32844.00
236.8490, 33158.00
238.0660, 33372.00
239.2820, 33472.00
240.4980, 33549.00
241.7140, 33635.00
242.9300, 33039.00
244.1460, 32832.00
245.3610, 32407.00
246.5770, 31648.00
247.7920, 31537.00
249.0070, 31136.00
250.2220, 30707.00
251.4370, 30485.00
252.6510, 30146.00
253.8660, 30046.00
255.0800, 29901.00
256.2940, 29613.00
257.5080, 29559.00
258.7220, 29186.00
259.9360, 29540.00
261.1490, 28783.10
262.3630, 28290.00
263.5760, 27475.00
264.7890, 26516.00
266.0020, 25787.00
267.2150, 25236.00
268.4270, 24538.00
269.6400, 23908.00
270.8520, 23265.00
272.0640, 22663.00
273.2760, 22338.00
274.4880, 21862.00
275.7000, 21526.00
276.9120, 21026.00
278.1230, 20830.00
279.3340, 20681.00
280.5450, 20318.00
281.7560, 20177.00
282.9670, 20106.00
284.1780, 19791.00
285.3880, 19646.00
286.5980, 19692.00
287.8090, 19573.00
289.0190, 19480.00
290.2290, 19436.00
291.4380, 19416.00
292.6480, 19349.00
293.8570, 19424.00
295.0670, 19390.00
296.2760, 19255.00
297.4850, 19344.00
298.6930, 19344.00
299.9020, 19152.00
301.1110, 19203.00
302.3190, 19226.00
303.5270, 19305.00
304.7350, 19210.00
305.9430, 19345.00
307.1510, 19137.00
308.3580, 19143.00
309.5660, 19251.00
310.7730, 19204.00
311.9800, 19418.00
313.1870, 19315.00
314.3940, 19484.00
315.6010, 19487.00
316.8070, 19511.00
318.0130, 19660.00
319.2200, 19730.00
320.4260, 19807.00
321.6310, 19884.00
322.8370, 19958.00
324.0430, 20006.00
325.2480, 20065.98
326.4540, 20133.00
327.6590, 20090.00
328.8640, 20178.00
330.0680, 20041.00
331.2730, 20296.00
332.4780, 20372.00
333.6820, 20654.00
334.8860, 20717.45
336.0900, 20846.53
337.2940, 20873.00
338.4980, 21094.00
339.7010, 21181.00
340.9050, 21416.00
342.1080, 21640.00
343.3110, 21661.00
344.5140, 21887.00
345.7170, 21898.00
346.9200, 21725.00
348.1220, 21929.00
349.3240, 21965.00
350.5270, 21750.00
351.7290, 22079.00
352.9310, 22009.00
354.1320, 21927.00
355.3340, 21864.00
356.5350, 22127.00
357.7370, 22074.00
358.9380, 22302.00
360.1390, 22301.38
361.3400, 22435.00
362.5400, 22302.00
363.7410, 22157.00
364.9410, 22126.00
366.1410, 21970.44
367.3410, 21949.00
368.5410, 21806.00
369.7410, 21545.00
370.9400, 21607.00
372.1400, 21514.00
373.3390, 21166.00
374.5380, 21288.00
375.7370, 21216.76
376.9360, 21299.00
378.1350, 21364.00
379.3330, 21486.00
380.5310, 21655.00
381.7300, 21884.00
382.9280, 21694.00
384.1260, 21816.00
385.3230, 21749.27
386.5210, 21846.00
387.7180, 21587.00
388.9160, 21488.00
390.1130, 21380.00
391.3100, 21288.00
392.5060, 21307.00
393.7030, 21216.00
394.9000, 20946.00
396.0960, 20995.00
397.2920, 20891.00
398.4880, 20964.00
399.6840, 20987.00
400.8800, 20789.00
402.0750, 20806.00
403.2710, 20779.00
404.4660, 20719.00
405.6610, 20697.00
406.8560, 20635.00
408.0510, 20447.00
409.2450, 20627.00
410.4400, 20739.00
411.6340, 20499.00
412.8280, 20599.00
414.0220, 20812.00
415.2160, 20711.00
416.4100, 20833.00
417.6030, 21010.00
418.7970, 21161.00
419.9900, 21122.00
421.1830, 21148.00
422.3760, 20999.00
423.5690, 21138.00
424.7610, 20808.00
425.9540, 20604.00
427.1460, 20493.00
428.3380, 20065.00
429.5300, 19959.00
430.7220, 19792.00
431.9140, 19560.00
433.1050, 19406.00
434.2970, 19076.00
435.4880, 18984.00
436.6790, 18793.00
437.8700, 18583.00
439.0610, 18620.00
440.2510, 18303.00
441.4420, 18240.00
442.6320, 18188.00
443.8220, 18103.00
445.0120, 18022.00
446.2020, 18057.00
447.3910, 18013.00
448.5810, 18020.00
449.7700, 18104.00
450.9600, 18080.00
452.1490, 18051.00
453.3370, 18237.00
454.5260, 18307.00
455.7150, 18416.00
456.9030, 18455.00
458.0910, 18642.00
459.2800, 18828.00
460.4670, 18978.00
461.6550, 19186.62
462.8430, 19477.00
464.0300, 19569.00
465.2180, 19782.00
466.4050, 19946.00
467.5920, 19864.00
468.7790, 20066.00
469.9650, 20218.00
471.1520, 19998.00
472.3380, 20233.00
473.5250, 20251.00
474.7110, 19850.00
475.8970, 19911.00
477.0820, 19913.00
478.2680, 19741.73
479.4540, 19720.00
480.6390, 19669.00
481.8240, 19610.00
483.0090, 19712.00
484.1940, 19480.00
485.3780, 19627.00
486.5630, 19629.00
487.7470, 19366.00
488.9320, 19498.00
490.1160, 19329.00
491.3000, 19152.00
492.4830, 19077.00
493.6670, 19079.00
494.8500, 19084.00
496.0340, 18987.00
497.2170, 18746.00
498.4000, 18945.00
499.5820, 18501.00
500.7650, 18589.00
501.9480, 18526.00
503.1300, 18592.00
504.3120, 18716.00
505.4940, 18683.00
506.6760, 18595.00
507.8580, 18508.00
509.0390, 18651.00
510.2210, 18655.00
511.4020, 18691.00
512.5830, 18562.00
513.7640, 18469.00
514.9450, 18353.00
516.1250, 18278.00
517.3060, 18303.12
518.4860, 18385.00
519.6660, 18368.00
520.8460, 18382.00
522.0260, 18334.00
523.2060, 18380.00
524.3850, 18454.00
525.5650, 18476.00
526.7440, 18511.00
527.9230, 18687.00
529.1020, 18665.00
530.2810, 19511.00
531.4590, 18918.00
532.6380, 19377.00
533.8160, 19035.00
534.9940, 19118.00
536.1720, 19244.00
537.3500, 19535.00
538.5270, 19854.00
539.7050, 20038.00
540.8820, 20352.09
542.0590, 20487.00
543.2360, 20994.00
544.4130, 21445.00
545.5900, 21987.00
546.7660, 22562.00
547.9430, 23261.00
549.1190, 24362.00
550.2950, 25051.00
551.4710, 25933.00
552.6470, 26744.00
553.8220, 27307.00
554.9980, 27994.00
556.1730, 28353.36
557.3480, 28826.00
558.5230, 28867.00
559.6980, 28897.00
560.8730, 28960.00
562.0470, 28616.00
563.2220, 27922.00
564.3960, 27383.00
565.5700, 26905.00
566.7440, 26458.00
567.9170, 25922.09
569.0910, 25314.00
570.2640, 24974.00
571.4380, 24493.00
572.6110, 24181.58
573.7840, 23890.00
574.9570, 23555.00
576.1290, 23242.00
577.3020, 23086.00
578.4740, 22986.00
579.6460, 22683.00
580.8180, 22618.00
581.9900, 22748.00
583.1620, 22611.00
584.3330, 22542.00
585.5040, 22732.00
586.6760, 22773.00
587.8470, 23660.00
589.0180, 23085.00
590.1880, 23535.00
591.3590, 24224.00
592.5290, 24049.00
593.7000, 23367.00
594.8700, 23414.00
596.0400, 23431.00
597.2090, 23376.00
598.3790, 23351.40
599.5490, 23275.00
600.7180, 23340.00
601.8870, 23194.00
603.0560, 23442.00
604.2250, 23373.00
605.3940, 23221.00
606.5620, 23513.00
607.7300, 23361.00
608.8990, 23497.00
610.0670, 23743.00
611.2350, 23670.00
612.4020, 23640.00
613.5700, 23759.00
614.7370, 23986.00
615.9050, 24018.00
617.0720, 24198.00
618.2390, 24481.00
619.4060, 24492.00
620.5720, 24420.00
621.7390, 25069.00
622.9050, 25016.00
624.0710, 25020.00
625.2370, 25453.00
626.4030, 25489.00
627.5690, 25675.00
628.7340, 25984.00
629.9000, 26304.00
631.0650, 26958.00
632.2300, 27044.00
633.3950, 27382.00
634.5600, 27700.00
635.7240, 28455.00
636.8890, 28869.00
638.0530, 29721.00
639.2170, 30311.00
640.3810, 31483.00
641.5450, 32354.00
642.7080, 33232.00
643.8720, 34659.00
645.0350, 36384.00
646.1980, 37961.00
647.3610, 39918.00
648.5240, 41707.00
649.6870, 44145.00
650.8490, 46111.00
652.0120, 48309.00
653.1740, 49625.00
654.3360, 50861.00
655.4980, 49709.00
656.6600, 48977.00
657.8210, 47068.00
658.9830, 45157.00
660.1440, 42906.00
661.3050, 41277.00
662.4660, 39431.00
663.6270, 38293.00
664.7870, 37149.00
665.9480, 36652.00
667.1080, 36236.00
668.2680, 35899.00
669.4280, 35819.09
670.5880, 36027.00
671.7480, 36044.00
672.9070, 36345.00
674.0670, 36882.00
675.2260, 37333.00
676.3850, 37661.00
677.5440, 38377.00
678.7030, 38727.00
679.8610, 39397.00
681.0200, 40477.00
682.1780, 40550.00
683.3360, 41426.00
684.4940, 42124.00
685.6520, 42441.00
686.8090, 43043.00
687.9670, 43457.00
689.1240, 44170.00
690.2810, 44548.00
691.4380, 44965.00
692.5950, 45354.51
693.7520, 45622.45
694.9080, 45868.00
696.0650, 46194.00
697.2210, 46295.00
698.3770, 46713.00
699.5330, 46639.00
700.6880, 47023.00
701.8440, 47093.00
702.9990, 46943.00
704.1550, 47240.00
705.3100, 47195.00
706.4650, 46814.00
707.6190, 46852.00
708.7740, 46891.00
709.9290, 46954.00
711.0830, 46899.00
712.2370, 46494.00
713.3910, 46491.00
714.5450, 46435.00
715.6980, 45650.00
716.8520, 45308.00
718.0050, 44442.00
719.1580, 43967.00
720.3110, 43424.00
721.4640, 42538.00
722.6170, 41616.00
723.7700, 41089.00
724.9220, 40310.00
726.0740, 39496.00
727.2260, 38681.00
728.3780, 38031.00
729.5300, 37076.00
730.6810, 36398.00
731.8330, 35706.00
732.9840, 35064.00
734.1350, 34430.00
735.2860, 34036.00
736.4370, 33337.00
737.5880, 32516.00
738.7380, 31848.00
739.8880, 31705.00
741.0390, 31024.00
742.1890, 30931.00
743.3380, 30124.00
744.4880, 30117.00
745.6380, 29886.00
746.7870, 29702.00
747.9360, 29370.00
749.0850, 28960.00
750.2340, 28991.00
751.3830, 28946.00
752.5310, 28635.00
753.6800, 28592.20
754.8280, 28449.00
755.9760, 28315.00
757.1240, 28181.53
758.2720, 27834.00
759.4190, 27797.00
760.5670, 27452.00
761.7140, 27116.00
762.8610, 26986.00
764.0080, 26630.00
765.1550, 26307.00
766.3020, 26122.00
767.4480, 25955.00
768.5950, 25535.00
769.7410, 25505.00
770.8870, 25047.00
772.0330, 24986.00
773.1780, 24720.00
774.3240, 24697.00
775.4690, 24513.00
776.6140, 24382.79
777.7590, 24214.00
778.9040, 24142.00
780.0490, 24044.00
781.1940, 23934.00
782.3380, 23865.73
783.4820, 23800.00
784.6260, 23705.00
785.7700, 23642.00
786.9140, 23551.00
788.0580, 23451.49
789.2010, 23376.32
790.3450, 23229.00
791.4880, 23185.00
792.6310, 23047.00
793.7730, 22904.00
794.9160, 22695.00
796.0590, 22462.00
797.2010, 22300.00
798.3430, 22231.00
799.4850, 22002.00
800.6270, 21748.00
801.7690, 21729.00
802.9100, 21643.00
804.0520, 21336.00
805.1930, 21264.00
806.3340, 20996.00
807.4750, 21093.00
808.6160, 20979.00
809.7560, 20765.00
810.8970, 20672.00
812.0370, 20662.00
813.1770, 20520.00
814.3170, 20372.00
815.4570, 20408.00
816.5960, 20257.00
817.7360, 20235.00
818.8750, 20126.00
820.0140, 20068.00
821.1530, 20006.21
822.2920, 19927.00
823.4310, 19895.00
824.5690, 19964.00
825.7070, 19964.00
826.8460, 19935.00
827.9840, 20087.00
829.1220, 19711.00
830.2590, 19867.00
831.3970, 19829.00
832.5340, 19896.00
833.6710, 19805.00
834.8080, 19759.00
835.9450, 19944.00
837.0820, 19760.00
838.2190, 19899.00
839.3550, 19841.00
840.4910, 19900.00
841.6270, 19886.00
842.7630, 20037.00
843.8990, 19802.00
845.0350, 19971.00
846.1700, 20063.00
847.3060, 20219.00
848.4410, 20157.00
849.5760, 20250.00
850.7100, 20108.00
851.8450, 20212.00
852.9800, 20382.00
854.1140, 20441.00
855.2480, 20674.00
856.3820, 20782.46
857.5160, 21038.00
858.6500, 21066.00
859.7830, 21206.00
860.9170, 21346.14
862.0500, 21385.19
863.1830, 21453.00
864.3160, 21538.00
865.4480, 21578.00
866.5810, 21707.00
867.7130, 21953.00
868.8460, 22299.00
869.9780, 22583.00
871.1100, 22476.00
872.2410, 22891.00
873.3730, 23064.00
874.5050, 23341.00
875.6360, 23550.00
876.7670, 23943.00
877.8980, 24312.00
879.0290, 24607.00
880.1590, 24955.00
881.2900, 25286.00
882.4200, 25468.00
883.5500, 25795.00
884.6800, 25986.00
885.8100, 26428.00
886.9400, 26804.00
888.0690, 27091.00
889.1990, 27526.00
890.3280, 27903.28
891.4570, 28311.93
892.5860, 28673.00
893.7140, 29195.00
894.8430, 29465.00
895.9710, 29928.00
897.1000, 30242.00
898.2280, 30835.00
899.3560, 31246.00
900.4830, 31747.00
901.6110, 32018.00
902.7380, 32692.00
903.8660, 33171.00
904.9930, 33698.00
906.1200, 34262.12
907.2460, 34781.87
908.3730, 35296.00
909.5000, 35860.00
910.6260, 36334.00
911.7520, 36826.00
912.8780, 37264.00
914.0040, 37756.00
915.1290, 38078.00
916.2550, 38391.89
917.3800, 38689.00
918.5050, 38849.00
919.6300, 38860.00
920.7550, 38992.00
921.8800, 39185.00
923.0040, 39463.00
924.1290, 39163.00
925.2530, 39290.00
926.3770, 39178.00
927.5010, 39277.00
928.6250, 39362.00
929.7480, 39167.00
930.8720, 38858.00
931.9950, 38546.00
933.1180, 38359.00
934.2410, 38032.00
935.3640, 37720.00
936.4860, 37054.00
937.6090, 36576.00
938.7310, 36323.00
939.8530, 35508.00
940.9750, 34965.00
942.0970, 34399.00
943.2180, 33754.00
944.3400, 32937.00
945.4610, 32661.00
946.5820, 31720.00
947.7030, 31314.00
948.8240, 30822.00
949.9450, 30178.00
951.0650, 29584.00
952.1860, 29101.92
953.3060, 28659.20
954.4260, 28134.00
955.5460, 27878.00
956.6650, 27456.00
957.7850, 26953.00
958.9040, 26457.00
960.0230, 25811.00
961.1420, 25409.00
962.2610, 24931.00
963.3800, 24398.00
964.4990, 24191.00
965.6170, 23763.00
966.7350, 23458.00
967.8530, 23234.67
968.9710, 22940.96
970.0890, 22814.00
971.2070, 22519.00
972.3240, 22368.00
973.4410, 22206.00
974.5580, 22215.00
975.6750, 21866.00
976.7920, 21873.00
977.9090, 21485.00
979.0250, 21626.00
980.1410, 21410.00
981.2580, 21648.00
982.3740, 21504.00
983.4890, 21505.00
984.6050, 21470.00
985.7200, 21326.00
986.8360, 21410.00
987.9510, 21591.00
989.0660, 21457.00
990.1810, 21596.00
991.2950, 21763.00
992.4100, 21598.00
993.5240, 21716.00
994.6390, 21848.00
995.7530, 21805.00
996.8660, 22037.00
997.9800, 22029.00
999.0940, 22308.00
1000.207, 22336.00
1001.320, 22454.00
1002.433, 22578.00
1003.546, 22712.85
1004.659, 22999.00
1005.772, 23107.00
1006.884, 23236.00
1007.996, 23549.00
1009.108, 23710.00
1010.220, 24086.00
1011.332, 24385.00
1012.444, 24648.41
1013.555, 25132.00
1014.666, 25255.00
1015.777, 25604.00
1016.888, 25959.00
1017.999, 26353.00
1019.110, 26678.00
1020.220, 27050.00
1021.331, 27399.00
1022.441, 27653.00
1023.551, 27915.00
1024.661, 28210.00
1025.770, 28516.00
1026.880, 28829.00
1027.989, 28787.00
1029.098, 29028.00
1030.207, 29003.00
1031.316, 29042.00
1032.425, 28988.51
1033.533, 28771.00
1034.642, 28603.00
1035.750, 28347.84
1036.858, 28210.00
1037.966, 27789.00
1039.073, 27591.00
1040.181, 27392.00
1041.288, 27014.00
1042.396, 26807.00
1043.503, 26475.00
1044.610, 25884.00
1045.716, 25717.00
1046.823, 25338.00
1047.929, 25085.00
1049.036, 24714.00
1050.142, 24672.00
1051.248, 24205.00
1052.353, 24131.00
1053.459, 23719.00
1054.564, 23636.00
1055.670, 23447.00
1056.775, 23347.00
1057.880, 23196.45
1058.985, 23075.00
1060.089, 22931.00
1061.194, 22854.00
1062.298, 22793.00
1063.402, 22705.90
1064.506, 22694.82
1065.610, 22654.00
1066.713, 22661.00
1067.817, 22787.00
1068.920, 22748.00
1070.023, 22779.00
1071.126, 22806.00
1072.229, 22674.00
1073.332, 22703.00
1074.435, 22716.66
1075.537, 22844.00
1076.639, 22770.00
1077.741, 22806.00
1078.843, 22781.00
1079.945, 22757.00
1081.046, 22667.00
1082.148, 22746.00
1083.249, 22570.00
1084.350, 22634.00
1085.451, 22630.00
1086.551, 22403.00
1087.652, 22582.00
1088.752, 22427.00
1089.853, 22387.00
1090.953, 22250.00
1092.053, 22149.00
1093.152, 22148.00
1094.252, 22061.27
1095.351, 22025.47
1096.451, 21902.00
1097.550, 21816.06
1098.649, 21688.00
1099.748, 21630.00
1100.846, 21546.00
1101.945, 21518.00
1103.043, 21367.00
1104.141, 21297.00
1105.239, 21253.12
1106.337, 21279.00
1107.434, 21159.00
1108.532, 21041.00
1109.629, 20963.00
1110.726, 20878.00
1111.823, 20869.00
1112.920, 20614.00
1114.017, 20752.00
1115.113, 20804.00
1116.210, 20778.00
1117.306, 20592.00
1118.402, 20664.00
1119.498, 20528.00
1120.593, 20682.00
1121.689, 20392.00
1122.784, 20519.00
1123.879, 20773.00
1124.974, 20613.00
1126.069, 20446.00
1127.164, 20376.00
1128.259, 20408.00
1129.353, 20440.00
1130.447, 20451.00
1131.541, 20289.00
1132.635, 20424.00
1133.729, 20188.00
1134.822, 20357.00
1135.916, 20441.00
1137.009, 20357.00
1138.102, 20160.00
1139.195, 20260.00
1140.288, 20277.00
1141.380, 20360.00
1142.473, 20362.74
1143.565, 20191.00
1144.657, 20279.00
1145.749, 20328.00
1146.841, 20121.00
1147.932, 20304.00
1149.024, 20206.00
1150.115, 20087.00
1151.206, 20465.00
1152.297, 20482.00
1153.388, 20153.00
1154.479, 20264.00
1155.569, 20288.00
1156.659, 20412.00
1157.750, 20440.00
1158.839, 20286.00
1159.929, 20228.00
1161.019, 20314.00
1162.108, 20194.00
1163.198, 20256.00
1164.287, 20281.00
1165.376, 20445.00
1166.465, 20081.00
1167.553, 20423.00
1168.642, 20181.00
1169.730, 20385.00
1170.818, 20481.00
1171.906, 20246.00
1172.994, 20412.00
1174.082, 20373.00
1175.170, 20248.00
1176.257, 20241.00
1177.344, 20452.00
1178.431, 20317.00
1179.518, 20465.00
1180.605, 20425.00
1181.691, 20426.00
1182.778, 20268.00
1183.864, 20288.00
1184.950, 20396.00
1186.036, 20360.00
1187.122, 20388.00
1188.207, 20350.00
1189.292, 20401.00
1190.378, 20346.00
1191.463, 20564.00
1192.548, 20301.00
1193.632, 20501.00
1194.717, 20487.00
1195.801, 20474.00
1196.886, 20457.00
1197.970, 20443.00
1199.054, 20395.00
1200.137, 20463.00
1201.221, 20447.00
1202.305, 20467.48
1203.388, 20427.00
1204.471, 20532.00
1205.554, 20460.00
1206.637, 20528.00
1207.719, 20403.00
1208.802, 20429.00
1209.884, 20361.00
1210.966, 20590.00
1212.048, 20638.00
1213.130, 20557.00
1214.212, 20529.00
1215.293, 20526.08
1216.374, 20564.00
1217.456, 20532.00
1218.536, 20540.00
1219.617, 20628.00
1220.698, 20479.00
1221.778, 20356.00
1222.859, 20552.00
1223.939, 20606.00
1225.019, 20593.00
1226.099, 20451.00
1227.178, 20672.00
1228.258, 20644.00
1229.337, 20529.00
1230.417, 20664.00
1231.496, 20757.00
1232.574, 20549.00
1233.653, 20775.00
1234.732, 20583.00
1235.810, 20914.00
1236.888, 20717.00
1237.966, 20884.00
1239.044, 20640.00
1240.122, 20676.00
1241.199, 20842.00
1242.277, 20704.00
1243.354, 20748.00
1244.431, 20968.00
1245.508, 20776.00
1246.585, 20724.00
1247.661, 20695.00
1248.738, 20815.00
1249.814, 20642.00
1250.890, 20906.00
1251.966, 20899.00
1253.042, 20725.00
1254.117, 20985.00
1255.193, 20608.00
