##NAMES=Astrophyllite
##RRUFFID=R060103
##IDEAL CHEMISTRY=K_2_NaFe^2+^_7_Ti^4+^_2_(Si_4_O_12_)_2_O_2_(OH)_4_F
##LOCALITY=Brivik, Norway
##OWNER=RRUFF
##SOURCE=University of Arizona Mineral Museum
##DESCRIPTION=Brown fragment embedded in matrix
##STATUS=The identification of this mineral is confirmed by single-crystal X-ray diffraction and chemical analysis.
##URL=rruff.info/R060103
##MEASURED CHEMISTRY=K_2.00_Na_1.00_(Fe^2+^_0.55_Mn_0.32_Fe^3+^_0.04_Mg_0.04_Ca_0.04_)_7_(Ti_0.66_Zr_0.18_Al_0.16_)_2_Si_8.00_O_26_(OH)_4_F_1.00_
##PIN_ID=M01031
##ORIENTATION=Laser parallel to c* (0 0 1). Fiducial mark perpendicular to laser is parallel to a [1 0 0]
152.6310, 14564.00
153.8640, 14551.00
155.0960, 14601.00
156.3280, 14711.00
157.5600, 14777.00
158.7920, 14998.00
160.0240, 15096.00
161.2560, 15151.00
162.4870, 15466.00
163.7180, 15784.00
164.9490, 15946.00
166.1800, 15966.00
167.4110, 16126.00
168.6410, 16144.00
169.8720, 16321.00
171.1020, 16186.00
172.3320, 16300.00
173.5620, 16141.00
174.7910, 16220.00
176.0210, 15967.00
177.2500, 15679.00
178.4790, 15495.00
179.7080, 15278.13
180.9370, 15105.44
182.1650, 14920.00
183.3940, 14865.00
184.6220, 14705.00
185.8500, 14706.00
187.0780, 14638.00
188.3050, 14438.00
189.5330, 14645.00
190.7600, 14512.00
191.9870, 14680.00
193.2140, 14572.00
194.4410, 14411.00
195.6680, 14546.00
196.8940, 14568.00
198.1200, 14724.00
199.3470, 14843.00
200.5720, 15016.00
201.7980, 15072.00
203.0240, 15147.38
204.2490, 15095.00
205.4740, 15206.00
206.6990, 15063.00
207.9240, 15041.00
209.1490, 15075.00
210.3740, 15174.00
211.5980, 15120.00
212.8220, 15209.00
214.0460, 15335.00
215.2700, 15461.00
216.4930, 15568.73
217.7170, 15574.00
218.9400, 15818.00
220.1630, 15934.00
221.3860, 16087.90
222.6090, 16409.00
223.8320, 16425.00
225.0540, 16570.00
226.2760, 16793.67
227.4980, 16900.00
228.7200, 17314.00
229.9420, 17480.00
231.1630, 17775.00
232.3850, 17964.00
233.6060, 17933.00
234.8270, 18183.00
236.0480, 18172.00
237.2690, 18266.00
238.4890, 18357.00
239.7090, 18253.00
240.9290, 18179.00
242.1490, 18288.00
243.3690, 18303.00
244.5890, 17878.00
245.8080, 17376.00
247.0270, 17471.00
248.2470, 17188.00
249.4650, 16671.00
250.6840, 16535.00
251.9030, 16300.00
253.1210, 16167.00
254.3390, 15810.00
255.5570, 15665.00
256.7750, 15507.00
257.9930, 15346.00
259.2100, 15246.97
260.4280, 15137.70
261.6450, 15020.82
262.8620, 14931.82
264.0790, 14830.00
265.2950, 14749.25
266.5120, 14685.00
267.7280, 14602.00
268.9440, 14555.00
270.1600, 14413.00
271.3760, 14258.00
272.5920, 14366.00
273.8070, 14237.00
275.0220, 14023.00
276.2370, 14067.00
277.4520, 14093.00
278.6670, 13921.00
279.8820, 13875.00
281.0960, 13878.00
282.3100, 13858.00
283.5240, 13736.00
284.7380, 13686.00
285.9520, 13512.00
287.1650, 13555.00
288.3780, 13655.00
289.5920, 13386.00
290.8050, 13501.00
292.0170, 13510.00
293.2300, 13475.00
294.4430, 13606.00
295.6550, 13547.00
296.8670, 13567.00
298.0790, 13612.00
299.2910, 13652.00
300.5020, 13687.00
301.7140, 13695.00
302.9250, 13871.00
304.1360, 13783.00
305.3470, 13851.00
306.5580, 13689.00
307.7680, 13730.00
308.9780, 13908.00
310.1890, 13961.00
311.3990, 13815.00
312.6090, 13909.00
313.8180, 13834.00
315.0280, 13909.00
316.2370, 13776.00
317.4460, 14060.00
318.6550, 13907.00
319.8640, 13927.00
321.0730, 14029.00
322.2810, 13909.00
323.4890, 13940.00
324.6980, 14172.00
325.9060, 14104.00
327.1130, 14209.00
328.3210, 14269.00
329.5280, 14085.00
330.7360, 14228.00
331.9430, 14292.00
333.1500, 14338.00
334.3560, 14421.00
335.5630, 14491.78
336.7690, 14512.00
337.9760, 14666.00
339.1820, 14752.00
340.3870, 14863.00
341.5930, 15030.00
342.7990, 15176.00
344.0040, 15341.00
345.2090, 15448.00
346.4140, 15548.00
347.6190, 15627.00
348.8240, 15607.00
350.0280, 15746.00
351.2330, 15961.00
352.4370, 15859.00
353.6410, 16030.00
354.8440, 16114.00
356.0480, 16156.00
357.2520, 16300.00
358.4550, 16083.00
359.6580, 16273.00
360.8610, 16136.00
362.0640, 16101.00
363.2660, 16083.00
364.4690, 15997.00
365.6710, 15921.00
366.8730, 16040.00
368.0750, 15849.00
369.2770, 15601.00
370.4780, 15743.00
371.6800, 15442.00
372.8810, 15745.00
374.0820, 15403.00
375.2830, 15322.00
376.4830, 15234.00
377.6840, 15211.00
378.8840, 15195.00
380.0840, 15187.71
381.2840, 15258.48
382.4840, 15274.00
383.6840, 15379.00
384.8830, 15533.00
386.0830, 15483.00
387.2820, 15537.00
388.4810, 15408.00
389.6800, 15403.00
390.8780, 15379.00
392.0770, 15263.00
393.2750, 15102.00
394.4730, 15160.00
395.6710, 14866.00
396.8690, 14913.00
398.0660, 14837.00
399.2640, 14715.00
400.4610, 14550.00
401.6580, 14493.00
402.8550, 14482.00
404.0520, 14511.00
405.2490, 14325.00
406.4450, 14445.00
407.6410, 14269.00
408.8370, 14227.00
410.0330, 14236.00
411.2290, 14417.00
412.4240, 14076.00
413.6200, 14282.00
414.8150, 14147.00
416.0100, 14405.00
417.2050, 14213.00
418.4000, 14231.00
419.5940, 14240.00
420.7880, 14168.00
421.9830, 14371.00
423.1770, 14273.00
424.3700, 14256.00
425.5640, 14408.00
426.7580, 14380.00
427.9510, 14418.00
429.1440, 14247.00
430.3370, 14227.00
431.5300, 14250.00
432.7220, 14280.00
433.9150, 14346.00
435.1070, 14350.00
436.2990, 14195.00
437.4910, 14184.00
438.6830, 14304.00
439.8750, 14251.00
441.0660, 14387.00
442.2570, 14431.00
443.4480, 14449.00
444.6390, 14513.00
445.8300, 14489.00
447.0210, 14435.00
448.2110, 14504.00
449.4010, 14529.00
450.5910, 14489.00
451.7810, 14548.00
452.9710, 14540.00
454.1610, 14589.14
455.3500, 14826.00
456.5390, 14766.00
457.7280, 14966.00
458.9170, 15205.00
460.1060, 15126.00
461.2940, 15391.00
462.4830, 15285.00
463.6710, 15750.00
464.8590, 15671.00
466.0470, 15865.00
467.2350, 15712.00
468.4220, 15995.00
469.6090, 16186.00
470.7970, 16223.00
471.9840, 16018.00
473.1700, 16020.00
474.3570, 16085.00
475.5440, 16033.00
476.7300, 15966.00
477.9160, 15939.00
479.1020, 15970.00
480.2880, 15918.00
481.4740, 15910.00
482.6590, 15811.00
483.8440, 15891.00
485.0300, 16067.00
486.2140, 16020.00
487.3990, 16212.00
488.5840, 15883.00
489.7680, 16045.00
490.9530, 16011.00
492.1370, 16127.00
493.3210, 15968.00
494.5040, 16025.00
495.6880, 16108.00
496.8720, 16106.00
498.0550, 16118.06
499.2380, 16213.00
500.4210, 16110.00
501.6040, 15971.00
502.7860, 16024.00
503.9690, 16072.00
505.1510, 16080.00
506.3330, 15931.00
507.5150, 16028.00
508.6970, 15895.00
509.8780, 15950.00
511.0600, 15821.00
512.2410, 15800.00
513.4220, 15875.00
514.6030, 15734.00
515.7840, 15703.00
516.9640, 15679.00
518.1440, 15580.00
519.3250, 15571.00
520.5050, 15523.00
521.6850, 15651.00
522.8640, 15713.00
524.0440, 15674.00
525.2230, 15602.00
526.4020, 15654.00
527.5820, 15703.00
528.7600, 15778.00
529.9390, 15699.00
531.1180, 15824.00
532.2960, 15776.00
533.4740, 15837.00
534.6520, 15902.00
535.8300, 15922.00
537.0080, 16013.92
538.1850, 16069.46
539.3630, 16176.00
540.5400, 16239.00
541.7170, 16323.00
542.8940, 16465.00
544.0700, 16671.00
545.2470, 16993.00
546.4230, 17336.00
547.5990, 17223.00
548.7750, 17654.00
549.9510, 17950.00
551.1270, 18359.00
552.3020, 18848.00
553.4780, 19144.00
554.6530, 19684.00
555.8280, 19935.00
557.0030, 20505.00
558.1770, 20700.00
559.3520, 20920.00
560.5260, 21137.00
561.7000, 21190.00
562.8740, 21076.00
564.0480, 21167.00
565.2220, 20768.00
566.3950, 20618.00
567.5680, 20452.00
568.7420, 20125.00
569.9150, 19863.00
571.0870, 19684.00
572.2600, 19308.00
573.4320, 19142.54
574.6050, 18934.00
575.7770, 18789.00
576.9490, 18733.00
578.1210, 18707.00
579.2920, 18578.00
580.4640, 18448.00
581.6350, 18613.00
582.8060, 18604.00
583.9770, 18482.00
585.1480, 18706.00
586.3190, 18699.00
587.4890, 18759.00
588.6590, 18972.00
589.8290, 18949.00
590.9990, 19120.00
592.1690, 19102.00
593.3390, 19202.00
594.5080, 19270.00
595.6770, 19531.00
596.8470, 19623.00
598.0160, 19431.00
599.1840, 19691.00
600.3530, 19563.00
601.5210, 19668.00
602.6900, 19585.00
603.8580, 19675.00
605.0260, 19642.00
606.1930, 19581.00
607.3610, 19499.00
608.5280, 19559.00
609.6960, 19663.00
610.8630, 19652.00
612.0300, 19762.00
613.1970, 19872.00
614.3630, 19975.77
615.5300, 20264.00
616.6960, 20319.00
617.8620, 20761.00
619.0280, 21079.00
620.1940, 21290.00
621.3590, 21643.00
622.5250, 22027.00
623.6900, 22296.00
624.8550, 22299.00
626.0200, 22433.00
627.1850, 22316.00
628.3490, 22019.00
629.5140, 21822.00
630.6780, 21675.00
631.8420, 21653.00
633.0060, 21736.00
634.1700, 21672.00
635.3330, 21848.00
636.4970, 22026.00
637.6600, 22022.00
638.8230, 22516.00
639.9860, 22996.00
641.1490, 23586.00
642.3110, 23957.00
643.4740, 24681.00
644.6360, 25259.00
645.7980, 25742.00
646.9600, 26461.00
648.1220, 27121.00
649.2840, 27967.00
650.4450, 28385.00
651.6060, 29416.00
652.7670, 29891.00
653.9280, 30307.00
655.0890, 30246.00
656.2500, 30216.00
657.4100, 29563.00
658.5700, 28989.00
659.7300, 27984.00
660.8900, 27260.00
662.0500, 26472.00
663.2100, 25642.00
664.3690, 25108.00
665.5280, 24650.00
666.6880, 24384.00
667.8460, 24232.00
669.0050, 24283.00
670.1640, 24091.00
671.3220, 24161.00
672.4810, 24066.00
673.6390, 24179.00
674.7970, 24480.00
675.9540, 24537.00
677.1120, 24686.00
678.2690, 25044.00
679.4270, 25292.00
680.5840, 25524.00
681.7410, 25792.00
682.8980, 25977.00
684.0540, 26281.00
685.2110, 26769.00
686.3670, 27263.00
687.5230, 27183.00
688.6790, 27839.00
689.8350, 28025.00
690.9900, 28247.00
692.1460, 28716.00
693.3010, 28734.00
694.4560, 29323.00
695.6110, 29357.00
696.7660, 29717.00
697.9210, 29655.00
699.0750, 30198.00
700.2290, 30028.00
701.3840, 30351.00
702.5370, 30668.00
703.6910, 30929.00
704.8450, 30788.00
705.9980, 30918.00
707.1520, 31059.00
708.3050, 31018.00
709.4580, 31237.00
710.6110, 31138.00
711.7630, 31481.00
712.9160, 31229.00
714.0680, 31374.00
715.2200, 31145.00
716.3720, 31249.00
717.5240, 31034.00
718.6760, 31099.00
719.8270, 30792.00
720.9780, 30427.00
722.1300, 30437.00
723.2810, 30098.00
724.4310, 29883.00
725.5820, 29484.00
726.7330, 29376.00
727.8830, 28861.00
729.0330, 28755.00
730.1830, 28549.00
731.3330, 27899.00
732.4830, 27652.00
733.6320, 27108.00
734.7810, 26760.99
735.9310, 26545.00
737.0800, 26174.00
738.2290, 25812.00
739.3770, 25695.00
740.5260, 25381.00
741.6740, 24899.00
742.8220, 24949.00
743.9700, 24662.00
745.1180, 24724.00
746.2660, 24467.00
747.4130, 24311.00
748.5610, 24383.00
749.7080, 24096.00
750.8550, 24080.00
752.0020, 24279.00
753.1490, 23996.00
754.2950, 24035.00
755.4420, 24057.00
756.5880, 23960.00
757.7340, 23912.69
758.8800, 23837.00
760.0250, 23715.00
761.1710, 23647.00
762.3160, 23581.00
763.4620, 23393.00
764.6070, 23370.67
765.7520, 23244.00
766.8960, 23260.00
768.0410, 23103.00
769.1850, 23065.00
770.3300, 22973.63
771.4740, 22789.00
772.6180, 22783.00
773.7610, 22621.00
774.9050, 22526.00
776.0480, 22394.00
777.1920, 22331.00
778.3350, 22435.00
779.4780, 22355.00
780.6200, 22321.00
781.7630, 22306.00
782.9060, 22252.00
784.0480, 22364.00
785.1900, 22230.00
786.3320, 22297.00
787.4740, 22355.00
788.6150, 22269.00
789.7570, 22119.00
790.8980, 22307.00
792.0390, 22195.00
793.1800, 22167.00
794.3210, 22221.00
795.4620, 22151.21
796.6020, 22345.00
797.7420, 22094.00
798.8830, 22036.00
800.0230, 21953.00
801.1620, 21704.00
802.3020, 21878.00
803.4420, 21771.00
804.5810, 21696.00
805.7200, 21829.00
806.8590, 21860.00
807.9980, 21831.00
809.1370, 21967.00
810.2750, 22153.00
811.4140, 22031.00
812.5520, 22323.00
813.6900, 22269.00
814.8280, 21824.00
815.9650, 21773.00
817.1030, 21587.00
818.2400, 21559.00
819.3780, 21454.45
820.5150, 21370.00
821.6520, 21382.00
822.7880, 21402.00
823.9250, 21414.32
825.0610, 21494.06
826.1980, 21572.00
827.3340, 21606.00
828.4700, 21639.91
829.6050, 21751.00
830.7410, 21675.00
831.8760, 21669.00
833.0120, 21711.00
834.1470, 21805.00
835.2820, 21587.00
836.4160, 21834.00
837.5510, 21819.00
838.6860, 22096.00
839.8200, 22266.00
840.9540, 22226.00
842.0880, 22341.00
843.2220, 22420.00
844.3550, 22630.00
845.4890, 22788.00
846.6220, 23021.00
847.7550, 23149.00
848.8880, 23504.00
850.0210, 23510.00
851.1540, 23872.00
852.2860, 24205.00
853.4190, 24570.00
854.5510, 24798.00
855.6830, 25167.00
856.8150, 25570.00
857.9460, 25729.00
859.0780, 25792.00
860.2090, 25810.00
861.3410, 25708.00
862.4720, 25597.00
863.6020, 24960.00
864.7330, 24755.00
865.8640, 24363.00
866.9940, 24041.00
868.1240, 23715.00
869.2540, 23651.00
870.3840, 23449.00
871.5140, 23237.00
872.6440, 23317.00
873.7730, 22987.00
874.9020, 23265.00
876.0320, 23248.00
877.1600, 23179.00
878.2890, 23280.00
879.4180, 23227.00
880.5460, 23248.08
881.6750, 23259.00
882.8030, 23290.00
883.9310, 23276.00
885.0590, 23339.00
886.1860, 23474.00
887.3140, 23525.00
888.4410, 23458.00
889.5680, 23641.00
890.6950, 23693.00
891.8220, 23824.00
892.9490, 23922.00
894.0750, 24070.00
895.2020, 24106.00
896.3280, 24137.00
897.4540, 24271.00
898.5800, 24408.00
899.7050, 24499.00
900.8310, 24453.00
901.9560, 24544.00
903.0820, 24759.00
904.2070, 24566.00
905.3320, 24768.00
906.4560, 24661.00
907.5810, 24652.00
908.7050, 24789.00
909.8300, 24773.00
910.9540, 24858.00
912.0780, 24884.00
913.2010, 25063.00
914.3250, 24791.00
915.4480, 24602.00
916.5720, 24814.00
917.6950, 24522.00
918.8180, 24845.00
919.9410, 24584.00
921.0630, 24546.00
922.1860, 24528.00
923.3080, 24594.00
924.4300, 24589.00
925.5520, 24588.17
926.6740, 24626.00
927.7960, 24571.00
928.9170, 24528.00
930.0390, 24512.00
931.1600, 24499.00
932.2810, 24462.15
933.4020, 24559.00
934.5230, 24380.00
935.6430, 24318.00
936.7640, 24224.00
937.8840, 24041.00
939.0040, 24140.00
940.1240, 24003.00
941.2440, 24019.00
942.3630, 23777.00
943.4830, 23718.00
944.6020, 23543.00
945.7210, 23644.00
946.8400, 23653.00
947.9590, 23574.00
949.0770, 23668.00
950.1960, 23738.00
951.3140, 23832.00
952.4320, 23603.00
953.5500, 23835.00
954.6680, 23534.00
955.7860, 23747.00
956.9030, 23453.00
958.0210, 23395.00
959.1380, 23337.00
960.2550, 23384.00
961.3720, 23256.00
962.4890, 23251.00
963.6050, 23431.00
964.7220, 23287.00
965.8380, 23343.79
966.9540, 23349.63
968.0700, 23264.00
969.1860, 23304.00
970.3010, 23171.00
971.4170, 23078.00
972.5320, 22994.00
973.6470, 23029.00
974.7620, 22805.00
975.8770, 22962.00
976.9910, 23040.00
978.1060, 22790.00
979.2200, 22963.00
980.3340, 22940.00
981.4480, 22944.00
982.5620, 23209.00
983.6760, 23426.00
984.7890, 23311.00
985.9030, 23312.00
987.0160, 23549.00
988.1290, 23436.00
989.2420, 23528.00
990.3550, 23551.00
991.4670, 23552.00
992.5800, 23676.00
993.6920, 23879.00
994.8040, 24185.60
995.9160, 24551.06
997.0280, 25084.00
998.1390, 25554.00
999.2510, 26220.00
1000.362, 26957.00
1001.473, 26951.00
1002.584, 26818.00
1003.695, 26220.00
1004.805, 25823.00
1005.916, 25380.00
1007.026, 25072.90
1008.136, 24885.01
1009.246, 24663.00
1010.356, 24753.00
1011.466, 24751.00
1012.576, 24929.00
1013.685, 25033.00
1014.794, 25047.00
1015.903, 25575.00
1017.012, 25616.00
1018.121, 26007.00
1019.229, 26227.00
1020.338, 26343.00
1021.446, 26414.00
1022.554, 26533.00
1023.662, 26653.00
1024.770, 26529.00
1025.878, 26647.00
1026.985, 26509.00
1028.092, 26579.00
1029.200, 26306.00
1030.307, 26263.52
1031.413, 26337.00
1032.520, 26072.00
1033.627, 26021.00
1034.733, 26010.00
1035.839, 25806.00
1036.945, 25959.00
1038.051, 25785.07
1039.157, 25818.00
1040.262, 25713.00
1041.368, 25446.00
1042.473, 25680.00
1043.578, 25577.00
1044.683, 25256.00
1045.788, 25287.00
1046.893, 25191.00
1047.997, 25080.00
1049.101, 25170.00
1050.205, 24843.00
1051.309, 25005.00
1052.413, 24932.00
1053.517, 24792.00
1054.621, 24666.00
1055.724, 24699.00
1056.827, 24717.00
1057.930, 24687.00
1059.033, 24776.00
1060.136, 24637.00
1061.238, 24877.00
1062.341, 24719.00
1063.443, 24722.00
1064.545, 24911.00
1065.647, 24685.00
1066.749, 24841.00
1067.850, 24660.00
1068.952, 24835.00
1070.053, 24922.00
1071.154, 25055.00
1072.255, 25159.00
1073.356, 25371.00
1074.457, 25118.00
1075.557, 25414.00
1076.658, 25624.00
1077.758, 25547.00
1078.858, 25781.00
1079.958, 25791.00
1081.057, 25946.00
1082.157, 26075.00
1083.256, 26158.00
1084.356, 26132.00
1085.455, 25967.00
1086.554, 25987.00
1087.653, 25841.00
1088.751, 25738.00
1089.850, 25625.00
1090.948, 25510.00
1092.046, 25542.00
1093.144, 25561.00
1094.242, 25519.00
1095.340, 25383.00
1096.437, 25592.00
1097.534, 25555.00
1098.632, 25460.00
1099.729, 25533.00
1100.826, 25592.00
1101.922, 25658.00
1103.019, 25480.00
1104.115, 25896.00
1105.212, 25713.00
1106.308, 25761.00
1107.404, 26062.00
1108.499, 26112.00
1109.595, 26205.00
1110.691, 26040.00
1111.786, 26071.00
1112.881, 26006.00
1113.976, 26093.00
1115.071, 25728.00
1116.166, 25905.00
1117.260, 25791.00
1118.355, 25847.00
1119.449, 25849.00
1120.543, 25774.04
1121.637, 25525.00
1122.731, 25651.00
1123.824, 25527.00
1124.918, 25431.00
1126.011, 25526.00
1127.104, 25463.00
1128.197, 25431.00
1129.290, 25452.75
1130.382, 25397.00
1131.475, 25436.00
1132.567, 25379.00
1133.659, 25368.00
1134.751, 25247.00
1135.843, 25307.00
1136.935, 25246.00
1138.027, 25297.00
1139.118, 25237.00
1140.209, 25198.00
1141.300, 25261.00
1142.391, 25141.00
1143.482, 25277.00
1144.573, 25264.00
1145.663, 25363.00
1146.754, 25328.00
1147.844, 25152.00
1148.934, 25335.00
1150.024, 25297.00
1151.113, 25406.00
1152.203, 25247.00
1153.292, 25400.00
1154.381, 25412.00
1155.470, 25729.00
1156.559, 25589.00
1157.648, 25765.00
1158.737, 25599.00
1159.825, 25574.00
1160.913, 25723.00
1162.001, 26051.00
1163.089, 25935.14
1164.177, 26140.00
1165.265, 25922.00
1166.352, 25910.00
1167.440, 25984.00
1168.527, 25855.00
1169.614, 25772.00
1170.701, 26094.00
1171.788, 25990.00
1172.874, 26032.00
1173.961, 26108.00
1175.047, 26115.00
1176.133, 26169.00
1177.219, 26129.00
1178.305, 26075.00
1179.390, 25895.00
1180.476, 26085.00
1181.561, 26065.00
1182.646, 25943.00
1183.731, 26120.00
1184.816, 26046.00
1185.901, 26080.00
1186.985, 26072.00
1188.070, 26068.00
1189.154, 25947.00
1190.238, 26074.00
1191.322, 26176.00
1192.406, 25778.00
1193.489, 25912.00
1194.573, 26005.00
1195.656, 26130.00
1196.739, 26041.00
1197.822, 26122.00
1198.905, 26122.00
1199.988, 26139.00
1201.070, 26195.26
1202.153, 26029.00
1203.235, 26221.00
1204.317, 26250.00
1205.399, 26134.00
1206.481, 25992.00
1207.562, 26246.00
1208.644, 25942.00
1209.725, 26285.00
1210.806, 26566.00
1211.887, 26427.00
1212.968, 26563.00
1214.049, 26663.00
1215.129, 26528.00
1216.209, 26582.00
1217.290, 26702.00
1218.370, 26630.00
1219.450, 26817.00
1220.529, 26739.00
1221.609, 26825.00
1222.688, 26474.00
1223.768, 26691.00
1224.847, 26657.00
1225.926, 26915.00
1227.005, 26835.00
1228.083, 26898.00
1229.162, 27037.00
1230.240, 27226.00
1231.318, 27296.00
1232.396, 27499.00
1233.474, 27389.00
1234.552, 27709.00
1235.629, 27753.00
1236.707, 27653.00
1237.784, 27746.00
1238.861, 27636.00
1239.938, 27679.00
1241.015, 27619.00
1242.092, 27586.98
1243.168, 27752.00
1244.244, 27575.00
1245.321, 27725.00
1246.397, 27831.00
1247.473, 27833.00
1248.548, 28014.00
1249.624, 27884.00
1250.699, 27999.00
1251.775, 27795.00
1252.850, 27796.00
1253.925, 27777.00
1254.999, 28122.00
1256.074, 28116.00
1257.148, 28144.00
1258.223, 28008.00
1259.297, 28158.00
1260.371, 28195.00
1261.445, 28573.00
1262.519, 28428.00
1263.592, 28479.00
1264.666, 28777.00
1265.739, 28722.00
1266.812, 28759.00
1267.885, 28951.00
1268.958, 29003.00
1270.030, 29034.00
1271.103, 28898.00
1272.175, 29155.00
1273.247, 29000.00
1274.319, 29254.00
1275.391, 29165.00
1276.463, 28895.00
1277.535, 28729.00
1278.606, 28667.21
1279.677, 28569.64
1280.748, 28569.00
1281.819, 28549.00
1282.890, 28538.00
1283.961, 28551.00
1285.031, 28567.00
1286.102, 28563.00
1287.172, 28718.00
1288.242, 28534.00
1289.312, 28520.00
1290.381, 28914.00
1291.451, 29160.00
1292.520, 29137.00
1293.590, 29064.00
1294.659, 29272.00
1295.728, 29178.00
1296.797, 29206.00
1297.865, 29081.00
1298.934, 29143.00
1300.002, 29138.00
1301.070, 29019.00
1302.138, 29024.00
1303.206, 29210.00
1304.274, 29045.00
1305.341, 29268.00
1306.409, 29477.00
1307.476, 29575.00
1308.543, 29549.00
1309.610, 29630.00
1310.677, 29637.00
1311.744, 29674.00
1312.810, 29969.00
1313.877, 29456.00
1314.943, 29462.00
1316.009, 29874.00
1317.075, 29741.00
1318.140, 29936.00
1319.206, 29820.00
