##NAMES=Astrophyllite
##RRUFFID=R060202
##IDEAL CHEMISTRY=K_2_NaFe^2+^_7_Ti^4+^_2_(Si_4_O_12_)_2_O_2_(OH)_4_F
##LOCALITY=Demix Quarry, Mont Saint-Hilaire, Rouville County, Quebec, Canada
##OWNER=RRUFF
##SOURCE=Royal Ontario Museum
##DESCRIPTION=Aggregate of brown splintered wafers
##STATUS=The identification of this mineral has been confirmed by X-ray diffraction and chemical analysis
##URL=rruff.info/R060202
##MEASURED CHEMISTRY=(K_0.56_Na_0.38_Ca_0.06_)_3_(Fe^2+^_0.52_Mn_0.44_Mg_0.04_)_7_(Ti_0.75_Zr_0.15_Al_0.15_)_2_Si_8_O_24_(O_0.27_OH_0.73_)_7_
##PIN_ID=M00495
##ORIENTATION=Laser parallel to c* (0 0 1). Fiducial mark perpendicular to laser is parallel to a [1 0 0]
147.6390, 31108.00
148.8670, 31071.00
150.0940, 31083.00
151.3210, 32053.00
152.5490, 32657.00
153.7750, 32487.00
155.0020, 32138.00
156.2290, 32217.00
157.4550, 32288.00
158.6810, 32188.00
159.9080, 32320.00
161.1340, 32676.00
162.3590, 33059.00
163.5850, 33215.00
164.8110, 33991.00
166.0360, 33973.00
167.2610, 33972.00
168.4860, 33741.00
169.7110, 33761.00
170.9360, 33925.00
172.1610, 34014.00
173.3850, 33438.00
174.6100, 33267.00
175.8340, 32911.00
177.0580, 33000.00
178.2820, 32700.00
179.5050, 32526.00
180.7290, 32328.00
181.9520, 32471.00
183.1760, 32386.00
184.3990, 32162.00
185.6220, 32583.00
186.8450, 32519.00
188.0670, 32717.00
189.2900, 32752.00
190.5120, 33209.00
191.7340, 33439.00
192.9560, 33646.00
194.1780, 33995.00
195.4000, 34006.00
196.6220, 34428.00
197.8430, 34720.00
199.0640, 34904.00
200.2860, 34860.00
201.5070, 35541.00
202.7270, 36020.00
203.9480, 35632.00
205.1690, 34595.00
206.3890, 34325.00
207.6090, 33712.00
208.8290, 33888.00
210.0490, 34267.00
211.2690, 34394.00
212.4890, 35010.00
213.7080, 35215.00
214.9280, 35524.00
216.1470, 35632.00
217.3660, 35740.00
218.5850, 35999.00
219.8030, 36387.00
221.0220, 36762.00
222.2400, 36987.00
223.4590, 37435.00
224.6770, 37425.00
225.8950, 37934.00
227.1120, 37945.00
228.3300, 38527.00
229.5480, 38738.00
230.7650, 38894.00
231.9820, 38984.00
233.1990, 39066.00
234.4160, 39430.00
235.6330, 39582.00
236.8490, 39658.00
238.0660, 39722.74
239.2820, 39734.00
240.4980, 39574.00
241.7140, 39444.00
242.9300, 39237.00
244.1460, 39163.00
245.3610, 38839.00
246.5770, 38760.00
247.7920, 38638.00
249.0070, 38322.00
250.2220, 38302.00
251.4370, 38236.00
252.6510, 38087.00
253.8660, 38002.00
255.0800, 37706.00
256.2940, 37250.32
257.5080, 37123.78
258.7220, 36904.41
259.9360, 36597.18
261.1490, 35939.32
262.3630, 35734.32
263.5760, 35348.01
264.7890, 34954.24
266.0020, 34866.00
267.2150, 34091.00
268.4270, 34344.00
269.6400, 33945.00
270.8520, 33198.00
272.0640, 33201.00
273.2760, 32818.00
274.4880, 32444.00
275.7000, 32535.00
276.9120, 32689.00
278.1230, 32161.00
279.3340, 32152.00
280.5450, 31886.00
281.7560, 31717.00
282.9670, 31918.00
284.1780, 31340.00
285.3880, 31731.00
286.5980, 31591.00
287.8090, 31683.00
289.0190, 31272.00
290.2290, 31361.00
291.4380, 31281.00
292.6480, 31379.00
293.8570, 31242.00
295.0670, 31255.83
296.2760, 31388.00
297.4850, 31193.00
298.6930, 31196.00
299.9020, 31137.00
301.1110, 31277.00
302.3190, 31519.00
303.5270, 31526.00
304.7350, 31620.50
305.9430, 31642.62
307.1510, 31615.00
308.3580, 31692.00
309.5660, 31584.00
310.7730, 31801.00
311.9800, 31527.00
313.1870, 31686.00
314.3940, 31593.00
315.6010, 31862.00
316.8070, 31726.00
318.0130, 32018.00
319.2200, 31810.00
320.4260, 31704.00
321.6310, 31700.00
322.8370, 32323.00
324.0430, 31918.00
325.2480, 32052.00
326.4540, 32222.00
327.6590, 32054.00
328.8640, 32451.00
330.0680, 32676.00
331.2730, 32598.00
332.4780, 32717.00
333.6820, 32770.00
334.8860, 32792.00
336.0900, 32810.00
337.2940, 32963.00
338.4980, 32980.00
339.7010, 33123.00
340.9050, 33340.00
342.1080, 33312.00
343.3110, 33473.80
344.5140, 33496.00
345.7170, 33529.00
346.9200, 33424.00
348.1220, 33173.00
349.3240, 33538.00
350.5270, 33415.00
351.7290, 33618.00
352.9310, 33528.00
354.1320, 33641.00
355.3340, 33573.00
356.5350, 33851.00
357.7370, 33810.00
358.9380, 33487.00
360.1390, 33768.00
361.3400, 33806.00
362.5400, 33534.00
363.7410, 33847.00
364.9410, 33578.00
366.1410, 33688.00
367.3410, 33593.00
368.5410, 33769.00
369.7410, 33540.00
370.9400, 33580.00
372.1400, 33707.00
373.3390, 33469.00
374.5380, 33678.00
375.7370, 33507.00
376.9360, 33478.00
378.1350, 33515.00
379.3330, 33583.00
380.5310, 33490.00
381.7300, 33641.00
382.9280, 33476.00
384.1260, 33533.00
385.3230, 33515.00
386.5210, 33729.00
387.7180, 33642.00
388.9160, 33749.00
390.1130, 33312.00
391.3100, 33490.00
392.5060, 33407.00
393.7030, 33504.00
394.9000, 33547.00
396.0960, 33323.00
397.2920, 33495.00
398.4880, 33365.00
399.6840, 33288.00
400.8800, 33563.00
402.0750, 33444.00
403.2710, 33262.00
404.4660, 33234.00
405.6610, 33101.00
406.8560, 33119.00
408.0510, 33073.00
409.2450, 33292.00
410.4400, 33457.00
411.6340, 33277.00
412.8280, 33367.00
414.0220, 33389.00
415.2160, 33123.00
416.4100, 33332.00
417.6030, 33359.00
418.7970, 33254.00
419.9900, 33454.00
421.1830, 33248.00
422.3760, 33145.00
423.5690, 33155.00
424.7610, 33136.00
425.9540, 32963.00
427.1460, 32772.00
428.3380, 32925.00
429.5300, 32602.00
430.7220, 32467.00
431.9140, 32625.00
433.1050, 32464.00
434.2970, 32234.00
435.4880, 32158.00
436.6790, 32222.00
437.8700, 32027.00
439.0610, 32134.00
440.2510, 32133.00
441.4420, 31931.00
442.6320, 32143.00
443.8220, 32058.00
445.0120, 31869.00
446.2020, 31984.00
447.3910, 32152.00
448.5810, 32201.00
449.7700, 32094.00
450.9600, 32228.00
452.1490, 31990.00
453.3370, 32300.00
454.5260, 32396.00
455.7150, 32468.00
456.9030, 32410.00
458.0910, 32492.00
459.2800, 32558.00
460.4670, 32719.00
461.6550, 32847.00
462.8430, 33178.00
464.0300, 33160.54
465.2180, 33228.00
466.4050, 33182.00
467.5920, 33203.00
468.7790, 33138.00
469.9650, 33280.00
471.1520, 33113.00
472.3380, 33300.00
473.5250, 33212.00
474.7110, 33244.00
475.8970, 33269.00
477.0820, 33442.00
478.2680, 33106.00
479.4540, 33356.00
480.6390, 33135.00
481.8240, 33164.00
483.0090, 33254.00
484.1940, 33292.00
485.3780, 33286.00
486.5630, 33250.00
487.7470, 33250.00
488.9320, 33313.00
490.1160, 33156.00
491.3000, 33075.00
492.4830, 33098.34
493.6670, 33103.00
494.8500, 33081.00
496.0340, 33015.00
497.2170, 32959.38
498.4000, 33039.00
499.5820, 32972.00
500.7650, 33007.00
501.9480, 33041.00
503.1300, 33111.00
504.3120, 33148.00
505.4940, 32872.00
506.6760, 33122.00
507.8580, 32826.00
509.0390, 33084.00
510.2210, 33218.00
511.4020, 33078.00
512.5830, 33210.00
513.7640, 33244.00
514.9450, 33133.00
516.1250, 33165.00
517.3060, 33243.00
518.4860, 32941.00
519.6660, 33181.00
520.8460, 33258.00
522.0260, 32979.00
523.2060, 33131.00
524.3850, 33095.00
525.5650, 33199.00
526.7440, 33428.00
527.9230, 33436.00
529.1020, 33589.00
530.2810, 33395.00
531.4590, 33690.00
532.6380, 33576.00
533.8160, 33669.00
534.9940, 33841.00
536.1720, 34016.00
537.3500, 34065.00
538.5270, 34286.00
539.7050, 34463.00
540.8820, 34842.00
542.0590, 35164.61
543.2360, 35450.66
544.4130, 35968.00
545.5900, 36107.00
546.7660, 36489.00
547.9430, 36854.00
549.1190, 37390.00
550.2950, 37692.00
551.4710, 38035.00
552.6470, 38598.00
553.8220, 38607.00
554.9980, 38778.00
556.1730, 39193.00
557.3480, 39110.00
558.5230, 39170.00
559.6980, 39152.00
560.8730, 39020.55
562.0470, 39082.00
563.2220, 38717.00
564.3960, 38635.00
565.5700, 38424.00
566.7440, 38334.00
567.9170, 37891.00
569.0910, 38026.00
570.2640, 37785.00
571.4380, 37763.00
572.6110, 37280.00
573.7840, 37260.00
574.9570, 37011.00
576.1290, 36899.00
577.3020, 36570.00
578.4740, 36320.00
579.6460, 36360.00
580.8180, 36275.00
581.9900, 36384.00
583.1620, 36345.00
584.3330, 36343.00
585.5040, 36082.00
586.6760, 36510.00
587.8470, 36368.41
589.0180, 36975.00
590.1880, 36403.00
591.3590, 36353.00
592.5290, 36256.00
593.7000, 36369.00
594.8700, 36557.00
596.0400, 36547.00
597.2090, 36589.00
598.3790, 36617.51
599.5490, 36460.00
600.7180, 36492.00
601.8870, 36518.00
603.0560, 36247.00
604.2250, 36419.00
605.3940, 36400.00
606.5620, 36559.00
607.7300, 36479.00
608.8990, 36250.00
610.0670, 36364.00
611.2350, 36385.00
612.4020, 36795.00
613.5700, 36691.00
614.7370, 36815.00
615.9050, 36915.00
617.0720, 36920.00
618.2390, 36888.00
619.4060, 37025.00
620.5720, 37163.00
621.7390, 37436.00
622.9050, 37401.00
624.0710, 37717.00
625.2370, 37874.00
626.4030, 37983.00
627.5690, 38271.00
628.7340, 38227.00
629.9000, 38896.00
631.0650, 38892.00
632.2300, 39253.00
633.3950, 39414.00
634.5600, 39832.00
635.7240, 40320.00
636.8890, 40670.00
638.0530, 41344.00
639.2170, 41859.00
640.3810, 42875.00
641.5450, 43301.00
642.7080, 44160.00
643.8720, 44795.00
645.0350, 45812.00
646.1980, 46959.00
647.3610, 47803.00
648.5240, 48699.00
649.6870, 49436.00
650.8490, 50142.00
652.0120, 50104.00
653.1740, 50148.00
654.3360, 49951.00
655.4980, 49851.00
656.6600, 49213.00
657.8210, 48651.00
658.9830, 48080.00
660.1440, 47149.00
661.3050, 46762.00
662.4660, 46065.00
663.6270, 45285.00
664.7870, 45091.00
665.9480, 44482.00
667.1080, 44125.00
668.2680, 44085.00
669.4280, 44085.00
670.5880, 44433.00
671.7480, 44058.00
672.9070, 44359.00
674.0670, 44268.00
675.2260, 44876.00
676.3850, 45050.00
677.5440, 45340.00
678.7030, 45674.07
679.8610, 45892.45
681.0200, 46208.00
682.1780, 46396.00
683.3360, 46719.00
684.4940, 46922.00
685.6520, 47142.84
686.8090, 47486.00
687.9670, 47574.00
689.1240, 47951.00
690.2810, 48211.00
691.4380, 48368.00
692.5950, 48768.00
693.7520, 48868.00
694.9080, 49009.00
696.0650, 48934.00
697.2210, 49405.00
698.3770, 49402.00
699.5330, 49579.00
700.6880, 49533.00
701.8440, 49601.00
702.9990, 49610.00
704.1550, 49613.28
705.3100, 49795.00
706.4650, 49728.00
707.6190, 49790.00
708.7740, 50049.00
709.9290, 49627.00
711.0830, 49933.00
712.2370, 49752.00
713.3910, 49565.00
714.5450, 49543.00
715.6980, 49377.00
716.8520, 48893.00
718.0050, 48681.00
719.1580, 48273.00
720.3110, 47939.31
721.4640, 47777.00
722.6170, 47350.00
723.7700, 46821.00
724.9220, 46665.00
726.0740, 46154.00
727.2260, 46063.00
728.3780, 45268.00
729.5300, 45021.00
730.6810, 44832.00
731.8330, 44256.00
732.9840, 43969.00
734.1350, 43819.00
735.2860, 43397.00
736.4370, 43176.77
737.5880, 42877.36
738.7380, 42594.00
739.8880, 42258.00
741.0390, 41931.00
742.1890, 41577.00
743.3380, 41426.01
744.4880, 41120.00
745.6380, 41264.00
746.7870, 41245.00
747.9360, 41408.00
749.0850, 40925.00
750.2340, 40768.00
751.3830, 40837.00
752.5310, 40754.00
753.6800, 40657.00
754.8280, 40419.00
755.9760, 40480.00
757.1240, 40247.00
758.2720, 40277.00
759.4190, 40081.00
760.5670, 39819.00
761.7140, 39642.00
762.8610, 39427.00
764.0080, 39278.00
765.1550, 39163.00
766.3020, 38926.00
767.4480, 38946.00
768.5950, 38550.00
769.7410, 38430.00
770.8870, 38141.00
772.0330, 38212.00
773.1780, 38093.00
774.3240, 38025.00
775.4690, 37533.00
776.6140, 37575.00
777.7590, 37400.00
778.9040, 37573.00
780.0490, 37255.00
781.1940, 37268.00
782.3380, 37242.00
783.4820, 37034.00
784.6260, 36983.00
785.7700, 36934.00
786.9140, 36878.00
788.0580, 36773.00
789.2010, 36879.00
790.3450, 36639.00
791.4880, 36508.00
792.6310, 36239.00
793.7730, 36526.00
794.9160, 36455.00
796.0590, 36433.00
797.2010, 36303.00
798.3430, 36086.00
799.4850, 36262.00
800.6270, 36037.00
801.7690, 36547.00
802.9100, 35789.00
804.0520, 36015.00
805.1930, 35754.00
806.3340, 35993.00
807.4750, 35585.00
808.6160, 35619.00
809.7560, 35677.00
810.8970, 35478.00
812.0370, 35468.00
813.1770, 35693.00
814.3170, 35411.00
815.4570, 35503.00
816.5960, 35803.00
817.7360, 35519.00
818.8750, 35219.00
820.0140, 35359.00
821.1530, 35391.00
822.2920, 35566.00
823.4310, 35515.00
824.5690, 35343.00
825.7070, 35409.00
826.8460, 35441.00
827.9840, 35391.00
829.1220, 35101.00
830.2590, 35417.00
831.3970, 35623.00
832.5340, 35228.00
833.6710, 35420.00
834.8080, 35186.00
835.9450, 35326.00
837.0820, 35569.00
838.2190, 35485.00
839.3550, 35255.00
840.4910, 35183.00
841.6270, 35455.00
842.7630, 35562.00
843.8990, 35519.30
845.0350, 35670.28
846.1700, 35687.43
847.3060, 35740.00
848.4410, 35792.00
849.5760, 35779.00
850.7100, 35851.00
851.8450, 36017.00
852.9800, 35935.00
854.1140, 35913.00
855.2480, 36290.00
856.3820, 36113.00
857.5160, 36444.00
858.6500, 36381.00
859.7830, 36496.00
860.9170, 36483.00
862.0500, 36867.00
863.1830, 37056.00
864.3160, 36987.00
865.4480, 37274.00
866.5810, 37117.00
867.7130, 37513.00
868.8460, 37654.00
869.9780, 37882.00
871.1100, 38258.00
872.2410, 38194.00
873.3730, 38464.00
874.5050, 38827.00
875.6360, 38770.00
876.7670, 39198.00
877.8980, 39209.00
879.0290, 39622.00
880.1590, 39949.00
881.2900, 39886.00
882.4200, 40335.00
883.5500, 40496.00
884.6800, 40899.00
885.8100, 40923.00
886.9400, 41053.00
888.0690, 41538.00
889.1990, 41600.00
890.3280, 41825.00
891.4570, 42226.00
892.5860, 42614.00
893.7140, 42869.00
894.8430, 42816.00
895.9710, 43279.98
897.1000, 43522.97
898.2280, 43880.00
899.3560, 44231.00
900.4830, 44395.00
901.6110, 44667.00
902.7380, 44886.00
903.8660, 45216.00
904.9930, 45471.00
906.1200, 45958.00
907.2460, 46489.00
908.3730, 46429.00
909.5000, 46873.00
910.6260, 46799.00
911.7520, 47018.00
912.8780, 47686.00
914.0040, 47554.00
915.1290, 47923.00
916.2550, 47586.00
917.3800, 48197.00
918.5050, 48049.00
919.6300, 48532.00
920.7550, 48356.00
921.8800, 48052.00
923.0040, 48134.00
924.1290, 47829.00
925.2530, 47791.00
926.3770, 47670.00
927.5010, 47388.00
928.6250, 47563.00
929.7480, 47711.00
930.8720, 47067.00
931.9950, 46937.00
933.1180, 47087.00
934.2410, 46214.00
935.3640, 46265.00
936.4860, 45956.00
937.6090, 45847.00
938.7310, 45405.00
939.8530, 45006.00
940.9750, 44849.00
942.0970, 44614.00
943.2180, 44267.00
944.3400, 43915.00
945.4610, 43877.00
946.5820, 43598.00
947.7030, 42973.00
948.8240, 42983.00
949.9450, 42529.00
951.0650, 42141.00
952.1860, 41744.00
953.3060, 41721.00
954.4260, 41669.00
955.5460, 41126.00
956.6650, 41197.00
957.7850, 40699.00
958.9040, 40427.00
960.0230, 40246.00
961.1420, 39774.00
962.2610, 39569.00
963.3800, 39616.00
964.4990, 39425.00
965.6170, 39200.00
966.7350, 38640.00
967.8530, 38897.00
968.9710, 38805.00
970.0890, 38249.00
971.2070, 38321.00
972.3240, 38516.00
973.4410, 38234.00
974.5580, 38158.00
975.6750, 38090.00
976.7920, 38179.00
977.9090, 37832.00
979.0250, 37838.00
980.1410, 38024.00
981.2580, 38169.00
982.3740, 37883.00
983.4890, 37984.00
984.6050, 38216.00
985.7200, 37883.00
986.8360, 38287.00
987.9510, 37998.00
989.0660, 38108.00
990.1810, 38104.00
991.2950, 38070.00
992.4100, 38127.00
993.5240, 38253.00
994.6390, 38379.00
995.7530, 38336.00
996.8660, 38344.00
997.9800, 38714.00
999.0940, 38617.00
1000.207, 38572.00
1001.320, 38865.00
1002.433, 39128.00
1003.546, 39021.00
1004.659, 39243.00
1005.772, 39557.00
1006.884, 39530.00
1007.996, 39535.00
1009.108, 39869.00
1010.220, 40342.00
1011.332, 40485.00
1012.444, 40619.00
1013.555, 40658.00
1014.666, 40878.00
1015.777, 41197.00
1016.888, 41700.00
1017.999, 41595.00
1019.110, 41953.00
1020.220, 41969.00
1021.331, 42313.00
1022.441, 42482.00
1023.551, 42518.00
1024.661, 42720.00
1025.770, 42681.05
1026.880, 42495.00
1027.989, 42678.00
1029.098, 42776.00
1030.207, 42913.00
1031.316, 42798.00
1032.425, 42567.00
1033.533, 42530.00
1034.642, 42292.00
1035.750, 42269.00
1036.858, 42244.00
1037.966, 42035.00
1039.073, 41987.00
1040.181, 41649.00
1041.288, 41479.24
1042.396, 41508.00
1043.503, 40937.00
1044.610, 41013.00
1045.716, 40630.00
1046.823, 40435.00
1047.929, 40189.00
1049.036, 40002.00
1050.142, 39971.00
1051.248, 40087.00
1052.353, 39885.00
1053.459, 39912.00
1054.564, 39716.00
1055.670, 39743.00
1056.775, 39290.00
1057.880, 39395.00
1058.985, 39504.00
1060.089, 39647.00
1061.194, 39297.00
1062.298, 39526.00
1063.402, 39501.00
1064.506, 39208.00
1065.610, 39320.00
1066.713, 39106.00
1067.817, 39458.00
1068.920, 39241.00
1070.023, 39066.00
1071.126, 39301.00
1072.229, 39311.00
1073.332, 39348.00
1074.435, 39239.00
1075.537, 38999.00
1076.639, 39237.00
1077.741, 39007.00
1078.843, 39185.00
1079.945, 39317.00
1081.046, 39080.00
1082.148, 39384.00
1083.249, 39284.00
1084.350, 38981.00
1085.451, 39256.00
1086.551, 39077.00
1087.652, 38940.00
1088.752, 39202.00
1089.853, 38871.00
1090.953, 38854.00
1092.053, 38940.00
1093.152, 39044.00
1094.252, 38986.00
1095.351, 38831.00
1096.451, 38555.00
1097.550, 38940.00
1098.649, 38549.00
1099.748, 38550.00
1100.846, 38743.00
1101.945, 38475.00
1103.043, 38467.00
1104.141, 38463.00
1105.239, 38429.00
1106.337, 38269.00
1107.434, 38190.00
1108.532, 38127.00
1109.629, 38378.00
1110.726, 37937.00
1111.823, 38318.00
1112.920, 37774.00
1114.017, 38097.00
1115.113, 37818.00
1116.210, 38375.00
1117.306, 38317.00
1118.402, 38100.00
1119.498, 38434.00
1120.593, 38344.00
1121.689, 38580.00
1122.784, 38234.00
1123.879, 38329.00
1124.974, 38259.00
1126.069, 37901.00
1127.164, 38003.00
1128.259, 37871.00
1129.353, 37757.00
1130.447, 37719.00
1131.541, 37678.00
1132.635, 37858.00
1133.729, 37819.00
1134.822, 37895.00
1135.916, 37893.92
1137.009, 37729.00
1138.102, 37809.00
1139.195, 37675.00
1140.288, 37556.00
1141.380, 37729.00
1142.473, 37631.67
1143.565, 37572.00
1144.657, 37667.00
1145.749, 37565.00
1146.841, 37569.00
1147.932, 37688.00
1149.024, 37703.00
1150.115, 37692.00
1151.206, 37639.00
1152.297, 37750.00
1153.388, 37450.00
1154.479, 37834.00
1155.569, 37548.00
1156.659, 37634.00
1157.750, 37736.00
1158.839, 37588.00
1159.929, 37615.00
1161.019, 37386.00
1162.108, 37533.00
1163.198, 37516.00
1164.287, 37623.00
1165.376, 37779.00
1166.465, 37681.00
1167.553, 37616.00
1168.642, 37516.00
1169.730, 37526.82
1170.818, 37523.00
1171.906, 37621.00
1172.994, 37549.00
1174.082, 37711.00
1175.170, 37781.00
1176.257, 37830.00
1177.344, 37792.00
1178.431, 37552.00
1179.518, 37767.00
1180.605, 37615.00
1181.691, 37596.00
1182.778, 37611.00
1183.864, 37662.00
1184.950, 37589.00
1186.036, 37706.00
1187.122, 37563.00
1188.207, 37917.00
1189.292, 37666.00
1190.378, 38110.00
1191.463, 37907.00
1192.548, 37605.00
1193.632, 37749.00
1194.717, 37618.00
1195.801, 37463.00
1196.886, 37934.00
1197.970, 37623.00
1199.054, 37619.00
1200.137, 37661.00
1201.221, 37906.00
1202.305, 37584.00
1203.388, 37925.00
1204.471, 37754.00
1205.554, 37697.00
1206.637, 37736.00
1207.719, 37650.00
1208.802, 37743.19
1209.884, 37817.00
1210.966, 37804.00
1212.048, 38007.00
1213.130, 37810.00
1214.212, 37803.00
1215.293, 37941.00
1216.374, 37803.00
1217.456, 37885.00
1218.536, 37918.00
1219.617, 37788.00
1220.698, 37802.00
1221.778, 37884.00
1222.859, 37766.00
1223.939, 37868.28
1225.019, 37867.77
1226.099, 37910.00
1227.178, 37940.00
1228.258, 37819.00
1229.337, 37872.00
1230.417, 38168.00
1231.496, 37939.00
1232.574, 38083.63
1233.653, 38344.00
1234.732, 38030.00
1235.810, 38196.00
1236.888, 38015.00
1237.966, 37879.00
1239.044, 37906.00
1240.122, 38035.00
1241.199, 37953.00
1242.277, 37956.00
1243.354, 38107.00
1244.431, 38167.00
1245.508, 38080.71
1246.585, 38094.00
1247.661, 37896.00
1248.738, 38078.00
1249.814, 38045.00
1250.890, 37946.00
1251.966, 38075.00
1253.042, 38155.00
1254.117, 38143.00
1255.193, 38222.53
1256.268, 38011.00
1257.343, 38265.00
1258.418, 37909.00
1259.493, 37864.00
1260.567, 38320.00
1261.642, 37931.00
1262.716, 38091.00
1263.790, 38170.00
1264.864, 38167.00
1265.938, 38098.00
1267.011, 38188.00
1268.085, 38276.00
1269.158, 37938.00
1270.231, 38221.00
1271.304, 38136.00
1272.377, 38048.00
1273.450, 38271.00
1274.522, 38115.00
1275.594, 38139.00
1276.666, 38195.00
1277.738, 38094.00
1278.810, 38181.00
1279.882, 38805.00
1280.953, 38464.05
1282.025, 38585.00
1283.096, 38285.00
1284.167, 38237.00
1285.238, 38344.00
1286.308, 38261.00
1287.379, 38432.00
1288.449, 38271.00
1289.519, 38380.00
1290.589, 38419.00
1291.659, 38228.00
1292.729, 38343.00
1293.798, 38395.00
1294.868, 38369.00
1295.937, 38189.00
1297.006, 38404.00
1298.075, 38555.00
1299.143, 38315.00
1300.212, 38656.00
1301.280, 38326.00
1302.348, 38309.00
1303.416, 38705.00
1304.484, 38551.00
1305.552, 38266.00
1306.620, 38523.00
1307.687, 38572.00
1308.754, 38558.00
1309.821, 38365.00
1310.888, 38539.00
1311.955, 38555.00
1313.021, 38488.00
1314.088, 38559.00
