##NAMES=Astrophyllite
##RRUFFID=R060103
##IDEAL CHEMISTRY=K_2_NaFe^2+^_7_Ti^4+^_2_(Si_4_O_12_)_2_O_2_(OH)_4_F
##LOCALITY=Brivik, Norway
##OWNER=RRUFF
##SOURCE=University of Arizona Mineral Museum
##DESCRIPTION=Brown fragment embedded in matrix
##STATUS=The identification of this mineral is confirmed by single-crystal X-ray diffraction and chemical analysis.
##URL=rruff.info/R060103
##MEASURED CHEMISTRY=K_2.00_Na_1.00_(Fe^2+^_0.55_Mn_0.32_Fe^3+^_0.04_Mg_0.04_Ca_0.04_)_7_(Ti_0.66_Zr_0.18_Al_0.16_)_2_Si_8.00_O_26_(OH)_4_F_1.00_
##PIN_ID=L00382
##ORIENTATION=Laser parallel to b* (0 1 0). Fiducial mark perpendicular to laser is parallel to c [0 0 1]
80.65400, 12299.00
81.88700, 12912.00
83.11900, 13477.00
84.35200, 13872.00
85.58400, 13807.00
86.81600, 13788.00
88.04900, 13896.00
89.28100, 14216.00
90.51200, 14461.00
91.74400, 14527.00
92.97600, 14615.00
94.20700, 14288.00
95.43800, 14184.00
96.66900, 13795.00
97.90100, 13665.00
99.13100, 13400.00
100.3620, 13024.00
101.5930, 12881.00
102.8230, 12660.00
104.0530, 12706.00
105.2840, 12494.00
106.5140, 12447.70
107.7440, 12499.00
108.9730, 12303.00
110.2030, 12051.00
111.4320, 11929.00
112.6620, 11934.00
113.8910, 11847.00
115.1200, 12060.00
116.3490, 12064.00
117.5780, 12012.00
118.8060, 11792.00
120.0350, 11925.00
121.2630, 12086.00
122.4920, 12311.00
123.7200, 12284.00
124.9480, 11915.00
126.1750, 11793.00
127.4030, 11811.00
128.6310, 11786.00
129.8580, 11761.00
131.0850, 11742.76
132.3120, 11829.00
133.5390, 11680.00
134.7660, 11623.00
135.9930, 11590.94
137.2200, 11715.00
138.4460, 11585.00
139.6720, 11510.00
140.8980, 11534.00
142.1240, 11318.00
143.3500, 11110.00
144.5760, 11092.00
145.8020, 11103.00
147.0270, 11029.00
148.2520, 11176.00
149.4780, 11187.00
150.7030, 11286.00
151.9270, 11263.00
153.1520, 11633.00
154.3770, 11727.00
155.6010, 11815.00
156.8260, 11932.00
158.0500, 12282.00
159.2740, 12519.00
160.4980, 12864.00
161.7210, 13134.00
162.9450, 13551.00
164.1690, 13752.00
165.3920, 13880.00
166.6150, 14107.00
167.8380, 14543.00
169.0610, 14685.00
170.2840, 14706.00
171.5070, 14639.00
172.7290, 14721.00
173.9510, 14758.00
175.1740, 14458.00
176.3960, 14041.00
177.6180, 13848.00
178.8390, 13549.00
180.0610, 13091.00
181.2830, 12878.00
182.5040, 12502.00
183.7250, 12271.00
184.9460, 12078.00
186.1670, 11978.00
187.3880, 11849.00
188.6090, 11665.00
189.8290, 11594.00
191.0500, 11383.00
192.2700, 11547.00
193.4900, 11344.00
194.7100, 11452.00
195.9300, 11669.00
197.1490, 11500.00
198.3690, 11527.00
199.5880, 11695.00
200.8080, 11713.00
202.0270, 11855.00
203.2460, 11795.00
204.4650, 11868.00
205.6830, 11954.00
206.9020, 12037.00
208.1200, 12155.00
209.3380, 12200.92
210.5570, 12211.00
211.7750, 12278.00
212.9920, 12262.00
214.2100, 12232.00
215.4280, 12353.00
216.6450, 12595.00
217.8620, 12680.00
219.0790, 12727.00
220.2960, 12936.00
221.5130, 12938.00
222.7300, 13134.00
223.9460, 13326.00
225.1630, 13440.00
226.3790, 13440.28
227.5950, 13608.33
228.8110, 13742.46
230.0270, 13843.68
231.2430, 13858.73
232.4580, 13950.32
233.6740, 13990.09
234.8890, 14013.19
236.1040, 14072.36
237.3190, 14022.12
238.5340, 14050.26
239.7490, 14025.97
240.9630, 14003.70
242.1780, 13929.30
243.3920, 13851.29
244.6060, 13795.19
245.8200, 13647.00
247.0340, 13549.00
248.2470, 13375.00
249.4610, 13260.00
250.6740, 12974.00
251.8880, 12851.00
253.1010, 12713.59
254.3140, 12671.00
255.5270, 12486.00
256.7390, 12388.00
257.9520, 12282.00
259.1640, 12216.00
260.3760, 12021.00
261.5880, 11966.83
262.8000, 11801.00
264.0120, 11811.00
265.2240, 11768.00
266.4350, 11733.00
267.6470, 11713.00
268.8580, 11715.00
270.0690, 11766.00
271.2800, 11740.00
272.4910, 11706.00
273.7020, 11610.00
274.9120, 11510.00
276.1230, 11712.00
277.3330, 11612.00
278.5430, 11565.00
279.7530, 11455.00
280.9630, 11442.00
282.1720, 11544.00
283.3820, 11362.00
284.5910, 11558.00
285.8000, 11509.00
287.0090, 11625.00
288.2180, 11548.00
289.4270, 11508.00
290.6360, 11684.00
291.8440, 11629.00
293.0530, 11765.00
294.2610, 11820.00
295.4690, 11810.20
296.6770, 11855.00
297.8850, 11829.00
299.0920, 11789.05
300.3000, 11811.58
301.5070, 11780.00
302.7140, 11769.03
303.9210, 11713.00
305.1280, 11724.00
306.3350, 11677.00
307.5420, 11617.00
308.7480, 11721.00
309.9540, 11605.13
311.1600, 11616.00
312.3660, 11480.00
313.5720, 11655.00
314.7780, 11630.00
315.9840, 11505.00
317.1890, 11610.00
318.3940, 11546.00
319.6000, 11562.00
320.8050, 11595.00
322.0090, 11589.29
323.2140, 11713.00
324.4190, 11689.00
325.6230, 11720.00
326.8270, 11879.00
328.0320, 11818.00
329.2360, 12095.00
330.4390, 12012.00
331.6430, 12231.00
332.8470, 12299.00
334.0500, 12416.00
335.2530, 12640.00
336.4560, 12590.00
337.6590, 12787.00
338.8620, 13057.00
340.0650, 13033.00
341.2670, 13294.00
342.4700, 13454.00
343.6720, 13636.00
344.8740, 13571.00
346.0760, 13717.00
347.2780, 13589.00
348.4790, 13698.00
349.6810, 13654.00
350.8820, 13636.00
352.0830, 13423.00
353.2840, 13500.00
354.4850, 13383.00
355.6860, 13425.00
356.8870, 13358.00
358.0870, 13157.00
359.2870, 13053.00
360.4880, 12930.00
361.6880, 12748.00
362.8870, 12746.00
364.0870, 12629.00
365.2870, 12611.00
366.4860, 12577.00
367.6850, 12229.00
368.8850, 12363.00
370.0840, 12174.00
371.2820, 12097.00
372.4810, 12331.00
373.6800, 12275.00
374.8780, 11888.00
376.0760, 11705.00
377.2740, 11740.00
378.4720, 11656.00
379.6700, 11660.00
380.8680, 11632.00
382.0650, 11625.00
383.2630, 11568.00
384.4600, 11576.00
385.6570, 11494.00
386.8540, 11529.00
388.0510, 11383.00
389.2470, 11381.00
390.4440, 11376.00
391.6400, 11215.78
392.8360, 11209.00
394.0320, 11004.00
395.2280, 11028.00
396.4240, 11053.00
397.6190, 11007.00
398.8150, 10909.00
400.0100, 10937.00
401.2050, 11012.00
402.4000, 10811.00
403.5950, 10776.00
404.7900, 10697.00
405.9840, 10786.00
407.1790, 10653.00
408.3730, 10766.00
409.5670, 10633.00
410.7610, 10640.00
411.9550, 10573.00
413.1480, 10630.00
414.3420, 10508.00
415.5350, 10619.00
416.7280, 10675.00
417.9220, 10622.00
419.1140, 10784.00
420.3070, 10761.00
421.5000, 10573.00
422.6920, 10610.00
423.8850, 10799.00
425.0770, 10785.00
426.2690, 10650.00
427.4610, 10639.00
428.6520, 10600.00
429.8440, 10477.00
431.0350, 10520.00
432.2260, 10427.00
433.4180, 10459.00
434.6090, 10349.00
435.7990, 10238.00
436.9900, 10201.00
438.1800, 10295.00
439.3710, 10263.00
440.5610, 10184.00
441.7510, 10307.00
442.9410, 10292.00
444.1310, 10273.00
445.3200, 10131.00
446.5100, 10285.11
447.6990, 10272.31
448.8880, 10476.00
450.0770, 10416.00
451.2660, 10351.00
452.4550, 10410.00
453.6430, 10462.00
454.8320, 10481.91
456.0200, 10477.00
457.2080, 10561.00
458.3960, 10628.00
459.5840, 10608.00
460.7720, 10874.00
461.9590, 10876.00
463.1460, 11058.00
464.3340, 11031.00
465.5210, 10955.00
466.7080, 10993.00
467.8940, 11098.00
469.0810, 11207.00
470.2670, 11166.00
471.4540, 11259.00
472.6400, 11180.00
473.8260, 11221.00
475.0120, 11143.00
476.1970, 11106.00
477.3830, 11188.00
478.5680, 11146.00
479.7540, 11157.00
480.9390, 10944.00
482.1240, 11129.00
483.3080, 10972.00
484.4930, 11073.00
485.6780, 11047.00
486.8620, 11053.00
488.0460, 11159.00
489.2300, 11038.00
490.4140, 10982.00
491.5980, 10973.00
492.7810, 11029.00
493.9650, 11120.00
495.1480, 10976.00
496.3310, 10798.00
497.5140, 10883.00
498.6970, 10884.00
499.8800, 10853.00
501.0620, 10740.00
502.2440, 10956.00
503.4270, 10661.00
504.6090, 10866.00
505.7910, 10787.00
506.9720, 10711.00
508.1540, 10653.00
509.3350, 10684.00
510.5170, 10625.00
511.6980, 10643.63
512.8790, 10811.00
514.0600, 10701.00
515.2400, 10762.00
516.4210, 10860.00
517.6010, 10786.00
518.7810, 10757.00
519.9620, 10735.00
521.1410, 10723.00
522.3210, 10710.00
523.5010, 10891.00
524.6800, 10854.00
525.8600, 10732.00
527.0390, 10922.00
528.2180, 10832.00
529.3970, 11169.00
530.5750, 11090.00
531.7540, 11025.00
532.9320, 11058.00
534.1110, 11082.65
535.2890, 11159.00
536.4670, 11219.00
537.6440, 11264.00
538.8220, 11292.00
540.0000, 11451.00
541.1770, 11479.00
542.3540, 11671.00
543.5310, 11907.00
544.7080, 12016.00
545.8850, 12242.00
547.0610, 12423.03
548.2380, 12529.00
549.4140, 12801.00
550.5900, 13041.00
551.7660, 13225.00
552.9420, 13526.00
554.1170, 13855.00
555.2930, 14169.00
556.4680, 14291.00
557.6430, 14601.00
558.8180, 14641.00
559.9930, 14763.00
561.1680, 14658.00
562.3430, 14549.00
563.5170, 14545.00
564.6910, 14384.96
565.8650, 14261.12
567.0390, 14136.00
568.2130, 13891.00
569.3870, 13776.00
570.5600, 13495.00
571.7340, 13508.00
572.9070, 13079.00
574.0800, 13005.00
575.2530, 12916.00
576.4250, 12993.00
577.5980, 12766.00
578.7700, 12728.00
579.9430, 12853.00
581.1150, 12574.00
582.2870, 12649.00
583.4590, 12612.00
584.6300, 12666.00
585.8020, 12763.00
586.9730, 12819.00
588.1440, 12868.01
589.3150, 12925.00
590.4860, 12920.00
591.6570, 12998.00
592.8270, 12958.00
593.9980, 13214.00
595.1680, 13065.00
596.3380, 13180.00
597.5080, 13161.00
598.6780, 13155.00
599.8480, 13193.00
601.0170, 13064.00
602.1860, 13320.00
603.3550, 13163.00
604.5240, 13207.00
605.6930, 13321.00
606.8620, 13275.00
608.0310, 13314.00
609.1990, 13239.00
610.3670, 13443.00
611.5350, 13407.00
612.7030, 13511.00
613.8710, 13677.00
615.0390, 13637.00
616.2060, 13771.00
617.3730, 13722.00
618.5410, 13956.00
619.7080, 14041.00
620.8740, 13986.00
622.0410, 14126.00
623.2080, 14208.00
624.3740, 14335.00
625.5400, 14286.00
626.7060, 14479.00
627.8720, 14409.00
629.0380, 14793.00
630.2040, 14828.00
631.3690, 15076.00
632.5340, 15090.00
633.6990, 15223.00
634.8640, 15604.00
636.0290, 15657.00
637.1940, 15876.00
638.3580, 16277.00
639.5230, 16335.00
640.6870, 16793.00
641.8510, 16983.00
643.0150, 17452.00
644.1790, 17915.00
645.3420, 18202.00
646.5060, 18869.00
647.6690, 19318.00
648.8320, 20026.00
649.9950, 20489.00
651.1580, 21059.00
652.3200, 21402.00
653.4830, 21575.00
654.6450, 21735.00
655.8070, 21804.00
656.9690, 21601.00
658.1310, 21509.00
659.2930, 20983.00
660.4540, 20528.00
661.6160, 19957.00
662.7770, 19736.00
663.9380, 19172.00
665.0990, 18995.00
666.2600, 19047.00
667.4200, 18880.00
668.5810, 18785.00
669.7410, 18737.00
670.9010, 18862.00
672.0610, 19052.00
673.2210, 19131.00
674.3810, 19352.00
675.5400, 19490.00
676.6990, 19641.00
677.8590, 19900.53
679.0180, 20403.00
680.1760, 20493.00
681.3350, 20906.00
682.4940, 21405.00
683.6520, 21672.00
684.8100, 21824.00
685.9680, 22123.00
687.1260, 22743.00
688.2840, 22758.00
689.4420, 23324.00
690.5990, 23330.00
691.7560, 23827.00
692.9140, 23928.00
694.0710, 24377.00
695.2270, 24751.00
696.3840, 24937.00
697.5410, 25441.00
698.6970, 25712.00
699.8530, 25716.00
701.0090, 26046.07
702.1650, 26303.09
703.3210, 26516.28
704.4760, 26686.50
705.6320, 26760.79
706.7870, 26901.67
707.9420, 26980.79
709.0970, 27033.38
710.2520, 27112.15
711.4060, 27071.61
712.5610, 27099.57
713.7150, 27065.25
714.8690, 27023.05
716.0230, 26918.90
717.1770, 26801.21
718.3310, 26695.55
719.4840, 26544.59
720.6380, 26336.35
721.7910, 26145.67
722.9440, 25854.44
724.0970, 25542.00
725.2490, 24937.00
726.4020, 24644.00
727.5540, 24400.00
728.7070, 23963.00
729.8590, 23543.00
731.0110, 23165.00
732.1620, 22660.00
733.3140, 22398.00
734.4650, 22063.00
735.6170, 21628.00
736.7680, 21323.00
737.9190, 20891.00
739.0700, 20571.00
740.2200, 20447.00
741.3710, 20323.00
742.5210, 20055.00
743.6710, 19728.00
744.8210, 19658.00
745.9710, 19406.00
747.1210, 19373.00
748.2700, 19224.00
749.4200, 19230.00
750.5690, 18985.00
751.7180, 19017.00
752.8670, 18829.00
754.0160, 18724.00
755.1640, 18806.00
756.3130, 18651.00
757.4610, 18657.00
758.6090, 18615.00
759.7570, 18483.78
760.9050, 18402.55
762.0530, 18236.00
763.2000, 18099.00
764.3470, 17925.00
765.4940, 17699.00
766.6410, 17641.00
767.7880, 17508.44
768.9350, 17521.00
770.0810, 17373.00
771.2280, 17223.00
772.3740, 17184.00
773.5200, 17088.00
774.6660, 17088.00
775.8120, 16949.00
776.9570, 16871.00
778.1030, 16918.00
779.2480, 16893.00
780.3930, 16811.00
781.5380, 16786.00
782.6830, 16798.00
783.8270, 16633.00
784.9720, 16602.00
786.1160, 16515.00
787.2600, 16676.00
788.4040, 16463.00
789.5480, 16608.00
790.6910, 16293.00
791.8350, 16368.00
792.9780, 16082.00
794.1210, 16110.00
795.2640, 15817.00
796.4070, 15816.00
797.5500, 15813.00
798.6920, 15600.00
799.8350, 15485.00
800.9770, 15299.00
802.1190, 15086.00
803.2610, 15037.00
804.4030, 14669.69
805.5440, 14574.82
806.6850, 14474.10
807.8270, 14368.30
808.9680, 14212.57
810.1090, 14144.50
811.2490, 14055.46
812.3900, 13975.12
813.5300, 13948.20
814.6710, 13851.49
815.8110, 13843.97
816.9510, 13814.92
818.0910, 13810.36
819.2300, 13784.56
820.3700, 13778.45
821.5090, 13813.67
822.6480, 13735.00
823.7870, 13687.00
824.9260, 13552.00
826.0640, 13656.00
827.2030, 13664.00
828.3410, 13586.00
829.4790, 13690.00
830.6170, 13527.00
831.7550, 13716.00
832.8930, 13587.00
834.0310, 13548.00
835.1680, 13562.00
836.3050, 13661.00
837.4420, 13430.00
838.5790, 13495.00
839.7160, 13549.00
840.8520, 13360.00
841.9890, 13531.00
843.1250, 13414.00
844.2610, 13563.00
845.3970, 13535.00
846.5330, 13497.00
847.6680, 13474.00
848.8040, 13406.00
849.9390, 13397.00
851.0740, 13367.80
852.2090, 13285.00
853.3440, 13353.00
854.4780, 13292.00
855.6130, 13324.00
856.7470, 13435.00
857.8810, 13561.00
859.0150, 13513.00
860.1490, 13482.00
861.2830, 13522.00
862.4160, 13517.00
863.5490, 13516.87
864.6830, 13643.00
865.8160, 13498.00
866.9480, 13625.00
868.0810, 13578.00
869.2140, 13602.00
870.3460, 13782.00
871.4780, 13792.00
872.6100, 13725.00
873.7420, 13725.00
874.8740, 13864.00
876.0050, 14138.00
877.1370, 14129.00
878.2680, 14072.00
879.3990, 14206.00
880.5300, 14170.00
881.6600, 14361.00
882.7910, 14474.00
883.9210, 14410.00
885.0520, 14543.00
886.1820, 14694.00
887.3120, 14727.00
888.4410, 14746.00
889.5710, 14994.00
890.7000, 14895.00
891.8300, 14989.00
892.9590, 15060.00
894.0880, 15219.00
895.2160, 15269.00
896.3450, 15223.00
897.4730, 15490.00
898.6020, 15606.00
899.7300, 15573.00
900.8580, 15657.00
901.9860, 15966.00
903.1130, 15842.00
904.2410, 16003.00
905.3680, 16242.00
906.4950, 16165.00
907.6220, 16192.00
908.7490, 16330.00
909.8760, 16386.00
911.0020, 16525.00
912.1280, 16481.00
913.2550, 16536.00
914.3810, 16758.00
915.5060, 16618.00
916.6320, 16740.00
917.7580, 16890.00
918.8830, 16749.00
920.0080, 16792.00
921.1330, 16714.00
922.2580, 16705.00
923.3830, 16850.00
924.5070, 16794.00
925.6310, 16859.00
926.7560, 16784.00
927.8800, 16694.00
929.0040, 16546.00
930.1270, 16380.00
931.2510, 16526.00
932.3740, 16530.00
933.4970, 16482.00
934.6200, 16364.00
935.7430, 16219.00
936.8660, 16051.00
937.9890, 16230.00
939.1110, 16179.00
940.2330, 16044.00
941.3550, 15985.00
942.4770, 15967.00
943.5990, 15830.00
944.7200, 15894.00
945.8420, 15719.00
946.9630, 15851.00
948.0840, 15814.00
949.2050, 15553.00
950.3260, 15652.00
951.4460, 15602.00
952.5670, 15566.00
953.6870, 15665.00
954.8070, 15497.00
955.9270, 15360.00
957.0470, 15414.00
958.1660, 15317.00
959.2860, 15470.00
960.4050, 15201.00
961.5240, 15045.00
962.6430, 15105.00
963.7620, 15159.00
964.8810, 15197.00
965.9990, 15232.28
967.1170, 15095.00
968.2350, 15153.00
969.3530, 15183.00
970.4710, 14867.00
971.5890, 15014.00
972.7060, 14969.00
973.8240, 14956.00
974.9410, 14835.00
976.0580, 14893.00
977.1740, 15031.00
978.2910, 14977.00
979.4080, 15028.00
980.5240, 14924.00
981.6400, 15003.00
982.7560, 15030.00
983.8720, 15059.00
984.9870, 15082.00
986.1030, 15053.00
987.2180, 15075.00
988.3330, 15241.00
989.4480, 15395.00
990.5630, 15331.00
991.6780, 15533.00
992.7920, 15376.00
993.9070, 15567.00
995.0210, 15685.00
996.1350, 15874.00
997.2490, 16041.00
998.3620, 16148.00
999.4760, 16360.00
1000.589, 16473.00
1001.702, 16659.00
1002.815, 16937.00
1003.928, 17002.00
1005.041, 17263.00
1006.153, 17243.00
1007.266, 17523.00
1008.378, 17819.00
1009.490, 18016.34
1010.602, 18498.00
1011.713, 18644.00
1012.825, 18986.00
1013.936, 19394.00
1015.047, 19694.00
1016.158, 20302.00
1017.269, 20471.00
1018.380, 21025.00
1019.490, 21256.00
1020.601, 21717.00
1021.711, 22287.00
1022.821, 22657.00
1023.931, 22921.00
1025.040, 23416.00
1026.150, 23829.00
1027.259, 23971.00
1028.368, 24204.00
1029.477, 24306.00
1030.586, 24570.00
1031.695, 24588.00
1032.803, 24752.00
1033.912, 24822.00
1035.020, 24883.00
1036.128, 24626.00
1037.236, 24276.00
1038.343, 24173.00
1039.451, 23786.00
1040.558, 23611.00
1041.665, 23340.00
1042.772, 22866.00
1043.879, 22359.00
1044.986, 21837.00
1046.093, 21627.00
1047.199, 21047.00
1048.305, 20722.00
1049.411, 20312.00
1050.517, 19827.00
1051.623, 19507.00
1052.728, 19191.00
1053.833, 18799.00
1054.939, 18562.00
1056.044, 18205.00
1057.148, 17984.00
1058.253, 18004.00
1059.358, 17897.00
1060.462, 17669.00
1061.566, 17439.00
1062.670, 17279.00
1063.774, 17437.00
1064.878, 17203.00
1065.981, 17200.00
1067.085, 17007.00
1068.188, 16955.00
1069.291, 16944.00
1070.394, 16728.00
1071.496, 16716.00
1072.599, 16786.00
1073.701, 16744.00
1074.803, 16700.00
1075.905, 16727.80
1077.007, 16560.00
1078.109, 16681.00
1079.210, 16614.00
1080.312, 16491.00
1081.413, 16573.00
1082.514, 16444.00
1083.615, 16535.00
1084.715, 16604.00
1085.816, 16400.00
1086.916, 16497.00
1088.016, 16553.00
1089.116, 16299.00
1090.216, 16055.00
1091.316, 16171.00
1092.415, 16225.00
1093.515, 16111.00
1094.614, 16098.00
1095.713, 16082.00
1096.812, 16024.66
1097.910, 16009.71
1099.009, 15981.00
1100.107, 15917.00
1101.205, 15929.00
1102.303, 15821.00
1103.401, 15838.31
1104.499, 15835.00
1105.596, 15846.00
1106.693, 15703.00
1107.791, 15716.00
1108.888, 15773.00
1109.984, 15639.00
1111.081, 15633.00
1112.177, 15593.00
1113.274, 15577.00
1114.370, 15553.00
1115.466, 15587.00
1116.562, 15503.00
1117.657, 15235.00
1118.753, 15440.00
1119.848, 15340.00
1120.943, 15215.00
1122.038, 15506.00
1123.133, 15297.00
1124.228, 15143.00
1125.322, 15107.00
1126.416, 15277.00
1127.510, 15272.00
1128.604, 15325.00
1129.698, 15178.00
1130.792, 15429.00
1131.885, 15343.00
1132.978, 15509.00
1134.071, 15458.00
1135.164, 15456.00
1136.257, 15449.00
1137.350, 15398.00
1138.442, 15488.00
1139.534, 15356.00
1140.627, 15328.00
1141.718, 15377.00
1142.810, 15306.00
1143.902, 15411.00
1144.993, 15409.23
1146.084, 15413.00
1147.176, 15471.00
1148.266, 15437.00
1149.357, 15457.00
1150.448, 15358.00
1151.538, 15358.00
1152.628, 15400.00
1153.718, 15357.00
1154.808, 15423.00
1155.898, 15344.00
1156.988, 15441.00
1158.077, 15457.00
1159.166, 15458.00
1160.255, 15583.00
1161.344, 15553.38
1162.433, 15503.00
1163.521, 15562.00
1164.610, 15459.77
1165.698, 15493.33
1166.786, 15510.99
1167.874, 15513.60
1168.961, 15456.11
1170.049, 15476.24
1171.136, 15465.25
1172.224, 15453.00
1173.311, 15683.00
1174.397, 15643.00
1175.484, 15704.00
1176.571, 15647.00
1177.657, 15631.00
1178.743, 15527.00
1179.829, 15622.00
1180.915, 15676.00
1182.001, 15674.00
1183.086, 15782.00
1184.171, 15878.00
1185.256, 15565.00
1186.341, 15874.00
1187.426, 15611.00
1188.511, 15728.00
1189.595, 15685.00
1190.680, 15606.00
1191.764, 15825.00
1192.848, 15706.00
1193.932, 15873.00
1195.015, 15714.00
1196.099, 15892.00
1197.182, 15752.00
1198.265, 15819.00
1199.348, 15934.00
1200.431, 15937.00
1201.513, 15792.00
1202.596, 15876.00
1203.678, 15891.00
1204.760, 15975.00
1205.842, 15915.00
1206.924, 15934.08
1208.005, 15850.00
1209.087, 15879.00
1210.168, 15923.00
1211.249, 15866.00
1212.330, 15968.00
1213.411, 15911.00
1214.491, 15990.00
1215.572, 16016.00
1216.652, 15955.00
1217.732, 15832.00
1218.812, 16132.00
1219.891, 16154.00
1220.971, 16086.00
1222.050, 16292.00
1223.129, 15967.00
1224.208, 16179.00
1225.287, 16156.00
1226.366, 16063.00
1227.444, 16146.00
1228.523, 16148.00
1229.601, 16141.00
1230.679, 16098.00
1231.757, 16160.00
1232.834, 16099.00
1233.912, 16151.00
1234.989, 16374.00
1236.066, 16223.69
1237.143, 16266.30
1238.220, 16293.02
1239.297, 16304.69
1240.373, 16256.25
1241.449, 16285.43
1242.526, 16283.50
1243.601, 16280.29
1244.677, 16320.39
1245.753, 16280.69
1246.828, 16320.10
1247.904, 16327.93
1248.979, 16350.21
1250.054, 16341.19
1251.128, 16370.92
1252.203, 16404.00
1253.277, 16341.00
1254.351, 16431.00
1255.426, 16451.00
1256.499, 16489.27
