##NAMES=Astrophyllite
##RRUFFID=R060202
##IDEAL CHEMISTRY=K_2_NaFe^2+^_7_Ti^4+^_2_(Si_4_O_12_)_2_O_2_(OH)_4_F
##LOCALITY=Demix Quarry, Mont Saint-Hilaire, Rouville County, Quebec, Canada
##OWNER=RRUFF
##SOURCE=Royal Ontario Museum
##DESCRIPTION=Aggregate of brown splintered wafers
##STATUS=The identification of this mineral has been confirmed by X-ray diffraction and chemical analysis
##URL=rruff.info/R060202
##MEASURED CHEMISTRY=(K_0.56_Na_0.38_Ca_0.06_)_3_(Fe^2+^_0.52_Mn_0.44_Mg_0.04_)_7_(Ti_0.75_Zr_0.15_Al_0.15_)_2_Si_8_O_24_(O_0.27_OH_0.73_)_7_
##PIN_ID=M00215
##ORIENTATION=Laser parallel to (1 1 0). Fiducial mark perpendicular to laser is parallel to -c [0 0 -1]
79.89500, 15154.00
81.13100, 16099.00
82.36700, 17170.00
83.60200, 18771.00
84.83700, 19941.00
86.07200, 21030.00
87.30800, 21891.00
88.54200, 22791.00
89.77700, 23602.00
91.01200, 23810.00
92.24600, 24049.00
93.48000, 23890.00
94.71400, 23483.00
95.94800, 23498.00
97.18200, 23312.00
98.41600, 22841.00
99.64900, 22845.00
100.8830, 22485.00
102.1160, 21977.00
103.3490, 21537.00
104.5820, 21083.00
105.8150, 20829.00
107.0470, 21041.00
108.2800, 21180.00
109.5120, 21696.00
110.7440, 21314.00
111.9760, 20085.00
113.2080, 19850.00
114.4400, 19855.00
115.6710, 19990.00
116.9030, 20090.00
118.1340, 19992.00
119.3650, 20027.00
120.5960, 19630.00
121.8270, 19648.00
123.0580, 19840.00
124.2880, 20454.00
125.5190, 20557.00
126.7490, 20627.00
127.9790, 20861.00
129.2090, 20762.00
130.4390, 20526.00
131.6680, 20127.00
132.8980, 19493.00
134.1270, 19166.00
135.3560, 18742.00
136.5850, 18694.00
137.8140, 18481.00
139.0430, 18047.00
140.2710, 18176.00
141.5000, 18004.00
142.7280, 17886.00
143.9560, 17837.00
145.1840, 17774.00
146.4120, 17883.00
147.6390, 17955.00
148.8670, 18032.00
150.0940, 18259.00
151.3210, 18414.00
152.5490, 18832.00
153.7750, 19065.48
155.0020, 19499.00
156.2290, 19742.00
157.4550, 20267.00
158.6810, 20715.00
159.9080, 21383.00
161.1340, 21841.00
162.3590, 22456.00
163.5850, 23247.00
164.8110, 23773.00
166.0360, 24012.00
167.2610, 24569.00
168.4860, 24803.00
169.7110, 24980.00
170.9360, 24723.00
172.1610, 24374.00
173.3850, 23754.00
174.6100, 23430.00
175.8340, 22778.00
177.0580, 22311.00
178.2820, 21849.00
179.5050, 21284.19
180.7290, 20932.00
181.9520, 20372.00
183.1760, 20137.00
184.3990, 19951.00
185.6220, 19771.00
186.8450, 19782.00
188.0670, 19758.00
189.2900, 19898.00
190.5120, 19967.00
191.7340, 19974.00
192.9560, 20176.00
194.1780, 20341.00
195.4000, 20716.00
196.6220, 21340.00
197.8430, 21593.00
199.0640, 22026.00
200.2860, 22544.79
201.5070, 23744.00
202.7270, 23267.00
203.9480, 23584.00
205.1690, 23355.00
206.3890, 22440.00
207.6090, 22297.00
208.8290, 22433.00
210.0490, 22309.00
211.2690, 22392.00
212.4890, 22329.00
213.7080, 22408.00
214.9280, 22814.00
216.1470, 23077.00
217.3660, 23329.00
218.5850, 23653.00
219.8030, 23806.00
221.0220, 24327.00
222.2400, 24805.00
223.4590, 25295.00
224.6770, 25513.00
225.8950, 26175.00
227.1120, 26538.00
228.3300, 27100.00
229.5480, 27553.00
230.7650, 27974.00
231.9820, 28617.00
233.1990, 29137.00
234.4160, 29647.00
235.6330, 30128.00
236.8490, 30529.00
238.0660, 30848.00
239.2820, 30917.00
240.4980, 30890.00
241.7140, 30688.00
242.9300, 30133.00
244.1460, 29779.00
245.3610, 28822.00
246.5770, 28052.00
247.7920, 27043.00
249.0070, 26162.00
250.2220, 25060.00
251.4370, 24603.00
252.6510, 23830.00
253.8660, 23147.00
255.0800, 22757.00
256.2940, 22156.00
257.5080, 21750.00
258.7220, 21596.00
259.9360, 21597.00
261.1490, 21335.00
262.3630, 20721.00
263.5760, 20224.00
264.7890, 19904.00
266.0020, 19585.00
267.2150, 19316.00
268.4270, 19121.00
269.6400, 18928.00
270.8520, 18573.00
272.0640, 18346.00
273.2760, 18078.00
274.4880, 18096.00
275.7000, 17734.00
276.9120, 17796.00
278.1230, 17473.00
279.3340, 17526.00
280.5450, 17186.00
281.7560, 17100.00
282.9670, 16956.00
284.1780, 16711.00
285.3880, 16642.00
286.5980, 16575.00
287.8090, 16460.00
289.0190, 16488.00
290.2290, 16340.00
291.4380, 16430.00
292.6480, 16138.00
293.8570, 16223.00
295.0670, 16331.00
296.2760, 16064.00
297.4850, 16023.00
298.6930, 16225.00
299.9020, 16148.00
301.1110, 16120.00
302.3190, 16212.00
303.5270, 16203.00
304.7350, 16156.00
305.9430, 16185.00
307.1510, 16123.00
308.3580, 16354.00
309.5660, 16330.00
310.7730, 16385.00
311.9800, 16397.00
313.1870, 16450.00
314.3940, 16459.71
315.6010, 16444.00
316.8070, 16481.00
318.0130, 16453.00
319.2200, 16462.00
320.4260, 16728.00
321.6310, 16735.00
322.8370, 16781.00
324.0430, 16831.00
325.2480, 16862.00
326.4540, 16930.13
327.6590, 16988.00
328.8640, 17077.00
330.0680, 17122.00
331.2730, 17231.00
332.4780, 17281.00
333.6820, 17502.00
334.8860, 17796.00
336.0900, 17867.00
337.2940, 18049.00
338.4980, 18146.00
339.7010, 18445.00
340.9050, 18658.00
342.1080, 18785.00
343.3110, 18888.00
344.5140, 19000.00
345.7170, 19190.00
346.9200, 19285.04
348.1220, 19541.00
349.3240, 19498.00
350.5270, 19692.00
351.7290, 19726.00
352.9310, 19762.00
354.1320, 19774.00
355.3340, 20052.00
356.5350, 20254.00
357.7370, 20102.00
358.9380, 20372.00
360.1390, 20292.00
361.3400, 20380.00
362.5400, 20229.00
363.7410, 20338.00
364.9410, 20010.00
366.1410, 19964.00
367.3410, 19752.00
368.5410, 19539.00
369.7410, 19490.00
370.9400, 19317.00
372.1400, 19025.00
373.3390, 19075.00
374.5380, 18953.00
375.7370, 18946.00
376.9360, 18866.00
378.1350, 18972.00
379.3330, 18940.00
380.5310, 19260.00
381.7300, 19325.00
382.9280, 19307.00
384.1260, 19318.00
385.3230, 19327.00
386.5210, 19228.00
387.7180, 18993.00
388.9160, 18918.00
390.1130, 18679.00
391.3100, 18446.00
392.5060, 18352.00
393.7030, 18216.00
394.9000, 17975.00
396.0960, 17880.00
397.2920, 17728.00
398.4880, 17790.00
399.6840, 17408.00
400.8800, 17487.00
402.0750, 17381.00
403.2710, 17246.00
404.4660, 17209.00
405.6610, 17099.00
406.8560, 17032.00
408.0510, 16939.00
409.2450, 16851.00
410.4400, 16783.00
411.6340, 16731.96
412.8280, 16737.00
414.0220, 16690.00
415.2160, 16666.00
416.4100, 16716.00
417.6030, 16826.00
418.7970, 16682.00
419.9900, 16682.00
421.1830, 16669.00
422.3760, 16543.00
423.5690, 16527.48
424.7610, 16478.00
425.9540, 16380.00
427.1460, 16260.00
428.3380, 16131.00
429.5300, 16049.00
430.7220, 15951.34
431.9140, 15868.81
433.1050, 15797.00
434.2970, 15742.00
435.4880, 15697.84
436.6790, 15653.00
437.8700, 15646.00
439.0610, 15648.00
440.2510, 15646.00
441.4420, 15615.86
442.6320, 15595.00
443.8220, 15585.00
445.0120, 15547.00
446.2020, 15605.00
447.3910, 15708.00
448.5810, 15692.00
449.7700, 15918.00
450.9600, 15926.00
452.1490, 16176.00
453.3370, 16204.00
454.5260, 16260.00
455.7150, 16377.00
456.9030, 16547.70
458.0910, 16719.00
459.2800, 17022.00
460.4670, 17288.00
461.6550, 17615.00
462.8430, 18087.00
464.0300, 18397.00
465.2180, 18553.00
466.4050, 18908.00
467.5920, 18938.00
468.7790, 19131.00
469.9650, 19405.00
471.1520, 19054.00
472.3380, 19090.00
473.5250, 19168.00
474.7110, 18684.00
475.8970, 18776.00
477.0820, 18614.00
478.2680, 18603.00
479.4540, 18543.00
480.6390, 18436.35
481.8240, 18377.42
483.0090, 18240.00
484.1940, 18236.00
485.3780, 18095.00
486.5630, 18113.00
487.7470, 17985.00
488.9320, 17828.00
490.1160, 17781.00
491.3000, 17514.00
492.4830, 17393.00
493.6670, 17160.00
494.8500, 17005.00
496.0340, 17070.00
497.2170, 16900.00
498.4000, 16943.00
499.5820, 16692.00
500.7650, 16495.00
501.9480, 16534.00
503.1300, 16454.00
504.3120, 16548.00
505.4940, 16378.00
506.6760, 16414.00
507.8580, 16321.00
509.0390, 16180.00
510.2210, 16069.00
511.4020, 16117.00
512.5830, 16073.00
513.7640, 16144.00
514.9450, 16164.00
516.1250, 16160.00
517.3060, 16134.00
518.4860, 16166.00
519.6660, 16057.00
520.8460, 16275.00
522.0260, 16234.00
523.2060, 16255.00
524.3850, 16391.00
525.5650, 16433.00
526.7440, 16512.00
527.9230, 16476.00
529.1020, 16534.00
530.2810, 16667.00
531.4590, 16904.00
532.6380, 17094.00
533.8160, 17235.00
534.9940, 17402.00
536.1720, 17604.00
537.3500, 17774.00
538.5270, 18121.00
539.7050, 18542.00
540.8820, 18851.00
542.0590, 19498.00
543.2360, 19974.00
544.4130, 20604.00
545.5900, 21264.00
546.7660, 22147.00
547.9430, 22952.00
549.1190, 24083.00
550.2950, 25163.00
551.4710, 26144.00
552.6470, 27397.00
553.8220, 28255.00
554.9980, 29225.00
556.1730, 29731.00
557.3480, 30016.00
558.5230, 30283.00
559.6980, 30068.00
560.8730, 29842.00
562.0470, 29301.00
563.2220, 28709.00
564.3960, 28239.00
565.5700, 27549.00
566.7440, 27016.00
567.9170, 26333.00
569.0910, 25682.00
570.2640, 25103.00
571.4380, 24305.00
572.6110, 24102.00
573.7840, 23645.00
574.9570, 22885.00
576.1290, 22623.00
577.3020, 22588.00
578.4740, 22157.00
579.6460, 21969.00
580.8180, 21911.00
581.9900, 21820.00
583.1620, 21864.00
584.3330, 21838.00
585.5040, 21601.00
586.6760, 21845.00
587.8470, 21813.80
589.0180, 22162.00
590.1880, 22055.00
591.3590, 22418.00
592.5290, 22638.00
593.7000, 22540.00
594.8700, 22462.00
596.0400, 22583.00
597.2090, 22366.00
598.3790, 22619.00
599.5490, 22479.00
600.7180, 22623.00
601.8870, 22688.00
603.0560, 22465.00
604.2250, 22646.00
605.3940, 22405.00
606.5620, 22590.00
607.7300, 22839.00
608.8990, 22892.00
610.0670, 22967.00
611.2350, 23060.00
612.4020, 23228.00
613.5700, 23306.48
614.7370, 23458.00
615.9050, 23577.00
617.0720, 23821.00
618.2390, 24074.00
619.4060, 24055.00
620.5720, 24439.00
621.7390, 24714.00
622.9050, 24763.00
624.0710, 25162.00
625.2370, 25258.00
626.4030, 25506.00
627.5690, 25967.00
628.7340, 26099.00
629.9000, 26177.00
631.0650, 26614.00
632.2300, 27231.00
633.3950, 27520.00
634.5600, 28047.00
635.7240, 28689.00
636.8890, 29164.00
638.0530, 29904.00
639.2170, 30779.00
640.3810, 31649.00
641.5450, 32677.00
642.7080, 33716.00
643.8720, 35297.00
645.0350, 37154.00
646.1980, 38640.00
647.3610, 40848.00
648.5240, 42949.00
649.6870, 45496.00
650.8490, 47646.00
652.0120, 50065.00
653.1740, 51120.00
654.3360, 51984.00
655.4980, 51500.00
656.6600, 50387.00
657.8210, 48749.00
658.9830, 46802.00
660.1440, 44687.00
661.3050, 43487.00
662.4660, 41758.00
663.6270, 40508.00
664.7870, 39637.00
665.9480, 39086.00
667.1080, 38480.00
668.2680, 38348.00
669.4280, 38593.00
670.5880, 38794.00
671.7480, 39448.00
672.9070, 39708.00
674.0670, 40692.00
675.2260, 41001.00
676.3850, 42117.00
677.5440, 42856.00
678.7030, 43783.00
679.8610, 44265.00
681.0200, 45119.00
682.1780, 45872.00
683.3360, 46906.00
684.4940, 47889.00
685.6520, 48323.00
686.8090, 49294.00
687.9670, 49863.00
689.1240, 50382.00
690.2810, 51198.00
691.4380, 51858.00
692.5950, 52257.00
693.7520, 52630.00
694.9080, 52725.00
696.0650, 53026.00
697.2210, 53541.00
698.3770, 53692.00
699.5330, 54024.00
700.6880, 54261.00
701.8440, 54189.00
702.9990, 54195.00
704.1550, 54317.00
705.3100, 54283.00
706.4650, 54347.00
707.6190, 54379.00
708.7740, 54094.00
709.9290, 53915.74
711.0830, 53543.00
712.2370, 53140.00
713.3910, 52637.00
714.5450, 51999.00
715.6980, 51672.00
716.8520, 51154.00
718.0050, 50515.00
719.1580, 49658.00
720.3110, 48879.00
721.4640, 47752.00
722.6170, 47198.00
723.7700, 46192.00
724.9220, 45084.00
726.0740, 44269.00
727.2260, 43171.00
728.3780, 42246.00
729.5300, 41336.00
730.6810, 40185.00
731.8330, 39384.00
732.9840, 38595.00
734.1350, 37328.00
735.2860, 36698.00
736.4370, 35639.00
737.5880, 35005.00
738.7380, 34184.00
739.8880, 33852.00
741.0390, 32995.00
742.1890, 32599.00
743.3380, 32408.00
744.4880, 31656.00
745.6380, 31606.00
746.7870, 31128.00
747.9360, 30845.00
749.0850, 30352.00
750.2340, 30110.00
751.3830, 30053.00
752.5310, 29673.00
753.6800, 29513.00
754.8280, 29235.00
755.9760, 28906.00
757.1240, 28711.00
758.2720, 28588.00
759.4190, 28219.00
760.5670, 27734.00
761.7140, 27674.00
762.8610, 27067.00
764.0080, 26797.00
765.1550, 26318.00
766.3020, 26143.00
767.4480, 25872.00
768.5950, 25461.00
769.7410, 25125.00
770.8870, 24801.00
772.0330, 24646.00
773.1780, 24188.00
774.3240, 23774.00
775.4690, 23584.00
776.6140, 23483.00
777.7590, 23396.00
778.9040, 23312.00
780.0490, 23044.00
781.1940, 22995.00
782.3380, 22750.00
783.4820, 22818.00
784.6260, 22736.00
785.7700, 22514.00
786.9140, 22604.00
788.0580, 22251.00
789.2010, 22140.00
790.3450, 22201.00
791.4880, 21784.00
792.6310, 21657.00
793.7730, 21368.00
794.9160, 21290.00
796.0590, 20997.00
797.2010, 20746.00
798.3430, 20540.00
799.4850, 20343.00
800.6270, 20079.00
801.7690, 19837.00
802.9100, 19858.00
804.0520, 19671.00
805.1930, 19352.00
806.3340, 19145.00
807.4750, 19208.00
808.6160, 18785.00
809.7560, 18774.00
810.8970, 18787.00
812.0370, 18602.00
813.1770, 18303.00
814.3170, 18289.00
815.4570, 18094.00
816.5960, 18144.00
817.7360, 17834.00
818.8750, 17895.00
820.0140, 17734.00
821.1530, 17632.00
822.2920, 17671.00
823.4310, 17698.00
824.5690, 17544.00
825.7070, 17505.00
826.8460, 17405.00
827.9840, 17406.00
829.1220, 17434.00
830.2590, 17314.00
831.3970, 17298.00
832.5340, 17248.00
833.6710, 17169.00
834.8080, 17370.00
835.9450, 17258.00
837.0820, 17174.00
838.2190, 17278.00
839.3550, 17146.00
840.4910, 17070.00
841.6270, 17259.00
842.7630, 17168.00
843.8990, 17124.00
845.0350, 17105.00
846.1700, 17114.00
847.3060, 17141.00
848.4410, 17142.00
849.5760, 17354.00
850.7100, 17126.00
851.8450, 17366.00
852.9800, 17225.00
854.1140, 17440.00
855.2480, 17141.00
856.3820, 17386.00
857.5160, 17439.00
858.6500, 17657.00
859.7830, 17497.00
860.9170, 17510.00
862.0500, 17690.00
863.1830, 17469.00
864.3160, 17609.00
865.4480, 17899.00
866.5810, 17794.00
867.7130, 17895.00
868.8460, 18071.00
869.9780, 18003.00
871.1100, 18014.00
872.2410, 18335.00
873.3730, 18383.00
874.5050, 18387.00
875.6360, 18580.00
876.7670, 18724.00
877.8980, 18754.00
879.0290, 18976.00
880.1590, 18931.00
881.2900, 19237.00
882.4200, 19287.00
883.5500, 19613.00
884.6800, 19802.00
885.8100, 19877.00
886.9400, 20235.00
888.0690, 20123.00
889.1990, 20603.00
890.3280, 20420.00
891.4570, 20758.00
892.5860, 21027.00
893.7140, 21249.00
894.8430, 21474.62
895.9710, 21585.00
897.1000, 21787.00
898.2280, 22141.00
899.3560, 22211.00
900.4830, 22413.00
901.6110, 22869.00
902.7380, 22750.00
903.8660, 23220.00
904.9930, 23275.00
906.1200, 23651.00
907.2460, 23789.00
908.3730, 24082.00
909.5000, 24140.00
910.6260, 24306.00
911.7520, 24512.00
912.8780, 24640.00
914.0040, 25024.00
915.1290, 25225.00
916.2550, 25285.00
917.3800, 25393.00
918.5050, 25474.00
919.6300, 25469.00
920.7550, 25441.00
921.8800, 25743.00
923.0040, 26092.00
924.1290, 25771.00
925.2530, 26571.00
926.3770, 25890.00
927.5010, 25604.00
928.6250, 25624.00
929.7480, 25679.00
930.8720, 25374.00
931.9950, 25422.00
933.1180, 25290.00
934.2410, 25161.00
935.3640, 24993.00
936.4860, 24809.01
937.6090, 24549.00
938.7310, 24380.00
939.8530, 24054.21
940.9750, 23786.06
942.0970, 23525.00
943.2180, 23081.00
944.3400, 22948.00
945.4610, 22657.00
946.5820, 22542.00
947.7030, 22173.00
948.8240, 21789.00
949.9450, 21546.00
951.0650, 21397.00
952.1860, 21113.00
953.3060, 21001.00
954.4260, 20716.00
955.5460, 20375.00
956.6650, 20210.94
957.7850, 20171.00
958.9040, 19768.00
960.0230, 19674.00
961.1420, 19488.00
962.2610, 19248.00
963.3800, 19107.00
964.4990, 18883.00
965.6170, 18706.00
966.7350, 18617.00
967.8530, 18459.00
968.9710, 18260.00
970.0890, 18260.00
971.2070, 18193.00
972.3240, 18013.00
973.4410, 17973.00
974.5580, 18104.00
975.6750, 17804.00
976.7920, 17954.00
977.9090, 17829.00
979.0250, 17849.00
980.1410, 17728.00
981.2580, 17695.00
982.3740, 17882.00
983.4890, 17769.00
984.6050, 17796.00
985.7200, 17754.00
986.8360, 17744.00
987.9510, 17637.00
989.0660, 17757.00
990.1810, 17792.26
991.2950, 17969.00
992.4100, 18055.00
993.5240, 18070.00
994.6390, 18307.00
995.7530, 18388.00
996.8660, 18528.00
997.9800, 18434.00
999.0940, 18728.00
1000.207, 18848.00
1001.320, 18810.00
1002.433, 18969.00
1003.546, 19291.00
1004.659, 19594.00
1005.772, 19510.00
1006.884, 19541.00
1007.996, 19928.00
1009.108, 20030.00
1010.220, 20281.00
1011.332, 20504.00
1012.444, 20807.00
1013.555, 21114.00
1014.666, 21357.00
1015.777, 21642.00
1016.888, 22222.00
1017.999, 22324.00
1019.110, 22616.00
1020.220, 22736.00
1021.331, 23195.00
1022.441, 23514.00
1023.551, 23683.00
1024.661, 23867.00
1025.770, 24031.00
1026.880, 24283.00
1027.989, 24241.00
1029.098, 24505.00
1030.207, 24506.00
1031.316, 24498.00
1032.425, 24410.00
1033.533, 24339.89
1034.642, 24234.67
1035.750, 24081.00
1036.858, 23915.00
1037.966, 23700.00
1039.073, 23394.00
1040.181, 23020.00
1041.288, 22702.00
1042.396, 22526.00
1043.503, 22393.00
1044.610, 22265.00
1045.716, 21902.00
1046.823, 21619.00
1047.929, 21507.00
1049.036, 21181.00
1050.142, 20947.00
1051.248, 20769.00
1052.353, 20552.78
1053.459, 20308.00
1054.564, 20233.00
1055.670, 20016.00
1056.775, 19863.00
1057.880, 19883.00
1058.985, 19736.00
1060.089, 19711.00
1061.194, 19664.00
1062.298, 19629.94
1063.402, 19552.00
1064.506, 19599.00
1065.610, 19517.00
1066.713, 19440.00
1067.817, 19560.00
1068.920, 19569.00
1070.023, 19666.00
1071.126, 19673.00
1072.229, 19585.00
1073.332, 19800.00
1074.435, 19569.00
1075.537, 19691.00
1076.639, 19592.00
1077.741, 19600.00
1078.843, 19620.00
1079.945, 19542.00
1081.046, 19674.00
1082.148, 19716.00
1083.249, 19510.00
1084.350, 19501.00
1085.451, 19152.00
1086.551, 19169.00
1087.652, 19220.00
1088.752, 19190.00
1089.853, 18877.00
1090.953, 18934.00
1092.053, 18732.00
1093.152, 18602.00
1094.252, 18607.00
1095.351, 18459.00
1096.451, 18369.00
1097.550, 18230.00
1098.649, 18193.00
1099.748, 18088.71
1100.846, 18033.00
1101.945, 17952.00
1103.043, 17862.00
1104.141, 17836.00
1105.239, 17748.35
1106.337, 17626.00
1107.434, 17593.00
1108.532, 17536.00
1109.629, 17412.00
1110.726, 17377.00
1111.823, 17358.00
1112.920, 17341.00
1114.017, 17391.00
1115.113, 17276.00
1116.210, 17241.00
1117.306, 17207.00
1118.402, 17076.00
1119.498, 17077.00
1120.593, 17166.00
1121.689, 17228.00
1122.784, 17087.00
1123.879, 17003.00
1124.974, 16924.00
1126.069, 16969.00
1127.164, 16893.00
1128.259, 16980.00
1129.353, 16946.00
1130.447, 17136.00
1131.541, 17002.00
1132.635, 16990.00
1133.729, 16876.00
1134.822, 16824.00
1135.916, 16965.00
1137.009, 16861.00
1138.102, 16922.00
1139.195, 16919.00
1140.288, 16715.00
1141.380, 16882.00
1142.473, 16813.00
1143.565, 16854.00
1144.657, 16933.00
1145.749, 16950.00
1146.841, 16846.00
1147.932, 16738.00
1149.024, 17011.00
1150.115, 16982.00
1151.206, 16777.00
1152.297, 16674.00
1153.388, 16850.00
1154.479, 16887.00
1155.569, 16946.00
1156.659, 16832.00
1157.750, 16885.56
1158.839, 16842.00
1159.929, 16809.00
1161.019, 16840.00
1162.108, 16657.00
1163.198, 16864.00
1164.287, 16762.00
1165.376, 16971.00
1166.465, 16914.01
1167.553, 16996.00
1168.642, 16827.00
1169.730, 16941.00
1170.818, 16892.00
1171.906, 16855.00
1172.994, 16824.00
1174.082, 16830.00
1175.170, 16817.89
1176.257, 16980.00
1177.344, 16862.00
1178.431, 16857.00
1179.518, 16947.00
1180.605, 16853.00
1181.691, 16818.00
1182.778, 16994.00
1183.864, 16806.00
1184.950, 16889.00
1186.036, 17022.00
1187.122, 16939.00
1188.207, 16961.00
1189.292, 16912.00
1190.378, 16820.00
1191.463, 16769.00
1192.548, 16939.00
1193.632, 16890.00
1194.717, 16975.00
1195.801, 16719.00
1196.886, 16711.00
1197.970, 16761.00
1199.054, 17039.00
1200.137, 16964.00
1201.221, 16932.00
1202.305, 16995.00
1203.388, 16884.00
1204.471, 17041.00
1205.554, 16956.00
1206.637, 17020.00
1207.719, 16929.00
1208.802, 16924.00
1209.884, 16990.00
1210.966, 16890.00
1212.048, 17038.00
1213.130, 16948.00
1214.212, 16979.00
1215.293, 17078.00
1216.374, 17066.00
1217.456, 17139.46
1218.536, 17209.46
1219.617, 17226.69
1220.698, 17048.00
1221.778, 17037.00
1222.859, 17123.00
1223.939, 17059.00
1225.019, 17105.00
1226.099, 16971.00
1227.178, 17038.00
1228.258, 17157.00
1229.337, 17030.00
1230.417, 16993.00
1231.496, 17182.00
1232.574, 17027.00
1233.653, 17135.00
1234.732, 16987.00
1235.810, 17169.00
1236.888, 17043.00
1237.966, 17149.00
1239.044, 17061.00
1240.122, 17124.00
1241.199, 17128.00
1242.277, 17207.00
1243.354, 17116.00
1244.431, 17085.00
1245.508, 17073.00
1246.585, 17181.00
1247.661, 17109.00
1248.738, 17105.00
1249.814, 17245.00
1250.890, 17192.00
1251.966, 17097.00
1253.042, 17213.00
1254.117, 17137.00
1255.193, 17252.00
