##NAMES=Astrophyllite
##RRUFFID=R060202
##IDEAL CHEMISTRY=K_2_NaFe^2+^_7_Ti^4+^_2_(Si_4_O_12_)_2_O_2_(OH)_4_F
##LOCALITY=Demix Quarry, Mont Saint-Hilaire, Rouville County, Quebec, Canada
##OWNER=RRUFF
##SOURCE=Royal Ontario Museum
##DESCRIPTION=Aggregate of brown splintered wafers
##STATUS=The identification of this mineral has been confirmed by X-ray diffraction and chemical analysis
##URL=rruff.info/R060202
##MEASURED CHEMISTRY=(K_0.56_Na_0.38_Ca_0.06_)_3_(Fe^2+^_0.52_Mn_0.44_Mg_0.04_)_7_(Ti_0.75_Zr_0.15_Al_0.15_)_2_Si_8_O_24_(O_0.27_OH_0.73_)_7_
##PIN_ID=M00170
##ORIENTATION=Laser parallel to (-1 0 -1). Fiducial mark perpendicular to laser is parallel to -b [0 -1 0]
141.5000, 21645.00
142.7280, 21495.00
143.9560, 21207.00
145.1840, 21097.00
146.4120, 21224.00
147.6390, 21076.00
148.8670, 21316.00
150.0940, 21244.00
151.3210, 21637.00
152.5490, 22147.00
153.7750, 21933.00
155.0020, 22185.00
156.2290, 22147.00
157.4550, 22326.00
158.6810, 22607.00
159.9080, 22869.00
161.1340, 23064.00
162.3590, 23422.00
163.5850, 23389.00
164.8110, 23710.00
166.0360, 23739.00
167.2610, 23657.00
168.4860, 23641.00
169.7110, 23383.00
170.9360, 23181.00
172.1610, 23364.00
173.3850, 22966.00
174.6100, 22853.00
175.8340, 22501.00
177.0580, 22295.00
178.2820, 22208.00
179.5050, 22175.00
180.7290, 21810.00
181.9520, 21603.00
183.1760, 21488.00
184.3990, 21566.00
185.6220, 21526.00
186.8450, 21566.00
188.0670, 21692.00
189.2900, 21706.00
190.5120, 21873.00
191.7340, 21989.00
192.9560, 22131.00
194.1780, 22341.00
195.4000, 22509.00
196.6220, 22598.00
197.8430, 22843.00
199.0640, 22905.00
200.2860, 23422.00
201.5070, 23776.00
202.7270, 24055.00
203.9480, 24100.00
205.1690, 23966.00
206.3890, 23807.00
207.6090, 24076.00
208.8290, 24180.00
210.0490, 24596.00
211.2690, 24764.00
212.4890, 25259.00
213.7080, 25628.00
214.9280, 25888.00
216.1470, 26188.00
217.3660, 26620.00
218.5850, 27052.00
219.8030, 27650.00
221.0220, 27972.00
222.2400, 28229.00
223.4590, 28874.38
224.6770, 29753.00
225.8950, 29921.00
227.1120, 30453.00
228.3300, 30772.00
229.5480, 31514.00
230.7650, 31946.00
231.9820, 32340.00
233.1990, 32857.00
234.4160, 33363.00
235.6330, 33659.00
236.8490, 34042.00
238.0660, 33949.00
239.2820, 34469.00
240.4980, 34504.00
241.7140, 34457.00
242.9300, 34596.00
244.1460, 34452.00
245.3610, 34508.77
246.5770, 34388.00
247.7920, 34461.00
249.0070, 34569.00
250.2220, 34436.00
251.4370, 34353.00
252.6510, 34530.00
253.8660, 35375.00
255.0800, 36021.00
256.2940, 36536.00
257.5080, 36109.35
258.7220, 34311.00
259.9360, 34444.00
261.1490, 33630.00
262.3630, 32120.00
263.5760, 31225.00
264.7890, 30730.00
266.0020, 29857.00
267.2150, 28975.00
268.4270, 28400.00
269.6400, 27788.00
270.8520, 27046.00
272.0640, 26238.00
273.2760, 25957.00
274.4880, 25353.00
275.7000, 25001.00
276.9120, 24465.00
278.1230, 24326.00
279.3340, 23797.00
280.5450, 23398.00
281.7560, 23363.00
282.9670, 22955.00
284.1780, 22904.00
285.3880, 22583.00
286.5980, 22420.00
287.8090, 22295.00
289.0190, 22211.00
290.2290, 22169.00
291.4380, 22187.00
292.6480, 22129.00
293.8570, 22214.00
295.0670, 22135.00
296.2760, 22062.00
297.4850, 22079.51
298.6930, 21927.00
299.9020, 21946.00
301.1110, 22046.00
302.3190, 21801.00
303.5270, 21978.00
304.7350, 22117.00
305.9430, 22251.00
307.1510, 22017.00
308.3580, 22285.00
309.5660, 22288.00
310.7730, 22386.00
311.9800, 22530.00
313.1870, 22705.00
314.3940, 22763.00
315.6010, 22751.00
316.8070, 22989.00
318.0130, 23186.00
319.2200, 23180.00
320.4260, 23374.00
321.6310, 23478.00
322.8370, 23510.00
324.0430, 23588.00
325.2480, 23450.00
326.4540, 23753.00
327.6590, 23763.00
328.8640, 23754.00
330.0680, 24074.00
331.2730, 24054.00
332.4780, 24083.00
333.6820, 24594.00
334.8860, 24509.00
336.0900, 24534.00
337.2940, 24380.00
338.4980, 24751.00
339.7010, 24671.21
340.9050, 25208.00
342.1080, 24727.00
343.3110, 24844.00
344.5140, 24720.80
345.7170, 24606.00
346.9200, 24563.00
348.1220, 24373.84
349.3240, 24220.00
350.5270, 24083.00
351.7290, 23862.00
352.9310, 23814.00
354.1320, 23754.00
355.3340, 23502.00
356.5350, 23573.00
357.7370, 23424.00
358.9380, 23355.02
360.1390, 23458.00
361.3400, 23261.00
362.5400, 23254.00
363.7410, 23269.00
364.9410, 23180.00
366.1410, 23151.00
367.3410, 23209.00
368.5410, 23154.00
369.7410, 23291.00
370.9400, 23259.00
372.1400, 23363.00
373.3390, 23377.00
374.5380, 23314.00
375.7370, 23740.00
376.9360, 23636.00
378.1350, 23625.00
379.3330, 23588.00
380.5310, 23534.00
381.7300, 23508.52
382.9280, 23506.21
384.1260, 23455.00
385.3230, 23493.00
386.5210, 23525.00
387.7180, 23453.00
388.9160, 23337.00
390.1130, 23445.00
391.3100, 23205.00
392.5060, 23141.00
393.7030, 23115.00
394.9000, 23253.00
396.0960, 23397.00
397.2920, 23340.00
398.4880, 23251.00
399.6840, 23294.00
400.8800, 23257.00
402.0750, 23265.00
403.2710, 23318.00
404.4660, 23315.00
405.6610, 23621.00
406.8560, 23514.00
408.0510, 23888.00
409.2450, 24019.00
410.4400, 24247.00
411.6340, 24428.00
412.8280, 24667.00
414.0220, 24839.00
415.2160, 25032.00
416.4100, 24912.00
417.6030, 25123.00
418.7970, 25380.00
419.9900, 25187.00
421.1830, 25134.00
422.3760, 25098.00
423.5690, 24928.00
424.7610, 24695.00
425.9540, 24872.00
427.1460, 24249.00
428.3380, 24109.00
429.5300, 23611.00
430.7220, 23558.00
431.9140, 23098.00
433.1050, 23038.00
434.2970, 22899.00
435.4880, 22434.00
436.6790, 22542.00
437.8700, 22275.00
439.0610, 22187.00
440.2510, 21782.00
441.4420, 21673.00
442.6320, 21632.00
443.8220, 21372.00
445.0120, 21234.00
446.2020, 21180.00
447.3910, 21352.00
448.5810, 21000.00
449.7700, 21186.00
450.9600, 21380.00
452.1490, 21324.00
453.3370, 21160.00
454.5260, 21228.00
455.7150, 21062.00
456.9030, 21379.00
458.0910, 21438.00
459.2800, 21595.00
460.4670, 21722.00
461.6550, 21536.00
462.8430, 21715.00
464.0300, 21993.00
465.2180, 21956.00
466.4050, 22188.00
467.5920, 22387.00
468.7790, 22155.00
469.9650, 22346.00
471.1520, 22092.00
472.3380, 22165.00
473.5250, 21987.00
474.7110, 22067.00
475.8970, 22160.00
477.0820, 22168.17
478.2680, 22107.23
479.4540, 22313.00
480.6390, 21946.00
481.8240, 21905.00
483.0090, 21945.00
484.1940, 21926.00
485.3780, 21928.00
486.5630, 21779.00
487.7470, 21890.00
488.9320, 21657.00
490.1160, 21846.00
491.3000, 21736.00
492.4830, 21509.00
493.6670, 21560.00
494.8500, 21400.00
496.0340, 21454.00
497.2170, 21249.00
498.4000, 21293.00
499.5820, 21268.00
500.7650, 21153.00
501.9480, 21360.00
503.1300, 21252.00
504.3120, 20981.00
505.4940, 21248.00
506.6760, 21037.00
507.8580, 21005.00
509.0390, 21226.00
510.2210, 21089.00
511.4020, 21089.00
512.5830, 21125.00
513.7640, 21063.00
514.9450, 21147.00
516.1250, 21211.00
517.3060, 21063.00
518.4860, 21123.00
519.6660, 21088.42
520.8460, 21126.00
522.0260, 21047.00
523.2060, 21197.00
524.3850, 21161.00
525.5650, 21284.00
526.7440, 21391.00
527.9230, 21497.00
529.1020, 21715.00
530.2810, 21639.00
531.4590, 21671.00
532.6380, 21649.00
533.8160, 21951.00
534.9940, 21978.00
536.1720, 22383.00
537.3500, 22447.00
538.5270, 22576.00
539.7050, 22988.00
540.8820, 23236.00
542.0590, 23297.00
543.2360, 23698.00
544.4130, 24081.00
545.5900, 24702.00
546.7660, 25091.00
547.9430, 25624.00
549.1190, 26092.73
550.2950, 26491.00
551.4710, 26930.00
552.6470, 27245.00
553.8220, 27497.00
554.9980, 27647.00
556.1730, 27900.00
557.3480, 27907.00
558.5230, 27744.00
559.6980, 27506.00
560.8730, 27612.00
562.0470, 27314.00
563.2220, 26981.00
564.3960, 26591.00
565.5700, 26387.00
566.7440, 25931.00
567.9170, 25916.00
569.0910, 25855.00
570.2640, 25538.00
571.4380, 25392.00
572.6110, 25083.00
573.7840, 24908.00
574.9570, 24775.00
576.1290, 24796.00
577.3020, 24618.00
578.4740, 24480.00
579.6460, 24526.00
580.8180, 24421.00
581.9900, 24524.00
583.1620, 24573.00
584.3330, 24613.00
585.5040, 24695.00
586.6760, 24873.00
587.8470, 25003.00
589.0180, 24886.00
590.1880, 25125.00
591.3590, 25207.00
592.5290, 25049.00
593.7000, 24951.00
594.8700, 24971.00
596.0400, 25112.00
597.2090, 25165.00
598.3790, 25211.00
599.5490, 25294.00
600.7180, 25383.00
601.8870, 25307.00
603.0560, 25230.00
604.2250, 25372.00
605.3940, 25382.00
606.5620, 25359.00
607.7300, 25245.00
608.8990, 25445.06
610.0670, 25517.61
611.2350, 25699.00
612.4020, 25938.00
613.5700, 25827.00
614.7370, 26133.00
615.9050, 26072.00
617.0720, 26462.00
618.2390, 26109.00
619.4060, 26414.00
620.5720, 26619.00
621.7390, 26555.00
622.9050, 26958.00
624.0710, 27252.00
625.2370, 27351.00
626.4030, 27762.00
627.5690, 27765.00
628.7340, 28131.00
629.9000, 28498.00
631.0650, 28687.00
632.2300, 29076.00
633.3950, 29529.00
634.5600, 29837.00
635.7240, 30617.00
636.8890, 31082.00
638.0530, 31669.00
639.2170, 33050.00
640.3810, 33638.00
641.5450, 34738.00
642.7080, 36018.00
643.8720, 37352.00
645.0350, 38707.00
646.1980, 40376.00
647.3610, 41961.00
648.5240, 43362.00
649.6870, 44978.00
650.8490, 45678.00
652.0120, 46651.00
653.1740, 47186.00
654.3360, 46625.00
655.4980, 46071.00
656.6600, 45071.00
657.8210, 43755.00
658.9830, 42650.00
660.1440, 40974.00
661.3050, 39984.00
662.4660, 38961.00
663.6270, 37830.00
664.7870, 37365.00
665.9480, 36829.00
667.1080, 36268.00
668.2680, 36027.00
669.4280, 36121.00
670.5880, 35992.00
671.7480, 36098.00
672.9070, 36443.00
674.0670, 36741.00
675.2260, 37050.00
676.3850, 37365.30
677.5440, 37765.00
678.7030, 38025.00
679.8610, 38315.00
681.0200, 38746.00
682.1780, 39287.00
683.3360, 39873.00
684.4940, 39771.00
685.6520, 40366.00
686.8090, 40575.00
687.9670, 40871.00
689.1240, 41410.00
690.2810, 41330.00
691.4380, 41522.00
692.5950, 41762.00
693.7520, 42019.00
694.9080, 42068.00
696.0650, 42236.00
697.2210, 42019.00
698.3770, 41882.00
699.5330, 42074.00
700.6880, 42111.00
701.8440, 42129.00
702.9990, 42173.12
704.1550, 42080.00
705.3100, 42059.00
706.4650, 41962.00
707.6190, 41712.00
708.7740, 41439.00
709.9290, 41258.39
711.0830, 41236.00
712.2370, 40780.00
713.3910, 40536.00
714.5450, 40262.00
715.6980, 39430.00
716.8520, 39203.00
718.0050, 38701.00
719.1580, 38312.00
720.3110, 37839.00
721.4640, 37261.00
722.6170, 36501.00
723.7700, 36313.00
724.9220, 35559.00
726.0740, 35625.00
727.2260, 34708.00
728.3780, 34374.00
729.5300, 33804.00
730.6810, 33460.00
731.8330, 32786.00
732.9840, 32553.00
734.1350, 32070.00
735.2860, 31878.00
736.4370, 31503.00
737.5880, 31270.00
738.7380, 30752.00
739.8880, 30722.00
741.0390, 30551.00
742.1890, 30032.00
743.3380, 30036.00
744.4880, 30116.00
745.6380, 29989.00
746.7870, 29581.00
747.9360, 29157.98
749.0850, 29384.73
750.2340, 29470.66
751.3830, 29423.33
752.5310, 28843.70
753.6800, 28951.45
754.8280, 28783.77
755.9760, 28604.80
757.1240, 28809.39
758.2720, 28307.19
759.4190, 28505.78
760.5670, 28424.57
761.7140, 28471.47
762.8610, 28241.15
764.0080, 28096.46
765.1550, 28229.06
766.3020, 27924.00
767.4480, 27860.00
768.5950, 27754.00
769.7410, 27630.00
770.8870, 27720.00
772.0330, 27662.00
773.1780, 27611.00
774.3240, 27457.00
775.4690, 27456.08
776.6140, 27395.00
777.7590, 27406.00
778.9040, 27344.00
780.0490, 27339.00
781.1940, 27158.00
782.3380, 27187.00
783.4820, 27076.00
784.6260, 27091.00
785.7700, 27246.00
786.9140, 27030.00
788.0580, 27005.00
789.2010, 26936.00
790.3450, 26788.00
791.4880, 26668.00
792.6310, 26510.00
793.7730, 26387.00
794.9160, 26468.00
796.0590, 26252.00
797.2010, 26302.00
798.3430, 26016.00
799.4850, 26058.00
800.6270, 25825.00
801.7690, 25876.00
802.9100, 26043.00
804.0520, 26271.00
805.1930, 25263.00
806.3340, 24881.00
807.4750, 25082.00
808.6160, 25264.00
809.7560, 24963.00
810.8970, 25059.00
812.0370, 24952.00
813.1770, 24773.00
814.3170, 24749.00
815.4570, 24847.00
816.5960, 24539.00
817.7360, 24227.00
818.8750, 24541.00
820.0140, 24440.00
821.1530, 24435.00
822.2920, 24560.00
823.4310, 24297.00
824.5690, 24477.00
825.7070, 24382.00
826.8460, 24549.00
827.9840, 24483.00
829.1220, 24411.00
830.2590, 24202.00
831.3970, 24430.00
832.5340, 24618.00
833.6710, 24351.00
834.8080, 24531.00
835.9450, 24420.00
837.0820, 24562.00
838.2190, 24465.00
839.3550, 24717.00
840.4910, 24523.00
841.6270, 24714.00
842.7630, 24679.00
843.8990, 24631.00
845.0350, 24844.00
846.1700, 24676.00
847.3060, 24787.00
848.4410, 24992.00
849.5760, 25070.00
850.7100, 25093.00
851.8450, 25241.00
852.9800, 25308.00
854.1140, 25662.00
855.2480, 25466.00
856.3820, 25597.00
857.5160, 25856.00
858.6500, 25841.00
859.7830, 25938.00
860.9170, 26213.00
862.0500, 26213.00
863.1830, 26305.00
864.3160, 26470.00
865.4480, 26758.00
866.5810, 27103.00
867.7130, 27118.00
868.8460, 27565.00
869.9780, 27653.00
871.1100, 27859.00
872.2410, 28253.00
873.3730, 28566.00
874.5050, 28820.73
875.6360, 29158.14
876.7670, 29343.00
877.8980, 29779.00
879.0290, 30017.00
880.1590, 30402.00
881.2900, 30599.00
882.4200, 31092.00
883.5500, 31468.00
884.6800, 31750.00
885.8100, 31877.00
886.9400, 32290.00
888.0690, 33038.00
889.1990, 33246.00
890.3280, 33886.00
891.4570, 34355.00
892.5860, 34662.00
893.7140, 35096.00
894.8430, 35743.00
895.9710, 36269.00
897.1000, 36718.00
898.2280, 37260.04
899.3560, 37670.00
900.4830, 38225.00
901.6110, 38743.00
902.7380, 39260.00
903.8660, 40202.00
904.9930, 40797.00
906.1200, 41376.00
907.2460, 42197.00
908.3730, 42516.00
909.5000, 43171.00
910.6260, 43713.00
911.7520, 44256.00
912.8780, 44707.00
914.0040, 44933.00
915.1290, 45235.00
916.2550, 45682.00
917.3800, 46416.00
918.5050, 46850.00
919.6300, 46969.00
920.7550, 47069.00
921.8800, 46876.00
923.0040, 47454.00
924.1290, 47484.00
925.2530, 47273.00
926.3770, 47681.00
927.5010, 47274.00
928.6250, 47256.00
929.7480, 47288.00
930.8720, 47092.00
931.9950, 46803.47
933.1180, 46571.00
934.2410, 46218.00
935.3640, 45515.00
936.4860, 45642.00
937.6090, 44714.00
938.7310, 43884.00
939.8530, 43726.00
940.9750, 42520.00
942.0970, 41755.00
943.2180, 41381.00
944.3400, 40597.00
945.4610, 39994.00
946.5820, 39512.00
947.7030, 38926.00
948.8240, 38294.52
949.9450, 37667.00
951.0650, 37073.00
952.1860, 36341.00
953.3060, 35885.00
954.4260, 35155.00
955.5460, 34626.00
956.6650, 34107.60
957.7850, 33510.50
958.9040, 33112.00
960.0230, 32470.00
961.1420, 32007.00
962.2610, 31555.00
963.3800, 31126.00
964.4990, 30530.00
965.6170, 30309.00
966.7350, 29878.00
967.8530, 29810.00
968.9710, 29373.00
970.0890, 29175.00
971.2070, 28921.00
972.3240, 28749.90
973.4410, 28623.00
974.5580, 28501.00
975.6750, 28338.58
976.7920, 28313.00
977.9090, 28082.00
979.0250, 27929.00
980.1410, 27895.00
981.2580, 27972.00
982.3740, 27908.00
983.4890, 27967.00
984.6050, 27852.00
985.7200, 28083.00
986.8360, 27565.00
987.9510, 27983.00
989.0660, 27967.00
990.1810, 27872.00
991.2950, 28085.00
992.4100, 27833.00
993.5240, 27971.00
994.6390, 28065.00
995.7530, 27980.00
996.8660, 28268.00
997.9800, 28632.00
999.0940, 28660.00
1000.207, 28611.00
1001.320, 28983.00
1002.433, 28785.00
1003.546, 29144.00
1004.659, 29282.00
1005.772, 29412.00
1006.884, 29613.00
1007.996, 30029.00
1009.108, 30303.00
1010.220, 30483.00
1011.332, 30899.00
1012.444, 31041.00
1013.555, 31483.00
1014.666, 31910.00
1015.777, 32028.00
1016.888, 32656.00
1017.999, 32902.00
1019.110, 33313.00
1020.220, 33479.00
1021.331, 33985.00
1022.441, 34170.00
1023.551, 34613.00
1024.661, 34958.00
1025.770, 35143.00
1026.880, 35454.00
1027.989, 35664.00
1029.098, 35650.00
1030.207, 35938.00
1031.316, 36036.00
1032.425, 35863.00
1033.533, 35636.00
1034.642, 35503.00
1035.750, 35350.00
1036.858, 35532.00
1037.966, 34954.00
1039.073, 34645.00
1040.181, 34062.00
1041.288, 34126.00
1042.396, 33851.00
1043.503, 33390.00
1044.610, 32982.00
1045.716, 32347.00
1046.823, 31948.00
1047.929, 31799.00
1049.036, 31272.00
1050.142, 31031.00
1051.248, 30896.00
1052.353, 30527.00
1053.459, 30485.00
1054.564, 30034.00
1055.670, 29796.00
1056.775, 29617.00
1057.880, 29336.00
1058.985, 29256.00
1060.089, 29208.00
1061.194, 29006.00
1062.298, 28865.00
1063.402, 28791.00
1064.506, 28845.00
1065.610, 28851.00
1066.713, 28741.00
1067.817, 28595.00
1068.920, 28518.00
1070.023, 28452.00
1071.126, 28469.00
1072.229, 28462.00
1073.332, 28401.00
1074.435, 28388.00
1075.537, 28276.00
1076.639, 28539.00
1077.741, 28361.00
1078.843, 28448.00
1079.945, 28400.00
1081.046, 28456.00
1082.148, 28436.00
1083.249, 28379.00
1084.350, 28305.00
1085.451, 28253.00
1086.551, 28233.38
1087.652, 28036.00
1088.752, 28227.00
1089.853, 28181.00
1090.953, 28205.00
1092.053, 28432.00
1093.152, 28430.00
1094.252, 28288.00
1095.351, 28187.00
1096.451, 28080.00
1097.550, 28130.00
1098.649, 27939.00
1099.748, 27972.00
1100.846, 27846.00
1101.945, 27646.00
1103.043, 28104.00
1104.141, 27897.00
1105.239, 27818.00
1106.337, 27509.00
1107.434, 27589.00
1108.532, 27759.00
1109.629, 27411.00
1110.726, 27570.00
1111.823, 27246.00
1112.920, 27027.00
1114.017, 27061.00
1115.113, 26944.00
1116.210, 27305.00
1117.306, 27232.00
1118.402, 27513.00
1119.498, 27317.00
1120.593, 27569.00
1121.689, 27533.00
1122.784, 27630.00
1123.879, 27305.00
1124.974, 27277.00
1126.069, 27178.00
1127.164, 27305.00
1128.259, 27188.00
1129.353, 27164.00
1130.447, 26985.00
1131.541, 27023.98
1132.635, 27162.00
1133.729, 27037.00
1134.822, 27163.00
1135.916, 27118.00
1137.009, 27117.78
1138.102, 26931.00
1139.195, 27081.00
1140.288, 27028.00
1141.380, 26908.00
1142.473, 27062.00
1143.565, 26940.00
1144.657, 27095.00
1145.749, 27062.00
1146.841, 27231.00
1147.932, 27107.00
1149.024, 27302.00
1150.115, 27781.00
1151.206, 27188.00
1152.297, 26961.00
1153.388, 26897.00
1154.479, 27190.00
1155.569, 27086.67
1156.659, 27061.00
1157.750, 27297.00
1158.839, 27080.00
1159.929, 27276.00
1161.019, 27046.00
1162.108, 27357.00
1163.198, 27388.00
1164.287, 27425.00
1165.376, 27594.00
1166.465, 27344.00
1167.553, 27258.00
1168.642, 27325.00
1169.730, 27396.00
1170.818, 27431.00
1171.906, 27444.00
1172.994, 27395.00
1174.082, 27467.00
1175.170, 27547.00
1176.257, 27424.00
1177.344, 27490.00
1178.431, 27519.00
1179.518, 27377.00
1180.605, 27227.00
1181.691, 27193.00
1182.778, 27346.00
1183.864, 27412.00
1184.950, 27468.00
1186.036, 27716.00
1187.122, 27867.00
1188.207, 27813.00
1189.292, 27646.00
1190.378, 27497.00
1191.463, 27596.00
1192.548, 27527.00
1193.632, 27643.00
1194.717, 27502.00
1195.801, 27627.00
1196.886, 27754.00
1197.970, 27453.00
1199.054, 27599.00
1200.137, 27738.00
1201.221, 27700.00
1202.305, 27902.00
1203.388, 27696.00
1204.471, 27778.00
1205.554, 27798.00
1206.637, 27788.00
1207.719, 27846.00
1208.802, 27768.00
1209.884, 27800.00
1210.966, 27971.00
1212.048, 27890.00
1213.130, 27955.07
1214.212, 28050.00
1215.293, 28002.00
1216.374, 28000.00
1217.456, 28103.00
1218.536, 28029.00
1219.617, 28001.00
1220.698, 27795.00
1221.778, 28001.00
1222.859, 27791.00
1223.939, 27982.00
1225.019, 27941.00
1226.099, 27970.83
1227.178, 27992.00
1228.258, 28115.00
1229.337, 28118.00
1230.417, 28249.00
1231.496, 28109.00
1232.574, 28008.00
1233.653, 28284.00
1234.732, 28306.00
1235.810, 28005.00
1236.888, 28285.00
1237.966, 28176.00
1239.044, 28317.00
1240.122, 28544.00
1241.199, 28342.00
1242.277, 28217.00
1243.354, 28333.00
1244.431, 28304.00
1245.508, 28601.00
1246.585, 28300.00
1247.661, 28105.00
1248.738, 28454.00
1249.814, 28046.00
1250.890, 28457.00
1251.966, 28223.00
1253.042, 28449.00
1254.117, 28251.00
1255.193, 27998.00
1256.268, 28298.00
1257.343, 28040.00
1258.418, 28249.00
1259.493, 28264.00
1260.567, 28505.00
1261.642, 28484.00
1262.716, 28538.00
1263.790, 28466.00
1264.864, 28563.00
1265.938, 28541.87
1267.011, 28676.00
1268.085, 28522.00
1269.158, 28511.00
1270.231, 28432.00
1271.304, 28528.00
1272.377, 28633.00
1273.450, 28881.00
1274.522, 28442.00
1275.594, 28595.00
1276.666, 28505.00
1277.738, 28801.00
1278.810, 28929.00
1279.882, 28851.00
1280.953, 28879.00
1282.025, 28857.00
1283.096, 28896.00
1284.167, 28979.00
1285.238, 28941.00
1286.308, 28971.76
1287.379, 28785.00
1288.449, 28995.00
1289.519, 28884.00
1290.589, 28962.00
1291.659, 29075.00
1292.729, 29160.00
1293.798, 29166.00
1294.868, 29066.00
1295.937, 29266.00
1297.006, 29022.00
1298.075, 29122.00
1299.143, 29081.00
1300.212, 29109.00
1301.280, 29043.00
1302.348, 29360.00
1303.416, 29134.00
1304.484, 29210.00
1305.552, 29482.00
1306.620, 29239.00
1307.687, 29617.00
