##NAMES=Augelite
##RRUFFID=R050060
##IDEAL CHEMISTRY=Al_2_PO_4_(OH)_3_
##LOCALITY=Machacamarca, Potosi Department, Bolivia
##OWNER=RRUFF
##SOURCE=Rock Currier
##DESCRIPTION=Colorless prismatic crystals
##STATUS=The identification of this mineral has been confirmed by X-ray diffraction and chemical analysis
##URL=rruff.info/R050060
##MEASURED CHEMISTRY=Al_2.00_(P_1.00_O_4_)(OH)_3_; OH estimated by difference
##PIN_ID=L01372
##ORIENTATION=Laser parallel to -a* (-1 0 0). Fiducial mark perpendicular to laser is parallel to -b [0 -1 0]
195.6250, 7538.000
196.8550, 7635.000
198.0860, 7520.000
199.3160, 7521.000
200.5460, 7625.000
201.7750, 7546.000
203.0050, 7487.000
204.2340, 7408.000
205.4630, 7419.000
206.6920, 7387.231
207.9210, 7296.262
209.1500, 7460.000
210.3780, 7466.000
211.6060, 7655.000
212.8340, 7800.446
214.0620, 7973.000
215.2900, 8152.000
216.5170, 8363.000
217.7440, 8531.000
218.9710, 8991.000
220.1980, 9329.000
221.4250, 9892.000
222.6510, 10506.00
223.8770, 11072.00
225.1040, 11644.00
226.3290, 11760.00
227.5550, 11347.00
228.7810, 10434.00
230.0060, 9544.000
231.2310, 8745.000
232.4560, 8403.000
233.6810, 8001.000
234.9050, 7975.000
236.1290, 7975.000
237.3540, 8111.000
238.5770, 8264.000
239.8010, 8642.000
241.0250, 9178.000
242.2480, 9647.000
243.4710, 10258.00
244.6940, 10964.00
245.9170, 11782.00
247.1400, 12738.00
248.3620, 13733.00
249.5840, 14953.00
250.8060, 15640.00
252.0280, 15882.00
253.2500, 15529.00
254.4710, 14260.00
255.6920, 13111.00
256.9140, 11601.00
258.1340, 10559.00
259.3550, 9960.000
260.5760, 9209.000
261.7960, 8528.000
263.0160, 7998.000
264.2360, 7848.000
265.4560, 7518.000
266.6750, 7492.000
267.8940, 7436.000
269.1140, 7387.000
270.3330, 7321.000
271.5510, 7237.000
272.7700, 7212.317
273.9880, 7191.000
275.2070, 7167.000
276.4250, 7095.000
277.6420, 7108.000
278.8600, 7106.000
280.0770, 7131.000
281.2950, 7084.000
282.5120, 7154.000
283.7290, 7051.000
284.9450, 7075.000
286.1620, 7015.000
287.3780, 7087.000
288.5940, 7105.000
289.8100, 7121.000
291.0260, 6943.000
292.2410, 7099.000
293.4570, 7051.000
294.6720, 7127.000
295.8870, 7152.000
297.1010, 7068.000
298.3160, 7080.000
299.5300, 7113.000
300.7450, 7040.000
301.9590, 7093.914
303.1730, 7109.000
304.3860, 7103.000
305.6000, 7142.000
306.8130, 7063.000
308.0260, 7023.000
309.2390, 7073.000
310.4510, 7109.000
311.6640, 7056.000
312.8760, 7163.000
314.0880, 7124.000
315.3000, 7052.000
316.5120, 7290.000
317.7240, 7222.000
318.9350, 7257.000
320.1460, 7370.000
321.3570, 7240.000
322.5680, 7282.000
323.7790, 7412.000
324.9890, 7388.000
326.1990, 7477.000
327.4090, 7473.000
328.6190, 7474.000
329.8290, 7540.000
331.0380, 7525.000
332.2480, 7558.506
333.4570, 7606.000
334.6660, 7619.000
335.8740, 7599.000
337.0830, 7665.000
338.2910, 7808.000
339.5000, 7733.000
340.7080, 7746.000
341.9150, 7837.000
343.1230, 8021.000
344.3300, 7906.000
345.5380, 8028.000
346.7450, 8160.000
347.9520, 8204.000
349.1580, 8271.000
350.3650, 8330.000
351.5710, 8479.000
352.7770, 8308.000
353.9830, 8766.000
355.1890, 8759.000
356.3940, 9135.000
357.6000, 9305.000
358.8050, 9627.000
360.0100, 10080.00
361.2150, 10847.00
362.4190, 11256.00
363.6240, 11998.00
364.8280, 12768.00
366.0320, 13369.00
367.2360, 13717.00
368.4400, 13788.91
369.6430, 13836.00
370.8460, 13228.00
372.0500, 12473.00
373.2530, 11561.00
374.4550, 10748.00
375.6580, 10189.00
376.8600, 9522.000
378.0620, 9187.000
379.2650, 8932.000
380.4660, 8653.000
381.6680, 8587.000
382.8690, 8374.000
384.0710, 8272.000
385.2720, 8154.000
386.4730, 8239.000
387.6730, 8264.000
388.8740, 8136.000
390.0740, 8166.000
391.2740, 8154.000
392.4740, 8231.000
393.6740, 8280.000
394.8740, 8264.000
396.0730, 8236.000
397.2730, 8271.000
398.4720, 8208.000
399.6700, 8380.000
400.8690, 8306.000
402.0680, 8442.000
403.2660, 8620.000
404.4640, 8737.000
405.6620, 8853.000
406.8600, 8847.000
408.0570, 8942.000
409.2550, 8997.000
410.4520, 8921.000
411.6490, 8766.000
412.8460, 8838.000
414.0430, 8790.000
415.2390, 8922.000
416.4350, 8790.000
417.6310, 8828.000
418.8270, 8832.000
420.0230, 8788.000
421.2190, 8788.175
422.4140, 8666.000
423.6090, 8719.000
424.8040, 8628.000
425.9990, 8566.000
427.1940, 8666.000
428.3880, 8623.000
429.5820, 8718.000
430.7760, 8611.000
431.9700, 8755.000
433.1640, 8837.000
434.3580, 8786.000
435.5510, 8819.000
436.7440, 8779.000
437.9370, 8942.000
439.1300, 8893.000
440.3230, 9004.000
441.5150, 8956.000
442.7070, 9012.000
443.8990, 8999.000
445.0910, 9048.000
446.2830, 9204.000
447.4750, 9117.000
448.6660, 9228.000
449.8570, 9139.000
451.0480, 9213.000
452.2390, 9092.000
453.4290, 9247.000
454.6200, 9087.000
455.8100, 9062.000
457.0000, 9058.000
458.1900, 9004.828
459.3800, 8999.000
460.5690, 8987.000
461.7590, 9020.000
462.9480, 8993.000
464.1370, 8940.000
465.3260, 9001.000
466.5140, 8771.000
467.7030, 8772.000
468.8910, 8856.000
470.0790, 8936.000
471.2670, 8911.000
472.4550, 8797.000
473.6420, 8814.000
474.8300, 8824.000
476.0170, 8892.000
477.2040, 8902.000
478.3900, 8806.000
479.5770, 8779.000
480.7640, 8844.000
481.9500, 8878.000
483.1360, 8873.000
484.3220, 8914.000
485.5080, 8903.000
486.6930, 8996.000
487.8780, 8881.000
489.0640, 8866.000
490.2490, 8902.000
491.4330, 9008.000
492.6180, 9005.000
493.8030, 9026.000
494.9870, 9068.000
496.1710, 9081.992
497.3550, 9120.672
498.5390, 9145.000
499.7220, 9177.000
500.9060, 9220.000
502.0890, 8975.397
503.2720, 9346.679
504.4550, 9589.354
505.6370, 9710.508
506.8200, 9333.360
508.0020, 9609.719
509.1840, 9630.282
510.3660, 9644.557
511.5480, 10025.42
512.7290, 9743.119
513.9110, 10126.98
515.0920, 10250.99
516.2730, 10500.25
517.4540, 10492.11
518.6350, 10569.20
519.8150, 10912.40
520.9960, 11115.07
522.1760, 11094.16
523.3560, 11377.19
524.5350, 11129.18
525.7150, 11169.00
526.8950, 11496.00
528.0740, 11647.00
529.2530, 11683.00
530.4320, 11733.00
531.6100, 11676.00
532.7890, 11888.00
533.9670, 11933.00
535.1460, 11968.00
536.3240, 12114.00
537.5010, 12134.00
538.6790, 12354.00
539.8570, 12575.00
541.0340, 12915.00
542.2110, 12818.00
543.3880, 13056.00
544.5650, 13294.00
545.7410, 13748.00
546.9180, 13672.00
548.0940, 13925.00
549.2700, 14395.00
550.4460, 14946.00
551.6210, 15212.00
552.7970, 15410.00
553.9720, 15928.00
555.1480, 16159.00
556.3230, 16780.00
557.4970, 17006.00
558.6720, 17626.00
559.8460, 17857.00
561.0210, 18214.00
562.1950, 18373.00
563.3690, 18562.00
564.5420, 18634.07
565.7160, 18547.00
566.8890, 18553.00
568.0630, 18377.00
569.2360, 18121.00
570.4090, 17775.00
571.5810, 17606.00
572.7540, 17393.00
573.9260, 17059.00
575.0980, 16716.00
576.2700, 16272.00
577.4420, 15892.00
578.6140, 15621.00
579.7850, 15282.00
580.9560, 14771.00
582.1270, 14446.00
583.2980, 14002.00
584.4690, 13631.00
585.6400, 13314.00
586.8100, 12911.00
587.9800, 12593.00
589.1500, 12357.00
590.3200, 12062.00
591.4900, 11849.00
592.6590, 11606.00
593.8290, 11405.00
594.9980, 11296.00
596.1670, 11114.00
597.3360, 10966.00
598.5040, 10938.00
599.6730, 11157.00
600.8410, 10995.00
602.0090, 11040.00
603.1770, 11068.00
604.3450, 11016.00
605.5130, 11180.00
606.6800, 11051.00
607.8470, 11258.00
609.0140, 11405.00
610.1810, 11449.00
611.3480, 11572.00
612.5140, 11683.00
613.6810, 11917.00
614.8470, 12145.00
616.0130, 12233.00
617.1790, 12651.00
618.3440, 12863.00
619.5100, 13281.00
620.6750, 13843.00
621.8400, 14318.00
623.0050, 15098.00
624.1700, 15716.00
625.3350, 16682.00
626.4990, 17707.00
627.6640, 19063.00
628.8280, 20089.00
629.9920, 21540.00
631.1550, 22971.00
632.3190, 24504.00
633.4820, 25735.00
634.6460, 26547.00
635.8090, 27035.00
636.9710, 26413.00
638.1340, 25349.00
639.2970, 23377.00
640.4590, 21583.00
641.6210, 19762.00
642.7830, 17787.00
643.9450, 16474.00
645.1070, 15293.00
646.2680, 14207.00
647.4300, 13576.00
648.5910, 12970.00
649.7520, 12613.00
650.9130, 12162.00
652.0730, 12119.00
653.2340, 11956.00
654.3940, 11647.00
655.5540, 11519.00
656.7140, 11467.00
657.8740, 11276.00
659.0330, 11118.00
660.1930, 11066.00
661.3520, 11115.00
662.5110, 10872.00
663.6700, 10899.00
664.8290, 10949.00
665.9870, 10817.00
667.1460, 10815.00
668.3040, 10728.00
669.4620, 10693.00
670.6200, 10558.00
671.7770, 10666.00
672.9350, 10709.00
674.0920, 10529.00
675.2500, 10443.00
676.4070, 10530.00
677.5630, 10592.00
678.7200, 10490.00
679.8770, 10433.00
681.0330, 10530.00
682.1890, 10390.00
683.3450, 10396.00
684.5010, 10554.00
685.6560, 10476.00
686.8120, 10428.00
687.9670, 10397.00
689.1220, 10416.00
690.2770, 10421.31
691.4320, 10393.47
692.5870, 10427.00
693.7410, 10413.00
694.8950, 10422.43
696.0490, 10415.00
697.2030, 10427.00
698.3570, 10424.12
699.5110, 10500.59
700.6640, 10440.00
701.8170, 10415.00
702.9700, 10458.00
704.1230, 10392.00
705.2760, 10446.00
706.4290, 10392.00
707.5810, 10510.00
708.7330, 10492.00
709.8850, 10625.00
711.0370, 10442.00
712.1890, 10597.00
713.3400, 10673.00
714.4920, 10658.00
715.6430, 10891.00
716.7940, 10665.00
717.9450, 10721.00
719.0960, 10721.00
720.2460, 10915.00
721.3960, 10783.00
722.5470, 10912.00
723.6970, 10926.00
724.8460, 11012.00
725.9960, 10995.00
727.1460, 10968.00
728.2950, 11021.00
729.4440, 10867.00
730.5930, 10817.00
731.7420, 10788.00
732.8910, 10788.00
734.0390, 10883.00
735.1870, 10766.00
736.3360, 10894.00
737.4840, 10841.00
738.6310, 10912.00
739.7790, 10806.00
740.9260, 10896.00
742.0740, 10641.00
743.2210, 10831.00
744.3680, 10891.00
745.5150, 10852.00
746.6610, 10668.00
747.8080, 10740.00
748.9540, 10862.00
750.1000, 10960.00
751.2460, 10863.00
752.3920, 10840.00
753.5380, 10857.00
754.6830, 10879.00
755.8280, 10927.00
756.9730, 10898.00
758.1180, 10875.00
759.2630, 10823.00
760.4080, 10958.00
761.5520, 10908.00
762.6960, 10945.00
763.8410, 10889.00
764.9840, 10981.00
766.1280, 10893.00
767.2720, 10939.00
768.4150, 11033.00
769.5590, 10984.00
770.7020, 11078.00
771.8450, 10962.00
772.9870, 10998.00
774.1300, 11039.00
775.2720, 11046.00
776.4150, 11063.00
777.5570, 11127.00
778.6990, 11019.00
779.8400, 11001.00
780.9820, 11057.00
782.1230, 11187.00
783.2650, 11374.00
784.4060, 11121.00
785.5470, 11045.00
786.6870, 11238.00
787.8280, 11238.00
788.9680, 11171.00
790.1090, 11194.00
791.2490, 11086.00
792.3890, 11405.00
793.5280, 11302.00
794.6680, 11415.00
795.8070, 11184.00
796.9470, 11381.00
798.0860, 11326.00
799.2250, 11200.00
800.3630, 11427.00
801.5020, 11457.00
802.6410, 11387.00
803.7790, 11320.00
804.9170, 11248.00
806.0550, 11439.00
807.1930, 11465.00
808.3300, 11489.00
809.4680, 11473.00
810.6050, 11499.00
811.7420, 11502.00
812.8790, 11512.21
814.0160, 11548.58
815.1520, 11550.00
816.2890, 11586.00
817.4250, 11629.00
818.5610, 11576.00
819.6970, 11648.00
820.8330, 11802.00
821.9680, 11805.00
823.1040, 11788.00
824.2390, 11903.00
825.3740, 11824.00
826.5090, 11898.00
827.6440, 11863.00
828.7790, 11893.00
829.9130, 11976.00
831.0470, 11989.00
832.1810, 12046.96
833.3150, 12156.00
834.4490, 12111.00
835.5830, 12279.00
836.7160, 12259.00
837.8500, 12292.00
838.9830, 12359.00
840.1160, 12445.00
841.2480, 12484.71
842.3810, 12503.00
843.5140, 12612.00
844.6460, 12687.00
845.7780, 12791.00
846.9100, 12860.00
848.0420, 12995.00
849.1740, 12980.00
850.3050, 13116.00
851.4360, 13413.00
852.5680, 13483.00
853.6990, 13710.00
854.8290, 13593.00
855.9600, 13774.00
857.0910, 13745.00
858.2210, 13676.00
859.3510, 13719.00
860.4810, 13792.00
861.6110, 13765.00
862.7410, 13672.00
863.8700, 13531.00
865.0000, 13593.00
866.1290, 13525.00
867.2580, 13356.00
868.3870, 13447.00
869.5150, 13286.00
870.6440, 13258.00
871.7720, 13176.00
872.9000, 13009.00
874.0290, 13132.00
875.1560, 12996.00
876.2840, 12863.00
877.4120, 12919.00
878.5390, 12948.00
879.6660, 12811.00
880.7930, 12724.00
881.9200, 12915.00
883.0470, 12972.00
884.1740, 12949.00
885.3000, 12860.00
886.4260, 12728.00
887.5530, 12859.00
888.6780, 13036.00
889.8040, 12916.00
890.9300, 12932.00
892.0550, 12951.00
893.1810, 12917.00
894.3060, 13085.00
895.4310, 13114.00
896.5560, 12903.00
897.6800, 13042.00
898.8050, 13063.00
899.9290, 12889.00
901.0530, 12747.00
902.1770, 12981.00
903.3010, 12945.00
904.4250, 12760.00
905.5480, 12856.00
906.6720, 12748.00
907.7950, 12783.00
908.9180, 12786.00
910.0410, 12701.00
911.1630, 12863.00
912.2860, 12750.00
913.4080, 12801.00
914.5300, 12897.00
915.6530, 12644.00
916.7740, 12722.00
917.8960, 12754.00
919.0180, 12703.00
920.1390, 12770.00
921.2600, 12656.00
922.3820, 12820.00
923.5020, 12919.00
924.6230, 12932.00
925.7440, 12786.00
926.8640, 12866.00
927.9850, 12777.00
929.1050, 12841.00
930.2250, 12955.00
931.3450, 13008.00
932.4640, 12889.00
933.5840, 12918.00
934.7030, 12727.00
935.8220, 12972.00
936.9410, 12842.00
938.0600, 13138.00
939.1790, 12836.00
940.2970, 12891.00
941.4160, 13048.00
942.5340, 12907.00
943.6520, 13054.00
944.7700, 13060.00
945.8870, 13042.00
947.0050, 13143.00
948.1220, 12992.00
949.2400, 12975.00
950.3570, 13104.00
951.4740, 13098.00
952.5900, 13145.00
953.7070, 13164.58
954.8240, 13079.00
955.9400, 13166.00
957.0560, 13131.00
958.1720, 13143.00
959.2880, 13032.00
960.4030, 13169.00
961.5190, 13368.00
962.6340, 13351.00
963.7490, 13323.00
964.8640, 13213.00
965.9790, 13274.00
967.0940, 13358.00
968.2080, 13365.00
969.3230, 13376.00
970.4370, 13319.00
971.5510, 13289.00
972.6650, 13377.00
973.7790, 13306.00
974.8920, 13479.00
976.0060, 13551.00
977.1190, 13590.00
978.2320, 13566.00
979.3450, 13490.00
980.4580, 13422.00
981.5710, 13443.85
982.6830, 13443.11
983.7950, 13529.00
984.9080, 13551.00
986.0200, 13691.00
987.1310, 13797.00
988.2430, 13780.00
989.3550, 13751.00
990.4660, 13838.00
991.5770, 13706.00
992.6880, 13865.00
993.7990, 13786.00
994.9100, 13958.00
996.0200, 14125.00
997.1310, 14002.00
998.2410, 14220.00
999.3510, 14206.00
1000.461, 14374.00
1001.571, 14502.00
1002.681, 14857.00
1003.790, 14852.00
1004.899, 14951.00
1006.009, 14977.00
1007.118, 15025.00
1008.226, 15195.00
1009.335, 15236.99
1010.444, 15336.23
1011.552, 15424.00
1012.660, 15475.00
1013.768, 15485.81
1014.876, 15573.00
1015.984, 15447.00
1017.092, 15401.00
1018.199, 15366.00
1019.306, 15187.00
1020.413, 14987.00
1021.520, 15006.00
1022.627, 14968.00
1023.734, 14893.00
1024.840, 14883.00
1025.947, 14755.00
1027.053, 14848.00
1028.159, 14671.00
1029.265, 14760.00
1030.370, 14977.00
1031.476, 14886.00
1032.581, 14753.00
1033.687, 14820.00
1034.792, 14740.00
1035.897, 14743.05
1037.002, 14826.00
1038.106, 14745.00
1039.211, 14774.00
1040.315, 14750.00
1041.419, 14828.00
1042.523, 14937.00
1043.627, 14978.00
1044.731, 15049.00
1045.834, 15009.00
1046.938, 15204.00
1048.041, 15291.00
1049.144, 15386.00
1050.247, 15571.00
1051.349, 15838.00
1052.452, 15910.00
1053.555, 16066.00
1054.657, 16551.00
1055.759, 16787.00
1056.861, 17007.00
1057.963, 17278.00
1059.064, 17455.00
1060.166, 17595.00
1061.267, 17622.00
1062.368, 17366.00
1063.470, 17345.00
1064.570, 17249.00
1065.671, 16906.00
1066.772, 16725.00
1067.872, 16635.00
1068.972, 16334.00
1070.073, 16468.00
1071.173, 16237.00
1072.272, 16198.00
1073.372, 16189.00
1074.472, 16106.00
1075.571, 16189.00
1076.670, 16206.00
1077.769, 16204.00
1078.868, 16058.00
1079.967, 16179.00
1081.065, 16236.00
1082.164, 16064.00
1083.262, 16374.00
1084.360, 16394.00
1085.458, 16375.00
1086.556, 16608.00
1087.654, 16706.00
1088.751, 16752.00
1089.848, 16962.00
1090.946, 17073.00
1092.043, 17329.00
1093.139, 17629.00
1094.236, 17842.00
1095.333, 18242.00
1096.429, 18650.00
1097.525, 18974.00
1098.622, 19582.00
1099.718, 19937.00
1100.813, 20813.00
1101.909, 21522.00
1103.005, 22285.00
1104.100, 23007.00
1105.195, 23573.00
1106.290, 23909.00
1107.385, 24231.00
1108.480, 24461.00
1109.574, 24210.00
1110.669, 23888.00
1111.763, 23120.00
1112.857, 22423.00
1113.951, 21816.00
1115.045, 20972.00
1116.139, 20279.00
1117.232, 19579.00
1118.326, 18949.00
1119.419, 18551.00
1120.512, 18165.00
1121.605, 17898.00
1122.697, 17565.00
1123.790, 17413.00
1124.883, 17193.99
1125.975, 17105.00
1127.067, 16977.00
1128.159, 16825.00
1129.251, 16757.15
1130.342, 16577.00
1131.434, 16602.00
1132.525, 16569.00
1133.617, 16515.00
1134.708, 16640.00
1135.799, 16435.00
1136.889, 16317.00
1137.980, 16121.00
1139.071, 16120.37
1140.161, 16271.00
1141.251, 16126.00
1142.341, 16089.00
1143.431, 16038.00
1144.521, 16051.00
1145.610, 16014.00
1146.700, 16045.00
1147.789, 16076.00
1148.878, 16125.00
1149.967, 16092.00
1151.056, 16086.00
1152.144, 16236.00
1153.233, 16082.00
1154.321, 16084.00
1155.409, 16280.00
1156.498, 16185.00
1157.585, 16349.00
1158.673, 16420.00
1159.761, 16280.00
1160.848, 16425.00
1161.936, 16412.00
1163.023, 16333.00
1164.110, 16347.00
1165.197, 16420.00
1166.283, 16439.00
1167.370, 16332.00
1168.456, 16334.00
1169.542, 16295.00
1170.629, 16259.00
1171.714, 16293.00
1172.800, 16227.00
1173.886, 16166.00
1174.971, 16290.00
1176.057, 16109.00
1177.142, 16250.00
1178.227, 16252.00
1179.312, 16111.00
1180.397, 16230.00
1181.481, 16275.00
1182.566, 16290.00
1183.650, 16262.00
1184.734, 16080.00
1185.818, 16372.00
1186.902, 16164.00
1187.986, 16278.00
1189.069, 16389.00
1190.153, 16420.00
1191.236, 16271.00
1192.319, 16449.00
1193.402, 16306.00
1194.485, 16410.00
1195.567, 16305.00
1196.650, 16453.00
1197.732, 16430.00
1198.814, 16260.00
1199.896, 16405.00
1200.978, 16261.00
1202.060, 16401.00
1203.142, 16534.00
1204.223, 16455.00
1205.304, 16514.00
1206.386, 16603.00
1207.467, 16541.93
1208.547, 16459.00
1209.628, 16513.00
1210.709, 16451.00
1211.789, 16453.00
1212.869, 16453.00
1213.950, 16541.00
1215.030, 16521.03
1216.109, 16671.00
1217.189, 16547.00
1218.269, 16588.00
1219.348, 16619.00
1220.427, 16713.00
1221.506, 16837.00
1222.585, 16712.00
1223.664, 16806.00
1224.743, 16550.00
1225.821, 16756.00
1226.899, 16883.00
1227.978, 16627.00
1229.056, 16864.00
1230.134, 17070.00
1231.211, 16841.00
1232.289, 16776.00
1233.366, 16751.00
1234.444, 16734.03
1235.521, 16770.58
1236.598, 16891.00
1237.675, 16870.00
1238.751, 17027.00
1239.828, 17038.00
1240.904, 17050.00
1241.981, 16971.00
1243.057, 16863.00
1244.133, 16910.00
1245.209, 16863.75
1246.284, 16903.78
1247.360, 16879.00
1248.435, 17023.00
1249.510, 17035.00
1250.585, 17105.00
1251.660, 16979.00
1252.735, 17206.00
1253.810, 17248.00
1254.884, 17007.00
1255.959, 17171.00
1257.033, 17314.00
1258.107, 17232.00
1259.181, 17383.00
1260.255, 17358.42
1261.328, 17290.00
1262.402, 17351.00
1263.475, 17292.00
1264.548, 17294.00
1265.621, 17341.00
1266.694, 17283.00
1267.767, 17308.00
1268.840, 17255.00
1269.912, 17367.00
1270.984, 17336.00
1272.056, 17521.00
1273.129, 17564.00
1274.200, 17413.00
1275.272, 17534.00
1276.344, 17316.00
1277.415, 17646.00
1278.486, 17490.00
1279.558, 17472.00
1280.629, 17634.00
1281.699, 17639.00
1282.770, 17738.00
1283.841, 17584.00
1284.911, 17755.00
1285.981, 17628.00
1287.051, 17735.00
1288.121, 17944.00
1289.191, 17681.00
1290.261, 17737.00
1291.330, 18067.00
1292.400, 17707.00
1293.469, 17836.00
1294.538, 17730.00
1295.607, 17784.00
1296.676, 17944.00
1297.745, 18004.00
1298.813, 17925.00
1299.881, 17939.00
1300.950, 17992.00
1302.018, 18071.00
1303.086, 18078.00
1304.154, 18009.00
1305.221, 18157.00
1306.289, 18055.00
1307.356, 17938.00
1308.423, 18093.00
1309.490, 18046.00
1310.557, 18153.00
1311.624, 18150.00
1312.691, 18130.00
1313.757, 18337.00
1314.823, 18254.00
1315.890, 18144.00
1316.956, 18300.00
1318.022, 18201.00
1319.087, 18206.00
1320.153, 18206.00
1321.219, 18343.00
1322.284, 18287.00
1323.349, 18380.00
1324.414, 18393.00
1325.479, 18342.00
1326.544, 18173.00
1327.608, 18331.00
1328.673, 18269.00
1329.737, 18520.00
1330.801, 18599.00
1331.865, 18434.00
1332.929, 18429.00
1333.993, 18473.00
1335.057, 18375.00
1336.120, 18586.00
1337.183, 18547.00
1338.247, 18685.00
1339.310, 18550.00
1340.373, 18615.00
1341.435, 18655.72
1342.498, 18442.00
1343.560, 18704.00
1344.623, 18707.00
1345.685, 18634.00
1346.747, 18598.00
1347.809, 18663.00
1348.871, 18714.00
1349.932, 18713.00
1350.994, 18729.00
1352.055, 18668.00
1353.116, 18595.00
1354.177, 18680.00
1355.238, 18744.00
1356.299, 18885.00
1357.359, 18901.00
1358.420, 18832.00
1359.480, 18957.00
1360.540, 18817.00
1361.600, 18833.00
1362.660, 18856.00
