##NAMES=Augelite
##RRUFFID=R050060
##IDEAL CHEMISTRY=Al_2_PO_4_(OH)_3_
##LOCALITY=Machacamarca, Potosi Department, Bolivia
##OWNER=RRUFF
##SOURCE=Rock Currier
##DESCRIPTION=Colorless prismatic crystals
##STATUS=The identification of this mineral has been confirmed by X-ray diffraction and chemical analysis
##URL=rruff.info/R050060
##MEASURED CHEMISTRY=Al_2.00_(P_1.00_O_4_)(OH)_3_; OH estimated by difference
##PIN_ID=L00872
##ORIENTATION=Laser parallel to -b* (0 -1 0). Fiducial mark perpendicular to laser is parallel to -c [0 0 -1]
90.31400, 1041.000
91.56100, 1213.000
92.80800, 1313.000
94.05500, 1475.000
95.30200, 1599.000
96.54800, 1711.000
97.79400, 1916.000
99.04000, 2048.000
100.2860, 2243.000
101.5320, 2418.000
102.7770, 2556.000
104.0230, 2834.000
105.2680, 3105.000
106.5130, 3447.000
107.7570, 3858.000
109.0020, 4176.000
110.2460, 4258.000
111.4900, 4425.000
112.7340, 4792.000
113.9780, 5330.000
115.2210, 5901.000
116.4650, 6389.000
117.7080, 7070.000
118.9500, 7724.000
120.1930, 8488.000
121.4360, 9373.000
122.6780, 10269.00
123.9200, 11099.00
125.1620, 11849.00
126.4040, 12701.00
127.6450, 13198.00
128.8860, 13297.00
130.1280, 13006.00
131.3680, 12232.00
132.6090, 11305.00
133.8500, 10030.00
135.0900, 8802.000
136.3300, 7991.000
137.5700, 7258.000
138.8100, 6902.000
140.0490, 7009.000
141.2890, 7297.000
142.5280, 7820.000
143.7670, 8363.000
145.0050, 9300.000
146.2440, 10112.00
147.4820, 11596.00
148.7200, 13114.00
149.9580, 14698.00
151.1960, 16725.00
152.4340, 19037.00
153.6710, 21391.00
154.9080, 24180.00
156.1450, 27341.00
157.3820, 30476.00
158.6190, 33503.00
159.8550, 36736.00
161.0910, 39012.00
162.3270, 40484.00
163.5630, 41032.00
164.7980, 39446.00
166.0340, 37621.00
167.2690, 34310.00
168.5040, 30676.00
169.7390, 27154.00
170.9730, 23769.00
172.2080, 20787.00
173.4420, 18202.46
174.6760, 15822.00
175.9100, 14025.00
177.1440, 12513.00
178.3770, 11345.00
179.6100, 10186.00
180.8430, 9405.000
182.0760, 8625.000
183.3090, 7956.000
184.5410, 7359.000
185.7740, 7014.000
187.0060, 6665.000
188.2380, 6248.000
189.4690, 5993.000
190.7010, 5806.000
191.9320, 5571.000
193.1630, 5376.000
194.3940, 5170.000
195.6250, 4980.000
196.8550, 4873.000
198.0860, 4725.000
199.3160, 4658.000
200.5460, 4534.000
201.7750, 4512.000
203.0050, 4373.000
204.2340, 4259.000
205.4630, 4218.000
206.6920, 4176.000
207.9210, 4209.000
209.1500, 4138.000
210.3780, 4185.000
211.6060, 4190.000
212.8340, 4261.000
214.0620, 4384.000
215.2900, 4606.000
216.5170, 4735.000
217.7440, 5009.000
218.9710, 5348.000
220.1980, 5659.000
221.4250, 6213.000
222.6510, 6944.000
223.8770, 7751.000
225.1040, 8434.000
226.3290, 8371.000
227.5550, 8011.000
228.7810, 7173.000
230.0060, 6134.000
231.2310, 5208.000
232.4560, 4619.000
233.6810, 4224.000
234.9050, 4005.000
236.1290, 3949.000
237.3540, 3933.000
238.5770, 4004.000
239.8010, 4207.000
241.0250, 4391.000
242.2480, 4703.000
243.4710, 5160.000
244.6940, 5523.000
245.9170, 5967.000
247.1400, 6610.000
248.3620, 7390.000
249.5840, 8215.000
250.8060, 8768.000
252.0280, 8980.000
253.2500, 8744.000
254.4710, 8044.000
255.6920, 7059.000
256.9140, 6184.000
258.1340, 5413.000
259.3550, 4857.000
260.5760, 4458.000
261.7960, 4027.000
263.0160, 3809.000
264.2360, 3594.000
265.4560, 3441.000
266.6750, 3405.000
267.8940, 3398.000
269.1140, 3284.000
270.3330, 3255.000
271.5510, 3244.000
272.7700, 3133.000
273.9880, 3104.000
275.2070, 3163.000
276.4250, 3091.000
277.6420, 3104.000
278.8600, 3112.000
280.0770, 3120.000
281.2950, 3119.387
282.5120, 3085.000
283.7290, 3097.000
284.9450, 3102.000
286.1620, 3058.000
287.3780, 3059.000
288.5940, 3138.000
289.8100, 3136.000
291.0260, 3073.000
292.2410, 3151.000
293.4570, 3163.000
294.6720, 3155.000
295.8870, 3211.000
297.1010, 3209.000
298.3160, 3158.000
299.5300, 3214.000
300.7450, 3134.000
301.9590, 3063.000
303.1730, 3090.000
304.3860, 3086.000
305.6000, 3011.000
306.8130, 3009.000
308.0260, 3045.000
309.2390, 2980.000
310.4510, 3028.000
311.6640, 3023.000
312.8760, 2981.000
314.0880, 3043.000
315.3000, 3075.000
316.5120, 3012.000
317.7240, 3102.000
318.9350, 3095.000
320.1460, 3116.000
321.3570, 3019.000
322.5680, 3056.000
323.7790, 3093.000
324.9890, 3047.000
326.1990, 3131.000
327.4090, 3141.000
328.6190, 3099.000
329.8290, 3178.000
331.0380, 3151.000
332.2480, 3167.000
333.4570, 3169.000
334.6660, 3184.000
335.8740, 3187.000
337.0830, 3176.000
338.2910, 3232.000
339.5000, 3318.000
340.7080, 3371.000
341.9150, 3376.000
343.1230, 3436.000
344.3300, 3476.000
345.5380, 3586.000
346.7450, 3682.000
347.9520, 3667.000
349.1580, 3780.000
350.3650, 3800.000
351.5710, 3828.000
352.7770, 3857.000
353.9830, 3847.000
355.1890, 3926.000
356.3940, 3967.000
357.6000, 4072.343
358.8050, 4108.000
360.0100, 4345.000
361.2150, 4494.000
362.4190, 4684.000
363.6240, 5049.000
364.8280, 5454.000
366.0320, 5773.000
367.2360, 6130.000
368.4400, 6260.000
369.6430, 6359.000
370.8460, 6172.000
372.0500, 5649.000
373.2530, 5212.000
374.4550, 4897.000
375.6580, 4488.000
376.8600, 4251.000
378.0620, 4130.000
379.2650, 3953.000
380.4660, 3839.000
381.6680, 3778.000
382.8690, 3740.000
384.0710, 3690.907
385.2720, 3677.646
386.4730, 3671.000
387.6730, 3684.000
388.8740, 3726.000
390.0740, 3775.000
391.2740, 3707.000
392.4740, 3863.000
393.6740, 3795.000
394.8740, 3979.000
396.0730, 4094.000
397.2730, 4241.000
398.4720, 4434.000
399.6700, 4734.000
400.8690, 4963.000
402.0680, 5381.000
403.2660, 5911.000
404.4640, 6402.000
405.6620, 6820.000
406.8600, 7406.000
408.0570, 7736.000
409.2550, 7921.000
410.4520, 7894.000
411.6490, 7655.000
412.8460, 7328.000
414.0430, 7146.000
415.2390, 6823.000
416.4350, 6458.000
417.6310, 6213.000
418.8270, 6011.730
420.0230, 5860.000
421.2190, 5750.000
422.4140, 5710.000
423.6090, 5670.963
424.8040, 5620.000
425.9990, 5595.000
427.1940, 5678.000
428.3880, 5584.000
429.5820, 5736.000
430.7760, 5827.000
431.9700, 5878.000
433.1640, 6042.000
434.3580, 6163.000
435.5510, 6306.000
436.7440, 6440.000
437.9370, 6664.000
439.1300, 6784.000
440.3230, 6964.000
441.5150, 7076.000
442.7070, 7018.000
443.8990, 7073.000
445.0910, 7014.000
446.2830, 7059.000
447.4750, 6814.000
448.6660, 6671.000
449.8570, 6595.000
451.0480, 6426.000
452.2390, 6105.000
453.4290, 6002.000
454.6200, 5780.000
455.8100, 5569.000
457.0000, 5417.000
458.1900, 5290.000
459.3800, 5135.000
460.5690, 5044.000
461.7590, 4980.000
462.9480, 4804.000
464.1370, 4700.000
465.3260, 4643.000
466.5140, 4589.000
467.7030, 4524.000
468.8910, 4503.000
470.0790, 4423.000
471.2670, 4470.000
472.4550, 4327.000
473.6420, 4376.000
474.8300, 4355.000
476.0170, 4396.000
477.2040, 4321.000
478.3900, 4288.000
479.5770, 4212.000
480.7640, 4263.000
481.9500, 4268.000
483.1360, 4264.000
484.3220, 4201.000
485.5080, 4237.000
486.6930, 4289.000
487.8780, 4196.000
489.0640, 4223.000
490.2490, 4247.000
491.4330, 4328.000
492.6180, 4297.000
493.8030, 4345.000
494.9870, 4353.000
496.1710, 4349.000
497.3550, 4347.000
498.5390, 4440.000
499.7220, 4465.000
500.9060, 4431.000
502.0890, 4465.000
503.2720, 4590.000
504.4550, 4672.000
505.6370, 4819.000
506.8200, 4770.000
508.0020, 4819.000
509.1840, 5017.000
510.3660, 5107.000
511.5480, 5257.000
512.7290, 5500.000
513.9110, 5557.000
515.0920, 5741.000
516.2730, 5973.000
517.4540, 6188.000
518.6350, 6403.000
519.8150, 6611.000
520.9960, 6889.130
522.1760, 7168.863
523.3560, 7458.000
524.5350, 7821.000
525.7150, 8116.000
526.8950, 8499.000
528.0740, 8554.000
529.2530, 8702.000
530.4320, 9014.000
531.6100, 9041.000
532.7890, 9326.000
533.9670, 9510.000
535.1460, 9629.000
536.3240, 9769.000
537.5010, 9920.000
538.6790, 10176.00
539.8570, 10496.00
541.0340, 10809.00
542.2110, 11091.00
543.3880, 11534.00
544.5650, 11930.00
545.7410, 12337.00
546.9180, 12984.00
548.0940, 13598.00
549.2700, 14003.00
550.4460, 14683.00
551.6210, 15314.00
552.7970, 16224.00
553.9720, 16763.00
555.1480, 17647.00
556.3230, 18320.00
557.4970, 19125.00
558.6720, 19663.00
559.8460, 20467.00
561.0210, 20995.00
562.1950, 21489.00
563.3690, 21883.00
564.5420, 21933.00
565.7160, 22066.00
566.8890, 21889.00
568.0630, 21845.00
569.2360, 21503.00
570.4090, 21155.00
571.5810, 20712.93
572.7540, 20270.00
573.9260, 19509.00
575.0980, 18664.00
576.2700, 17842.00
577.4420, 17283.00
578.6140, 16354.00
579.7850, 15685.00
580.9560, 14851.81
582.1270, 13930.00
583.2980, 13159.00
584.4690, 12214.00
585.6400, 11367.00
586.8100, 10759.00
587.9800, 9875.000
589.1500, 9177.000
590.3200, 8593.000
591.4900, 8163.000
592.6590, 7697.000
593.8290, 7302.000
594.9980, 6992.000
596.1670, 6693.000
597.3360, 6559.000
598.5040, 6304.000
599.6730, 6362.000
600.8410, 6258.000
602.0090, 6171.000
603.1770, 6210.000
604.3450, 6286.000
605.5130, 6156.000
606.6800, 6369.000
607.8470, 6398.000
609.0140, 6517.000
610.1810, 6616.000
611.3480, 6672.000
612.5140, 6605.000
613.6810, 6881.000
614.8470, 7226.000
616.0130, 7191.000
617.1790, 7437.000
618.3440, 7616.000
619.5100, 7828.000
620.6750, 8396.000
621.8400, 8945.000
623.0050, 9412.000
624.1700, 10215.00
625.3350, 11052.00
626.4990, 12222.00
627.6640, 13396.00
628.8280, 15009.00
629.9920, 16635.00
631.1550, 18468.00
632.3190, 20352.00
633.4820, 22127.00
634.6460, 23386.00
635.8090, 24096.00
636.9710, 23996.00
638.1340, 22583.00
639.2970, 20659.00
640.4590, 18135.00
641.6210, 16001.00
642.7830, 13704.00
643.9450, 11965.00
645.1070, 10467.00
646.2680, 9270.000
647.4300, 8386.000
648.5910, 7716.000
649.7520, 7147.000
650.9130, 6711.000
652.0730, 6405.000
653.2340, 6182.000
654.3940, 5802.000
655.5540, 5771.000
656.7140, 5642.000
657.8740, 5494.000
659.0330, 5374.000
660.1930, 5254.000
661.3520, 5079.000
662.5110, 5042.000
663.6700, 4933.000
664.8290, 4899.000
665.9870, 4830.000
667.1460, 4725.000
668.3040, 4746.000
669.4620, 4659.000
670.6200, 4598.000
671.7770, 4602.000
672.9350, 4587.000
674.0920, 4561.000
675.2500, 4536.000
676.4070, 4524.029
677.5630, 4514.000
678.7200, 4493.000
679.8770, 4458.000
681.0330, 4432.000
682.1890, 4380.000
683.3450, 4431.000
684.5010, 4402.000
685.6560, 4361.000
686.8120, 4269.000
687.9670, 4282.000
689.1220, 4245.000
690.2770, 4288.000
691.4320, 4243.000
692.5870, 4249.000
693.7410, 4220.000
694.8950, 4178.000
696.0490, 4141.000
697.2030, 4208.000
698.3570, 4259.000
699.5110, 4278.000
700.6640, 4201.000
701.8170, 4277.000
702.9700, 4230.000
704.1230, 4190.000
705.2760, 4284.000
706.4290, 4277.000
707.5810, 4283.000
708.7330, 4256.000
709.8850, 4296.000
711.0370, 4396.000
712.1890, 4461.000
713.3400, 4464.000
714.4920, 4540.000
715.6430, 4594.000
716.7940, 4512.000
717.9450, 4620.000
719.0960, 4590.000
720.2460, 4647.000
721.3960, 4676.000
722.5470, 4652.000
723.6970, 4677.000
724.8460, 4672.000
725.9960, 4591.000
727.1460, 4539.000
728.2950, 4479.000
729.4440, 4525.000
730.5930, 4442.000
731.7420, 4424.000
732.8910, 4436.000
734.0390, 4397.000
735.1870, 4339.000
736.3360, 4381.000
737.4840, 4400.000
738.6310, 4399.000
739.7790, 4322.000
740.9260, 4332.000
742.0740, 4342.000
743.2210, 4420.000
744.3680, 4276.000
745.5150, 4305.000
746.6610, 4458.000
747.8080, 4225.000
748.9540, 4283.000
750.1000, 4364.000
751.2460, 4207.000
752.3920, 4262.000
753.5380, 4227.000
754.6830, 4234.000
755.8280, 4178.000
756.9730, 4300.000
758.1180, 4222.000
759.2630, 4169.000
760.4080, 4255.000
761.5520, 4213.000
762.6960, 4233.000
763.8410, 4202.000
764.9840, 4232.000
766.1280, 4182.000
767.2720, 4165.000
768.4150, 4217.000
769.5590, 4187.774
770.7020, 4236.000
771.8450, 4218.000
772.9870, 4210.000
774.1300, 4264.000
775.2720, 4254.000
776.4150, 4252.000
777.5570, 4197.000
778.6990, 4209.655
779.8400, 4264.000
780.9820, 4232.000
782.1230, 4248.000
783.2650, 4319.000
784.4060, 4282.000
785.5470, 4226.000
786.6870, 4365.000
787.8280, 4269.000
788.9680, 4336.000
790.1090, 4328.000
791.2490, 4286.000
792.3890, 4251.000
793.5280, 4258.000
794.6680, 4294.000
795.8070, 4286.707
796.9470, 4390.000
798.0860, 4315.000
799.2250, 4345.000
800.3630, 4354.000
801.5020, 4244.000
802.6410, 4308.000
803.7790, 4438.000
804.9170, 4352.000
806.0550, 4366.000
807.1930, 4491.000
808.3300, 4372.000
809.4680, 4390.000
810.6050, 4432.000
811.7420, 4478.000
812.8790, 4491.118
814.0160, 4429.000
815.1520, 4513.000
816.2890, 4453.000
817.4250, 4423.000
818.5610, 4526.000
819.6970, 4439.000
820.8330, 4574.000
821.9680, 4540.000
823.1040, 4671.000
824.2390, 4614.000
825.3740, 4636.000
826.5090, 4646.000
827.6440, 4660.017
828.7790, 4717.000
829.9130, 4717.000
831.0470, 4787.000
832.1810, 4791.000
833.3150, 4960.000
834.4490, 5041.000
835.5830, 4988.000
836.7160, 5075.000
837.8500, 5062.000
838.9830, 5190.000
840.1160, 5262.000
841.2480, 5372.000
842.3810, 5523.000
843.5140, 5528.000
844.6460, 5677.000
845.7780, 5689.000
846.9100, 5873.000
848.0420, 5940.000
849.1740, 6099.000
850.3050, 6245.000
851.4360, 6384.000
852.5680, 6465.000
853.6990, 6588.000
854.8290, 6701.527
855.9600, 6783.000
857.0910, 6910.000
858.2210, 6976.000
859.3510, 7035.000
860.4810, 7005.000
861.6110, 6973.000
862.7410, 6927.000
863.8700, 6838.797
865.0000, 6754.879
866.1290, 6611.000
867.2580, 6527.000
868.3870, 6360.000
869.5150, 6220.000
870.6440, 6176.000
871.7720, 5968.000
872.9000, 5967.000
874.0290, 5783.000
875.1560, 5664.000
876.2840, 5585.000
877.4120, 5538.000
878.5390, 5525.000
879.6660, 5408.000
880.7930, 5252.000
881.9200, 5298.000
883.0470, 5261.000
884.1740, 5183.000
885.3000, 5332.000
886.4260, 5247.000
887.5530, 5180.000
888.6780, 5136.000
889.8040, 5123.000
890.9300, 5156.000
892.0550, 5167.000
893.1810, 5135.000
894.3060, 5131.000
895.4310, 5109.000
896.5560, 5088.944
897.6800, 5081.677
898.8050, 5034.000
899.9290, 5050.000
901.0530, 4991.000
902.1770, 4949.000
903.3010, 4838.000
904.4250, 4928.000
905.5480, 4757.000
906.6720, 4706.000
907.7950, 4834.000
908.9180, 4798.000
910.0410, 4735.000
911.1630, 4769.000
912.2860, 4788.000
913.4080, 4750.000
914.5300, 4802.000
915.6530, 4772.000
916.7740, 4687.000
917.8960, 4719.000
919.0180, 4751.000
920.1390, 4787.000
921.2600, 4694.000
922.3820, 4798.000
923.5020, 4660.000
924.6230, 4696.000
925.7440, 4754.000
926.8640, 4706.000
927.9850, 4711.000
929.1050, 4779.000
930.2250, 4725.000
931.3450, 4741.000
932.4640, 4742.000
933.5840, 4823.000
934.7030, 4692.000
935.8220, 4799.000
936.9410, 4791.000
938.0600, 4827.000
939.1790, 4756.000
940.2970, 4805.000
941.4160, 4767.000
942.5340, 4845.000
943.6520, 4767.000
944.7700, 4820.000
945.8870, 4867.000
947.0050, 4763.000
948.1220, 4812.000
949.2400, 4853.000
950.3570, 4981.000
951.4740, 4857.000
952.5900, 4888.000
953.7070, 4944.000
954.8240, 4963.000
955.9400, 4910.000
957.0560, 4831.000
958.1720, 4870.000
959.2880, 4873.000
960.4030, 4843.000
961.5190, 4817.000
962.6340, 4967.000
963.7490, 4950.000
964.8640, 4881.000
965.9790, 4958.000
967.0940, 4924.000
968.2080, 5043.000
969.3230, 5025.000
970.4370, 4930.000
971.5510, 4959.000
972.6650, 4950.000
973.7790, 4995.000
974.8920, 4960.000
976.0060, 5071.000
977.1190, 4975.000
978.2320, 4970.000
979.3450, 4977.000
980.4580, 5046.000
981.5710, 5060.000
982.6830, 5045.000
983.7950, 5075.194
984.9080, 5082.764
986.0200, 5064.000
987.1310, 5105.000
988.2430, 5065.000
989.3550, 5044.000
990.4660, 5059.000
991.5770, 5120.000
992.6880, 5121.000
993.7990, 5157.000
994.9100, 5150.000
996.0200, 5199.000
997.1310, 5242.000
998.2410, 5316.000
999.3510, 5285.000
1000.461, 5302.000
1001.571, 5378.000
1002.681, 5396.000
1003.790, 5448.000
1004.899, 5484.000
1006.009, 5479.000
1007.118, 5522.000
1008.226, 5582.000
1009.335, 5635.000
1010.444, 5774.000
1011.552, 5771.000
1012.660, 5859.000
1013.768, 5884.000
1014.876, 5864.000
1015.984, 5868.000
1017.092, 5850.260
1018.199, 5841.561
1019.306, 5810.000
1020.413, 5803.000
1021.520, 5799.000
1022.627, 5742.000
1023.734, 5676.000
1024.840, 5657.000
1025.947, 5623.000
1027.053, 5550.000
1028.159, 5520.000
1029.265, 5571.000
1030.370, 5622.000
1031.476, 5650.000
1032.581, 5512.000
1033.687, 5577.000
1034.792, 5574.000
1035.897, 5647.000
1037.002, 5677.000
1038.106, 5661.000
1039.211, 5610.000
1040.315, 5691.000
1041.419, 5767.000
1042.523, 5845.000
1043.627, 5870.000
1044.731, 5859.000
1045.834, 6031.000
1046.938, 6110.000
1048.041, 6244.000
1049.144, 6409.160
1050.247, 6397.000
1051.349, 6729.000
1052.452, 6902.000
1053.555, 7039.000
1054.657, 7480.000
1055.759, 7721.000
1056.861, 8000.000
1057.963, 8159.000
1059.064, 8567.000
1060.166, 8648.000
1061.267, 8600.000
1062.368, 8507.000
1063.470, 8446.000
1064.570, 8166.000
1065.671, 8041.000
1066.772, 7849.000
1067.872, 7671.000
1068.972, 7532.000
1070.073, 7421.508
1071.173, 7343.000
1072.272, 7278.000
1073.372, 7210.000
1074.472, 7187.000
1075.571, 7229.000
1076.670, 7202.000
1077.769, 7197.000
1078.868, 7278.000
1079.967, 7314.000
1081.065, 7387.000
1082.164, 7433.000
1083.262, 7722.000
1084.360, 7786.000
1085.458, 7987.000
1086.556, 8043.000
1087.654, 8302.000
1088.751, 8533.000
1089.848, 8739.000
1090.946, 9203.000
1092.043, 9489.000
1093.139, 9839.000
1094.236, 10367.00
1095.333, 11009.00
1096.429, 11640.00
1097.525, 12527.00
1098.622, 13349.00
1099.718, 14360.00
1100.813, 15596.00
1101.909, 16941.00
1103.005, 18206.00
1104.100, 19826.00
1105.195, 21378.00
1106.290, 22602.00
1107.385, 23842.00
1108.480, 24255.00
1109.574, 24747.00
1110.669, 24380.00
1111.763, 23431.00
1112.857, 21999.00
1113.951, 20584.00
1115.045, 18999.00
1116.139, 17240.00
1117.232, 15982.00
1118.326, 14477.00
1119.419, 13289.00
1120.512, 12395.00
1121.605, 11264.00
1122.697, 10795.00
1123.790, 10200.00
1124.883, 9559.000
1125.975, 9151.000
1127.067, 8694.000
1128.159, 8490.000
1129.251, 8107.000
1130.342, 7879.000
1131.434, 7727.000
1132.525, 7561.000
1133.617, 7424.000
1134.708, 7190.000
1135.799, 7047.000
1136.889, 6929.000
1137.980, 6805.000
1139.071, 6728.000
1140.161, 6620.793
1141.251, 6576.000
1142.341, 6477.000
1143.431, 6455.000
1144.521, 6465.000
1145.610, 6314.000
1146.700, 6346.000
1147.789, 6328.000
1148.878, 6245.000
1149.967, 6296.000
1151.056, 6280.000
1152.144, 6198.000
1153.233, 6351.000
1154.321, 6371.000
1155.409, 6349.000
1156.498, 6499.000
1157.585, 6551.000
1158.673, 6659.000
1159.761, 6534.000
1160.848, 6515.000
1161.936, 6598.000
1163.023, 6621.000
1164.110, 6557.000
1165.197, 6501.000
1166.283, 6513.000
1167.370, 6515.000
1168.456, 6410.000
1169.542, 6361.000
1170.629, 6307.000
1171.714, 6283.000
1172.800, 6219.243
1173.886, 6197.000
1174.971, 6138.000
1176.057, 6043.000
1177.142, 6063.000
1178.227, 5987.000
1179.312, 6038.000
1180.397, 5987.000
1181.481, 5921.000
1182.566, 5898.000
1183.650, 5787.000
1184.734, 5906.000
1185.818, 5797.000
1186.902, 5803.000
1187.986, 5847.000
1189.069, 5745.000
1190.153, 5711.000
1191.236, 5680.000
1192.319, 5668.000
1193.402, 5639.399
1194.485, 5745.000
1195.567, 5629.000
1196.650, 5605.000
1197.732, 5664.000
1198.814, 5593.000
1199.896, 5599.000
1200.978, 5656.000
1202.060, 5643.000
1203.142, 5647.000
1204.223, 5574.000
1205.304, 5542.000
1206.386, 5572.000
1207.467, 5446.000
1208.547, 5483.160
1209.628, 5594.000
1210.709, 5484.000
1211.789, 5498.000
1212.869, 5497.000
1213.950, 5565.000
1215.030, 5532.000
1216.109, 5502.000
1217.189, 5565.000
1218.269, 5548.000
1219.348, 5495.000
1220.427, 5453.000
1221.506, 5536.000
1222.585, 5580.000
1223.664, 5527.000
1224.743, 5548.000
1225.821, 5521.000
1226.899, 5488.000
1227.978, 5526.000
1229.056, 5506.000
1230.134, 5522.000
1231.211, 5543.000
1232.289, 5515.593
1233.366, 5499.000
1234.444, 5487.000
1235.521, 5491.000
1236.598, 5499.000
1237.675, 5413.000
1238.751, 5545.000
1239.828, 5483.000
1240.904, 5472.000
1241.981, 5528.000
1243.057, 5487.000
1244.133, 5520.000
1245.209, 5513.000
1246.284, 5450.000
1247.360, 5573.000
1248.435, 5520.000
1249.510, 5500.000
1250.585, 5501.000
1251.660, 5521.000
1252.735, 5518.050
1253.810, 5532.000
1254.884, 5575.000
1255.959, 5537.000
1257.033, 5638.000
1258.107, 5519.000
1259.181, 5523.000
1260.255, 5617.000
1261.328, 5534.000
1262.402, 5492.000
1263.475, 5492.000
1264.548, 5470.988
1265.621, 5507.000
1266.694, 5486.000
1267.767, 5495.000
1268.840, 5488.000
1269.912, 5479.000
1270.984, 5506.000
1272.056, 5529.000
