##NAMES=Augelite
##RRUFFID=R050060
##IDEAL CHEMISTRY=Al_2_PO_4_(OH)_3_
##LOCALITY=Machacamarca, Potosi Department, Bolivia
##OWNER=RRUFF
##SOURCE=Rock Currier
##DESCRIPTION=Colorless prismatic crystals
##STATUS=The identification of this mineral has been confirmed by X-ray diffraction and chemical analysis
##URL=rruff.info/R050060
##MEASURED CHEMISTRY=Al_2.00_(P_1.00_O_4_)(OH)_3_; OH estimated by difference
##PIN_ID=L00872
##ORIENTATION=Laser parallel to -b* (0 -1 0). Fiducial mark perpendicular to laser is parallel to -c [0 0 -1]
113.9780, 4446.000
115.2210, 4882.000
116.4650, 5210.000
117.7080, 5723.000
118.9500, 6175.000
120.1930, 6657.000
121.4360, 7363.000
122.6780, 8041.000
123.9200, 8781.000
125.1620, 9305.000
126.4040, 9747.000
127.6450, 10100.00
128.8860, 10381.00
130.1280, 10185.00
131.3680, 9982.000
132.6090, 9400.000
133.8500, 8764.000
135.0900, 7937.000
136.3300, 7367.000
137.5700, 6965.000
138.8100, 6881.000
140.0490, 6824.000
141.2890, 7009.000
142.5280, 7378.000
143.7670, 7767.000
145.0050, 8440.000
146.2440, 9186.000
147.4820, 9964.000
148.7200, 11328.00
149.9580, 12342.00
151.1960, 14027.00
152.4340, 15625.00
153.6710, 17475.00
154.9080, 19543.00
156.1450, 21688.00
157.3820, 24176.00
158.6190, 26343.00
159.8550, 28512.00
161.0910, 30405.00
162.3270, 31725.00
163.5630, 31779.00
164.7980, 30709.00
166.0340, 29161.00
167.2690, 26613.00
168.5040, 23677.00
169.7390, 21139.00
170.9730, 18567.00
172.2080, 16320.00
173.4420, 14346.00
174.6760, 12763.00
175.9100, 11378.00
177.1440, 10218.00
178.3770, 9347.000
179.6100, 8466.000
180.8430, 8021.000
182.0760, 7369.000
183.3090, 6919.000
184.5410, 6540.000
185.7740, 6152.000
187.0060, 5899.000
188.2380, 5781.000
189.4690, 5465.000
190.7010, 5293.000
191.9320, 5191.000
193.1630, 5007.000
194.3940, 4784.000
195.6250, 4765.000
196.8550, 4670.000
198.0860, 4612.000
199.3160, 4600.000
200.5460, 4513.000
201.7750, 4467.000
203.0050, 4441.000
204.2340, 4479.000
205.4630, 4490.000
206.6920, 4580.000
207.9210, 4600.000
209.1500, 4721.000
210.3780, 4937.000
211.6060, 5155.000
212.8340, 5484.000
214.0620, 5808.000
215.2900, 6313.000
216.5170, 6876.000
217.7440, 7361.000
218.9710, 7940.000
220.1980, 8579.000
221.4250, 9208.000
222.6510, 9926.000
223.8770, 10581.00
225.1040, 10716.00
226.3290, 10799.00
227.5550, 10009.00
228.7810, 8896.000
230.0060, 7736.000
231.2310, 6611.000
232.4560, 5822.000
233.6810, 5347.000
234.9050, 4972.000
236.1290, 4775.000
237.3540, 4638.000
238.5770, 4702.000
239.8010, 4809.000
241.0250, 4966.152
242.2480, 5103.865
243.4710, 5496.000
244.6940, 5607.000
245.9170, 5916.000
247.1400, 6509.000
248.3620, 7099.000
249.5840, 7594.000
250.8060, 7959.000
252.0280, 8099.000
253.2500, 7802.000
254.4710, 7109.000
255.6920, 6390.000
256.9140, 5657.000
258.1340, 4987.000
259.3550, 4717.000
260.5760, 4363.000
261.7960, 4036.000
263.0160, 3804.000
264.2360, 3647.000
265.4560, 3549.000
266.6750, 3536.000
267.8940, 3482.000
269.1140, 3430.030
270.3330, 3422.000
271.5510, 3346.000
272.7700, 3369.000
273.9880, 3340.000
275.2070, 3374.000
276.4250, 3288.000
277.6420, 3251.000
278.8600, 3294.000
280.0770, 3240.000
281.2950, 3336.000
282.5120, 3298.000
283.7290, 3347.000
284.9450, 3302.000
286.1620, 3342.000
287.3780, 3360.000
288.5940, 3320.000
289.8100, 3290.000
291.0260, 3392.000
292.2410, 3496.000
293.4570, 3534.000
294.6720, 3634.000
295.8870, 3644.844
297.1010, 3648.378
298.3160, 3622.000
299.5300, 3596.000
300.7450, 3497.000
301.9590, 3442.000
303.1730, 3412.200
304.3860, 3383.684
305.6000, 3374.000
306.8130, 3396.000
308.0260, 3424.000
309.2390, 3464.000
310.4510, 3464.000
311.6640, 3503.564
312.8760, 3613.000
314.0880, 3587.000
315.3000, 3658.000
316.5120, 3759.000
317.7240, 3809.000
318.9350, 3983.000
320.1460, 4037.000
321.3570, 4221.000
322.5680, 4250.000
323.7790, 4295.000
324.9890, 4415.000
326.1990, 4545.000
327.4090, 4520.000
328.6190, 4611.000
329.8290, 4649.000
331.0380, 4620.000
332.2480, 4691.000
333.4570, 4643.000
334.6660, 4519.000
335.8740, 4522.000
337.0830, 4390.000
338.2910, 4368.000
339.5000, 4331.000
340.7080, 4289.000
341.9150, 4319.000
343.1230, 4371.000
344.3300, 4308.000
345.5380, 4393.000
346.7450, 4382.000
347.9520, 4435.000
349.1580, 4507.000
350.3650, 4518.000
351.5710, 4487.000
352.7770, 4479.000
353.9830, 4531.000
355.1890, 4566.000
356.3940, 4616.000
357.6000, 4703.000
358.8050, 4843.000
360.0100, 5106.000
361.2150, 5367.000
362.4190, 5613.000
363.6240, 5899.000
364.8280, 6355.000
366.0320, 6854.000
367.2360, 7106.000
368.4400, 7290.000
369.6430, 7204.000
370.8460, 6972.000
372.0500, 6384.000
373.2530, 5933.000
374.4550, 5346.000
375.6580, 4971.000
376.8600, 4668.000
378.0620, 4426.000
379.2650, 4271.000
380.4660, 4163.000
381.6680, 4085.000
382.8690, 4030.000
384.0710, 4035.000
385.2720, 4010.000
386.4730, 4005.302
387.6730, 4009.000
388.8740, 4025.000
390.0740, 4072.000
391.2740, 4115.000
392.4740, 4139.000
393.6740, 4199.000
394.8740, 4328.000
396.0730, 4471.500
397.2730, 4673.743
398.4720, 4909.000
399.6700, 5219.000
400.8690, 5564.000
402.0680, 5985.736
403.2660, 6610.000
404.4640, 7029.000
405.6620, 7671.000
406.8600, 8314.000
408.0570, 8732.000
409.2550, 9105.000
410.4520, 9319.000
411.6490, 9119.000
412.8460, 9200.000
414.0430, 8810.000
415.2390, 8866.000
416.4350, 8682.000
417.6310, 8786.000
418.8270, 8476.000
420.0230, 8581.000
421.2190, 8337.000
422.4140, 8426.000
423.6090, 8115.000
424.8040, 7934.000
425.9990, 7723.000
427.1940, 7507.000
428.3880, 7271.000
429.5820, 7181.000
430.7760, 7016.000
431.9700, 7088.000
433.1640, 7041.000
434.3580, 7010.000
435.5510, 7117.000
436.7440, 7187.000
437.9370, 7147.000
439.1300, 7293.000
440.3230, 7270.000
441.5150, 7465.000
442.7070, 7505.000
443.8990, 7530.000
445.0910, 7579.000
446.2830, 7574.000
447.4750, 7532.814
448.6660, 7497.000
449.8570, 7354.000
451.0480, 7227.000
452.2390, 7026.000
453.4290, 7040.000
454.6200, 6737.584
455.8100, 6763.403
457.0000, 6739.002
458.1900, 6667.080
459.3800, 6405.305
460.5690, 6388.761
461.7590, 6273.895
462.9480, 6155.074
464.1370, 6173.035
465.3260, 5938.949
466.5140, 5954.813
467.7030, 5870.858
468.8910, 5832.629
470.0790, 5694.000
471.2670, 5599.000
472.4550, 5518.000
473.6420, 5481.000
474.8300, 5344.000
476.0170, 5296.000
477.2040, 5255.000
478.3900, 5174.000
479.5770, 5218.000
480.7640, 5100.000
481.9500, 5062.000
483.1360, 4990.000
484.3220, 5024.000
485.5080, 5035.000
486.6930, 4998.000
487.8780, 5015.000
489.0640, 5014.045
490.2490, 5022.000
491.4330, 5025.000
492.6180, 5075.000
493.8030, 5075.000
494.9870, 5149.000
496.1710, 5186.361
497.3550, 5225.000
498.5390, 5287.000
499.7220, 5332.000
500.9060, 5371.000
502.0890, 5602.000
503.2720, 5694.000
504.4550, 5787.000
505.6370, 5873.000
506.8200, 6101.000
508.0020, 6344.000
509.1840, 6574.000
510.3660, 6848.000
511.5480, 7158.000
512.7290, 7381.000
513.9110, 7819.000
515.0920, 8272.000
516.2730, 8571.000
517.4540, 9138.000
518.6350, 9540.000
519.8150, 10000.00
520.9960, 10517.00
522.1760, 10709.00
523.3560, 11052.00
524.5350, 11536.00
525.7150, 11530.00
526.8950, 11711.00
528.0740, 11861.00
529.2530, 11591.00
530.4320, 11368.00
531.6100, 11266.00
532.7890, 11121.00
533.9670, 11066.00
535.1460, 10865.00
536.3240, 10735.76
537.5010, 10449.00
538.6790, 10428.00
539.8570, 10269.00
541.0340, 10153.00
542.2110, 10270.00
543.3880, 10395.00
544.5650, 10520.00
545.7410, 10517.00
546.9180, 10683.00
548.0940, 10936.00
549.2700, 11010.00
550.4460, 11408.00
551.6210, 11708.00
552.7970, 12014.00
553.9720, 12250.00
555.1480, 12722.00
556.3230, 13211.00
557.4970, 13468.00
558.6720, 13826.00
559.8460, 14079.00
561.0210, 14274.00
562.1950, 14396.00
563.3690, 14566.00
564.5420, 14710.00
565.7160, 14625.00
566.8890, 14737.00
568.0630, 14406.00
569.2360, 14317.00
570.4090, 13918.00
571.5810, 13853.00
572.7540, 13325.00
573.9260, 13009.00
575.0980, 12678.00
576.2700, 12042.00
577.4420, 11578.00
578.6140, 11109.00
579.7850, 10673.00
580.9560, 10146.00
582.1270, 9818.000
583.2980, 9260.000
584.4690, 8877.000
585.6400, 8469.000
586.8100, 8093.000
587.9800, 7708.000
589.1500, 7238.000
590.3200, 6916.000
591.4900, 6601.000
592.6590, 6578.000
593.8290, 6281.000
594.9980, 6210.000
596.1670, 6057.000
597.3360, 5915.000
598.5040, 6015.000
599.6730, 5922.000
600.8410, 5926.000
602.0090, 6059.000
603.1770, 6004.000
604.3450, 6099.000
605.5130, 6093.000
606.6800, 6226.000
607.8470, 6267.000
609.0140, 6456.000
610.1810, 6665.000
611.3480, 6796.000
612.5140, 7014.000
613.6810, 7164.000
614.8470, 7384.000
616.0130, 7676.000
617.1790, 7986.977
618.3440, 8300.000
619.5100, 8773.000
620.6750, 9288.000
621.8400, 9781.000
623.0050, 10766.00
624.1700, 11702.00
625.3350, 12925.00
626.4990, 14516.00
627.6640, 16330.00
628.8280, 18239.00
629.9920, 20698.00
631.1550, 23110.00
632.3190, 25806.00
633.4820, 28449.00
634.6460, 30491.00
635.8090, 31586.00
636.9710, 31356.00
638.1340, 29970.00
639.2970, 27416.00
640.4590, 24139.00
641.6210, 20896.00
642.7830, 17957.00
643.9450, 15532.00
645.1070, 13457.00
646.2680, 11858.00
647.4300, 10656.00
648.5910, 9586.000
649.7520, 8688.000
650.9130, 8081.000
652.0730, 7662.000
653.2340, 7299.000
654.3940, 6885.000
655.5540, 6598.846
656.7140, 6341.000
657.8740, 6062.000
659.0330, 5919.000
660.1930, 5697.000
661.3520, 5614.000
662.5110, 5480.000
663.6700, 5347.000
664.8290, 5201.000
665.9870, 5131.000
667.1460, 5083.000
668.3040, 4896.000
669.4620, 4856.000
670.6200, 4874.000
671.7770, 4788.000
672.9350, 4744.000
674.0920, 4747.000
675.2500, 4605.000
676.4070, 4687.000
677.5630, 4539.000
678.7200, 4564.000
679.8770, 4575.000
681.0330, 4495.000
682.1890, 4448.000
683.3450, 4423.000
684.5010, 4435.000
685.6560, 4320.000
686.8120, 4354.000
687.9670, 4285.000
689.1220, 4369.000
690.2770, 4310.000
691.4320, 4305.000
692.5870, 4293.000
693.7410, 4261.000
694.8950, 4276.000
696.0490, 4208.000
697.2030, 4235.000
698.3570, 4269.000
699.5110, 4230.000
700.6640, 4227.000
701.8170, 4218.000
702.9700, 4214.615
704.1230, 4207.000
705.2760, 4228.000
706.4290, 4207.000
707.5810, 4212.863
708.7330, 4302.000
709.8850, 4278.000
711.0370, 4321.000
712.1890, 4393.000
713.3400, 4375.000
714.4920, 4419.000
715.6430, 4452.000
716.7940, 4498.000
717.9450, 4439.000
719.0960, 4596.000
720.2460, 4509.000
721.3960, 4547.000
722.5470, 4596.000
723.6970, 4498.000
724.8460, 4535.000
725.9960, 4461.000
727.1460, 4443.000
728.2950, 4505.000
729.4440, 4478.000
730.5930, 4515.000
731.7420, 4507.000
732.8910, 4610.000
734.0390, 4581.000
735.1870, 4717.000
736.3360, 4751.000
737.4840, 4722.000
738.6310, 4853.000
739.7790, 4894.000
740.9260, 4908.000
742.0740, 5017.000
743.2210, 4856.000
744.3680, 4838.000
745.5150, 4802.000
746.6610, 4655.000
747.8080, 4580.000
748.9540, 4540.000
750.1000, 4447.000
751.2460, 4411.000
752.3920, 4368.411
753.5380, 4312.000
754.6830, 4299.000
755.8280, 4313.000
756.9730, 4274.000
758.1180, 4276.000
759.2630, 4165.000
760.4080, 4185.340
761.5520, 4273.000
762.6960, 4181.000
763.8410, 4270.000
764.9840, 4290.000
766.1280, 4145.000
767.2720, 4241.000
768.4150, 4203.000
769.5590, 4296.000
770.7020, 4213.000
771.8450, 4229.000
772.9870, 4242.000
774.1300, 4236.000
775.2720, 4166.000
776.4150, 4303.000
777.5570, 4311.000
778.6990, 4250.000
779.8400, 4355.000
780.9820, 4342.000
782.1230, 4258.000
783.2650, 4343.000
784.4060, 4314.000
785.5470, 4337.000
786.6870, 4230.000
787.8280, 4341.000
788.9680, 4225.000
790.1090, 4349.000
791.2490, 4306.000
792.3890, 4322.000
793.5280, 4262.000
794.6680, 4365.000
795.8070, 4385.000
796.9470, 4428.000
798.0860, 4414.000
799.2250, 4451.000
800.3630, 4428.000
801.5020, 4450.000
802.6410, 4397.000
803.7790, 4465.000
804.9170, 4443.000
806.0550, 4388.000
807.1930, 4557.000
808.3300, 4513.000
809.4680, 4521.000
810.6050, 4504.000
811.7420, 4509.646
812.8790, 4565.000
814.0160, 4547.000
815.1520, 4618.000
816.2890, 4664.000
817.4250, 4660.000
818.5610, 4633.000
819.6970, 4704.000
820.8330, 4703.000
821.9680, 4776.000
823.1040, 4812.612
824.2390, 4841.000
825.3740, 4897.000
826.5090, 4880.000
827.6440, 4906.000
828.7790, 4982.000
829.9130, 4940.000
831.0470, 4994.000
832.1810, 5109.000
833.3150, 5136.000
834.4490, 5278.000
835.5830, 5318.000
836.7160, 5390.000
837.8500, 5412.000
838.9830, 5522.000
840.1160, 5623.000
841.2480, 5701.000
842.3810, 5864.000
843.5140, 5983.224
844.6460, 6216.000
845.7780, 6292.000
846.9100, 6538.000
848.0420, 6727.000
849.1740, 6852.000
850.3050, 7003.000
851.4360, 7252.000
852.5680, 7351.000
853.6990, 7459.000
854.8290, 7669.000
855.9600, 7900.000
857.0910, 8019.000
858.2210, 8023.000
859.3510, 8037.000
860.4810, 8087.000
861.6110, 8095.000
862.7410, 7932.000
863.8700, 7781.000
865.0000, 7794.000
866.1290, 7529.000
867.2580, 7399.000
868.3870, 7204.000
869.5150, 7096.000
870.6440, 6841.000
871.7720, 6781.000
872.9000, 6585.000
874.0290, 6464.000
875.1560, 6379.000
876.2840, 6223.000
877.4120, 6098.000
878.5390, 6067.000
879.6660, 6030.000
880.7930, 5956.000
881.9200, 5975.000
883.0470, 5890.000
884.1740, 5927.000
885.3000, 5941.000
886.4260, 5936.000
887.5530, 5893.000
888.6780, 6055.000
889.8040, 6091.000
890.9300, 6120.000
892.0550, 6309.000
893.1810, 6347.000
894.3060, 6379.000
895.4310, 6297.000
896.5560, 6339.000
897.6800, 6215.000
898.8050, 6148.000
899.9290, 6056.000
901.0530, 5840.000
902.1770, 5763.000
903.3010, 5637.000
904.4250, 5524.000
905.5480, 5397.000
906.6720, 5328.816
907.7950, 5389.000
908.9180, 5230.000
910.0410, 5222.000
911.1630, 5237.000
912.2860, 5036.000
913.4080, 5060.000
914.5300, 5136.000
915.6530, 4973.000
916.7740, 4942.000
917.8960, 4962.000
919.0180, 4992.000
920.1390, 4944.000
921.2600, 4918.000
922.3820, 4864.000
923.5020, 4881.103
924.6230, 4924.000
925.7440, 4925.000
926.8640, 4941.000
927.9850, 4973.000
929.1050, 4953.000
930.2250, 4879.000
931.3450, 4785.000
932.4640, 4737.000
933.5840, 4895.000
934.7030, 4899.000
935.8220, 4978.000
936.9410, 4936.000
938.0600, 4893.000
939.1790, 4883.000
940.2970, 4915.000
941.4160, 4855.000
942.5340, 4971.000
943.6520, 4901.000
944.7700, 4957.000
945.8870, 4980.000
947.0050, 5008.000
948.1220, 4905.000
949.2400, 5023.000
950.3570, 4986.000
951.4740, 4947.000
952.5900, 5029.000
953.7070, 4986.000
954.8240, 4916.000
955.9400, 4961.000
957.0560, 5031.000
958.1720, 4990.000
959.2880, 4913.000
960.4030, 4981.000
961.5190, 5054.000
962.6340, 4941.000
963.7490, 5062.000
964.8640, 5083.000
965.9790, 5054.000
967.0940, 5118.000
968.2080, 5092.283
969.3230, 5121.000
970.4370, 5082.000
971.5510, 5096.000
972.6650, 5103.000
973.7790, 5154.000
974.8920, 5109.000
976.0060, 5098.000
977.1190, 5072.000
978.2320, 5054.636
979.3450, 5129.000
980.4580, 5044.000
981.5710, 5056.000
982.6830, 5083.000
983.7950, 5245.000
984.9080, 5259.000
986.0200, 5152.000
987.1310, 5256.000
988.2430, 5157.000
989.3550, 5237.000
990.4660, 5287.000
991.5770, 5319.000
992.6880, 5244.000
993.7990, 5320.000
994.9100, 5286.000
996.0200, 5334.000
997.1310, 5401.000
998.2410, 5474.000
999.3510, 5499.000
1000.461, 5612.000
1001.571, 5665.000
1002.681, 5706.000
1003.790, 5754.000
1004.899, 5834.000
1006.009, 5905.000
1007.118, 6026.000
1008.226, 6051.000
1009.335, 6144.617
1010.444, 6240.000
1011.552, 6278.000
1012.660, 6397.000
1013.768, 6448.000
1014.876, 6436.000
1015.984, 6412.000
1017.092, 6459.000
1018.199, 6344.000
1019.306, 6307.000
1020.413, 6293.000
1021.520, 6278.000
1022.627, 6246.000
1023.734, 6140.000
1024.840, 5950.000
1025.947, 5995.000
1027.053, 5955.000
1028.159, 6001.000
1029.265, 5941.000
1030.370, 5966.000
1031.476, 6021.000
1032.581, 5916.000
1033.687, 5961.000
1034.792, 5957.000
1035.897, 5960.000
1037.002, 6008.000
1038.106, 6008.000
1039.211, 6047.438
1040.315, 6126.000
1041.419, 6122.000
1042.523, 6128.000
1043.627, 6170.000
1044.731, 6283.000
1045.834, 6375.000
1046.938, 6504.000
1048.041, 6505.000
1049.144, 6699.000
1050.247, 6835.000
1051.349, 6919.000
1052.452, 7294.000
1053.555, 7396.000
1054.657, 7602.000
1055.759, 7978.000
1056.861, 8088.000
1057.963, 8306.000
1059.064, 8339.000
1060.166, 8455.000
1061.267, 8396.000
1062.368, 8296.000
1063.470, 8155.000
1064.570, 8006.000
1065.671, 7730.000
1066.772, 7713.000
1067.872, 7508.000
1068.972, 7523.000
1070.073, 7507.000
1071.173, 7390.000
1072.272, 7381.000
1073.372, 7295.000
1074.472, 7426.000
1075.571, 7443.000
1076.670, 7475.000
1077.769, 7361.000
1078.868, 7561.000
1079.967, 7532.000
1081.065, 7744.000
1082.164, 7938.000
1083.262, 8138.000
1084.360, 8259.000
1085.458, 8426.000
1086.556, 8699.000
1087.654, 8913.000
1088.751, 9139.000
1089.848, 9573.000
1090.946, 9901.000
1092.043, 10364.00
1093.139, 10814.00
1094.236, 11481.00
1095.333, 12210.00
1096.429, 13030.00
1097.525, 14004.80
1098.622, 14973.00
1099.718, 16268.00
1100.813, 17670.00
1101.909, 19136.00
1103.005, 20970.00
1104.100, 22892.00
1105.195, 24478.00
1106.290, 26022.00
1107.385, 26981.00
1108.480, 27745.00
1109.574, 28043.00
1110.669, 27400.00
1111.763, 26559.00
1112.857, 24728.00
1113.951, 22903.00
1115.045, 21274.00
1116.139, 19262.00
1117.232, 17671.00
1118.326, 16165.00
1119.419, 14939.00
1120.512, 13662.00
1121.605, 13006.00
1122.697, 12177.00
1123.790, 11359.00
1124.883, 10935.00
1125.975, 10556.00
1127.067, 10154.00
1128.159, 9762.000
1129.251, 9584.000
1130.342, 9299.000
1131.434, 9049.000
1132.525, 8768.000
1133.617, 8743.000
1134.708, 8487.000
1135.799, 8358.000
1136.889, 8107.000
1137.980, 7988.000
1139.071, 7848.000
1140.161, 7711.000
1141.251, 7621.000
1142.341, 7569.000
1143.431, 7463.889
1144.521, 7339.000
1145.610, 7316.000
1146.700, 7163.000
1147.789, 7097.000
1148.878, 6984.000
1149.967, 6985.000
1151.056, 6929.000
1152.144, 6869.000
1153.233, 6752.000
1154.321, 6797.000
1155.409, 6728.000
1156.498, 6813.000
1157.585, 6795.000
1158.673, 6814.000
1159.761, 6807.000
1160.848, 6849.000
1161.936, 6823.000
1163.023, 6781.000
1164.110, 6685.000
1165.197, 6703.000
1166.283, 6694.000
1167.370, 6544.000
1168.456, 6519.000
1169.542, 6489.000
1170.629, 6379.000
1171.714, 6274.000
1172.800, 6262.000
1173.886, 6160.000
1174.971, 6189.000
1176.057, 6039.000
1177.142, 6048.000
1178.227, 6013.000
1179.312, 6037.000
1180.397, 5989.850
1181.481, 5896.000
1182.566, 5913.000
1183.650, 5838.000
1184.734, 5810.000
1185.818, 5870.000
1186.902, 5812.000
1187.986, 5725.000
1189.069, 5731.000
1190.153, 5656.000
1191.236, 5719.000
1192.319, 5672.000
1193.402, 5598.000
1194.485, 5655.000
1195.567, 5646.000
1196.650, 5659.000
1197.732, 5618.000
1198.814, 5595.000
1199.896, 5510.000
1200.978, 5554.000
1202.060, 5578.000
1203.142, 5641.000
1204.223, 5474.000
1205.304, 5526.000
1206.386, 5449.000
1207.467, 5530.000
1208.547, 5507.000
1209.628, 5535.000
1210.709, 5487.000
1211.789, 5458.000
1212.869, 5420.000
1213.950, 5539.000
1215.030, 5492.000
1216.109, 5537.000
1217.189, 5459.000
1218.269, 5520.000
1219.348, 5521.000
1220.427, 5517.000
1221.506, 5542.137
1222.585, 5463.000
1223.664, 5568.000
1224.743, 5466.000
1225.821, 5498.000
1226.899, 5441.000
1227.978, 5474.000
1229.056, 5460.000
1230.134, 5389.000
1231.211, 5478.000
1232.289, 5473.000
1233.366, 5411.000
1234.444, 5492.000
1235.521, 5395.000
1236.598, 5483.000
1237.675, 5519.000
1238.751, 5466.000
1239.828, 5497.000
1240.904, 5405.000
1241.981, 5466.000
1243.057, 5442.000
1244.133, 5466.000
1245.209, 5529.000
1246.284, 5424.000
1247.360, 5519.000
1248.435, 5462.000
1249.510, 5486.000
1250.585, 5583.000
1251.660, 5442.000
1252.735, 5505.000
1253.810, 5517.000
1254.884, 5440.000
1255.959, 5488.000
1257.033, 5414.000
1258.107, 5458.000
1259.181, 5428.000
1260.255, 5489.000
1261.328, 5534.000
1262.402, 5504.000
1263.475, 5513.000
1264.548, 5532.707
1265.621, 5465.000
1266.694, 5549.000
1267.767, 5577.000
1268.840, 5555.000
1269.912, 5572.987
1270.984, 5512.000
1272.056, 5535.000
1273.129, 5500.000
1274.200, 5486.000
1275.272, 5525.000
1276.344, 5573.000
1277.415, 5454.000
1278.486, 5610.000
1279.558, 5543.000
1280.629, 5471.000
1281.699, 5465.000
1282.770, 5450.000
1283.841, 5452.000
1284.911, 5487.000
1285.981, 5478.000
1287.051, 5530.000
1288.121, 5464.000
1289.191, 5488.000
1290.261, 5501.000
1291.330, 5571.000
1292.400, 5525.000
