##NAMES=Augelite
##RRUFFID=R050060
##IDEAL CHEMISTRY=Al_2_PO_4_(OH)_3_
##LOCALITY=Machacamarca, Potosi Department, Bolivia
##OWNER=RRUFF
##SOURCE=Rock Currier
##DESCRIPTION=Colorless prismatic crystals
##STATUS=The identification of this mineral has been confirmed by X-ray diffraction and chemical analysis
##URL=rruff.info/R050060
##MEASURED CHEMISTRY=Al_2.00_(P_1.00_O_4_)(OH)_3_; OH estimated by difference
##PIN_ID=L00872
##ORIENTATION=Laser parallel to -b* (0 -1 0). Fiducial mark perpendicular to laser is parallel to -c [0 0 -1]
140.0490, 5723.000
141.2890, 5783.000
142.5280, 5966.000
143.7670, 5973.000
145.0050, 6283.000
146.2440, 6668.000
147.4820, 7237.000
148.7200, 7889.000
149.9580, 8708.000
151.1960, 9621.000
152.4340, 10685.00
153.6710, 11583.00
154.9080, 12966.00
156.1450, 14304.00
157.3820, 15613.00
158.6190, 16801.00
159.8550, 18051.00
161.0910, 19097.00
162.3270, 19582.00
163.5630, 19510.00
164.7980, 18743.00
166.0340, 17525.00
167.2690, 16200.00
168.5040, 14378.00
169.7390, 12999.00
170.9730, 11400.00
172.2080, 10062.00
173.4420, 8987.000
174.6760, 8154.000
175.9100, 7316.000
177.1440, 6783.000
178.3770, 6145.000
179.6100, 5822.000
180.8430, 5332.000
182.0760, 5069.000
183.3090, 4789.000
184.5410, 4616.000
185.7740, 4364.000
187.0060, 4226.000
188.2380, 4068.000
189.4690, 3966.000
190.7010, 3785.000
191.9320, 3835.000
193.1630, 3776.000
194.3940, 3665.000
195.6250, 3620.000
196.8550, 3576.000
198.0860, 3686.000
199.3160, 3746.000
200.5460, 3693.000
201.7750, 3726.000
203.0050, 3757.000
204.2340, 3832.000
205.4630, 3984.000
206.6920, 4080.000
207.9210, 4347.000
209.1500, 4667.000
210.3780, 5069.000
211.6060, 5411.000
212.8340, 6033.000
214.0620, 6683.000
215.2900, 7503.000
216.5170, 8354.000
217.7440, 9201.000
218.9710, 9933.000
220.1980, 10830.00
221.4250, 11563.00
222.6510, 12019.00
223.8770, 12440.00
225.1040, 12407.00
226.3290, 11859.00
227.5550, 10747.00
228.7810, 9661.000
230.0060, 8261.000
231.2310, 7073.000
232.4560, 6188.000
233.6810, 5470.000
234.9050, 5119.000
236.1290, 4755.000
237.3540, 4546.000
238.5770, 4390.000
239.8010, 4344.000
241.0250, 4432.000
242.2480, 4522.000
243.4710, 4669.000
244.6940, 4824.998
245.9170, 4982.000
247.1400, 5202.000
248.3620, 5498.000
249.5840, 5706.000
250.8060, 5851.000
252.0280, 5798.000
253.2500, 5465.000
254.4710, 4971.000
255.6920, 4435.000
256.9140, 4048.000
258.1340, 3737.000
259.3550, 3495.000
260.5760, 3275.373
261.7960, 3039.000
263.0160, 2984.000
264.2360, 2879.000
265.4560, 2787.000
266.6750, 2712.000
267.8940, 2685.000
269.1140, 2729.000
270.3330, 2648.000
271.5510, 2639.000
272.7700, 2673.000
273.9880, 2614.000
275.2070, 2635.000
276.4250, 2679.000
277.6420, 2674.000
278.8600, 2650.000
280.0770, 2589.000
281.2950, 2598.000
282.5120, 2586.000
283.7290, 2659.000
284.9450, 2703.000
286.1620, 2747.000
287.3780, 2805.000
288.5940, 2780.000
289.8100, 2825.000
291.0260, 2883.000
292.2410, 3058.000
293.4570, 3097.000
294.6720, 3183.000
295.8870, 3259.000
297.1010, 3276.000
298.3160, 3150.000
299.5300, 3102.000
300.7450, 2986.000
301.9590, 2990.000
303.1730, 2947.000
304.3860, 2875.000
305.6000, 2916.000
306.8130, 2973.000
308.0260, 3037.000
309.2390, 3119.098
310.4510, 3231.000
311.6640, 3306.000
312.8760, 3393.000
314.0880, 3487.000
315.3000, 3656.000
316.5120, 3738.000
317.7240, 3954.000
318.9350, 4194.000
320.1460, 4369.000
321.3570, 4661.000
322.5680, 4811.000
323.7790, 5049.000
324.9890, 5195.000
326.1990, 5379.000
327.4090, 5532.000
328.6190, 5561.000
329.8290, 5597.000
331.0380, 5544.000
332.2480, 5545.000
333.4570, 5379.000
334.6660, 5267.000
335.8740, 5165.000
337.0830, 4949.000
338.2910, 4815.000
339.5000, 4642.000
340.7080, 4545.000
341.9150, 4380.000
343.1230, 4358.000
344.3300, 4271.000
345.5380, 4256.000
346.7450, 4206.000
347.9520, 4228.000
349.1580, 4157.000
350.3650, 4148.000
351.5710, 4201.000
352.7770, 4177.000
353.9830, 4155.000
355.1890, 4149.000
356.3940, 4309.000
357.6000, 4458.071
358.8050, 4666.462
360.0100, 4991.000
361.2150, 5271.000
362.4190, 5674.000
363.6240, 6144.000
364.8280, 6594.000
366.0320, 7114.000
367.2360, 7416.000
368.4400, 7491.000
369.6430, 7325.000
370.8460, 6884.000
372.0500, 6245.000
373.2530, 5666.000
374.4550, 5058.000
375.6580, 4526.000
376.8600, 4178.000
378.0620, 3930.000
379.2650, 3733.000
380.4660, 3583.000
381.6680, 3472.604
382.8690, 3462.000
384.0710, 3379.000
385.2720, 3334.000
386.4730, 3367.000
387.6730, 3306.000
388.8740, 3381.000
390.0740, 3408.000
391.2740, 3531.000
392.4740, 3544.000
393.6740, 3565.000
394.8740, 3766.000
396.0730, 3830.000
397.2730, 4126.000
398.4720, 4297.000
399.6700, 4585.000
400.8690, 4944.000
402.0680, 5362.000
403.2660, 5845.000
404.4640, 6517.000
405.6620, 6963.000
406.8600, 7466.000
408.0570, 8052.000
409.2550, 8482.000
410.4520, 8695.000
411.6490, 8875.000
412.8460, 9091.000
414.0430, 9309.000
415.2390, 9278.000
416.4350, 9624.000
417.6310, 9708.000
418.8270, 9925.000
420.0230, 9881.000
421.2190, 9855.000
422.4140, 9564.000
423.6090, 9311.000
424.8040, 8952.000
425.9990, 8403.000
427.1940, 8004.000
428.3880, 7547.000
429.5820, 7188.000
430.7760, 6876.000
431.9700, 6621.000
433.1640, 6434.000
434.3580, 6339.000
435.5510, 6268.000
436.7440, 6186.000
437.9370, 6113.000
439.1300, 6264.000
440.3230, 6262.000
441.5150, 6336.000
442.7070, 6222.000
443.8990, 6354.000
445.0910, 6371.000
446.2830, 6433.000
447.4750, 6480.000
448.6660, 6533.074
449.8570, 6624.000
451.0480, 6639.000
452.2390, 6643.000
453.4290, 6655.000
454.6200, 6652.255
455.8100, 6625.274
457.0000, 6634.000
458.1900, 6543.000
459.3800, 6505.886
460.5690, 6436.979
461.7590, 6402.000
462.9480, 6327.000
464.1370, 6267.000
465.3260, 6208.000
466.5140, 6067.000
467.7030, 5980.000
468.8910, 5980.000
470.0790, 5741.000
471.2670, 5734.000
472.4550, 5527.000
473.6420, 5480.000
474.8300, 5284.000
476.0170, 5246.000
477.2040, 5167.000
478.3900, 5043.000
479.5770, 5019.000
480.7640, 4903.000
481.9500, 4946.000
483.1360, 4968.000
484.3220, 4854.000
485.5080, 4739.000
486.6930, 4854.000
487.8780, 4771.000
489.0640, 4798.000
490.2490, 4860.000
491.4330, 4835.000
492.6180, 4873.000
493.8030, 4912.000
494.9870, 5021.000
496.1710, 5063.000
497.3550, 5131.000
498.5390, 5214.000
499.7220, 5393.000
500.9060, 5458.000
502.0890, 5708.000
503.2720, 5939.000
504.4550, 6139.000
505.6370, 6289.000
506.8200, 6736.000
508.0020, 7191.000
509.1840, 7415.000
510.3660, 7847.000
511.5480, 8370.000
512.7290, 8869.000
513.9110, 9540.000
515.0920, 10165.00
516.2730, 10749.00
517.4540, 11398.00
518.6350, 12092.00
519.8150, 12668.00
520.9960, 13304.00
522.1760, 13703.00
523.3560, 14013.00
524.5350, 14352.00
525.7150, 14322.00
526.8950, 14230.00
528.0740, 13844.00
529.2530, 13648.00
530.4320, 13168.00
531.6100, 12634.00
532.7890, 11924.00
533.9670, 11292.00
535.1460, 10810.00
536.3240, 10148.00
537.5010, 9652.000
538.6790, 9227.000
539.8570, 8730.000
541.0340, 8379.000
542.2110, 7972.000
543.3880, 7794.000
544.5650, 7443.000
545.7410, 7232.000
546.9180, 7090.000
548.0940, 6803.000
549.2700, 6700.000
550.4460, 6595.000
551.6210, 6434.000
552.7970, 6324.000
553.9720, 6244.000
555.1480, 6191.000
556.3230, 6060.000
557.4970, 5997.774
558.6720, 5849.000
559.8460, 5837.000
561.0210, 5755.000
562.1950, 5687.000
563.3690, 5587.000
564.5420, 5520.000
565.7160, 5314.000
566.8890, 5254.000
568.0630, 5133.000
569.2360, 5082.000
570.4090, 4953.000
571.5810, 4829.000
572.7540, 4745.000
573.9260, 4629.336
575.0980, 4556.000
576.2700, 4449.000
577.4420, 4375.000
578.6140, 4321.000
579.7850, 4259.000
580.9560, 4206.000
582.1270, 4171.000
583.2980, 4123.446
584.4690, 4023.000
585.6400, 4053.000
586.8100, 4001.000
587.9800, 3973.000
589.1500, 4066.000
590.3200, 3993.000
591.4900, 4063.000
592.6590, 4087.000
593.8290, 4108.000
594.9980, 4175.000
596.1670, 4159.000
597.3360, 4254.000
598.5040, 4260.000
599.6730, 4360.000
600.8410, 4447.108
602.0090, 4508.000
603.1770, 4667.000
604.3450, 4783.000
605.5130, 4926.000
606.6800, 5128.000
607.8470, 5197.000
609.0140, 5362.000
610.1810, 5693.000
611.3480, 5885.000
612.5140, 5997.000
613.6810, 6464.000
614.8470, 6627.000
616.0130, 7114.000
617.1790, 7361.000
618.3440, 7728.000
619.5100, 8452.000
620.6750, 9133.000
621.8400, 10052.00
623.0050, 11048.00
624.1700, 12501.00
625.3350, 14149.00
626.4990, 16047.00
627.6640, 18564.00
628.8280, 21819.00
629.9920, 24600.00
631.1550, 28219.00
632.3190, 31573.00
633.4820, 34872.00
634.6460, 37364.00
635.8090, 38486.00
636.9710, 38246.00
638.1340, 36272.00
639.2970, 32878.00
640.4590, 28749.00
641.6210, 24896.00
642.7830, 21198.00
643.9450, 17876.00
645.1070, 15530.00
646.2680, 13166.00
647.4300, 11665.00
648.5910, 10457.00
649.7520, 9196.000
650.9130, 8458.000
652.0730, 7800.000
653.2340, 7254.000
654.3940, 6821.000
655.5540, 6256.000
656.7140, 5952.000
657.8740, 5653.000
659.0330, 5369.000
660.1930, 5172.000
661.3520, 4928.458
662.5110, 4765.803
663.6700, 4567.000
664.8290, 4460.000
665.9870, 4375.000
667.1460, 4200.000
668.3040, 4184.000
669.4620, 4040.000
670.6200, 4061.000
671.7770, 3889.000
672.9350, 3778.000
674.0920, 3805.000
675.2500, 3713.000
676.4070, 3650.000
677.5630, 3654.000
678.7200, 3528.000
679.8770, 3583.000
681.0330, 3519.000
682.1890, 3495.000
683.3450, 3476.000
684.5010, 3352.000
685.6560, 3321.000
686.8120, 3300.000
687.9670, 3306.000
689.1220, 3291.883
690.2770, 3294.000
691.4320, 3268.000
692.5870, 3285.000
693.7410, 3223.000
694.8950, 3199.000
696.0490, 3194.307
697.2030, 3213.000
698.3570, 3172.000
699.5110, 3190.000
700.6640, 3175.000
701.8170, 3147.000
702.9700, 3212.000
704.1230, 3217.000
705.2760, 3201.000
706.4290, 3152.000
707.5810, 3177.940
708.7330, 3262.000
709.8850, 3202.000
711.0370, 3226.000
712.1890, 3239.000
713.3400, 3217.000
714.4920, 3266.000
715.6430, 3233.000
716.7940, 3282.000
717.9450, 3278.000
719.0960, 3269.000
720.2460, 3271.000
721.3960, 3275.193
722.5470, 3301.000
723.6970, 3294.000
724.8460, 3311.000
725.9960, 3326.000
727.1460, 3303.000
728.2950, 3413.000
729.4440, 3500.000
730.5930, 3461.000
731.7420, 3570.000
732.8910, 3648.000
734.0390, 3688.000
735.1870, 3887.000
736.3360, 3978.000
737.4840, 4113.000
738.6310, 4237.000
739.7790, 4213.000
740.9260, 4252.000
742.0740, 4311.000
743.2210, 4270.000
744.3680, 4212.000
745.5150, 4081.000
746.6610, 3892.000
747.8080, 3824.000
748.9540, 3668.000
750.1000, 3561.000
751.2460, 3510.000
752.3920, 3357.000
753.5380, 3275.000
754.6830, 3302.000
755.8280, 3320.000
756.9730, 3179.000
758.1180, 3217.000
759.2630, 3211.000
760.4080, 3190.000
761.5520, 3217.000
762.6960, 3195.000
763.8410, 3168.000
764.9840, 3143.000
766.1280, 3245.000
767.2720, 3222.000
768.4150, 3213.000
769.5590, 3169.000
770.7020, 3158.000
771.8450, 3153.000
772.9870, 3176.000
774.1300, 3157.000
775.2720, 3151.000
776.4150, 3147.000
777.5570, 3172.000
778.6990, 3193.000
779.8400, 3188.000
780.9820, 3186.000
782.1230, 3245.000
783.2650, 3240.000
784.4060, 3249.000
785.5470, 3240.000
786.6870, 3282.000
787.8280, 3301.000
788.9680, 3260.000
790.1090, 3322.000
791.2490, 3271.000
792.3890, 3257.000
793.5280, 3284.000
794.6680, 3349.000
795.8070, 3298.000
796.9470, 3330.000
798.0860, 3361.000
799.2250, 3351.000
800.3630, 3380.000
801.5020, 3393.571
802.6410, 3364.000
803.7790, 3412.000
804.9170, 3376.000
806.0550, 3346.000
807.1930, 3386.000
808.3300, 3491.000
809.4680, 3395.000
810.6050, 3484.000
811.7420, 3494.000
812.8790, 3527.000
814.0160, 3561.676
815.1520, 3573.169
816.2890, 3603.000
817.4250, 3616.000
818.5610, 3639.000
819.6970, 3679.570
820.8330, 3752.000
821.9680, 3726.000
823.1040, 3788.000
824.2390, 3799.000
825.3740, 3835.000
826.5090, 3872.000
827.6440, 3917.000
828.7790, 3955.023
829.9130, 4012.228
831.0470, 4055.000
832.1810, 4149.000
833.3150, 4240.000
834.4490, 4352.000
835.5830, 4306.000
836.7160, 4450.000
837.8500, 4527.000
838.9830, 4699.000
840.1160, 4813.009
841.2480, 4962.000
842.3810, 5082.000
843.5140, 5175.000
844.6460, 5319.000
845.7780, 5514.000
846.9100, 5657.000
848.0420, 5866.364
849.1740, 6069.000
850.3050, 6297.000
851.4360, 6463.000
852.5680, 6702.000
853.6990, 6930.000
854.8290, 7048.000
855.9600, 7241.000
857.0910, 7401.000
858.2210, 7327.000
859.3510, 7450.000
860.4810, 7482.000
861.6110, 7396.000
862.7410, 7334.000
863.8700, 7208.000
865.0000, 7083.548
866.1290, 6928.000
867.2580, 6791.000
868.3870, 6616.000
869.5150, 6475.000
870.6440, 6334.000
871.7720, 6068.000
872.9000, 6027.000
874.0290, 5785.000
875.1560, 5718.000
876.2840, 5574.000
877.4120, 5488.000
878.5390, 5476.000
879.6660, 5394.000
880.7930, 5284.000
881.9200, 5383.000
883.0470, 5265.000
884.1740, 5307.000
885.3000, 5446.000
886.4260, 5462.000
887.5530, 5588.000
888.6780, 5782.000
889.8040, 5771.000
890.9300, 5974.000
892.0550, 6084.000
893.1810, 6214.000
894.3060, 6313.000
895.4310, 6286.000
896.5560, 6284.000
897.6800, 6089.000
898.8050, 5893.000
899.9290, 5703.000
901.0530, 5464.000
902.1770, 5271.000
903.3010, 5064.000
904.4250, 4925.000
905.5480, 4732.000
906.6720, 4651.000
907.7950, 4561.000
908.9180, 4477.000
910.0410, 4320.000
911.1630, 4344.000
912.2860, 4178.000
913.4080, 4165.000
914.5300, 4165.000
915.6530, 4037.000
916.7740, 3994.000
917.8960, 3961.000
919.0180, 3979.000
920.1390, 3926.000
921.2600, 3964.000
922.3820, 3902.000
923.5020, 3957.000
924.6230, 3877.000
925.7440, 3837.000
926.8640, 3826.000
927.9850, 3753.000
929.1050, 3778.917
930.2250, 3767.325
931.3450, 3809.000
932.4640, 3799.000
933.5840, 3802.000
934.7030, 3833.000
935.8220, 3808.000
936.9410, 3814.000
938.0600, 3829.000
939.1790, 3874.000
940.2970, 3852.000
941.4160, 3839.000
942.5340, 3823.000
943.6520, 3822.000
944.7700, 3818.000
945.8870, 3838.000
947.0050, 3838.000
948.1220, 3872.000
949.2400, 3898.338
950.3570, 3875.000
951.4740, 3933.000
952.5900, 3884.000
953.7070, 3816.000
954.8240, 3852.000
955.9400, 3864.000
957.0560, 3877.000
958.1720, 3789.000
959.2880, 3918.000
960.4030, 3849.000
961.5190, 3815.000
962.6340, 3880.000
963.7490, 3865.000
964.8640, 3893.000
965.9790, 3859.000
967.0940, 3933.000
968.2080, 3928.000
969.3230, 3839.000
970.4370, 3931.000
971.5510, 3960.000
972.6650, 3925.000
973.7790, 3945.000
974.8920, 3897.000
976.0060, 3958.000
977.1190, 4006.000
978.2320, 3982.000
979.3450, 3994.000
980.4580, 3908.000
981.5710, 3993.000
982.6830, 3999.000
983.7950, 3988.000
984.9080, 4053.000
986.0200, 4104.000
987.1310, 4023.000
988.2430, 4023.000
989.3550, 4128.000
990.4660, 4173.000
991.5770, 4182.000
992.6880, 4141.000
993.7990, 4273.000
994.9100, 4229.000
996.0200, 4353.000
997.1310, 4430.000
998.2410, 4519.000
999.3510, 4586.598
1000.461, 4656.054
1001.571, 4699.000
1002.681, 4795.000
1003.790, 4859.000
1004.899, 4956.000
1006.009, 5075.000
1007.118, 5132.000
1008.226, 5199.000
1009.335, 5426.000
1010.444, 5459.000
1011.552, 5575.000
1012.660, 5647.000
1013.768, 5673.000
1014.876, 5695.000
1015.984, 5739.000
1017.092, 5640.000
1018.199, 5680.000
1019.306, 5618.000
1020.413, 5496.000
1021.520, 5492.000
1022.627, 5383.068
1023.734, 5276.000
1024.840, 5219.000
1025.947, 5198.000
1027.053, 5128.000
1028.159, 5088.000
1029.265, 5063.000
1030.370, 5138.000
1031.476, 5030.000
1032.581, 5098.000
1033.687, 5092.000
1034.792, 5019.000
1035.897, 5106.000
1037.002, 5099.000
1038.106, 5032.000
1039.211, 5168.000
1040.315, 5101.000
1041.419, 5251.000
1042.523, 5244.000
1043.627, 5111.000
1044.731, 5220.000
1045.834, 5403.000
1046.938, 5450.000
1048.041, 5715.000
1049.144, 5752.899
1050.247, 5739.000
1051.349, 5897.000
1052.452, 6077.000
1053.555, 6158.000
1054.657, 6426.000
1055.759, 6658.000
1056.861, 6702.000
1057.963, 6796.000
1059.064, 6884.000
1060.166, 6903.000
1061.267, 6943.000
1062.368, 6746.000
1063.470, 6626.000
1064.570, 6453.000
1065.671, 6282.000
1066.772, 6213.000
1067.872, 6285.000
1068.972, 6086.000
1070.073, 6075.000
1071.173, 6104.000
1072.272, 5998.000
1073.372, 6069.000
1074.472, 6158.000
1075.571, 6225.000
1076.670, 6233.000
1077.769, 6390.000
1078.868, 6475.000
1079.967, 6678.000
1081.065, 6766.000
1082.164, 6876.000
1083.262, 7162.000
1084.360, 7474.000
1085.458, 7556.000
1086.556, 7787.000
1087.654, 8198.000
1088.751, 8572.000
1089.848, 8924.000
1090.946, 9318.000
1092.043, 9988.000
1093.139, 10595.00
1094.236, 11295.00
1095.333, 12007.00
1096.429, 12980.00
1097.525, 14030.00
1098.622, 15273.00
1099.718, 16674.00
1100.813, 18600.00
1101.909, 20051.00
1103.005, 21944.00
1104.100, 24182.00
1105.195, 26005.00
1106.290, 27531.00
1107.385, 28489.00
1108.480, 29358.00
1109.574, 29214.00
1110.669, 28687.00
1111.763, 27316.00
1112.857, 25677.00
1113.951, 23858.00
1115.045, 21594.00
1116.139, 19783.00
1117.232, 18023.00
1118.326, 16309.00
1119.419, 14955.00
1120.512, 13845.00
1121.605, 12870.00
1122.697, 12015.00
1123.790, 11342.00
1124.883, 10982.00
1125.975, 10408.00
1127.067, 10012.00
1128.159, 9757.000
1129.251, 9431.000
1130.342, 9211.000
1131.434, 8873.000
1132.525, 8624.000
1133.617, 8477.000
1134.708, 8216.000
1135.799, 7955.000
1136.889, 7992.000
1137.980, 7690.000
1139.071, 7554.000
1140.161, 7410.000
1141.251, 7158.000
1142.341, 7048.000
1143.431, 6984.000
1144.521, 6895.000
1145.610, 6587.000
1146.700, 6393.000
1147.789, 6396.000
1148.878, 6381.000
1149.967, 6151.000
1151.056, 6015.000
1152.144, 5924.000
1153.233, 5777.000
1154.321, 5629.000
1155.409, 5627.000
1156.498, 5546.496
1157.585, 5601.000
1158.673, 5503.000
1159.761, 5540.000
1160.848, 5508.000
1161.936, 5481.000
1163.023, 5389.000
1164.110, 5331.000
1165.197, 5185.000
1166.283, 5152.000
1167.370, 5062.000
1168.456, 5072.000
1169.542, 4994.000
1170.629, 4951.000
1171.714, 4879.000
1172.800, 4804.000
1173.886, 4765.000
1174.971, 4694.000
1176.057, 4647.000
1177.142, 4626.000
1178.227, 4514.000
1179.312, 4479.000
1180.397, 4459.000
1181.481, 4488.000
1182.566, 4429.000
1183.650, 4379.000
1184.734, 4463.000
1185.818, 4364.000
1186.902, 4383.000
1187.986, 4332.000
1189.069, 4228.000
1190.153, 4231.000
1191.236, 4241.000
1192.319, 4220.000
1193.402, 4216.205
1194.485, 4126.000
1195.567, 4172.000
1196.650, 4168.000
1197.732, 4115.000
1198.814, 4160.000
1199.896, 4167.000
1200.978, 4104.000
1202.060, 4057.000
1203.142, 4088.000
1204.223, 4030.000
1205.304, 4110.000
1206.386, 4082.000
1207.467, 4080.000
1208.547, 4030.000
1209.628, 3985.000
1210.709, 4052.000
1211.789, 4126.000
1212.869, 4018.000
1213.950, 4002.000
1215.030, 3974.000
1216.109, 4072.000
1217.189, 4040.000
1218.269, 4028.000
1219.348, 3955.000
1220.427, 4039.000
1221.506, 3967.000
1222.585, 3990.000
1223.664, 4037.000
1224.743, 3969.000
1225.821, 4008.000
1226.899, 4004.000
1227.978, 4010.000
1229.056, 3981.000
1230.134, 3958.000
1231.211, 3980.000
1232.289, 3982.000
1233.366, 4051.000
1234.444, 4007.000
1235.521, 4061.000
1236.598, 4015.000
1237.675, 4043.000
1238.751, 3968.000
1239.828, 4044.000
1240.904, 4025.000
1241.981, 4045.000
1243.057, 4052.000
1244.133, 4037.261
1245.209, 4019.000
1246.284, 4012.000
1247.360, 4023.000
1248.435, 4005.000
1249.510, 3997.000
1250.585, 3990.000
1251.660, 4051.000
1252.735, 3995.000
1253.810, 4077.000
1254.884, 4005.000
1255.959, 4020.000
1257.033, 4004.000
1258.107, 4038.000
1259.181, 3990.000
1260.255, 4039.000
1261.328, 3967.000
1262.402, 4039.000
1263.475, 4016.000
1264.548, 4020.000
1265.621, 4013.000
1266.694, 4040.000
1267.767, 4035.000
1268.840, 4033.000
1269.912, 4012.000
1270.984, 4002.000
1272.056, 4036.000
1273.129, 4094.000
1274.200, 4066.000
1275.272, 4024.000
1276.344, 3996.000
1277.415, 4084.000
1278.486, 4043.000
1279.558, 4033.000
1280.629, 4092.000
1281.699, 4048.000
1282.770, 4039.000
1283.841, 4064.000
1284.911, 3997.000
1285.981, 3969.000
1287.051, 4020.000
1288.121, 4111.000
1289.191, 4062.000
1290.261, 4027.000
1291.330, 4009.000
1292.400, 3999.000
1293.469, 4025.000
1294.538, 3982.000
1295.607, 4044.000
1296.676, 4080.000
1297.745, 3978.000
1298.813, 3978.000
1299.881, 4004.000
1300.950, 4003.000
1302.018, 4022.848
1303.086, 4069.000
1304.154, 4046.000
1305.221, 4062.000
1306.289, 4047.000
1307.356, 4041.000
1308.423, 3988.000
1309.490, 4042.000
1310.557, 4061.000
1311.624, 4013.000
1312.691, 4063.000
1313.757, 3997.000
1314.823, 4003.000
