##NAMES=Augite
##RRUFFID=R070231
##IDEAL CHEMISTRY=(Ca,Mg,Fe^2+^,Fe^3+^)_2_(Si,Al)_2_O_6_
##LOCALITY=Old Goose Creek Quarry, Leesburg, Loudoun County, Virginia, USA
##OWNER=RRUFF
##SOURCE=Michael Scott
##DESCRIPTION=Very dark grey-green prismatic crystals frozen in quartz
##STATUS=The identification of this mineral is confirmed by single-crystal X-ray diffraction and chemical analysis.
##URL=rruff.info/R070231
##MEASURED CHEMISTRY=(Mg_0.44_Fe_0.37_Ca_0.17_Ti_0.01_Mn_0.01_)_Σ=1_(Si_0.98_Al_0.02_)_Σ=1_O_3_
##PIN_ID=M00062
##ORIENTATION=Laser parallel to -c* (0 0 -1). Fiducial mark perpendicular to laser is parallel to a [1 0 0]
136.2500, 21002.00
137.4850, 21179.00
138.7200, 21560.00
139.9550, 21793.00
141.1900, 21880.00
142.4250, 21898.00
143.6600, 22175.00
144.8940, 22104.00
146.1280, 22236.38
147.3620, 22384.00
148.5960, 22384.00
149.8300, 22218.00
151.0630, 22281.00
152.2960, 22440.00
153.5300, 22270.00
154.7620, 22633.00
155.9950, 22322.00
157.2280, 22821.00
158.4600, 22877.00
159.6920, 23023.00
160.9250, 22854.00
162.1560, 23168.00
163.3880, 23351.00
164.6200, 23626.00
165.8510, 23367.00
167.0820, 23212.00
168.3130, 23282.00
169.5440, 23270.00
170.7750, 23481.00
172.0050, 23176.00
173.2350, 23425.00
174.4650, 23379.00
175.6950, 23356.00
176.9250, 23626.00
178.1550, 23640.00
179.3840, 23768.00
180.6130, 23811.00
181.8420, 24075.00
183.0710, 24070.00
184.3000, 24479.00
185.5280, 24527.00
186.7570, 24531.08
187.9850, 23988.00
189.2130, 24412.00
190.4400, 24197.00
191.6680, 24051.00
192.8960, 24337.00
194.1230, 24267.00
195.3500, 24358.00
196.5770, 24355.00
197.8030, 24548.00
199.0300, 24543.00
200.2560, 24518.00
201.4830, 24594.00
202.7090, 24416.00
203.9340, 24303.00
205.1600, 24284.00
206.3860, 24139.00
207.6110, 24248.00
208.8360, 24240.00
210.0610, 24189.00
211.2860, 24123.00
212.5100, 24290.00
213.7350, 24116.00
214.9590, 24378.00
216.1830, 24072.00
217.4070, 24211.00
218.6310, 24268.00
219.8540, 24345.00
221.0780, 24632.00
222.3010, 24333.00
223.5240, 24809.00
224.7470, 24380.00
225.9690, 24780.00
227.1920, 24594.00
228.4140, 24729.00
229.6360, 24863.00
230.8580, 24886.00
232.0800, 24960.00
233.3020, 24976.00
234.5230, 24959.00
235.7440, 24838.00
236.9650, 24927.00
238.1860, 24821.00
239.4070, 25048.00
240.6280, 24875.00
241.8480, 24897.00
243.0680, 24770.00
244.2880, 24956.00
245.5080, 25109.00
246.7280, 25387.00
247.9470, 25345.00
249.1660, 25430.00
250.3860, 25605.00
251.6040, 25643.00
252.8230, 25629.00
254.0420, 25713.00
255.2600, 25805.00
256.4790, 25526.00
257.6970, 25724.00
258.9150, 25531.42
260.1320, 25989.00
261.3500, 25313.00
262.5670, 25414.00
263.7840, 25408.00
265.0010, 25036.00
266.2180, 25329.00
267.4350, 25208.00
268.6510, 25256.00
269.8680, 24931.00
271.0840, 25144.00
272.3000, 25060.00
273.5160, 24852.00
274.7310, 24892.00
275.9470, 24936.00
277.1620, 25082.00
278.3770, 25066.00
279.5920, 25140.00
280.8070, 25043.00
282.0210, 25107.00
283.2360, 25171.00
284.4500, 25399.00
285.6640, 25279.00
286.8780, 25439.00
288.0920, 25381.00
289.3050, 25666.00
290.5180, 25442.00
291.7320, 25558.00
292.9450, 25626.00
294.1570, 25610.00
295.3700, 25684.00
296.5830, 25592.00
297.7950, 25564.00
299.0070, 25774.00
300.2190, 25659.00
301.4310, 25767.00
302.6420, 25954.00
303.8540, 25922.00
305.0650, 26330.00
306.2760, 26290.00
307.4870, 26437.00
308.6980, 26350.00
309.9080, 26503.00
311.1190, 26779.00
312.3290, 26967.00
313.5390, 27092.85
314.7490, 27083.00
315.9580, 27278.00
317.1680, 27425.00
318.3770, 27422.92
319.5860, 27172.00
320.7950, 27321.00
322.0040, 27111.00
323.2130, 27040.00
324.4210, 27139.00
325.6290, 27159.00
326.8380, 26914.00
328.0460, 26913.00
329.2530, 26776.00
330.4610, 26850.00
331.6680, 26592.00
332.8760, 26612.00
334.0830, 26708.00
335.2890, 26906.00
336.4960, 26645.00
337.7030, 26603.00
338.9090, 26623.00
340.1150, 26564.00
341.3210, 26564.00
342.5270, 26538.00
343.7330, 26653.00
344.9380, 26665.00
346.1440, 26534.00
347.3490, 26656.00
348.5540, 26842.00
349.7590, 26619.00
350.9630, 26691.00
352.1680, 26706.00
353.3720, 26649.00
354.5760, 26653.00
355.7800, 26646.00
356.9840, 26611.00
358.1870, 26409.00
359.3910, 26688.00
360.5940, 26529.00
361.7970, 26430.00
363.0000, 26576.00
364.2030, 26611.00
365.4050, 26694.00
366.6080, 26545.00
367.8100, 26715.00
369.0120, 26767.00
370.2140, 27046.00
371.4150, 26713.00
372.6170, 26933.00
373.8180, 26982.00
375.0190, 27050.00
376.2200, 27189.00
377.4210, 27245.00
378.6220, 27427.00
379.8220, 27361.00
381.0230, 27585.00
382.2230, 27442.00
383.4230, 27605.00
384.6220, 27628.53
385.8220, 27634.00
387.0220, 27616.00
388.2210, 27595.00
389.4200, 27405.00
390.6190, 27465.00
391.8180, 27222.00
393.0160, 27151.00
394.2150, 27066.00
395.4130, 27120.00
396.6110, 26981.13
397.8090, 26784.00
399.0060, 26837.00
400.2040, 26633.00
401.4010, 26667.00
402.5980, 26638.00
403.7950, 26584.00
404.9920, 26634.00
406.1890, 26588.00
407.3860, 26644.00
408.5820, 26734.00
409.7780, 26818.00
410.9740, 26862.70
412.1700, 26773.00
413.3650, 26967.00
414.5610, 26985.00
415.7560, 27052.00
416.9510, 27192.00
418.1460, 27316.00
419.3410, 27333.00
420.5360, 27335.00
421.7300, 27194.00
422.9240, 27603.00
424.1180, 27401.00
425.3120, 27612.00
426.5060, 27293.00
427.7000, 27572.00
428.8930, 27461.00
430.0860, 27399.00
431.2790, 27270.00
432.4720, 27240.00
433.6650, 27307.00
434.8580, 27068.00
436.0500, 27646.00
437.2420, 27088.00
438.4340, 27283.00
439.6260, 26985.00
440.8180, 27233.00
442.0090, 27236.00
443.2010, 27479.00
444.3920, 27505.72
445.5830, 27406.00
446.7740, 27527.00
447.9640, 27442.00
449.1550, 27330.00
450.3450, 27227.00
451.5350, 27479.00
452.7250, 27591.00
453.9150, 27663.00
455.1050, 27689.00
456.2940, 27784.00
457.4830, 27867.00
458.6720, 28238.00
459.8610, 28165.00
461.0500, 28332.00
462.2390, 28130.00
463.4270, 28388.00
464.6150, 28632.00
465.8040, 28702.00
466.9910, 28791.00
468.1790, 28987.00
469.3670, 28665.00
470.5540, 28790.00
471.7410, 28683.00
472.9280, 28962.00
474.1150, 28519.00
475.3020, 28562.00
476.4890, 28638.00
477.6750, 28495.00
478.8610, 28376.00
480.0470, 28380.00
481.2330, 28490.00
482.4190, 28589.00
483.6040, 28437.00
484.7900, 28647.00
485.9750, 28599.00
487.1600, 28657.00
488.3450, 28449.00
489.5290, 28629.00
490.7140, 28828.00
491.8980, 28758.00
493.0820, 28961.00
494.2660, 28834.00
495.4500, 28938.00
496.6340, 29079.00
497.8170, 28953.00
499.0010, 29151.00
500.1840, 29187.00
501.3670, 29216.00
502.5500, 29332.00
503.7320, 29292.00
504.9150, 29419.26
506.0970, 29476.00
507.2790, 29668.00
508.4610, 29639.00
509.6430, 29857.00
510.8250, 29670.00
512.0060, 29967.00
513.1870, 29916.00
514.3680, 29975.00
515.5490, 29881.00
516.7300, 29973.00
517.9110, 30342.00
519.0910, 30460.00
520.2710, 30451.00
521.4510, 30475.00
522.6310, 30583.54
523.8110, 30723.00
524.9910, 30774.00
526.1700, 30886.00
527.3490, 30991.00
528.5280, 31059.00
529.7070, 31164.34
530.8860, 31143.00
532.0650, 31332.00
533.2430, 31373.00
534.4210, 31429.00
535.5990, 31581.00
536.7770, 31504.00
537.9550, 31443.00
539.1320, 31827.00
540.3100, 31667.00
541.4870, 31818.00
542.6640, 31919.00
543.8410, 31742.00
545.0170, 31715.00
546.1940, 31896.00
547.3700, 31909.00
548.5470, 31794.00
549.7230, 31901.00
550.8980, 31676.00
552.0740, 31812.00
553.2500, 31665.00
554.4250, 31637.00
555.6000, 31645.00
556.7750, 31872.00
557.9500, 31592.00
559.1250, 31915.00
560.2990, 31908.00
561.4730, 31534.00
562.6480, 31504.00
563.8220, 31783.00
564.9950, 31462.00
566.1690, 31639.00
567.3430, 31748.00
568.5160, 31231.00
569.6890, 31199.00
570.8620, 31483.00
572.0350, 31481.00
573.2070, 31301.00
574.3800, 31596.00
575.5520, 31503.00
576.7240, 31315.00
577.8960, 31537.00
579.0680, 31654.00
580.2400, 31472.00
581.4110, 31507.00
582.5830, 31743.00
583.7540, 31548.00
584.9250, 31694.00
586.0950, 31589.00
587.2660, 32053.00
588.4370, 31966.00
589.6070, 32096.00
590.7770, 32203.00
591.9470, 32214.00
593.1170, 32499.00
594.2860, 32788.00
595.4560, 32718.00
596.6250, 32714.00
597.7940, 33154.00
598.9630, 33032.00
600.1320, 32959.00
601.3000, 33563.00
602.4690, 33261.00
603.6370, 33561.00
604.8050, 33463.00
605.9730, 33623.00
607.1410, 33673.00
608.3090, 33606.00
609.4760, 33714.00
610.6430, 33910.00
611.8100, 33872.00
612.9770, 33889.00
614.1440, 33748.00
615.3110, 33591.00
616.4770, 33566.00
617.6430, 33488.00
618.8090, 33593.00
619.9750, 33693.00
621.1410, 33603.00
622.3070, 33563.00
623.4720, 33519.00
624.6370, 33697.00
625.8020, 33874.00
626.9670, 33273.00
628.1320, 33399.00
629.2970, 33558.00
630.4610, 33484.00
631.6250, 33546.00
632.7890, 33337.00
633.9530, 33575.00
635.1170, 33714.00
636.2810, 33431.00
637.4440, 33256.00
638.6070, 33492.00
639.7700, 33166.00
640.9330, 33575.00
642.0960, 33441.00
643.2590, 33338.00
644.4210, 33563.00
645.5830, 33492.00
646.7450, 33647.00
647.9070, 33591.00
649.0690, 33964.00
650.2310, 33642.00
651.3920, 33684.00
652.5530, 33964.00
653.7140, 33888.00
654.8750, 33845.00
656.0360, 34318.00
657.1970, 34476.00
658.3570, 34249.00
659.5170, 34731.00
660.6770, 34914.00
661.8370, 34894.00
662.9970, 35138.00
664.1570, 35041.00
665.3160, 35303.00
666.4750, 35202.00
667.6340, 35065.00
668.7930, 34935.00
669.9520, 34789.45
671.1110, 34823.00
672.2690, 34544.00
673.4270, 34389.00
674.5850, 34409.00
675.7430, 34392.00
676.9010, 33984.00
678.0590, 33646.00
679.2160, 33630.00
680.3730, 33529.00
681.5300, 33369.00
682.6870, 33553.00
683.8440, 33093.00
685.0010, 33304.00
686.1570, 33275.00
687.3130, 33090.00
688.4690, 33006.00
689.6250, 33163.00
690.7810, 32879.00
691.9370, 32935.00
693.0920, 32950.00
694.2470, 32754.00
695.4020, 32883.00
696.5570, 32823.00
697.7120, 32790.00
698.8670, 32613.00
700.0210, 32750.00
701.1750, 32456.00
702.3290, 32621.00
703.4830, 32661.00
704.6370, 32778.00
705.7910, 32536.00
706.9440, 32710.00
708.0970, 32775.00
709.2510, 32704.00
710.4030, 32838.00
711.5560, 32694.00
712.7090, 32719.00
713.8610, 32857.00
715.0140, 32680.00
716.1660, 32641.00
717.3180, 32787.00
718.4690, 32791.00
719.6210, 33053.00
720.7730, 32744.00
721.9240, 32747.00
723.0750, 32993.00
724.2260, 32793.00
725.3770, 32740.00
726.5270, 33097.00
727.6780, 32625.00
728.8280, 32914.00
729.9780, 32979.00
731.1280, 32835.00
732.2780, 32734.00
733.4280, 32912.00
734.5770, 33032.00
735.7260, 33096.00
736.8760, 33202.00
738.0250, 32866.00
739.1730, 33031.00
740.3220, 33001.00
741.4700, 32963.00
742.6190, 33019.00
743.7670, 33060.00
744.9150, 33027.00
746.0630, 33348.00
747.2100, 33116.00
748.3580, 33263.00
749.5050, 33325.00
750.6520, 33181.00
751.7990, 33206.00
752.9460, 33095.00
754.0930, 33171.00
755.2390, 33423.00
756.3860, 33162.00
757.5320, 33360.00
758.6780, 33005.00
759.8240, 33015.00
760.9690, 33211.00
762.1150, 33346.00
763.2600, 33124.00
764.4060, 33328.00
765.5510, 33351.00
766.6950, 33494.00
767.8400, 33258.00
768.9850, 33400.00
770.1290, 33509.00
771.2730, 33673.00
772.4170, 33658.62
773.5610, 33556.00
774.7050, 33507.00
775.8480, 33618.00
776.9920, 33317.00
778.1350, 33482.00
779.2780, 33366.00
780.4210, 33431.00
781.5640, 33313.00
782.7060, 33585.00
783.8490, 33758.00
784.9910, 33526.00
786.1330, 33596.00
787.2750, 33474.00
788.4170, 33623.00
789.5580, 33792.00
790.7000, 33719.00
791.8410, 33440.00
792.9820, 33663.00
794.1230, 33310.00
795.2640, 33790.00
796.4040, 33576.00
797.5450, 33663.00
798.6850, 33950.00
799.8250, 33577.00
800.9650, 33704.00
802.1050, 33697.00
803.2450, 34007.00
804.3840, 34132.00
805.5230, 33977.00
806.6630, 34088.87
807.8020, 33852.00
808.9400, 33989.00
810.0790, 33981.00
811.2170, 33957.00
812.3560, 33906.00
813.4940, 34066.00
814.6320, 34208.00
815.7700, 34105.00
816.9070, 34036.00
818.0450, 34303.00
819.1820, 34133.00
820.3190, 34329.00
821.4560, 34327.00
822.5930, 34477.00
823.7300, 34342.00
824.8670, 34162.00
826.0030, 34706.00
827.1390, 34531.00
828.2750, 34719.00
829.4110, 34506.00
830.5470, 34707.00
831.6820, 34510.00
832.8180, 34851.00
833.9530, 34854.00
835.0880, 34824.00
836.2230, 34758.00
837.3580, 34812.00
838.4920, 34832.59
839.6270, 34878.00
840.7610, 35070.00
841.8950, 35062.00
843.0290, 35409.00
844.1630, 35251.00
845.2960, 35178.00
846.4300, 35554.00
847.5630, 35592.00
848.6960, 35816.00
849.8290, 35822.00
850.9620, 35776.00
852.0940, 36272.00
853.2270, 36212.00
854.3590, 36302.00
855.4910, 36279.00
856.6230, 36671.00
857.7550, 36761.00
858.8870, 36465.00
860.0180, 36661.00
861.1500, 36332.00
862.2810, 36673.00
863.4120, 36825.00
864.5430, 36954.00
865.6730, 36843.00
866.8040, 37070.00
867.9340, 36935.00
869.0640, 36897.00
870.1940, 37060.00
871.3240, 36982.00
872.4540, 36782.00
873.5830, 37038.00
874.7130, 37264.00
875.8420, 36920.00
876.9710, 37074.00
878.1000, 37010.00
879.2290, 36966.00
880.3570, 37077.00
881.4860, 36985.00
882.6140, 36920.00
883.7420, 37014.00
884.8700, 36917.05
885.9980, 36961.91
887.1250, 36798.00
888.2530, 36949.00
889.3800, 36792.00
890.5070, 36653.00
891.6340, 36620.00
892.7610, 36994.00
893.8880, 37149.00
895.0140, 36946.00
896.1400, 37149.38
897.2670, 37077.04
898.3930, 37133.00
899.5180, 37061.00
900.6440, 36994.00
901.7700, 37054.00
902.8950, 37138.00
904.0200, 37020.00
905.1450, 37118.87
906.2700, 37030.00
907.3950, 37216.00
908.5190, 37275.00
909.6440, 37388.00
910.7680, 37583.00
911.8920, 37029.00
913.0160, 37625.00
914.1400, 37278.00
915.2630, 37487.00
916.3870, 37576.00
917.5100, 37313.00
918.6330, 37199.00
919.7560, 37559.00
920.8790, 37599.00
922.0010, 37289.00
923.1240, 37450.00
924.2460, 37279.00
925.3680, 37508.00
926.4900, 37471.00
927.6120, 37516.00
928.7340, 37690.00
929.8550, 37601.00
930.9760, 37706.00
932.0980, 37534.00
933.2190, 37886.00
934.3390, 37816.00
935.4600, 37554.00
936.5810, 37753.00
937.7010, 38010.00
938.8210, 38073.00
939.9410, 37904.00
941.0610, 37998.00
942.1810, 38047.00
943.3010, 37846.00
944.4200, 37922.00
945.5390, 38242.00
946.6580, 38156.00
947.7770, 38417.00
948.8960, 38086.00
950.0150, 38332.00
951.1330, 38430.00
952.2510, 38416.00
953.3690, 38390.00
954.4870, 38341.00
955.6050, 38401.00
956.7230, 38372.00
957.8400, 38445.00
958.9580, 38555.00
960.0750, 38769.00
961.1920, 38817.00
962.3090, 38934.00
963.4250, 38912.00
964.5420, 38707.00
965.6580, 38747.00
966.7740, 38781.00
967.8900, 38956.00
969.0060, 38731.00
970.1220, 39105.00
971.2380, 39134.00
972.3530, 38911.00
973.4680, 39112.00
974.5830, 39164.00
975.6980, 38923.00
976.8130, 39455.00
977.9280, 39333.00
979.0420, 39223.00
980.1560, 39415.00
981.2710, 39328.00
982.3850, 39664.00
983.4980, 39465.00
984.6120, 39452.00
985.7260, 39671.00
986.8390, 40017.00
987.9520, 40028.00
989.0650, 40003.00
990.1780, 40121.00
991.2910, 40333.00
992.4030, 40390.16
993.5160, 40495.98
994.6280, 40597.00
995.7400, 40666.00
996.8520, 40642.00
997.9640, 40799.00
999.0750, 40817.00
1000.187, 41165.00
1001.298, 41417.00
1002.409, 41383.00
1003.520, 41933.00
1004.631, 42242.00
1005.741, 42612.00
1006.852, 42987.00
1007.962, 43663.00
1009.072, 43971.00
1010.182, 44240.00
1011.292, 44269.00
1012.402, 44338.00
1013.511, 44118.00
1014.621, 43597.00
1015.730, 43230.00
1016.839, 42529.00
1017.948, 42313.00
1019.056, 41905.00
1020.165, 41897.00
1021.273, 41692.00
1022.382, 41543.00
1023.490, 41388.00
1024.598, 41306.00
1025.706, 41573.00
1026.813, 41346.00
1027.921, 41546.00
1029.028, 41379.00
1030.135, 41406.00
1031.242, 41255.00
1032.349, 41525.00
1033.456, 41271.00
1034.562, 41275.00
1035.668, 41491.00
1036.775, 41336.00
1037.881, 41270.00
1038.987, 41475.00
1040.092, 41602.00
1041.198, 41715.00
1042.303, 41535.00
1043.408, 41472.00
1044.514, 41439.00
1045.618, 41630.00
1046.723, 41428.00
1047.828, 41543.00
1048.932, 41725.00
1050.037, 41441.00
1051.141, 41915.00
1052.245, 41666.00
1053.349, 41804.00
1054.452, 42052.00
1055.556, 42102.00
1056.659, 41822.00
1057.762, 41796.00
1058.865, 41770.00
1059.968, 41974.00
1061.071, 42152.00
1062.174, 42266.00
1063.276, 42124.00
1064.378, 42174.00
1065.480, 42654.00
1066.582, 42417.00
1067.684, 42550.00
1068.786, 42332.00
1069.887, 42408.00
1070.988, 42289.00
1072.090, 42569.00
1073.191, 42481.00
1074.291, 42457.00
1075.392, 42593.00
1076.493, 42603.00
1077.593, 43031.00
1078.693, 42772.00
1079.793, 42859.00
1080.893, 42563.00
1081.993, 42794.00
1083.092, 42760.00
1084.192, 42927.00
1085.291, 42798.00
1086.390, 43018.00
1087.489, 43051.00
1088.588, 43041.00
1089.686, 43202.00
1090.785, 43162.00
1091.883, 43273.04
1092.981, 43269.00
1094.079, 43454.00
1095.177, 43308.91
1096.275, 43452.19
1097.373, 43543.20
1098.470, 43584.75
1099.567, 43428.74
1100.664, 43527.83
1101.761, 43524.70
1102.858, 43517.36
1103.954, 43652.33
1105.051, 43525.06
1106.147, 43657.78
1107.243, 43686.70
1108.339, 43763.13
1109.435, 43736.70
1110.531, 43742.03
1111.626, 43850.24
1112.722, 43901.50
1113.817, 43863.20
1114.912, 43942.62
1116.007, 43811.71
1117.101, 43865.35
1118.196, 43998.65
1119.290, 43965.50
1120.385, 44046.80
1121.479, 44084.51
1122.573, 43924.15
1123.666, 44108.21
1124.760, 44143.34
1125.853, 44025.49
1126.947, 44197.78
1128.040, 44101.02
1129.133, 44100.28
1130.226, 44171.81
1131.318, 44167.98
1132.411, 44282.95
1133.503, 44283.48
1134.596, 44273.80
1135.688, 44308.71
1136.780, 44217.21
1137.871, 44360.21
1138.963, 44319.00
1140.054, 44406.00
1141.146, 44303.00
1142.237, 44357.00
1143.328, 44493.00
1144.419, 44575.00
1145.509, 44388.00
1146.600, 44615.00
1147.690, 44474.00
1148.780, 44750.00
1149.870, 44779.00
1150.960, 44857.00
1152.050, 45005.80
1153.139, 44742.00
1154.229, 45091.00
1155.318, 44981.00
1156.407, 44761.00
1157.496, 44933.00
1158.585, 44883.00
1159.674, 45138.00
1160.762, 44830.00
1161.850, 45175.00
1162.939, 44855.00
1164.027, 45030.00
1165.114, 45026.00
1166.202, 45506.00
1167.290, 45327.00
1168.377, 45498.00
1169.464, 45249.00
1170.551, 45402.00
1171.638, 45233.00
1172.725, 45389.00
1173.812, 45652.00
1174.898, 45406.00
1175.984, 45373.00
1177.071, 45548.00
1178.157, 45655.00
1179.242, 45926.00
1180.328, 45931.81
1181.414, 45639.00
1182.499, 46032.00
1183.584, 45735.00
1184.669, 45839.00
1185.754, 45759.00
1186.839, 45716.00
1187.924, 45816.00
1189.008, 45863.00
1190.092, 45927.00
1191.177, 45866.00
1192.260, 45818.00
1193.344, 45808.87
1194.428, 46123.00
1195.512, 45880.00
1196.595, 45774.00
1197.678, 46125.00
1198.761, 46121.00
1199.844, 46128.00
1200.927, 46301.00
1202.009, 46189.00
1203.092, 46378.00
1204.174, 46606.00
1205.256, 46510.00
1206.338, 46515.00
1207.420, 46396.00
1208.502, 46393.00
1209.583, 46365.00
1210.665, 46407.46
1211.746, 46488.00
1212.827, 46497.00
1213.908, 46603.96
1214.988, 46605.09
1216.069, 46749.00
1217.149, 46624.00
1218.230, 46575.00
1219.310, 46566.00
1220.390, 46870.00
1221.470, 46942.00
1222.549, 47048.00
1223.629, 47118.93
1224.708, 47176.78
1225.787, 47229.96
1226.866, 47261.00
1227.945, 47241.57
1229.024, 47243.52
1230.103, 47222.03
1231.181, 47140.00
1232.259, 47150.00
1233.337, 47143.00
1234.415, 47086.00
1235.493, 47108.05
1236.571, 47074.99
1237.648, 47113.00
1238.726, 47099.00
1239.803, 47104.00
1240.880, 47244.00
1241.957, 47124.00
1243.034, 47382.00
1244.110, 47210.00
1245.187, 47185.00
1246.263, 47050.00
1247.339, 47690.00
1248.415, 47462.00
1249.491, 47425.00
1250.566, 47471.00
1251.642, 47359.00
1252.717, 47572.00
1253.793, 47299.00
1254.868, 47708.00
1255.943, 47634.00
1257.017, 47806.00
1258.092, 47816.00
1259.166, 47682.00
1260.241, 47674.00
1261.315, 47985.00
1262.389, 47879.00
1263.462, 48138.00
1264.536, 47954.00
1265.610, 47901.00
1266.683, 48088.00
1267.756, 48281.00
1268.829, 47927.00
1269.902, 47968.00
1270.975, 48180.00
1272.048, 48029.00
1273.120, 47975.00
1274.192, 48518.00
1275.264, 48739.00
1276.336, 48601.00
1277.408, 48662.00
##END=



