##NAMES=Augite
##RRUFFID=R070231
##IDEAL CHEMISTRY=(Ca,Mg,Fe^2+^,Fe^3+^)_2_(Si,Al)_2_O_6_
##LOCALITY=Old Goose Creek Quarry, Leesburg, Loudoun County, Virginia, USA
##OWNER=RRUFF
##SOURCE=Michael Scott
##DESCRIPTION=Very dark grey-green prismatic crystals frozen in quartz
##STATUS=The identification of this mineral is confirmed by single-crystal X-ray diffraction and chemical analysis.
##URL=rruff.info/R070231
##MEASURED CHEMISTRY=(Mg_0.44_Fe_0.37_Ca_0.17_Ti_0.01_Mn_0.01_)_Σ=1_(Si_0.98_Al_0.02_)_Σ=1_O_3_
##PIN_ID=M00357
##ORIENTATION=Laser parallel to b* (0 1 0). Fiducial mark perpendicular to laser is parallel to c [0 0 1]
112.7420, 11264.00
113.9810, 11839.00
115.2200, 12807.00
116.4580, 13691.00
117.6970, 14189.00
118.9350, 15067.00
120.1730, 15450.00
121.4100, 16255.00
122.6480, 16994.00
123.8850, 17453.16
125.1230, 17930.52
126.3600, 18431.00
127.5960, 18477.00
128.8330, 18742.00
130.0700, 18816.00
131.3060, 18239.00
132.5420, 17580.00
133.7780, 16505.00
135.0140, 15859.00
136.2500, 15126.00
137.4850, 14517.00
138.7200, 13989.00
139.9550, 13611.74
141.1900, 13323.49
142.4250, 13164.00
143.6600, 12958.00
144.8940, 12966.00
146.1280, 12766.00
147.3620, 12817.00
148.5960, 12871.00
149.8300, 12726.00
151.0630, 12383.00
152.2960, 12349.00
153.5300, 12003.00
154.7620, 11542.00
155.9950, 11337.00
157.2280, 10789.00
158.4600, 10511.00
159.6920, 10394.00
160.9250, 10163.00
162.1560, 10186.00
163.3880, 10305.00
164.6200, 10447.00
165.8510, 10483.00
167.0820, 10368.00
168.3130, 10426.00
169.5440, 10528.00
170.7750, 10681.00
172.0050, 10823.00
173.2350, 10830.00
174.4650, 10907.00
175.6950, 10796.00
176.9250, 10765.00
178.1550, 10988.00
179.3840, 10847.00
180.6130, 10955.00
181.8420, 10751.00
183.0710, 10664.00
184.3000, 10932.00
185.5280, 10886.00
186.7570, 10846.00
187.9850, 10772.00
189.2130, 10840.00
190.4400, 10712.00
191.6680, 10849.00
192.8960, 10736.00
194.1230, 10788.00
195.3500, 11028.00
196.5770, 10991.00
197.8030, 10963.00
199.0300, 11062.00
200.2560, 11265.00
201.4830, 11493.00
202.7090, 11637.00
203.9340, 11406.00
205.1600, 11091.00
206.3860, 10881.00
207.6110, 10961.00
208.8360, 10952.00
210.0610, 11091.00
211.2860, 11312.00
212.5100, 11653.00
213.7350, 11740.00
214.9590, 11796.00
216.1830, 11879.00
217.4070, 11884.00
218.6310, 12022.00
219.8540, 12029.00
221.0780, 12103.00
222.3010, 12029.00
223.5240, 12059.00
224.7470, 11925.00
225.9690, 11767.00
227.1920, 11614.00
228.4140, 11384.00
229.6360, 11346.00
230.8580, 11038.00
232.0800, 10973.00
233.3020, 10737.00
234.5230, 10594.00
235.7440, 10337.00
236.9650, 10323.00
238.1860, 10325.00
239.4070, 10096.00
240.6280, 9883.000
241.8480, 9941.000
243.0680, 9807.000
244.2880, 9781.000
245.5080, 9602.000
246.7280, 9603.000
247.9470, 9369.000
249.1660, 9372.000
250.3860, 9329.074
251.6040, 9268.000
252.8230, 9209.197
254.0420, 9279.340
255.2600, 9309.832
256.4790, 9302.771
257.6970, 9145.770
258.9150, 9182.408
260.1320, 9141.461
261.3500, 9097.314
262.5670, 9161.224
263.7840, 9026.050
265.0010, 9088.245
266.2180, 9071.654
267.4350, 9091.122
268.6510, 9032.524
269.8680, 8998.027
271.0840, 8915.000
272.3000, 8925.000
273.5160, 8964.000
274.7310, 8918.000
275.9470, 8999.000
277.1620, 9053.000
278.3770, 9036.000
279.5920, 9121.000
280.8070, 9125.000
282.0210, 9062.000
283.2360, 9069.000
284.4500, 9204.000
285.6640, 9384.000
286.8780, 9461.000
288.0920, 9367.000
289.3050, 9742.000
290.5180, 9770.000
291.7320, 9806.000
292.9450, 10173.00
294.1570, 10021.00
295.3700, 10270.00
296.5830, 10422.00
297.7950, 10575.00
299.0070, 11028.00
300.2190, 11216.00
301.4310, 11618.00
302.6420, 11952.00
303.8540, 12173.00
305.0650, 12508.00
306.2760, 12847.00
307.4870, 13549.00
308.6980, 13945.00
309.9080, 14506.00
311.1190, 15280.00
312.3290, 15906.00
313.5390, 16441.00
314.7490, 16862.00
315.9580, 17510.00
317.1680, 17702.00
318.3770, 18036.00
319.5860, 18189.00
320.7950, 18214.00
322.0040, 18029.00
323.2130, 17876.00
324.4210, 17473.00
325.6290, 17132.00
326.8380, 16795.00
328.0460, 16411.00
329.2530, 16077.00
330.4610, 15778.00
331.6680, 15486.00
332.8760, 15441.00
334.0830, 15271.00
335.2890, 14937.00
336.4960, 15139.00
337.7030, 15165.00
338.9090, 15448.00
340.1150, 15323.00
341.3210, 15456.00
342.5270, 15495.00
343.7330, 15568.00
344.9380, 15637.00
346.1440, 15831.00
347.3490, 15835.00
348.5540, 15799.00
349.7590, 15854.00
350.9630, 15796.00
352.1680, 15781.00
353.3720, 15676.00
354.5760, 15351.00
355.7800, 15110.00
356.9840, 14928.00
358.1870, 14646.00
359.3910, 14444.00
360.5940, 14306.00
361.7970, 14012.00
363.0000, 13872.00
364.2030, 13768.00
365.4050, 13675.00
366.6080, 13707.00
367.8100, 13758.00
369.0120, 13922.00
370.2140, 14107.00
371.4150, 14207.00
372.6170, 14469.00
373.8180, 15020.00
375.0190, 15376.00
376.2200, 16032.00
377.4210, 16669.00
378.6220, 17018.00
379.8220, 17829.00
381.0230, 18315.00
382.2230, 18832.00
383.4230, 19081.00
384.6220, 19127.00
385.8220, 19245.00
387.0220, 19087.00
388.2210, 18711.00
389.4200, 18145.00
390.6190, 17366.00
391.8180, 16524.00
393.0160, 15568.00
394.2150, 14844.00
395.4130, 13902.00
396.6110, 12882.00
397.8090, 12369.00
399.0060, 11557.00
400.2040, 11069.00
401.4010, 10304.00
402.5980, 9949.000
403.7950, 9408.000
404.9920, 9220.000
406.1890, 8809.000
407.3860, 8652.000
408.5820, 8466.000
409.7780, 8321.000
410.9740, 8447.000
412.1700, 8045.000
413.3650, 8056.000
414.5610, 7990.000
415.7560, 7775.000
416.9510, 7863.000
418.1460, 7835.000
419.3410, 7806.000
420.5360, 7718.000
421.7300, 7646.000
422.9240, 7648.000
424.1180, 7614.000
425.3120, 7573.121
426.5060, 7511.000
427.7000, 7536.000
428.8930, 7505.000
430.0860, 7557.000
431.2790, 7374.000
432.4720, 7405.000
433.6650, 7310.000
434.8580, 7247.000
436.0500, 7215.510
437.2420, 7248.000
438.4340, 7099.000
439.6260, 7154.000
440.8180, 7085.000
442.0090, 7089.000
443.2010, 7066.000
444.3920, 7101.000
445.5830, 7051.000
446.7740, 6939.000
447.9640, 7182.000
449.1550, 6969.000
450.3450, 7096.000
451.5350, 7017.000
452.7250, 7074.000
453.9150, 7007.000
455.1050, 6989.000
456.2940, 7064.000
457.4830, 7033.000
458.6720, 7048.000
459.8610, 6987.000
461.0500, 7031.000
462.2390, 7076.000
463.4270, 6912.000
464.6150, 6911.000
465.8040, 6956.000
466.9910, 6856.000
468.1790, 6902.000
469.3670, 6967.000
470.5540, 6869.000
471.7410, 6791.000
472.9280, 6858.000
474.1150, 6800.000
475.3020, 6870.000
476.4890, 6871.000
477.6750, 6772.000
478.8610, 6822.000
480.0470, 6918.000
481.2330, 6842.000
482.4190, 6922.000
483.6040, 6959.000
484.7900, 6917.000
485.9750, 6908.000
487.1600, 7035.000
488.3450, 7042.000
489.5290, 6989.000
490.7140, 7097.000
491.8980, 7099.000
493.0820, 7189.000
494.2660, 7264.000
495.4500, 7352.000
496.6340, 7429.000
497.8170, 7584.000
499.0010, 7659.000
500.1840, 7683.000
501.3670, 7968.000
502.5500, 7998.000
503.7320, 7980.000
504.9150, 8186.000
506.0970, 8182.000
507.2790, 8140.000
508.4610, 8149.000
509.6430, 8255.000
510.8250, 8314.000
512.0060, 8398.000
513.1870, 8399.000
514.3680, 8459.000
515.5490, 8526.000
516.7300, 8688.000
517.9110, 8762.000
519.0910, 8876.000
520.2710, 8896.000
521.4510, 9216.000
522.6310, 9143.000
523.8110, 9343.000
524.9910, 9441.000
526.1700, 9548.000
527.3490, 9661.000
528.5280, 9830.000
529.7070, 9890.000
530.8860, 9920.000
532.0650, 9851.000
533.2430, 9968.000
534.4210, 9730.000
535.5990, 9771.000
536.7770, 9585.000
537.9550, 9636.000
539.1320, 9588.000
540.3100, 9462.000
541.4870, 9241.000
542.6640, 9240.000
543.8410, 9243.000
545.0170, 9180.000
546.1940, 9224.000
547.3700, 9212.000
548.5470, 9317.000
549.7230, 9247.000
550.8980, 9324.000
552.0740, 9402.000
553.2500, 9545.000
554.4250, 9444.000
555.6000, 9488.000
556.7750, 9325.000
557.9500, 9096.000
559.1250, 9000.000
560.2990, 8910.000
561.4730, 8655.000
562.6480, 8603.000
563.8220, 8561.000
564.9950, 8399.000
566.1690, 8275.000
567.3430, 8142.000
568.5160, 8012.000
569.6890, 8050.000
570.8620, 7932.000
572.0350, 7750.000
573.2070, 7808.000
574.3800, 7594.000
575.5520, 7603.000
576.7240, 7384.000
577.8960, 7407.000
579.0680, 7335.000
580.2400, 7175.000
581.4110, 7101.000
582.5830, 7110.000
583.7540, 6959.000
584.9250, 6907.000
586.0950, 6802.000
587.2660, 6740.000
588.4370, 6632.000
589.6070, 6574.000
590.7770, 6547.000
591.9470, 6453.000
593.1170, 6477.000
594.2860, 6561.000
595.4560, 6452.000
596.6250, 6515.000
597.7940, 6479.000
598.9630, 6455.000
600.1320, 6526.000
601.3000, 6532.000
602.4690, 6598.000
603.6370, 6654.409
604.8050, 6672.000
605.9730, 6770.000
607.1410, 6844.000
608.3090, 6879.000
609.4760, 6914.000
610.6430, 7042.000
611.8100, 7098.000
612.9770, 7238.000
614.1440, 7291.000
615.3110, 7446.000
616.4770, 7564.000
617.6430, 7524.000
618.8090, 7752.000
619.9750, 7817.000
621.1410, 8019.000
622.3070, 8110.000
623.4720, 8220.000
624.6370, 8410.000
625.8020, 8585.000
626.9670, 8750.887
628.1320, 8919.000
629.2970, 9147.000
630.4610, 9373.000
631.6250, 9635.000
632.7890, 9877.000
633.9530, 10196.00
635.1170, 10575.00
636.2810, 11044.00
637.4440, 11374.00
638.6070, 11976.00
639.7700, 12717.00
640.9330, 13234.00
642.0960, 13993.00
643.2590, 15061.00
644.4210, 15856.00
645.5830, 17022.00
646.7450, 18058.00
647.9070, 19388.00
649.0690, 21117.00
650.2310, 22850.00
651.3920, 24801.00
652.5530, 26875.00
653.7140, 29671.00
654.8750, 32617.00
656.0360, 35823.00
657.1970, 39477.00
658.3570, 42913.00
659.5170, 45877.00
660.6770, 48737.00
661.8370, 50889.00
662.9970, 51854.00
664.1570, 51790.00
665.3160, 50672.00
666.4750, 48200.00
667.6340, 44871.00
668.7930, 41192.00
669.9520, 37381.00
671.1110, 33430.00
672.2690, 30271.00
673.4270, 26754.00
674.5850, 24088.00
675.7430, 21381.00
676.9010, 19606.00
678.0590, 17636.00
679.2160, 16051.00
680.3730, 15002.00
681.5300, 13769.00
682.6870, 13063.00
683.8440, 12354.00
685.0010, 11565.00
686.1570, 11144.00
687.3130, 10695.00
688.4690, 10263.00
689.6250, 9932.000
690.7810, 9721.000
691.9370, 9408.000
693.0920, 9303.000
694.2470, 9054.000
695.4020, 9015.000
696.5570, 8788.000
697.7120, 8699.000
698.8670, 8474.000
700.0210, 8415.000
701.1750, 8443.000
702.3290, 8276.000
703.4830, 8223.000
704.6370, 8187.000
705.7910, 8084.000
706.9440, 8066.000
708.0970, 7999.154
709.2510, 7967.000
710.4030, 7893.000
711.5560, 7861.000
712.7090, 7810.000
713.8610, 7721.000
715.0140, 7748.000
716.1660, 7671.000
717.3180, 7661.000
718.4690, 7672.000
719.6210, 7567.000
720.7730, 7537.000
721.9240, 7508.000
723.0750, 7445.000
724.2260, 7447.532
725.3770, 7523.000
726.5270, 7491.000
727.6780, 7363.000
728.8280, 7492.000
729.9780, 7342.000
731.1280, 7399.000
732.2780, 7405.000
733.4280, 7243.000
734.5770, 7343.000
735.7260, 7309.000
736.8760, 7284.000
738.0250, 7284.000
739.1730, 7360.000
740.3220, 7302.000
741.4700, 7343.000
742.6190, 7307.000
743.7670, 7255.000
744.9150, 7119.000
746.0630, 7111.000
747.2100, 7178.000
748.3580, 7016.000
749.5050, 7086.000
750.6520, 7014.000
751.7990, 7077.000
752.9460, 7108.000
754.0930, 7139.000
755.2390, 7168.726
756.3860, 7180.833
757.5320, 7164.000
758.6780, 7188.000
759.8240, 7181.029
760.9690, 7159.000
762.1150, 7185.000
763.2600, 7200.000
764.4060, 7187.000
765.5510, 7211.782
766.6950, 7254.000
767.8400, 7250.000
768.9850, 7267.000
770.1290, 7317.000
771.2730, 7259.000
772.4170, 7248.000
773.5610, 7232.000
774.7050, 7298.000
775.8480, 7327.000
776.9920, 7397.000
778.1350, 7248.000
779.2780, 7308.000
780.4210, 7210.000
781.5640, 7147.000
782.7060, 7189.000
783.8490, 7295.000
784.9910, 7236.000
786.1330, 7229.000
787.2750, 7200.000
788.4170, 7177.024
789.5580, 7229.000
790.7000, 7144.000
791.8410, 7194.000
792.9820, 7180.000
794.1230, 7231.000
795.2640, 7194.000
796.4040, 7265.000
797.5450, 7261.222
798.6850, 7177.000
799.8250, 7301.000
800.9650, 7292.000
802.1050, 7348.000
803.2450, 7336.000
804.3840, 7342.000
805.5230, 7354.000
806.6630, 7440.000
807.8020, 7389.000
808.9400, 7477.000
810.0790, 7482.000
811.2170, 7599.000
812.3560, 7659.000
813.4940, 7708.000
814.6320, 7765.742
815.7700, 7752.000
816.9070, 7803.000
818.0450, 7824.000
819.1820, 7774.000
820.3190, 7886.000
821.4560, 7861.000
822.5930, 7946.000
823.7300, 7945.000
824.8670, 8117.000
826.0030, 8033.000
827.1390, 8021.000
828.2750, 8126.000
829.4110, 8047.000
830.5470, 8118.000
831.6820, 8077.000
832.8180, 8101.000
833.9530, 8070.000
835.0880, 8073.000
836.2230, 8104.000
837.3580, 8157.000
838.4920, 8091.000
839.6270, 8087.000
840.7610, 8119.000
841.8950, 8176.000
843.0290, 8232.290
844.1630, 8353.000
845.2960, 8441.000
846.4300, 8723.000
847.5630, 8946.000
848.6960, 9053.000
849.8290, 9434.000
850.9620, 9717.000
852.0940, 10171.00
853.2270, 10465.00
854.3590, 10785.00
855.4910, 11078.00
856.6230, 11198.00
857.7550, 11268.00
858.8870, 11265.00
860.0180, 11200.38
861.1500, 11166.00
862.2810, 10893.00
863.4120, 10615.00
864.5430, 10327.00
865.6730, 10199.00
866.8040, 10072.00
867.9340, 9810.000
869.0640, 9661.000
870.1940, 9612.000
871.3240, 9364.000
872.4540, 9327.000
873.5830, 9246.000
874.7130, 9301.000
875.8420, 9351.000
876.9710, 9169.000
878.1000, 9245.000
879.2290, 9245.000
880.3570, 9227.000
881.4860, 9298.000
882.6140, 9182.000
883.7420, 9359.000
884.8700, 9341.000
885.9980, 9241.000
887.1250, 9340.000
888.2530, 9430.000
889.3800, 9449.000
890.5070, 9488.604
891.6340, 9361.000
892.7610, 9471.000
893.8880, 9492.000
895.0140, 9430.000
896.1400, 9529.000
897.2670, 9462.000
898.3930, 9489.000
899.5180, 9598.000
900.6440, 9519.000
901.7700, 9537.000
902.8950, 9625.000
904.0200, 9777.000
905.1450, 9751.000
906.2700, 9773.000
907.3950, 9928.000
908.5190, 9906.000
909.6440, 10003.00
910.7680, 10089.00
911.8920, 10156.00
913.0160, 10303.00
914.1400, 10399.00
915.2630, 10470.99
916.3870, 10520.57
917.5100, 10569.00
918.6330, 10606.00
919.7560, 10561.00
920.8790, 10705.00
922.0010, 10557.08
923.1240, 10530.00
924.2460, 10385.00
925.3680, 10358.00
926.4900, 10418.00
927.6120, 10314.00
928.7340, 10230.00
929.8550, 10225.00
930.9760, 10165.00
932.0980, 9981.000
933.2190, 9965.000
934.3390, 9798.000
935.4600, 9937.000
936.5810, 9783.000
937.7010, 9699.000
938.8210, 9650.000
939.9410, 9799.000
941.0610, 9671.000
942.1810, 9680.000
943.3010, 9722.000
944.4200, 9610.000
945.5390, 9647.000
946.6580, 9763.000
947.7770, 9874.000
948.8960, 9875.000
950.0150, 9916.000
951.1330, 10058.00
952.2510, 10065.00
953.3690, 10182.00
954.4870, 10175.00
955.6050, 10109.00
956.7230, 10080.00
957.8400, 10376.00
958.9580, 10753.00
960.0750, 10356.00
961.1920, 10102.00
962.3090, 10335.00
963.4250, 10535.00
964.5420, 10576.00
965.6580, 10580.00
966.7740, 10669.00
967.8900, 10845.00
969.0060, 10973.00
970.1220, 11126.00
971.2380, 11317.00
972.3530, 11584.79
973.4680, 11800.00
974.5830, 12222.00
975.6980, 12514.00
976.8130, 12891.00
977.9280, 13472.00
979.0420, 13965.00
980.1560, 14649.00
981.2710, 15394.00
982.3850, 16405.00
983.4980, 17379.00
984.6120, 18181.00
985.7260, 19438.00
986.8390, 20278.00
987.9520, 21429.00
989.0650, 22097.00
990.1780, 22469.00
991.2910, 22685.00
992.4030, 22954.00
993.5160, 23010.00
994.6280, 22800.00
995.7400, 22881.00
996.8520, 23157.00
997.9640, 23627.00
999.0750, 23995.00
1000.187, 24858.00
1001.298, 26217.00
1002.409, 27635.00
1003.520, 29689.00
1004.631, 31842.00
1005.741, 34501.00
1006.852, 36785.00
1007.962, 39105.00
1009.072, 41016.00
1010.182, 42337.00
1011.292, 42520.00
1012.402, 41700.00
1013.511, 39988.00
1014.621, 37116.00
1015.730, 33786.00
1016.839, 30562.00
1017.948, 27229.00
1019.056, 24460.00
1020.165, 22357.00
1021.273, 20530.28
1022.382, 19115.00
1023.490, 18199.00
1024.598, 17339.00
1025.706, 16668.00
1026.813, 16046.00
1027.921, 15872.00
1029.028, 15498.00
1030.135, 15357.00
1031.242, 15015.00
1032.349, 15015.00
1033.456, 15027.00
1034.562, 14755.00
1035.668, 14856.00
1036.775, 14566.00
1037.881, 14613.00
1038.987, 14476.00
1040.092, 14305.00
1041.198, 14183.00
1042.303, 14000.00
1043.408, 13739.00
1044.514, 13482.00
1045.618, 13280.00
1046.723, 13097.00
1047.828, 12673.00
1048.932, 12301.00
1050.037, 12180.00
1051.141, 11945.00
1052.245, 11848.00
1053.349, 11570.00
1054.452, 11474.00
1055.556, 11140.00
1056.659, 11030.00
1057.762, 10843.00
1058.865, 10528.00
1059.968, 10485.00
1061.071, 10259.00
1062.174, 10181.00
1063.276, 9962.000
1064.378, 9886.000
1065.480, 9686.000
1066.582, 9472.000
1067.684, 9303.000
1068.786, 9196.661
1069.887, 9086.041
1070.988, 9033.000
1072.090, 8971.000
1073.191, 8886.000
1074.291, 8859.000
1075.392, 8769.938
1076.493, 8721.680
1077.593, 8632.000
1078.693, 8615.000
1079.793, 8580.147
1080.893, 8533.771
1081.993, 8484.000
1083.092, 8417.000
1084.192, 8293.000
1085.291, 8245.000
1086.390, 8276.000
1087.489, 8215.000
1088.588, 8072.000
1089.686, 8124.000
1090.785, 8129.000
1091.883, 8021.000
1092.981, 8052.000
1094.079, 8072.000
1095.177, 7971.000
1096.275, 7978.906
1097.373, 7900.000
1098.470, 7881.000
1099.567, 7797.000
1100.664, 7715.000
1101.761, 7743.000
1102.858, 7724.000
1103.954, 7751.630
1105.051, 7827.812
1106.147, 7785.827
1107.243, 7530.901
1108.339, 7586.096
1109.435, 7601.620
1110.531, 7579.613
1111.626, 7407.678
1112.722, 7429.349
1113.817, 7373.453
1114.912, 7314.374
1116.007, 7363.334
1117.101, 7213.242
1118.196, 7260.485
1119.290, 7228.977
1120.385, 7233.495
1121.479, 7159.964
1122.573, 7110.549
1123.666, 7139.273
1124.760, 7124.717
1125.853, 7042.229
1126.947, 7049.071
1128.040, 6896.283
1129.133, 6883.600
1130.226, 6931.371
1131.318, 6852.839
1132.411, 6861.141
1133.503, 6836.391
1134.596, 6661.268
1135.688, 6747.639
1136.780, 6747.000
1137.871, 6625.000
1138.963, 6681.000
1140.054, 6499.000
1141.146, 6513.000
1142.237, 6483.000
1143.328, 6406.000
1144.419, 6334.000
1145.509, 6358.000
1146.600, 6365.000
1147.690, 6332.000
1148.780, 6265.000
1149.870, 6347.000
1150.960, 6192.000
1152.050, 6243.000
1153.139, 6284.000
1154.229, 6093.000
1155.318, 6209.000
1156.407, 6156.000
1157.496, 6112.000
1158.585, 6144.000
1159.674, 6089.000
1160.762, 6187.000
1161.850, 6036.000
1162.939, 6126.000
1164.027, 6083.000
1165.114, 6013.000
1166.202, 6166.000
1167.290, 6005.000
1168.377, 5960.000
1169.464, 6142.000
1170.551, 6108.000
1171.638, 5975.000
1172.725, 6091.000
1173.812, 6026.000
1174.898, 6071.000
1175.984, 6052.000
1177.071, 6066.000
1178.157, 6027.000
1179.242, 6053.000
1180.328, 5971.000
1181.414, 6081.000
1182.499, 5988.000
1183.584, 6005.000
1184.669, 6057.000
1185.754, 6022.000
1186.839, 5957.000
1187.924, 5927.000
1189.008, 6086.000
1190.092, 5953.000
1191.177, 5976.000
1192.260, 5988.000
1193.344, 5926.000
1194.428, 5991.000
1195.512, 5983.000
1196.595, 6103.000
1197.678, 6061.000
1198.761, 6010.000
1199.844, 6071.000
1200.927, 5993.000
1202.009, 5997.000
1203.092, 6084.000
1204.174, 6024.000
1205.256, 5977.000
1206.338, 6095.000
1207.420, 6110.000
1208.502, 6051.000
1209.583, 6096.000
1210.665, 6026.000
1211.746, 6065.000
1212.827, 6165.000
1213.908, 6044.000
1214.988, 6090.000
1216.069, 6061.000
1217.149, 6018.000
1218.230, 6004.000
1219.310, 6008.000
1220.390, 6014.411
1221.470, 6108.000
1222.549, 6038.000
1223.629, 6077.000
1224.708, 6032.000
1225.787, 6075.000
1226.866, 6145.000
1227.945, 6127.000
1229.024, 6101.000
1230.103, 6114.000
1231.181, 6120.000
1232.259, 5959.000
1233.337, 6138.000
1234.415, 5977.000
1235.493, 5953.000
1236.571, 6038.000
1237.648, 6042.000
1238.726, 6092.000
1239.803, 6077.000
1240.880, 6120.000
1241.957, 6078.000
1243.034, 6103.000
1244.110, 6086.000
1245.187, 6053.000
1246.263, 6110.000
1247.339, 6076.000
1248.415, 6145.000
1249.491, 6076.000
1250.566, 6064.000
1251.642, 6058.000
1252.717, 6055.000
1253.793, 6067.000
1254.868, 6061.758
1255.943, 6075.000
1257.017, 6064.000
1258.092, 6047.000
1259.166, 6047.000
1260.241, 6017.000
1261.315, 6116.000
1262.389, 6032.000
1263.462, 6057.000
1264.536, 6150.000
1265.610, 6123.000
1266.683, 6111.000
1267.756, 6109.000
1268.829, 6167.000
1269.902, 6042.000
1270.975, 6084.000
1272.048, 6022.000
1273.120, 6057.000
1274.192, 6065.000
1275.264, 6020.000
1276.336, 6051.000
1277.408, 6097.000
1278.480, 6056.000
1279.551, 6013.000
1280.623, 6009.000
1281.694, 6201.000
1282.765, 6071.000
1283.836, 6100.000
1284.907, 6096.000
1285.977, 6033.000
