##NAMES=Augite
##RRUFFID=R061108
##IDEAL CHEMISTRY=(Ca,Mg,Fe^2+^,Fe^3+^)_2_(Si,Al)_2_O_6_
##LOCALITY=Monti Rossi, near Mt. Etna, Sicily, Italy
##OWNER=RRUFF
##SOURCE=Michael Scott
##DESCRIPTION=Euhedral, short prismatic, black crystals in vesicular basalt.
##STATUS=The identification of this mineral is confirmed by single-crystal X-ray diffraction and chemical analysis.
##URL=rruff.info/R061108
##MEASURED CHEMISTRY=(Ca_0.86_Mg_0.74_Fe^2+^_0.18_Fe^3+^_0.08_Al_0.05_Ti_0.04_Na_0.04_Mn_0.01_)_Σ=2_(Si_1.83_Al_0.17_)_Σ=2_O_6_
##PIN_ID=L01364
##ORIENTATION=Laser parallel to b* (0 1 0). Fiducial mark perpendicular to laser is parallel to c [0 0 1]
161.1070, 12224.00
162.3340, 12260.00
163.5600, 12552.00
164.7860, 12738.00
166.0120, 12825.00
167.2380, 12912.00
168.4640, 13015.00
169.6890, 13350.00
170.9150, 13263.00
172.1400, 13412.00
173.3650, 13314.00
174.5900, 13457.00
175.8150, 13507.00
177.0400, 13558.00
178.2640, 13731.00
179.4880, 13627.00
180.7130, 13558.00
181.9370, 13483.00
183.1600, 13217.00
184.3840, 13394.00
185.6080, 13242.00
186.8310, 13095.00
188.0540, 13214.00
189.2770, 13150.00
190.5000, 13151.00
191.7230, 13156.00
192.9460, 13191.13
194.1680, 13246.91
195.3910, 13326.00
196.6130, 13328.00
197.8350, 13411.00
199.0570, 13306.00
200.2780, 13355.00
201.5000, 13479.00
202.7210, 13305.00
203.9420, 13093.00
205.1640, 12867.00
206.3840, 12577.00
207.6050, 12385.00
208.8260, 12371.00
210.0460, 12302.00
211.2670, 12341.00
212.4870, 12393.00
213.7070, 12448.00
214.9270, 12538.00
216.1460, 12547.00
217.3660, 12512.00
218.5850, 12656.00
219.8050, 12800.00
221.0240, 12989.00
222.2430, 13060.00
223.4610, 13302.00
224.6800, 13258.00
225.8980, 13567.00
227.1170, 13663.00
228.3350, 13749.00
229.5530, 13897.00
230.7710, 14047.00
231.9880, 14180.08
233.2060, 14300.00
234.4230, 14419.00
235.6400, 14566.00
236.8570, 14543.00
238.0740, 14655.00
239.2910, 14594.00
240.5080, 14801.00
241.7240, 14881.00
242.9400, 14994.00
244.1570, 15102.00
245.3730, 15163.00
246.5880, 15186.00
247.8040, 15292.00
249.0190, 15385.00
250.2350, 15352.00
251.4500, 15318.00
252.6650, 15362.00
253.8800, 15712.00
255.0950, 15433.00
256.3090, 15055.00
257.5240, 15162.00
258.7380, 15423.00
259.9520, 15003.44
261.1660, 15318.00
262.3800, 14443.00
263.5930, 14312.00
264.8070, 13989.00
266.0200, 13964.00
267.2330, 13815.00
268.4460, 13600.00
269.6590, 13794.00
270.8720, 13697.00
272.0850, 13863.00
273.2970, 13640.00
274.5090, 13849.00
275.7210, 13859.00
276.9330, 13893.00
278.1450, 13907.00
279.3570, 13921.00
280.5680, 14020.00
281.7790, 14082.00
282.9910, 14220.00
284.2020, 14321.00
285.4120, 14343.00
286.6230, 14541.00
287.8340, 14578.00
289.0440, 14799.00
290.2540, 15093.00
291.4640, 15177.00
292.6740, 15378.00
293.8840, 15479.00
295.0940, 15857.00
296.3030, 15973.00
297.5120, 16201.00
298.7210, 16534.00
299.9300, 16984.00
301.1390, 17438.00
302.3480, 17903.00
303.5560, 18194.00
304.7650, 18786.00
305.9730, 19234.00
307.1810, 19803.00
308.3890, 20624.00
309.5970, 21105.00
310.8040, 21934.00
312.0120, 22619.00
313.2190, 23767.00
314.4260, 24628.00
315.6330, 25372.00
316.8400, 26179.00
318.0460, 26986.00
319.2530, 27769.00
320.4590, 28503.00
321.6650, 29040.00
322.8710, 29284.00
324.0770, 29734.00
325.2830, 29434.00
326.4880, 29572.00
327.6940, 29360.00
328.8990, 28889.00
330.1040, 28636.00
331.3090, 28076.00
332.5140, 27676.00
333.7180, 27138.00
334.9230, 26419.00
336.1270, 26149.00
337.3310, 25594.00
338.5350, 25291.00
339.7390, 24901.00
340.9430, 24337.00
342.1460, 24109.00
343.3500, 23712.00
344.5530, 23536.00
345.7560, 23465.00
346.9590, 23252.00
348.1620, 22996.00
349.3640, 22922.00
350.5670, 22582.00
351.7690, 22265.00
352.9710, 21900.00
354.1730, 21514.81
355.3750, 21116.27
356.5760, 20657.00
357.7780, 20276.00
358.9790, 19742.00
360.1800, 19339.00
361.3810, 18853.00
362.5820, 18613.00
363.7830, 18100.35
364.9830, 17886.00
366.1840, 17225.00
367.3840, 16791.00
368.5840, 16419.00
369.7840, 16287.00
370.9840, 16064.00
372.1830, 15915.00
373.3830, 15608.00
374.5820, 15568.00
375.7810, 15270.00
376.9800, 15159.00
378.1790, 15065.00
379.3780, 15094.00
380.5760, 14969.00
381.7750, 14750.00
382.9730, 14792.00
384.1710, 14699.00
385.3690, 14772.00
386.5660, 14476.00
387.7640, 14315.00
388.9610, 14258.00
390.1590, 14110.00
391.3560, 13988.00
392.5530, 13775.00
393.7500, 13592.00
394.9460, 13613.00
396.1430, 13408.00
397.3390, 13159.00
398.5350, 13013.00
399.7310, 12682.00
400.9270, 12725.00
402.1230, 12775.00
403.3180, 12505.00
404.5140, 12350.00
405.7090, 12387.00
406.9040, 12073.00
408.0990, 12069.00
409.2930, 12030.00
410.4880, 11979.00
411.6820, 12096.00
412.8770, 12025.00
414.0710, 12006.00
415.2650, 12029.00
416.4590, 11835.00
417.6520, 11935.00
418.8460, 11911.00
420.0390, 11941.00
421.2320, 11697.00
422.4250, 11713.00
423.6180, 11679.00
424.8110, 11801.00
426.0030, 11656.00
427.1960, 11765.00
428.3880, 11763.00
429.5800, 11681.00
430.7720, 11509.00
431.9640, 11405.00
433.1550, 11397.80
434.3470, 11434.00
435.5380, 11417.00
436.7290, 11451.00
437.9200, 11466.00
439.1110, 11288.00
440.3020, 11342.00
441.4920, 11327.00
442.6820, 11237.00
443.8730, 11326.00
445.0630, 11174.00
446.2530, 11184.00
447.4420, 11103.00
448.6320, 11206.00
449.8210, 11115.00
451.0100, 11124.00
452.2000, 11105.00
453.3880, 11158.00
454.5770, 11151.00
455.7660, 11147.00
456.9540, 11092.00
458.1430, 11106.00
459.3310, 11100.00
460.5190, 11153.00
461.7070, 11160.00
462.8940, 11119.00
464.0820, 11143.00
465.2690, 11104.00
466.4560, 11188.00
467.6430, 11147.07
468.8300, 11184.00
470.0170, 11183.00
471.2040, 11069.00
472.3900, 11227.00
473.5760, 11257.00
474.7620, 11133.00
475.9480, 11152.00
477.1340, 11197.00
478.3200, 11176.00
479.5050, 11180.00
480.6900, 11284.00
481.8750, 11294.00
483.0600, 11377.26
484.2450, 11459.75
485.4300, 11578.00
486.6140, 11692.00
487.7990, 11886.00
488.9830, 12134.00
490.1670, 12213.00
491.3510, 12442.00
492.5350, 12980.00
493.7180, 13163.00
494.9020, 13508.00
496.0850, 14143.00
497.2680, 14765.00
498.4510, 15541.00
499.6340, 16133.00
500.8160, 16675.00
501.9990, 17398.00
503.1810, 17895.00
504.3630, 18070.00
505.5450, 18287.00
506.7270, 17940.00
507.9090, 17730.00
509.0900, 17504.00
510.2720, 16884.00
511.4530, 16407.00
512.6340, 15720.00
513.8150, 15277.00
514.9950, 14956.00
516.1760, 14507.00
517.3560, 14466.00
518.5370, 14073.00
519.7170, 14014.00
520.8970, 13784.00
522.0770, 13894.00
523.2560, 13795.00
524.4360, 13669.00
525.6150, 13791.00
526.7940, 13675.00
527.9730, 13655.00
529.1520, 13553.00
530.3310, 13774.00
531.5090, 13885.00
532.6870, 13620.00
533.8660, 13622.00
535.0440, 13512.00
536.2210, 13326.00
537.3990, 13562.00
538.5770, 13304.00
539.7540, 13352.00
540.9310, 13448.00
542.1080, 13301.00
543.2850, 13301.00
544.4620, 13115.00
545.6390, 13158.00
546.8150, 13178.00
547.9920, 13098.00
549.1680, 13058.00
550.3440, 13064.00
551.5190, 12969.00
552.6950, 13064.00
553.8710, 13140.00
555.0460, 13094.80
556.2210, 12913.00
557.3960, 13039.00
558.5710, 12866.00
559.7460, 12733.00
560.9200, 12898.00
562.0950, 12936.00
563.2690, 12892.00
564.4430, 12884.00
565.6170, 12885.72
566.7910, 12842.58
567.9640, 12832.00
569.1380, 12767.00
570.3110, 12648.00
571.4840, 12578.00
572.6570, 12492.00
573.8300, 12441.00
575.0030, 12332.00
576.1750, 12134.00
577.3470, 12141.00
578.5200, 12076.00
579.6920, 11858.00
580.8630, 11806.00
582.0350, 11680.00
583.2070, 11612.00
584.3780, 11361.00
585.5490, 11301.00
586.7200, 11101.00
587.8910, 11094.00
589.0620, 11123.00
590.2330, 10912.00
591.4030, 10903.00
592.5730, 10848.00
593.7430, 10705.00
594.9130, 10672.00
596.0830, 10532.00
597.2530, 10551.39
598.4220, 10491.00
599.5920, 10584.00
600.7610, 10628.00
601.9300, 10617.00
603.0990, 10672.00
604.2670, 10834.00
605.4360, 10911.00
606.6040, 11149.00
607.7720, 10891.00
608.9400, 10877.00
610.1080, 11015.00
611.2760, 11041.00
612.4440, 11100.00
613.6110, 11206.00
614.7780, 11261.00
615.9450, 11293.00
617.1120, 11390.00
618.2790, 11326.00
619.4460, 11528.00
620.6120, 11628.00
621.7780, 11834.00
622.9450, 11853.00
624.1110, 12021.00
625.2760, 12175.00
626.4420, 12271.00
627.6080, 12534.00
628.7730, 12737.00
629.9380, 13001.00
631.1030, 13259.00
632.2680, 13555.25
633.4330, 13862.00
634.5970, 14245.00
635.7620, 14646.00
636.9260, 15111.00
638.0900, 15734.00
639.2540, 16214.00
640.4180, 16995.00
641.5810, 17651.00
642.7450, 18555.00
643.9080, 19691.00
645.0710, 21139.00
646.2340, 22389.00
647.3970, 23471.00
648.5590, 25430.00
649.7220, 27417.00
650.8840, 29501.00
652.0460, 32412.00
653.2080, 35478.00
654.3700, 38705.00
655.5320, 42515.00
656.6930, 46807.00
657.8550, 51018.00
659.0160, 55053.00
660.1770, 58781.00
661.3380, 62225.00
662.4990, 64444.00
663.6590, 65346.00
664.8200, 65452.00
665.9800, 64555.00
667.1400, 62345.00
668.3000, 58645.00
669.4600, 54626.00
670.6190, 50090.00
671.7790, 45578.00
672.9380, 40981.00
674.0970, 36981.00
675.2560, 33733.00
676.4150, 30515.00
677.5740, 28081.00
678.7320, 25592.00
679.8900, 24240.00
681.0490, 22490.00
682.2070, 21221.00
683.3640, 20268.00
684.5220, 19308.00
685.6800, 18516.00
686.8370, 18040.00
687.9940, 17401.00
689.1510, 17195.00
690.3080, 16790.00
691.4650, 16517.00
692.6220, 16360.00
693.7780, 16199.00
694.9340, 16160.00
696.0900, 16103.00
697.2460, 16020.00
698.4020, 16057.00
699.5580, 16066.00
700.7130, 16231.00
701.8680, 16280.00
703.0240, 16265.00
704.1790, 16295.00
705.3330, 16297.00
706.4880, 16286.00
707.6430, 16545.00
708.7970, 16659.00
709.9510, 16593.00
711.1050, 16520.00
712.2590, 16422.00
713.4130, 16286.40
714.5660, 16188.00
715.7200, 15953.00
716.8730, 15743.00
718.0260, 15522.00
719.1790, 15007.00
720.3320, 14813.00
721.4840, 14530.00
722.6370, 14142.00
723.7890, 13975.00
724.9410, 13631.00
726.0930, 13298.00
727.2450, 13138.00
728.3960, 12870.00
729.5480, 12795.00
730.6990, 12622.00
731.8500, 12448.00
733.0010, 12345.00
734.1520, 12238.62
735.3030, 12101.00
736.4530, 12115.00
737.6040, 12091.00
738.7540, 12076.35
739.9040, 12220.00
741.0540, 12119.00
742.2030, 12159.00
743.3530, 12096.00
744.5020, 12201.00
745.6520, 12383.00
746.8010, 12519.00
747.9490, 12499.00
749.0980, 12659.00
750.2470, 12659.00
751.3950, 12673.00
752.5440, 12737.00
753.6920, 12810.69
754.8400, 12967.00
755.9870, 13022.00
757.1350, 13103.00
758.2820, 13212.00
759.4300, 13306.00
760.5770, 13291.00
761.7240, 13347.00
762.8710, 13432.00
764.0170, 13402.00
765.1640, 13573.00
766.3100, 13762.00
767.4560, 13636.00
768.6020, 13712.00
769.7480, 13872.00
770.8940, 13886.00
772.0400, 13968.37
773.1850, 13997.33
774.3300, 14019.00
775.4750, 14072.00
776.6200, 14115.25
777.7650, 14166.00
778.9090, 14209.00
780.0540, 14235.00
781.1980, 14244.00
782.3420, 14244.00
783.4860, 14176.00
784.6300, 14135.00
785.7740, 14173.00
786.9170, 14132.00
788.0600, 14255.00
789.2030, 14246.00
790.3460, 14282.00
791.4890, 14251.00
792.6320, 14284.00
793.7740, 14425.00
794.9170, 14499.00
796.0590, 14449.00
797.2010, 14357.00
798.3430, 14484.00
799.4850, 14534.00
800.6260, 14393.00
801.7670, 14572.00
802.9090, 14678.00
804.0500, 14665.00
805.1910, 14765.00
806.3310, 14795.00
807.4720, 14855.54
808.6120, 14958.00
809.7530, 14996.00
810.8930, 15150.00
812.0330, 15240.00
813.1720, 15309.00
814.3120, 15427.00
815.4510, 15410.00
816.5910, 15372.00
817.7300, 15609.00
818.8690, 15603.19
820.0080, 15727.11
821.1460, 15641.00
822.2850, 15954.00
823.4230, 15674.00
824.5610, 15763.00
825.6990, 16171.00
826.8370, 16405.00
827.9750, 15831.00
829.1120, 15803.00
830.2500, 15765.00
831.3870, 15547.00
832.5240, 15636.00
833.6610, 15653.00
834.7980, 15590.00
835.9340, 15331.00
837.0700, 15351.00
838.2070, 15279.00
839.3430, 15089.00
840.4790, 15100.00
841.6140, 14997.00
842.7500, 14980.00
843.8850, 14922.00
845.0210, 14850.00
846.1560, 15069.00
847.2910, 14897.00
848.4260, 15031.00
849.5600, 14853.00
850.6950, 14833.00
851.8290, 15019.00
852.9630, 14868.00
854.0970, 15150.00
855.2310, 14960.00
856.3650, 15117.00
857.4980, 15153.00
858.6310, 15053.00
859.7650, 15054.00
860.8980, 15099.00
862.0310, 15065.00
863.1630, 15055.00
864.2960, 15130.00
865.4280, 15070.00
866.5600, 15091.00
867.6920, 15269.00
868.8240, 15219.57
869.9560, 15153.00
871.0880, 15269.00
872.2190, 15142.00
873.3500, 15145.00
874.4810, 15187.00
875.6120, 15179.98
876.7430, 15273.72
877.8740, 15316.00
879.0040, 15456.00
880.1340, 15611.00
881.2650, 15690.00
882.3950, 15694.00
883.5240, 15967.00
884.6540, 15713.00
885.7830, 15858.00
886.9130, 15862.00
888.0420, 16112.00
889.1710, 16040.00
890.3000, 16264.00
891.4280, 16278.00
892.5570, 16334.00
893.6850, 16334.00
894.8130, 16405.00
895.9420, 16265.00
897.0690, 16587.00
898.1970, 16330.00
899.3250, 16586.00
900.4520, 16357.00
901.5790, 16436.00
902.7060, 16622.00
903.8330, 16724.00
904.9600, 16567.00
906.0870, 16836.00
907.2130, 16761.00
908.3390, 16718.00
909.4650, 16951.00
910.5910, 16765.00
911.7170, 16828.00
912.8430, 16867.00
913.9680, 16998.65
915.0930, 17029.99
916.2180, 17184.18
917.3430, 17202.00
918.4680, 17452.00
919.5930, 17680.00
920.7170, 17748.00
921.8420, 17861.00
922.9660, 17943.00
924.0900, 18009.21
925.2140, 18068.00
926.3370, 18146.00
927.4610, 18227.00
928.5840, 18316.39
929.7070, 18309.00
930.8310, 18321.00
931.9530, 18301.75
933.0760, 18570.00
934.1990, 18148.00
935.3210, 18373.00
936.4430, 18186.00
937.5650, 18139.00
938.6870, 18160.00
939.8090, 18150.00
940.9310, 18219.00
942.0520, 18198.16
943.1730, 18225.00
944.2940, 18181.00
945.4150, 18156.00
946.5360, 18123.00
947.6570, 18154.00
948.7770, 18107.00
949.8970, 18166.00
951.0180, 18123.00
952.1370, 18131.00
953.2570, 18010.00
954.3770, 18231.00
955.4960, 18174.00
956.6160, 18200.00
957.7350, 18308.00
958.8540, 18426.00
959.9730, 18459.40
961.0910, 18579.02
962.2100, 18593.00
963.3280, 18739.00
964.4460, 18864.00
965.5640, 18896.00
966.6820, 18897.00
967.8000, 19231.00
968.9180, 19201.00
970.0350, 19600.00
971.1520, 19737.00
972.2690, 20073.00
973.3860, 20153.00
974.5030, 20659.00
975.6190, 21275.00
976.7360, 21387.00
977.8520, 21638.00
978.9680, 22066.00
980.0840, 22390.00
981.2000, 23031.00
982.3160, 23624.00
983.4310, 24126.00
984.5460, 24900.00
985.6610, 25669.00
986.7760, 26714.00
987.8910, 27741.00
989.0060, 28953.89
990.1200, 29983.00
991.2350, 31710.00
992.3490, 33268.00
993.4630, 34917.00
994.5760, 37077.00
995.6900, 39530.00
996.8040, 41586.56
997.9170, 44059.00
999.0300, 46594.00
1000.143, 49320.00
1001.256, 52635.00
1002.369, 55055.00
1003.481, 58112.00
1004.594, 60538.00
1005.706, 62089.00
1006.818, 63052.00
1007.930, 63813.00
1009.042, 63475.00
1010.153, 61598.00
1011.264, 59629.00
1012.376, 56307.00
1013.487, 52255.00
1014.598, 48480.00
1015.708, 44159.00
1016.819, 40670.00
1017.929, 37018.00
1019.040, 34123.00
1020.150, 31559.00
1021.260, 29447.00
1022.370, 27426.00
1023.479, 26236.00
1024.589, 25011.00
1025.698, 23953.00
1026.807, 23376.00
1027.916, 22543.00
1029.025, 21854.00
1030.133, 21544.00
1031.242, 21138.00
1032.350, 20725.00
1033.458, 20496.00
1034.566, 20052.00
1035.674, 19788.00
1036.782, 19505.00
1037.890, 19327.00
1038.997, 19223.00
1040.104, 18881.00
1041.211, 18532.00
1042.318, 18548.00
1043.425, 18280.00
1044.531, 18138.00
1045.638, 17810.00
1046.744, 17738.00
1047.850, 17144.00
1048.956, 17134.00
1050.061, 16981.00
1051.167, 16595.00
1052.272, 16478.00
1053.378, 16361.00
1054.483, 16071.00
1055.588, 15984.00
1056.692, 15654.00
1057.797, 15613.00
1058.901, 15279.00
1060.006, 15207.00
1061.110, 15249.00
1062.214, 15028.00
1063.318, 14765.00
1064.421, 14729.00
1065.525, 14635.00
1066.628, 14427.00
1067.731, 14410.00
1068.834, 14496.00
1069.937, 14279.00
1071.040, 14320.00
1072.142, 14121.00
1073.244, 14077.00
1074.347, 13943.00
1075.449, 13887.99
1076.550, 13964.00
1077.652, 13811.00
1078.754, 13814.00
1079.855, 13777.00
1080.956, 13712.00
1082.057, 13666.00
1083.158, 13606.00
1084.259, 13509.00
1085.359, 13443.00
1086.460, 13394.33
1087.560, 13290.00
1088.660, 13264.00
1089.760, 13177.00
1090.860, 13015.00
1091.959, 13147.00
1093.059, 12958.00
1094.158, 12834.00
1095.257, 13037.00
1096.356, 12824.00
1097.455, 12804.00
1098.553, 12682.00
1099.652, 12674.00
1100.750, 12596.00
1101.848, 12496.00
1102.946, 12595.00
1104.044, 12443.00
1105.141, 12439.00
1106.239, 12326.00
1107.336, 12179.00
1108.433, 12260.00
1109.530, 12149.00
1110.627, 12009.00
1111.724, 11956.00
1112.820, 11863.00
1113.917, 11813.00
1115.013, 11772.00
1116.109, 11719.00
1117.205, 11697.00
1118.300, 11720.00
1119.396, 11785.00
1120.491, 11615.00
1121.586, 11493.00
1122.681, 11266.00
1123.776, 11450.00
1124.871, 11138.00
1125.965, 11133.00
1127.060, 11122.00
1128.154, 10829.00
1129.248, 10661.00
1130.342, 10594.00
1131.436, 10581.00
1132.529, 10292.00
1133.623, 10200.00
1134.716, 10225.00
1135.809, 10114.00
1136.902, 9976.000
1137.995, 9839.000
1139.087, 9697.000
1140.180, 9681.000
1141.272, 9777.000
1142.364, 9637.000
1143.456, 9519.000
1144.548, 9446.000
1145.639, 9309.000
1146.731, 9345.000
1147.822, 9262.000
1148.913, 9114.000
1150.004, 9152.000
1151.095, 9140.000
1152.186, 9165.000
1153.276, 8985.000
1154.366, 9132.000
1155.457, 9073.000
1156.546, 8959.000
1157.636, 9045.000
1158.726, 8933.000
1159.815, 8879.000
1160.905, 9009.000
1161.994, 8914.000
1163.083, 9050.000
1164.172, 8904.000
1165.261, 8921.000
1166.349, 8749.000
1167.437, 8923.000
1168.526, 8726.000
1169.614, 8871.000
1170.702, 8870.000
1171.789, 8723.000
1172.877, 8833.000
1173.964, 8864.000
1175.051, 8835.000
1176.138, 8614.636
1177.225, 8757.171
1178.312, 8836.180
1179.399, 8855.075
1180.485, 8633.818
1181.571, 8722.672
1182.657, 8687.248
1183.743, 8646.728
1184.829, 8779.229
1185.915, 8592.900
1187.000, 8722.660
1188.085, 8726.244
1189.171, 8787.573
1190.255, 8723.861
1191.340, 8698.769
1192.425, 8798.763
1193.509, 8829.498
1194.594, 8751.389
1195.678, 8816.394
1196.762, 8625.702
1197.846, 8659.388
1198.929, 8789.883
1200.013, 8718.062
1201.096, 8776.000
1202.179, 8696.000
1203.262, 8712.000
1204.345, 8684.000
1205.428, 8692.000
1206.510, 8686.000
1207.593, 8627.000
1208.675, 8642.000
1209.757, 8628.000
1210.839, 8645.000
1211.920, 8647.000
1213.002, 8687.000
1214.083, 8691.689
1215.164, 8610.000
1216.245, 8741.000
1217.326, 8721.000
1218.407, 8788.000
1219.488, 8731.000
1220.568, 8718.000
1221.648, 8797.000
1222.728, 8696.000
1223.808, 8722.000
1224.888, 8680.000
1225.967, 8687.000
1227.047, 8671.000
1228.126, 8748.000
1229.205, 8686.000
1230.284, 8758.000
1231.363, 8640.000
1232.441, 8845.000
1233.520, 8732.000
1234.598, 8842.000
1235.676, 8743.000
1236.754, 8776.000
1237.832, 8781.000
1238.910, 8586.000
1239.987, 8688.000
1241.064, 8693.000
1242.141, 8692.000
1243.218, 8748.000
1244.295, 8725.000
1245.372, 8735.000
1246.448, 8629.000
1247.525, 8685.000
1248.601, 8698.000
1249.677, 8842.000
1250.753, 8673.000
1251.828, 8699.000
1252.904, 8789.000
1253.979, 8710.000
1255.054, 8767.000
1256.129, 8738.000
1257.204, 8645.000
1258.279, 8709.000
1259.353, 8645.000
1260.428, 8794.000
1261.502, 8694.000
1262.576, 8844.000
1263.650, 8825.000
1264.724, 8754.000
1265.797, 8722.000
1266.871, 8739.000
1267.944, 8768.000
1269.017, 8760.000
1270.090, 8766.000
1271.162, 8767.113
1272.235, 8779.000
1273.307, 8746.000
1274.380, 8775.000
1275.452, 8743.000
1276.524, 8755.000
1277.595, 8674.000
1278.667, 8628.000
1279.738, 8709.000
1280.810, 8759.000
1281.881, 8780.000
1282.952, 8598.000
1284.022, 8699.000
1285.093, 8685.000
1286.164, 8715.000
1287.234, 8735.000
1288.304, 8766.000
1289.374, 8773.692
1290.444, 8589.000
1291.513, 8814.000
1292.583, 8714.000
1293.652, 8782.000
1294.721, 8919.000
1295.790, 8730.000
1296.859, 8704.000
1297.928, 8647.000
1298.996, 8737.000
1300.064, 8710.000
1301.133, 8622.000
1302.201, 8745.000
1303.268, 8701.000
1304.336, 8725.000
1305.404, 8775.000
1306.471, 8714.000
1307.538, 8839.000
1308.605, 8732.000
1309.672, 8818.000
1310.739, 8752.000
1311.805, 8758.000
1312.872, 8695.990
1313.938, 8842.959
1315.004, 8926.402
1316.070, 8949.732
1317.135, 8732.905
1318.201, 8826.192
1319.266, 8795.197
1320.332, 8759.109
1321.397, 8896.040
1322.462, 8714.144
1323.526, 8848.329
1324.591, 8856.342
1325.655, 8922.100
1326.720, 8862.812
