##NAMES=Augite
##RRUFFID=R061108
##IDEAL CHEMISTRY=(Ca,Mg,Fe^2+^,Fe^3+^)_2_(Si,Al)_2_O_6_
##LOCALITY=Monti Rossi, near Mt. Etna, Sicily, Italy
##OWNER=RRUFF
##SOURCE=Michael Scott
##DESCRIPTION=Euhedral, short prismatic, black crystals in vesicular basalt.
##STATUS=The identification of this mineral is confirmed by single-crystal X-ray diffraction and chemical analysis.
##URL=rruff.info/R061108
##MEASURED CHEMISTRY=(Ca_0.86_Mg_0.74_Fe^2+^_0.18_Fe^3+^_0.08_Al_0.05_Ti_0.04_Na_0.04_Mn_0.01_)_Σ=2_(Si_1.83_Al_0.17_)_Σ=2_O_6_
##PIN_ID=L01693
##ORIENTATION=Laser parallel to -c* (0 0 -1). Fiducial mark perpendicular to laser is parallel to a [1 0 0]
158.6970, 13686.00
159.9310, 13880.00
161.1660, 13882.00
162.4000, 14050.00
163.6330, 14184.00
164.8670, 14517.00
166.1000, 14683.00
167.3340, 14520.00
168.5670, 14831.00
169.8000, 15140.00
171.0320, 15419.00
172.2650, 15097.00
173.4970, 15253.00
174.7290, 15393.00
175.9610, 15579.00
177.1930, 15584.00
178.4240, 15655.00
179.6550, 15911.00
180.8870, 15858.00
182.1170, 16069.00
183.3480, 15843.00
184.5790, 16212.00
185.8090, 16186.00
187.0390, 16351.00
188.2690, 16169.00
189.4990, 16213.00
190.7290, 16332.00
191.9580, 16529.00
193.1870, 16539.00
194.4160, 16542.00
195.6450, 16767.00
196.8740, 16597.00
198.1020, 16959.00
199.3310, 17032.00
200.5590, 16960.00
201.7870, 17213.00
203.0140, 17319.00
204.2420, 17177.00
205.4690, 16987.00
206.6960, 16974.00
207.9230, 16855.00
209.1500, 17262.00
210.3760, 17274.00
211.6030, 17525.00
212.8290, 17604.00
214.0550, 17825.00
215.2810, 17809.00
216.5060, 17928.00
217.7320, 18362.00
218.9570, 18446.00
220.1820, 18313.00
221.4070, 18563.00
222.6320, 18578.00
223.8560, 18887.00
225.0800, 18748.00
226.3040, 18619.00
227.5280, 18495.00
228.7520, 18460.00
229.9760, 18463.00
231.1990, 18341.00
232.4220, 18111.00
233.6450, 18143.00
234.8680, 17960.00
236.0910, 17728.00
237.3130, 17731.00
238.5350, 17524.00
239.7570, 17321.00
240.9790, 17344.00
242.2010, 17323.00
243.4220, 17322.00
244.6430, 17302.00
245.8640, 17100.00
247.0850, 17028.00
248.3060, 17144.00
249.5270, 16927.00
250.7470, 16986.00
251.9670, 16758.00
253.1870, 16724.00
254.4070, 16568.00
255.6260, 16382.90
256.8460, 16363.72
258.0650, 16307.58
259.2840, 16216.36
260.5030, 15985.06
261.7220, 15934.66
262.9400, 15811.84
264.1580, 15686.05
265.3760, 15776.00
266.5940, 15505.00
267.8120, 15725.00
269.0290, 15710.00
270.2470, 15511.00
271.4640, 15604.00
272.6810, 15632.00
273.8980, 15474.00
275.1140, 15845.00
276.3310, 15818.00
277.5470, 15815.00
278.7630, 15864.00
279.9790, 15900.00
281.1940, 15958.00
282.4100, 16020.00
283.6250, 16259.00
284.8400, 16519.00
286.0550, 16603.00
287.2700, 16977.00
288.4850, 17105.00
289.6990, 17181.00
290.9130, 17703.00
292.1270, 17818.00
293.3410, 18155.00
294.5540, 18577.00
295.7680, 18937.00
296.9810, 19437.00
298.1940, 19782.00
299.4070, 20387.00
300.6200, 20824.00
301.8320, 21310.00
303.0450, 21932.00
304.2570, 22736.00
305.4690, 23662.00
306.6800, 24388.00
307.8920, 25150.00
309.1030, 26345.00
310.3150, 27278.00
311.5260, 28594.00
312.7360, 29525.00
313.9470, 30837.00
315.1580, 31970.00
316.3680, 33153.00
317.5780, 34118.00
318.7880, 34877.00
319.9980, 35674.00
321.2070, 36414.00
322.4170, 36776.00
323.6260, 37033.00
324.8350, 37293.00
326.0430, 36991.00
327.2520, 36805.00
328.4610, 36156.00
329.6690, 35725.00
330.8770, 34807.00
332.0850, 33727.00
333.2920, 32901.00
334.5000, 31672.00
335.7070, 30618.00
336.9140, 29833.00
338.1210, 28876.00
339.3280, 28003.00
340.5350, 27119.00
341.7410, 26355.00
342.9470, 25912.00
344.1540, 25173.00
345.3590, 24816.00
346.5650, 24150.00
347.7710, 24030.00
348.9760, 23476.00
350.1810, 23441.00
351.3860, 23047.00
352.5910, 22988.00
353.7950, 23007.00
355.0000, 22637.00
356.2040, 22619.00
357.4080, 22643.00
358.6120, 22566.00
359.8150, 22645.00
361.0190, 22606.00
362.2220, 22660.00
363.4250, 22767.00
364.6280, 22861.00
365.8310, 23416.00
367.0340, 23830.00
368.2360, 24112.00
369.4380, 24478.00
370.6400, 25235.00
371.8420, 25687.00
373.0440, 26483.00
374.2450, 27355.00
375.4470, 28295.00
376.6480, 29619.00
377.8490, 30476.00
379.0490, 32234.00
380.2500, 33771.00
381.4500, 35099.00
382.6510, 36734.00
383.8510, 38572.00
385.0500, 39721.00
386.2500, 41007.00
387.4500, 42161.00
388.6490, 42533.00
389.8480, 42821.00
391.0470, 42769.00
392.2460, 42359.00
393.4440, 41620.00
394.6430, 40270.00
395.8410, 38789.00
397.0390, 36587.00
398.2370, 34610.00
399.4340, 32379.00
400.6320, 30182.90
401.8290, 28460.00
403.0260, 26096.00
404.2230, 24359.00
405.4200, 23212.00
406.6170, 21878.00
407.8130, 20825.00
409.0090, 19771.00
410.2050, 19218.00
411.4010, 18575.00
412.5970, 18040.00
413.7920, 17551.00
414.9880, 17195.00
416.1830, 16944.00
417.3780, 16577.00
418.5730, 16606.00
419.7670, 16358.00
420.9620, 16178.00
422.1560, 15965.00
423.3500, 15904.00
424.5440, 15830.00
425.7380, 15670.00
426.9310, 15525.00
428.1240, 15368.00
429.3180, 15214.00
430.5110, 15094.00
431.7030, 14972.20
432.8960, 14878.00
434.0890, 14799.00
435.2810, 14701.00
436.4730, 14690.00
437.6650, 14519.00
438.8570, 14584.00
440.0480, 14291.00
441.2390, 14170.00
442.4310, 14070.00
443.6220, 14002.00
444.8120, 14039.00
446.0030, 13879.00
447.1940, 14055.00
448.3840, 13973.00
449.5740, 13902.00
450.7640, 13953.00
451.9540, 13955.00
453.1430, 14039.00
454.3330, 13902.00
455.5220, 13848.00
456.7110, 13865.00
457.9000, 14006.00
459.0890, 13976.44
460.2770, 14086.24
461.4650, 14050.00
462.6540, 14141.00
463.8420, 14194.00
465.0290, 13976.00
466.2170, 13955.00
467.4050, 13926.00
468.5920, 13916.00
469.7790, 13904.00
470.9660, 13916.00
472.1530, 13857.00
473.3390, 14006.00
474.5250, 14015.00
475.7120, 13874.00
476.8980, 14024.00
478.0840, 14115.00
479.2690, 13913.00
480.4550, 14027.00
481.6400, 13878.00
482.8250, 14031.00
484.0100, 13849.00
485.1950, 13883.00
486.3800, 13918.00
487.5640, 14171.00
488.7480, 14088.00
489.9320, 14173.00
491.1160, 14145.00
492.3000, 13993.00
493.4840, 14121.00
494.6670, 13978.00
495.8500, 14089.00
497.0330, 14063.00
498.2160, 14150.00
499.3990, 14117.00
500.5810, 14229.00
501.7630, 14353.00
502.9460, 14373.00
504.1280, 14375.00
505.3090, 14570.00
506.4910, 14801.00
507.6720, 14647.00
508.8540, 14920.00
510.0350, 14969.00
511.2160, 15121.00
512.3960, 15250.00
513.5770, 15381.00
514.7570, 15613.00
515.9380, 15848.00
517.1180, 16154.00
518.2970, 16192.00
519.4770, 16371.00
520.6570, 16666.00
521.8360, 16755.00
523.0150, 16766.00
524.1940, 16969.00
525.3730, 17142.00
526.5510, 17295.00
527.7300, 17447.00
528.9080, 17500.00
530.0860, 17496.58
531.2640, 17378.00
532.4420, 17358.00
533.6200, 17154.00
534.7970, 17033.00
535.9740, 16932.26
537.1510, 16863.00
538.3280, 16723.00
539.5050, 16630.00
540.6810, 16586.00
541.8580, 16408.00
543.0340, 16463.00
544.2100, 16262.09
545.3860, 16221.00
546.5610, 16034.00
547.7370, 15891.00
548.9120, 15985.00
550.0870, 15956.00
551.2620, 15896.00
552.4370, 15784.00
553.6120, 15762.00
554.7860, 15688.00
555.9600, 15646.00
557.1340, 15742.00
558.3080, 15723.00
559.4820, 15562.00
560.6560, 15557.00
561.8290, 15418.00
563.0020, 15364.00
564.1750, 15145.00
565.3480, 14992.00
566.5210, 14911.00
567.6930, 14877.00
568.8660, 14844.00
570.0380, 14667.00
571.2100, 14545.00
572.3820, 14398.00
573.5530, 14226.00
574.7250, 14012.00
575.8960, 13926.00
577.0670, 13744.00
578.2380, 13537.00
579.4090, 13268.00
580.5800, 13106.00
581.7500, 12943.00
582.9210, 12716.00
584.0910, 12495.00
585.2610, 12298.00
586.4300, 12140.00
587.6000, 12048.00
588.7690, 11698.00
589.9390, 11525.00
591.1080, 11486.00
592.2770, 11222.00
593.4450, 11171.00
594.6140, 11106.00
595.7820, 11054.00
596.9500, 11005.00
598.1190, 10919.16
599.2860, 10794.00
600.4540, 10810.00
601.6220, 10769.00
602.7890, 10847.00
603.9560, 10735.00
605.1230, 10752.00
606.2900, 10634.00
607.4570, 10695.00
608.6230, 10801.00
609.7890, 10919.00
610.9560, 10814.00
612.1220, 10897.00
613.2870, 10923.00
614.4530, 10874.00
615.6180, 10870.00
616.7840, 10900.00
617.9490, 10926.00
619.1140, 10860.00
620.2790, 11042.00
621.4430, 10952.00
622.6080, 10976.00
623.7720, 11163.00
624.9360, 11037.00
626.1000, 11204.00
627.2640, 11190.00
628.4270, 11454.00
629.5910, 11683.00
630.7540, 11538.00
631.9170, 11743.00
633.0800, 11867.00
634.2430, 11844.00
635.4050, 12141.00
636.5680, 12285.00
637.7300, 12635.00
638.8920, 12781.00
640.0540, 13061.00
641.2150, 13442.00
642.3770, 13761.00
643.5380, 14183.00
644.7000, 14538.00
645.8610, 15178.00
647.0210, 15764.00
648.1820, 16478.00
649.3430, 17274.00
650.5030, 18140.00
651.6630, 19259.00
652.8230, 20526.28
653.9830, 21978.00
655.1430, 23518.00
656.3020, 25103.00
657.4620, 26872.00
658.6210, 28259.00
659.7800, 29816.00
660.9390, 31369.00
662.0970, 32522.00
663.2560, 33430.00
664.4140, 33953.00
665.5720, 33973.00
666.7300, 33646.00
667.8880, 32371.00
669.0460, 31092.00
670.2030, 29400.00
671.3600, 27612.00
672.5180, 25744.00
673.6740, 23878.00
674.8310, 22479.00
675.9880, 20997.00
677.1440, 19744.00
678.3010, 18712.00
679.4570, 17724.00
680.6130, 16904.43
681.7690, 16252.00
682.9240, 15617.00
684.0800, 15056.00
685.2350, 14677.00
686.3900, 14296.00
687.5450, 13811.00
688.7000, 13752.00
689.8540, 13592.00
691.0090, 13239.00
692.1630, 13061.00
693.3170, 12942.00
694.4710, 12776.00
695.6250, 12663.00
696.7780, 12659.00
697.9320, 12454.00
699.0850, 12267.00
700.2380, 12330.00
701.3910, 12344.00
702.5440, 12248.00
703.6970, 12157.00
704.8490, 12040.00
706.0010, 12092.00
707.1530, 11920.00
708.3050, 11945.00
709.4570, 11857.00
710.6090, 11952.00
711.7600, 12022.00
712.9110, 11839.00
714.0620, 11830.00
715.2130, 11841.00
716.3640, 11759.00
717.5150, 11734.00
718.6650, 11689.00
719.8150, 11789.00
720.9650, 11704.00
722.1150, 11861.00
723.2650, 11582.00
724.4150, 11687.00
725.5640, 11714.00
726.7130, 11787.00
727.8630, 11837.00
729.0110, 11690.00
730.1600, 11733.00
731.3090, 11860.00
732.4570, 11824.00
733.6060, 11945.00
734.7540, 12033.00
735.9020, 12015.00
737.0490, 12171.00
738.1970, 12268.00
739.3440, 12512.00
740.4920, 12570.00
741.6390, 12735.00
742.7860, 12750.00
743.9320, 12972.00
745.0790, 13125.00
746.2250, 13262.00
747.3720, 13459.00
748.5180, 13509.00
749.6640, 13864.00
750.8100, 13894.00
751.9550, 14208.00
753.1010, 14457.00
754.2460, 14575.00
755.3910, 14774.00
756.5360, 15010.00
757.6810, 15233.00
758.8250, 15501.00
759.9700, 15723.00
761.1140, 15826.00
762.2580, 15973.00
763.4020, 16106.00
764.5460, 16459.00
765.6900, 16547.00
766.8330, 17033.00
767.9760, 16712.00
769.1200, 16770.00
770.2620, 16967.00
771.4050, 16797.00
772.5480, 16834.00
773.6900, 16881.00
774.8330, 16881.00
775.9750, 16796.00
777.1170, 16704.00
778.2590, 16749.00
779.4000, 16659.00
780.5420, 16626.00
781.6830, 16520.00
782.8240, 16394.00
783.9650, 16411.00
785.1060, 16328.00
786.2470, 16446.00
787.3870, 16333.00
788.5280, 16290.00
789.6680, 16262.00
790.8080, 16242.29
791.9480, 16276.76
793.0870, 16271.00
794.2270, 16388.00
795.3660, 16420.77
796.5060, 16497.00
797.6450, 16508.00
798.7830, 16590.00
799.9220, 16612.00
801.0610, 16686.00
802.1990, 17016.00
803.3370, 16993.00
804.4750, 17006.00
805.6130, 17253.00
806.7510, 17237.00
807.8890, 17561.00
809.0260, 17559.00
810.1630, 17772.00
811.3000, 17952.00
812.4370, 17906.00
813.5740, 18050.12
814.7110, 17909.00
815.8470, 18112.00
816.9830, 18122.00
818.1190, 18090.00
819.2550, 18087.00
820.3910, 18171.00
821.5270, 17908.00
822.6620, 17931.00
823.7970, 17899.00
824.9330, 17649.00
826.0670, 17521.00
827.2020, 17543.00
828.3370, 17394.00
829.4710, 17249.00
830.6060, 17232.00
831.7400, 17272.00
832.8740, 17087.00
834.0080, 17128.00
835.1410, 17255.00
836.2750, 16994.00
837.4080, 16874.00
838.5410, 16902.00
839.6740, 17185.00
840.8070, 17055.00
841.9400, 17116.00
843.0730, 17133.00
844.2050, 17310.00
845.3370, 17261.00
846.4690, 17563.00
847.6010, 17488.00
848.7330, 17637.00
849.8640, 17758.00
850.9960, 17921.00
852.1270, 18045.00
853.2580, 17975.00
854.3890, 18196.00
855.5200, 18106.00
856.6500, 18063.00
857.7810, 18238.00
858.9110, 18222.00
860.0410, 18141.00
861.1710, 18055.00
862.3010, 18071.00
863.4310, 18028.00
864.5600, 17968.00
865.6900, 17940.00
866.8190, 18011.00
867.9480, 17912.00
869.0770, 18062.00
870.2050, 17930.00
871.3340, 17888.00
872.4620, 17854.00
873.5900, 18103.00
874.7180, 17969.00
875.8460, 18166.00
876.9740, 18012.00
878.1010, 18186.00
879.2290, 18154.00
880.3560, 18202.00
881.4830, 18232.00
882.6100, 18367.00
883.7370, 18300.90
884.8630, 18384.00
885.9900, 18232.00
887.1160, 18324.00
888.2420, 18348.00
889.3680, 18372.00
890.4940, 18522.00
891.6200, 18370.00
892.7450, 18379.00
893.8700, 18573.00
894.9960, 18554.00
896.1210, 18584.00
897.2460, 18563.00
898.3700, 18573.00
899.4950, 18490.00
900.6190, 18579.00
901.7430, 18561.00
902.8670, 18695.00
903.9910, 18623.00
905.1150, 18654.41
906.2390, 18700.56
907.3620, 18617.00
908.4850, 18732.00
909.6080, 18674.00
910.7310, 18618.00
911.8540, 18796.00
912.9770, 18841.00
914.0990, 18827.00
915.2210, 18933.00
916.3440, 19011.00
917.4660, 19173.00
918.5870, 19258.00
919.7090, 19088.00
920.8310, 19199.00
921.9520, 19115.00
923.0730, 19260.00
924.1940, 19321.00
925.3150, 19349.00
926.4360, 19578.00
927.5560, 19375.00
928.6770, 19387.00
929.7970, 19133.00
930.9170, 19223.00
932.0370, 19275.00
933.1570, 19117.00
934.2760, 19011.00
935.3960, 19001.00
936.5150, 18874.00
937.6340, 18835.20
938.7530, 18837.00
939.8720, 18751.00
940.9910, 18653.00
942.1090, 18657.00
943.2280, 18547.76
944.3460, 18564.34
945.4640, 18414.00
946.5820, 18538.00
947.6990, 18531.00
948.8170, 18416.00
949.9340, 18454.00
951.0520, 18530.00
952.1690, 18587.00
953.2860, 18694.00
954.4030, 18825.00
955.5190, 18850.00
956.6360, 19085.00
957.7520, 19057.00
958.8680, 19158.00
959.9840, 19409.00
961.1000, 19487.00
962.2160, 19665.00
963.3310, 19701.00
964.4470, 19790.00
965.5620, 20211.00
966.6770, 20440.00
967.7920, 20579.00
968.9060, 20696.00
970.0210, 20925.00
971.1360, 21318.00
972.2500, 21388.00
973.3640, 21683.00
974.4780, 22370.00
975.5920, 22445.00
976.7050, 23043.00
977.8190, 23306.00
978.9320, 23643.00
980.0450, 24233.00
981.1580, 24780.00
982.2710, 25097.00
983.3840, 25936.00
984.4970, 26605.00
985.6090, 27228.00
986.7210, 28521.00
987.8330, 29344.00
988.9450, 30333.00
990.0570, 31755.00
991.1690, 33266.00
992.2800, 34955.00
993.3920, 36775.00
994.5030, 38795.00
995.6140, 41049.00
996.7250, 43314.00
997.8350, 45836.00
998.9460, 48318.00
1000.056, 50976.00
1001.167, 53340.00
1002.277, 55988.00
1003.387, 57929.00
1004.496, 59956.00
1005.606, 61143.00
1006.715, 61910.00
1007.825, 62169.00
1008.934, 60951.00
1010.043, 59472.00
1011.152, 57081.00
1012.260, 54478.00
1013.369, 50833.00
1014.477, 47392.00
1015.586, 43744.00
1016.694, 40127.00
1017.802, 37170.00
1018.909, 34542.00
1020.017, 31980.00
1021.124, 30288.00
1022.232, 28676.00
1023.339, 27555.00
1024.446, 26525.00
1025.553, 25706.00
1026.659, 24962.00
1027.766, 24485.00
1028.872, 24018.00
1029.979, 23685.00
1031.085, 23355.07
1032.191, 23243.00
1033.296, 22883.00
1034.402, 22800.00
1035.507, 22680.00
1036.613, 22567.00
1037.718, 22337.00
1038.823, 21940.00
1039.928, 21918.00
1041.032, 21452.00
1042.137, 21332.00
1043.241, 21034.00
1044.346, 20625.00
1045.450, 20516.00
1046.554, 19941.00
1047.657, 19697.00
1048.761, 19495.00
1049.864, 18943.00
1050.968, 18807.00
1052.071, 18263.00
1053.174, 18174.00
1054.277, 17923.00
1055.379, 17755.00
1056.482, 17235.00
1057.584, 17192.00
1058.687, 17002.00
1059.789, 16603.00
1060.891, 16659.00
1061.992, 16270.00
1063.094, 16161.00
1064.196, 15993.00
1065.297, 15884.00
1066.398, 15752.00
1067.499, 15583.00
1068.600, 15461.00
1069.701, 15354.00
1070.801, 15237.79
1071.902, 15229.00
1073.002, 15066.00
1074.102, 14997.00
1075.202, 14949.00
1076.302, 14745.00
1077.402, 14792.00
1078.501, 14913.00
1079.600, 14689.00
1080.700, 14613.00
1081.799, 14630.00
1082.898, 14290.00
1083.996, 14601.00
1085.095, 14296.00
1086.193, 14120.00
1087.292, 14396.00
1088.390, 14139.00
1089.488, 14183.00
1090.586, 14157.00
1091.683, 14108.00
1092.781, 14102.00
1093.878, 13950.00
1094.975, 13868.00
1096.073, 14058.00
1097.169, 13956.00
1098.266, 13625.00
1099.363, 13737.00
1100.459, 13847.00
1101.556, 13607.00
1102.652, 13668.00
1103.748, 13657.00
1104.844, 13554.00
1105.940, 13462.00
1107.035, 13655.00
1108.131, 13440.00
1109.226, 13403.00
1110.321, 13327.00
1111.416, 13193.00
1112.511, 13145.00
1113.605, 13221.00
1114.700, 13143.00
1115.794, 13204.00
1116.889, 13067.00
1117.983, 13102.00
1119.077, 12953.00
1120.170, 12870.00
1121.264, 12867.00
1122.357, 12660.91
1123.451, 12721.00
1124.544, 12321.00
1125.637, 12299.00
1126.730, 12142.00
1127.823, 12165.00
1128.915, 11984.86
1130.008, 11888.02
1131.100, 11672.00
1132.192, 11628.00
1133.284, 11503.00
1134.376, 11361.00
1135.467, 11410.00
1136.559, 11281.00
1137.650, 11143.00
1138.742, 11049.00
1139.833, 10953.29
1140.924, 10841.00
1142.014, 10790.00
1143.105, 10708.10
1144.195, 10692.00
1145.286, 10617.00
1146.376, 10566.00
1147.466, 10526.58
1148.556, 10516.00
1149.646, 10428.00
1150.735, 10380.00
1151.825, 10315.00
1152.914, 10223.00
1154.003, 10303.00
1155.092, 10397.00
1156.181, 10218.00
1157.270, 10218.00
1158.358, 10205.00
1159.447, 10147.00
1160.535, 10159.97
1161.623, 10146.35
1162.711, 10139.00
1163.799, 10160.00
1164.886, 10127.00
1165.974, 10146.00
1167.061, 10159.51
1168.148, 10149.21
1169.235, 10139.71
1170.322, 10145.00
1171.409, 10083.00
1172.496, 10061.00
1173.582, 10010.00
1174.669, 10005.00
1175.755, 10121.00
1176.841, 10101.00
1177.927, 10135.96
1179.012, 10122.56
1180.098, 10118.00
1181.183, 10091.00
1182.269, 9977.000
1183.354, 10048.00
1184.439, 9907.000
1185.524, 10067.00
1186.608, 10054.00
1187.693, 10024.00
1188.777, 10117.00
1189.862, 9915.000
1190.946, 10012.00
1192.030, 9886.000
1193.113, 9903.000
1194.197, 10090.00
1195.281, 10044.00
1196.364, 9882.000
1197.447, 10055.00
1198.530, 9958.000
1199.613, 9945.000
1200.696, 10088.00
1201.779, 9990.000
1202.861, 10012.00
1203.944, 9879.000
1205.026, 9819.000
1206.108, 10069.00
1207.190, 9997.000
1208.271, 10034.00
1209.353, 9926.000
1210.435, 9910.000
1211.516, 9805.000
1212.597, 9917.000
1213.678, 10076.00
1214.759, 10004.00
1215.840, 10013.00
1216.920, 10015.00
1218.001, 9926.000
1219.081, 9949.000
1220.161, 9997.000
1221.241, 9947.000
1222.321, 9825.000
1223.401, 9882.000
1224.480, 9862.000
1225.560, 9901.000
1226.639, 9954.000
1227.718, 9944.000
1228.797, 9851.000
1229.876, 9980.000
1230.955, 9932.000
1232.033, 9871.000
1233.112, 9946.000
1234.190, 10047.00
1235.268, 9936.000
1236.346, 10036.00
1237.424, 9962.000
1238.501, 9948.000
1239.579, 10046.00
1240.656, 9910.000
1241.733, 9795.000
1242.811, 9943.000
1243.888, 9839.000
1244.964, 9863.000
1246.041, 9770.000
1247.117, 9875.000
1248.194, 9885.000
1249.270, 9838.000
1250.346, 9910.000
1251.422, 9920.000
1252.498, 9869.000
1253.573, 9916.658
1254.649, 9886.000
1255.724, 9931.000
1256.800, 9851.000
1257.875, 9842.000
1258.950, 9897.000
1260.024, 9983.000
1261.099, 9918.000
1262.173, 9861.000
1263.248, 9956.000
1264.322, 9887.000
1265.396, 9808.000
1266.470, 9789.000
1267.544, 9770.630
1268.617, 9813.000
1269.691, 9799.000
1270.764, 9903.000
1271.837, 9951.000
1272.910, 9927.534
1273.983, 9902.000
1275.056, 9897.000
1276.129, 9909.000
1277.201, 9921.000
1278.273, 9883.000
1279.346, 9846.000
1280.418, 9902.000
1281.489, 9838.000
1282.561, 9817.000
1283.633, 9960.000
1284.704, 9811.000
1285.776, 9829.000
1286.847, 9797.000
1287.918, 9906.000
1288.989, 9904.000
1290.059, 9917.000
1291.130, 9821.000
1292.200, 9782.000
1293.271, 9761.000
1294.341, 9762.244
1295.411, 9766.903
1296.481, 9774.352
1297.551, 9812.000
1298.620, 9819.000
1299.690, 9842.000
1300.759, 9888.000
1301.828, 9833.000
1302.897, 9873.000
1303.966, 9965.000
1305.035, 9780.000
1306.103, 9853.000
1307.172, 9831.000
1308.240, 9769.000
1309.308, 9832.751
1310.376, 10037.00
1311.444, 9856.000
1312.512, 9921.000
1313.580, 9865.000
1314.647, 9752.000
1315.714, 9859.000
1316.781, 9877.000
1317.848, 9770.000
1318.915, 9875.000
1319.982, 9947.000
1321.049, 9797.000
1322.115, 10091.00
1323.181, 9988.378
1324.248, 10013.00
