##NAMES=Augite
##RRUFFID=R061108
##IDEAL CHEMISTRY=(Ca,Mg,Fe^2+^,Fe^3+^)_2_(Si,Al)_2_O_6_
##LOCALITY=Monti Rossi, near Mt. Etna, Sicily, Italy
##OWNER=RRUFF
##SOURCE=Michael Scott
##DESCRIPTION=Euhedral, short prismatic, black crystals in vesicular basalt.
##STATUS=The identification of this mineral is confirmed by single-crystal X-ray diffraction and chemical analysis.
##URL=rruff.info/R061108
##MEASURED CHEMISTRY=(Ca_0.86_Mg_0.74_Fe^2+^_0.18_Fe^3+^_0.08_Al_0.05_Ti_0.04_Na_0.04_Mn_0.01_)_Σ=2_(Si_1.83_Al_0.17_)_Σ=2_O_6_
##PIN_ID=L01693
##ORIENTATION=Laser parallel to -c* (0 0 -1). Fiducial mark perpendicular to laser is parallel to a [1 0 0]
215.2810, 15556.00
216.5060, 15620.00
217.7320, 15646.10
218.9570, 15812.00
220.1820, 15824.00
221.4070, 16057.00
222.6320, 16219.00
223.8560, 16145.00
225.0800, 16140.00
226.3040, 16117.00
227.5280, 16195.00
228.7520, 16219.00
229.9760, 16336.00
231.1990, 16283.00
232.4220, 16335.00
233.6450, 16348.40
234.8680, 16141.00
236.0910, 16337.00
237.3130, 16190.00
238.5350, 16130.00
239.7570, 16198.00
240.9790, 16186.00
242.2010, 16223.00
243.4220, 16086.00
244.6430, 16235.00
245.8640, 16169.93
247.0850, 16318.65
248.3060, 16403.84
249.5270, 16428.92
250.7470, 16213.84
251.9670, 16308.87
253.1870, 16279.62
254.4070, 16245.28
255.6260, 16383.95
256.8460, 16203.80
258.0650, 16339.73
259.2840, 16349.49
260.5030, 16416.99
261.7220, 16359.45
262.9400, 16340.53
264.1580, 16446.69
265.3760, 16483.59
266.5940, 16256.00
267.8120, 16172.00
269.0290, 16200.00
270.2470, 16303.00
271.4640, 16193.00
272.6810, 16371.00
273.8980, 16376.00
275.1140, 16413.00
276.3310, 16542.00
277.5470, 16650.00
278.7630, 16709.00
279.9790, 16792.00
281.1940, 16886.00
282.4100, 16771.00
283.6250, 16961.00
284.8400, 17295.00
286.0550, 17365.00
287.2700, 17751.00
288.4850, 17968.00
289.6990, 18082.00
290.9130, 18285.00
292.1270, 18502.00
293.3410, 18753.00
294.5540, 19012.99
295.7680, 19262.00
296.9810, 19605.00
298.1940, 19852.00
299.4070, 20202.00
300.6200, 20463.87
301.8320, 20797.00
303.0450, 21028.00
304.2570, 21295.00
305.4690, 21629.00
306.6800, 22028.00
307.8920, 22505.00
309.1030, 22982.00
310.3150, 23426.73
311.5260, 23959.00
312.7360, 24411.00
313.9470, 24839.00
315.1580, 25437.00
316.3680, 25708.00
317.5780, 26157.00
318.7880, 27061.00
319.9980, 27188.00
321.2070, 27515.00
322.4170, 27802.00
323.6260, 27893.00
324.8350, 28175.00
326.0430, 28263.00
327.2520, 28102.00
328.4610, 28101.00
329.6690, 27980.00
330.8770, 27598.00
332.0850, 27217.00
333.2920, 26738.00
334.5000, 26390.00
335.7070, 26086.00
336.9140, 25696.00
338.1210, 25445.36
339.3280, 25173.00
340.5350, 24935.00
341.7410, 24732.65
342.9470, 24566.90
344.1540, 24392.00
345.3590, 24354.00
346.5650, 24272.00
347.7710, 24279.00
348.9760, 24391.00
350.1810, 24309.00
351.3860, 24441.00
352.5910, 24497.00
353.7950, 24574.00
355.0000, 24440.00
356.2040, 24517.00
357.4080, 24179.00
358.6120, 24250.00
359.8150, 24190.00
361.0190, 23717.00
362.2220, 23659.00
363.4250, 23350.00
364.6280, 23155.00
365.8310, 22910.00
367.0340, 23161.00
368.2360, 22825.00
369.4380, 22681.00
370.6400, 23078.00
371.8420, 22852.00
373.0440, 23266.00
374.2450, 23467.00
375.4470, 23898.00
376.6480, 24224.00
377.8490, 24706.00
379.0490, 25362.00
380.2500, 25769.00
381.4500, 26479.00
382.6510, 27091.00
383.8510, 27630.00
385.0500, 28249.00
386.2500, 28651.00
387.4500, 28684.00
388.6490, 29106.00
389.8480, 28824.00
391.0470, 28822.00
392.2460, 28466.00
393.4440, 28064.00
394.6430, 27093.00
395.8410, 26492.00
397.0390, 25548.00
398.2370, 24630.00
399.4340, 23620.00
400.6320, 22592.00
401.8290, 21535.00
403.0260, 20626.00
404.2230, 19897.00
405.4200, 19370.00
406.6170, 18608.00
407.8130, 17892.00
409.0090, 17760.00
410.2050, 17328.00
411.4010, 16984.00
412.5970, 16893.00
413.7920, 16618.00
414.9880, 16298.00
416.1830, 16219.00
417.3780, 16070.00
418.5730, 16006.00
419.7670, 15919.00
420.9620, 15870.00
422.1560, 15803.00
423.3500, 15640.00
424.5440, 15636.97
425.7380, 15516.10
426.9310, 15531.00
428.1240, 15397.00
429.3180, 15265.00
430.5110, 15325.00
431.7030, 15324.00
432.8960, 15137.00
434.0890, 15228.00
435.2810, 15153.00
436.4730, 15209.00
437.6650, 15005.00
438.8570, 15053.00
440.0480, 14945.00
441.2390, 15066.00
442.4310, 14788.00
443.6220, 14753.00
444.8120, 14677.00
446.0030, 14793.00
447.1940, 14825.00
448.3840, 14694.00
449.5740, 14794.00
450.7640, 14875.00
451.9540, 14901.00
453.1430, 15007.00
454.3330, 15042.08
455.5220, 14987.00
456.7110, 15096.00
457.9000, 15073.00
459.0890, 15006.00
460.2770, 15247.00
461.4650, 15253.00
462.6540, 15003.00
463.8420, 15116.00
465.0290, 15154.00
466.2170, 15100.00
467.4050, 14961.00
468.5920, 15081.00
469.7790, 14840.00
470.9660, 14896.00
472.1530, 14756.00
473.3390, 14640.00
474.5250, 14787.00
475.7120, 14565.00
476.8980, 14448.00
478.0840, 14536.00
479.2690, 14573.00
480.4550, 14602.00
481.6400, 14427.00
482.8250, 14486.00
484.0100, 14529.00
485.1950, 14404.00
486.3800, 14460.00
487.5640, 14455.00
488.7480, 14380.00
489.9320, 14580.00
491.1160, 14331.00
492.3000, 14524.00
493.4840, 14680.00
494.6670, 14519.00
495.8500, 14563.00
497.0330, 14794.00
498.2160, 14863.00
499.3990, 15027.00
500.5810, 15060.00
501.7630, 15124.00
502.9460, 15408.00
504.1280, 15465.00
505.3090, 15500.00
506.4910, 15584.00
507.6720, 15809.00
508.8540, 15918.00
510.0350, 15978.51
511.2160, 16097.00
512.3960, 16043.00
513.5770, 16076.00
514.7570, 16058.00
515.9380, 16144.00
517.1180, 16121.00
518.2970, 16175.91
519.4770, 16185.46
520.6570, 16313.00
521.8360, 16156.00
523.0150, 16307.00
524.1940, 16215.00
525.3730, 16258.00
526.5510, 16397.00
527.7300, 16416.00
528.9080, 16420.00
530.0860, 16536.00
531.2640, 16428.00
532.4420, 16350.00
533.6200, 16337.00
534.7970, 16281.00
535.9740, 16450.00
537.1510, 16398.00
538.3280, 16462.00
539.5050, 16323.00
540.6810, 16394.00
541.8580, 16345.00
543.0340, 16313.00
544.2100, 16434.00
545.3860, 16582.00
546.5610, 16494.00
547.7370, 16722.00
548.9120, 17026.00
550.0870, 16785.00
551.2620, 17057.00
552.4370, 16839.00
553.6120, 17199.00
554.7860, 17347.00
555.9600, 17136.00
557.1340, 17244.00
558.3080, 17024.00
559.4820, 17008.00
560.6560, 16779.00
561.8290, 16512.00
563.0020, 16130.00
564.1750, 15956.00
565.3480, 15583.00
566.5210, 15470.00
567.6930, 15416.00
568.8660, 14968.00
570.0380, 15000.00
571.2100, 14606.00
572.3820, 14569.00
573.5530, 14433.00
574.7250, 14102.00
575.8960, 14081.00
577.0670, 13804.00
578.2380, 13618.00
579.4090, 13255.00
580.5800, 13408.00
581.7500, 12974.00
582.9210, 12942.00
584.0910, 12478.00
585.2610, 12442.00
586.4300, 12393.00
587.6000, 12255.00
588.7690, 12129.00
589.9390, 12013.00
591.1080, 11837.00
592.2770, 11816.00
593.4450, 11704.00
594.6140, 11543.00
595.7820, 11636.00
596.9500, 11671.00
598.1190, 11612.00
599.2860, 11550.00
600.4540, 11455.00
601.6220, 11559.00
602.7890, 11516.00
603.9560, 11733.00
605.1230, 11625.00
606.2900, 11726.00
607.4570, 11747.00
608.6230, 11731.00
609.7890, 11748.00
610.9560, 11812.00
612.1220, 11903.00
613.2870, 11882.00
614.4530, 11935.00
615.6180, 11986.00
616.7840, 12041.00
617.9490, 12051.00
619.1140, 12094.00
620.2790, 12247.00
621.4430, 12160.00
622.6080, 12270.00
623.7720, 12303.00
624.9360, 12461.00
626.1000, 12450.00
627.2640, 12694.00
628.4270, 12671.00
629.5910, 12890.00
630.7540, 12884.00
631.9170, 13182.00
633.0800, 13247.00
634.2430, 13377.00
635.4050, 13649.00
636.5680, 13784.00
637.7300, 13971.00
638.8920, 14382.00
640.0540, 14638.00
641.2150, 14952.00
642.3770, 15365.00
643.5380, 15871.00
644.7000, 16405.58
645.8610, 17064.26
647.0210, 17781.00
648.1820, 18625.00
649.3430, 19633.00
650.5030, 20698.00
651.6630, 21884.00
652.8230, 23566.00
653.9830, 24778.00
655.1430, 26763.00
656.3020, 28368.00
657.4620, 30474.00
658.6210, 32739.00
659.7800, 34043.00
660.9390, 35895.00
662.0970, 37244.00
663.2560, 38444.00
664.4140, 38853.00
665.5720, 39339.00
666.7300, 38690.00
667.8880, 37596.00
669.0460, 36053.00
670.2030, 33994.00
671.3600, 31786.00
672.5180, 29625.00
673.6740, 27491.00
674.8310, 25248.00
675.9880, 23678.00
677.1440, 22139.00
678.3010, 20802.00
679.4570, 19599.00
680.6130, 18494.00
681.7690, 17691.14
682.9240, 17139.00
684.0800, 16492.00
685.2350, 16052.00
686.3900, 15779.00
687.5450, 15220.00
688.7000, 15042.00
689.8540, 14793.00
691.0090, 14558.00
692.1630, 14560.00
693.3170, 14378.00
694.4710, 14175.00
695.6250, 14088.00
696.7780, 13932.00
697.9320, 13937.00
699.0850, 13815.00
700.2380, 13678.00
701.3910, 13852.00
702.5440, 13943.00
703.6970, 13941.00
704.8490, 13871.00
706.0010, 13727.00
707.1530, 13919.00
708.3050, 13906.00
709.4570, 14076.00
710.6090, 14004.00
711.7600, 13871.00
712.9110, 13840.00
714.0620, 13813.00
715.2130, 13913.00
716.3640, 13677.00
717.5150, 13907.00
718.6650, 13609.00
719.8150, 13722.00
720.9650, 13477.00
722.1150, 13445.00
723.2650, 13483.00
724.4150, 13318.00
725.5640, 13141.00
726.7130, 13232.00
727.8630, 13262.00
729.0110, 13019.00
730.1600, 13165.00
731.3090, 13284.00
732.4570, 13159.00
733.6060, 13206.00
734.7540, 13279.00
735.9020, 13406.00
737.0490, 13470.00
738.1970, 13536.00
739.3440, 13695.00
740.4920, 13875.00
741.6390, 14070.00
742.7860, 14204.00
743.9320, 14277.00
745.0790, 14657.00
746.2250, 14628.00
747.3720, 14909.00
748.5180, 15070.00
749.6640, 15473.00
750.8100, 15710.00
751.9550, 15980.00
753.1010, 16229.00
754.2460, 16409.00
755.3910, 16640.00
756.5360, 16798.00
757.6810, 17035.00
758.8250, 17414.00
759.9700, 17807.00
761.1140, 17950.97
762.2580, 18313.00
763.4020, 18305.00
764.5460, 18389.00
765.6900, 18603.00
766.8330, 18724.00
767.9760, 18909.00
769.1200, 18933.00
770.2620, 19026.00
771.4050, 19025.00
772.5480, 19066.00
773.6900, 19013.00
774.8330, 19036.00
775.9750, 18784.00
777.1170, 18546.00
778.2590, 18519.00
779.4000, 18418.00
780.5420, 18433.00
781.6830, 18319.00
782.8240, 18136.00
783.9650, 18009.00
785.1060, 17904.00
786.2470, 17694.00
787.3870, 17633.00
788.5280, 17658.00
789.6680, 17435.00
790.8080, 17570.00
791.9480, 17355.00
793.0870, 17574.00
794.2270, 17484.00
795.3660, 17546.00
796.5060, 17581.00
797.6450, 17560.00
798.7830, 17558.00
799.9220, 17516.00
801.0610, 17654.00
802.1990, 17811.00
803.3370, 17807.00
804.4750, 18141.00
805.6130, 18162.00
806.7510, 18234.00
807.8890, 18240.00
809.0260, 18371.38
810.1630, 18562.00
811.3000, 18618.00
812.4370, 18805.00
813.5740, 18898.00
814.7110, 18975.75
815.8470, 18993.00
816.9830, 19076.00
818.1190, 19090.00
819.2550, 19038.00
820.3910, 18970.00
821.5270, 18921.00
822.6620, 18830.00
823.7970, 18712.00
824.9330, 18639.00
826.0670, 18398.63
827.2020, 18399.14
828.3370, 18362.61
829.4710, 18291.07
830.6060, 18079.37
831.7400, 18048.64
832.8740, 17945.41
834.0080, 17839.22
835.1410, 17834.02
836.2750, 17726.00
837.4080, 17759.00
838.5410, 17649.00
839.6740, 17598.00
840.8070, 17679.00
841.9400, 17762.00
843.0730, 17686.61
844.2050, 17584.00
845.3370, 17576.00
846.4690, 17658.00
847.6010, 17593.00
848.7330, 17908.00
849.8640, 17778.00
850.9960, 18044.00
852.1270, 17914.00
853.2580, 17957.00
854.3890, 18129.00
855.5200, 18154.00
856.6500, 18374.00
857.7810, 18464.00
858.9110, 18397.00
860.0410, 18434.00
861.1710, 18576.00
862.3010, 18652.00
863.4310, 18714.12
864.5600, 18642.00
865.6900, 18798.00
866.8190, 18772.00
867.9480, 18718.00
869.0770, 18786.00
870.2050, 18922.00
871.3340, 18832.00
872.4620, 19021.00
873.5900, 19062.68
874.7180, 19181.00
875.8460, 19164.00
876.9740, 19319.00
878.1010, 19223.00
879.2290, 19248.00
880.3560, 19441.00
881.4830, 19452.00
882.6100, 19594.00
883.7370, 19641.00
884.8630, 19701.00
885.9900, 19783.00
887.1160, 19843.00
888.2420, 20002.00
889.3680, 19924.00
890.4940, 20122.00
891.6200, 20107.00
892.7450, 20348.00
893.8700, 20264.00
894.9960, 20317.00
896.1210, 20163.00
897.2460, 20287.00
898.3700, 20326.00
899.4950, 20333.00
900.6190, 20366.00
901.7430, 20330.00
902.8670, 20514.00
903.9910, 20425.00
905.1150, 20614.00
906.2390, 20740.00
907.3620, 20892.00
908.4850, 20754.00
909.6080, 20972.00
910.7310, 20681.00
911.8540, 20823.00
912.9770, 21049.00
914.0990, 20971.81
915.2210, 21443.00
916.3440, 21164.00
917.4660, 21415.00
918.5870, 21636.00
919.7090, 21306.00
920.8310, 21502.00
921.9520, 21446.00
923.0730, 21673.00
924.1940, 21710.00
925.3150, 21896.00
926.4360, 21845.00
927.5560, 21826.00
928.6770, 21909.00
929.7970, 21952.00
930.9170, 21762.00
932.0370, 21852.00
933.1570, 21704.00
934.2760, 21562.00
935.3960, 21687.00
936.5150, 21349.00
937.6340, 21422.00
938.7530, 21372.00
939.8720, 21356.00
940.9910, 21254.00
942.1090, 21204.00
943.2280, 21303.00
944.3460, 21369.00
945.4640, 21355.93
946.5820, 21329.00
947.6990, 21340.00
948.8170, 21348.00
949.9340, 21262.00
951.0520, 21406.00
952.1690, 21337.00
953.2860, 21621.00
954.4030, 21333.00
955.5190, 21533.00
956.6360, 21584.00
957.7520, 21622.00
958.8680, 21842.00
959.9840, 21849.00
961.1000, 21881.00
962.2160, 22002.00
963.3310, 22245.00
964.4470, 22287.00
965.5620, 22411.00
966.6770, 22435.00
967.7920, 22683.00
968.9060, 22919.00
970.0210, 22962.00
971.1360, 23353.00
972.2500, 23711.00
973.3640, 23793.00
974.4780, 23868.00
975.5920, 24127.00
976.7050, 24363.00
977.8190, 24644.00
978.9320, 25065.00
980.0450, 25580.00
981.1580, 25896.00
982.2710, 26373.00
983.3840, 26687.00
984.4970, 27231.00
985.6090, 27902.00
986.7210, 28611.00
987.8330, 29634.00
988.9450, 30352.00
990.0570, 31110.00
991.1690, 32527.00
992.2800, 33316.00
993.3920, 35074.00
994.5030, 36729.00
995.6140, 38346.00
996.7250, 40308.00
997.8350, 41966.00
998.9460, 44377.00
1000.056, 46137.00
1001.167, 48710.00
1002.277, 50563.00
1003.387, 52348.00
1004.496, 53886.00
1005.606, 55446.00
1006.715, 56214.00
1007.825, 56042.00
1008.934, 55823.00
1010.043, 54652.00
1011.152, 52816.00
1012.260, 50557.00
1013.369, 47849.00
1014.477, 44731.00
1015.586, 41841.00
1016.694, 38621.00
1017.802, 35855.00
1018.909, 33840.00
1020.017, 31760.00
1021.124, 30091.00
1022.232, 28368.00
1023.339, 27548.00
1024.446, 26337.00
1025.553, 25355.00
1026.659, 24995.00
1027.766, 24394.00
1028.872, 23753.00
1029.979, 23477.00
1031.085, 23203.00
1032.191, 23028.00
1033.296, 22617.00
1034.402, 22367.00
1035.507, 22237.00
1036.613, 22125.00
1037.718, 22024.00
1038.823, 21719.00
1039.928, 21589.00
1041.032, 21391.00
1042.137, 21025.00
1043.241, 20650.00
1044.346, 20372.00
1045.450, 20256.00
1046.554, 20248.00
1047.657, 19722.00
1048.761, 19558.00
1049.864, 19193.00
1050.968, 19097.00
1052.071, 18724.00
1053.174, 18387.00
1054.277, 18204.00
1055.379, 17975.00
1056.482, 17794.00
1057.584, 17763.00
1058.687, 17304.00
1059.789, 17098.00
1060.891, 17040.00
1061.992, 17095.00
1063.094, 16821.00
1064.196, 16640.00
1065.297, 16415.00
1066.398, 16575.00
1067.499, 16267.00
1068.600, 16268.00
1069.701, 16098.00
1070.801, 16133.00
1071.902, 16172.00
1073.002, 16026.00
1074.102, 15976.00
1075.202, 15991.00
1076.302, 15832.00
1077.402, 15708.00
1078.501, 15814.00
1079.600, 15759.00
1080.700, 15714.86
1081.799, 15700.46
1082.898, 15623.00
1083.996, 15558.00
1085.095, 15511.00
1086.193, 15388.00
1087.292, 15294.00
1088.390, 15244.20
1089.488, 15190.00
1090.586, 15126.00
1091.683, 15167.00
1092.781, 15099.00
1093.878, 15122.00
1094.975, 14978.00
1096.073, 15042.00
1097.169, 14938.00
1098.266, 14993.00
1099.363, 14960.00
1100.459, 14874.00
1101.556, 14756.00
1102.652, 14879.00
1103.748, 14689.00
1104.844, 14780.00
1105.940, 14795.00
1107.035, 14599.00
1108.131, 14643.00
1109.226, 14523.00
1110.321, 14390.00
1111.416, 14520.00
1112.511, 14291.00
1113.605, 14319.00
1114.700, 14250.00
1115.794, 14114.00
1116.889, 14353.00
1117.983, 14137.00
1119.077, 14151.00
1120.170, 13984.00
1121.264, 13985.00
1122.357, 13767.00
1123.451, 13821.00
1124.544, 13513.00
1125.637, 13420.00
1126.730, 13375.00
1127.823, 12960.00
1128.915, 12965.00
1130.008, 12772.00
1131.100, 12611.00
1132.192, 12645.00
1133.284, 12389.00
1134.376, 12320.61
1135.467, 12397.00
1136.559, 12091.00
1137.650, 12108.00
1138.742, 12043.00
1139.833, 11775.00
1140.924, 11702.00
1142.014, 11615.00
1143.105, 11669.00
1144.195, 11625.00
1145.286, 11546.00
1146.376, 11383.00
1147.466, 11202.00
1148.556, 11288.00
1149.646, 11239.00
1150.735, 11091.00
1151.825, 11133.00
1152.914, 11028.00
1154.003, 11015.00
1155.092, 11027.00
1156.181, 11073.00
1157.270, 10972.00
1158.358, 11002.00
1159.447, 10925.00
1160.535, 10918.00
1161.623, 10812.00
1162.711, 10876.00
1163.799, 10991.00
1164.886, 10787.00
1165.974, 10937.00
1167.061, 10862.00
1168.148, 10844.00
1169.235, 10813.00
1170.322, 10839.00
1171.409, 10742.00
1172.496, 10832.00
1173.582, 10884.00
1174.669, 10778.00
1175.755, 10815.00
1176.841, 10778.00
1177.927, 10713.00
1179.012, 10878.00
1180.098, 10760.00
1181.183, 10864.00
1182.269, 10822.00
1183.354, 10717.00
1184.439, 10755.00
1185.524, 10599.00
1186.608, 10725.00
1187.693, 10650.00
1188.777, 10647.00
1189.862, 10759.00
1190.946, 10712.00
1192.030, 10726.00
1193.113, 10657.00
1194.197, 10780.00
1195.281, 10763.00
1196.364, 10727.00
1197.447, 10792.64
1198.530, 10622.00
1199.613, 10783.00
1200.696, 10739.00
1201.779, 10612.00
1202.861, 10737.00
1203.944, 10681.00
1205.026, 10723.00
1206.108, 10709.00
1207.190, 10798.00
1208.271, 10620.00
1209.353, 10813.00
1210.435, 10694.00
1211.516, 10778.00
1212.597, 10827.00
1213.678, 10716.00
1214.759, 10708.00
1215.840, 10635.00
1216.920, 10567.00
1218.001, 10645.00
1219.081, 10795.00
1220.161, 10534.00
1221.241, 10732.00
1222.321, 10639.00
1223.401, 10717.00
1224.480, 10710.00
1225.560, 10694.00
1226.639, 10747.00
1227.718, 10719.00
1228.797, 10666.00
1229.876, 10803.00
1230.955, 10660.00
1232.033, 10708.00
1233.112, 10569.00
1234.190, 10657.00
1235.268, 10648.00
1236.346, 10682.00
1237.424, 10670.00
1238.501, 10697.00
1239.579, 10708.40
1240.656, 10662.00
1241.733, 10700.00
1242.811, 10735.00
1243.888, 10657.00
1244.964, 10637.00
1246.041, 10737.00
1247.117, 10598.00
1248.194, 10621.00
1249.270, 10678.00
1250.346, 10593.00
1251.422, 10595.00
1252.498, 10718.00
1253.573, 10570.00
1254.649, 10648.00
1255.724, 10655.00
1256.800, 10637.00
1257.875, 10710.00
1258.950, 10709.00
1260.024, 10662.00
1261.099, 10684.00
1262.173, 10684.00
1263.248, 10763.00
1264.322, 10671.00
1265.396, 10714.00
1266.470, 10821.00
1267.544, 10730.00
1268.617, 10593.00
1269.691, 10692.00
1270.764, 10641.00
1271.837, 10739.00
1272.910, 10732.00
1273.983, 10567.00
1275.056, 10714.00
1276.129, 10692.00
1277.201, 10709.00
1278.273, 10853.00
1279.346, 10563.00
1280.418, 10676.00
1281.489, 10666.00
1282.561, 10659.00
1283.633, 10656.00
1284.704, 10653.00
1285.776, 10674.00
1286.847, 10602.00
1287.918, 10596.00
1288.989, 10739.00
1290.059, 10604.00
1291.130, 10695.00
1292.200, 10701.00
1293.271, 10522.00
1294.341, 10685.00
1295.411, 10677.00
1296.481, 10696.00
1297.551, 10635.00
1298.620, 10653.00
1299.690, 10561.00
1300.759, 10647.00
1301.828, 10746.00
1302.897, 10683.00
1303.966, 10593.00
1305.035, 10681.00
1306.103, 10626.28
1307.172, 10690.00
1308.240, 10645.00
1309.308, 10710.00
1310.376, 10736.00
1311.444, 10661.00
1312.512, 10704.00
1313.580, 10791.00
1314.647, 10699.00
1315.714, 10748.00
1316.781, 10632.00
1317.848, 10683.00
1318.915, 10857.00
1319.982, 10708.00
1321.049, 10663.00
1322.115, 10811.00
1323.181, 10750.00
1324.248, 10697.00
1325.314, 10682.00
1326.380, 10752.00
1327.445, 10595.00
1328.511, 10868.00
1329.576, 10794.00
1330.642, 10801.00
1331.707, 10756.00
1332.772, 10731.00
1333.837, 10747.00
1334.902, 10704.50
1335.966, 10754.00
1337.031, 10688.00
1338.095, 10684.00
1339.159, 10740.00
1340.223, 10743.00
1341.287, 10791.00
1342.351, 10665.00
1343.415, 10868.00
1344.478, 10663.00
1345.541, 10736.00
1346.605, 10801.00
1347.668, 10909.00
1348.731, 10721.00
1349.793, 10674.00
1350.856, 10561.00
1351.918, 10783.00
1352.981, 10756.00
1354.043, 10827.00
1355.105, 10741.00
1356.167, 10835.00
1357.229, 10676.00
1358.290, 10584.00
1359.352, 10688.00
1360.413, 10713.00
1361.475, 10690.00
1362.536, 10623.00
1363.597, 10745.00
1364.657, 10782.00
1365.718, 10674.00
1366.779, 10716.00
1367.839, 10619.00
1368.899, 10781.00
1369.959, 10678.00
1371.019, 10658.00
1372.079, 10577.00
1373.139, 10591.03
