##NAMES=Augite
##RRUFFID=R070231
##IDEAL CHEMISTRY=(Ca,Mg,Fe^2+^,Fe^3+^)_2_(Si,Al)_2_O_6_
##LOCALITY=Old Goose Creek Quarry, Leesburg, Loudoun County, Virginia, USA
##OWNER=RRUFF
##SOURCE=Michael Scott
##DESCRIPTION=Very dark grey-green prismatic crystals frozen in quartz
##STATUS=The identification of this mineral is confirmed by single-crystal X-ray diffraction and chemical analysis.
##URL=rruff.info/R070231
##MEASURED CHEMISTRY=(Mg_0.44_Fe_0.37_Ca_0.17_Ti_0.01_Mn_0.01_)_Σ=1_(Si_0.98_Al_0.02_)_Σ=1_O_3_
##PIN_ID=M00062
##ORIENTATION=Laser parallel to -c* (0 0 -1). Fiducial mark perpendicular to laser is parallel to a [1 0 0]
116.4580, 20268.00
117.6970, 20249.00
118.9350, 20080.00
120.1730, 20319.00
121.4100, 20355.00
122.6480, 20824.00
123.8850, 21043.00
125.1230, 21118.00
126.3600, 21196.00
127.5960, 21626.00
128.8330, 22037.00
130.0700, 22192.00
131.3060, 22661.00
132.5420, 22797.00
133.7780, 22924.00
135.0140, 23485.00
136.2500, 24405.00
137.4850, 25186.00
138.7200, 26206.00
139.9550, 26913.00
141.1900, 27516.00
142.4250, 27568.00
143.6600, 27230.00
144.8940, 27079.00
146.1280, 26462.00
147.3620, 25773.00
148.5960, 24921.00
149.8300, 24536.00
151.0630, 24469.00
152.2960, 24070.00
153.5300, 23812.00
154.7620, 23569.00
155.9950, 23557.00
157.2280, 23451.16
158.4600, 23567.00
159.6920, 23565.00
160.9250, 23649.00
162.1560, 23948.00
163.3880, 24073.00
164.6200, 24307.00
165.8510, 24070.00
167.0820, 24521.00
168.3130, 24560.00
169.5440, 25011.00
170.7750, 25361.00
172.0050, 25232.00
173.2350, 25707.00
174.4650, 25796.00
175.6950, 26017.00
176.9250, 26641.00
178.1550, 26849.00
179.3840, 27279.00
180.6130, 27512.00
181.8420, 27629.00
183.0710, 27994.00
184.3000, 28421.00
185.5280, 29079.00
186.7570, 28391.00
187.9850, 27875.00
189.2130, 27887.00
190.4400, 27984.00
191.6680, 27266.00
192.8960, 26931.00
194.1230, 26651.00
195.3500, 26363.00
196.5770, 26212.00
197.8030, 25956.00
199.0300, 25726.00
200.2560, 25791.00
201.4830, 25415.00
202.7090, 25358.00
203.9340, 25104.04
205.1600, 24505.00
206.3860, 24596.00
207.6110, 24405.00
208.8360, 24215.00
210.0610, 24314.00
211.2860, 24189.00
212.5100, 24304.00
213.7350, 24264.00
214.9590, 24447.00
216.1830, 24434.37
217.4070, 24173.00
218.6310, 24424.00
219.8540, 24414.00
221.0780, 24291.00
222.3010, 24413.00
223.5240, 24147.00
224.7470, 23983.00
225.9690, 24258.00
227.1920, 24287.00
228.4140, 24265.00
229.6360, 24421.00
230.8580, 24195.00
232.0800, 24404.00
233.3020, 24247.00
234.5230, 24342.00
235.7440, 24162.00
236.9650, 24346.00
238.1860, 24035.00
239.4070, 24168.00
240.6280, 24099.00
241.8480, 24450.00
243.0680, 24346.00
244.2880, 24201.00
245.5080, 24246.00
246.7280, 24597.00
247.9470, 24499.00
249.1660, 24526.00
250.3860, 24503.00
251.6040, 24542.00
252.8230, 24545.00
254.0420, 24646.00
255.2600, 24628.00
256.4790, 24546.00
257.6970, 25174.00
258.9150, 25221.00
260.1320, 24905.00
261.3500, 24650.00
262.5670, 24407.00
263.7840, 24584.00
265.0010, 24419.00
266.2180, 24413.00
267.4350, 24358.00
268.6510, 24404.00
269.8680, 24437.00
271.0840, 24310.00
272.3000, 24556.00
273.5160, 24494.00
274.7310, 24655.00
275.9470, 24613.00
277.1620, 24575.00
278.3770, 24699.00
279.5920, 24424.00
280.8070, 24759.00
282.0210, 24578.00
283.2360, 24704.00
284.4500, 24702.00
285.6640, 24902.00
286.8780, 24614.00
288.0920, 24545.00
289.3050, 24723.00
290.5180, 24818.00
291.7320, 24955.00
292.9450, 24811.00
294.1570, 24939.00
295.3700, 24949.00
296.5830, 24980.00
297.7950, 25129.00
299.0070, 25328.00
300.2190, 25483.00
301.4310, 25404.00
302.6420, 25700.00
303.8540, 25768.00
305.0650, 25978.00
306.2760, 25843.00
307.4870, 26105.00
308.6980, 25995.00
309.9080, 26162.00
311.1190, 26059.00
312.3290, 26447.00
313.5390, 26549.00
314.7490, 26649.00
315.9580, 26761.00
317.1680, 26855.00
318.3770, 26601.00
319.5860, 26771.00
320.7950, 26665.00
322.0040, 26688.00
323.2130, 26848.00
324.4210, 26665.00
325.6290, 26896.00
326.8380, 26679.00
328.0460, 26590.00
329.2530, 26742.00
330.4610, 26586.00
331.6680, 26740.00
332.8760, 26716.00
334.0830, 26441.00
335.2890, 26504.00
336.4960, 26522.00
337.7030, 26582.00
338.9090, 26408.00
340.1150, 26685.00
341.3210, 26501.00
342.5270, 26639.00
343.7330, 26679.00
344.9380, 26668.00
346.1440, 26663.00
347.3490, 26556.00
348.5540, 26653.00
349.7590, 26577.00
350.9630, 26787.00
352.1680, 26663.00
353.3720, 26603.00
354.5760, 26754.00
355.7800, 26694.00
356.9840, 26665.00
358.1870, 26519.00
359.3910, 26447.00
360.5940, 26522.00
361.7970, 26413.00
363.0000, 26334.00
364.2030, 26423.00
365.4050, 26449.00
366.6080, 26559.00
367.8100, 26391.00
369.0120, 26425.00
370.2140, 26445.00
371.4150, 26302.00
372.6170, 26583.00
373.8180, 26675.00
375.0190, 26391.00
376.2200, 26581.00
377.4210, 26579.00
378.6220, 26630.00
379.8220, 26803.00
381.0230, 26680.00
382.2230, 26881.00
383.4230, 26874.00
384.6220, 26878.00
385.8220, 26926.00
387.0220, 26872.49
388.2210, 26827.46
389.4200, 26756.00
390.6190, 26666.00
391.8180, 26529.00
393.0160, 26439.00
394.2150, 26336.00
395.4130, 26444.00
396.6110, 26247.00
397.8090, 26395.00
399.0060, 26178.00
400.2040, 26121.00
401.4010, 26051.00
402.5980, 26013.00
403.7950, 25995.00
404.9920, 25998.65
406.1890, 26033.67
407.3860, 26062.00
408.5820, 26152.00
409.7780, 26209.00
410.9740, 26280.00
412.1700, 26027.00
413.3650, 26200.00
414.5610, 26107.00
415.7560, 26266.00
416.9510, 26292.00
418.1460, 26256.00
419.3410, 26370.00
420.5360, 26308.00
421.7300, 26348.00
422.9240, 26573.00
424.1180, 26267.00
425.3120, 26437.00
426.5060, 26543.00
427.7000, 26499.00
428.8930, 26470.00
430.0860, 26339.00
431.2790, 26239.00
432.4720, 26516.00
433.6650, 26668.00
434.8580, 26423.00
436.0500, 26414.00
437.2420, 26446.00
438.4340, 26433.00
439.6260, 26410.00
440.8180, 26488.04
442.0090, 26625.00
443.2010, 26611.00
444.3920, 26584.00
445.5830, 26597.00
446.7740, 26571.00
447.9640, 26684.00
449.1550, 26660.00
450.3450, 27007.00
451.5350, 26961.00
452.7250, 26830.00
453.9150, 26958.00
455.1050, 26806.00
456.2940, 27087.00
457.4830, 27346.00
458.6720, 27167.00
459.8610, 27337.00
461.0500, 27439.00
462.2390, 27646.00
463.4270, 27606.00
464.6150, 27489.00
465.8040, 27747.00
466.9910, 27795.00
468.1790, 27498.00
469.3670, 27473.00
470.5540, 27728.00
471.7410, 27705.00
472.9280, 27477.00
474.1150, 27517.00
475.3020, 27720.00
476.4890, 27582.00
477.6750, 27632.00
478.8610, 27559.00
480.0470, 27520.00
481.2330, 27516.00
482.4190, 27472.00
483.6040, 27785.00
484.7900, 27467.00
485.9750, 27746.00
487.1600, 27677.00
488.3450, 27797.00
489.5290, 28101.00
490.7140, 28044.00
491.8980, 28058.00
493.0820, 28027.00
494.2660, 28193.00
495.4500, 28201.00
496.6340, 28315.00
497.8170, 28271.00
499.0010, 28349.00
500.1840, 28513.00
501.3670, 28530.60
502.5500, 28635.43
503.7320, 28731.00
504.9150, 28728.00
506.0970, 28897.00
507.2790, 28842.00
508.4610, 29038.00
509.6430, 29008.00
510.8250, 29335.00
512.0060, 29249.00
513.1870, 29397.00
514.3680, 29352.00
515.5490, 29468.00
516.7300, 29581.00
517.9110, 29618.00
519.0910, 29850.00
520.2710, 29894.94
521.4510, 30022.00
522.6310, 30137.00
523.8110, 30206.00
524.9910, 30446.00
526.1700, 30480.00
527.3490, 30518.00
528.5280, 30882.00
529.7070, 30956.00
530.8860, 30714.00
532.0650, 30792.00
533.2430, 31191.00
534.4210, 31067.00
535.5990, 31154.00
536.7770, 31430.00
537.9550, 31416.00
539.1320, 31620.00
540.3100, 31766.00
541.4870, 31616.00
542.6640, 31541.00
543.8410, 31507.00
545.0170, 31609.00
546.1940, 31427.00
547.3700, 31269.00
548.5470, 31346.00
549.7230, 31085.00
550.8980, 31221.00
552.0740, 31104.00
553.2500, 31161.00
554.4250, 30876.00
555.6000, 30812.00
556.7750, 30818.00
557.9500, 30546.00
559.1250, 30470.00
560.2990, 30597.00
561.4730, 30388.00
562.6480, 30622.00
563.8220, 30456.66
564.9950, 30004.00
566.1690, 30203.00
567.3430, 30131.00
568.5160, 29926.00
569.6890, 29590.00
570.8620, 29938.00
572.0350, 29786.00
573.2070, 29907.00
574.3800, 29813.00
575.5520, 29949.00
576.7240, 29892.00
577.8960, 29823.00
579.0680, 29736.00
580.2400, 30124.00
581.4110, 29785.00
582.5830, 30171.00
583.7540, 30135.00
584.9250, 29953.00
586.0950, 30018.00
587.2660, 30344.00
588.4370, 30131.00
589.6070, 30489.00
590.7770, 30328.00
591.9470, 30407.00
593.1170, 30658.00
594.2860, 30918.00
595.4560, 30732.00
596.6250, 31125.00
597.7940, 31131.00
598.9630, 30922.00
600.1320, 31138.00
601.3000, 31125.00
602.4690, 31114.00
603.6370, 31416.00
604.8050, 31263.00
605.9730, 31426.00
607.1410, 31559.00
608.3090, 31645.00
609.4760, 31811.00
610.6430, 31754.00
611.8100, 31822.00
612.9770, 31879.00
614.1440, 31977.00
615.3110, 32155.00
616.4770, 31950.00
617.6430, 32112.00
618.8090, 32058.00
619.9750, 32166.00
621.1410, 32655.00
622.3070, 32674.00
623.4720, 32805.00
624.6370, 32851.00
625.8020, 32908.00
626.9670, 32810.00
628.1320, 33041.00
629.2970, 33162.86
630.4610, 33152.48
631.6250, 33742.00
632.7890, 33305.00
633.9530, 33838.00
635.1170, 34162.00
636.2810, 34087.00
637.4440, 34190.00
638.6070, 34548.00
639.7700, 34639.00
640.9330, 34737.00
642.0960, 34887.00
643.2590, 35247.00
644.4210, 35451.00
645.5830, 35845.00
646.7450, 36043.00
647.9070, 36496.00
649.0690, 37413.00
650.2310, 37938.00
651.3920, 38442.00
652.5530, 38981.00
653.7140, 39987.00
654.8750, 40527.00
656.0360, 41670.00
657.1970, 42510.00
658.3570, 43371.00
659.5170, 44113.00
660.6770, 44559.00
661.8370, 45055.00
662.9970, 45245.00
664.1570, 45212.00
665.3160, 44969.00
666.4750, 44261.00
667.6340, 43524.00
668.7930, 42842.00
669.9520, 42332.00
671.1110, 41742.00
672.2690, 40828.00
673.4270, 40009.00
674.5850, 39495.00
675.7430, 39064.00
676.9010, 38322.00
678.0590, 37683.00
679.2160, 37148.00
680.3730, 36629.00
681.5300, 35853.00
682.6870, 35660.00
683.8440, 35309.00
685.0010, 35026.00
686.1570, 34939.00
687.3130, 34691.00
688.4690, 34342.00
689.6250, 33973.00
690.7810, 33726.00
691.9370, 33466.93
693.0920, 33372.00
694.2470, 33162.00
695.4020, 32995.00
696.5570, 33078.00
697.7120, 32774.00
698.8670, 32791.00
700.0210, 32764.00
701.1750, 32668.00
702.3290, 32719.00
703.4830, 32490.00
704.6370, 32364.00
705.7910, 32347.00
706.9440, 32475.00
708.0970, 32160.00
709.2510, 32291.00
710.4030, 32244.00
711.5560, 32020.00
712.7090, 32313.00
713.8610, 32242.00
715.0140, 32089.00
716.1660, 32114.00
717.3180, 32087.00
718.4690, 32004.00
719.6210, 31989.00
720.7730, 32001.00
721.9240, 31827.00
723.0750, 32109.00
724.2260, 31882.00
725.3770, 31944.00
726.5270, 31949.00
727.6780, 31996.00
728.8280, 31697.00
729.9780, 31979.00
731.1280, 32130.00
732.2780, 31744.00
733.4280, 31850.00
734.5770, 31758.00
735.7260, 31700.00
736.8760, 32022.00
738.0250, 31943.00
739.1730, 31927.00
740.3220, 31819.00
741.4700, 31692.00
742.6190, 31850.00
743.7670, 31895.00
744.9150, 31821.00
746.0630, 32054.00
747.2100, 32023.00
748.3580, 31792.00
749.5050, 31759.00
750.6520, 31731.00
751.7990, 31818.00
752.9460, 32047.00
754.0930, 31956.00
755.2390, 31715.00
756.3860, 32001.00
757.5320, 31840.00
758.6780, 31994.00
759.8240, 32001.00
760.9690, 31752.00
762.1150, 31957.00
763.2600, 31951.00
764.4060, 31945.00
765.5510, 31912.00
766.6950, 31894.00
767.8400, 31976.00
768.9850, 31906.00
770.1290, 31888.00
771.2730, 32242.00
772.4170, 32072.00
773.5610, 31967.00
774.7050, 32184.00
775.8480, 32077.00
776.9920, 32139.00
778.1350, 32153.00
779.2780, 32127.00
780.4210, 32204.00
781.5640, 32242.00
782.7060, 32098.00
783.8490, 32111.00
784.9910, 32269.00
786.1330, 32150.00
787.2750, 32088.00
788.4170, 32159.00
789.5580, 32093.00
790.7000, 32366.00
791.8410, 32071.00
792.9820, 32403.00
794.1230, 32091.00
795.2640, 32195.00
796.4040, 32373.00
797.5450, 32296.00
798.6850, 32619.00
799.8250, 32349.00
800.9650, 32287.00
802.1050, 32472.00
803.2450, 32405.00
804.3840, 32486.00
805.5230, 32542.00
806.6630, 32634.00
807.8020, 32651.00
808.9400, 32813.00
810.0790, 32563.00
811.2170, 32771.00
812.3560, 32762.00
813.4940, 32881.00
814.6320, 32637.00
815.7700, 32948.00
816.9070, 32819.00
818.0450, 32942.00
819.1820, 32976.00
820.3190, 33009.00
821.4560, 33128.00
822.5930, 32976.00
823.7300, 33392.00
824.8670, 33079.00
826.0030, 33184.00
827.1390, 33438.00
828.2750, 32955.00
829.4110, 32951.00
830.5470, 33273.00
831.6820, 33437.00
832.8180, 33052.00
833.9530, 33654.00
835.0880, 33439.00
836.2230, 33576.00
837.3580, 33761.00
838.4920, 33716.00
839.6270, 33658.00
840.7610, 33459.00
841.8950, 33519.00
843.0290, 33608.00
844.1630, 33935.00
845.2960, 34239.00
846.4300, 34132.00
847.5630, 34379.00
848.6960, 34405.00
849.8290, 34475.00
850.9620, 34483.00
852.0940, 34677.00
853.2270, 34846.00
854.3590, 34657.00
855.4910, 34421.00
856.6230, 34718.00
857.7550, 34780.00
858.8870, 34941.00
860.0180, 34505.00
861.1500, 34864.00
862.2810, 34811.00
863.4120, 34674.00
864.5430, 35001.00
865.6730, 34729.00
866.8040, 34915.00
867.9340, 34685.00
869.0640, 34862.00
870.1940, 34970.00
871.3240, 34776.00
872.4540, 34669.00
873.5830, 35060.00
874.7130, 36221.00
875.8420, 35057.00
876.9710, 35098.00
878.1000, 35359.00
879.2290, 34631.00
880.3570, 35205.00
881.4860, 35090.00
882.6140, 35227.00
883.7420, 34912.00
884.8700, 34937.00
885.9980, 35014.00
887.1250, 35397.00
888.2530, 35498.00
889.3800, 35716.00
890.5070, 35305.00
891.6340, 35270.00
892.7610, 35600.00
893.8880, 35144.00
895.0140, 35171.00
896.1400, 35698.00
897.2670, 35349.00
898.3930, 35533.00
899.5180, 35954.00
900.6440, 35856.00
901.7700, 35703.00
902.8950, 35670.00
904.0200, 35693.00
905.1450, 35764.00
906.2700, 35944.00
907.3950, 36122.00
908.5190, 36148.00
909.6440, 36314.00
910.7680, 35826.00
911.8920, 36042.00
913.0160, 36093.00
914.1400, 36374.00
915.2630, 36324.00
916.3870, 36406.00
917.5100, 36120.00
918.6330, 36217.21
919.7560, 36770.00
920.8790, 36292.00
922.0010, 36421.00
923.1240, 36599.00
924.2460, 36394.00
925.3680, 36686.00
926.4900, 36826.00
927.6120, 36688.00
928.7340, 36823.00
929.8550, 36708.00
930.9760, 36826.00
932.0980, 36873.00
933.2190, 36648.00
934.3390, 36809.00
935.4600, 36929.00
936.5810, 36929.00
937.7010, 37212.00
938.8210, 37174.00
939.9410, 37431.00
941.0610, 37443.58
942.1810, 37489.67
943.3010, 37425.00
944.4200, 37502.00
945.5390, 37367.00
946.6580, 37269.00
947.7770, 37660.00
948.8960, 37458.00
950.0150, 37318.00
951.1330, 37237.00
952.2510, 37760.00
953.3690, 37849.00
954.4870, 37669.00
955.6050, 37542.00
956.7230, 37877.00
957.8400, 37390.00
958.9580, 37945.00
960.0750, 37819.00
961.1920, 37948.00
962.3090, 37991.00
963.4250, 38031.00
964.5420, 38149.00
965.6580, 38380.00
966.7740, 38235.00
967.8900, 38055.00
969.0060, 38310.00
970.1220, 38367.00
971.2380, 38426.00
972.3530, 38310.00
973.4680, 38299.00
974.5830, 38376.00
975.6980, 38800.00
976.8130, 38740.00
977.9280, 38724.00
979.0420, 39130.00
980.1560, 39148.00
981.2710, 39268.00
982.3850, 39406.00
983.4980, 39226.00
984.6120, 39451.00
985.7260, 39682.00
986.8390, 40033.00
987.9520, 40219.00
989.0650, 40210.00
990.1780, 40679.00
991.2910, 40852.00
992.4030, 41145.00
993.5160, 41473.00
994.6280, 41438.00
995.7400, 41888.00
996.8520, 42671.00
997.9640, 42834.00
999.0750, 43035.00
1000.187, 43801.00
1001.298, 44012.00
1002.409, 44584.00
1003.520, 45389.00
1004.631, 46425.00
1005.741, 47382.00
1006.852, 48463.00
1007.962, 49207.00
1009.072, 49768.00
1010.182, 49996.00
1011.292, 49467.00
1012.402, 49076.00
1013.511, 47768.00
1014.621, 47042.00
1015.730, 45659.00
1016.839, 44865.00
1017.948, 43797.00
1019.056, 43161.00
1020.165, 42717.00
1021.273, 42366.00
1022.382, 41958.00
1023.490, 41762.53
1024.598, 41587.00
1025.706, 41511.00
1026.813, 41476.00
1027.921, 41533.00
1029.028, 41533.00
1030.135, 41451.00
1031.242, 41501.04
1032.349, 41522.00
1033.456, 41530.00
1034.562, 41628.00
1035.668, 41682.00
1036.775, 41796.00
1037.881, 41855.00
1038.987, 41980.00
1040.092, 41876.00
1041.198, 41869.00
1042.303, 41867.00
1043.408, 42014.00
1044.514, 41967.00
1045.618, 41936.00
1046.723, 41700.00
1047.828, 41958.00
1048.932, 42062.00
1050.037, 41889.00
1051.141, 42124.00
1052.245, 41699.00
1053.349, 41910.00
1054.452, 41392.00
1055.556, 41542.00
1056.659, 41520.00
1057.762, 41306.00
1058.865, 41448.00
1059.968, 41655.00
1061.071, 41595.00
1062.174, 41516.00
1063.276, 41376.00
1064.378, 41524.00
1065.480, 41438.91
1066.582, 41620.00
1067.684, 41501.00
1068.786, 41637.00
1069.887, 41777.00
1070.988, 41335.00
1072.090, 41525.00
1073.191, 41615.00
1074.291, 41547.00
1075.392, 41656.00
1076.493, 41837.00
1077.593, 41565.00
1078.693, 41692.00
1079.793, 41613.00
1080.893, 42126.00
1081.993, 41959.00
1083.092, 42194.00
1084.192, 42167.00
1085.291, 42288.00
1086.390, 42276.00
1087.489, 42079.00
1088.588, 42252.00
1089.686, 41948.00
1090.785, 41874.00
1091.883, 42113.00
1092.981, 42100.00
1094.079, 42138.00
1095.177, 42228.00
1096.275, 42256.54
1097.373, 42339.00
1098.470, 42315.00
1099.567, 42307.00
1100.664, 42183.00
1101.761, 42218.00
1102.858, 42206.00
1103.954, 42370.00
1105.051, 42468.00
1106.147, 42572.00
1107.243, 42363.00
1108.339, 42145.00
1109.435, 42244.00
1110.531, 42107.00
1111.626, 42076.00
1112.722, 42341.00
1113.817, 42382.00
1114.912, 42385.00
1116.007, 42603.00
1117.101, 42628.00
1118.196, 42918.00
1119.290, 42944.00
1120.385, 42898.00
1121.479, 43203.00
1122.573, 43057.00
1123.666, 42874.00
1124.760, 42997.00
1125.853, 42855.00
1126.947, 42927.00
1128.040, 42791.00
1129.133, 43052.00
1130.226, 42837.00
1131.318, 42963.00
1132.411, 42902.00
1133.503, 42895.00
1134.596, 42947.00
1135.688, 42949.00
1136.780, 43013.00
1137.871, 43105.00
1138.963, 43066.00
1140.054, 43292.00
1141.146, 43399.00
1142.237, 43074.00
1143.328, 43410.00
1144.419, 43208.00
1145.509, 43516.00
1146.600, 43114.00
1147.690, 43437.00
1148.780, 43410.00
1149.870, 43535.00
1150.960, 43528.00
1152.050, 43435.00
1153.139, 43529.00
1154.229, 43526.00
1155.318, 43674.00
1156.407, 43507.00
1157.496, 43400.00
1158.585, 43404.00
1159.674, 43452.38
1160.762, 43900.00
1161.850, 43793.00
1162.939, 43713.00
1164.027, 44042.00
1165.114, 43573.00
1166.202, 44010.00
1167.290, 44216.00
1168.377, 44330.00
1169.464, 44375.00
1170.551, 44438.86
1171.638, 44491.70
1172.725, 44428.00
1173.812, 44481.00
1174.898, 44451.00
1175.984, 44255.00
1177.071, 44361.00
1178.157, 43989.00
1179.242, 44325.00
1180.328, 44463.00
1181.414, 44833.00
1182.499, 44733.00
1183.584, 44812.00
1184.669, 44687.00
1185.754, 44709.00
1186.839, 44932.00
1187.924, 44730.00
1189.008, 44871.00
1190.092, 44831.00
1191.177, 44392.00
1192.260, 45015.00
1193.344, 44877.00
1194.428, 44714.00
1195.512, 44993.00
1196.595, 45129.00
1197.678, 45054.00
1198.761, 44735.00
1199.844, 44954.00
1200.927, 44876.00
1202.009, 45162.00
1203.092, 45063.00
1204.174, 45355.00
1205.256, 45300.00
1206.338, 45192.00
1207.420, 45713.00
1208.502, 45352.00
1209.583, 45537.00
1210.665, 45982.00
1211.746, 45702.00
1212.827, 45608.00
1213.908, 45629.00
1214.988, 45943.00
1216.069, 45931.00
1217.149, 45961.00
1218.230, 45660.00
1219.310, 45747.00
1220.390, 45946.00
1221.470, 45913.00
1222.549, 46005.00
1223.629, 46089.00
1224.708, 46116.00
1225.787, 46060.00
1226.866, 46168.00
1227.945, 45924.00
1229.024, 46148.00
1230.103, 46149.00
1231.181, 46013.00
1232.259, 46232.00
1233.337, 46249.00
1234.415, 46215.00
1235.493, 46461.00
1236.571, 46121.00
1237.648, 46472.00
1238.726, 46453.00
1239.803, 46412.00
1240.880, 46557.00
1241.957, 46486.00
1243.034, 46172.00
1244.110, 46715.00
1245.187, 46473.00
1246.263, 46788.00
1247.339, 46771.00
1248.415, 46758.00
1249.491, 46819.00
1250.566, 46862.00
1251.642, 47091.00
1252.717, 46873.00
1253.793, 46971.00
1254.868, 47011.00
1255.943, 46881.00
1257.017, 46917.00
1258.092, 47397.00
1259.166, 47562.00
1260.241, 47845.00
1261.315, 47747.58
1262.389, 48082.00
1263.462, 47444.00
1264.536, 47463.00
1265.610, 47501.00
1266.683, 47336.00
1267.756, 47249.00
1268.829, 47324.00
1269.902, 47353.00
1270.975, 47430.00
1272.048, 47470.70
1273.120, 47573.89
1274.192, 47534.00
1275.264, 47744.00
1276.336, 47734.00
1277.408, 47706.00
1278.480, 47920.00
1279.551, 47738.00
1280.623, 47883.00
1281.694, 47796.00
1282.765, 47850.00
1283.836, 47984.00
1284.907, 48184.00
1285.977, 48295.11
1287.048, 48432.00
1288.118, 48404.00
1289.188, 48619.00
