##NAMES=Augite
##RRUFFID=R070231
##IDEAL CHEMISTRY=(Ca,Mg,Fe^2+^,Fe^3+^)_2_(Si,Al)_2_O_6_
##LOCALITY=Old Goose Creek Quarry, Leesburg, Loudoun County, Virginia, USA
##OWNER=RRUFF
##SOURCE=Michael Scott
##DESCRIPTION=Very dark grey-green prismatic crystals frozen in quartz
##STATUS=The identification of this mineral is confirmed by single-crystal X-ray diffraction and chemical analysis.
##URL=rruff.info/R070231
##MEASURED CHEMISTRY=(Mg_0.44_Fe_0.37_Ca_0.17_Ti_0.01_Mn_0.01_)_Σ=1_(Si_0.98_Al_0.02_)_Σ=1_O_3_
##PIN_ID=M00250
##ORIENTATION=Laser parallel to (-1 0 -1). Fiducial mark perpendicular to laser is parallel to b [0 1 0]
120.1730, 9297.000
121.4100, 9465.000
122.6480, 9839.000
123.8850, 10276.00
125.1230, 10079.00
126.3600, 10318.00
127.5960, 10576.00
128.8330, 11040.00
130.0700, 11220.00
131.3060, 11518.00
132.5420, 11785.18
133.7780, 11810.00
135.0140, 12297.00
136.2500, 12562.00
137.4850, 12944.00
138.7200, 13395.00
139.9550, 13420.00
141.1900, 13303.00
142.4250, 12816.00
143.6600, 12447.00
144.8940, 11997.00
146.1280, 11628.00
147.3620, 11422.00
148.5960, 10960.00
149.8300, 10735.00
151.0630, 10787.00
152.2960, 10379.00
153.5300, 10237.00
154.7620, 10159.00
155.9950, 10017.00
157.2280, 9984.000
158.4600, 9887.000
159.6920, 9974.000
160.9250, 10005.00
162.1560, 9893.000
163.3880, 10085.00
164.6200, 10123.00
165.8510, 10051.00
167.0820, 10204.00
168.3130, 10221.00
169.5440, 10200.00
170.7750, 10468.00
172.0050, 10322.00
173.2350, 10382.00
174.4650, 10421.00
175.6950, 10497.00
176.9250, 10485.00
178.1550, 10652.00
179.3840, 10759.00
180.6130, 10751.00
181.8420, 10911.00
183.0710, 11012.00
184.3000, 11013.00
185.5280, 11208.00
186.7570, 11223.00
187.9850, 11330.00
189.2130, 11334.00
190.4400, 11267.00
191.6680, 11210.00
192.8960, 11251.00
194.1230, 11173.00
195.3500, 11137.00
196.5770, 11018.00
197.8030, 10801.00
199.0300, 10835.00
200.2560, 10783.00
201.4830, 11045.00
202.7090, 10896.00
203.9340, 10752.00
205.1600, 10209.00
206.3860, 10202.00
207.6110, 10072.00
208.8360, 10146.00
210.0610, 10265.00
211.2860, 10273.00
212.5100, 10288.00
213.7350, 10466.00
214.9590, 10533.00
216.1830, 10698.00
217.4070, 10771.00
218.6310, 10956.00
219.8540, 10871.00
221.0780, 11200.00
222.3010, 11232.00
223.5240, 11216.00
224.7470, 11531.00
225.9690, 11655.00
227.1920, 11527.00
228.4140, 11583.00
229.6360, 11714.00
230.8580, 11776.00
232.0800, 11788.00
233.3020, 11785.51
234.5230, 11616.00
235.7440, 11653.00
236.9650, 11455.00
238.1860, 11316.00
239.4070, 11305.00
240.6280, 11473.00
241.8480, 11412.00
243.0680, 11230.00
244.2880, 11241.00
245.5080, 11095.00
246.7280, 11184.00
247.9470, 11169.00
249.1660, 11155.00
250.3860, 11171.87
251.6040, 11107.20
252.8230, 11097.00
254.0420, 10970.00
255.2600, 10820.00
256.4790, 10704.00
257.6970, 10968.00
258.9150, 10746.68
260.1320, 11148.00
261.3500, 10590.00
262.5670, 10350.00
263.7840, 10277.00
265.0010, 10189.00
266.2180, 10204.00
267.4350, 10180.79
268.6510, 10189.00
269.8680, 10223.00
271.0840, 10254.00
272.3000, 10289.00
273.5160, 10158.00
274.7310, 10272.00
275.9470, 10313.00
277.1620, 10308.00
278.3770, 10439.00
279.5920, 10307.00
280.8070, 10279.00
282.0210, 10461.00
283.2360, 10659.00
284.4500, 10654.00
285.6640, 10602.00
286.8780, 10916.00
288.0920, 10925.00
289.3050, 11109.00
290.5180, 11119.00
291.7320, 11887.00
292.9450, 11757.53
294.1570, 11938.35
295.3700, 11972.00
296.5830, 12028.00
297.7950, 12270.00
299.0070, 12409.00
300.2190, 12669.00
301.4310, 12872.00
302.6420, 13195.00
303.8540, 13566.55
305.0650, 13910.98
306.2760, 14459.00
307.4870, 14832.00
308.6980, 15394.00
309.9080, 16105.00
311.1190, 16840.00
312.3290, 17758.00
313.5390, 18748.00
314.7490, 19821.00
315.9580, 20875.00
317.1680, 21961.00
318.3770, 23286.00
319.5860, 24663.00
320.7950, 25546.00
322.0040, 26025.00
323.2130, 26615.00
324.4210, 26947.00
325.6290, 26448.00
326.8380, 26583.00
328.0460, 25116.00
329.2530, 23551.00
330.4610, 22570.00
331.6680, 21534.00
332.8760, 20156.00
334.0830, 19382.00
335.2890, 18215.00
336.4960, 17384.00
337.7030, 16799.00
338.9090, 16306.00
340.1150, 15838.00
341.3210, 15441.00
342.5270, 15230.00
343.7330, 14969.00
344.9380, 14799.00
346.1440, 14830.00
347.3490, 14896.00
348.5540, 15081.00
349.7590, 15129.00
350.9630, 15282.00
352.1680, 15371.00
353.3720, 15713.00
354.5760, 15658.00
355.7800, 15855.00
356.9840, 15738.00
358.1870, 15630.00
359.3910, 15729.00
360.5940, 15326.00
361.7970, 15427.00
363.0000, 15205.00
364.2030, 14843.00
365.4050, 14798.00
366.6080, 14864.00
367.8100, 15043.00
369.0120, 15201.00
370.2140, 15235.00
371.4150, 15527.00
372.6170, 15832.00
373.8180, 16236.00
375.0190, 16500.00
376.2200, 17215.00
377.4210, 17637.00
378.6220, 18479.00
379.8220, 19115.00
381.0230, 20139.00
382.2230, 20964.00
383.4230, 21989.00
384.6220, 22865.00
385.8220, 23657.00
387.0220, 24557.00
388.2210, 25129.00
389.4200, 25249.00
390.6190, 25184.67
391.8180, 24933.00
393.0160, 24110.00
394.2150, 23056.00
395.4130, 21969.00
396.6110, 20664.00
397.8090, 19541.00
399.0060, 18470.00
400.2040, 17339.00
401.4010, 16411.00
402.5980, 15564.00
403.7950, 14837.00
404.9920, 14015.00
406.1890, 13400.00
407.3860, 12789.00
408.5820, 12379.00
409.7780, 11971.97
410.9740, 11706.00
412.1700, 11447.00
413.3650, 11252.00
414.5610, 11183.00
415.7560, 10920.00
416.9510, 10907.00
418.1460, 10770.00
419.3410, 10759.00
420.5360, 10517.00
421.7300, 10462.00
422.9240, 10486.00
424.1180, 10376.00
425.3120, 10372.00
426.5060, 10403.00
427.7000, 10400.00
428.8930, 10464.00
430.0860, 10391.00
431.2790, 10290.00
432.4720, 10212.00
433.6650, 10213.22
434.8580, 10128.00
436.0500, 10282.00
437.2420, 10242.00
438.4340, 10362.00
439.6260, 10176.00
440.8180, 10195.00
442.0090, 10253.00
443.2010, 10290.00
444.3920, 10135.00
445.5830, 10314.00
446.7740, 10238.00
447.9640, 10348.00
449.1550, 10341.00
450.3450, 10388.00
451.5350, 10400.00
452.7250, 10462.00
453.9150, 10547.00
455.1050, 10462.00
456.2940, 10503.00
457.4830, 10679.00
458.6720, 10607.00
459.8610, 10633.00
461.0500, 10806.00
462.2390, 10713.00
463.4270, 10615.00
464.6150, 10705.00
465.8040, 10671.00
466.9910, 10774.00
468.1790, 10660.00
469.3670, 10639.00
470.5540, 10654.00
471.7410, 10594.00
472.9280, 10480.00
474.1150, 10397.00
475.3020, 10400.00
476.4890, 10449.00
477.6750, 10446.00
478.8610, 10478.00
480.0470, 10472.00
481.2330, 10465.00
482.4190, 10360.00
483.6040, 10516.00
484.7900, 10475.00
485.9750, 10413.00
487.1600, 10555.00
488.3450, 10516.00
489.5290, 10530.00
490.7140, 10513.00
491.8980, 10747.00
493.0820, 10665.00
494.2660, 10851.00
495.4500, 10995.00
496.6340, 11032.00
497.8170, 11221.00
499.0010, 11368.00
500.1840, 11591.00
501.3670, 11891.00
502.5500, 12006.00
503.7320, 12275.00
504.9150, 12831.00
506.0970, 12924.00
507.2790, 13123.00
508.4610, 13179.00
509.6430, 13199.00
510.8250, 13326.00
512.0060, 13168.00
513.1870, 12952.00
514.3680, 12948.00
515.5490, 12842.00
516.7300, 12916.00
517.9110, 12749.00
519.0910, 12810.00
520.2710, 12692.00
521.4510, 12800.00
522.6310, 12762.00
523.8110, 13064.00
524.9910, 13036.00
526.1700, 13163.00
527.3490, 13160.00
528.5280, 13221.30
529.7070, 13292.65
530.8860, 13312.00
532.0650, 13312.64
533.2430, 13289.51
534.4210, 13237.00
535.5990, 13172.00
536.7770, 13072.39
537.9550, 12984.00
539.1320, 12850.00
540.3100, 12688.00
541.4870, 12597.00
542.6640, 12615.00
543.8410, 12574.00
545.0170, 12654.00
546.1940, 12433.00
547.3700, 12487.00
548.5470, 12659.00
549.7230, 12860.00
550.8980, 12881.00
552.0740, 13221.00
553.2500, 13514.00
554.4250, 13573.00
555.6000, 13682.00
556.7750, 13702.56
557.9500, 13642.67
559.1250, 13572.00
560.2990, 13354.00
561.4730, 13182.00
562.6480, 12830.00
563.8220, 12652.00
564.9950, 12255.00
566.1690, 12249.00
567.3430, 12136.00
568.5160, 11977.00
569.6890, 11743.00
570.8620, 11747.00
572.0350, 11652.00
573.2070, 11467.00
574.3800, 11430.00
575.5520, 11461.00
576.7240, 11311.00
577.8960, 11351.00
579.0680, 11250.00
580.2400, 11056.00
581.4110, 11029.00
582.5830, 10986.00
583.7540, 10816.00
584.9250, 10758.00
586.0950, 10630.00
587.2660, 10728.00
588.4370, 10732.00
589.6070, 10633.00
590.7770, 10619.00
591.9470, 10418.00
593.1170, 10466.00
594.2860, 10407.00
595.4560, 10467.00
596.6250, 10521.00
597.7940, 10436.00
598.9630, 10445.00
600.1320, 10477.00
601.3000, 10509.00
602.4690, 10615.00
603.6370, 10510.00
604.8050, 10528.00
605.9730, 10533.00
607.1410, 10660.00
608.3090, 10599.00
609.4760, 10777.00
610.6430, 10797.00
611.8100, 11031.00
612.9770, 10830.00
614.1440, 11004.00
615.3110, 10874.00
616.4770, 11074.00
617.6430, 11188.00
618.8090, 11234.00
619.9750, 11330.00
621.1410, 11345.00
622.3070, 11482.00
623.4720, 11584.25
624.6370, 11592.00
625.8020, 11851.00
626.9670, 11980.00
628.1320, 12121.43
629.2970, 12152.00
630.4610, 12399.00
631.6250, 12322.00
632.7890, 12511.00
633.9530, 12825.00
635.1170, 13013.00
636.2810, 13079.00
637.4440, 13171.00
638.6070, 13637.00
639.7700, 13857.00
640.9330, 14220.00
642.0960, 14420.00
643.2590, 15038.00
644.4210, 15550.00
645.5830, 16099.00
646.7450, 16696.00
647.9070, 17603.00
649.0690, 18656.00
650.2310, 19840.00
651.3920, 21167.00
652.5530, 22425.00
653.7140, 24405.00
654.8750, 26021.00
656.0360, 28280.00
657.1970, 30232.00
658.3570, 33135.00
659.5170, 35968.00
660.6770, 38610.00
661.8370, 40998.00
662.9970, 43045.00
664.1570, 44003.00
665.3160, 44545.00
666.4750, 43744.00
667.6340, 42130.00
668.7930, 39737.00
669.9520, 37323.00
671.1110, 34496.00
672.2690, 32117.00
673.4270, 29485.00
674.5850, 27457.00
675.7430, 25481.00
676.9010, 23811.00
678.0590, 22038.00
679.2160, 20634.00
680.3730, 19323.00
681.5300, 18056.00
682.6870, 17037.00
683.8440, 16161.00
685.0010, 15642.00
686.1570, 15021.00
687.3130, 14511.00
688.4690, 14065.00
689.6250, 13677.00
690.7810, 13464.00
691.9370, 13202.00
693.0920, 12858.00
694.2470, 12822.00
695.4020, 12622.00
696.5570, 12675.00
697.7120, 12410.00
698.8670, 12370.00
700.0210, 12266.00
701.1750, 12110.00
702.3290, 12275.00
703.4830, 11970.00
704.6370, 12054.00
705.7910, 11944.00
706.9440, 11835.00
708.0970, 11889.00
709.2510, 11742.00
710.4030, 11750.00
711.5560, 11583.00
712.7090, 11470.00
713.8610, 11450.00
715.0140, 11432.00
716.1660, 11441.00
717.3180, 11394.00
718.4690, 11369.00
719.6210, 11357.00
720.7730, 11324.00
721.9240, 11314.00
723.0750, 11255.73
724.2260, 11214.00
725.3770, 11149.00
726.5270, 11119.00
727.6780, 11096.39
728.8280, 11293.00
729.9780, 11149.00
731.1280, 11242.00
732.2780, 11294.00
733.4280, 11107.00
734.5770, 11305.00
735.7260, 11213.00
736.8760, 11405.00
738.0250, 11342.00
739.1730, 11314.00
740.3220, 11451.00
741.4700, 11327.00
742.6190, 11383.00
743.7670, 11319.00
744.9150, 11340.00
746.0630, 11367.00
747.2100, 11267.00
748.3580, 11316.00
749.5050, 11329.00
750.6520, 11463.00
751.7990, 11366.00
752.9460, 11419.00
754.0930, 11391.00
755.2390, 11409.00
756.3860, 11418.00
757.5320, 11366.00
758.6780, 11387.00
759.8240, 11306.00
760.9690, 11383.99
762.1150, 11473.00
763.2600, 11507.00
764.4060, 11657.00
765.5510, 11681.00
766.6950, 11683.00
767.8400, 11514.00
768.9850, 11769.00
770.1290, 11813.00
771.2730, 11685.00
772.4170, 11863.00
773.5610, 11720.00
774.7050, 11755.00
775.8480, 11803.00
776.9920, 11583.00
778.1350, 11824.00
779.2780, 11854.00
780.4210, 11849.00
781.5640, 11976.00
782.7060, 11809.00
783.8490, 11825.00
784.9910, 11914.00
786.1330, 11899.00
787.2750, 12029.00
788.4170, 11791.00
789.5580, 11986.00
790.7000, 11942.00
791.8410, 12085.00
792.9820, 12093.00
794.1230, 11916.00
795.2640, 11966.00
796.4040, 11903.00
797.5450, 11943.00
798.6850, 12038.00
799.8250, 12096.00
800.9650, 12128.00
802.1050, 12108.00
803.2450, 12145.23
804.3840, 12161.49
805.5230, 12184.00
806.6630, 12234.00
807.8020, 12297.00
808.9400, 12307.22
810.0790, 12346.00
811.2170, 12360.00
812.3560, 12358.00
813.4940, 12413.52
814.6320, 12545.11
815.7700, 12598.00
816.9070, 12822.00
818.0450, 13010.00
819.1820, 13039.00
820.3190, 13087.00
821.4560, 13278.00
822.5930, 13325.00
823.7300, 13467.00
824.8670, 13498.00
826.0030, 13557.00
827.1390, 13564.00
828.2750, 13420.00
829.4110, 13457.00
830.5470, 13425.00
831.6820, 13440.00
832.8180, 13404.00
833.9530, 13453.00
835.0880, 13440.00
836.2230, 13243.00
837.3580, 13252.00
838.4920, 13361.00
839.6270, 13147.00
840.7610, 13113.00
841.8950, 13133.00
843.0290, 13023.66
844.1630, 13018.00
845.2960, 12986.00
846.4300, 13041.00
847.5630, 13116.00
848.6960, 13151.00
849.8290, 13054.00
850.9620, 13075.00
852.0940, 13181.00
853.2270, 13123.00
854.3590, 13194.00
855.4910, 13313.00
856.6230, 13279.00
857.7550, 13356.00
858.8870, 13541.00
860.0180, 13260.00
861.1500, 13492.00
862.2810, 13330.00
863.4120, 13222.00
864.5430, 13481.00
865.6730, 13372.00
866.8040, 13454.00
867.9340, 13456.00
869.0640, 13344.00
870.1940, 13283.00
871.3240, 13453.00
872.4540, 13302.00
873.5830, 13432.00
874.7130, 13457.00
875.8420, 13351.00
876.9710, 13418.00
878.1000, 13619.00
879.2290, 13509.00
880.3570, 13378.00
881.4860, 13538.00
882.6140, 13426.00
883.7420, 13560.00
884.8700, 13600.00
885.9980, 13549.00
887.1250, 13689.00
888.2530, 13720.00
889.3800, 13511.00
890.5070, 13812.00
891.6340, 13568.00
892.7610, 13795.00
893.8880, 13832.00
895.0140, 13713.00
896.1400, 13768.00
897.2670, 13661.00
898.3930, 13748.00
899.5180, 13714.00
900.6440, 13867.00
901.7700, 13726.00
902.8950, 13819.00
904.0200, 13889.00
905.1450, 13981.00
906.2700, 14043.79
907.3950, 14037.00
908.5190, 14177.00
909.6440, 14171.00
910.7680, 14250.00
911.8920, 14333.40
913.0160, 14378.00
914.1400, 14482.00
915.2630, 14423.00
916.3870, 14472.00
917.5100, 14390.00
918.6330, 14626.00
919.7560, 14742.00
920.8790, 14612.00
922.0010, 14657.00
923.1240, 14626.00
924.2460, 14790.00
925.3680, 14842.00
926.4900, 14774.00
927.6120, 14776.00
928.7340, 14644.00
929.8550, 14683.00
930.9760, 14743.00
932.0980, 14660.00
933.2190, 14695.00
934.3390, 14750.00
935.4600, 14667.00
936.5810, 14731.26
937.7010, 14908.00
938.8210, 14766.00
939.9410, 14815.00
941.0610, 14819.00
942.1810, 14752.00
943.3010, 14975.00
944.4200, 14904.00
945.5390, 15041.00
946.6580, 15005.00
947.7770, 14967.00
948.8960, 14921.00
950.0150, 15187.00
951.1330, 15014.00
952.2510, 15140.00
953.3690, 15243.00
954.4870, 15095.00
955.6050, 15276.00
956.7230, 15276.00
957.8400, 15411.00
958.9580, 15497.17
960.0750, 15528.00
961.1920, 15677.00
962.3090, 15637.00
963.4250, 15730.00
964.5420, 16099.00
965.6580, 16142.00
966.7740, 16230.00
967.8900, 16268.00
969.0060, 16547.00
970.1220, 16777.00
971.2380, 17098.00
972.3530, 17236.00
973.4680, 17563.00
974.5830, 17810.00
975.6980, 18309.00
976.8130, 18776.00
977.9280, 19134.00
979.0420, 19559.00
980.1560, 20230.00
981.2710, 20863.00
982.3850, 21724.00
983.4980, 22562.00
984.6120, 23562.00
985.7260, 24658.00
986.8390, 26278.00
987.9520, 27578.00
989.0650, 29420.00
990.1780, 30941.00
991.2910, 32682.00
992.4030, 34456.00
993.5160, 36097.00
994.6280, 37000.00
995.7400, 37926.00
996.8520, 38634.00
997.9640, 39561.00
999.0750, 40229.00
1000.187, 41100.00
1001.298, 42620.00
1002.409, 44376.00
1003.520, 46394.00
1004.631, 48656.00
1005.741, 51671.00
1006.852, 54530.00
1007.962, 59601.00
1009.072, 60015.00
1010.182, 61390.00
1011.292, 62155.00
1012.402, 60955.00
1013.511, 58734.00
1014.621, 54763.00
1015.730, 50092.00
1016.839, 45127.00
1017.948, 40249.00
1019.056, 36285.00
1020.165, 32538.00
1021.273, 29830.00
1022.382, 27559.00
1023.490, 25564.00
1024.598, 24254.00
1025.706, 23004.00
1026.813, 22046.00
1027.921, 21510.00
1029.028, 20735.00
1030.135, 20428.00
1031.242, 20086.00
1032.349, 19940.00
1033.456, 19495.00
1034.562, 19307.00
1035.668, 18881.00
1036.775, 19009.00
1037.881, 18909.00
1038.987, 18826.00
1040.092, 18676.00
1041.198, 18625.00
1042.303, 18559.00
1043.408, 18415.00
1044.514, 18245.00
1045.618, 18150.00
1046.723, 17807.00
1047.828, 17468.00
1048.932, 17213.00
1050.037, 16924.00
1051.141, 16765.00
1052.245, 16535.00
1053.349, 16375.00
1054.452, 16196.71
1055.556, 15982.00
1056.659, 15862.00
1057.762, 15694.00
1058.865, 15536.00
1059.968, 15566.00
1061.071, 15489.00
1062.174, 15372.65
1063.276, 15216.00
1064.378, 15128.00
1065.480, 15033.00
1066.582, 14867.00
1067.684, 14849.00
1068.786, 14775.00
1069.887, 14730.00
1070.988, 14568.00
1072.090, 14661.00
1073.191, 14553.00
1074.291, 14662.00
1075.392, 14593.00
1076.493, 14337.45
1077.593, 14525.75
1078.693, 14624.80
1079.793, 14639.40
1080.893, 14316.59
1081.993, 14429.47
1083.092, 14367.77
1084.192, 14298.89
1085.291, 14473.10
1086.390, 14199.39
1087.489, 14369.75
1088.588, 14362.84
1089.686, 14437.08
1090.785, 14335.62
1091.883, 14288.44
1092.981, 14276.00
1094.079, 14432.00
1095.177, 14207.00
1096.275, 14241.00
1097.373, 14513.00
1098.470, 14335.00
1099.567, 14306.00
1100.664, 14270.00
1101.761, 14370.00
1102.858, 14379.00
1103.954, 14255.00
1105.051, 14223.00
1106.147, 14316.00
1107.243, 14199.00
1108.339, 14388.00
1109.435, 14264.00
1110.531, 14200.00
1111.626, 14175.00
1112.722, 14315.00
1113.817, 14346.00
1114.912, 14348.00
1116.007, 14392.00
1117.101, 14367.00
1118.196, 14374.00
1119.290, 14326.00
1120.385, 14321.00
1121.479, 14372.93
1122.573, 14349.95
1123.666, 14498.00
1124.760, 14298.00
1125.853, 14340.00
1126.947, 14162.00
1128.040, 14037.00
1129.133, 14288.00
1130.226, 14085.00
1131.318, 14202.00
1132.411, 14220.00
1133.503, 14079.00
1134.596, 14086.00
1135.688, 14070.00
1136.780, 13908.00
1137.871, 13849.00
1138.963, 13996.00
1140.054, 13914.00
1141.146, 13959.00
1142.237, 13981.00
1143.328, 14004.00
1144.419, 13705.00
1145.509, 13981.00
1146.600, 13737.00
1147.690, 13879.00
1148.780, 13920.00
1149.870, 13793.00
1150.960, 13857.00
1152.050, 13893.00
1153.139, 13842.00
1154.229, 13828.00
1155.318, 13770.00
1156.407, 13660.00
1157.496, 13796.00
1158.585, 13787.00
1159.674, 13762.00
1160.762, 13903.00
1161.850, 13750.00
1162.939, 13891.00
1164.027, 13828.00
1165.114, 13655.00
1166.202, 13806.00
1167.290, 13811.00
1168.377, 13809.00
1169.464, 13849.00
1170.551, 13809.63
1171.638, 13847.00
1172.725, 13762.00
1173.812, 13711.00
1174.898, 13715.74
1175.984, 13657.00
1177.071, 13766.00
1178.157, 13864.00
1179.242, 13922.00
1180.328, 13767.00
1181.414, 13908.00
1182.499, 13838.00
1183.584, 13794.00
1184.669, 13838.00
1185.754, 13752.00
1186.839, 13834.00
1187.924, 13916.00
1189.008, 13914.00
1190.092, 13981.05
1191.177, 14049.00
1192.260, 14027.00
1193.344, 13961.00
1194.428, 13928.00
1195.512, 13878.00
1196.595, 13928.00
1197.678, 13949.00
1198.761, 13945.00
1199.844, 14086.00
1200.927, 13823.00
1202.009, 13901.00
1203.092, 13978.00
1204.174, 14114.00
1205.256, 14064.00
1206.338, 14006.00
1207.420, 14032.00
1208.502, 14073.00
1209.583, 14112.00
1210.665, 14153.00
1211.746, 14067.00
1212.827, 14053.00
1213.908, 14017.00
1214.988, 14086.00
1216.069, 14048.00
1217.149, 14101.73
1218.230, 14167.00
1219.310, 14175.00
1220.390, 14206.00
1221.470, 14196.00
1222.549, 14136.00
1223.629, 14187.00
1224.708, 14267.00
1225.787, 14328.00
1226.866, 14253.00
1227.945, 14290.00
1229.024, 14317.00
1230.103, 14392.00
1231.181, 14128.00
1232.259, 14382.00
1233.337, 14196.00
1234.415, 14190.00
1235.493, 14389.00
1236.571, 14354.00
1237.648, 14331.00
1238.726, 14313.00
1239.803, 14336.00
1240.880, 14303.00
1241.957, 14259.00
1243.034, 14415.00
1244.110, 14396.00
1245.187, 14424.00
1246.263, 14402.00
1247.339, 14383.00
1248.415, 14342.00
1249.491, 14533.00
1250.566, 14415.00
1251.642, 14382.00
1252.717, 14396.00
1253.793, 14291.00
1254.868, 14405.00
1255.943, 14419.00
1257.017, 14488.00
1258.092, 14375.00
1259.166, 14623.00
1260.241, 14505.00
1261.315, 14623.00
1262.389, 14652.00
1263.462, 14707.00
1264.536, 14607.00
1265.610, 14696.00
1266.683, 14585.00
1267.756, 14600.00
1268.829, 14575.00
1269.902, 14539.00
1270.975, 14688.00
1272.048, 14596.00
1273.120, 14628.00
1274.192, 14704.00
1275.264, 14640.00
1276.336, 14714.59
1277.408, 14664.00
1278.480, 14750.00
1279.551, 14765.00
1280.623, 14697.00
1281.694, 14718.00
1282.765, 14567.00
1283.836, 14736.00
1284.907, 14815.00
1285.977, 14645.00
1287.048, 14824.00
1288.118, 14868.00
1289.188, 14798.00
1290.258, 14863.00
1291.328, 14819.00
1292.398, 14845.00
