##NAMES=Augite
##RRUFFID=R061108
##IDEAL CHEMISTRY=(Ca,Mg,Fe^2+^,Fe^3+^)_2_(Si,Al)_2_O_6_
##LOCALITY=Monti Rossi, near Mt. Etna, Sicily, Italy
##OWNER=RRUFF
##SOURCE=Michael Scott
##DESCRIPTION=Euhedral, short prismatic, black crystals in vesicular basalt.
##STATUS=The identification of this mineral is confirmed by single-crystal X-ray diffraction and chemical analysis.
##URL=rruff.info/R061108
##MEASURED CHEMISTRY=(Ca_0.86_Mg_0.74_Fe^2+^_0.18_Fe^3+^_0.08_Al_0.05_Ti_0.04_Na_0.04_Mn_0.01_)_Σ=2_(Si_1.83_Al_0.17_)_Σ=2_O_6_
##PIN_ID=L00942
##ORIENTATION=Laser parallel to -a* (-1 0 0). Fiducial mark perpendicular to laser is parallel to b [0 1 0]
157.4270, 21487.00
158.6540, 21647.00
159.8810, 21713.00
161.1070, 21847.00
162.3340, 22140.00
163.5600, 22505.00
164.7860, 22933.00
166.0120, 23189.00
167.2380, 23432.31
168.4640, 23655.04
169.6890, 23657.00
170.9150, 23903.00
172.1400, 23743.00
173.3650, 23701.00
174.5900, 23840.00
175.8150, 23904.00
177.0400, 23942.00
178.2640, 24127.16
179.4880, 24162.00
180.7130, 24417.00
181.9370, 24475.00
183.1600, 24521.00
184.3840, 24603.00
185.6080, 24641.42
186.8310, 24805.00
188.0540, 24746.00
189.2770, 24747.00
190.5000, 24819.00
191.7230, 25144.00
192.9460, 25245.00
194.1680, 25363.00
195.3910, 25151.00
196.6130, 25068.00
197.8350, 24878.00
199.0570, 24816.00
200.2780, 25010.00
201.5000, 25152.00
202.7210, 25025.00
203.9420, 24641.00
205.1640, 23848.00
206.3840, 23776.00
207.6050, 23614.00
208.8260, 23575.00
210.0460, 23758.00
211.2670, 23853.00
212.4870, 23830.00
213.7070, 24259.00
214.9270, 24321.00
216.1460, 24448.00
217.3660, 24373.00
218.5850, 24560.00
219.8050, 24731.00
221.0240, 24813.00
222.2430, 24766.00
223.4610, 24683.00
224.6800, 24602.00
225.8980, 24845.00
227.1170, 25017.00
228.3350, 25278.00
229.5530, 25011.44
230.7710, 25372.00
231.9880, 24378.00
233.2060, 23965.00
234.4230, 23623.00
235.6400, 23553.00
236.8570, 23448.00
238.0740, 23218.00
239.2910, 23262.00
240.5080, 23073.00
241.7240, 23012.00
242.9400, 22904.00
244.1570, 23037.00
245.3730, 22934.00
246.5880, 22793.00
247.8040, 22749.00
249.0190, 22501.00
250.2350, 22511.00
251.4500, 22433.00
252.6650, 22191.00
253.8800, 22283.00
255.0950, 22204.00
256.3090, 21999.00
257.5240, 22403.00
258.7380, 22115.94
259.9520, 21964.41
261.1660, 21902.00
262.3800, 21545.00
263.5930, 21448.00
264.8070, 21531.00
266.0200, 21376.00
267.2330, 21411.00
268.4460, 21373.48
269.6590, 21250.00
270.8720, 21362.00
272.0850, 21386.00
273.2970, 21496.00
274.5090, 21560.58
275.7210, 21489.00
276.9330, 21711.00
278.1450, 21783.00
279.3570, 21871.00
280.5680, 21823.00
281.7790, 22054.00
282.9910, 22081.00
284.2020, 22456.00
285.4120, 22356.00
286.6230, 22659.00
287.8340, 22947.00
289.0440, 22996.00
290.2540, 23298.00
291.4640, 23390.00
292.6740, 23632.00
293.8840, 23973.00
295.0940, 24221.00
296.3030, 24551.00
297.5120, 24883.33
298.7210, 25259.00
299.9300, 25595.00
301.1390, 25943.00
302.3480, 26357.00
303.5560, 26903.00
304.7650, 27664.00
305.9730, 28081.00
307.1810, 28714.00
308.3890, 29618.00
309.5970, 30181.00
310.8040, 31025.00
312.0120, 31896.14
313.2190, 32740.00
314.4260, 33686.00
315.6330, 34620.00
316.8400, 35494.00
318.0460, 36563.00
319.2530, 37185.00
320.4590, 38162.00
321.6650, 38430.00
322.8710, 39057.00
324.0770, 39224.00
325.2830, 39325.00
326.4880, 39048.00
327.6940, 38510.00
328.8990, 38566.00
330.1040, 38056.00
331.3090, 37043.00
332.5140, 36106.00
333.7180, 35612.00
334.9230, 35148.00
336.1270, 34454.00
337.3310, 34073.00
338.5350, 33647.00
339.7390, 32932.00
340.9430, 32662.00
342.1460, 32166.00
343.3500, 32007.00
344.5530, 31627.00
345.7560, 31451.00
346.9590, 31275.00
348.1620, 30965.00
349.3640, 30973.25
350.5670, 31067.00
351.7690, 30784.00
352.9710, 30550.00
354.1730, 30109.00
355.3750, 30155.00
356.5760, 29853.00
357.7780, 29963.00
358.9790, 29456.00
360.1800, 29504.00
361.3810, 29314.00
362.5820, 29185.00
363.7830, 29100.00
364.9830, 29031.00
366.1840, 28954.00
367.3840, 29050.00
368.5840, 29206.00
369.7840, 29415.00
370.9840, 29311.00
372.1830, 29472.00
373.3830, 29809.00
374.5820, 30076.00
375.7810, 30888.00
376.9800, 31296.00
378.1790, 31713.00
379.3780, 32581.00
380.5760, 33865.00
381.7750, 34382.00
382.9730, 35406.00
384.1710, 36400.00
385.3690, 37427.00
386.5660, 38592.00
387.7640, 38984.00
388.9610, 39628.00
390.1590, 39461.00
391.3560, 39506.00
392.5530, 39321.00
393.7500, 37728.00
394.9460, 36657.00
396.1430, 34895.00
397.3390, 33470.00
398.5350, 31744.00
399.7310, 30449.00
400.9270, 29013.00
402.1230, 27796.00
403.3180, 26566.00
404.5140, 25687.00
405.7090, 24846.00
406.9040, 24304.00
408.0990, 23924.00
409.2930, 23507.00
410.4880, 22958.00
411.6820, 22709.00
412.8770, 22490.00
414.0710, 22375.00
415.2650, 22136.00
416.4590, 22137.00
417.6520, 21957.00
418.8460, 21872.00
420.0390, 21712.00
421.2320, 21545.00
422.4250, 21623.00
423.6180, 21479.00
424.8110, 21377.00
426.0030, 21244.00
427.1960, 21195.00
428.3880, 21184.00
429.5800, 21108.00
430.7720, 21004.00
431.9640, 20939.00
433.1550, 20757.00
434.3470, 20817.00
435.5380, 20661.00
436.7290, 20440.00
437.9200, 20574.00
439.1110, 20415.00
440.3020, 20540.00
441.4920, 20302.00
442.6820, 20327.00
443.8730, 20279.00
445.0630, 20282.00
446.2530, 20164.00
447.4420, 20233.00
448.6320, 20209.00
449.8210, 20220.69
451.0100, 20263.54
452.2000, 20301.00
453.3880, 20332.00
454.5770, 20405.39
455.7660, 20445.98
456.9540, 20451.00
458.1430, 20499.00
459.3310, 20481.00
460.5190, 20530.00
461.7070, 20481.15
462.8940, 20392.00
464.0820, 20388.00
465.2690, 20387.00
466.4560, 20359.00
467.6430, 20271.00
468.8300, 20337.00
470.0170, 20269.00
471.2040, 20243.00
472.3900, 20411.00
473.5760, 20356.00
474.7620, 20302.00
475.9480, 20363.00
477.1340, 20204.00
478.3200, 20238.00
479.5050, 20335.00
480.6900, 20621.00
481.8750, 20544.00
483.0600, 20536.00
484.2450, 20437.00
485.4300, 20490.95
486.6140, 20544.93
487.7990, 20586.00
488.9830, 20719.00
490.1670, 20758.00
491.3510, 20786.00
492.5350, 21036.00
493.7180, 21146.00
494.9020, 21171.00
496.0850, 21447.00
497.2680, 21401.00
498.4510, 21584.00
499.6340, 21808.00
500.8160, 21926.00
501.9990, 22259.00
503.1810, 22620.00
504.3630, 22761.00
505.5450, 23325.00
506.7270, 23449.20
507.9090, 23568.00
509.0900, 23799.00
510.2720, 23876.00
511.4530, 23910.00
512.6340, 23911.00
513.8150, 24194.00
514.9950, 24246.00
516.1760, 24267.00
517.3560, 24536.00
518.5370, 24616.00
519.7170, 24599.00
520.8970, 24870.00
522.0770, 24936.00
523.2560, 25024.00
524.4360, 25313.00
525.6150, 25493.00
526.7940, 25511.00
527.9730, 25539.00
529.1520, 25572.00
530.3310, 25574.00
531.5090, 25617.70
532.6870, 25554.00
533.8660, 25665.00
535.0440, 25660.00
536.2210, 25630.59
537.3990, 25567.97
538.5770, 25486.00
539.7540, 25296.00
540.9310, 25210.00
542.1080, 24998.00
543.2850, 25158.00
544.4620, 24561.00
545.6390, 24872.00
546.8150, 24421.00
547.9920, 24511.00
549.1680, 24610.00
550.3440, 24368.00
551.5190, 24450.00
552.6950, 23943.00
553.8710, 24164.00
555.0460, 24015.00
556.2210, 24166.00
557.3960, 24214.00
558.5710, 24152.00
559.7460, 24144.75
560.9200, 24020.00
562.0950, 23965.00
563.2690, 23846.00
564.4430, 23751.00
565.6170, 23875.00
566.7910, 23611.00
567.9640, 23556.00
569.1380, 23558.00
570.3110, 23291.00
571.4840, 23316.00
572.6570, 23119.00
573.8300, 22879.00
575.0030, 22563.00
576.1750, 22449.00
577.3470, 22244.00
578.5200, 21949.00
579.6920, 21576.00
580.8630, 21159.00
582.0350, 20957.00
583.2070, 20774.00
584.3780, 20331.00
585.5490, 20137.00
586.7200, 19714.00
587.8910, 19483.00
589.0620, 19358.00
590.2330, 19062.00
591.4030, 18956.00
592.5730, 18729.00
593.7430, 18506.00
594.9130, 18438.00
596.0830, 18336.00
597.2530, 18232.12
598.4220, 18071.00
599.5920, 18095.00
600.7610, 17970.00
601.9300, 17900.00
603.0990, 17886.00
604.2670, 17810.00
605.4360, 17922.00
606.6040, 17793.00
607.7720, 17983.00
608.9400, 17844.00
610.1080, 17986.00
611.2760, 17955.00
612.4440, 17875.00
613.6110, 18081.00
614.7780, 18149.00
615.9450, 17972.00
617.1120, 18138.00
618.2790, 18086.00
619.4460, 18164.00
620.6120, 18192.00
621.7780, 18305.00
622.9450, 18404.00
624.1110, 18448.26
625.2760, 18526.75
626.4420, 18582.00
627.6080, 18643.00
628.7730, 18745.00
629.9380, 18838.00
631.1030, 19072.00
632.2680, 19269.00
633.4330, 19357.00
634.5970, 19668.00
635.7620, 19887.00
636.9260, 20109.00
638.0900, 20302.00
639.2540, 20689.00
640.4180, 21021.00
641.5810, 21325.00
642.7450, 21813.00
643.9080, 22279.00
645.0710, 22915.00
646.2340, 23650.00
647.3970, 24471.00
648.5590, 25286.00
649.7220, 26401.00
650.8840, 27613.00
652.0460, 29044.25
653.2080, 30587.00
654.3700, 32429.00
655.5320, 34508.00
656.6930, 36605.00
657.8550, 39076.00
659.0160, 41451.00
660.1770, 43987.00
661.3380, 46198.00
662.4990, 47553.53
663.6590, 49744.00
664.8200, 48973.00
665.9800, 48335.00
667.1400, 47054.00
668.3000, 44074.00
669.4600, 41741.00
670.6190, 39025.00
671.7790, 36684.00
672.9380, 34354.00
674.0970, 32261.00
675.2560, 30460.00
676.4150, 28882.00
677.5740, 27741.00
678.7320, 26434.00
679.8900, 25445.00
681.0490, 24548.00
682.2070, 23828.00
683.3640, 23276.00
684.5220, 22705.00
685.6800, 22238.54
686.8370, 21775.00
687.9940, 21481.00
689.1510, 21209.00
690.3080, 20961.00
691.4650, 20768.00
692.6220, 20714.00
693.7780, 20476.00
694.9340, 20381.00
696.0900, 20137.00
697.2460, 20179.00
698.4020, 19978.00
699.5580, 19960.00
700.7130, 20021.00
701.8680, 19900.00
703.0240, 19751.00
704.1790, 19704.00
705.3330, 19606.00
706.4880, 19701.00
707.6430, 19628.00
708.7970, 19273.00
709.9510, 19430.00
711.1050, 19267.00
712.2590, 19181.00
713.4130, 19189.00
714.5660, 19109.00
715.7200, 19112.00
716.8730, 19061.00
718.0260, 18927.00
719.1790, 19144.00
720.3320, 18809.00
721.4840, 18916.00
722.6370, 18627.00
723.7890, 18676.00
724.9410, 18888.00
726.0930, 18670.00
727.2450, 18703.00
728.3960, 18561.00
729.5480, 18709.00
730.6990, 18710.00
731.8500, 18860.00
733.0010, 18768.00
734.1520, 18808.00
735.3030, 18999.00
736.4530, 18852.00
737.6040, 18876.00
738.7540, 19093.00
739.9040, 19272.00
741.0540, 19313.79
742.2030, 19401.60
743.3530, 19486.00
744.5020, 19565.42
745.6520, 19628.00
746.8010, 19789.00
747.9490, 19945.00
749.0980, 20145.00
750.2470, 20294.90
751.3950, 20475.00
752.5440, 20572.00
753.6920, 20657.00
754.8400, 20681.00
755.9870, 20979.00
757.1350, 21106.00
758.2820, 21328.00
759.4300, 21362.00
760.5770, 21458.00
761.7240, 21771.00
762.8710, 22019.00
764.0170, 21883.00
765.1640, 22217.00
766.3100, 22034.00
767.4560, 22148.00
768.6020, 22294.00
769.7480, 22238.00
770.8940, 22405.00
772.0400, 22380.00
773.1850, 22465.00
774.3300, 22463.00
775.4750, 22283.00
776.6200, 22337.00
777.7650, 22370.00
778.9090, 22392.00
780.0540, 22218.00
781.1980, 22041.00
782.3420, 22095.00
783.4860, 21910.00
784.6300, 22156.00
785.7740, 22071.00
786.9170, 22108.00
788.0600, 22094.00
789.2030, 21931.00
790.3460, 22192.00
791.4890, 22053.00
792.6320, 22218.00
793.7740, 22151.00
794.9170, 22309.00
796.0590, 22198.00
797.2010, 22466.00
798.3430, 22510.00
799.4850, 22643.00
800.6260, 22488.00
801.7670, 22713.00
802.9090, 22676.00
804.0500, 22965.00
805.1910, 22929.00
806.3310, 22928.00
807.4720, 23008.00
808.6120, 23069.88
809.7530, 23397.00
810.8930, 23266.00
812.0330, 23513.00
813.1720, 23565.00
814.3120, 23691.00
815.4510, 23917.00
816.5910, 23897.67
817.7300, 23504.00
818.8690, 23932.00
820.0080, 23777.00
821.1460, 23750.00
822.2850, 23900.00
823.4230, 23814.00
824.5610, 23829.00
825.6990, 23984.00
826.8370, 23743.00
827.9750, 23857.00
829.1120, 23634.00
830.2500, 23803.00
831.3870, 23684.00
832.5240, 23421.00
833.6610, 23425.00
834.7980, 23491.00
835.9340, 23285.00
837.0700, 23632.00
838.2070, 23404.00
839.3430, 23397.00
840.4790, 23320.00
841.6140, 23296.46
842.7500, 23370.00
843.8850, 23446.00
845.0210, 23502.00
846.1560, 23805.00
847.2910, 23738.00
848.4260, 23791.00
849.5600, 24027.00
850.6950, 24364.00
851.8290, 24233.00
852.9630, 24454.00
854.0970, 24599.00
855.2310, 24560.00
856.3650, 24921.00
857.4980, 24838.00
858.6310, 24868.00
859.7650, 24865.00
860.8980, 24705.00
862.0310, 24652.00
863.1630, 25083.00
864.2960, 24822.00
865.4280, 24789.00
866.5600, 24792.00
867.6920, 24635.00
868.8240, 24518.00
869.9560, 24358.00
871.0880, 24305.33
872.2190, 24441.00
873.3500, 24214.00
874.4810, 24256.00
875.6120, 24224.00
876.7430, 24114.00
877.8740, 24225.00
879.0040, 24280.00
880.1340, 24084.00
881.2650, 24040.00
882.3950, 24134.00
883.5240, 24255.00
884.6540, 24214.00
885.7830, 24242.00
886.9130, 24233.52
888.0420, 24103.00
889.1710, 24094.41
890.3000, 24234.20
891.4280, 24310.46
892.5570, 24326.61
893.6850, 24102.61
894.8130, 24188.72
895.9420, 24150.55
897.0690, 24107.29
898.1970, 24237.04
899.3250, 24047.97
900.4520, 24174.99
901.5790, 24197.00
902.7060, 24253.00
903.8330, 24317.00
904.9600, 24153.00
906.0870, 24304.00
907.2130, 24560.00
908.3390, 24339.00
909.4650, 24498.00
910.5910, 24400.00
911.7170, 24726.00
912.8430, 24786.00
913.9680, 24686.00
915.0930, 24831.00
916.2180, 24960.00
917.3430, 25171.00
918.4680, 24965.00
919.5930, 25221.00
920.7170, 25142.00
921.8420, 25228.00
922.9660, 25494.00
924.0900, 25389.00
925.2140, 25381.00
926.3370, 25434.00
927.4610, 25574.00
928.5840, 25611.00
929.7070, 25502.00
930.8310, 25267.00
931.9530, 25418.00
933.0760, 25174.00
934.1990, 25203.00
935.3210, 25140.00
936.4430, 25091.65
937.5650, 25100.00
938.6870, 25060.00
939.8090, 24995.00
940.9310, 24911.00
942.0520, 24727.00
943.1730, 24811.00
944.2940, 24769.00
945.4150, 24713.00
946.5360, 24772.45
947.6570, 24822.00
948.7770, 24839.00
949.8970, 24945.00
951.0180, 25020.00
952.1370, 24903.00
953.2570, 25089.00
954.3770, 24951.00
955.4960, 24957.00
956.6160, 25257.00
957.7350, 25382.00
958.8540, 25387.00
959.9730, 25447.00
961.0910, 25552.33
962.2100, 25659.39
963.3280, 25787.00
964.4460, 25927.00
965.5640, 26129.00
966.6820, 26206.00
967.8000, 26257.00
968.9180, 26298.00
970.0350, 26483.00
971.1520, 26749.00
972.2690, 26806.00
973.3860, 27289.00
974.5030, 27143.00
975.6190, 27773.00
976.7360, 27898.00
977.8520, 27927.00
978.9680, 28191.00
980.0840, 28621.00
981.2000, 28737.00
982.3160, 28902.00
983.4310, 29531.00
984.5460, 29823.00
985.6610, 30222.00
986.7760, 30795.00
987.8910, 31371.72
989.0060, 32142.00
990.1200, 32820.00
991.2350, 33666.00
992.3490, 34509.00
993.4630, 35788.00
994.5760, 37105.00
995.6900, 38386.97
996.8040, 39834.91
997.9170, 41377.00
999.0300, 42853.00
1000.143, 44579.00
1001.256, 46302.00
1002.369, 47887.00
1003.481, 49440.00
1004.594, 50688.00
1005.706, 51565.00
1006.818, 51878.00
1007.930, 52175.00
1009.042, 51116.00
1010.153, 50230.00
1011.264, 47958.00
1012.376, 45850.00
1013.487, 43797.00
1014.598, 41219.00
1015.708, 38960.00
1016.819, 36972.00
1017.929, 35179.26
1019.040, 33577.00
1020.150, 32365.00
1021.260, 31707.00
1022.370, 30887.00
1023.479, 30332.00
1024.589, 29530.00
1025.698, 29148.00
1026.807, 29061.00
1027.916, 29052.00
1029.025, 28785.00
1030.133, 28535.00
1031.242, 28526.00
1032.350, 28343.00
1033.458, 28419.00
1034.566, 28278.00
1035.674, 28285.00
1036.782, 28109.00
1037.890, 27869.00
1038.997, 27680.00
1040.104, 27850.00
1041.211, 27461.00
1042.318, 27506.00
1043.425, 27308.00
1044.531, 26634.00
1045.638, 26802.00
1046.744, 26382.00
1047.850, 26337.00
1048.956, 26106.34
1050.061, 25435.00
1051.167, 25518.00
1052.272, 25334.00
1053.378, 24917.00
1054.483, 24730.00
1055.588, 24349.00
1056.692, 24230.00
1057.797, 24126.00
1058.901, 23718.00
1060.006, 23731.00
1061.110, 23486.00
1062.214, 23444.00
1063.318, 23256.00
1064.421, 23176.00
1065.525, 23192.00
1066.628, 23137.00
1067.731, 22749.00
1068.834, 22986.00
1069.937, 22784.00
1071.040, 22598.00
1072.142, 22663.00
1073.244, 22556.00
1074.347, 22582.00
1075.449, 22441.00
1076.550, 22404.00
1077.652, 22256.00
1078.754, 22252.00
1079.855, 22184.00
1080.956, 22017.00
1082.057, 22097.00
1083.158, 21942.00
1084.259, 21861.00
1085.359, 21746.00
1086.460, 21806.00
1087.560, 21886.00
1088.660, 21619.00
1089.760, 21615.00
1090.860, 21514.00
1091.959, 21330.00
1093.059, 21366.00
1094.158, 21451.00
1095.257, 21494.00
1096.356, 21476.00
1097.455, 21436.00
1098.553, 21237.00
1099.652, 21170.00
1100.750, 21087.00
1101.848, 20991.00
1102.946, 20934.52
1104.044, 20880.00
1105.141, 20898.00
1106.239, 20829.00
1107.336, 20758.14
1108.433, 20812.00
1109.530, 20630.00
1110.627, 20617.00
1111.724, 20671.00
1112.820, 20452.00
1113.917, 20571.00
1115.013, 20452.00
1116.109, 20478.00
1117.205, 20478.00
1118.300, 20267.00
1119.396, 20415.00
1120.491, 20333.00
1121.586, 20241.00
1122.681, 20127.00
1123.776, 20040.42
1124.871, 19925.61
1125.965, 19847.00
1127.060, 19678.00
1128.154, 19578.00
1129.248, 19405.00
1130.342, 19188.00
1131.436, 19131.00
1132.529, 18950.00
1133.623, 18793.00
1134.716, 18941.00
1135.809, 18703.00
1136.902, 18544.00
1137.995, 18787.00
1139.087, 18399.00
1140.180, 18310.00
1141.272, 18213.00
1142.364, 18202.00
1143.456, 18193.00
1144.548, 18143.00
1145.639, 17925.00
1146.731, 18151.00
1147.822, 18167.00
1148.913, 17941.00
1150.004, 18091.00
1151.095, 17794.00
1152.186, 17845.00
1153.276, 17827.00
1154.366, 17816.00
1155.457, 17688.00
1156.546, 17850.00
1157.636, 17976.00
1158.726, 17774.00
1159.815, 17731.00
1160.905, 17659.00
1161.994, 17727.00
1163.083, 17700.00
1164.172, 17676.00
1165.261, 17680.00
1166.349, 17423.00
1167.437, 17596.00
1168.526, 17506.00
1169.614, 17492.00
1170.702, 17710.00
1171.789, 17620.00
1172.877, 17634.00
1173.964, 17415.00
1175.051, 17629.00
1176.138, 17706.00
1177.225, 17680.00
1178.312, 17512.00
1179.399, 17652.00
1180.485, 17547.00
1181.571, 17622.00
1182.657, 17659.00
1183.743, 17677.00
1184.829, 17666.66
1185.915, 17718.00
1187.000, 17545.00
1188.085, 17652.00
1189.171, 17497.00
1190.255, 17442.00
1191.340, 17519.00
1192.425, 17407.00
1193.509, 17636.00
1194.594, 17544.00
1195.678, 17551.00
1196.762, 17655.00
1197.846, 17534.00
1198.929, 17499.00
1200.013, 17590.00
1201.096, 17403.00
1202.179, 17535.00
1203.262, 17477.00
1204.345, 17704.00
1205.428, 17414.00
1206.510, 17512.00
1207.593, 17497.00
1208.675, 17531.00
1209.757, 17541.00
1210.839, 17480.00
1211.920, 17558.00
1213.002, 17378.00
1214.083, 17492.00
1215.164, 17610.00
1216.245, 17480.00
1217.326, 17526.00
1218.407, 17559.00
1219.488, 17487.00
1220.568, 17641.00
1221.648, 17484.00
1222.728, 17743.00
1223.808, 17561.00
1224.888, 17552.00
1225.967, 17550.00
1227.047, 17528.00
1228.126, 17426.00
1229.205, 17622.00
1230.284, 17651.00
1231.363, 17601.00
1232.441, 17559.00
1233.520, 17635.00
1234.598, 17568.00
1235.676, 17409.00
1236.754, 17467.00
1237.832, 17544.00
1238.910, 17446.00
1239.987, 17499.00
1241.064, 17590.00
1242.141, 17533.00
1243.218, 17469.00
1244.295, 17355.00
1245.372, 17468.00
1246.448, 17598.00
1247.525, 17308.00
1248.601, 17565.00
1249.677, 17360.00
1250.753, 17482.00
1251.828, 17479.00
1252.904, 17422.00
1253.979, 17417.00
1255.054, 17652.00
1256.129, 17368.00
1257.204, 17355.00
1258.279, 17593.00
1259.353, 17436.00
1260.428, 17563.00
1261.502, 17356.00
1262.576, 17433.00
1263.650, 17335.00
1264.724, 17314.00
1265.797, 17454.00
1266.871, 17390.00
1267.944, 17455.00
1269.017, 17344.00
1270.090, 17261.00
1271.162, 17383.00
1272.235, 17391.00
1273.307, 17463.00
1274.380, 17484.00
1275.452, 17427.00
1276.524, 17388.00
1277.595, 17439.00
1278.667, 17285.00
1279.738, 17370.00
1280.810, 17490.00
1281.881, 17429.00
1282.952, 17289.00
1284.022, 17397.00
1285.093, 17403.00
1286.164, 17371.00
1287.234, 17355.00
1288.304, 17319.21
1289.374, 17306.70
1290.444, 17292.00
1291.513, 17293.00
1292.583, 17409.00
1293.652, 17444.00
1294.721, 17518.00
1295.790, 17655.00
1296.859, 17360.00
1297.928, 17438.00
1298.996, 17453.00
1300.064, 17448.00
1301.133, 17504.00
1302.201, 17485.00
1303.268, 17470.00
1304.336, 17469.00
1305.404, 17473.00
1306.471, 17458.00
1307.538, 17494.00
1308.605, 17354.00
1309.672, 17514.00
1310.739, 17471.00
1311.805, 17289.00
1312.872, 17361.00
1313.938, 17628.00
1315.004, 17623.00
1316.070, 17474.00
1317.135, 17461.00
1318.201, 17376.00
1319.266, 17662.00
1320.332, 17778.00
1321.397, 17555.00
1322.462, 17617.00
1323.526, 17431.00
