##NAMES=Augite
##RRUFFID=R070231
##IDEAL CHEMISTRY=(Ca,Mg,Fe^2+^,Fe^3+^)_2_(Si,Al)_2_O_6_
##LOCALITY=Old Goose Creek Quarry, Leesburg, Loudoun County, Virginia, USA
##OWNER=RRUFF
##SOURCE=Michael Scott
##DESCRIPTION=Very dark grey-green prismatic crystals frozen in quartz
##STATUS=The identification of this mineral is confirmed by single-crystal X-ray diffraction and chemical analysis.
##URL=rruff.info/R070231
##MEASURED CHEMISTRY=(Mg_0.44_Fe_0.37_Ca_0.17_Ti_0.01_Mn_0.01_)_Σ=1_(Si_0.98_Al_0.02_)_Σ=1_O_3_
##PIN_ID=M00062
##ORIENTATION=Laser parallel to -c* (0 0 -1). Fiducial mark perpendicular to laser is parallel to a [1 0 0]
136.2500, 25652.00
137.4850, 25986.00
138.7200, 26176.19
139.9550, 26612.00
141.1900, 26754.00
142.4250, 27223.00
143.6600, 27528.00
144.8940, 27509.00
146.1280, 27642.00
147.3620, 27489.00
148.5960, 27544.47
149.8300, 27222.00
151.0630, 27580.00
152.2960, 27410.00
153.5300, 27531.00
154.7620, 27912.00
155.9950, 28219.00
157.2280, 28703.00
158.4600, 28986.00
159.6920, 29322.00
160.9250, 29721.00
162.1560, 30141.00
163.3880, 30435.00
164.6200, 30226.00
165.8510, 30448.00
167.0820, 30177.00
168.3130, 29795.00
169.5440, 29949.00
170.7750, 29985.00
172.0050, 29976.00
173.2350, 30057.00
174.4650, 30035.00
175.6950, 30073.00
176.9250, 30463.00
178.1550, 31100.00
179.3840, 30724.00
180.6130, 31065.00
181.8420, 31066.00
183.0710, 31212.00
184.3000, 31385.00
185.5280, 31758.00
186.7570, 31954.00
187.9850, 31793.00
189.2130, 32014.00
190.4400, 31628.00
191.6680, 31311.00
192.8960, 31473.00
194.1230, 31550.00
195.3500, 31341.00
196.5770, 31366.00
197.8030, 31322.00
199.0300, 31463.00
200.2560, 31927.00
201.4830, 31898.00
202.7090, 31656.00
203.9340, 31513.00
205.1600, 31095.00
206.3860, 31020.00
207.6110, 31018.00
208.8360, 31231.00
210.0610, 31031.00
211.2860, 31305.00
212.5100, 31480.00
213.7350, 31383.00
214.9590, 31450.00
216.1830, 31473.00
217.4070, 31512.00
218.6310, 31548.48
219.8540, 31530.00
221.0780, 31637.00
222.3010, 31666.00
223.5240, 31773.68
224.7470, 31887.63
225.9690, 32144.00
227.1920, 32148.00
228.4140, 32415.00
229.6360, 32567.00
230.8580, 32545.00
232.0800, 32862.00
233.3020, 32609.00
234.5230, 32914.00
235.7440, 32660.00
236.9650, 32281.00
238.1860, 32435.00
239.4070, 32225.00
240.6280, 31995.00
241.8480, 32064.00
243.0680, 32256.00
244.2880, 32378.00
245.5080, 32739.00
246.7280, 32889.00
247.9470, 33147.59
249.1660, 33677.00
250.3860, 33715.00
251.6040, 33987.00
252.8230, 34429.00
254.0420, 34412.00
255.2600, 34369.00
256.4790, 34373.00
257.6970, 34862.00
258.9150, 35171.00
260.1320, 34622.00
261.3500, 33246.00
262.5670, 33183.00
263.7840, 32762.00
265.0010, 32361.00
266.2180, 32156.00
267.4350, 31836.00
268.6510, 31487.00
269.8680, 31085.00
271.0840, 30945.00
272.3000, 30778.00
273.5160, 30613.00
274.7310, 30308.00
275.9470, 30321.00
277.1620, 30164.00
278.3770, 30369.00
279.5920, 30156.00
280.8070, 29938.00
282.0210, 30068.00
283.2360, 29995.00
284.4500, 30325.00
285.6640, 30251.00
286.8780, 30476.00
288.0920, 30515.00
289.3050, 30314.00
290.5180, 30445.00
291.7320, 30544.00
292.9450, 30424.00
294.1570, 30432.00
295.3700, 30409.00
296.5830, 30529.46
297.7950, 30698.05
299.0070, 30963.00
300.2190, 31169.00
301.4310, 31607.00
302.6420, 31859.00
303.8540, 32066.00
305.0650, 32285.00
306.2760, 32539.49
307.4870, 32899.00
308.6980, 33001.00
309.9080, 33233.00
311.1190, 33380.00
312.3290, 33496.00
313.5390, 33905.00
314.7490, 34025.63
315.9580, 34415.00
317.1680, 34455.00
318.3770, 34475.00
319.5860, 34653.00
320.7950, 34472.00
322.0040, 34191.00
323.2130, 34213.00
324.4210, 33731.00
325.6290, 33924.00
326.8380, 33695.00
328.0460, 33594.00
329.2530, 33554.00
330.4610, 33553.00
331.6680, 33663.00
332.8760, 33976.00
334.0830, 33385.00
335.2890, 33688.00
336.4960, 33312.00
337.7030, 33717.00
338.9090, 33478.00
340.1150, 33260.00
341.3210, 33219.00
342.5270, 33044.00
343.7330, 33223.00
344.9380, 32852.00
346.1440, 32941.00
347.3490, 32776.00
348.5540, 32911.00
349.7590, 32737.00
350.9630, 32938.00
352.1680, 32591.00
353.3720, 32549.00
354.5760, 32032.00
355.7800, 31898.00
356.9840, 31492.00
358.1870, 31481.00
359.3910, 31229.00
360.5940, 31201.00
361.7970, 31056.00
363.0000, 30987.00
364.2030, 30812.00
365.4050, 30758.00
366.6080, 30747.00
367.8100, 30659.03
369.0120, 30929.00
370.2140, 30634.00
371.4150, 30620.00
372.6170, 30710.00
373.8180, 30401.00
375.0190, 30742.00
376.2200, 30308.00
377.4210, 30509.00
378.6220, 30592.00
379.8220, 30467.00
381.0230, 30626.00
382.2230, 30589.10
383.4230, 30484.00
384.6220, 30569.00
385.8220, 30520.00
387.0220, 30419.00
388.2210, 30151.00
389.4200, 30188.00
390.6190, 29970.00
391.8180, 29811.00
393.0160, 29684.00
394.2150, 29329.00
395.4130, 29273.00
396.6110, 29009.00
397.8090, 28873.00
399.0060, 29246.00
400.2040, 28645.00
401.4010, 28793.00
402.5980, 28660.00
403.7950, 28415.00
404.9920, 28551.00
406.1890, 28351.00
407.3860, 28632.00
408.5820, 28689.02
409.7780, 28713.00
410.9740, 29047.00
412.1700, 28843.00
413.3650, 29092.00
414.5610, 29339.00
415.7560, 29477.00
416.9510, 29805.00
418.1460, 30167.00
419.3410, 30419.00
420.5360, 30428.00
421.7300, 30420.00
422.9240, 30685.00
424.1180, 30634.00
425.3120, 30773.00
426.5060, 30575.00
427.7000, 30579.00
428.8930, 30364.00
430.0860, 30367.00
431.2790, 29959.00
432.4720, 30203.00
433.6650, 30017.00
434.8580, 29690.00
436.0500, 29888.00
437.2420, 29770.00
438.4340, 29900.00
439.6260, 29921.00
440.8180, 29949.00
442.0090, 30006.85
443.2010, 30124.00
444.3920, 30049.00
445.5830, 29923.00
446.7740, 29898.00
447.9640, 30216.00
449.1550, 30258.00
450.3450, 30080.00
451.5350, 30530.00
452.7250, 30570.00
453.9150, 30892.00
455.1050, 30794.00
456.2940, 31367.00
457.4830, 31698.00
458.6720, 31969.00
459.8610, 32534.00
461.0500, 32808.00
462.2390, 32921.00
463.4270, 33362.00
464.6150, 33895.00
465.8040, 34681.00
466.9910, 34779.00
468.1790, 34658.00
469.3670, 34648.00
470.5540, 34294.00
471.7410, 33932.00
472.9280, 33654.00
474.1150, 32976.00
475.3020, 32554.00
476.4890, 32260.00
477.6750, 32040.00
478.8610, 31582.00
480.0470, 31483.00
481.2330, 31389.00
482.4190, 31288.00
483.6040, 30821.00
484.7900, 31092.00
485.9750, 30987.00
487.1600, 31085.00
488.3450, 31239.00
489.5290, 31073.00
490.7140, 31199.00
491.8980, 31109.00
493.0820, 31279.00
494.2660, 31300.00
495.4500, 31372.00
496.6340, 31238.00
497.8170, 31295.00
499.0010, 31328.00
500.1840, 31223.00
501.3670, 31347.00
502.5500, 31592.00
503.7320, 31658.00
504.9150, 31420.00
506.0970, 31875.00
507.2790, 31770.00
508.4610, 31929.00
509.6430, 32297.00
510.8250, 32080.00
512.0060, 32196.00
513.1870, 32241.00
514.3680, 32371.00
515.5490, 32398.00
516.7300, 32447.00
517.9110, 32755.00
519.0910, 32779.00
520.2710, 32987.00
521.4510, 33284.00
522.6310, 33579.00
523.8110, 33427.00
524.9910, 33684.00
526.1700, 33639.00
527.3490, 34007.00
528.5280, 34276.00
529.7070, 34222.00
530.8860, 34606.00
532.0650, 34563.00
533.2430, 34889.00
534.4210, 35145.00
535.5990, 35431.00
536.7770, 35736.00
537.9550, 36009.00
539.1320, 36335.00
540.3100, 36200.00
541.4870, 36471.00
542.6640, 36889.00
543.8410, 36713.00
545.0170, 36971.00
546.1940, 36905.00
547.3700, 36796.00
548.5470, 37074.00
549.7230, 37166.00
550.8980, 36866.00
552.0740, 36803.00
553.2500, 37185.00
554.4250, 36829.75
555.6000, 37041.00
556.7750, 36604.00
557.9500, 36137.00
559.1250, 36150.00
560.2990, 35796.00
561.4730, 35693.00
562.6480, 35558.00
563.8220, 35429.00
564.9950, 34998.00
566.1690, 35245.00
567.3430, 35261.00
568.5160, 34679.00
569.6890, 34406.00
570.8620, 34723.00
572.0350, 35219.00
573.2070, 35590.00
574.3800, 34813.00
575.5520, 34784.00
576.7240, 34724.00
577.8960, 34976.00
579.0680, 34917.00
580.2400, 35221.00
581.4110, 35273.48
582.5830, 35439.00
583.7540, 35497.00
584.9250, 35656.00
586.0950, 35835.00
587.2660, 36089.00
588.4370, 36587.00
589.6070, 36866.00
590.7770, 37231.16
591.9470, 37820.00
593.1170, 37977.00
594.2860, 38351.00
595.4560, 38830.00
596.6250, 38974.00
597.7940, 39408.00
598.9630, 40221.00
600.1320, 40109.00
601.3000, 40628.00
602.4690, 41337.00
603.6370, 41647.00
604.8050, 41979.00
605.9730, 42092.00
607.1410, 42399.00
608.3090, 42653.00
609.4760, 42385.00
610.6430, 42665.00
611.8100, 43015.00
612.9770, 42845.00
614.1440, 43121.00
615.3110, 42893.00
616.4770, 42805.00
617.6430, 42973.00
618.8090, 42731.00
619.9750, 42678.00
621.1410, 42495.00
622.3070, 42404.00
623.4720, 42173.00
624.6370, 41841.00
625.8020, 41868.00
626.9670, 41827.00
628.1320, 41382.00
629.2970, 41471.00
630.4610, 41446.00
631.6250, 40945.00
632.7890, 40852.00
633.9530, 40574.00
635.1170, 40423.98
636.2810, 40262.00
637.4440, 40278.00
638.6070, 40432.00
639.7700, 40451.00
640.9330, 40315.00
642.0960, 40285.06
643.2590, 40235.26
644.4210, 40035.00
645.5830, 40127.00
646.7450, 40079.00
647.9070, 40013.00
649.0690, 40085.00
650.2310, 39781.00
651.3920, 40310.00
652.5530, 40457.00
653.7140, 40312.00
654.8750, 40970.00
656.0360, 41186.00
657.1970, 41760.00
658.3570, 41759.00
659.5170, 42340.00
660.6770, 42933.00
661.8370, 43037.00
662.9970, 43330.00
664.1570, 43246.00
665.3160, 43308.00
666.4750, 43274.00
667.6340, 43226.00
668.7930, 42531.00
669.9520, 42197.00
671.1110, 41809.00
672.2690, 41117.00
673.4270, 41034.00
674.5850, 40738.00
675.7430, 39945.00
676.9010, 39663.00
678.0590, 39333.00
679.2160, 38973.00
680.3730, 38488.00
681.5300, 38194.00
682.6870, 38318.00
683.8440, 37755.90
685.0010, 37563.00
686.1570, 37175.00
687.3130, 36891.00
688.4690, 36982.00
689.6250, 36601.00
690.7810, 36573.00
691.9370, 36357.00
693.0920, 36084.00
694.2470, 36126.00
695.4020, 36207.00
696.5570, 36027.00
697.7120, 35939.00
698.8670, 35681.00
700.0210, 35593.00
701.1750, 35515.00
702.3290, 35372.00
703.4830, 35458.00
704.6370, 35264.00
705.7910, 35264.00
706.9440, 35443.00
708.0970, 35443.00
709.2510, 35394.99
710.4030, 35243.00
711.5560, 35234.00
712.7090, 35062.00
713.8610, 34986.00
715.0140, 35056.00
716.1660, 35307.00
717.3180, 35116.00
718.4690, 35141.00
719.6210, 35124.01
720.7730, 34947.00
721.9240, 34773.98
723.0750, 34970.25
724.2260, 35076.96
725.3770, 35098.91
726.5270, 34782.30
727.6780, 34902.89
728.8280, 34848.27
729.9780, 34786.46
731.1280, 34968.58
732.2780, 34701.22
733.4280, 34879.47
734.5770, 34879.85
735.7260, 34961.64
736.8760, 34867.14
738.0250, 34827.09
739.1730, 34963.39
740.3220, 35002.05
741.4700, 34887.26
742.6190, 34974.23
743.7670, 34700.71
744.9150, 34743.54
746.0630, 34922.84
747.2100, 34816.92
748.3580, 34907.12
749.5050, 34922.63
750.6520, 34598.69
751.7990, 34865.09
752.9460, 34876.18
754.0930, 34625.14
755.2390, 34871.32
756.3860, 34656.41
757.5320, 34606.09
758.6780, 34679.62
759.8240, 34624.04
760.9690, 34772.03
762.1150, 34723.91
763.2600, 34658.27
764.4060, 34669.09
765.5510, 34463.24
766.6950, 34659.37
767.8400, 34580.91
768.9850, 34638.94
770.1290, 34727.92
771.2730, 34580.01
772.4170, 34682.88
773.5610, 34396.86
774.7050, 34436.23
775.8480, 34440.58
776.9920, 34652.92
778.1350, 34368.79
779.2780, 34399.14
780.4210, 34563.38
781.5640, 34559.00
782.7060, 34335.00
783.8490, 34444.00
784.9910, 34454.00
786.1330, 34703.00
787.2750, 34352.00
788.4170, 34455.00
789.5580, 34247.00
790.7000, 34488.00
791.8410, 34303.00
792.9820, 34307.00
794.1230, 34399.00
795.2640, 34449.00
796.4040, 34615.00
797.5450, 34416.00
798.6850, 34595.00
799.8250, 34408.00
800.9650, 34501.00
802.1050, 34646.00
803.2450, 34762.00
804.3840, 34780.00
805.5230, 34677.00
806.6630, 34588.00
807.8020, 34767.00
808.9400, 34623.00
810.0790, 34963.00
811.2170, 34894.00
812.3560, 34759.00
813.4940, 34947.00
814.6320, 35078.00
815.7700, 35029.00
816.9070, 35298.00
818.0450, 35106.00
819.1820, 35302.00
820.3190, 35355.00
821.4560, 35565.00
822.5930, 35566.00
823.7300, 35593.00
824.8670, 35557.00
826.0030, 35513.00
827.1390, 35794.00
828.2750, 35654.00
829.4110, 35894.00
830.5470, 35750.00
831.6820, 35651.00
832.8180, 35827.00
833.9530, 35970.00
835.0880, 36217.00
836.2230, 35884.00
837.3580, 36111.00
838.4920, 36293.00
839.6270, 36247.00
840.7610, 36679.00
841.8950, 36555.00
843.0290, 36898.00
844.1630, 36898.00
845.2960, 37202.00
846.4300, 37295.00
847.5630, 37476.00
848.6960, 37780.00
849.8290, 37746.00
850.9620, 37840.00
852.0940, 38302.00
853.2270, 38422.00
854.3590, 38507.00
855.4910, 38390.00
856.6230, 38509.00
857.7550, 38584.00
858.8870, 38604.41
860.0180, 38353.00
861.1500, 38619.00
862.2810, 38460.00
863.4120, 38178.00
864.5430, 38583.00
865.6730, 38488.00
866.8040, 38437.00
867.9340, 38315.00
869.0640, 38581.00
870.1940, 38299.00
871.3240, 38532.00
872.4540, 38218.00
873.5830, 38312.00
874.7130, 38261.00
875.8420, 38251.00
876.9710, 38068.00
878.1000, 38136.00
879.2290, 37956.00
880.3570, 37921.00
881.4860, 37897.00
882.6140, 37833.00
883.7420, 37627.00
884.8700, 37674.00
885.9980, 37523.00
887.1250, 37526.00
888.2530, 37568.00
889.3800, 37463.00
890.5070, 37461.00
891.6340, 37451.00
892.7610, 37596.00
893.8880, 37546.42
895.0140, 37283.00
896.1400, 37549.00
897.2670, 37557.00
898.3930, 37564.00
899.5180, 37714.00
900.6440, 37670.00
901.7700, 37744.42
902.8950, 37947.00
904.0200, 37848.00
905.1450, 37864.00
906.2700, 37961.00
907.3950, 38154.00
908.5190, 38232.00
909.6440, 38462.00
910.7680, 38512.00
911.8920, 38312.00
913.0160, 38519.00
914.1400, 38334.00
915.2630, 38235.00
916.3870, 38092.00
917.5100, 38055.55
918.6330, 38606.00
919.7560, 38156.00
920.8790, 38088.00
922.0010, 38418.00
923.1240, 37999.00
924.2460, 38376.00
925.3680, 38030.00
926.4900, 38103.00
927.6120, 38348.00
928.7340, 38044.00
929.8550, 38009.00
930.9760, 38115.00
932.0980, 38300.00
933.2190, 38198.00
934.3390, 38259.00
935.4600, 38125.00
936.5810, 38384.00
937.7010, 38377.00
938.8210, 38213.00
939.9410, 37917.00
941.0610, 38209.00
942.1810, 38161.00
943.3010, 38257.00
944.4200, 38378.00
945.5390, 38571.00
946.6580, 38725.00
947.7770, 38797.00
948.8960, 38593.00
950.0150, 38552.00
951.1330, 38568.00
952.2510, 38609.54
953.3690, 38736.00
954.4870, 38863.00
955.6050, 38982.00
956.7230, 39105.00
957.8400, 38979.00
958.9580, 39142.00
960.0750, 39174.00
961.1920, 39266.00
962.3090, 39566.00
963.4250, 39283.00
964.5420, 39607.00
965.6580, 39630.00
966.7740, 39383.00
967.8900, 39538.00
969.0060, 39639.00
970.1220, 39607.00
971.2380, 39774.00
972.3530, 39836.33
973.4680, 39907.00
974.5830, 40024.00
975.6980, 40082.39
976.8130, 40269.00
977.9280, 40252.00
979.0420, 40363.00
980.1560, 40485.00
981.2710, 40709.00
982.3850, 40790.00
983.4980, 40934.00
984.6120, 40998.00
985.7260, 40938.00
986.8390, 41123.00
987.9520, 41437.00
989.0650, 41114.00
990.1780, 41890.00
991.2910, 41828.00
992.4030, 41772.00
993.5160, 42103.00
994.6280, 42404.00
995.7400, 42925.00
996.8520, 42835.00
997.9640, 43092.00
999.0750, 43506.00
1000.187, 43366.00
1001.298, 43989.00
1002.409, 44387.00
1003.520, 44926.00
1004.631, 45317.00
1005.741, 46391.00
1006.852, 46669.00
1007.962, 47620.00
1009.072, 48494.00
1010.182, 49003.00
1011.292, 49247.00
1012.402, 48957.00
1013.511, 48243.00
1014.621, 47684.00
1015.730, 46427.00
1016.839, 45751.00
1017.948, 45066.00
1019.056, 44439.00
1020.165, 43886.00
1021.273, 43381.00
1022.382, 43066.00
1023.490, 43053.00
1024.598, 42694.00
1025.706, 42793.00
1026.813, 42413.00
1027.921, 42666.00
1029.028, 42400.00
1030.135, 42563.00
1031.242, 42363.00
1032.349, 42564.00
1033.456, 42160.00
1034.562, 42452.00
1035.668, 42229.00
1036.775, 42212.00
1037.881, 42490.00
1038.987, 42533.00
1040.092, 42735.00
1041.198, 42760.97
1042.303, 42763.00
1043.408, 42734.00
1044.514, 42428.00
1045.618, 42312.00
1046.723, 42379.00
1047.828, 42559.00
1048.932, 42442.00
1050.037, 42484.00
1051.141, 42524.00
1052.245, 42622.00
1053.349, 42758.00
1054.452, 42382.00
1055.556, 42554.00
1056.659, 42380.00
1057.762, 42486.00
1058.865, 42441.00
1059.968, 42553.00
1061.071, 42566.31
1062.174, 42656.00
1063.276, 42591.00
1064.378, 42565.00
1065.480, 42503.68
1066.582, 42570.00
1067.684, 42513.00
1068.786, 42453.00
1069.887, 42633.00
1070.988, 42603.31
1072.090, 42529.00
1073.191, 42724.00
1074.291, 42592.00
1075.392, 42629.00
1076.493, 42532.00
1077.593, 42387.00
1078.693, 42403.00
1079.793, 42362.38
1080.893, 42456.49
1081.993, 42413.00
1083.092, 42721.00
1084.192, 42810.00
1085.291, 42919.00
1086.390, 42937.56
1087.489, 42946.70
1088.588, 42872.00
1089.686, 42835.00
1090.785, 42903.00
1091.883, 42746.00
1092.981, 42785.00
1094.079, 42845.00
1095.177, 42913.00
1096.275, 42925.00
1097.373, 43028.00
1098.470, 42977.00
1099.567, 43063.01
1100.664, 43340.00
1101.761, 43022.00
1102.858, 43226.00
1103.954, 42885.00
1105.051, 42799.00
1106.147, 43053.00
1107.243, 42886.39
1108.339, 43114.98
1109.435, 43254.00
1110.531, 43308.28
1111.626, 43023.96
1112.722, 43176.87
1113.817, 43154.54
1114.912, 43125.02
1116.007, 43339.44
1117.101, 43104.34
1118.196, 43314.89
1119.290, 43347.53
1120.385, 43461.61
1121.479, 43399.37
1122.573, 43391.58
1123.666, 43560.12
1124.760, 43631.04
1125.853, 43548.48
1126.947, 43667.71
1128.040, 43426.43
1129.133, 43501.48
1130.226, 43713.02
1131.318, 43639.30
1132.411, 43761.73
1133.503, 43809.45
1134.596, 43517.73
1135.688, 43816.33
1136.780, 43859.63
1137.871, 43640.77
1138.963, 43919.14
1140.054, 43736.42
1141.146, 43718.30
1142.237, 43824.00
1143.328, 43800.59
1144.419, 43980.75
1145.509, 43964.78
1146.600, 43956.21
1147.690, 43824.00
1148.780, 43853.00
1149.870, 43904.00
1150.960, 43798.00
1152.050, 43966.00
1153.139, 44005.00
1154.229, 44159.00
1155.318, 43968.00
1156.407, 44077.04
1157.496, 43903.00
1158.585, 43933.32
1159.674, 44159.43
1160.762, 44295.97
1161.850, 44347.75
1162.939, 44060.99
1164.027, 44211.40
1165.114, 44186.58
1166.202, 44154.60
1167.290, 44366.55
1168.377, 44128.98
1169.464, 44337.04
1170.551, 44367.21
1171.638, 44478.80
1172.725, 44414.09
1173.812, 44403.84
1174.898, 44569.91
1175.984, 44638.34
1177.071, 44553.34
1178.157, 44670.08
1179.242, 44426.32
1180.328, 44498.91
1181.414, 44707.98
1182.499, 44631.80
1183.584, 44751.75
1184.669, 44797.00
1185.754, 44502.80
1186.839, 44619.00
1187.924, 44700.00
1189.008, 44977.00
1190.092, 45185.00
1191.177, 44736.00
1192.260, 44862.00
1193.344, 44693.00
1194.428, 44819.00
1195.512, 44917.00
1196.595, 45097.00
1197.678, 45190.00
1198.761, 44767.00
1199.844, 45017.00
1200.927, 44965.00
1202.009, 45081.00
1203.092, 45122.00
1204.174, 45028.00
1205.256, 45255.00
1206.338, 45313.00
1207.420, 45289.00
1208.502, 45359.00
1209.583, 45324.88
1210.665, 45472.00
1211.746, 45312.00
1212.827, 45348.00
1213.908, 45439.00
1214.988, 45491.00
1216.069, 45480.00
1217.149, 45668.00
1218.230, 45562.00
1219.310, 45594.30
1220.390, 45714.00
1221.470, 45499.00
1222.549, 45658.00
1223.629, 45550.00
1224.708, 45796.00
1225.787, 45823.00
1226.866, 45893.00
1227.945, 45999.50
1229.024, 46074.00
1230.103, 46131.00
1231.181, 46166.38
1232.259, 46006.00
1233.337, 46093.00
1234.415, 46009.00
1235.493, 45750.00
1236.571, 46051.00
1237.648, 45958.00
1238.726, 45941.00
1239.803, 46146.00
1240.880, 46052.94
1241.957, 45779.00
1243.034, 46189.00
1244.110, 46126.00
1245.187, 46459.00
1246.263, 46255.00
1247.339, 46198.00
1248.415, 46334.00
1249.491, 46529.00
1250.566, 46470.00
1251.642, 46349.00
1252.717, 46692.00
1253.793, 46347.00
1254.868, 46691.00
1255.943, 46842.00
1257.017, 46728.00
1258.092, 46500.00
1259.166, 46910.00
1260.241, 46404.00
1261.315, 46639.00
1262.389, 46980.00
1263.462, 46618.00
1264.536, 46829.00
1265.610, 46894.00
1266.683, 46786.00
1267.756, 47087.00
1268.829, 46818.00
1269.902, 47089.00
1270.975, 47178.00
1272.048, 46974.00
1273.120, 47196.00
1274.192, 47220.00
1275.264, 47290.00
1276.336, 47376.00
1277.408, 47220.00
1278.480, 47485.00
1279.551, 47342.00
1280.623, 47301.00
1281.694, 47518.00
##END=



