##NAMES=Augite
##RRUFFID=R070231
##IDEAL CHEMISTRY=(Ca,Mg,Fe^2+^,Fe^3+^)_2_(Si,Al)_2_O_6_
##LOCALITY=Old Goose Creek Quarry, Leesburg, Loudoun County, Virginia, USA
##OWNER=RRUFF
##SOURCE=Michael Scott
##DESCRIPTION=Very dark grey-green prismatic crystals frozen in quartz
##STATUS=The identification of this mineral is confirmed by single-crystal X-ray diffraction and chemical analysis.
##URL=rruff.info/R070231
##MEASURED CHEMISTRY=(Mg_0.44_Fe_0.37_Ca_0.17_Ti_0.01_Mn_0.01_)_Σ=1_(Si_0.98_Al_0.02_)_Σ=1_O_3_
##PIN_ID=M00250
##ORIENTATION=Laser parallel to (-1 0 -1). Fiducial mark perpendicular to laser is parallel to b [0 1 0]
115.2200, 9291.000
116.4580, 9212.000
117.6970, 9230.000
118.9350, 9109.000
120.1730, 9183.000
121.4100, 9438.000
122.6480, 9634.214
123.8850, 9924.226
125.1230, 10461.00
126.3600, 10686.00
127.5960, 11388.00
128.8330, 12005.00
130.0700, 13007.00
131.3060, 13727.00
132.5420, 14499.00
133.7780, 15673.00
135.0140, 16895.00
136.2500, 18242.00
137.4850, 19678.00
138.7200, 20338.00
139.9550, 19996.00
141.1900, 18726.00
142.4250, 17378.00
143.6600, 16010.00
144.8940, 14644.00
146.1280, 13704.00
147.3620, 12855.00
148.5960, 11841.00
149.8300, 11457.00
151.0630, 11013.00
152.2960, 10682.00
153.5300, 10109.00
154.7620, 10084.00
155.9950, 9868.000
157.2280, 9512.000
158.4600, 9511.000
159.6920, 9414.000
160.9250, 9424.000
162.1560, 9515.000
163.3880, 9563.000
164.6200, 9646.000
165.8510, 9547.000
167.0820, 9562.000
168.3130, 9581.000
169.5440, 9633.000
170.7750, 9745.000
172.0050, 9662.000
173.2350, 9752.000
174.4650, 9822.000
175.6950, 9816.000
176.9250, 10152.00
178.1550, 10116.00
179.3840, 10310.00
180.6130, 10391.00
181.8420, 10544.00
183.0710, 10678.00
184.3000, 10735.00
185.5280, 11044.00
186.7570, 11225.00
187.9850, 11306.00
189.2130, 11284.00
190.4400, 11318.00
191.6680, 11224.79
192.8960, 11065.00
194.1230, 10934.00
195.3500, 10735.00
196.5770, 10456.00
197.8030, 10446.00
199.0300, 10303.00
200.2560, 10419.00
201.4830, 10327.00
202.7090, 10161.00
203.9340, 9802.000
205.1600, 9396.000
206.3860, 9269.000
207.6110, 9088.000
208.8360, 9100.000
210.0610, 9029.000
211.2860, 9264.000
212.5100, 9194.000
213.7350, 9290.000
214.9590, 9291.000
216.1830, 9363.000
217.4070, 9369.000
218.6310, 9474.724
219.8540, 9525.525
221.0780, 9711.000
222.3010, 9687.000
223.5240, 9832.000
224.7470, 9959.000
225.9690, 9910.000
227.1920, 10073.00
228.4140, 10091.00
229.6360, 10101.00
230.8580, 10054.00
232.0800, 10083.00
233.3020, 10034.20
234.5230, 10027.00
235.7440, 9963.000
236.9650, 9937.000
238.1860, 9921.000
239.4070, 9870.000
240.6280, 9781.000
241.8480, 9787.000
243.0680, 9745.000
244.2880, 9815.000
245.5080, 9761.000
246.7280, 9681.000
247.9470, 9721.000
249.1660, 9792.000
250.3860, 9704.000
251.6040, 9686.000
252.8230, 9669.000
254.0420, 9521.000
255.2600, 9401.000
256.4790, 9537.000
257.6970, 9649.000
258.9150, 9514.633
260.1320, 9703.000
261.3500, 9298.000
262.5670, 9166.000
263.7840, 8985.000
265.0010, 9070.000
266.2180, 9054.000
267.4350, 8937.000
268.6510, 8980.000
269.8680, 9003.000
271.0840, 9054.000
272.3000, 9005.000
273.5160, 9122.000
274.7310, 9030.000
275.9470, 9037.000
277.1620, 9081.757
278.3770, 9089.000
279.5920, 9107.000
280.8070, 9239.000
282.0210, 9190.000
283.2360, 9272.000
284.4500, 9350.581
285.6640, 9318.000
286.8780, 9520.000
288.0920, 9537.000
289.3050, 9624.000
290.5180, 9759.000
291.7320, 9853.829
292.9450, 9985.000
294.1570, 10130.00
295.3700, 10266.00
296.5830, 10409.00
297.7950, 10563.61
299.0070, 10784.00
300.2190, 10942.00
301.4310, 11206.00
302.6420, 11544.00
303.8540, 11676.00
305.0650, 12029.00
306.2760, 12478.00
307.4870, 12818.00
308.6980, 13342.00
309.9080, 13868.00
311.1190, 14440.00
312.3290, 14971.00
313.5390, 15553.00
314.7490, 16409.00
315.9580, 17284.00
317.1680, 18078.00
318.3770, 18916.13
319.5860, 19637.00
320.7950, 20336.00
322.0040, 20623.00
323.2130, 20861.00
324.4210, 20944.00
325.6290, 20638.00
326.8380, 20218.00
328.0460, 19504.00
329.2530, 18764.00
330.4610, 18086.00
331.6680, 17067.00
332.8760, 16339.00
334.0830, 15528.00
335.2890, 14892.97
336.4960, 14420.00
337.7030, 13845.00
338.9090, 13498.00
340.1150, 13133.00
341.3210, 12988.00
342.5270, 12714.00
343.7330, 12609.00
344.9380, 12578.00
346.1440, 12587.00
347.3490, 12705.00
348.5540, 12913.00
349.7590, 12735.00
350.9630, 13016.00
352.1680, 13014.00
353.3720, 13169.00
354.5760, 13304.00
355.7800, 13173.00
356.9840, 13153.00
358.1870, 13126.00
359.3910, 12991.00
360.5940, 12956.74
361.7970, 12780.00
363.0000, 12784.00
364.2030, 12653.00
365.4050, 12524.00
366.6080, 12441.00
367.8100, 12538.00
369.0120, 12474.00
370.2140, 12694.00
371.4150, 12850.00
372.6170, 13169.00
373.8180, 13388.00
375.0190, 13618.00
376.2200, 13993.00
377.4210, 14255.00
378.6220, 14829.00
379.8220, 15345.00
381.0230, 15804.00
382.2230, 16362.00
383.4230, 16882.00
384.6220, 17295.00
385.8220, 17883.00
387.0220, 18484.00
388.2210, 18599.00
389.4200, 18902.00
390.6190, 18935.00
391.8180, 18535.00
393.0160, 18008.00
394.2150, 17604.00
395.4130, 16820.00
396.6110, 16256.00
397.8090, 15449.00
399.0060, 14707.00
400.2040, 14016.00
401.4010, 13375.08
402.5980, 12734.00
403.7950, 12206.00
404.9920, 11696.00
406.1890, 11272.79
407.3860, 10796.00
408.5820, 10587.00
409.7780, 10230.00
410.9740, 9985.000
412.1700, 9845.000
413.3650, 9654.000
414.5610, 9514.000
415.7560, 9453.000
416.9510, 9266.000
418.1460, 9124.000
419.3410, 9288.000
420.5360, 9191.000
421.7300, 9111.000
422.9240, 9091.000
424.1180, 9036.000
425.3120, 8962.000
426.5060, 9058.000
427.7000, 9080.000
428.8930, 9000.000
430.0860, 8999.000
431.2790, 8997.000
432.4720, 9050.000
433.6650, 8992.000
434.8580, 9057.000
436.0500, 8918.000
437.2420, 8988.000
438.4340, 8976.000
439.6260, 8936.000
440.8180, 9019.000
442.0090, 8998.000
443.2010, 9033.000
444.3920, 9032.000
445.5830, 9044.602
446.7740, 8956.000
447.9640, 9108.000
449.1550, 9079.000
450.3450, 9178.000
451.5350, 9161.000
452.7250, 9322.000
453.9150, 9326.000
455.1050, 9188.000
456.2940, 9371.000
457.4830, 9314.000
458.6720, 9486.000
459.8610, 9556.000
461.0500, 9501.000
462.2390, 9504.000
463.4270, 9530.000
464.6150, 9396.000
465.8040, 9393.000
466.9910, 9372.357
468.1790, 9339.000
469.3670, 9340.000
470.5540, 9373.000
471.7410, 9339.000
472.9280, 9315.553
474.1150, 9275.000
475.3020, 9224.000
476.4890, 9195.000
477.6750, 9146.000
478.8610, 9131.000
480.0470, 9005.000
481.2330, 9123.000
482.4190, 9139.000
483.6040, 9182.000
484.7900, 9103.000
485.9750, 9151.000
487.1600, 9202.000
488.3450, 9166.000
489.5290, 9290.000
490.7140, 9267.000
491.8980, 9345.000
493.0820, 9526.000
494.2660, 9556.000
495.4500, 9777.000
496.6340, 9836.000
497.8170, 10135.00
499.0010, 10415.00
500.1840, 10703.00
501.3670, 11020.25
502.5500, 11279.00
503.7320, 11644.00
504.9150, 11997.00
506.0970, 12283.00
507.2790, 12283.00
508.4610, 12615.00
509.6430, 12472.00
510.8250, 12587.00
512.0060, 12314.00
513.1870, 12189.00
514.3680, 11994.00
515.5490, 11850.00
516.7300, 11758.00
517.9110, 11666.00
519.0910, 11565.76
520.2710, 11524.77
521.4510, 11403.00
522.6310, 11466.00
523.8110, 11408.00
524.9910, 11412.00
526.1700, 11542.00
527.3490, 11454.00
528.5280, 11384.00
529.7070, 11565.00
530.8860, 11453.00
532.0650, 11438.00
533.2430, 11395.00
534.4210, 11295.00
535.5990, 11194.00
536.7770, 11149.00
537.9550, 11095.00
539.1320, 10930.00
540.3100, 10937.00
541.4870, 10873.00
542.6640, 10855.00
543.8410, 10922.00
545.0170, 10981.00
546.1940, 10968.00
547.3700, 11244.00
548.5470, 11339.00
549.7230, 11448.00
550.8980, 11818.00
552.0740, 11984.00
553.2500, 12216.00
554.4250, 12433.00
555.6000, 12546.00
556.7750, 12622.00
557.9500, 12536.00
559.1250, 12448.00
560.2990, 12034.00
561.4730, 11853.08
562.6480, 11530.00
563.8220, 11207.00
564.9950, 11116.00
566.1690, 10773.00
567.3430, 10818.00
568.5160, 10587.00
569.6890, 10404.00
570.8620, 10265.00
572.0350, 10121.00
573.2070, 10039.00
574.3800, 10042.00
575.5520, 9940.000
576.7240, 9867.000
577.8960, 9734.000
579.0680, 9666.000
580.2400, 9600.000
581.4110, 9467.000
582.5830, 9482.000
583.7540, 9447.000
584.9250, 9325.000
586.0950, 9331.000
587.2660, 9317.000
588.4370, 9313.000
589.6070, 9223.000
590.7770, 9107.000
591.9470, 9175.000
593.1170, 9145.000
594.2860, 9092.000
595.4560, 9245.000
596.6250, 9205.000
597.7940, 9051.000
598.9630, 9111.000
600.1320, 9105.000
601.3000, 9098.000
602.4690, 9019.000
603.6370, 9247.000
604.8050, 9078.000
605.9730, 9317.000
607.1410, 9312.000
608.3090, 9301.000
609.4760, 9475.000
610.6430, 9385.000
611.8100, 9526.000
612.9770, 9674.000
614.1440, 9842.000
615.3110, 9845.000
616.4770, 9862.000
617.6430, 9944.000
618.8090, 9930.000
619.9750, 10103.00
621.1410, 10199.00
622.3070, 10439.00
623.4720, 10480.00
624.6370, 10780.00
625.8020, 10908.00
626.9670, 11017.00
628.1320, 11094.00
629.2970, 11410.00
630.4610, 11460.00
631.6250, 11708.00
632.7890, 11842.82
633.9530, 12096.00
635.1170, 12109.00
636.2810, 12327.00
637.4440, 12480.00
638.6070, 12616.00
639.7700, 12968.00
640.9330, 13282.00
642.0960, 13532.00
643.2590, 13839.00
644.4210, 14297.00
645.5830, 14948.00
646.7450, 15603.05
647.9070, 16282.00
649.0690, 17316.00
650.2310, 18392.00
651.3920, 19506.00
652.5530, 20988.00
653.7140, 22658.00
654.8750, 24376.00
656.0360, 26411.00
657.1970, 28443.00
658.3570, 30827.00
659.5170, 33310.00
660.6770, 35701.00
661.8370, 37994.00
662.9970, 39759.00
664.1570, 40544.00
665.3160, 40633.00
666.4750, 39633.00
667.6340, 38190.00
668.7930, 35863.00
669.9520, 33761.00
671.1110, 31511.00
672.2690, 28944.00
673.4270, 26927.00
674.5850, 24612.00
675.7430, 23103.00
676.9010, 21216.00
678.0590, 19850.00
679.2160, 18511.00
680.3730, 17200.00
681.5300, 15927.00
682.6870, 15109.00
683.8440, 14337.00
685.0010, 13594.00
686.1570, 13144.00
687.3130, 12703.00
688.4690, 12356.00
689.6250, 12033.00
690.7810, 11703.00
691.9370, 11469.00
693.0920, 11174.00
694.2470, 11112.00
695.4020, 10977.00
696.5570, 10838.00
697.7120, 10827.00
698.8670, 10532.00
700.0210, 10613.00
701.1750, 10448.00
702.3290, 10422.00
703.4830, 10417.00
704.6370, 10359.00
705.7910, 10384.00
706.9440, 10195.00
708.0970, 10170.00
709.2510, 10012.00
710.4030, 10032.00
711.5560, 9953.000
712.7090, 9894.000
713.8610, 10010.00
715.0140, 9742.000
716.1660, 9829.000
717.3180, 9666.000
718.4690, 9840.000
719.6210, 9680.000
720.7730, 9817.000
721.9240, 9573.000
723.0750, 9548.000
724.2260, 9450.000
725.3770, 9542.000
726.5270, 9608.000
727.6780, 9431.000
728.8280, 9484.000
729.9780, 9489.000
731.1280, 9547.000
732.2780, 9585.000
733.4280, 9675.000
734.5770, 9542.000
735.7260, 9608.000
736.8760, 9513.000
738.0250, 9638.000
739.1730, 9565.000
740.3220, 9563.000
741.4700, 9563.000
742.6190, 9706.000
743.7670, 9675.000
744.9150, 9781.000
746.0630, 9656.000
747.2100, 9703.000
748.3580, 9800.000
749.5050, 9616.000
750.6520, 9802.000
751.7990, 9697.000
752.9460, 9837.000
754.0930, 9718.000
755.2390, 9704.000
756.3860, 9731.000
757.5320, 9733.000
758.6780, 9766.000
759.8240, 9762.353
760.9690, 9777.000
762.1150, 9765.000
763.2600, 9803.000
764.4060, 9818.522
765.5510, 9863.000
766.6950, 9907.000
767.8400, 9950.000
768.9850, 9958.000
770.1290, 9973.000
771.2730, 9941.000
772.4170, 9977.000
773.5610, 10085.00
774.7050, 10025.00
775.8480, 10102.00
776.9920, 10141.00
778.1350, 10005.00
779.2780, 10139.00
780.4210, 10107.83
781.5640, 10187.00
782.7060, 10158.00
783.8490, 10252.00
784.9910, 10289.00
786.1330, 10278.00
787.2750, 10312.13
788.4170, 10330.57
789.5580, 10268.00
790.7000, 10345.00
791.8410, 10248.00
792.9820, 10178.00
794.1230, 10270.00
795.2640, 10254.00
796.4040, 10283.79
797.5450, 10243.00
798.6850, 10344.00
799.8250, 10296.00
800.9650, 10294.00
802.1050, 10229.00
803.2450, 10259.50
804.3840, 10388.00
805.5230, 10364.00
806.6630, 10356.00
807.8020, 10515.00
808.9400, 10577.00
810.0790, 10557.00
811.2170, 10682.00
812.3560, 10751.00
813.4940, 10744.00
814.6320, 10818.00
815.7700, 10823.00
816.9070, 10854.00
818.0450, 11095.00
819.1820, 11176.00
820.3190, 11295.00
821.4560, 11297.00
822.5930, 11393.00
823.7300, 11426.00
824.8670, 11526.00
826.0030, 11662.00
827.1390, 11639.00
828.2750, 11655.00
829.4110, 11638.00
830.5470, 11590.00
831.6820, 11585.85
832.8180, 11541.00
833.9530, 11536.00
835.0880, 11471.00
836.2230, 11443.00
837.3580, 11417.04
838.4920, 11391.00
839.6270, 11352.00
840.7610, 11251.00
841.8950, 11190.00
843.0290, 11149.00
844.1630, 11116.00
845.2960, 11160.00
846.4300, 11087.00
847.5630, 11154.00
848.6960, 11112.00
849.8290, 10973.00
850.9620, 11103.00
852.0940, 11183.00
853.2270, 11250.00
854.3590, 11183.00
855.4910, 11197.00
856.6230, 11341.00
857.7550, 11305.00
858.8870, 11377.00
860.0180, 11271.00
861.1500, 11359.00
862.2810, 11238.00
863.4120, 11415.00
864.5430, 11285.00
865.6730, 11297.00
866.8040, 11388.00
867.9340, 11290.00
869.0640, 11226.00
870.1940, 11446.00
871.3240, 11309.00
872.4540, 11283.00
873.5830, 11443.00
874.7130, 11348.00
875.8420, 11363.00
876.9710, 11470.00
878.1000, 11461.00
879.2290, 11468.00
880.3570, 11455.00
881.4860, 11584.00
882.6140, 11457.00
883.7420, 11597.00
884.8700, 11410.00
885.9980, 11590.00
887.1250, 11676.00
888.2530, 11697.00
889.3800, 11764.41
890.5070, 11773.55
891.6340, 11784.00
892.7610, 11766.00
893.8880, 11774.00
895.0140, 11741.00
896.1400, 11838.00
897.2670, 11756.00
898.3930, 11889.00
899.5180, 11657.00
900.6440, 11860.00
901.7700, 11772.00
902.8950, 11853.00
904.0200, 11871.00
905.1450, 12012.00
906.2700, 12089.00
907.3950, 12120.00
908.5190, 12245.00
909.6440, 12233.00
910.7680, 12331.00
911.8920, 12308.00
913.0160, 12302.00
914.1400, 12387.00
915.2630, 12506.00
916.3870, 12531.00
917.5100, 12593.00
918.6330, 12606.00
919.7560, 12675.00
920.8790, 12902.00
922.0010, 12822.00
923.1240, 12570.00
924.2460, 12582.00
925.3680, 12727.00
926.4900, 12812.00
927.6120, 12766.00
928.7340, 12687.00
929.8550, 12597.00
930.9760, 12627.00
932.0980, 12745.00
933.2190, 12612.00
934.3390, 12696.00
935.4600, 12602.00
936.5810, 12626.00
937.7010, 12496.00
938.8210, 12558.00
939.9410, 12509.00
941.0610, 12640.00
942.1810, 12644.00
943.3010, 12735.00
944.4200, 12739.00
945.5390, 12738.00
946.6580, 12773.00
947.7770, 12812.00
948.8960, 12890.00
950.0150, 12901.00
951.1330, 12832.00
952.2510, 13083.00
953.3690, 12853.00
954.4870, 12943.00
955.6050, 12915.00
956.7230, 13066.00
957.8400, 13142.00
958.9580, 13335.00
960.0750, 13314.00
961.1920, 13338.00
962.3090, 13450.00
963.4250, 13622.00
964.5420, 13662.99
965.6580, 13975.00
966.7740, 13912.00
967.8900, 14056.00
969.0060, 14361.00
970.1220, 14631.00
971.2380, 14658.00
972.3530, 14938.00
973.4680, 15315.00
974.5830, 15657.00
975.6980, 15944.00
976.8130, 16180.00
977.9280, 16596.00
979.0420, 17100.67
980.1560, 17721.00
981.2710, 18383.00
982.3850, 19118.00
983.4980, 19998.00
984.6120, 21227.00
985.7260, 22386.00
986.8390, 23772.00
987.9520, 24928.00
989.0650, 26553.00
990.1780, 28188.00
991.2910, 29537.00
992.4030, 31033.00
993.5160, 31987.00
994.6280, 33302.00
995.7400, 34012.00
996.8520, 34645.00
997.9640, 35174.00
999.0750, 35807.00
1000.187, 36654.00
1001.298, 37951.00
1002.409, 39313.00
1003.520, 41258.00
1004.631, 43240.00
1005.741, 45759.00
1006.852, 48559.00
1007.962, 51356.00
1009.072, 53183.00
1010.182, 54344.00
1011.292, 55137.00
1012.402, 53996.00
1013.511, 51540.00
1014.621, 47761.00
1015.730, 43819.00
1016.839, 39589.00
1017.948, 35235.00
1019.056, 31485.00
1020.165, 28457.00
1021.273, 25708.00
1022.382, 23924.00
1023.490, 22290.00
1024.598, 20994.00
1025.706, 20288.00
1026.813, 19362.00
1027.921, 18791.00
1029.028, 18403.00
1030.135, 17758.00
1031.242, 17699.00
1032.349, 17228.00
1033.456, 17002.00
1034.562, 17015.00
1035.668, 16873.00
1036.775, 16882.00
1037.881, 16729.00
1038.987, 16631.00
1040.092, 16817.00
1041.198, 16451.00
1042.303, 16533.00
1043.408, 16298.00
1044.514, 16297.00
1045.618, 15861.00
1046.723, 15717.00
1047.828, 15548.00
1048.932, 15043.00
1050.037, 14905.00
1051.141, 14759.00
1052.245, 14340.00
1053.349, 14311.00
1054.452, 13972.00
1055.556, 13899.00
1056.659, 13759.00
1057.762, 13466.00
1058.865, 13392.00
1059.968, 13108.00
1061.071, 13158.00
1062.174, 13093.00
1063.276, 13070.00
1064.378, 12964.00
1065.480, 12865.00
1066.582, 12805.68
1067.684, 12676.00
1068.786, 12664.00
1069.887, 12652.00
1070.988, 12619.50
1072.090, 12537.60
1073.191, 12483.00
1074.291, 12438.00
1075.392, 12339.00
1076.493, 12497.00
1077.593, 12465.00
1078.693, 12581.00
1079.793, 12460.00
1080.893, 12561.00
1081.993, 12718.00
1083.092, 12676.00
1084.192, 12618.00
1085.291, 12392.00
1086.390, 12394.00
1087.489, 12404.00
1088.588, 12283.00
1089.686, 12220.00
1090.785, 12260.00
1091.883, 12282.00
1092.981, 12235.51
1094.079, 12171.00
1095.177, 12188.00
1096.275, 12076.00
1097.373, 12071.00
1098.470, 12082.00
1099.567, 12220.00
1100.664, 12043.00
1101.761, 12078.00
1102.858, 12019.00
1103.954, 11982.07
1105.051, 12155.00
1106.147, 12012.00
1107.243, 12079.00
1108.339, 12208.00
1109.435, 11997.00
1110.531, 12013.00
1111.626, 11904.00
1112.722, 12162.00
1113.817, 12128.00
1114.912, 12084.00
1116.007, 12078.00
1117.101, 12100.42
1118.196, 12166.66
1119.290, 12187.00
1120.385, 12256.00
1121.479, 12309.00
1122.573, 12119.00
1123.666, 12221.00
1124.760, 12115.00
1125.853, 12016.00
1126.947, 12087.00
1128.040, 11984.00
1129.133, 11922.00
1130.226, 11926.00
1131.318, 11792.00
1132.411, 11677.00
1133.503, 11883.00
1134.596, 11756.00
1135.688, 11760.00
1136.780, 11694.00
1137.871, 11786.00
1138.963, 11660.00
1140.054, 11789.00
1141.146, 11818.00
1142.237, 11747.00
1143.328, 11658.00
1144.419, 11584.00
1145.509, 11762.00
1146.600, 11678.00
1147.690, 11624.00
1148.780, 11661.00
1149.870, 11485.00
1150.960, 11545.00
1152.050, 11341.00
1153.139, 11608.00
1154.229, 11532.00
1155.318, 11507.00
1156.407, 11509.00
1157.496, 11474.62
1158.585, 11475.08
1159.674, 11462.00
1160.762, 11485.00
1161.850, 11491.00
1162.939, 11536.00
1164.027, 11646.00
1165.114, 11352.00
1166.202, 11409.00
1167.290, 11406.00
1168.377, 11469.00
1169.464, 11516.00
1170.551, 11401.00
1171.638, 11580.00
1172.725, 11494.00
1173.812, 11612.00
1174.898, 11517.00
1175.984, 11446.00
1177.071, 11621.00
1178.157, 11506.00
1179.242, 11577.00
1180.328, 11387.00
1181.414, 11682.00
1182.499, 11379.00
1183.584, 11642.00
1184.669, 11486.00
1185.754, 11579.00
1186.839, 11717.00
1187.924, 11576.00
1189.008, 11575.00
1190.092, 11567.00
1191.177, 11598.00
1192.260, 11549.00
1193.344, 11515.00
1194.428, 11524.00
1195.512, 11560.81
1196.595, 11589.30
1197.678, 11632.00
1198.761, 11670.00
1199.844, 11570.00
1200.927, 11532.00
1202.009, 11649.00
1203.092, 11555.00
1204.174, 11679.00
1205.256, 11737.00
1206.338, 11589.00
1207.420, 11637.00
1208.502, 11522.00
1209.583, 11722.00
1210.665, 11752.00
1211.746, 11711.00
1212.827, 11860.00
1213.908, 11773.00
1214.988, 11804.00
1216.069, 11870.00
1217.149, 11816.00
1218.230, 11897.00
1219.310, 11844.00
1220.390, 11778.00
1221.470, 11747.00
1222.549, 11772.00
1223.629, 11815.00
1224.708, 11831.00
1225.787, 11773.00
1226.866, 11817.00
1227.945, 11861.00
1229.024, 11969.00
1230.103, 11834.00
1231.181, 11912.00
1232.259, 11990.00
1233.337, 11892.00
1234.415, 11990.00
1235.493, 11850.00
1236.571, 11986.00
1237.648, 11882.00
1238.726, 11992.00
1239.803, 11916.00
1240.880, 11929.00
1241.957, 11945.00
1243.034, 11802.00
1244.110, 12004.00
1245.187, 12064.00
1246.263, 12058.00
1247.339, 11919.00
1248.415, 11967.00
1249.491, 11943.00
1250.566, 11882.00
1251.642, 12002.00
1252.717, 11878.00
1253.793, 12023.00
1254.868, 12026.00
1255.943, 11979.00
1257.017, 12107.00
1258.092, 12139.00
1259.166, 12128.00
1260.241, 11972.00
1261.315, 12065.00
1262.389, 12099.00
1263.462, 12072.00
1264.536, 12239.00
1265.610, 12103.00
1266.683, 12179.00
1267.756, 12130.00
1268.829, 12121.00
1269.902, 12220.00
1270.975, 12253.00
1272.048, 12190.00
1273.120, 12223.00
1274.192, 12225.00
1275.264, 12252.00
1276.336, 12221.00
1277.408, 12184.00
1278.480, 12241.00
1279.551, 12341.00
1280.623, 12332.00
1281.694, 12293.00
1282.765, 12414.00
1283.836, 12367.00
1284.907, 12303.00
1285.977, 12353.00
1287.048, 12382.00
1288.118, 12351.00
