##NAMES=Augite
##RRUFFID=R061086
##IDEAL CHEMISTRY=(Ca,Mg,Fe^2+^,Fe^3+^)_2_(Si,Al)_2_O_6_
##LOCALITY=Boreslav, Teplitz, Bohemia, Czech Republic
##OWNER=RRUFF
##SOURCE=Michael Scott
##DESCRIPTION=Black to dark green tabular euhedral crystal
##STATUS=The identification of this mineral has been confirmed by X-ray diffraction and chemical analysis
##URL=rruff.info/R061086
##MEASURED CHEMISTRY=(Ca_0.88_Mg_0.83_Fe_0.13_Al_0.08_Na_0.04_Ti_0.03_Cr_0.01_)_Σ=2_(Si_1.89_Al_0.11_)_Σ=2_O_6_
##PIN_ID=M00351
##ORIENTATION=Laser parallel to (1 0 1). Fiducial mark perpendicular to laser is parallel to b [0 1 0]
226.3290, 20525.00
227.5550, 20307.00
228.7810, 20405.00
230.0060, 20392.00
231.2310, 20644.00
232.4560, 20687.00
233.6810, 20548.00
234.9050, 20606.00
236.1290, 20600.00
237.3540, 20610.00
238.5770, 20588.00
239.8010, 20633.16
241.0250, 20735.00
242.2480, 20671.00
243.4710, 20770.00
244.6940, 20690.00
245.9170, 20887.00
247.1400, 20866.00
248.3620, 20889.00
249.5840, 20935.00
250.8060, 20757.00
252.0280, 20607.00
253.2500, 20754.00
254.4710, 20666.69
255.6920, 20800.00
256.9140, 20817.00
258.1340, 20972.00
259.3550, 20903.90
260.5760, 20865.74
261.7960, 20766.00
263.0160, 20668.00
264.2360, 20586.16
265.4560, 20490.00
266.6750, 20484.00
267.8940, 20470.00
269.1140, 20398.00
270.3330, 20594.00
271.5510, 20529.00
272.7700, 20561.00
273.9880, 20471.00
275.2070, 20601.00
276.4250, 20608.00
277.6420, 20578.00
278.8600, 20709.00
280.0770, 20613.00
281.2950, 20720.00
282.5120, 20744.43
283.7290, 20953.00
284.9450, 20841.00
286.1620, 20910.00
287.3780, 21000.00
288.5940, 20852.00
289.8100, 20976.00
291.0260, 21042.00
292.2410, 21001.00
293.4570, 21252.00
294.6720, 21363.00
295.8870, 21628.00
297.1010, 21540.00
298.3160, 21605.00
299.5300, 21671.00
300.7450, 21731.14
301.9590, 21824.00
303.1730, 21980.00
304.3860, 22158.00
305.6000, 22346.00
306.8130, 22447.00
308.0260, 22717.00
309.2390, 22844.00
310.4510, 23091.00
311.6640, 23509.00
312.8760, 24079.00
314.0880, 24113.00
315.3000, 24603.00
316.5120, 24689.00
317.7240, 25146.00
318.9350, 25292.00
320.1460, 25838.00
321.3570, 25603.00
322.5680, 26018.00
323.7790, 26243.00
324.9890, 26320.00
326.1990, 26473.00
327.4090, 26197.00
328.6190, 25910.00
329.8290, 25753.00
331.0380, 25681.00
332.2480, 25218.00
333.4570, 25166.00
334.6660, 24638.00
335.8740, 24585.00
337.0830, 24344.00
338.2910, 24154.00
339.5000, 24019.00
340.7080, 23735.00
341.9150, 23628.00
343.1230, 23456.00
344.3300, 23388.00
345.5380, 23164.00
346.7450, 23185.00
347.9520, 23275.00
349.1580, 23026.00
350.3650, 23330.00
351.5710, 23218.00
352.7770, 23062.00
353.9830, 23110.00
355.1890, 23000.00
356.3940, 22852.00
357.6000, 22928.00
358.8050, 22724.00
360.0100, 22680.00
361.2150, 22863.00
362.4190, 22684.00
363.6240, 22652.00
364.8280, 22698.00
366.0320, 22555.00
367.2360, 22737.00
368.4400, 22749.00
369.6430, 22583.00
370.8460, 22644.00
372.0500, 22654.00
373.2530, 22809.00
374.4550, 23086.00
375.6580, 23077.00
376.8600, 23481.00
378.0620, 23720.00
379.2650, 23865.00
380.4660, 24019.00
381.6680, 24356.00
382.8690, 24741.00
384.0710, 25013.00
385.2720, 25140.00
386.4730, 25517.00
387.6730, 25756.00
388.8740, 25847.00
390.0740, 26200.00
391.2740, 26078.00
392.4740, 26110.00
393.6740, 26017.00
394.8740, 25684.00
396.0730, 24984.00
397.2730, 24815.00
398.4720, 24335.00
399.6700, 23666.00
400.8690, 23368.00
402.0680, 23036.00
403.2660, 22799.00
404.4640, 22519.90
405.6620, 22305.16
406.8600, 22010.00
408.0570, 21895.00
409.2550, 21624.00
410.4520, 21373.00
411.6490, 21182.00
412.8460, 21195.00
414.0430, 21178.00
415.2390, 21267.00
416.4350, 21228.00
417.6310, 21331.00
418.8270, 21222.00
420.0230, 21077.00
421.2190, 21005.00
422.4140, 21068.00
423.6090, 21081.00
424.8040, 21016.00
425.9990, 20875.00
427.1940, 20921.00
428.3880, 20941.00
429.5820, 20815.00
430.7760, 20932.00
431.9700, 20906.96
433.1640, 21070.66
434.3580, 21167.14
435.5510, 21200.01
436.7440, 20978.76
437.9370, 21085.65
439.1300, 21061.03
440.3230, 21031.03
441.5150, 21184.09
442.7070, 20999.79
443.8990, 21149.96
445.0910, 21166.61
446.2830, 20915.00
447.4750, 20884.00
448.6660, 20780.00
449.8570, 20844.00
451.0480, 20831.00
452.2390, 20843.00
453.4290, 20785.00
454.6200, 20887.29
455.8100, 21102.00
457.0000, 21068.00
458.1900, 21111.00
459.3800, 21172.00
460.5690, 21209.00
461.7590, 21121.00
462.9480, 21094.00
464.1370, 20841.00
465.3260, 20879.00
466.5140, 20951.00
467.7030, 20771.00
468.8910, 20923.00
470.0790, 20949.45
471.2670, 21098.54
472.4550, 21180.41
473.6420, 21198.68
474.8300, 20962.82
476.0170, 21055.11
477.2040, 21015.89
478.3900, 20971.29
479.5770, 21109.76
480.7640, 20910.87
481.9500, 21046.45
483.1360, 21048.51
484.3220, 21111.68
485.5080, 21042.53
486.6930, 21014.25
487.8780, 21118.33
489.0640, 21149.12
490.2490, 21064.74
491.4330, 21131.80
492.6180, 20928.30
493.8030, 20942.00
494.9870, 21054.00
496.1710, 21115.00
497.3550, 21221.00
498.5390, 21414.00
499.7220, 21328.00
500.9060, 21604.00
502.0890, 21511.00
503.2720, 21593.00
504.4550, 21511.00
505.6370, 21797.00
506.8200, 21747.00
508.0020, 21735.00
509.1840, 21681.00
510.3660, 21909.00
511.5480, 21926.00
512.7290, 22018.00
513.9110, 21986.00
515.0920, 21950.00
516.2730, 21981.00
517.4540, 21824.00
518.6350, 21946.00
519.8150, 21625.00
520.9960, 21694.00
522.1760, 21672.00
523.3560, 21745.00
524.5350, 21756.89
525.7150, 21910.00
526.8950, 21798.00
528.0740, 21859.00
529.2530, 21881.00
530.4320, 21809.00
531.6100, 21842.00
532.7890, 21915.00
533.9670, 21851.47
535.1460, 21701.00
536.3240, 21800.00
537.5010, 21796.00
538.6790, 21773.00
539.8570, 21889.00
541.0340, 21756.00
542.2110, 21832.00
543.3880, 21692.00
544.5650, 21727.00
545.7410, 21738.00
546.9180, 21872.00
548.0940, 21838.00
549.2700, 21800.00
550.4460, 21904.00
551.6210, 22250.00
552.7970, 22057.00
553.9720, 22279.00
555.1480, 22151.00
556.3230, 22163.00
557.4970, 22042.00
558.6720, 21874.00
559.8460, 22247.00
561.0210, 21830.00
562.1950, 21864.00
563.3690, 22153.00
564.5420, 22073.00
565.7160, 21959.00
566.8890, 21885.00
568.0630, 21766.00
569.2360, 21648.00
570.4090, 21544.00
571.5810, 21447.00
572.7540, 21521.00
573.9260, 21230.00
575.0980, 21278.00
576.2700, 21262.00
577.4420, 21521.00
578.6140, 21447.00
579.7850, 21350.00
580.9560, 21229.00
582.1270, 21241.00
583.2980, 21474.00
584.4690, 20945.00
585.6400, 21089.00
586.8100, 21157.00
587.9800, 20945.00
589.1500, 21176.00
590.3200, 21076.00
591.4900, 21169.00
592.6590, 21039.00
593.8290, 21128.00
594.9980, 21257.00
596.1670, 20933.00
597.3360, 20995.00
598.5040, 20970.00
599.6730, 20982.00
600.8410, 21180.00
602.0090, 20919.00
603.1770, 21071.00
604.3450, 21294.00
605.5130, 21276.00
606.6800, 21237.00
607.8470, 21184.00
609.0140, 21182.02
610.1810, 21188.00
611.3480, 21180.00
612.5140, 21227.00
613.6810, 21267.00
614.8470, 21301.00
616.0130, 21311.00
617.1790, 21316.00
618.3440, 21459.00
619.5100, 21354.00
620.6750, 21425.00
621.8400, 21567.00
623.0050, 21474.00
624.1700, 21585.00
625.3350, 21374.00
626.4990, 21450.00
627.6640, 21762.00
628.8280, 21616.00
629.9920, 21597.00
631.1550, 21851.00
632.3190, 21861.00
633.4820, 22097.00
634.6460, 21987.00
635.8090, 22150.00
636.9710, 22088.00
638.1340, 22018.00
639.2970, 22136.00
640.4590, 22422.00
641.6210, 22578.00
642.7830, 22613.00
643.9450, 22908.00
645.1070, 23038.00
646.2680, 23247.00
647.4300, 23382.00
648.5910, 23818.00
649.7520, 24071.00
650.9130, 24466.00
652.0730, 24801.00
653.2340, 25313.41
654.3940, 25785.00
655.5540, 26461.00
656.7140, 27145.17
657.8740, 28060.00
659.0330, 28719.00
660.1930, 29659.00
661.3520, 30519.00
662.5110, 30748.00
663.6700, 31242.00
664.8290, 31540.00
665.9870, 31421.00
667.1460, 30940.00
668.3040, 30830.00
669.4620, 29960.00
670.6200, 29246.00
671.7770, 28433.00
672.9350, 27709.00
674.0920, 26974.86
675.2500, 25844.00
676.4070, 25596.00
677.5630, 24877.00
678.7200, 24337.00
679.8770, 24121.00
681.0330, 23796.00
682.1890, 23565.00
683.3450, 23412.00
684.5010, 23740.00
685.6560, 23137.00
686.8120, 23190.00
687.9670, 23101.00
689.1220, 22757.00
690.2770, 22535.00
691.4320, 22667.00
692.5870, 22470.00
693.7410, 22432.00
694.8950, 22613.00
696.0490, 22399.00
697.2030, 22615.00
698.3570, 22647.00
699.5110, 22638.00
700.6640, 22356.00
701.8170, 22417.00
702.9700, 22465.00
704.1230, 22557.00
705.2760, 22385.00
706.4290, 22402.00
707.5810, 22444.00
708.7330, 22473.00
709.8850, 22452.37
711.0370, 22567.00
712.1890, 22438.00
713.3400, 22422.00
714.4920, 22492.00
715.6430, 22446.00
716.7940, 22551.00
717.9450, 22358.00
719.0960, 22309.00
720.2460, 22400.00
721.3960, 22356.00
722.5470, 22469.00
723.6970, 22456.00
724.8460, 22682.00
725.9960, 22344.00
727.1460, 22230.00
728.2950, 22447.00
729.4440, 22354.00
730.5930, 22306.00
731.7420, 22412.00
732.8910, 22230.00
734.0390, 22203.00
735.1870, 22252.00
736.3360, 22439.00
737.4840, 22448.00
738.6310, 22647.00
739.7790, 22795.00
740.9260, 22554.00
742.0740, 22673.00
743.2210, 22564.00
744.3680, 22657.00
745.5150, 22815.00
746.6610, 22478.00
747.8080, 22769.00
748.9540, 22667.00
750.1000, 22905.00
751.2460, 22840.00
752.3920, 22897.00
753.5380, 23006.00
754.6830, 23118.00
755.8280, 23102.00
756.9730, 23127.00
758.1180, 22973.00
759.2630, 23160.00
760.4080, 23125.00
761.5520, 23508.00
762.6960, 23386.00
763.8410, 23530.00
764.9840, 23424.00
766.1280, 23643.00
767.2720, 23902.00
768.4150, 23625.00
769.5590, 23609.00
770.7020, 23724.00
771.8450, 23519.00
772.9870, 23712.00
774.1300, 23792.00
775.2720, 23845.00
776.4150, 23786.00
777.5570, 23945.00
778.6990, 23926.00
779.8400, 23971.00
780.9820, 23965.06
782.1230, 24103.00
783.2650, 23826.00
784.4060, 23778.00
785.5470, 23581.00
786.6870, 23744.00
787.8280, 23726.00
788.9680, 23671.00
790.1090, 23754.00
791.2490, 23756.96
792.3890, 23812.73
793.5280, 23868.00
794.6680, 23938.00
795.8070, 24023.00
796.9470, 24061.00
798.0860, 23969.00
799.2250, 24000.02
800.3630, 23944.00
801.5020, 23995.00
802.6410, 24024.00
803.7790, 24160.00
804.9170, 24115.00
806.0550, 24204.00
807.1930, 24317.00
808.3300, 24145.00
809.4680, 24117.00
810.6050, 23971.00
811.7420, 24068.60
812.8790, 24445.00
814.0160, 24318.00
815.1520, 24577.00
816.2890, 24743.00
817.4250, 24470.00
818.5610, 24602.00
819.6970, 24610.00
820.8330, 24528.00
821.9680, 24760.00
823.1040, 24505.00
824.2390, 24573.00
825.3740, 24505.00
826.5090, 24445.00
827.6440, 24531.85
828.7790, 24553.00
829.9130, 24653.00
831.0470, 24782.00
832.1810, 24833.00
833.3150, 24725.00
834.4490, 24721.00
835.5830, 24628.00
836.7160, 24576.93
837.8500, 24668.00
838.9830, 24484.00
840.1160, 24591.00
841.2480, 24596.00
842.3810, 24507.00
843.5140, 24639.00
844.6460, 24579.00
845.7780, 24696.00
846.9100, 24950.00
848.0420, 24728.00
849.1740, 24706.00
850.3050, 24905.00
851.4360, 24676.00
852.5680, 24771.00
853.6990, 24602.00
854.8290, 24762.00
855.9600, 24606.00
857.0910, 25053.00
858.2210, 25058.00
859.3510, 25021.00
860.4810, 25181.00
861.6110, 24959.00
862.7410, 25240.00
863.8700, 25147.00
865.0000, 25183.00
866.1290, 24930.00
867.2580, 25062.00
868.3870, 25143.00
869.5150, 25191.00
870.6440, 25182.00
871.7720, 25398.00
872.9000, 25280.00
874.0290, 25253.00
875.1560, 25333.00
876.2840, 25086.00
877.4120, 25137.00
878.5390, 25106.24
879.6660, 25236.00
880.7930, 25115.00
881.9200, 25206.00
883.0470, 25246.00
884.1740, 25548.00
885.3000, 25411.00
886.4260, 25603.00
887.5530, 25452.00
888.6780, 25358.00
889.8040, 25432.00
890.9300, 25399.00
892.0550, 25483.00
893.1810, 25320.00
894.3060, 25321.00
895.4310, 25402.00
896.5560, 25344.00
897.6800, 25418.69
898.8050, 25473.97
899.9290, 25529.00
901.0530, 25602.00
902.1770, 25685.00
903.3010, 25714.00
904.4250, 25657.00
905.5480, 25397.00
906.6720, 25449.00
907.7950, 25606.00
908.9180, 25803.00
910.0410, 25819.00
911.1630, 25874.00
912.2860, 26007.00
913.4080, 26071.00
914.5300, 25944.00
915.6530, 25893.00
916.7740, 25974.69
917.8960, 25814.00
919.0180, 26115.00
920.1390, 25917.00
921.2600, 25954.00
922.3820, 25839.00
923.5020, 26142.00
924.6230, 26081.00
925.7440, 26280.00
926.8640, 26302.00
927.9850, 26262.00
929.1050, 26432.00
930.2250, 26189.00
931.3450, 26099.00
932.4640, 26289.00
933.5840, 26069.00
934.7030, 26469.00
935.8220, 26356.00
936.9410, 26148.00
938.0600, 26425.00
939.1790, 26371.00
940.2970, 26539.00
941.4160, 26312.00
942.5340, 26284.00
943.6520, 26324.00
944.7700, 26426.00
945.8870, 26467.00
947.0050, 26393.00
948.1220, 26432.00
949.2400, 26344.00
950.3570, 26426.18
951.4740, 26591.00
952.5900, 26572.00
953.7070, 26606.00
954.8240, 26652.00
955.9400, 26600.00
957.0560, 26354.00
958.1720, 26466.15
959.2880, 26506.15
960.4030, 26640.00
961.5190, 26713.00
962.6340, 27054.00
963.7490, 27000.00
964.8640, 27085.00
965.9790, 27360.00
967.0940, 27092.00
968.2080, 27097.00
969.3230, 27230.00
970.4370, 27074.00
971.5510, 27322.00
972.6650, 27505.00
973.7790, 27542.00
974.8920, 27610.00
976.0060, 27660.00
977.1190, 27982.00
978.2320, 28053.00
979.3450, 28208.00
980.4580, 28130.00
981.5710, 28649.00
982.6830, 28596.00
983.7950, 28625.00
984.9080, 28951.00
986.0200, 29069.00
987.1310, 29345.00
988.2430, 29477.00
989.3550, 29933.00
990.4660, 30228.00
991.5770, 30699.00
992.6880, 31199.36
993.7990, 31706.72
994.9100, 32346.00
996.0200, 32939.00
997.1310, 33669.00
998.2410, 34446.00
999.3510, 35267.00
1000.461, 36444.00
1001.571, 37630.00
1002.681, 38624.00
1003.790, 39618.00
1004.899, 40526.00
1006.009, 41134.00
1007.118, 41657.00
1008.226, 41568.00
1009.335, 41291.00
1010.444, 40665.00
1011.552, 40000.00
1012.660, 38897.00
1013.768, 37148.00
1014.876, 36101.00
1015.984, 34641.00
1017.092, 33825.00
1018.199, 32653.00
1019.306, 31920.00
1020.413, 31158.00
1021.520, 30430.00
1022.627, 30044.00
1023.734, 29478.00
1024.840, 29616.00
1025.947, 28970.00
1027.053, 28863.00
1028.159, 28501.00
1029.265, 28817.00
1030.370, 28730.00
1031.476, 28779.00
1032.581, 28987.00
1033.687, 28477.00
1034.792, 28577.00
1035.897, 28808.00
1037.002, 28492.00
1038.106, 28306.00
1039.211, 28321.00
1040.315, 28128.00
1041.419, 28037.00
1042.523, 28258.00
1043.627, 28445.00
1044.731, 28359.00
1045.834, 28360.81
1046.938, 28293.42
1048.041, 28075.00
1049.144, 28050.00
1050.247, 27878.00
1051.349, 27760.00
1052.452, 27571.00
1053.555, 27533.00
1054.657, 27617.00
1055.759, 27833.00
1056.861, 27852.00
1057.963, 27764.00
1059.064, 27565.00
1060.166, 27626.00
1061.267, 27741.00
1062.368, 27317.00
1063.470, 27475.00
1064.570, 27374.00
1065.671, 27059.00
1066.772, 27353.00
1067.872, 27345.00
1068.972, 27072.00
1070.073, 27251.00
1071.173, 27385.00
1072.272, 27238.00
1073.372, 27393.00
1074.472, 27409.00
1075.571, 27088.00
1076.670, 27168.00
1077.769, 27103.00
1078.868, 26932.00
1079.967, 27030.00
1081.065, 27095.00
1082.164, 27284.00
1083.262, 27413.00
1084.360, 27247.00
1085.458, 27184.00
1086.556, 27369.00
1087.654, 27198.00
1088.751, 27302.00
1089.848, 27301.00
1090.946, 27048.00
1092.043, 27127.00
1093.139, 27185.00
1094.236, 27165.00
1095.333, 27407.00
1096.429, 27339.00
1097.525, 27178.00
1098.622, 27504.00
1099.718, 27600.00
1100.813, 27269.00
1101.909, 27478.00
1103.005, 27418.00
1104.100, 27075.00
1105.195, 27073.00
1106.290, 27071.00
1107.385, 27132.00
1108.480, 27257.00
1109.574, 27381.00
1110.669, 27409.00
1111.763, 27521.53
1112.857, 27491.00
1113.951, 27611.00
1115.045, 27507.00
1116.139, 27406.00
1117.232, 27302.00
1118.326, 27309.00
1119.419, 27128.00
1120.512, 27460.00
1121.605, 27295.00
1122.697, 27465.00
1123.790, 27540.39
1124.883, 27601.00
1125.975, 27550.00
1127.067, 27641.00
1128.159, 27394.00
1129.251, 27485.00
1130.342, 27175.00
1131.434, 27573.00
1132.525, 27307.00
1133.617, 27240.00
1134.708, 27432.00
1135.799, 27351.00
1136.889, 27339.00
1137.980, 27580.00
1139.071, 27648.00
1140.161, 27359.00
1141.251, 27254.00
1142.341, 27426.00
1143.431, 27228.00
1144.521, 27182.00
1145.610, 27159.00
1146.700, 27050.00
1147.789, 27283.00
1148.878, 27244.00
1149.967, 27351.00
1151.056, 27454.00
1152.144, 27510.00
1153.233, 27585.00
1154.321, 27482.00
1155.409, 27520.00
1156.498, 27265.00
1157.585, 27259.00
1158.673, 27290.00
1159.761, 27058.00
1160.848, 27250.00
1161.936, 27493.00
1163.023, 27553.00
1164.110, 27582.00
1165.197, 27461.00
1166.283, 27713.00
1167.370, 27412.00
1168.456, 27550.00
1169.542, 27469.00
1170.629, 27557.00
1171.714, 27502.44
1172.800, 27229.00
1173.886, 27452.00
1174.971, 27495.00
1176.057, 27634.70
1177.142, 27791.00
1178.227, 27693.00
1179.312, 27843.00
1180.397, 27783.00
1181.481, 27801.00
1182.566, 27770.00
1183.650, 27519.00
1184.734, 27803.00
1185.818, 27474.00
1186.902, 27662.00
1187.986, 27549.00
1189.069, 27696.00
1190.153, 27627.00
1191.236, 27958.00
1192.319, 28013.00
1193.402, 27875.00
1194.485, 27781.00
1195.567, 28003.00
1196.650, 27939.00
1197.732, 27759.00
1198.814, 27847.00
1199.896, 27816.00
1200.978, 27739.00
1202.060, 27940.00
1203.142, 28117.00
1204.223, 28026.00
1205.304, 28257.00
1206.386, 27822.00
1207.467, 28108.00
1208.547, 27782.00
1209.628, 28033.00
1210.709, 27843.00
1211.789, 28108.00
1212.869, 27676.00
1213.950, 28098.00
1215.030, 27898.00
1216.109, 27914.00
1217.189, 28020.00
1218.269, 28001.86
1219.348, 28406.00
1220.427, 28212.00
1221.506, 28292.00
1222.585, 28492.00
1223.664, 28234.00
1224.743, 28209.00
1225.821, 27971.00
1226.899, 28075.00
1227.978, 27961.00
1229.056, 28279.00
1230.134, 28368.00
1231.211, 28300.00
1232.289, 28228.00
1233.366, 28346.54
1234.444, 28564.00
1235.521, 28337.00
1236.598, 28551.00
1237.675, 28158.00
1238.751, 28406.00
1239.828, 28210.00
1240.904, 28111.00
1241.981, 28404.00
1243.057, 28599.00
1244.133, 28552.00
1245.209, 28387.00
1246.284, 28650.00
1247.360, 28554.00
1248.435, 28573.00
1249.510, 28771.00
1250.585, 28475.00
1251.660, 28551.00
1252.735, 28746.00
1253.810, 28473.00
1254.884, 28781.00
1255.959, 28556.00
1257.033, 28510.00
1258.107, 28642.00
1259.181, 28595.00
1260.255, 28619.69
1261.328, 28830.00
1262.402, 28587.00
1263.475, 28477.00
1264.548, 28363.00
1265.621, 28492.00
1266.694, 28278.00
1267.767, 28710.00
1268.840, 28639.00
1269.912, 28717.00
1270.984, 28796.00
1272.056, 28716.00
1273.129, 28945.00
1274.200, 28742.00
1275.272, 28868.00
1276.344, 28580.00
1277.415, 28588.00
1278.486, 28612.00
1279.558, 28514.00
1280.629, 28581.00
1281.699, 28832.00
1282.770, 28868.00
1283.841, 28956.00
1284.911, 28740.00
1285.981, 29062.00
1287.051, 29308.00
1288.121, 28976.00
1289.191, 29084.00
1290.261, 29016.00
1291.330, 29177.00
1292.400, 29165.00
1293.469, 28880.00
1294.538, 29279.00
1295.607, 29188.00
1296.676, 29516.00
1297.745, 29409.00
1298.813, 29179.00
1299.881, 29304.00
1300.950, 29374.00
1302.018, 29278.00
1303.086, 29349.00
1304.154, 29252.00
1305.221, 29310.00
1306.289, 29307.00
1307.356, 29343.00
1308.423, 29379.00
1309.490, 29280.00
1310.557, 29288.00
1311.624, 29506.00
1312.691, 29653.00
1313.757, 29400.00
1314.823, 29193.00
1315.890, 29383.00
1316.956, 29588.00
1318.022, 29506.00
1319.087, 29398.00
1320.153, 29252.00
1321.219, 29600.00
1322.284, 29278.00
1323.349, 29675.00
1324.414, 29344.00
1325.479, 29692.00
1326.544, 29907.00
1327.608, 29611.00
1328.673, 29588.00
1329.737, 29503.00
1330.801, 29649.00
1331.865, 29719.00
1332.929, 29487.00
1333.993, 29530.00
1335.057, 29749.00
1336.120, 29710.00
1337.183, 29918.00
1338.247, 29639.00
1339.310, 29875.00
1340.373, 29902.00
1341.435, 29753.00
1342.498, 29793.00
1343.560, 29946.00
1344.623, 29574.00
1345.685, 29866.00
1346.747, 29920.00
1347.809, 29645.00
1348.871, 30002.00
1349.932, 30032.00
1350.994, 30027.00
1352.055, 30121.36
1353.116, 30201.00
1354.177, 30024.00
1355.238, 30062.00
1356.299, 29892.91
1357.359, 30089.00
1358.420, 29881.00
1359.480, 29877.00
1360.540, 30044.00
1361.600, 29991.00
1362.660, 29825.00
1363.720, 30288.00
1364.780, 29908.00
1365.839, 30410.00
1366.898, 30134.00
1367.958, 30541.00
1369.017, 30194.00
1370.076, 30003.00
1371.134, 30045.00
1372.193, 29918.00
1373.251, 30359.00
1374.310, 29899.00
1375.368, 30209.00
1376.426, 30414.00
1377.484, 30142.00
1378.542, 30409.00
1379.599, 30451.00
1380.657, 30467.00
1381.714, 30271.00
1382.771, 30402.00
1383.828, 30354.00
1384.885, 30109.00
