##NAMES=Augite
##RRUFFID=R061108
##IDEAL CHEMISTRY=(Ca,Mg,Fe^2+^,Fe^3+^)_2_(Si,Al)_2_O_6_
##LOCALITY=Monti Rossi, near Mt. Etna, Sicily, Italy
##OWNER=RRUFF
##SOURCE=Michael Scott
##DESCRIPTION=Euhedral, short prismatic, black crystals in vesicular basalt.
##STATUS=The identification of this mineral is confirmed by single-crystal X-ray diffraction and chemical analysis.
##URL=rruff.info/R061108
##MEASURED CHEMISTRY=(Ca_0.86_Mg_0.74_Fe^2+^_0.18_Fe^3+^_0.08_Al_0.05_Ti_0.04_Na_0.04_Mn_0.01_)_Σ=2_(Si_1.83_Al_0.17_)_Σ=2_O_6_
##PIN_ID=L01693
##ORIENTATION=Laser parallel to -c* (0 0 -1). Fiducial mark perpendicular to laser is parallel to a [1 0 0]
158.6970, 11480.00
159.9310, 11552.00
161.1660, 11671.00
162.4000, 11819.00
163.6330, 11909.21
164.8670, 12044.73
166.1000, 12135.00
167.3340, 12235.00
168.5670, 12346.45
169.8000, 12324.65
171.0320, 12537.00
172.2650, 12437.00
173.4970, 12489.00
174.7290, 12579.00
175.9610, 12704.00
177.1930, 12818.00
178.4240, 12873.00
179.6550, 12886.00
180.8870, 12935.00
182.1170, 13096.00
183.3480, 13003.00
184.5790, 13208.00
185.8090, 13458.00
187.0390, 13669.00
188.2690, 13656.00
189.4990, 13756.00
190.7290, 13768.00
191.9580, 13905.00
193.1870, 13945.00
194.4160, 13841.14
195.6450, 14028.00
196.8740, 13682.00
198.1020, 13467.00
199.3310, 13590.00
200.5590, 13657.00
201.7870, 13571.00
203.0140, 13419.00
204.2420, 13112.00
205.4690, 12841.00
206.6960, 12767.00
207.9230, 12624.00
209.1500, 12798.00
210.3760, 12838.00
211.6030, 12686.00
212.8290, 13068.00
214.0550, 13153.00
215.2810, 13073.00
216.5060, 13063.00
217.7320, 13295.00
218.9570, 13197.00
220.1820, 13277.00
221.4070, 13384.00
222.6320, 13424.00
223.8560, 13480.79
225.0800, 13457.00
226.3040, 13489.00
227.5280, 13485.00
228.7520, 13355.00
229.9760, 13477.00
231.1990, 13537.00
232.4220, 13268.00
233.6450, 13377.00
234.8680, 13309.00
236.0910, 13216.00
237.3130, 13195.00
238.5350, 13196.02
239.7570, 13214.47
240.9790, 13254.00
242.2010, 13328.00
243.4220, 13351.00
244.6430, 13410.00
245.8640, 13450.00
247.0850, 13366.00
248.3060, 13628.00
249.5270, 13551.00
250.7470, 13510.00
251.9670, 13618.00
253.1870, 13579.00
254.4070, 13563.00
255.6260, 13383.96
256.8460, 13441.42
258.0650, 13461.86
259.2840, 13447.23
260.5030, 13292.50
261.7220, 13318.68
262.9400, 13272.38
264.1580, 13223.11
265.3760, 13086.00
266.5940, 13026.00
267.8120, 12920.00
269.0290, 13012.00
270.2470, 13200.00
271.4640, 13074.00
272.6810, 13090.00
273.8980, 12981.00
275.1140, 13245.00
276.3310, 13215.00
277.5470, 13328.00
278.7630, 13389.00
279.9790, 13476.00
281.1940, 13528.00
282.4100, 13612.00
283.6250, 13740.00
284.8400, 13902.00
286.0550, 14010.00
287.2700, 14183.54
288.4850, 14242.00
289.6990, 14499.00
290.9130, 14656.00
292.1270, 14776.00
293.3410, 15076.00
294.5540, 15208.00
295.7680, 15554.00
296.9810, 15879.00
298.1940, 16048.00
299.4070, 16324.00
300.6200, 16890.00
301.8320, 17122.00
303.0450, 17398.00
304.2570, 18043.00
305.4690, 18098.00
306.6800, 18732.00
307.8920, 19361.00
309.1030, 19874.00
310.3150, 20377.00
311.5260, 21032.00
312.7360, 21787.00
313.9470, 22359.00
315.1580, 22822.00
316.3680, 23268.00
317.5780, 24112.00
318.7880, 24749.00
319.9980, 25210.00
321.2070, 25346.00
322.4170, 25951.00
323.6260, 25981.00
324.8350, 26224.00
326.0430, 26138.00
327.2520, 26154.00
328.4610, 25972.00
329.6690, 25710.00
330.8770, 25162.00
332.0850, 24710.00
333.2920, 24367.00
334.5000, 23933.00
335.7070, 23187.00
336.9140, 23026.00
338.1210, 22317.00
339.3280, 21971.00
340.5350, 21540.00
341.7410, 21254.00
342.9470, 20942.00
344.1540, 20554.00
345.3590, 20380.00
346.5650, 20226.00
347.7710, 19943.00
348.9760, 19920.00
350.1810, 19728.00
351.3860, 19715.00
352.5910, 19451.00
353.7950, 19263.00
355.0000, 19216.00
356.2040, 19247.00
357.4080, 18912.00
358.6120, 18970.00
359.8150, 18828.00
361.0190, 18476.00
362.2220, 18387.00
363.4250, 18413.00
364.6280, 18210.00
365.8310, 18160.00
367.0340, 18148.00
368.2360, 18237.00
369.4380, 18307.00
370.6400, 18342.00
371.8420, 18501.00
373.0440, 18968.00
374.2450, 19137.00
375.4470, 19525.00
376.6480, 19930.00
377.8490, 20348.00
379.0490, 20760.00
380.2500, 21292.72
381.4500, 22070.00
382.6510, 22497.00
383.8510, 22997.00
385.0500, 23821.00
386.2500, 24337.00
387.4500, 24326.00
388.6490, 24519.00
389.8480, 24687.00
391.0470, 24559.00
392.2460, 24270.00
393.4440, 23725.00
394.6430, 23095.00
395.8410, 22384.95
397.0390, 21458.00
398.2370, 20622.00
399.4340, 19633.00
400.6320, 18595.00
401.8290, 17775.00
403.0260, 16913.00
404.2230, 16090.00
405.4200, 15566.00
406.6170, 14990.00
407.8130, 14648.00
409.0090, 14176.00
410.2050, 13772.00
411.4010, 13612.00
412.5970, 13367.00
413.7920, 13064.00
414.9880, 12997.00
416.1830, 12796.00
417.3780, 12794.00
418.5730, 12703.00
419.7670, 12641.00
420.9620, 12424.00
422.1560, 12556.00
423.3500, 12380.00
424.5440, 12299.00
425.7380, 12276.00
426.9310, 12196.00
428.1240, 12119.00
429.3180, 12024.00
430.5110, 11989.00
431.7030, 11905.06
432.8960, 11856.00
434.0890, 11780.00
435.2810, 11717.00
436.4730, 11671.00
437.6650, 11638.00
438.8570, 11593.00
440.0480, 11507.00
441.2390, 11516.00
442.4310, 11435.00
443.6220, 11547.00
444.8120, 11484.25
446.0030, 11465.00
447.1940, 11439.00
448.3840, 11480.00
449.5740, 11447.00
450.7640, 11439.00
451.9540, 11529.00
453.1430, 11527.00
454.3330, 11506.00
455.5220, 11503.00
456.7110, 11573.00
457.9000, 11470.00
459.0890, 11578.00
460.2770, 11550.00
461.4650, 11579.00
462.6540, 11693.00
463.8420, 11604.00
465.0290, 11633.92
466.2170, 11484.00
467.4050, 11573.00
468.5920, 11464.00
469.7790, 11414.00
470.9660, 11454.00
472.1530, 11475.00
473.3390, 11480.00
474.5250, 11476.06
475.7120, 11501.00
476.8980, 11399.00
478.0840, 11376.00
479.2690, 11255.00
480.4550, 11315.00
481.6400, 11361.00
482.8250, 11552.00
484.0100, 11407.00
485.1950, 11458.00
486.3800, 11413.00
487.5640, 11401.00
488.7480, 11386.00
489.9320, 11375.00
491.1160, 11448.00
492.3000, 11552.00
493.4840, 11633.00
494.6670, 11540.00
495.8500, 11761.00
497.0330, 11696.00
498.2160, 11868.00
499.3990, 11956.00
500.5810, 12154.00
501.7630, 12230.00
502.9460, 12326.00
504.1280, 12329.00
505.3090, 12547.00
506.4910, 12634.00
507.6720, 12615.00
508.8540, 12847.00
510.0350, 12957.00
511.2160, 13022.00
512.3960, 13094.50
513.5770, 12998.00
514.7570, 13068.00
515.9380, 13170.00
517.1180, 13063.00
518.2970, 13107.00
519.4770, 13080.00
520.6570, 13127.82
521.8360, 13266.00
523.0150, 13275.00
524.1940, 13373.00
525.3730, 13454.00
526.5510, 13425.00
527.7300, 13427.00
528.9080, 13517.00
530.0860, 13723.00
531.2640, 13541.00
532.4420, 13849.00
533.6200, 13766.00
534.7970, 13339.00
535.9740, 13597.00
537.1510, 13538.00
538.3280, 13546.00
539.5050, 13435.00
540.6810, 13462.00
541.8580, 13411.00
543.0340, 13331.00
544.2100, 13241.00
545.3860, 13141.00
546.5610, 13229.00
547.7370, 13259.00
548.9120, 13245.00
550.0870, 13378.00
551.2620, 13288.00
552.4370, 13301.00
553.6120, 13251.00
554.7860, 13339.00
555.9600, 13298.00
557.1340, 13186.00
558.3080, 13195.00
559.4820, 13070.00
560.6560, 12994.00
561.8290, 12887.00
563.0020, 12655.00
564.1750, 12562.00
565.3480, 12466.00
566.5210, 12385.00
567.6930, 12246.00
568.8660, 12119.24
570.0380, 12020.00
571.2100, 11824.00
572.3820, 11766.00
573.5530, 11632.00
574.7250, 11424.00
575.8960, 11198.00
577.0670, 11012.00
578.2380, 10871.00
579.4090, 10797.00
580.5800, 10411.00
581.7500, 10237.00
582.9210, 10119.00
584.0910, 10015.00
585.2610, 9804.000
586.4300, 9506.000
587.6000, 9648.000
588.7690, 9646.000
589.9390, 9222.000
591.1080, 9201.000
592.2770, 9013.000
593.4450, 8971.000
594.6140, 8945.000
595.7820, 8756.000
596.9500, 8847.000
598.1190, 8742.000
599.2860, 8706.000
600.4540, 8706.000
601.6220, 8761.000
602.7890, 8842.000
603.9560, 8856.000
605.1230, 8878.740
606.2900, 8900.636
607.4570, 8868.000
608.6230, 8928.000
609.7890, 8908.000
610.9560, 8962.000
612.1220, 8960.000
613.2870, 9112.000
614.4530, 9129.000
615.6180, 9118.000
616.7840, 9190.000
617.9490, 9199.000
619.1140, 9207.000
620.2790, 9209.000
621.4430, 9323.000
622.6080, 9411.000
623.7720, 9544.298
624.9360, 9664.000
626.1000, 9817.000
627.2640, 9847.000
628.4270, 9856.000
629.5910, 10030.00
630.7540, 10239.00
631.9170, 10346.00
633.0800, 10644.00
634.2430, 10717.00
635.4050, 11007.00
636.5680, 11228.00
637.7300, 11643.00
638.8920, 11966.00
640.0540, 12235.00
641.2150, 12685.00
642.3770, 13154.00
643.5380, 13602.00
644.7000, 14356.00
645.8610, 15013.00
647.0210, 15966.00
648.1820, 16800.00
649.3430, 17913.00
650.5030, 19037.00
651.6630, 20358.00
652.8230, 22249.00
653.9830, 23929.00
655.1430, 25772.00
656.3020, 28200.00
657.4620, 29737.00
658.6210, 32237.00
659.7800, 34111.00
660.9390, 35685.00
662.0970, 37376.00
663.2560, 38783.00
664.4140, 39062.00
665.5720, 39262.00
666.7300, 37993.00
667.8880, 36748.00
669.0460, 34886.00
670.2030, 32645.00
671.3600, 30193.00
672.5180, 27745.00
673.6740, 25315.00
674.8310, 23336.00
675.9880, 21348.00
677.1440, 19802.00
678.3010, 18481.00
679.4570, 17167.00
680.6130, 16087.00
681.7690, 15252.00
682.9240, 14736.00
684.0800, 13846.00
685.2350, 13640.00
686.3900, 13091.00
687.5450, 12748.00
688.7000, 12403.00
689.8540, 12154.00
691.0090, 11897.19
692.1630, 11844.00
693.3170, 11552.00
694.4710, 11496.00
695.6250, 11500.00
696.7780, 11270.00
697.9320, 11302.00
699.0850, 11085.00
700.2380, 11089.00
701.3910, 10920.00
702.5440, 11124.00
703.6970, 11093.00
704.8490, 11037.00
706.0010, 11130.00
707.1530, 10903.00
708.3050, 10964.00
709.4570, 10873.00
710.6090, 11018.00
711.7600, 10885.00
712.9110, 10918.00
714.0620, 10848.00
715.2130, 10747.00
716.3640, 10761.00
717.5150, 10794.00
718.6650, 10526.00
719.8150, 10463.00
720.9650, 10370.00
722.1150, 10514.00
723.2650, 10248.00
724.4150, 10255.00
725.5640, 10109.00
726.7130, 10228.00
727.8630, 10125.00
729.0110, 10170.00
730.1600, 10072.00
731.3090, 10176.00
732.4570, 10074.00
733.6060, 9963.000
734.7540, 10233.00
735.9020, 10129.00
737.0490, 10250.00
738.1970, 10527.00
739.3440, 10527.00
740.4920, 10681.00
741.6390, 10730.00
742.7860, 10954.00
743.9320, 10961.00
745.0790, 11203.00
746.2250, 11346.00
747.3720, 11335.00
748.5180, 11695.00
749.6640, 11836.00
750.8100, 12053.00
751.9550, 12250.00
753.1010, 12414.00
754.2460, 12598.00
755.3910, 12785.00
756.5360, 13030.00
757.6810, 13233.00
758.8250, 13402.00
759.9700, 13679.00
761.1140, 13762.00
762.2580, 14139.00
763.4020, 14098.00
764.5460, 14360.00
765.6900, 14582.00
766.8330, 14543.00
767.9760, 14727.00
769.1200, 14642.00
770.2620, 14626.00
771.4050, 14711.00
772.5480, 14719.00
773.6900, 14714.00
774.8330, 14712.00
775.9750, 14632.00
777.1170, 14662.00
778.2590, 14454.00
779.4000, 14446.00
780.5420, 14386.00
781.6830, 14271.00
782.8240, 14230.00
783.9650, 14189.00
785.1060, 14100.00
786.2470, 14270.00
787.3870, 14015.00
788.5280, 13820.00
789.6680, 13953.00
790.8080, 13901.00
791.9480, 13929.00
793.0870, 13809.00
794.2270, 13757.00
795.3660, 13930.00
796.5060, 13834.65
797.6450, 14130.00
798.7830, 13913.00
799.9220, 13822.00
801.0610, 13999.00
802.1990, 14036.00
803.3370, 14180.00
804.4750, 14308.00
805.6130, 14366.53
806.7510, 14532.00
807.8890, 14541.00
809.0260, 14677.00
810.1630, 14811.00
811.3000, 14838.00
812.4370, 14879.00
813.5740, 14994.00
814.7110, 14845.00
815.8470, 15091.00
816.9830, 15157.00
818.1190, 15053.00
819.2550, 14946.00
820.3910, 14963.00
821.5270, 15081.00
822.6620, 14899.00
823.7970, 14907.00
824.9330, 14803.00
826.0670, 14673.00
827.2020, 14609.00
828.3370, 14618.00
829.4710, 14501.00
830.6060, 14435.00
831.7400, 14390.00
832.8740, 14246.00
834.0080, 14257.00
835.1410, 14195.00
836.2750, 14017.00
837.4080, 14050.00
838.5410, 13919.00
839.6740, 13861.00
840.8070, 13712.00
841.9400, 13989.00
843.0730, 13737.00
844.2050, 13889.00
845.3370, 13813.00
846.4690, 14012.00
847.6010, 13961.00
848.7330, 14058.00
849.8640, 13946.00
850.9960, 14088.00
852.1270, 14145.00
853.2580, 14024.00
854.3890, 14181.00
855.5200, 14294.00
856.6500, 14326.00
857.7810, 14497.00
858.9110, 14487.00
860.0410, 14519.00
861.1710, 14441.00
862.3010, 14670.00
863.4310, 14596.88
864.5600, 14606.49
865.6900, 14578.00
866.8190, 14605.00
867.9480, 14538.00
869.0770, 14649.00
870.2050, 14611.00
871.3340, 14697.00
872.4620, 14614.00
873.5900, 14715.00
874.7180, 14740.00
875.8460, 14805.00
876.9740, 14686.00
878.1010, 14881.00
879.2290, 14985.00
880.3560, 14860.00
881.4830, 15007.00
882.6100, 15163.00
883.7370, 15071.00
884.8630, 14995.00
885.9900, 15231.00
887.1160, 15291.00
888.2420, 15531.00
889.3680, 15447.00
890.4940, 15654.00
891.6200, 15477.00
892.7450, 15607.00
893.8700, 15641.00
894.9960, 15680.00
896.1210, 15711.50
897.2460, 15651.00
898.3700, 15761.00
899.4950, 15735.00
900.6190, 15859.00
901.7430, 15915.00
902.8670, 15884.00
903.9910, 16038.00
905.1150, 16036.00
906.2390, 16074.00
907.3620, 16139.00
908.4850, 16105.00
909.6080, 16144.00
910.7310, 16185.00
911.8540, 16335.00
912.9770, 16187.00
914.0990, 16552.00
915.2210, 16532.00
916.3440, 16576.00
917.4660, 16939.00
918.5870, 16889.00
919.7090, 16812.00
920.8310, 16942.00
921.9520, 17141.00
923.0730, 17173.00
924.1940, 17208.00
925.3150, 17374.00
926.4360, 17368.00
927.5560, 17356.00
928.6770, 17363.73
929.7970, 17305.65
930.9170, 17277.00
932.0370, 17187.00
933.1570, 17169.00
934.2760, 17110.00
935.3960, 17123.00
936.5150, 17104.00
937.6340, 16999.00
938.7530, 16937.00
939.8720, 16957.00
940.9910, 17065.00
942.1090, 16884.00
943.2280, 16909.00
944.3460, 17002.00
945.4640, 16929.00
946.5820, 16934.00
947.6990, 17025.00
948.8170, 16919.00
949.9340, 16993.31
951.0520, 16960.00
952.1690, 17072.00
953.2860, 17028.00
954.4030, 17110.00
955.5190, 17069.00
956.6360, 17258.00
957.7520, 17269.00
958.8680, 17202.00
959.9840, 17269.00
961.1000, 17445.00
962.2160, 17377.00
963.3310, 17685.00
964.4470, 17848.00
965.5620, 18007.00
966.6770, 18004.00
967.7920, 18345.00
968.9060, 18418.00
970.0210, 18526.00
971.1360, 18800.00
972.2500, 19067.00
973.3640, 19334.00
974.4780, 19606.00
975.5920, 19828.00
976.7050, 20067.00
977.8190, 20543.00
978.9320, 20735.00
980.0450, 21194.00
981.1580, 21606.00
982.2710, 22063.00
983.3840, 22731.00
984.4970, 23284.00
985.6090, 24049.00
986.7210, 24721.00
987.8330, 25629.00
988.9450, 26536.00
990.0570, 27725.85
991.1690, 29135.00
992.2800, 30482.00
993.3920, 32094.00
994.5030, 33816.00
995.6140, 35433.00
996.7250, 37675.00
997.8350, 39936.00
998.9460, 41732.00
1000.056, 44156.00
1001.167, 46897.00
1002.277, 48767.00
1003.387, 50887.00
1004.496, 52458.00
1005.606, 53494.00
1006.715, 53905.00
1007.825, 53888.00
1008.934, 53395.00
1010.043, 51674.00
1011.152, 49836.00
1012.260, 46674.00
1013.369, 44854.00
1014.477, 40755.00
1015.586, 37632.00
1016.694, 34531.00
1017.802, 31907.00
1018.909, 29586.00
1020.017, 27580.00
1021.124, 25774.00
1022.232, 24490.00
1023.339, 23430.00
1024.446, 22372.00
1025.553, 21620.00
1026.659, 20863.00
1027.766, 20527.00
1028.872, 19925.00
1029.979, 19455.00
1031.085, 19220.00
1032.191, 18892.00
1033.296, 18468.00
1034.402, 18661.00
1035.507, 18234.53
1036.613, 18273.00
1037.718, 17763.00
1038.823, 17823.00
1039.928, 17589.00
1041.032, 17282.00
1042.137, 17178.00
1043.241, 16843.00
1044.346, 17184.00
1045.450, 17639.00
1046.554, 16968.00
1047.657, 16618.00
1048.761, 15780.00
1049.864, 15320.00
1050.968, 15176.00
1052.071, 14995.00
1053.174, 14466.00
1054.277, 14581.00
1055.379, 14340.00
1056.482, 14092.00
1057.584, 13852.00
1058.687, 13706.00
1059.789, 13640.00
1060.891, 13341.00
1061.992, 13146.00
1063.094, 13195.00
1064.196, 12974.00
1065.297, 12977.00
1066.398, 12825.00
1067.499, 12840.00
1068.600, 12690.00
1069.701, 12643.00
1070.801, 12631.00
1071.902, 12557.59
1073.002, 12673.00
1074.102, 12450.00
1075.202, 12468.00
1076.302, 12314.00
1077.402, 12249.00
1078.501, 12234.00
1079.600, 12253.00
1080.700, 12131.00
1081.799, 12079.00
1082.898, 11963.00
1083.996, 11774.00
1085.095, 11953.00
1086.193, 11965.00
1087.292, 11832.00
1088.390, 11871.00
1089.488, 11882.00
1090.586, 11720.00
1091.683, 11827.00
1092.781, 11620.00
1093.878, 11657.00
1094.975, 11541.00
1096.073, 11476.00
1097.169, 11602.00
1098.266, 11368.00
1099.363, 11457.00
1100.459, 11315.00
1101.556, 11388.00
1102.652, 11276.00
1103.748, 11165.00
1104.844, 11200.00
1105.940, 11199.00
1107.035, 11218.00
1108.131, 11043.00
1109.226, 11127.00
1110.321, 10976.00
1111.416, 10920.00
1112.511, 10824.00
1113.605, 10857.00
1114.700, 10739.00
1115.794, 10844.00
1116.889, 10706.00
1117.983, 10782.00
1119.077, 10519.00
1120.170, 10547.00
1121.264, 10550.00
1122.357, 10353.00
1123.451, 10337.00
1124.544, 10221.00
1125.637, 10062.00
1126.730, 9962.000
1127.823, 9666.000
1128.915, 9612.000
1130.008, 9521.000
1131.100, 9277.000
1132.192, 9290.000
1133.284, 9255.000
1134.376, 9063.000
1135.467, 9060.000
1136.559, 8903.000
1137.650, 8847.000
1138.742, 8714.000
1139.833, 8635.000
1140.924, 8482.000
1142.014, 8359.000
1143.105, 8361.000
1144.195, 8328.000
1145.286, 8290.000
1146.376, 8237.000
1147.466, 8301.000
1148.556, 8056.000
1149.646, 7937.000
1150.735, 8117.000
1151.825, 7962.000
1152.914, 7817.000
1154.003, 7947.000
1155.092, 7921.000
1156.181, 7765.000
1157.270, 7779.000
1158.358, 7783.000
1159.447, 7888.000
1160.535, 7792.000
1161.623, 7837.000
1162.711, 7729.000
1163.799, 7745.000
1164.886, 7733.000
1165.974, 7723.000
1167.061, 7662.000
1168.148, 7717.000
1169.235, 7692.000
1170.322, 7620.000
1171.409, 7787.000
1172.496, 7617.000
1173.582, 7753.000
1174.669, 7604.000
1175.755, 7739.000
1176.841, 7660.000
1177.927, 7622.000
1179.012, 7632.000
1180.098, 7597.000
1181.183, 7780.000
1182.269, 7603.000
1183.354, 7636.000
1184.439, 7698.000
1185.524, 7611.000
1186.608, 7598.000
1187.693, 7523.000
1188.777, 7569.000
1189.862, 7527.000
1190.946, 7612.000
1192.030, 7632.000
1193.113, 7453.000
1194.197, 7489.000
1195.281, 7663.000
1196.364, 7578.000
1197.447, 7686.000
1198.530, 7504.000
1199.613, 7585.000
1200.696, 7693.000
1201.779, 7583.000
1202.861, 7616.000
1203.944, 7528.000
1205.026, 7584.000
1206.108, 7556.000
1207.190, 7573.000
1208.271, 7521.000
1209.353, 7582.000
1210.435, 7577.000
1211.516, 7646.000
1212.597, 7583.000
1213.678, 7561.000
1214.759, 7499.000
1215.840, 7628.000
1216.920, 7518.000
1218.001, 7571.000
1219.081, 7604.000
1220.161, 7547.000
1221.241, 7559.000
1222.321, 7563.000
1223.401, 7572.000
1224.480, 7491.000
1225.560, 7541.000
1226.639, 7470.000
1227.718, 7622.000
1228.797, 7572.000
1229.876, 7645.000
1230.955, 7593.000
1232.033, 7535.000
1233.112, 7658.000
1234.190, 7521.000
1235.268, 7603.000
1236.346, 7463.000
1237.424, 7448.000
1238.501, 7525.000
1239.579, 7513.000
1240.656, 7641.000
1241.733, 7560.000
1242.811, 7622.000
1243.888, 7599.000
1244.964, 7506.000
1246.041, 7513.000
1247.117, 7460.000
1248.194, 7500.000
1249.270, 7522.000
1250.346, 7637.000
1251.422, 7479.000
1252.498, 7547.000
1253.573, 7472.000
1254.649, 7522.000
1255.724, 7544.000
1256.800, 7494.000
1257.875, 7611.000
1258.950, 7538.000
1260.024, 7609.000
1261.099, 7546.000
1262.173, 7599.000
1263.248, 7553.000
1264.322, 7536.000
1265.396, 7568.000
1266.470, 7434.000
1267.544, 7521.142
1268.617, 7499.064
1269.691, 7623.000
1270.764, 7622.000
1271.837, 7676.840
1272.910, 7661.162
1273.983, 7554.000
1275.056, 7596.000
1276.129, 7512.000
1277.201, 7501.000
1278.273, 7494.000
1279.346, 7511.000
1280.418, 7470.000
1281.489, 7496.000
1282.561, 7554.000
1283.633, 7487.000
1284.704, 7499.000
1285.776, 7493.755
1286.847, 7472.497
1287.918, 7472.000
1288.989, 7465.000
1290.059, 7450.000
1291.130, 7453.000
1292.200, 7555.000
1293.271, 7555.000
1294.341, 7455.000
1295.411, 7590.000
1296.481, 7420.000
1297.551, 7458.000
1298.620, 7509.000
1299.690, 7492.000
1300.759, 7483.000
1301.828, 7443.000
1302.897, 7480.000
1303.966, 7575.000
1305.035, 7485.000
1306.103, 7466.000
1307.172, 7531.000
1308.240, 7426.000
1309.308, 7723.000
1310.376, 7603.870
1311.444, 7615.000
1312.512, 7543.000
1313.580, 7613.000
1314.647, 7584.000
1315.714, 7532.000
1316.781, 7550.000
1317.848, 7526.000
1318.915, 7529.000
1319.982, 7494.000
1321.049, 7563.000
1322.115, 7581.000
1323.181, 7599.000
1324.248, 7555.000
