##NAMES=Augite
##RRUFFID=R070231
##IDEAL CHEMISTRY=(Ca,Mg,Fe^2+^,Fe^3+^)_2_(Si,Al)_2_O_6_
##LOCALITY=Old Goose Creek Quarry, Leesburg, Loudoun County, Virginia, USA
##OWNER=RRUFF
##SOURCE=Michael Scott
##DESCRIPTION=Very dark grey-green prismatic crystals frozen in quartz
##STATUS=The identification of this mineral is confirmed by single-crystal X-ray diffraction and chemical analysis.
##URL=rruff.info/R070231
##MEASURED CHEMISTRY=(Mg_0.44_Fe_0.37_Ca_0.17_Ti_0.01_Mn_0.01_)_Σ=1_(Si_0.98_Al_0.02_)_Σ=1_O_3_
##PIN_ID=M00062
##ORIENTATION=Laser parallel to -c* (0 0 -1). Fiducial mark perpendicular to laser is parallel to a [1 0 0]
132.5420, 27129.00
133.7780, 27239.00
135.0140, 27361.00
136.2500, 27617.00
137.4850, 28069.00
138.7200, 29096.00
139.9550, 29745.00
141.1900, 30005.00
142.4250, 30316.00
143.6600, 30886.00
144.8940, 31008.00
146.1280, 31183.00
147.3620, 31958.00
148.5960, 30098.00
149.8300, 29583.00
151.0630, 29458.00
152.2960, 29301.00
153.5300, 29151.67
154.7620, 29017.00
155.9950, 29057.00
157.2280, 29063.00
158.4600, 28963.00
159.6920, 29095.00
160.9250, 29434.00
162.1560, 29402.00
163.3880, 29795.00
164.6200, 30024.00
165.8510, 29904.00
167.0820, 29698.00
168.3130, 29932.00
169.5440, 30135.00
170.7750, 30347.00
172.0050, 30320.00
173.2350, 30506.00
174.4650, 30369.00
175.6950, 30597.00
176.9250, 30835.00
178.1550, 31232.00
179.3840, 31693.00
180.6130, 31909.00
181.8420, 32322.00
183.0710, 32377.00
184.3000, 32681.00
185.5280, 33191.00
186.7570, 33450.00
187.9850, 33354.00
189.2130, 33197.00
190.4400, 33174.00
191.6680, 32987.00
192.8960, 32635.00
194.1230, 32417.00
195.3500, 32140.00
196.5770, 32196.00
197.8030, 31870.00
199.0300, 31779.00
200.2560, 32033.00
201.4830, 31942.00
202.7090, 31727.00
203.9340, 31307.00
205.1600, 30653.00
206.3860, 30259.00
207.6110, 30267.00
208.8360, 30146.00
210.0610, 30236.00
211.2860, 30111.00
212.5100, 29975.00
213.7350, 30222.00
214.9590, 30027.00
216.1830, 30096.00
217.4070, 29890.00
218.6310, 30173.00
219.8540, 30268.00
221.0780, 30204.00
222.3010, 30213.00
223.5240, 30245.00
224.7470, 30409.00
225.9690, 30525.00
227.1920, 30429.00
228.4140, 30683.00
229.6360, 30696.00
230.8580, 30616.00
232.0800, 30893.00
233.3020, 30457.00
234.5230, 30700.00
235.7440, 30587.00
236.9650, 30358.00
238.1860, 30575.00
239.4070, 30449.00
240.6280, 30345.00
241.8480, 30369.00
243.0680, 30283.00
244.2880, 30623.00
245.5080, 30392.00
246.7280, 30911.00
247.9470, 30799.00
249.1660, 30911.00
250.3860, 31097.00
251.6040, 31098.00
252.8230, 31208.00
254.0420, 31135.00
255.2600, 31253.00
256.4790, 31377.00
257.6970, 31643.00
258.9150, 31496.13
260.1320, 31311.97
261.3500, 31276.00
262.5670, 31077.44
263.7840, 30907.87
265.0010, 30700.00
266.2180, 30536.00
267.4350, 30215.00
268.6510, 30067.00
269.8680, 30235.00
271.0840, 30357.00
272.3000, 30378.00
273.5160, 30220.00
274.7310, 30201.00
275.9470, 30221.00
277.1620, 30267.00
278.3770, 30306.62
279.5920, 30149.00
280.8070, 30391.00
282.0210, 30342.00
283.2360, 30278.00
284.4500, 30477.00
285.6640, 30336.00
286.8780, 30413.00
288.0920, 30312.00
289.3050, 30401.47
290.5180, 30418.46
291.7320, 30590.00
292.9450, 30547.00
294.1570, 30614.00
295.3700, 30771.00
296.5830, 30826.00
297.7950, 31064.00
299.0070, 31035.00
300.2190, 31218.00
301.4310, 31447.00
302.6420, 31526.00
303.8540, 31653.00
305.0650, 32207.00
306.2760, 32150.00
307.4870, 32355.15
308.6980, 32231.00
309.9080, 32511.00
311.1190, 32922.00
312.3290, 33031.00
313.5390, 33304.16
314.7490, 33287.00
315.9580, 33670.00
317.1680, 33790.00
318.3770, 33947.00
319.5860, 33713.00
320.7950, 33995.00
322.0040, 33683.00
323.2130, 33669.00
324.4210, 33472.00
325.6290, 33675.00
326.8380, 33266.00
328.0460, 33266.00
329.2530, 33445.00
330.4610, 33263.00
331.6680, 33088.00
332.8760, 32956.00
334.0830, 33159.00
335.2890, 32801.00
336.4960, 33082.00
337.7030, 32936.00
338.9090, 33152.00
340.1150, 33390.00
341.3210, 32981.00
342.5270, 32564.00
343.7330, 32889.00
344.9380, 32834.00
346.1440, 32801.00
347.3490, 33183.00
348.5540, 32727.00
349.7590, 32820.00
350.9630, 32908.00
352.1680, 32832.00
353.3720, 32719.00
354.5760, 32831.00
355.7800, 32702.00
356.9840, 32548.00
358.1870, 32756.00
359.3910, 32394.00
360.5940, 32500.00
361.7970, 32367.00
363.0000, 32133.00
364.2030, 32479.00
365.4050, 32220.00
366.6080, 32115.00
367.8100, 32390.00
369.0120, 32403.00
370.2140, 32330.00
371.4150, 32508.00
372.6170, 32740.00
373.8180, 32785.18
375.0190, 33222.00
376.2200, 33047.00
377.4210, 33202.00
378.6220, 33330.00
379.8220, 33811.00
381.0230, 33307.00
382.2230, 33578.00
383.4230, 33364.00
384.6220, 33642.00
385.8220, 33552.00
387.0220, 33378.00
388.2210, 33535.00
389.4200, 33244.00
390.6190, 33170.00
391.8180, 33168.00
393.0160, 32633.00
394.2150, 32365.00
395.4130, 32284.00
396.6110, 31876.00
397.8090, 31872.00
399.0060, 31742.00
400.2040, 31554.00
401.4010, 31451.00
402.5980, 31319.00
403.7950, 31190.00
404.9920, 31054.00
406.1890, 31134.00
407.3860, 30866.00
408.5820, 30777.00
409.7780, 31057.00
410.9740, 31047.00
412.1700, 31038.00
413.3650, 31316.00
414.5610, 31284.00
415.7560, 31244.00
416.9510, 31364.00
418.1460, 31500.00
419.3410, 31735.00
420.5360, 31590.00
421.7300, 31384.00
422.9240, 31832.00
424.1180, 31641.00
425.3120, 31876.00
426.5060, 31572.00
427.7000, 31909.00
428.8930, 31668.00
430.0860, 31697.00
431.2790, 31731.00
432.4720, 31625.00
433.6650, 31526.00
434.8580, 31571.00
436.0500, 31508.00
437.2420, 31409.00
438.4340, 31582.00
439.6260, 31381.00
440.8180, 31531.00
442.0090, 31464.00
443.2010, 31582.00
444.3920, 31738.00
445.5830, 31548.00
446.7740, 31387.00
447.9640, 31796.00
449.1550, 31395.00
450.3450, 31693.00
451.5350, 31852.00
452.7250, 32018.00
453.9150, 32101.88
455.1050, 31951.00
456.2940, 32152.00
457.4830, 32276.00
458.6720, 32285.00
459.8610, 32706.00
461.0500, 32736.00
462.2390, 32797.00
463.4270, 32849.00
464.6150, 33192.00
465.8040, 33151.00
466.9910, 33360.00
468.1790, 33360.12
469.3670, 33490.00
470.5540, 33303.00
471.7410, 33235.00
472.9280, 33210.00
474.1150, 33080.07
475.3020, 33033.46
476.4890, 32874.00
477.6750, 32867.00
478.8610, 32681.00
480.0470, 32548.00
481.2330, 32732.00
482.4190, 32317.00
483.6040, 32226.00
484.7900, 32378.00
485.9750, 32537.00
487.1600, 32663.00
488.3450, 32533.00
489.5290, 32502.00
490.7140, 32700.00
491.8980, 32622.00
493.0820, 32699.00
494.2660, 32905.00
495.4500, 32886.79
496.6340, 32896.00
497.8170, 33018.00
499.0010, 33071.00
500.1840, 33120.00
501.3670, 33291.00
502.5500, 33279.00
503.7320, 33476.00
504.9150, 33530.00
506.0970, 33469.00
507.2790, 33731.00
508.4610, 33800.00
509.6430, 34084.00
510.8250, 33835.00
512.0060, 34164.00
513.1870, 33908.00
514.3680, 34024.00
515.5490, 34083.00
516.7300, 34429.00
517.9110, 34725.00
519.0910, 34364.00
520.2710, 34710.00
521.4510, 34567.00
522.6310, 35128.00
523.8110, 35180.00
524.9910, 35096.00
526.1700, 35350.00
527.3490, 35431.00
528.5280, 35648.00
529.7070, 35517.00
530.8860, 35929.00
532.0650, 35857.00
533.2430, 36418.00
534.4210, 36373.00
535.5990, 36366.00
536.7770, 36449.00
537.9550, 36395.00
539.1320, 36788.00
540.3100, 36832.00
541.4870, 37040.00
542.6640, 37010.00
543.8410, 37067.00
545.0170, 37062.00
546.1940, 37268.00
547.3700, 37197.00
548.5470, 37099.00
549.7230, 37396.00
550.8980, 37236.00
552.0740, 37169.00
553.2500, 37381.00
554.4250, 37352.00
555.6000, 37124.00
556.7750, 37225.00
557.9500, 36936.00
559.1250, 37010.00
560.2990, 36777.00
561.4730, 36530.00
562.6480, 36361.00
563.8220, 36591.00
564.9950, 36164.00
566.1690, 36308.00
567.3430, 36258.00
568.5160, 35946.00
569.6890, 35489.00
570.8620, 35885.00
572.0350, 35635.00
573.2070, 35875.00
574.3800, 36021.00
575.5520, 35684.00
576.7240, 35713.00
577.8960, 35740.00
579.0680, 35411.00
580.2400, 35604.00
581.4110, 35736.00
582.5830, 35770.00
583.7540, 35763.00
584.9250, 35718.00
586.0950, 35655.00
587.2660, 35774.69
588.4370, 36264.00
589.6070, 36113.00
590.7770, 36395.00
591.9470, 36783.00
593.1170, 36702.00
594.2860, 36991.00
595.4560, 37376.00
596.6250, 37357.00
597.7940, 37587.00
598.9630, 37671.00
600.1320, 37722.00
601.3000, 37978.77
602.4690, 38118.00
603.6370, 38342.00
604.8050, 38397.00
605.9730, 38410.00
607.1410, 38906.00
608.3090, 38907.00
609.4760, 39094.00
610.6430, 38501.00
611.8100, 38971.00
612.9770, 38530.00
614.1440, 38841.00
615.3110, 39116.00
616.4770, 38689.00
617.6430, 38873.00
618.8090, 38797.00
619.9750, 38959.00
621.1410, 38728.00
622.3070, 38934.00
623.4720, 38858.00
624.6370, 38675.00
625.8020, 38949.00
626.9670, 38414.00
628.1320, 38611.00
629.2970, 38796.00
630.4610, 38937.00
631.6250, 38738.00
632.7890, 38789.00
633.9530, 39039.00
635.1170, 39267.00
636.2810, 38778.00
637.4440, 38702.00
638.6070, 39070.00
639.7700, 39094.00
640.9330, 39055.00
642.0960, 39259.00
643.2590, 39475.00
644.4210, 39345.00
645.5830, 39653.00
646.7450, 39731.00
647.9070, 40026.70
649.0690, 40038.00
650.2310, 40790.00
651.3920, 41138.00
652.5530, 41633.00
653.7140, 41845.00
654.8750, 42628.00
656.0360, 43254.00
657.1970, 44126.00
658.3570, 45066.00
659.5170, 45663.00
660.6770, 46385.84
661.8370, 47466.00
662.9970, 47379.00
664.1570, 47974.00
665.3160, 48066.00
666.4750, 47466.00
667.6340, 47224.00
668.7930, 46692.00
669.9520, 45936.00
671.1110, 45529.00
672.2690, 44818.00
673.4270, 44149.00
674.5850, 43428.00
675.7430, 43057.00
676.9010, 41755.00
678.0590, 41496.00
679.2160, 40851.00
680.3730, 40623.00
681.5300, 39900.00
682.6870, 39658.00
683.8440, 39340.00
685.0010, 38753.00
686.1570, 38897.00
687.3130, 38579.00
688.4690, 38053.00
689.6250, 37922.00
690.7810, 37971.00
691.9370, 37582.00
693.0920, 37205.00
694.2470, 37553.00
695.4020, 37373.00
696.5570, 37407.00
697.7120, 37314.00
698.8670, 37240.66
700.0210, 37285.00
701.1750, 37047.00
702.3290, 37098.00
703.4830, 36864.00
704.6370, 36743.00
705.7910, 36694.00
706.9440, 36628.38
708.0970, 36656.00
709.2510, 36710.00
710.4030, 36821.00
711.5560, 37021.00
712.7090, 36470.00
713.8610, 36798.00
715.0140, 36490.00
716.1660, 36442.00
717.3180, 36568.00
718.4690, 36665.00
719.6210, 36462.00
720.7730, 36605.00
721.9240, 36541.00
723.0750, 36373.00
724.2260, 36337.00
725.3770, 36402.00
726.5270, 36498.00
727.6780, 36458.88
728.8280, 36508.36
729.9780, 36448.00
731.1280, 36478.00
732.2780, 36483.00
733.4280, 36386.00
734.5770, 36618.00
735.7260, 36485.00
736.8760, 36526.00
738.0250, 36469.00
739.1730, 36474.68
740.3220, 36638.00
741.4700, 36564.00
742.6190, 36533.00
743.7670, 36666.00
744.9150, 36427.00
746.0630, 36615.00
747.2100, 36657.00
748.3580, 36771.00
749.5050, 36599.00
750.6520, 36654.00
751.7990, 36644.00
752.9460, 36688.00
754.0930, 36677.09
755.2390, 36677.00
756.3860, 36632.00
757.5320, 36699.00
758.6780, 36641.00
759.8240, 36679.00
760.9690, 36790.00
762.1150, 36690.00
763.2600, 36752.18
764.4060, 36577.00
765.5510, 36734.00
766.6950, 36579.00
767.8400, 36508.00
768.9850, 36703.00
770.1290, 36626.00
771.2730, 36854.00
772.4170, 36609.00
773.5610, 36490.00
774.7050, 36775.00
775.8480, 36825.00
776.9920, 36462.00
778.1350, 36741.00
779.2780, 36651.00
780.4210, 36685.00
781.5640, 36707.00
782.7060, 36631.00
783.8490, 36618.00
784.9910, 36628.00
786.1330, 36614.00
787.2750, 36752.00
788.4170, 36777.00
789.5580, 36732.54
790.7000, 36526.00
791.8410, 36673.00
792.9820, 36625.00
794.1230, 36720.00
795.2640, 36741.00
796.4040, 36814.00
797.5450, 36759.00
798.6850, 36614.00
799.8250, 36585.00
800.9650, 36982.00
802.1050, 36921.00
803.2450, 37098.00
804.3840, 37086.00
805.5230, 36970.00
806.6630, 37044.00
807.8020, 37136.00
808.9400, 37031.00
810.0790, 37043.00
811.2170, 37164.00
812.3560, 37432.00
813.4940, 37405.00
814.6320, 37385.00
815.7700, 37518.00
816.9070, 37283.00
818.0450, 37711.00
819.1820, 37579.00
820.3190, 37528.00
821.4560, 37445.00
822.5930, 37743.00
823.7300, 37637.00
824.8670, 37332.00
826.0030, 38010.00
827.1390, 37812.00
828.2750, 38033.00
829.4110, 37523.00
830.5470, 37993.00
831.6820, 37876.00
832.8180, 38063.00
833.9530, 38074.00
835.0880, 38182.00
836.2230, 38123.00
837.3580, 38160.00
838.4920, 38511.00
839.6270, 38099.00
840.7610, 38399.00
841.8950, 38635.00
843.0290, 38498.00
844.1630, 38551.00
845.2960, 38894.00
846.4300, 38792.00
847.5630, 39040.00
848.6960, 39222.00
849.8290, 39455.00
850.9620, 39365.00
852.0940, 39661.00
853.2270, 39796.00
854.3590, 40152.00
855.4910, 39993.00
856.6230, 39937.00
857.7550, 39822.00
858.8870, 39818.02
860.0180, 40001.00
861.1500, 39898.00
862.2810, 39836.00
863.4120, 39976.00
864.5430, 39870.00
865.6730, 39970.00
866.8040, 40124.00
867.9340, 40231.00
869.0640, 40170.00
870.1940, 40176.00
871.3240, 40385.00
872.4540, 40227.00
873.5830, 40292.00
874.7130, 40285.00
875.8420, 40300.00
876.9710, 40517.00
878.1000, 40304.00
879.2290, 40032.00
880.3570, 40311.00
881.4860, 40202.00
882.6140, 40020.00
883.7420, 40235.00
884.8700, 40045.00
885.9980, 40162.68
887.1250, 40204.52
888.2530, 40347.00
889.3800, 40249.00
890.5070, 40344.00
891.6340, 40251.00
892.7610, 40222.15
893.8880, 40395.00
895.0140, 40105.00
896.1400, 40048.00
897.2670, 39951.00
898.3930, 40293.00
899.5180, 40350.00
900.6440, 40695.00
901.7700, 40513.00
902.8950, 40642.00
904.0200, 40379.00
905.1450, 40788.00
906.2700, 40827.00
907.3950, 40681.00
908.5190, 40641.00
909.6440, 40922.00
910.7680, 41164.00
911.8920, 41156.00
913.0160, 41037.00
914.1400, 41065.00
915.2630, 41026.00
916.3870, 41049.00
917.5100, 40979.00
918.6330, 41149.00
919.7560, 41131.73
920.8790, 41056.00
922.0010, 41238.00
923.1240, 41186.00
924.2460, 41256.00
925.3680, 41141.00
926.4900, 40982.00
927.6120, 41469.00
928.7340, 41394.00
929.8550, 41423.00
930.9760, 41304.00
932.0980, 41198.00
933.2190, 41289.00
934.3390, 41376.00
935.4600, 41393.00
936.5810, 41556.00
937.7010, 41552.00
938.8210, 41342.00
939.9410, 41563.00
941.0610, 41834.00
942.1810, 41627.00
943.3010, 41800.00
944.4200, 41715.00
945.5390, 41842.00
946.6580, 41989.00
947.7770, 41842.00
948.8960, 41929.00
950.0150, 41895.00
951.1330, 41988.34
952.2510, 42324.00
953.3690, 42235.00
954.4870, 42410.00
955.6050, 42520.00
956.7230, 42518.00
957.8400, 42652.65
958.9580, 42577.00
960.0750, 42712.00
961.1920, 42811.00
962.3090, 42650.00
963.4250, 42963.00
964.5420, 42982.00
965.6580, 43062.00
966.7740, 43096.00
967.8900, 43055.00
969.0060, 43189.00
970.1220, 43459.00
971.2380, 43238.00
972.3530, 43464.00
973.4680, 43699.00
974.5830, 43638.00
975.6980, 43700.00
976.8130, 43745.00
977.9280, 43889.68
979.0420, 44261.00
980.1560, 44361.00
981.2710, 44400.00
982.3850, 44819.00
983.4980, 44788.00
984.6120, 44692.00
985.7260, 45005.00
986.8390, 45296.00
987.9520, 45307.00
989.0650, 45682.00
990.1780, 45850.00
991.2910, 46316.00
992.4030, 46364.00
993.5160, 46811.00
994.6280, 47287.00
995.7400, 47586.00
996.8520, 47988.00
997.9640, 48218.00
999.0750, 48522.00
1000.187, 48938.00
1001.298, 49753.00
1002.409, 50124.00
1003.520, 51680.00
1004.631, 52015.00
1005.741, 53154.00
1006.852, 53920.00
1007.962, 55429.00
1009.072, 56612.00
1010.182, 57766.00
1011.292, 58240.00
1012.402, 58235.00
1013.511, 57257.00
1014.621, 55374.00
1015.730, 54031.00
1016.839, 52668.00
1017.948, 51169.00
1019.056, 50254.00
1020.165, 49455.00
1021.273, 48566.00
1022.382, 48119.00
1023.490, 47813.00
1024.598, 47558.00
1025.706, 47512.00
1026.813, 46989.00
1027.921, 47177.00
1029.028, 46944.00
1030.135, 47088.00
1031.242, 46828.00
1032.349, 47193.00
1033.456, 47106.00
1034.562, 47011.00
1035.668, 46935.00
1036.775, 47019.00
1037.881, 47107.00
1038.987, 47019.00
1040.092, 47226.00
1041.198, 47248.00
1042.303, 47179.00
1043.408, 47014.00
1044.514, 47278.00
1045.618, 46966.00
1046.723, 47029.30
1047.828, 47414.00
1048.932, 46995.00
1050.037, 46970.00
1051.141, 47018.00
1052.245, 46920.00
1053.349, 46909.00
1054.452, 46910.00
1055.556, 46998.00
1056.659, 46827.00
1057.762, 46713.00
1058.865, 46973.00
1059.968, 46867.00
1061.071, 46773.00
1062.174, 46595.00
1063.276, 46506.00
1064.378, 46426.67
1065.480, 46722.00
1066.582, 46328.00
1067.684, 46427.00
1068.786, 46445.00
1069.887, 46223.00
1070.988, 46388.00
1072.090, 46626.00
1073.191, 46357.00
1074.291, 46645.00
1075.392, 46579.00
1076.493, 46491.00
1077.593, 46642.00
1078.693, 46330.00
1079.793, 46341.00
1080.893, 46988.00
1081.993, 46575.00
1083.092, 46780.00
1084.192, 47014.00
1085.291, 46814.00
1086.390, 46876.00
1087.489, 46987.00
1088.588, 46814.00
1089.686, 46811.00
1090.785, 46800.00
1091.883, 46721.00
1092.981, 46487.00
1094.079, 46632.00
1095.177, 46802.00
1096.275, 46542.00
1097.373, 46777.00
1098.470, 46823.00
1099.567, 46806.00
1100.664, 46449.00
1101.761, 46374.00
1102.858, 46601.89
1103.954, 46865.39
1105.051, 47018.73
1106.147, 47067.81
1107.243, 46700.40
1108.339, 46870.80
1109.435, 46825.66
1110.531, 46771.70
1111.626, 47017.78
1112.722, 46710.95
1113.817, 46952.27
1114.912, 46974.77
1116.007, 47097.42
1117.101, 47003.21
1118.196, 46975.98
1119.290, 47165.67
1120.385, 47235.26
1121.479, 47116.07
1122.573, 47245.08
1123.666, 46930.64
1124.760, 47005.34
1125.853, 47247.91
1126.947, 47139.63
1128.040, 47272.59
1129.133, 47313.67
1130.226, 46937.18
1131.318, 47286.88
1132.411, 47322.52
1133.503, 47035.70
1134.596, 47360.52
1135.688, 47118.15
1136.780, 47078.23
1137.871, 47190.65
1138.963, 47144.26
1140.054, 47348.27
1141.146, 47311.05
1142.237, 47252.27
1143.328, 47287.54
1144.419, 47056.28
1145.509, 47319.49
1146.600, 47244.93
1147.690, 47338.27
1148.780, 47469.66
1149.870, 47476.00
1150.960, 47227.00
1152.050, 47324.00
1153.139, 47310.00
1154.229, 47587.00
1155.318, 47766.00
1156.407, 47531.00
1157.496, 47154.00
1158.585, 47608.00
1159.674, 47397.00
1160.762, 47624.00
1161.850, 47567.00
1162.939, 47795.00
1164.027, 47669.00
1165.114, 47509.00
1166.202, 47890.00
1167.290, 47906.00
1168.377, 47731.00
1169.464, 47753.00
1170.551, 47777.00
1171.638, 47972.00
1172.725, 47953.00
1173.812, 47669.00
1174.898, 48147.00
1175.984, 47823.00
1177.071, 47987.00
1178.157, 47896.00
1179.242, 48119.00
1180.328, 48095.00
1181.414, 48046.00
1182.499, 47919.00
1183.584, 47971.00
1184.669, 48223.00
1185.754, 48160.75
1186.839, 48393.00
1187.924, 48271.00
1189.008, 48231.00
1190.092, 48270.00
1191.177, 48332.00
1192.260, 48283.00
1193.344, 48323.00
1194.428, 48342.00
1195.512, 48181.00
1196.595, 48409.00
1197.678, 48330.00
1198.761, 48380.32
1199.844, 48611.00
1200.927, 48467.00
1202.009, 48477.00
1203.092, 48515.00
1204.174, 48470.90
1205.256, 48910.00
1206.338, 48497.00
1207.420, 48830.00
1208.502, 48880.00
1209.583, 48796.00
1210.665, 48847.00
1211.746, 48765.00
1212.827, 48963.00
1213.908, 49043.00
1214.988, 48597.00
1216.069, 48926.00
1217.149, 49007.00
1218.230, 49108.00
1219.310, 49473.00
1220.390, 49320.00
1221.470, 49105.00
1222.549, 49381.00
1223.629, 49095.00
1224.708, 49585.00
1225.787, 49589.00
1226.866, 49428.00
1227.945, 49517.00
1229.024, 49370.00
1230.103, 49567.00
1231.181, 49336.00
1232.259, 49314.00
1233.337, 49360.00
1234.415, 49587.00
1235.493, 49426.00
1236.571, 49526.00
1237.648, 49845.00
1238.726, 49556.00
1239.803, 49789.00
1240.880, 49787.00
1241.957, 49463.00
1243.034, 49824.00
1244.110, 49666.43
1245.187, 49710.00
1246.263, 49711.00
1247.339, 49835.00
1248.415, 49921.00
1249.491, 50030.00
1250.566, 49862.00
1251.642, 49956.00
1252.717, 49937.00
1253.793, 49768.00
1254.868, 50128.00
1255.943, 50222.00
1257.017, 50119.00
1258.092, 49955.00
1259.166, 50097.00
1260.241, 50213.00
1261.315, 50127.00
1262.389, 50103.00
1263.462, 50177.00
1264.536, 50202.57
1265.610, 50248.90
1266.683, 50389.00
1267.756, 50370.00
1268.829, 50473.00
1269.902, 50550.00
1270.975, 50735.00
1272.048, 50319.00
1273.120, 50630.00
1274.192, 50470.00
##END=



