##NAMES=Augite
##RRUFFID=R061108
##IDEAL CHEMISTRY=(Ca,Mg,Fe^2+^,Fe^3+^)_2_(Si,Al)_2_O_6_
##LOCALITY=Monti Rossi, near Mt. Etna, Sicily, Italy
##OWNER=RRUFF
##SOURCE=Michael Scott
##DESCRIPTION=Euhedral, short prismatic, black crystals in vesicular basalt.
##STATUS=The identification of this mineral is confirmed by single-crystal X-ray diffraction and chemical analysis.
##URL=rruff.info/R061108
##MEASURED CHEMISTRY=(Ca_0.86_Mg_0.74_Fe^2+^_0.18_Fe^3+^_0.08_Al_0.05_Ti_0.04_Na_0.04_Mn_0.01_)_Σ=2_(Si_1.83_Al_0.17_)_Σ=2_O_6_
##PIN_ID=L00942
##ORIENTATION=Laser parallel to -a* (-1 0 0). Fiducial mark perpendicular to laser is parallel to b [0 1 0]
154.9720, 28319.00
156.2000, 28025.00
157.4270, 28056.00
158.6540, 28212.00
159.8810, 28103.00
161.1070, 28318.00
162.3340, 28723.00
163.5600, 29488.00
164.7860, 29906.00
166.0120, 29972.00
167.2380, 30031.00
168.4640, 30394.00
169.6890, 30636.00
170.9150, 30979.00
172.1400, 30702.00
173.3650, 30862.00
174.5900, 30812.00
175.8150, 30899.00
177.0400, 31294.00
178.2640, 31198.00
179.4880, 31513.00
180.7130, 32003.00
181.9370, 31505.00
183.1600, 31530.00
184.3840, 32000.00
185.6080, 31854.00
186.8310, 32180.00
188.0540, 32511.00
189.2770, 32413.00
190.5000, 32694.00
191.7230, 32735.00
192.9460, 33063.00
194.1680, 32803.00
195.3910, 32764.00
196.6130, 32550.00
197.8350, 32422.47
199.0570, 32313.00
200.2780, 32190.00
201.5000, 32026.00
202.7210, 31965.00
203.9420, 31544.00
205.1640, 30851.00
206.3840, 30488.00
207.6050, 30282.00
208.8260, 30397.00
210.0460, 30334.00
211.2670, 30247.00
212.4870, 30631.00
213.7070, 30915.00
214.9270, 30782.00
216.1460, 30644.00
217.3660, 31008.00
218.5850, 31101.00
219.8050, 31090.00
221.0240, 31315.00
222.2430, 31154.00
223.4610, 31146.00
224.6800, 31239.00
225.8980, 31333.00
227.1170, 31049.00
228.3350, 30902.00
229.5530, 30876.00
230.7710, 30760.00
231.9880, 30297.00
233.2060, 30262.00
234.4230, 30064.00
235.6400, 29934.00
236.8570, 29878.00
238.0740, 29568.00
239.2910, 29431.00
240.5080, 29456.00
241.7240, 29148.00
242.9400, 29201.00
244.1570, 28881.00
245.3730, 28998.00
246.5880, 28759.00
247.8040, 28641.00
249.0190, 28790.00
250.2350, 28463.00
251.4500, 28236.00
252.6650, 28405.00
253.8800, 28179.00
255.0950, 28296.00
256.3090, 28178.00
257.5240, 28556.00
258.7380, 28337.92
259.9520, 28182.14
261.1660, 28096.00
262.3800, 27750.00
263.5930, 27630.00
264.8070, 27695.00
266.0200, 27569.00
267.2330, 27735.00
268.4460, 27651.00
269.6590, 27696.00
270.8720, 27685.00
272.0850, 27742.00
273.2970, 27841.00
274.5090, 27946.00
275.7210, 28041.35
276.9330, 28158.00
278.1450, 28202.00
279.3570, 28379.00
280.5680, 28333.00
281.7790, 28493.00
282.9910, 28558.00
284.2020, 28633.00
285.4120, 29043.00
286.6230, 29137.00
287.8340, 29456.00
289.0440, 29440.00
290.2540, 29633.00
291.4640, 29857.00
292.6740, 30053.00
293.8840, 30302.75
295.0940, 30650.00
296.3030, 30880.00
297.5120, 31012.00
298.7210, 31443.00
299.9300, 31794.18
301.1390, 32175.50
302.3480, 32639.00
303.5560, 33100.00
304.7650, 33585.91
305.9730, 34154.62
307.1810, 34687.00
308.3890, 35287.00
309.5970, 35996.00
310.8040, 36467.00
312.0120, 37346.00
313.2190, 38487.00
314.4260, 38888.00
315.6330, 40034.00
316.8400, 40774.00
318.0460, 41539.00
319.2530, 42593.00
320.4590, 42778.00
321.6650, 43696.00
322.8710, 43977.00
324.0770, 44250.00
325.2830, 44232.00
326.4880, 44384.00
327.6940, 43995.00
328.8990, 43648.00
330.1040, 43361.00
331.3090, 42878.00
332.5140, 42357.00
333.7180, 41653.00
334.9230, 41481.00
336.1270, 41022.00
337.3310, 40350.00
338.5350, 39967.00
339.7390, 39648.00
340.9430, 39329.00
342.1460, 39097.00
343.3500, 39232.00
344.5530, 38817.00
345.7560, 38797.00
346.9590, 38483.00
348.1620, 38629.00
349.3640, 38240.00
350.5670, 38477.00
351.7690, 38092.00
352.9710, 38196.00
354.1730, 37896.00
355.3750, 37672.36
356.5760, 37604.00
357.7780, 37159.00
358.9790, 36889.00
360.1800, 36609.00
361.3810, 36547.00
362.5820, 36099.00
363.7830, 36422.00
364.9830, 36106.00
366.1840, 35904.00
367.3840, 35661.00
368.5840, 35929.00
369.7840, 35521.00
370.9840, 35990.00
372.1830, 35831.00
373.3830, 36034.00
374.5820, 35973.00
375.7810, 36336.00
376.9800, 36635.00
378.1790, 37159.00
379.3780, 37659.00
380.5760, 38014.00
381.7750, 38887.00
382.9730, 39611.00
384.1710, 40421.00
385.3690, 41005.66
386.5660, 41655.00
387.7640, 41942.00
388.9610, 42407.00
390.1590, 42521.00
391.3560, 42471.00
392.5530, 41704.00
393.7500, 40976.00
394.9460, 39927.00
396.1430, 38596.00
397.3390, 37343.00
398.5350, 35982.00
399.7310, 34790.00
400.9270, 33757.73
402.1230, 32914.00
403.3180, 31911.00
404.5140, 31277.00
405.7090, 30556.00
406.9040, 30014.00
408.0990, 29419.00
409.2930, 29364.00
410.4880, 29007.00
411.6820, 28852.00
412.8770, 28549.00
414.0710, 28400.00
415.2650, 28431.00
416.4590, 28283.00
417.6520, 28219.00
418.8460, 28179.17
420.0390, 28041.00
421.2320, 28089.00
422.4250, 28018.00
423.6180, 28012.78
424.8110, 27923.20
426.0030, 27893.00
427.1960, 27696.00
428.3880, 27705.00
429.5800, 27574.00
430.7720, 27412.00
431.9640, 27600.00
433.1550, 27206.00
434.3470, 27230.00
435.5380, 27464.00
436.7290, 27246.00
437.9200, 27049.00
439.1110, 27093.00
440.3020, 26880.00
441.4920, 26872.57
442.6820, 27033.00
443.8730, 26852.00
445.0630, 26840.00
446.2530, 26910.00
447.4420, 26875.00
448.6320, 27045.00
449.8210, 26860.00
451.0100, 27101.00
452.2000, 27007.00
453.3880, 27283.00
454.5770, 26969.00
455.7660, 27291.00
456.9540, 27149.00
458.1430, 27109.00
459.3310, 27360.00
460.5190, 27473.00
461.7070, 27461.00
462.8940, 27317.00
464.0820, 27253.00
465.2690, 27256.00
466.4560, 27180.00
467.6430, 27404.00
468.8300, 27156.00
470.0170, 27208.00
471.2040, 27056.00
472.3900, 27291.00
473.5760, 27321.00
474.7620, 27349.00
475.9480, 27443.00
477.1340, 27322.00
478.3200, 27328.00
479.5050, 27209.00
480.6900, 27336.00
481.8750, 27443.00
483.0600, 27688.00
484.2450, 27603.00
485.4300, 27850.00
486.6140, 27862.00
487.7990, 27773.00
488.9830, 27888.00
490.1670, 27893.00
491.3510, 28057.00
492.5350, 28222.00
493.7180, 28328.00
494.9020, 28528.67
496.0850, 28693.00
497.2680, 28982.00
498.4510, 29193.00
499.6340, 29606.00
500.8160, 29796.00
501.9990, 30202.00
503.1810, 30450.00
504.3630, 30823.00
505.5450, 31094.45
506.7270, 31440.42
507.9090, 31722.86
509.0900, 31945.02
510.2720, 31927.20
511.4530, 32219.32
512.6340, 32387.15
513.8150, 32549.90
514.9950, 32885.50
516.1760, 33135.00
517.3560, 32834.00
518.5370, 33351.00
519.7170, 32951.00
520.8970, 33245.00
522.0770, 33106.00
523.2560, 33491.00
524.4360, 33393.00
525.6150, 33737.00
526.7940, 33760.00
527.9730, 34043.00
529.1520, 33749.00
530.3310, 33653.00
531.5090, 33626.82
532.6870, 33768.00
533.8660, 33407.00
535.0440, 33685.00
536.2210, 33614.00
537.3990, 33297.00
538.5770, 33406.00
539.7540, 33365.00
540.9310, 33421.00
542.1080, 33196.00
543.2850, 32971.00
544.4620, 32944.00
545.6390, 32853.00
546.8150, 32762.33
547.9920, 32679.00
549.1680, 32662.00
550.3440, 32718.00
551.5190, 32704.00
552.6950, 32592.00
553.8710, 32835.00
555.0460, 32939.00
556.2210, 32867.00
557.3960, 32788.00
558.5710, 32611.00
559.7460, 32606.90
560.9200, 32554.00
562.0950, 32506.00
563.2690, 32394.00
564.4430, 32319.79
565.6170, 32204.45
566.7910, 32107.00
567.9640, 32003.00
569.1380, 31867.00
570.3110, 31861.00
571.4840, 31715.00
572.6570, 31528.00
573.8300, 31342.00
575.0030, 30931.00
576.1750, 30700.00
577.3470, 30131.00
578.5200, 29843.00
579.6920, 29636.00
580.8630, 29058.00
582.0350, 28603.00
583.2070, 28381.00
584.3780, 27844.00
585.5490, 27668.00
586.7200, 26990.00
587.8910, 26915.00
589.0620, 26679.00
590.2330, 26306.00
591.4030, 26184.00
592.5730, 25744.00
593.7430, 25797.00
594.9130, 25676.00
596.0830, 25431.00
597.2530, 25175.00
598.4220, 24943.00
599.5920, 24977.00
600.7610, 24960.00
601.9300, 25020.00
603.0990, 24884.00
604.2670, 24866.00
605.4360, 25042.00
606.6040, 24792.00
607.7720, 24955.00
608.9400, 25023.00
610.1080, 24980.00
611.2760, 25069.00
612.4440, 25094.00
613.6110, 25029.00
614.7780, 25101.89
615.9450, 25089.00
617.1120, 25164.00
618.2790, 25213.00
619.4460, 25274.99
620.6120, 25096.00
621.7780, 25308.00
622.9450, 25238.00
624.1110, 25319.00
625.2760, 25510.00
626.4420, 25461.00
627.6080, 25609.00
628.7730, 25646.00
629.9380, 25775.00
631.1030, 26121.00
632.2680, 26159.00
633.4330, 26418.00
634.5970, 26680.00
635.7620, 26777.00
636.9260, 26929.00
638.0900, 27237.00
639.2540, 27342.00
640.4180, 27765.00
641.5810, 28314.00
642.7450, 28993.00
643.9080, 29132.00
645.0710, 29531.00
646.2340, 30333.00
647.3970, 30902.00
648.5590, 32263.00
649.7220, 32658.00
650.8840, 33991.00
652.0460, 35223.00
653.2080, 37044.00
654.3700, 38455.00
655.5320, 40532.00
656.6930, 42588.00
657.8550, 44833.00
659.0160, 47162.00
660.1770, 49344.00
661.3380, 51515.00
662.4990, 53080.00
663.6590, 53996.00
664.8200, 53751.00
665.9800, 53148.00
667.1400, 51390.00
668.3000, 49438.00
669.4600, 46952.00
670.6190, 44605.00
671.7790, 42456.00
672.9380, 40398.14
674.0970, 38455.00
675.2560, 36791.00
676.4150, 35441.00
677.5740, 34104.00
678.7320, 32842.00
679.8900, 31973.00
681.0490, 31466.00
682.2070, 30589.00
683.3640, 29822.00
684.5220, 29677.00
685.6800, 29128.00
686.8370, 28787.00
687.9940, 28503.00
689.1510, 28176.33
690.3080, 27989.26
691.4650, 27668.00
692.6220, 27679.00
693.7780, 27361.00
694.9340, 27264.00
696.0900, 27292.00
697.2460, 27140.00
698.4020, 27252.00
699.5580, 27076.00
700.7130, 27089.00
701.8680, 27135.00
703.0240, 26958.00
704.1790, 27075.00
705.3330, 26882.00
706.4880, 26882.00
707.6430, 26874.00
708.7970, 26543.00
709.9510, 26640.97
711.1050, 26833.00
712.2590, 26605.00
713.4130, 26580.00
714.5660, 26530.00
715.7200, 26447.00
716.8730, 26497.00
718.0260, 26290.00
719.1790, 26104.00
720.3320, 26190.00
721.4840, 25909.00
722.6370, 25934.00
723.7890, 26054.00
724.9410, 25889.00
726.0930, 25924.00
727.2450, 25782.00
728.3960, 25700.00
729.5480, 25933.00
730.6990, 25803.00
731.8500, 26028.00
733.0010, 25830.00
734.1520, 26025.00
735.3030, 26106.00
736.4530, 26057.00
737.6040, 26118.00
738.7540, 26213.41
739.9040, 26257.00
741.0540, 26439.00
742.2030, 26568.00
743.3530, 26689.69
744.5020, 26831.97
745.6520, 26809.00
746.8010, 27027.00
747.9490, 26999.00
749.0980, 26972.00
750.2470, 27199.00
751.3950, 27291.00
752.5440, 27598.00
753.6920, 27691.00
754.8400, 27638.00
755.9870, 28012.00
757.1350, 28080.00
758.2820, 27978.00
759.4300, 28241.00
760.5770, 28384.00
761.7240, 28662.00
762.8710, 28679.00
764.0170, 28743.00
765.1640, 28989.00
766.3100, 28886.00
767.4560, 29080.00
768.6020, 29071.25
769.7480, 29170.00
770.8940, 29134.00
772.0400, 29230.00
773.1850, 29418.00
774.3300, 29289.00
775.4750, 29507.00
776.6200, 29411.00
777.7650, 29195.00
778.9090, 29221.00
780.0540, 29189.00
781.1980, 29321.00
782.3420, 29268.00
783.4860, 29077.00
784.6300, 29228.00
785.7740, 29119.00
786.9170, 29213.00
788.0600, 29215.00
789.2030, 29250.00
790.3460, 29136.00
791.4890, 29317.00
792.6320, 29051.00
793.7740, 29207.00
794.9170, 29398.00
796.0590, 29335.00
797.2010, 29346.00
798.3430, 29641.00
799.4850, 29654.00
800.6260, 29838.00
801.7670, 29912.00
802.9090, 29982.00
804.0500, 29922.00
805.1910, 30072.00
806.3310, 30313.00
807.4720, 30357.00
808.6120, 30688.00
809.7530, 30624.00
810.8930, 30493.00
812.0330, 30784.00
813.1720, 30709.00
814.3120, 30833.00
815.4510, 30818.00
816.5910, 31146.00
817.7300, 31051.00
818.8690, 31132.00
820.0080, 31283.00
821.1460, 31293.00
822.2850, 31077.00
823.4230, 31159.00
824.5610, 31137.63
825.6990, 31145.00
826.8370, 31204.00
827.9750, 31164.00
829.1120, 31169.00
830.2500, 31123.00
831.3870, 31444.00
832.5240, 31357.00
833.6610, 31126.00
834.7980, 30820.00
835.9340, 30764.00
837.0700, 30767.00
838.2070, 30898.00
839.3430, 30704.00
840.4790, 31011.00
841.6140, 30890.00
842.7500, 30799.00
843.8850, 30922.00
845.0210, 31069.00
846.1560, 30937.00
847.2910, 31201.00
848.4260, 31178.00
849.5600, 31292.00
850.6950, 31689.00
851.8290, 31863.00
852.9630, 31897.00
854.0970, 32039.00
855.2310, 32050.00
856.3650, 32137.00
857.4980, 32203.00
858.6310, 32149.00
859.7650, 32298.00
860.8980, 32314.00
862.0310, 32110.00
863.1630, 32271.00
864.2960, 32151.00
865.4280, 31925.00
866.5600, 32147.00
867.6920, 32077.00
868.8240, 31861.00
869.9560, 31852.00
871.0880, 31792.00
872.2190, 31724.00
873.3500, 31660.19
874.4810, 31555.87
875.6120, 31469.00
876.7430, 31530.00
877.8740, 31398.00
879.0040, 31475.97
880.1340, 31470.00
881.2650, 31522.00
882.3950, 31483.00
883.5240, 31348.00
884.6540, 31468.00
885.7830, 31507.00
886.9130, 31626.00
888.0420, 31700.00
889.1710, 31542.00
890.3000, 31665.00
891.4280, 31495.00
892.5570, 31536.00
893.6850, 31483.00
894.8130, 31639.00
895.9420, 31882.00
897.0690, 31644.00
898.1970, 31850.00
899.3250, 31711.00
900.4520, 31738.00
901.5790, 31775.00
902.7060, 31918.00
903.8330, 31885.00
904.9600, 31758.00
906.0870, 31978.00
907.2130, 31785.00
908.3390, 31777.00
909.4650, 31927.00
910.5910, 32155.00
911.7170, 32242.00
912.8430, 32132.00
913.9680, 32348.00
915.0930, 32344.00
916.2180, 32716.00
917.3430, 32891.00
918.4680, 32820.00
919.5930, 33022.57
920.7170, 32977.00
921.8420, 33135.00
922.9660, 33107.00
924.0900, 33186.00
925.2140, 32993.00
926.3370, 33189.00
927.4610, 33013.00
928.5840, 33112.00
929.7070, 33056.00
930.8310, 33094.00
931.9530, 32997.00
933.0760, 32816.00
934.1990, 32633.00
935.3210, 32996.00
936.4430, 32687.00
937.5650, 32705.00
938.6870, 32660.00
939.8090, 32466.00
940.9310, 32643.00
942.0520, 32536.00
943.1730, 32476.00
944.2940, 32485.00
945.4150, 32316.00
946.5360, 32390.00
947.6570, 32319.00
948.7770, 32845.00
949.8970, 32732.00
951.0180, 32817.00
952.1370, 32558.00
953.2570, 32698.00
954.3770, 32675.00
955.4960, 32624.00
956.6160, 32748.00
957.7350, 32801.00
958.8540, 33091.00
959.9730, 32972.00
961.0910, 32907.00
962.2100, 33153.00
963.3280, 33465.00
964.4460, 33334.00
965.5640, 33493.00
966.6820, 34044.00
967.8000, 33821.48
968.9180, 34093.98
970.0350, 33846.00
971.1520, 34217.00
972.2690, 34440.00
973.3860, 34427.00
974.5030, 34485.00
975.6190, 34906.00
976.7360, 35072.00
977.8520, 35410.00
978.9680, 35431.00
980.0840, 35526.00
981.2000, 36043.00
982.3160, 36153.00
983.4310, 36565.00
984.5460, 36612.00
985.6610, 37242.00
986.7760, 37687.00
987.8910, 38463.00
989.0060, 38846.00
990.1200, 39401.00
991.2350, 40180.00
992.3490, 41166.00
993.4630, 41945.00
994.5760, 43034.00
995.6900, 44377.00
996.8040, 45379.00
997.9170, 46849.00
999.0300, 47996.00
1000.143, 49673.00
1001.256, 51422.00
1002.369, 52275.00
1003.481, 53836.00
1004.594, 54983.00
1005.706, 55722.00
1006.818, 56417.00
1007.930, 56325.00
1009.042, 55818.00
1010.153, 54392.00
1011.264, 52816.00
1012.376, 51272.00
1013.487, 48971.00
1014.598, 47050.00
1015.708, 45036.00
1016.819, 43140.00
1017.929, 41376.00
1019.040, 40376.00
1020.150, 39270.00
1021.260, 38395.00
1022.370, 37486.00
1023.479, 37125.00
1024.589, 36851.00
1025.698, 36508.00
1026.807, 36525.00
1027.916, 35962.00
1029.025, 35665.00
1030.133, 35760.00
1031.242, 35748.00
1032.350, 35687.00
1033.458, 35577.00
1034.566, 35955.00
1035.674, 35648.00
1036.782, 35889.00
1037.890, 35611.00
1038.997, 35143.00
1040.104, 35409.00
1041.211, 35057.00
1042.318, 34947.00
1043.425, 34713.00
1044.531, 34726.00
1045.638, 34110.00
1046.744, 33955.00
1047.850, 34373.00
1048.956, 33644.00
1050.061, 33359.00
1051.167, 32885.00
1052.272, 32652.00
1053.378, 32600.00
1054.483, 32366.00
1055.588, 32208.74
1056.692, 32067.34
1057.797, 31845.00
1058.901, 31729.00
1060.006, 31534.00
1061.110, 31331.00
1062.214, 31185.00
1063.318, 31004.02
1064.421, 30771.00
1065.525, 30788.00
1066.628, 30752.00
1067.731, 30876.00
1068.834, 30734.00
1069.937, 30574.00
1071.040, 30622.00
1072.142, 30247.00
1073.244, 30526.00
1074.347, 30512.16
1075.449, 30241.88
1076.550, 30830.00
1077.652, 30046.00
1078.754, 30239.00
1079.855, 30743.00
1080.956, 30640.00
1082.057, 29921.00
1083.158, 30064.00
1084.259, 29769.15
1085.359, 29797.00
1086.460, 29427.00
1087.560, 29651.00
1088.660, 29323.00
1089.760, 29630.00
1090.860, 29510.00
1091.959, 29242.00
1093.059, 29463.00
1094.158, 29454.00
1095.257, 29296.00
1096.356, 29097.00
1097.455, 29223.00
1098.553, 28792.00
1099.652, 28870.00
1100.750, 28858.00
1101.848, 28718.00
1102.946, 28743.01
1104.044, 28639.00
1105.141, 28682.00
1106.239, 28469.00
1107.336, 28498.00
1108.433, 28577.00
1109.530, 28339.00
1110.627, 28449.00
1111.724, 28150.00
1112.820, 28267.00
1113.917, 28296.00
1115.013, 28320.00
1116.109, 27987.00
1117.205, 27982.00
1118.300, 27937.00
1119.396, 28016.00
1120.491, 27744.00
1121.586, 27851.00
1122.681, 27769.00
1123.776, 27338.00
1124.871, 27752.00
1125.965, 27518.00
1127.060, 27452.00
1128.154, 27757.00
1129.248, 27730.00
1130.342, 26936.00
1131.436, 26594.00
1132.529, 26587.00
1133.623, 26735.00
1134.716, 26515.00
1135.809, 26389.00
1136.902, 26307.00
1137.995, 26195.00
1139.087, 25974.00
1140.180, 26007.00
1141.272, 26188.00
1142.364, 26341.00
1143.456, 25989.00
1144.548, 25712.00
1145.639, 25961.00
1146.731, 25930.00
1147.822, 25895.00
1148.913, 25665.00
1150.004, 25657.00
1151.095, 25599.81
1152.186, 25663.00
1153.276, 25689.00
1154.366, 25605.73
1155.457, 25633.00
1156.546, 25507.00
1157.636, 25452.00
1158.726, 25516.00
1159.815, 25437.00
1160.905, 25251.00
1161.994, 25490.00
1163.083, 25347.00
1164.172, 25380.00
1165.261, 25493.00
1166.349, 25595.00
1167.437, 25465.00
1168.526, 25169.00
1169.614, 25375.00
1170.702, 25514.00
1171.789, 25077.00
1172.877, 25036.00
1173.964, 25547.00
1175.051, 25278.00
1176.138, 25302.00
1177.225, 25214.00
1178.312, 25312.00
1179.399, 25255.00
1180.485, 25155.00
1181.571, 25210.00
1182.657, 25349.00
1183.743, 25193.00
1184.829, 25317.00
1185.915, 25305.00
1187.000, 25396.00
1188.085, 25307.00
1189.171, 25296.00
1190.255, 25190.00
1191.340, 25425.00
1192.425, 25157.00
1193.509, 25181.00
1194.594, 25044.00
1195.678, 25263.00
1196.762, 25247.00
1197.846, 25313.00
1198.929, 25318.21
1200.013, 25323.00
1201.096, 25290.00
1202.179, 25189.00
1203.262, 25281.00
1204.345, 25107.00
1205.428, 25145.00
1206.510, 25115.00
1207.593, 25076.00
1208.675, 25252.00
1209.757, 25124.00
1210.839, 24975.00
1211.920, 25322.00
1213.002, 25102.00
1214.083, 25214.00
1215.164, 25351.00
1216.245, 25336.00
1217.326, 25276.00
1218.407, 25317.00
1219.488, 25192.00
1220.568, 25196.00
1221.648, 25124.00
1222.728, 25360.00
1223.808, 25239.00
1224.888, 25314.00
1225.967, 25103.00
1227.047, 25217.00
1228.126, 25366.00
1229.205, 25294.00
1230.284, 25152.00
1231.363, 25319.00
1232.441, 25483.00
1233.520, 25112.00
1234.598, 25053.00
1235.676, 25365.00
1236.754, 25403.00
1237.832, 25045.00
1238.910, 25365.00
1239.987, 25172.00
1241.064, 25281.00
1242.141, 25281.00
1243.218, 25285.00
1244.295, 25247.00
1245.372, 25046.00
1246.448, 25164.00
1247.525, 25148.00
1248.601, 25089.00
1249.677, 25358.00
1250.753, 25193.00
1251.828, 25074.00
1252.904, 24911.00
1253.979, 25193.00
1255.054, 25180.00
1256.129, 24998.00
1257.204, 25226.00
1258.279, 24834.00
1259.353, 25123.00
1260.428, 25344.00
1261.502, 25101.00
1262.576, 25055.00
1263.650, 25399.00
1264.724, 25251.00
1265.797, 25070.00
1266.871, 25097.00
1267.944, 25040.16
1269.017, 25178.00
1270.090, 25148.00
1271.162, 25204.00
1272.235, 25385.00
1273.307, 25114.00
1274.380, 25271.00
1275.452, 25309.00
1276.524, 25185.00
1277.595, 25067.00
1278.667, 25114.00
1279.738, 25111.00
1280.810, 25260.00
1281.881, 25219.92
1282.952, 25052.00
1284.022, 25247.00
1285.093, 25127.00
1286.164, 25211.00
1287.234, 25227.00
1288.304, 25087.00
1289.374, 25022.00
1290.444, 25067.00
1291.513, 25178.00
1292.583, 25105.00
1293.652, 25144.00
1294.721, 25276.00
1295.790, 25230.00
1296.859, 25374.00
1297.928, 25355.55
1298.996, 25397.00
1300.064, 25358.00
1301.133, 25289.00
1302.201, 25307.00
1303.268, 25031.00
1304.336, 25393.00
1305.404, 25155.00
1306.471, 25426.00
1307.538, 25342.00
1308.605, 25304.00
1309.672, 25258.00
1310.739, 25452.00
1311.805, 25228.00
1312.872, 25332.00
1313.938, 25199.00
1315.004, 25277.00
1316.070, 25254.00
1317.135, 25203.00
1318.201, 25433.00
1319.266, 25448.00
1320.332, 25324.00
1321.397, 25158.00
