##NAMES=Augite
##RRUFFID=R070231
##IDEAL CHEMISTRY=(Ca,Mg,Fe^2+^,Fe^3+^)_2_(Si,Al)_2_O_6_
##LOCALITY=Old Goose Creek Quarry, Leesburg, Loudoun County, Virginia, USA
##OWNER=RRUFF
##SOURCE=Michael Scott
##DESCRIPTION=Very dark grey-green prismatic crystals frozen in quartz
##STATUS=The identification of this mineral is confirmed by single-crystal X-ray diffraction and chemical analysis.
##URL=rruff.info/R070231
##MEASURED CHEMISTRY=(Mg_0.44_Fe_0.37_Ca_0.17_Ti_0.01_Mn_0.01_)_Σ=1_(Si_0.98_Al_0.02_)_Σ=1_O_3_
##PIN_ID=M00357
##ORIENTATION=Laser parallel to b* (0 1 0). Fiducial mark perpendicular to laser is parallel to c [0 0 1]
111.5030, 16211.00
112.7420, 16603.00
113.9810, 19392.00
115.2200, 19183.00
116.4580, 18977.00
117.6970, 18801.00
118.9350, 19155.00
120.1730, 19066.00
121.4100, 19530.00
122.6480, 20724.00
123.8850, 20627.40
125.1230, 21505.00
126.3600, 21180.00
127.5960, 21564.00
128.8330, 21803.00
130.0700, 22032.00
131.3060, 21691.00
132.5420, 21138.00
133.7780, 20258.00
135.0140, 19688.00
136.2500, 19213.00
137.4850, 18958.00
138.7200, 18666.76
139.9550, 19201.00
141.1900, 18263.00
142.4250, 17943.00
143.6600, 17526.00
144.8940, 18469.00
146.1280, 17420.00
147.3620, 17690.00
148.5960, 17486.00
149.8300, 17397.00
151.0630, 17317.00
152.2960, 17272.00
153.5300, 16767.00
154.7620, 16658.00
155.9950, 16321.00
157.2280, 15927.00
158.4600, 15715.00
159.6920, 15605.00
160.9250, 15629.00
162.1560, 15983.00
163.3880, 16016.30
164.6200, 16455.00
165.8510, 16456.00
167.0820, 16368.00
168.3130, 16643.00
169.5440, 16775.00
170.7750, 17037.00
172.0050, 17081.00
173.2350, 16806.49
174.4650, 16974.56
175.6950, 17063.30
176.9250, 17076.96
178.1550, 16790.71
179.3840, 16891.75
180.6130, 16837.59
181.8420, 16777.06
183.0710, 16932.61
184.3000, 16689.99
185.5280, 16825.00
186.7570, 16818.00
187.9850, 16820.00
189.2130, 16723.00
190.4400, 16745.00
191.6680, 16630.00
192.8960, 16437.33
194.1230, 16549.24
195.3500, 16581.82
196.5770, 16539.33
197.8030, 16196.97
199.0300, 16241.85
200.2560, 16131.57
201.4830, 16014.87
202.7090, 16114.31
203.9340, 15815.63
205.1600, 15911.64
206.3860, 15850.08
207.6110, 15860.69
208.8360, 15682.00
210.0610, 15811.00
211.2860, 16134.00
212.5100, 16301.00
213.7350, 16553.00
214.9590, 16696.63
216.1830, 16913.00
217.4070, 16883.00
218.6310, 16923.00
219.8540, 16894.00
221.0780, 16856.00
222.3010, 16969.00
223.5240, 16712.00
224.7470, 16717.00
225.9690, 16671.00
227.1920, 16432.00
228.4140, 16221.00
229.6360, 15851.00
230.8580, 15566.00
232.0800, 15556.00
233.3020, 15300.00
234.5230, 15108.00
235.7440, 15009.00
236.9650, 14783.00
238.1860, 14464.00
239.4070, 14415.00
240.6280, 14020.00
241.8480, 14118.00
243.0680, 14169.00
244.2880, 14212.00
245.5080, 13604.00
246.7280, 13693.00
247.9470, 13398.00
249.1660, 13483.00
250.3860, 13245.00
251.6040, 13298.00
252.8230, 12896.98
254.0420, 13066.47
255.2600, 13156.64
256.4790, 13171.72
257.6970, 12886.90
258.9150, 12989.36
260.1320, 12936.62
261.3500, 12877.51
262.5670, 13034.49
263.7840, 12793.30
265.0010, 12946.84
266.2180, 12942.82
267.4350, 13010.91
268.6510, 12922.85
269.8680, 12883.02
271.0840, 12999.40
272.3000, 13029.29
273.5160, 12983.00
274.7310, 13226.00
275.9470, 12845.00
277.1620, 13111.00
278.3770, 12945.00
279.5920, 13104.00
280.8070, 13100.00
282.0210, 13194.34
283.2360, 13301.00
284.4500, 13430.00
285.6640, 13472.00
286.8780, 13512.00
288.0920, 13494.00
289.3050, 13671.00
290.5180, 13869.00
291.7320, 13921.00
292.9450, 14091.00
294.1570, 14448.00
295.3700, 14359.00
296.5830, 14699.00
297.7950, 14928.00
299.0070, 15096.00
300.2190, 15552.00
301.4310, 15750.00
302.6420, 16025.00
303.8540, 16607.00
305.0650, 17043.00
306.2760, 17612.00
307.4870, 18232.00
308.6980, 18858.00
309.9080, 19410.00
311.1190, 20158.00
312.3290, 20857.00
313.5390, 21249.00
314.7490, 21906.00
315.9580, 22383.00
317.1680, 22484.00
318.3770, 22770.00
319.5860, 22854.00
320.7950, 22553.00
322.0040, 22348.00
323.2130, 22005.00
324.4210, 21340.00
325.6290, 20825.00
326.8380, 20109.00
328.0460, 19782.00
329.2530, 19441.00
330.4610, 18849.00
331.6680, 18680.00
332.8760, 18265.00
334.0830, 18123.00
335.2890, 17905.00
336.4960, 17908.00
337.7030, 17830.00
338.9090, 17681.00
340.1150, 17666.00
341.3210, 17581.00
342.5270, 17574.35
343.7330, 17635.77
344.9380, 17627.00
346.1440, 17763.00
347.3490, 17856.00
348.5540, 17826.00
349.7590, 17683.00
350.9630, 17706.00
352.1680, 17658.00
353.3720, 17729.00
354.5760, 17649.00
355.7800, 17339.00
356.9840, 17380.00
358.1870, 17123.91
359.3910, 17169.00
360.5940, 16796.00
361.7970, 16713.00
363.0000, 16696.00
364.2030, 16636.00
365.4050, 16161.00
366.6080, 16270.00
367.8100, 16111.00
369.0120, 16098.00
370.2140, 16174.00
371.4150, 16281.00
372.6170, 16425.00
373.8180, 16472.00
375.0190, 16619.00
376.2200, 16997.00
377.4210, 17340.00
378.6220, 17499.00
379.8220, 17652.00
381.0230, 18034.00
382.2230, 18103.00
383.4230, 18181.00
384.6220, 18217.00
385.8220, 18314.00
387.0220, 18201.00
388.2210, 17892.00
389.4200, 17487.00
390.6190, 16906.00
391.8180, 16564.00
393.0160, 15984.00
394.2150, 15463.00
395.4130, 15055.00
396.6110, 14570.00
397.8090, 14004.00
399.0060, 13607.00
400.2040, 13166.00
401.4010, 12883.17
402.5980, 12639.82
403.7950, 12483.00
404.9920, 12280.00
406.1890, 12203.00
407.3860, 12008.00
408.5820, 11958.00
409.7780, 11868.00
410.9740, 11900.00
412.1700, 11882.00
413.3650, 11842.47
414.5610, 11786.00
415.7560, 11793.00
416.9510, 11809.00
418.1460, 11795.00
419.3410, 11792.34
420.5360, 11732.00
421.7300, 11749.00
422.9240, 11739.00
424.1180, 11681.00
425.3120, 11778.00
426.5060, 11761.00
427.7000, 11725.00
428.8930, 11732.17
430.0860, 11681.68
431.2790, 11630.00
432.4720, 11570.00
433.6650, 11447.00
434.8580, 11328.00
436.0500, 11194.00
437.2420, 11174.00
438.4340, 11008.00
439.6260, 10951.00
440.8180, 10959.00
442.0090, 10932.00
443.2010, 10830.00
444.3920, 10740.00
445.5830, 10738.00
446.7740, 10557.00
447.9640, 10596.00
449.1550, 10632.00
450.3450, 10675.00
451.5350, 10570.00
452.7250, 10536.00
453.9150, 10553.00
455.1050, 10637.00
456.2940, 10446.00
457.4830, 10549.00
458.6720, 10515.00
459.8610, 10366.00
461.0500, 10361.00
462.2390, 10371.00
463.4270, 10265.00
464.6150, 10331.00
465.8040, 10167.00
466.9910, 10282.00
468.1790, 10129.00
469.3670, 10147.00
470.5540, 10135.00
471.7410, 10175.00
472.9280, 10215.00
474.1150, 10119.00
475.3020, 10163.00
476.4890, 10185.00
477.6750, 10311.00
478.8610, 10229.00
480.0470, 10211.00
481.2330, 10397.00
482.4190, 10360.00
483.6040, 10528.00
484.7900, 10593.00
485.9750, 10527.00
487.1600, 10689.00
488.3450, 10881.00
489.5290, 10773.00
490.7140, 11091.00
491.8980, 11313.00
493.0820, 11373.00
494.2660, 11618.00
495.4500, 11875.00
496.6340, 12073.00
497.8170, 12231.00
499.0010, 12612.00
500.1840, 12720.00
501.3670, 12966.00
502.5500, 13019.00
503.7320, 13205.00
504.9150, 13385.00
506.0970, 13292.00
507.2790, 13408.00
508.4610, 13272.00
509.6430, 13234.00
510.8250, 13337.00
512.0060, 13207.00
513.1870, 13189.00
514.3680, 13184.00
515.5490, 13228.00
516.7300, 13401.00
517.9110, 13399.00
519.0910, 13769.00
520.2710, 13794.00
521.4510, 14131.00
522.6310, 14007.00
523.8110, 14161.00
524.9910, 14173.00
526.1700, 14351.00
527.3490, 14422.00
528.5280, 14505.00
529.7070, 14428.00
530.8860, 14559.00
532.0650, 14514.00
533.2430, 14544.00
534.4210, 14528.00
535.5990, 14460.01
536.7770, 14398.00
537.9550, 14324.00
539.1320, 14230.00
540.3100, 14179.00
541.4870, 13977.00
542.6640, 14023.00
543.8410, 13965.00
545.0170, 14134.00
546.1940, 14048.00
547.3700, 13986.00
548.5470, 14011.00
549.7230, 14029.00
550.8980, 14108.00
552.0740, 14149.00
553.2500, 14068.00
554.4250, 14183.00
555.6000, 14281.00
556.7750, 13885.00
557.9500, 14035.00
559.1250, 13821.00
560.2990, 13631.00
561.4730, 13442.00
562.6480, 13266.27
563.8220, 13054.00
564.9950, 12962.00
566.1690, 12766.22
567.3430, 12669.00
568.5160, 12325.00
569.6890, 12169.00
570.8620, 11758.00
572.0350, 11831.00
573.2070, 11434.00
574.3800, 11335.00
575.5520, 11090.00
576.7240, 10974.00
577.8960, 10861.00
579.0680, 10548.00
580.2400, 10489.35
581.4110, 10554.00
582.5830, 10183.00
583.7540, 10032.00
584.9250, 9755.000
586.0950, 9897.000
587.2660, 9714.000
588.4370, 9791.000
589.6070, 9572.000
590.7770, 9590.000
591.9470, 9459.000
593.1170, 9546.000
594.2860, 9537.000
595.4560, 9454.000
596.6250, 9509.000
597.7940, 9571.000
598.9630, 9474.000
600.1320, 9606.000
601.3000, 9764.000
602.4690, 9797.000
603.6370, 9720.000
604.8050, 9928.000
605.9730, 9799.000
607.1410, 9863.000
608.3090, 10026.00
609.4760, 10199.00
610.6430, 10229.00
611.8100, 10310.00
612.9770, 10299.00
614.1440, 10507.00
615.3110, 10701.00
616.4770, 10656.00
617.6430, 10835.00
618.8090, 10957.00
619.9750, 11063.00
621.1410, 11181.00
622.3070, 11378.00
623.4720, 11495.00
624.6370, 11672.00
625.8020, 11922.00
626.9670, 12077.05
628.1320, 12317.27
629.2970, 12449.00
630.4610, 12827.00
631.6250, 12971.00
632.7890, 13333.00
633.9530, 13679.00
635.1170, 13930.00
636.2810, 14510.00
637.4440, 15024.00
638.6070, 15435.00
639.7700, 16223.00
640.9330, 16677.00
642.0960, 17425.00
643.2590, 18274.00
644.4210, 19065.00
645.5830, 20007.00
646.7450, 21333.00
647.9070, 22392.00
649.0690, 24076.00
650.2310, 25720.00
651.3920, 27503.00
652.5530, 29881.00
653.7140, 32600.00
654.8750, 35398.00
656.0360, 38601.00
657.1970, 42100.00
658.3570, 45525.00
659.5170, 48872.00
660.6770, 51820.00
661.8370, 53770.00
662.9970, 54724.00
664.1570, 54562.11
665.3160, 53875.00
666.4750, 51473.00
667.6340, 48283.00
668.7930, 44791.00
669.9520, 41223.00
671.1110, 37374.00
672.2690, 33837.00
673.4270, 30757.00
674.5850, 28162.00
675.7430, 25945.00
676.9010, 23843.00
678.0590, 22406.00
679.2160, 21065.00
680.3730, 19993.00
681.5300, 19166.00
682.6870, 18281.00
683.8440, 17759.00
685.0010, 17236.00
686.1570, 16894.00
687.3130, 16371.00
688.4690, 16263.00
689.6250, 16187.00
690.7810, 15993.00
691.9370, 15847.00
693.0920, 15777.00
694.2470, 15957.00
695.4020, 15761.00
696.5570, 15972.00
697.7120, 16072.00
698.8670, 16141.00
700.0210, 16272.00
701.1750, 16426.00
702.3290, 16620.00
703.4830, 16775.73
704.6370, 16955.76
705.7910, 17130.00
706.9440, 17325.00
708.0970, 17498.00
709.2510, 17713.00
710.4030, 17806.00
711.5560, 17804.00
712.7090, 18220.00
713.8610, 18081.00
715.0140, 18331.00
716.1660, 18353.00
717.3180, 18503.00
718.4690, 18522.00
719.6210, 18404.00
720.7730, 18417.00
721.9240, 18548.00
723.0750, 18370.00
724.2260, 18323.00
725.3770, 18395.00
726.5270, 18039.00
727.6780, 18000.00
728.8280, 17872.00
729.9780, 17680.00
731.1280, 17572.00
732.2780, 17376.88
733.4280, 17191.00
734.5770, 16976.00
735.7260, 16770.00
736.8760, 16505.00
738.0250, 16234.00
739.1730, 15981.00
740.3220, 15766.00
741.4700, 15435.00
742.6190, 15318.00
743.7670, 14873.00
744.9150, 14938.00
746.0630, 14708.00
747.2100, 14355.00
748.3580, 14068.00
749.5050, 13931.00
750.6520, 14049.00
751.7990, 13879.00
752.9460, 13758.12
754.0930, 13512.00
755.2390, 13412.00
756.3860, 13321.35
757.5320, 13407.00
758.6780, 13191.00
759.8240, 13300.00
760.9690, 13221.00
762.1150, 13109.00
763.2600, 13198.00
764.4060, 13187.00
765.5510, 13143.00
766.6950, 13027.00
767.8400, 13201.00
768.9850, 12950.00
770.1290, 12994.00
771.2730, 12990.00
772.4170, 13147.00
773.5610, 12913.00
774.7050, 13175.00
775.8480, 13278.00
776.9920, 13128.00
778.1350, 13101.00
779.2780, 13088.00
780.4210, 13039.00
781.5640, 13064.00
782.7060, 13049.00
783.8490, 12996.00
784.9910, 12935.00
786.1330, 12968.00
787.2750, 12926.00
788.4170, 12825.00
789.5580, 12835.00
790.7000, 12799.00
791.8410, 12673.00
792.9820, 12621.00
794.1230, 12502.00
795.2640, 12595.00
796.4040, 12411.00
797.5450, 12417.00
798.6850, 12232.00
799.8250, 12381.00
800.9650, 12355.00
802.1050, 12197.62
803.2450, 12299.00
804.3840, 12001.00
805.5230, 11955.00
806.6630, 12085.00
807.8020, 12065.00
808.9400, 11784.00
810.0790, 11990.00
811.2170, 11898.00
812.3560, 11806.00
813.4940, 11916.00
814.6320, 11894.00
815.7700, 11894.00
816.9070, 11875.00
818.0450, 11832.00
819.1820, 11934.00
820.3190, 11818.00
821.4560, 11908.00
822.5930, 11708.00
823.7300, 11941.00
824.8670, 11895.00
826.0030, 11827.00
827.1390, 11881.00
828.2750, 11785.00
829.4110, 11711.00
830.5470, 11715.00
831.6820, 11721.00
832.8180, 11735.00
833.9530, 11567.00
835.0880, 11664.00
836.2230, 11608.00
837.3580, 11659.00
838.4920, 11756.00
839.6270, 11569.00
840.7610, 11710.00
841.8950, 11544.00
843.0290, 11489.00
844.1630, 11677.00
845.2960, 11770.00
846.4300, 11925.00
847.5630, 12081.00
848.6960, 12269.00
849.8290, 12453.00
850.9620, 12514.00
852.0940, 12788.00
853.2270, 12899.00
854.3590, 13210.00
855.4910, 13309.00
856.6230, 13442.00
857.7550, 13382.00
858.8870, 13355.00
860.0180, 13326.00
861.1500, 13096.00
862.2810, 13236.00
863.4120, 13205.00
864.5430, 12894.00
865.6730, 12970.00
866.8040, 12719.00
867.9340, 12800.00
869.0640, 12744.00
870.1940, 12617.00
871.3240, 12511.00
872.4540, 12496.00
873.5830, 12742.00
874.7130, 12580.00
875.8420, 12766.00
876.9710, 12694.00
878.1000, 12706.00
879.2290, 12725.00
880.3570, 12815.00
881.4860, 12915.00
882.6140, 12956.00
883.7420, 12939.00
884.8700, 13118.00
885.9980, 13118.00
887.1250, 13309.00
888.2530, 13222.00
889.3800, 13361.00
890.5070, 13366.00
891.6340, 13385.00
892.7610, 13390.00
893.8880, 13458.00
895.0140, 13540.00
896.1400, 13454.00
897.2670, 13518.00
898.3930, 13599.00
899.5180, 13672.00
900.6440, 13600.00
901.7700, 13650.00
902.8950, 13692.00
904.0200, 13830.00
905.1450, 13891.00
906.2700, 13813.00
907.3950, 13898.00
908.5190, 13906.00
909.6440, 14139.00
910.7680, 14310.00
911.8920, 14126.00
913.0160, 14279.00
914.1400, 14312.68
915.2630, 14465.00
916.3870, 14507.00
917.5100, 14495.00
918.6330, 14712.00
919.7560, 14676.64
920.8790, 14640.00
922.0010, 14695.00
923.1240, 14750.00
924.2460, 14679.00
925.3680, 14705.00
926.4900, 14516.00
927.6120, 14665.00
928.7340, 14432.00
929.8550, 14485.00
930.9760, 14259.00
932.0980, 14262.00
933.2190, 14224.00
934.3390, 14377.00
935.4600, 14174.00
936.5810, 14076.00
937.7010, 14170.00
938.8210, 14046.00
939.9410, 13954.00
941.0610, 13944.00
942.1810, 13919.00
943.3010, 13820.00
944.4200, 13912.00
945.5390, 13967.00
946.6580, 13905.00
947.7770, 13837.00
948.8960, 13947.00
950.0150, 13937.55
951.1330, 14022.99
952.2510, 14064.00
953.3690, 14124.00
954.4870, 14193.00
955.6050, 14040.00
956.7230, 14216.00
957.8400, 14042.00
958.9580, 14169.00
960.0750, 14335.00
961.1920, 14184.00
962.3090, 14416.00
963.4250, 14341.00
964.5420, 14560.00
965.6580, 14609.00
966.7740, 14851.00
967.8900, 14784.00
969.0060, 15189.00
970.1220, 15187.00
971.2380, 15281.00
972.3530, 15579.00
973.4680, 15949.00
974.5830, 16306.00
975.6980, 16720.00
976.8130, 17033.00
977.9280, 17393.00
979.0420, 18042.00
980.1560, 18907.00
981.2710, 19664.00
982.3850, 20626.00
983.4980, 21594.16
984.6120, 22354.00
985.7260, 23637.00
986.8390, 24609.00
987.9520, 25568.00
989.0650, 26358.00
990.1780, 26878.00
991.2910, 27043.00
992.4030, 26959.00
993.5160, 27246.00
994.6280, 26965.00
995.7400, 27262.00
996.8520, 27572.00
997.9640, 27916.00
999.0750, 28885.00
1000.187, 29675.00
1001.298, 31233.00
1002.409, 32821.00
1003.520, 34539.00
1004.631, 36722.00
1005.741, 39156.00
1006.852, 41885.00
1007.962, 44234.00
1009.072, 46425.00
1010.182, 47570.00
1011.292, 48014.00
1012.402, 47110.00
1013.511, 45012.00
1014.621, 41660.00
1015.730, 38230.00
1016.839, 34681.00
1017.948, 31486.00
1019.056, 28545.00
1020.165, 26205.00
1021.273, 24444.00
1022.382, 23067.00
1023.490, 21921.00
1024.598, 21299.00
1025.706, 20638.00
1026.813, 20036.00
1027.921, 19785.00
1029.028, 19447.00
1030.135, 19226.00
1031.242, 18961.00
1032.349, 18924.00
1033.456, 18665.00
1034.562, 18711.00
1035.668, 18502.00
1036.775, 18206.00
1037.881, 18277.00
1038.987, 18181.00
1040.092, 17835.00
1041.198, 17708.00
1042.303, 17490.23
1043.408, 17323.00
1044.514, 17032.00
1045.618, 16904.00
1046.723, 16573.00
1047.828, 16408.00
1048.932, 16126.00
1050.037, 16031.00
1051.141, 15665.00
1052.245, 15624.00
1053.349, 15469.00
1054.452, 15325.00
1055.556, 15090.00
1056.659, 14764.00
1057.762, 14716.00
1058.865, 14397.00
1059.968, 14284.00
1061.071, 14156.00
1062.174, 14021.00
1063.276, 13784.00
1064.378, 13543.00
1065.480, 13372.00
1066.582, 13125.00
1067.684, 13043.00
1068.786, 12920.00
1069.887, 12949.00
1070.988, 12740.00
1072.090, 12685.75
1073.191, 12415.00
1074.291, 12473.00
1075.392, 12327.00
1076.493, 12199.00
1077.593, 12265.00
1078.693, 12029.00
1079.793, 11938.00
1080.893, 11966.00
1081.993, 11753.00
1083.092, 11717.18
1084.192, 11663.00
1085.291, 11565.00
1086.390, 11613.00
1087.489, 11623.00
1088.588, 11470.00
1089.686, 11388.00
1090.785, 11239.00
1091.883, 11102.00
1092.981, 11251.00
1094.079, 11233.00
1095.177, 11134.00
1096.275, 11122.00
1097.373, 11204.00
1098.470, 11018.00
1099.567, 11061.00
1100.664, 10861.00
1101.761, 10781.00
1102.858, 10810.39
1103.954, 10829.00
1105.051, 10836.00
1106.147, 10726.00
1107.243, 10689.00
1108.339, 10591.00
1109.435, 10514.00
1110.531, 10580.00
1111.626, 10531.00
1112.722, 10537.00
1113.817, 10346.00
1114.912, 10371.00
1116.007, 10302.00
1117.101, 10303.00
1118.196, 10310.00
1119.290, 10211.00
1120.385, 10212.00
1121.479, 10290.00
1122.573, 10084.00
1123.666, 10198.00
1124.760, 10164.00
1125.853, 9961.000
1126.947, 10047.00
1128.040, 9903.000
1129.133, 9907.000
1130.226, 9746.000
1131.318, 9690.000
1132.411, 9706.000
1133.503, 9541.000
1134.596, 9613.000
1135.688, 9591.000
1136.780, 9512.000
1137.871, 9462.000
1138.963, 9333.000
1140.054, 9309.000
1141.146, 9254.000
1142.237, 9201.702
1143.328, 9211.000
1144.419, 9165.000
1145.509, 9102.000
1146.600, 9141.000
1147.690, 9270.000
1148.780, 9078.000
1149.870, 9134.000
1150.960, 9188.000
1152.050, 9045.000
1153.139, 8996.000
1154.229, 9034.000
1155.318, 9043.000
1156.407, 8864.000
1157.496, 9058.000
1158.585, 8958.956
1159.674, 9026.000
1160.762, 8911.000
1161.850, 8952.000
1162.939, 8888.000
1164.027, 8895.000
1165.114, 8883.529
1166.202, 8814.000
1167.290, 8871.000
1168.377, 8894.000
1169.464, 8922.000
1170.551, 8846.000
1171.638, 8879.000
1172.725, 8659.000
1173.812, 8733.000
1174.898, 8832.000
1175.984, 8749.000
1177.071, 8927.000
1178.157, 8773.000
1179.242, 8758.000
1180.328, 8811.000
1181.414, 8823.000
1182.499, 8848.000
1183.584, 8879.418
1184.669, 8779.000
1185.754, 8884.000
1186.839, 8898.000
1187.924, 8802.000
1189.008, 8888.000
1190.092, 8800.000
1191.177, 8708.000
1192.260, 8724.000
1193.344, 8744.000
1194.428, 8813.000
1195.512, 8838.000
1196.595, 8817.000
1197.678, 8727.000
1198.761, 8781.000
1199.844, 8741.000
1200.927, 8894.000
1202.009, 8915.000
1203.092, 8750.000
1204.174, 8856.000
1205.256, 8721.000
1206.338, 8897.000
1207.420, 8850.000
1208.502, 8846.000
1209.583, 8795.000
1210.665, 8790.000
1211.746, 8753.000
1212.827, 8824.000
1213.908, 8780.000
1214.988, 8836.000
1216.069, 8839.000
1217.149, 8783.000
1218.230, 8761.000
1219.310, 8839.000
1220.390, 8771.000
1221.470, 8749.000
1222.549, 8833.000
1223.629, 8741.000
1224.708, 8868.000
1225.787, 8774.000
1226.866, 8784.000
1227.945, 8882.000
1229.024, 8775.000
1230.103, 8700.000
1231.181, 8904.000
1232.259, 8816.000
1233.337, 8833.000
1234.415, 8831.000
1235.493, 8912.000
1236.571, 8827.000
1237.648, 8694.000
1238.726, 8976.000
1239.803, 8975.000
1240.880, 8735.000
1241.957, 8866.000
1243.034, 8950.000
1244.110, 8830.000
1245.187, 8894.000
1246.263, 8839.000
1247.339, 8760.000
1248.415, 8848.000
1249.491, 8861.000
1250.566, 8767.000
1251.642, 8733.000
1252.717, 8762.000
1253.793, 8757.000
1254.868, 8880.000
1255.943, 8877.000
1257.017, 8880.183
1258.092, 8902.648
1259.166, 8823.000
1260.241, 8840.000
1261.315, 8760.000
1262.389, 8649.000
1263.462, 8883.000
1264.536, 8914.000
1265.610, 8808.000
1266.683, 8859.000
1267.756, 8835.000
1268.829, 8750.000
1269.902, 8843.000
1270.975, 8875.000
1272.048, 8784.000
1273.120, 8842.000
1274.192, 8803.000
1275.264, 8897.000
1276.336, 8863.000
1277.408, 8863.000
1278.480, 8955.000
1279.551, 8812.000
1280.623, 8844.000
1281.694, 8901.000
1282.765, 8926.000
1283.836, 8906.000
1284.907, 9283.000
