##NAMES=Axinite-(Fe)
##RRUFFID=R060194
##IDEAL CHEMISTRY=Ca_4_Fe^2+^_2_Al_4_[B_2_Si_8_O_30_](OH)_2_
##LOCALITY=near Dalbandi, Baluchistan Province, Pakistan
##OWNER=RRUFF
##SOURCE=Herbert Obodda
##DESCRIPTION=Brown transparent wedge-shaped single crystal
##STATUS=The identification of this mineral has been confirmed by X-ray diffraction and chemical analysis
##URL=rruff.info/R060194
##MEASURED CHEMISTRY=Ca_2.00_(Fe^2+^_0.66_Mg_0.30_Mn_0.04_)Al_2.00_BSi_4.00_O_15_(OH)
##PIN_ID=L00975
##ORIENTATION=Laser parallel to a* (1 0 0). Fiducial mark perpendicular to laser is parallel to b [0 1 0]
53.91000, 566.0000
55.14900, 573.0000
56.38700, 561.0000
57.62600, 549.0000
58.86400, 555.0000
60.10300, 542.0000
61.34100, 554.0000
62.57900, 546.0000
63.81700, 572.0000
65.05400, 579.0000
66.29200, 586.0000
67.52900, 607.0000
68.76700, 651.0000
70.00400, 726.0000
71.24100, 924.0000
72.47700, 1007.000
73.71400, 948.0000
74.95100, 884.0000
76.18700, 1013.000
77.42300, 1028.061
78.65900, 1228.000
79.89500, 1233.000
81.13100, 1337.000
82.36700, 1473.000
83.60200, 1648.000
84.83700, 1933.000
86.07200, 2135.421
87.30800, 2530.000
88.54200, 2727.000
89.77700, 3155.000
91.01200, 3620.000
92.24600, 4138.000
93.48000, 5092.000
94.71400, 5790.000
95.94800, 6126.000
97.18200, 6487.000
98.41600, 6814.000
99.64900, 6811.000
100.8830, 7049.000
102.1160, 7394.000
103.3490, 7325.000
104.5820, 7194.000
105.8150, 7259.000
107.0470, 7823.000
108.2800, 8823.000
109.5120, 11118.00
110.7440, 13117.00
111.9760, 12464.00
113.2080, 11374.00
114.4400, 10852.00
115.6710, 10626.00
116.9030, 10837.00
118.1340, 10743.00
119.3650, 10711.00
120.5960, 10781.00
121.8270, 10571.00
123.0580, 10753.00
124.2880, 10625.00
125.5190, 10511.00
126.7490, 9932.000
127.9790, 9288.000
129.2090, 8550.000
130.4390, 7984.000
131.6680, 7496.000
132.8980, 6967.000
134.1270, 6756.000
135.3560, 6580.000
136.5850, 6691.000
137.8140, 7019.000
139.0430, 7511.000
140.2710, 8023.000
141.5000, 8335.000
142.7280, 8506.000
143.9560, 8285.000
145.1840, 8224.000
146.4120, 8186.000
147.6390, 8382.000
148.8670, 9333.000
150.0940, 10395.00
151.3210, 11809.00
152.5490, 13345.00
153.7750, 13735.00
155.0020, 13528.00
156.2290, 13189.00
157.4550, 12847.00
158.6810, 12395.00
159.9080, 11354.00
161.1340, 10123.00
162.3590, 8941.000
163.5850, 8291.000
164.8110, 8102.000
166.0360, 8246.000
167.2610, 8849.000
168.4860, 9913.000
169.7110, 11681.00
170.9360, 13753.00
172.1610, 15706.00
173.3850, 15857.24
174.6100, 16330.00
175.8340, 15329.00
177.0580, 13768.00
178.2820, 12392.00
179.5050, 10688.00
180.7290, 9503.000
181.9520, 8352.000
183.1760, 7422.000
184.3990, 6720.000
185.6220, 6037.000
186.8450, 5666.000
188.0670, 5436.000
189.2900, 5181.000
190.5120, 5247.000
191.7340, 5392.000
192.9560, 5633.000
194.1780, 6044.000
195.4000, 6514.000
196.6220, 6796.000
197.8430, 6657.000
199.0640, 6631.000
200.2860, 6889.000
201.5070, 7581.000
202.7270, 8509.000
203.9480, 9805.000
205.1690, 11186.00
206.3890, 12392.00
207.6090, 13744.00
208.8290, 15239.00
210.0490, 16476.00
211.2690, 17729.00
212.4890, 18784.00
213.7080, 19445.00
214.9280, 20155.00
216.1470, 20809.00
217.3660, 21141.00
218.5850, 21397.00
219.8030, 21549.00
221.0220, 20708.00
222.2400, 19061.00
223.4590, 16629.00
224.6770, 14348.00
225.8950, 12140.00
227.1120, 10520.00
228.3300, 9231.000
229.5480, 8310.000
230.7650, 7623.000
231.9820, 7158.000
233.1990, 6842.000
234.4160, 6672.000
235.6330, 6681.000
236.8490, 6717.000
238.0660, 7143.000
239.2820, 7739.000
240.4980, 8143.000
241.7140, 8715.000
242.9300, 8867.000
244.1460, 8805.000
245.3610, 8810.000
246.5770, 8586.000
247.7920, 8730.000
249.0070, 9109.000
250.2220, 9673.000
251.4370, 10645.00
252.6510, 12532.00
253.8660, 15277.00
255.0800, 15296.00
256.2940, 16516.00
257.5080, 16814.00
258.7220, 16426.00
259.9360, 16510.00
261.1490, 16881.00
262.3630, 16388.00
263.5760, 16514.00
264.7890, 17194.00
266.0020, 17802.00
267.2150, 18754.00
268.4270, 19735.00
269.6400, 20215.00
270.8520, 20925.00
272.0640, 21292.00
273.2760, 21320.00
274.4880, 20994.00
275.7000, 20463.00
276.9120, 19575.00
278.1230, 18712.00
279.3340, 17327.00
280.5450, 16127.00
281.7560, 14856.00
282.9670, 13998.00
284.1780, 13291.00
285.3880, 12927.00
286.5980, 12883.00
287.8090, 12581.00
289.0190, 12320.00
290.2290, 12175.00
291.4380, 11925.00
292.6480, 11852.00
293.8570, 11763.00
295.0670, 11593.00
296.2760, 11575.00
297.4850, 11303.00
298.6930, 11580.00
299.9020, 11063.00
301.1110, 10980.00
302.3190, 10698.00
303.5270, 10869.00
304.7350, 11051.00
305.9430, 11360.00
307.1510, 11758.00
308.3580, 12012.00
309.5660, 12311.00
310.7730, 12602.00
311.9800, 12972.00
313.1870, 13457.00
314.3940, 14822.00
315.6010, 17011.00
316.8070, 19790.00
318.0130, 22825.00
319.2200, 25786.00
320.4260, 27446.00
321.6310, 27956.00
322.8370, 26338.00
324.0430, 24098.00
325.2480, 21596.00
326.4540, 19214.00
327.6590, 17705.00
328.8640, 16522.00
330.0680, 16001.00
331.2730, 15570.00
332.4780, 15722.00
333.6820, 15791.00
334.8860, 16234.00
336.0900, 16951.00
337.2940, 18090.00
338.4980, 19415.00
339.7010, 21643.00
340.9050, 24143.00
342.1080, 27357.00
343.3110, 30366.00
344.5140, 32988.00
345.7170, 33893.00
346.9200, 32277.00
348.1220, 29261.00
349.3240, 26038.00
350.5270, 23099.00
351.7290, 20259.00
352.9310, 18323.00
354.1320, 16198.00
355.3340, 14177.00
356.5350, 12527.00
357.7370, 10862.00
358.9380, 9686.000
360.1390, 8742.000
361.3400, 8123.000
362.5400, 7577.000
363.7410, 7189.000
364.9410, 6971.000
366.1410, 6806.000
367.3410, 6711.000
368.5410, 6676.000
369.7410, 6784.000
370.9400, 7076.000
372.1400, 7438.000
373.3390, 7767.000
374.5380, 8141.000
375.7370, 8259.000
376.9360, 8286.000
378.1350, 8241.000
379.3330, 8309.000
380.5310, 8511.000
381.7300, 8995.000
382.9280, 9737.000
384.1260, 10941.00
385.3230, 12129.00
386.5210, 14028.00
387.7180, 15648.00
388.9160, 17163.00
390.1130, 18267.00
391.3100, 18437.00
392.5060, 18189.00
393.7030, 17430.00
394.9000, 16660.00
396.0960, 15506.00
397.2920, 14198.00
398.4880, 13145.00
399.6840, 12462.00
400.8800, 11896.00
402.0750, 11631.00
403.2710, 11285.00
404.4660, 11036.00
405.6610, 10743.00
406.8560, 10375.00
408.0510, 9991.000
409.2450, 9960.000
410.4400, 10047.00
411.6340, 10345.00
412.8280, 10942.00
414.0220, 12064.00
415.2160, 13546.00
416.4100, 15693.00
417.6030, 18223.00
418.7970, 20957.00
419.9900, 23146.00
421.1830, 25051.00
422.3760, 26673.00
423.5690, 29132.00
424.7610, 31316.00
425.9540, 33160.00
427.1460, 34186.00
428.3380, 34374.00
429.5300, 33342.00
430.7220, 31566.00
431.9140, 28386.00
433.1050, 24825.00
434.2970, 21327.00
435.4880, 18293.00
436.6790, 15558.00
437.8700, 13823.00
439.0610, 12602.00
440.2510, 12079.00
441.4420, 12080.00
442.6320, 12635.00
443.8220, 13853.00
445.0120, 14967.00
446.2020, 15582.00
447.3910, 15075.00
448.5810, 13834.00
449.7700, 12160.00
450.9600, 10576.00
452.1490, 9423.000
453.3370, 8726.000
454.5260, 8312.000
455.7150, 8069.000
456.9030, 8035.000
458.0910, 7954.000
459.2800, 7883.000
460.4670, 7888.000
461.6550, 7717.000
462.8430, 7603.000
464.0300, 7490.000
465.2180, 7470.000
466.4050, 7727.000
467.5920, 7978.000
468.7790, 8386.000
469.9650, 8863.000
471.1520, 9398.000
472.3380, 9890.000
473.5250, 9956.000
474.7110, 10104.00
475.8970, 10407.00
477.0820, 10750.00
478.2680, 11666.00
479.4540, 13062.00
480.6390, 14785.00
481.8240, 17399.00
483.0090, 20255.00
484.1940, 23135.00
485.3780, 25358.00
486.5630, 25811.00
487.7470, 24400.00
488.9320, 21109.00
490.1160, 17493.00
491.3000, 14355.00
492.4830, 11996.00
493.6670, 10255.00
494.8500, 9139.000
496.0340, 8406.000
497.2170, 8041.000
498.4000, 7775.000
499.5820, 7566.000
500.7650, 7380.000
501.9480, 7162.000
503.1300, 7016.000
504.3120, 6800.000
505.4940, 6619.000
506.6760, 6409.000
507.8580, 6351.000
509.0390, 6227.000
510.2210, 6110.000
511.4020, 6086.000
512.5830, 6026.000
513.7640, 6006.000
514.9450, 6020.000
516.1250, 6029.000
517.3060, 6117.000
518.4860, 6000.000
519.6660, 5842.000
520.8460, 5884.000
522.0260, 5640.000
523.2060, 5552.000
524.3850, 5419.000
525.5650, 5305.000
526.7440, 5218.000
527.9230, 5205.000
529.1020, 5190.000
530.2810, 5209.654
531.4590, 5262.723
532.6380, 5320.000
533.8160, 5402.000
534.9940, 5492.000
536.1720, 5545.000
537.3500, 5559.000
538.5270, 5617.000
539.7050, 5577.000
540.8820, 5622.000
542.0590, 5506.000
543.2360, 5630.000
544.4130, 5681.000
545.5900, 5885.000
546.7660, 6019.000
547.9430, 6045.000
549.1190, 6045.000
550.2950, 5995.000
551.4710, 5971.000
552.6470, 5945.000
553.8220, 6027.000
554.9980, 6133.000
556.1730, 6522.000
557.3480, 6972.000
558.5230, 7726.000
559.6980, 8464.000
560.8730, 9715.000
562.0470, 10263.00
563.2220, 10986.00
564.3960, 10940.00
565.5700, 10648.00
566.7440, 10410.00
567.9170, 10184.00
569.0910, 10378.00
570.2640, 10705.00
571.4380, 11132.00
572.6110, 11849.00
573.7840, 12496.00
574.9570, 12914.00
576.1290, 12809.00
577.3020, 12199.00
578.4740, 11645.00
579.6460, 10662.00
580.8180, 9968.000
581.9900, 9343.000
583.1620, 8650.000
584.3330, 8348.000
585.5040, 8219.000
586.6760, 8136.000
587.8470, 8256.000
589.0180, 8317.000
590.1880, 8204.000
591.3590, 7945.000
592.5290, 7608.000
593.7000, 7100.000
594.8700, 6675.000
596.0400, 6175.000
597.2090, 5966.000
598.3790, 5779.803
599.5490, 5685.924
600.7180, 5720.000
601.8870, 5760.000
603.0560, 5884.000
604.2250, 5976.000
605.3940, 6331.000
606.5620, 6768.000
607.7300, 7311.000
608.8990, 8055.000
610.0670, 8784.616
611.2350, 9669.000
612.4020, 10634.00
613.5700, 11638.00
614.7370, 12839.00
615.9050, 13981.00
617.0720, 15145.00
618.2390, 16355.00
619.4060, 17212.00
620.5720, 17476.00
621.7390, 17442.00
622.9050, 16582.00
624.0710, 14868.00
625.2370, 13045.00
626.4030, 11119.00
627.5690, 9476.000
628.7340, 8385.000
629.9000, 7461.000
631.0650, 6717.000
632.2300, 6399.000
633.3950, 6324.000
634.5600, 6106.000
635.7240, 6220.000
636.8890, 6426.000
638.0530, 6794.000
639.2170, 6860.000
640.3810, 7506.000
641.5450, 7826.000
642.7080, 8434.000
643.8720, 8629.000
645.0350, 8948.000
646.1980, 8932.000
647.3610, 8700.000
648.5240, 8236.000
649.6870, 7771.000
650.8490, 7464.000
652.0120, 6874.000
653.1740, 6470.000
654.3360, 6142.000
655.4980, 5993.000
656.6600, 5715.000
657.8210, 5756.000
658.9830, 5729.000
660.1440, 5678.000
661.3050, 5849.000
662.4660, 5827.000
663.6270, 6136.000
664.7870, 6444.000
665.9480, 6851.000
667.1080, 7338.000
668.2680, 7881.000
669.4280, 8762.000
670.5880, 9721.000
671.7480, 11045.00
672.9070, 12707.00
674.0670, 14726.00
675.2260, 16755.00
676.3850, 18476.00
677.5440, 19794.00
678.7030, 20119.00
679.8610, 19384.00
681.0200, 17662.00
682.1780, 15628.00
683.3360, 13902.00
684.4940, 12185.00
685.6520, 10892.00
686.8090, 9874.000
687.9670, 9080.000
689.1240, 8568.000
690.2810, 8301.000
691.4380, 8285.000
692.5950, 8180.084
693.7520, 8273.000
694.9080, 8482.000
696.0650, 8710.000
697.2210, 9133.000
698.3770, 9784.000
699.5330, 10624.00
700.6880, 11516.00
701.8440, 12770.00
702.9990, 14305.00
704.1550, 16325.00
705.3100, 18934.00
706.4650, 22148.00
707.6190, 26183.00
708.7740, 31261.00
709.9290, 37204.00
711.0830, 43466.00
712.2370, 50553.00
713.3910, 56011.00
714.5450, 59364.00
715.6980, 59923.00
716.8520, 56272.00
718.0050, 50788.00
719.1580, 43418.00
720.3110, 36245.00
721.4640, 30037.00
722.6170, 24861.00
723.7700, 20820.00
724.9220, 17458.00
726.0740, 14908.00
727.2260, 13018.00
728.3780, 11552.00
729.5300, 10301.00
730.6810, 9408.000
731.8330, 8582.000
732.9840, 7943.000
734.1350, 7399.000
735.2860, 6887.000
736.4370, 6657.000
737.5880, 6300.000
738.7380, 5998.000
739.8880, 5774.000
741.0390, 5617.000
742.1890, 5451.000
743.3380, 5343.000
744.4880, 5190.000
745.6380, 5144.000
746.7870, 5145.000
747.9360, 5032.000
749.0850, 4989.000
750.2340, 4989.000
751.3830, 5059.000
752.5310, 5136.000
753.6800, 5230.191
754.8280, 5336.000
755.9760, 5475.000
757.1240, 5609.000
758.2720, 5729.000
759.4190, 5971.000
760.5670, 6092.000
761.7140, 6163.000
762.8610, 6207.000
764.0080, 6304.000
765.1550, 6490.000
766.3020, 6417.000
767.4480, 6583.000
768.5950, 6489.000
769.7410, 6375.000
770.8870, 6198.000
772.0330, 6047.000
773.1780, 5807.000
774.3240, 5563.000
775.4690, 5372.000
776.6140, 5152.950
777.7590, 4970.000
778.9040, 4765.000
780.0490, 4667.000
781.1940, 4497.000
782.3380, 4446.000
783.4820, 4380.000
784.6260, 4297.000
785.7700, 4248.000
786.9140, 4188.000
788.0580, 4134.274
789.2010, 4105.594
790.3450, 4041.000
791.4880, 4063.000
792.6310, 4024.000
793.7730, 4022.000
794.9160, 3964.000
796.0590, 3940.000
797.2010, 3882.000
798.3430, 3938.000
799.4850, 3889.000
800.6270, 3894.000
801.7690, 3955.000
802.9100, 3965.000
804.0520, 4076.000
805.1930, 4121.000
806.3340, 4204.000
807.4750, 4340.000
808.6160, 4495.000
809.7560, 4622.000
810.8970, 4730.000
812.0370, 5002.000
813.1770, 5165.000
814.3170, 5305.000
815.4570, 5339.000
816.5960, 5313.000
817.7360, 5225.000
818.8750, 5091.000
820.0140, 4936.000
821.1530, 4805.000
822.2920, 4729.000
823.4310, 4600.000
824.5690, 4538.000
825.7070, 4491.000
826.8460, 4520.000
827.9840, 4427.000
829.1220, 4469.000
830.2590, 4485.000
831.3970, 4515.000
832.5340, 4561.875
833.6710, 4626.141
834.8080, 4672.000
835.9450, 4763.000
837.0820, 4855.000
838.2190, 4877.000
839.3550, 5010.000
840.4910, 5108.000
841.6270, 5239.000
842.7630, 5362.000
843.8990, 5582.000
845.0350, 5657.000
846.1700, 5942.000
847.3060, 6221.000
848.4410, 6397.000
849.5760, 6808.000
850.7100, 7031.000
851.8450, 7411.000
852.9800, 7616.000
854.1140, 7909.000
855.2480, 7998.000
856.3820, 8168.000
857.5160, 8175.000
858.6500, 8345.000
859.7830, 8340.000
860.9170, 8388.000
862.0500, 8576.000
863.1830, 8674.000
864.3160, 8870.000
865.4480, 8904.000
866.5810, 9025.000
867.7130, 9094.000
868.8460, 8973.000
869.9780, 9086.000
871.1100, 9003.000
872.2410, 9097.000
873.3730, 9026.000
874.5050, 8987.000
875.6360, 9087.000
876.7670, 9210.000
877.8980, 9175.000
879.0290, 9199.000
880.1590, 9184.000
881.2900, 9262.000
882.4200, 9333.000
883.5500, 9353.000
884.6800, 9530.000
885.8100, 9547.000
886.9400, 9761.000
888.0690, 9990.000
889.1990, 10232.00
890.3280, 10855.00
891.4570, 11419.00
892.5860, 12154.00
893.7140, 13138.00
894.8430, 14212.00
895.9710, 15444.00
897.1000, 16833.00
898.2280, 18441.00
899.3560, 20073.00
900.4830, 22053.00
901.6110, 24323.00
902.7380, 26855.00
903.8660, 29380.00
904.9930, 32300.00
906.1200, 34715.00
907.2460, 36141.00
908.3730, 36945.00
909.5000, 35984.00
910.6260, 34600.00
911.7520, 32255.00
912.8780, 29897.00
914.0040, 27015.00
915.1290, 24069.00
916.2550, 21391.00
917.3800, 19023.00
918.5050, 16947.00
919.6300, 15198.00
920.7550, 13886.00
921.8800, 12621.00
923.0040, 11656.00
924.1290, 11070.00
925.2530, 10555.00
926.3770, 10155.00
927.5010, 9895.000
928.6250, 9983.000
929.7480, 9850.000
930.8720, 9885.000
931.9950, 9918.000
933.1180, 10039.00
934.2410, 10126.00
935.3640, 10229.00
936.4860, 10238.00
937.6090, 10283.00
938.7310, 10497.00
939.8530, 10842.00
940.9750, 11081.00
942.0970, 11609.00
943.2180, 12032.00
944.3400, 12829.00
945.4610, 13724.00
946.5820, 14614.00
947.7030, 15883.00
948.8240, 17361.00
949.9450, 18931.00
951.0650, 20635.00
952.1860, 22474.00
953.3060, 24310.00
954.4260, 26290.00
955.5460, 28140.00
956.6650, 30276.00
957.7850, 32734.00
958.9040, 35429.00
960.0230, 38900.00
961.1420, 43027.00
962.2610, 47749.00
963.3800, 52690.00
964.4990, 56323.00
965.6170, 59146.00
966.7350, 59815.00
967.8530, 58189.00
968.9710, 54311.00
970.0890, 50402.00
971.2070, 46213.00
972.3240, 42839.00
973.4410, 40241.00
974.5580, 39461.00
975.6750, 39223.00
976.7920, 40280.00
977.9090, 41877.00
979.0250, 43932.00
980.1410, 45186.00
981.2580, 46172.00
982.3740, 45606.00
983.4890, 44232.00
984.6050, 42111.00
985.7200, 39814.00
986.8360, 38131.00
987.9510, 36701.00
989.0660, 35889.00
990.1810, 35526.00
991.2950, 35543.00
992.4100, 35282.00
993.5240, 34949.00
994.6390, 34308.00
995.7530, 33264.00
996.8660, 32793.00
997.9800, 32021.00
999.0940, 31532.00
1000.207, 31397.00
1001.320, 31113.00
1002.433, 30683.00
1003.546, 29808.66
1004.659, 29004.00
1005.772, 27413.00
1006.884, 25889.00
1007.996, 24030.00
1009.108, 22434.00
1010.220, 20418.00
1011.332, 18720.00
1012.444, 16939.00
1013.555, 15566.00
1014.666, 14466.00
1015.777, 13263.00
1016.888, 12437.00
1017.999, 11669.00
1019.110, 11036.00
1020.220, 10450.00
1021.331, 9953.000
1022.441, 9501.000
1023.551, 9247.000
1024.661, 8945.000
1025.770, 8859.000
1026.880, 8773.000
1027.989, 8730.000
1029.098, 8718.000
1030.207, 8833.000
1031.316, 8621.000
1032.425, 8517.000
1033.533, 8451.000
1034.642, 8130.000
1035.750, 8017.000
1036.858, 7787.000
1037.966, 7747.000
1039.073, 7705.000
1040.181, 7675.000
1041.288, 7778.000
1042.396, 7710.000
1043.503, 7881.000
1044.610, 8021.000
1045.716, 8022.000
1046.823, 8122.000
1047.929, 8318.000
1049.036, 8515.000
1050.142, 8700.000
1051.248, 9028.000
1052.353, 9212.000
1053.459, 9536.000
1054.564, 9973.000
1055.670, 10267.00
1056.775, 10534.00
1057.880, 10778.00
1058.985, 10977.00
1060.089, 11205.00
1061.194, 11144.00
1062.298, 11041.00
1063.402, 10948.00
1064.506, 10567.00
1065.610, 10219.00
1066.713, 9570.000
1067.817, 9106.000
1068.920, 8609.000
1070.023, 8062.000
1071.126, 7788.000
1072.229, 7523.000
1073.332, 7217.000
1074.435, 7291.000
1075.537, 7203.000
1076.639, 7272.000
1077.741, 7531.000
1078.843, 7813.000
1079.945, 8143.000
1081.046, 8458.000
1082.148, 9048.000
1083.249, 9634.000
1084.350, 10046.00
1085.451, 10177.00
1086.551, 9973.000
1087.652, 9738.000
1088.752, 8910.000
1089.853, 8403.000
1090.953, 7736.000
1092.053, 7208.000
1093.152, 6769.000
1094.252, 6371.000
1095.351, 6073.000
1096.451, 5881.234
1097.550, 5815.000
1098.649, 5685.000
1099.748, 5675.000
1100.846, 5658.000
1101.945, 5495.000
1103.043, 5627.000
1104.141, 5615.000
1105.239, 5741.000
1106.337, 5896.000
1107.434, 5820.000
1108.532, 5851.000
1109.629, 5806.000
1110.726, 5797.000
1111.823, 5635.000
1112.920, 5444.000
1114.017, 5412.000
1115.113, 5257.000
1116.210, 5217.000
1117.306, 5147.000
1118.402, 5010.000
1119.498, 4890.000
1120.593, 4833.000
1121.689, 4759.000
1122.784, 4699.350
1123.879, 4598.000
1124.974, 4598.000
1126.069, 4586.000
1127.164, 4515.000
1128.259, 4447.000
1129.353, 4379.000
1130.447, 4334.375
1131.541, 4317.000
1132.635, 4245.000
1133.729, 4227.000
1134.822, 4167.000
1135.916, 4195.000
1137.009, 4090.000
1138.102, 4155.000
1139.195, 4158.000
1140.288, 4123.000
1141.380, 4079.000
1142.473, 4014.000
1143.565, 4031.000
1144.657, 4010.000
1145.749, 4004.000
1146.841, 3952.000
1147.932, 4019.000
1149.024, 3913.000
1150.115, 3910.000
1151.206, 3846.000
1152.297, 3926.000
1153.388, 3861.000
1154.479, 3817.000
1155.569, 3878.000
1156.659, 3840.000
1157.750, 3918.000
1158.839, 3801.000
1159.929, 3844.000
1161.019, 3788.000
1162.108, 3769.000
1163.198, 3829.000
1164.287, 3686.000
1165.376, 3797.000
1166.465, 3788.000
1167.553, 3691.000
1168.642, 3801.000
1169.730, 3713.000
1170.818, 3767.000
1171.906, 3714.000
1172.994, 3635.000
1174.082, 3615.000
1175.170, 3638.000
1176.257, 3632.000
1177.344, 3639.000
1178.431, 3651.279
1179.518, 3672.000
1180.605, 3655.000
1181.691, 3687.000
1182.778, 3657.000
1183.864, 3619.000
1184.950, 3565.000
1186.036, 3548.000
1187.122, 3567.000
1188.207, 3616.000
1189.292, 3593.000
1190.378, 3627.000
1191.463, 3656.000
1192.548, 3590.000
1193.632, 3572.000
1194.717, 3534.000
1195.801, 3601.000
1196.886, 3581.000
1197.970, 3568.000
1199.054, 3533.000
1200.137, 3552.000
1201.221, 3452.000
1202.305, 3532.000
1203.388, 3442.000
1204.471, 3503.000
1205.554, 3512.000
1206.637, 3546.000
1207.719, 3492.000
1208.802, 3480.000
1209.884, 3438.000
1210.966, 3432.736
1212.048, 3431.000
1213.130, 3425.000
1214.212, 3423.000
1215.293, 3409.000
1216.374, 3423.362
1217.456, 3455.000
1218.536, 3458.000
1219.617, 3502.000
1220.698, 3539.000
1221.778, 3510.659
1222.859, 3512.000
1223.939, 3460.000
1225.019, 3394.000
1226.099, 3370.000
1227.178, 3395.000
1228.258, 3384.000
1229.337, 3304.000
1230.417, 3368.000
1231.496, 3389.000
1232.574, 3340.000
1233.653, 3390.000
1234.732, 3385.000
1235.810, 3312.000
1236.888, 3382.000
