##NAMES=Axinite-(Fe)
##RRUFFID=R060183
##IDEAL CHEMISTRY=Ca_4_Fe^2+^_2_Al_4_[B_2_Si_8_O_30_](OH)_2_
##LOCALITY=Skagit Bluffs, near Manning Park, British Columbia, Canada
##OWNER=RRUFF
##SOURCE=Lloyd Twaites
##DESCRIPTION=Light-pink transparent axe-head-shaped single crystal
##STATUS=The identification of this mineral has been confirmed by X-ray diffraction and chemical analysis
##URL=rruff.info/R060183
##MEASURED CHEMISTRY=Ca_2.00_(Fe^2+^_0.58_Mn_0.23_Mg_0.19_)Al_2.00_B_1.00_Si_4.00_O_15_(OH)
##PIN_ID=L01002
##ORIENTATION=Laser parallel to (-1 0 -1). Fiducial mark perpendicular to laser is parallel to b [0 1 0]
52.67100, 2639.000
53.91000, 2444.000
55.14900, 2397.000
56.38700, 2295.000
57.62600, 2292.000
58.86400, 2299.000
60.10300, 2285.000
61.34100, 2249.923
62.57900, 2212.000
63.81700, 2127.000
65.05400, 2078.000
66.29200, 1945.000
67.52900, 2053.000
68.76700, 2224.000
70.00400, 2437.000
71.24100, 2443.000
72.47700, 2247.000
73.71400, 2286.000
74.95100, 2384.000
76.18700, 2638.000
77.42300, 2754.000
78.65900, 2753.000
79.89500, 2911.000
81.13100, 3031.000
82.36700, 3340.000
83.60200, 3707.000
84.83700, 4153.000
86.07200, 4463.000
87.30800, 4705.000
88.54200, 5267.000
89.77700, 5847.000
91.01200, 6703.000
92.24600, 7850.000
93.48000, 8867.000
94.71400, 9810.000
95.94800, 10762.00
97.18200, 11467.00
98.41600, 12128.00
99.64900, 12853.00
100.8830, 13483.00
102.1160, 14266.00
103.3490, 14887.00
104.5820, 16027.00
105.8150, 17692.00
107.0470, 19931.00
108.2800, 22627.00
109.5120, 24002.00
110.7440, 21572.00
111.9760, 18986.00
113.2080, 16937.00
114.4400, 15116.00
115.6710, 14080.00
116.9030, 13201.00
118.1340, 12391.00
119.3650, 11707.00
120.5960, 11263.00
121.8270, 11239.00
123.0580, 11035.00
124.2880, 11094.00
125.5190, 11231.00
126.7490, 10920.00
127.9790, 10937.00
129.2090, 10983.00
130.4390, 10881.00
131.6680, 10919.00
132.8980, 11027.00
134.1270, 11419.00
135.3560, 12132.00
136.5850, 13040.00
137.8140, 13861.00
139.0430, 14500.00
140.2710, 14653.00
141.5000, 14543.00
142.7280, 14187.00
143.9560, 14129.00
145.1840, 14235.00
146.4120, 14817.00
147.6390, 15803.00
148.8670, 16595.00
150.0940, 17033.00
151.3210, 16874.00
152.5490, 16315.00
153.7750, 14848.00
155.0020, 13870.00
156.2290, 13288.00
157.4550, 12767.00
158.6810, 12267.00
159.9080, 11997.00
161.1340, 11917.00
162.3590, 12168.00
163.5850, 12597.00
164.8110, 13387.00
166.0360, 14533.00
167.2610, 16112.00
168.4860, 17856.00
169.7110, 19269.00
170.9360, 20262.00
172.1610, 20124.00
173.3850, 18953.00
174.6100, 17519.00
175.8340, 16169.00
177.0580, 14593.00
178.2820, 13451.00
179.5050, 12218.00
180.7290, 11125.00
181.9520, 10040.00
183.1760, 9370.000
184.3990, 8996.000
185.6220, 8539.000
186.8450, 8458.000
188.0670, 8258.000
189.2900, 8379.000
190.5120, 8553.000
191.7340, 8992.000
192.9560, 9293.000
194.1780, 9593.000
195.4000, 9645.000
196.6220, 10018.00
197.8430, 10114.00
199.0640, 10516.00
200.2860, 11120.00
201.5070, 12151.00
202.7270, 13385.00
203.9480, 14271.00
205.1690, 15526.00
206.3890, 16593.00
207.6090, 17720.00
208.8290, 18577.00
210.0490, 19175.13
211.2690, 19882.00
212.4890, 19798.00
213.7080, 19805.00
214.9280, 19480.00
216.1470, 19301.00
217.3660, 18780.00
218.5850, 18205.00
219.8030, 17172.09
221.0220, 16283.00
222.2400, 14717.00
223.4590, 13199.00
224.6770, 11965.00
225.8950, 10918.00
227.1120, 10248.00
228.3300, 9634.000
229.5480, 9347.000
230.7650, 9243.000
231.9820, 9106.000
233.1990, 9180.000
234.4160, 9424.000
235.6330, 9587.000
236.8490, 9962.000
238.0660, 10262.00
239.2820, 10806.00
240.4980, 11148.00
241.7140, 11605.00
242.9300, 11878.00
244.1460, 12224.00
245.3610, 12510.00
246.5770, 13017.00
247.7920, 13443.00
249.0070, 13856.00
250.2220, 14248.00
251.4370, 15250.00
252.6510, 16045.00
253.8660, 16972.00
255.0800, 17629.00
256.2940, 17812.00
257.5080, 18235.34
258.7220, 18082.00
259.9360, 18455.00
261.1490, 18377.00
262.3630, 18390.00
263.5760, 19245.00
264.7890, 20066.00
266.0020, 20890.00
267.2150, 22025.00
268.4270, 23309.00
269.6400, 24529.00
270.8520, 25578.00
272.0640, 26725.00
273.2760, 27494.00
274.4880, 27579.00
275.7000, 27449.00
276.9120, 26658.00
278.1230, 25450.00
279.3340, 24172.00
280.5450, 22446.00
281.7560, 21109.00
282.9670, 20133.00
284.1780, 19517.00
285.3880, 18885.00
286.5980, 18546.29
287.8090, 18499.00
289.0190, 18230.00
290.2290, 18239.00
291.4380, 18232.00
292.6480, 18234.00
293.8570, 18167.00
295.0670, 18154.00
296.2760, 18146.00
297.4850, 17933.00
298.6930, 17710.00
299.9020, 17476.00
301.1110, 17583.35
302.3190, 17425.00
303.5270, 17864.00
304.7350, 18194.00
305.9430, 18344.00
307.1510, 18464.00
308.3580, 18316.00
309.5660, 18401.00
310.7730, 18382.00
311.9800, 18992.00
313.1870, 19487.00
314.3940, 21150.00
315.6010, 22783.00
316.8070, 24450.00
318.0130, 26040.00
319.2200, 26797.00
320.4260, 26428.00
321.6310, 25386.00
322.8370, 23647.00
324.0430, 22290.00
325.2480, 21119.00
326.4540, 20221.00
327.6590, 19813.00
328.8640, 19636.00
330.0680, 19557.00
331.2730, 19376.00
332.4780, 19362.00
333.6820, 19650.00
334.8860, 20106.00
336.0900, 21079.00
337.2940, 22466.00
338.4980, 24127.00
339.7010, 25965.00
340.9050, 27735.00
342.1080, 29000.00
343.3110, 29495.00
344.5140, 28844.00
345.7170, 27143.00
346.9200, 25450.00
348.1220, 23818.00
349.3240, 22182.00
350.5270, 20565.00
351.7290, 18920.12
352.9310, 17416.00
354.1320, 15728.00
355.3340, 14107.00
356.5350, 12702.00
357.7370, 11581.00
358.9380, 10607.00
360.1390, 9938.000
361.3400, 9530.000
362.5400, 9150.000
363.7410, 8851.000
364.9410, 8776.000
366.1410, 8660.000
367.3410, 8638.000
368.5410, 8758.000
369.7410, 8896.000
370.9400, 9045.000
372.1400, 9201.000
373.3390, 9391.000
374.5380, 9481.000
375.7370, 9524.000
376.9360, 9799.000
378.1350, 10100.00
379.3330, 10438.00
380.5310, 11040.00
381.7300, 11864.00
382.9280, 12617.00
384.1260, 13642.00
385.3230, 14715.00
386.5210, 15954.00
387.7180, 16702.00
388.9160, 17295.00
390.1130, 17575.00
391.3100, 17860.00
392.5060, 17581.00
393.7030, 16765.00
394.9000, 15693.00
396.0960, 14794.00
397.2920, 13821.00
398.4880, 13111.00
399.6840, 12602.00
400.8800, 11992.00
402.0750, 11880.00
403.2710, 11476.00
404.4660, 11353.00
405.6610, 11467.00
406.8560, 11665.00
408.0510, 11956.00
409.2450, 12526.00
410.4400, 13327.00
411.6340, 14410.00
412.8280, 15796.00
414.0220, 17674.00
415.2160, 19385.00
416.4100, 20945.00
417.6030, 22192.00
418.7970, 23044.00
419.9900, 24106.65
421.1830, 24712.00
422.3760, 25486.00
423.5690, 25836.00
424.7610, 26064.00
425.9540, 25760.00
427.1460, 25369.00
428.3380, 24765.00
429.5300, 23851.00
430.7220, 22408.00
431.9140, 21124.00
433.1050, 19779.00
434.2970, 18052.00
435.4880, 17084.00
436.6790, 15970.00
437.8700, 15674.00
439.0610, 15366.00
440.2510, 15988.00
441.4420, 16531.00
442.6320, 17434.00
443.8220, 17708.00
445.0120, 17365.00
446.2020, 16179.00
447.3910, 14866.00
448.5810, 13645.00
449.7700, 12472.00
450.9600, 11595.00
452.1490, 11105.00
453.3370, 10554.00
454.5260, 10338.00
455.7150, 10159.00
456.9030, 9880.000
458.0910, 9449.000
459.2800, 9297.000
460.4670, 9063.000
461.6550, 8670.000
462.8430, 8675.000
464.0300, 8708.000
465.2180, 8795.000
466.4050, 8874.000
467.5920, 9181.000
468.7790, 9411.000
469.9650, 9784.000
471.1520, 10014.00
472.3380, 10246.00
473.5250, 10638.00
474.7110, 11065.00
475.8970, 11858.00
477.0820, 12771.00
478.2680, 14314.00
479.4540, 16166.00
480.6390, 17997.00
481.8240, 20467.00
483.0090, 22711.00
484.1940, 23824.00
485.3780, 24090.00
486.5630, 22381.00
487.7470, 19978.00
488.9320, 17452.00
490.1160, 15158.00
491.3000, 13461.00
492.4830, 12082.00
493.6670, 11225.00
494.8500, 10486.00
496.0340, 10118.00
497.2170, 9716.000
498.4000, 9683.000
499.5820, 9499.000
500.7650, 9392.000
501.9480, 9435.000
503.1300, 9497.000
504.3120, 9742.000
505.4940, 9864.000
506.6760, 9983.000
507.8580, 10072.00
509.0390, 10083.00
510.2210, 10146.00
511.4020, 9981.000
512.5830, 9819.000
513.7640, 9537.000
514.9450, 9213.000
516.1250, 8845.000
517.3060, 8379.000
518.4860, 8209.000
519.6660, 7851.000
520.8460, 7625.000
522.0260, 7486.000
523.2060, 7302.000
524.3850, 7256.000
525.5650, 7275.000
526.7440, 7189.000
527.9230, 7215.000
529.1020, 7232.000
530.2810, 7340.000
531.4590, 7440.000
532.6380, 7570.000
533.8160, 7650.000
534.9940, 7805.000
536.1720, 7845.000
537.3500, 7815.000
538.5270, 8057.000
539.7050, 8033.000
540.8820, 8069.000
542.0590, 8328.000
543.2360, 8221.000
544.4130, 8406.000
545.5900, 8488.000
546.7660, 8538.000
547.9430, 8471.000
549.1190, 8501.000
550.2950, 8656.000
551.4710, 8887.000
552.6470, 8980.000
553.8220, 9500.000
554.9980, 9745.000
556.1730, 10186.00
557.3480, 10703.00
558.5230, 11208.00
559.6980, 11563.00
560.8730, 11786.00
562.0470, 11548.00
563.2220, 11598.85
564.3960, 11438.25
565.5700, 11320.00
566.7440, 11194.00
567.9170, 11257.00
569.0910, 11480.00
570.2640, 11764.00
571.4380, 12029.00
572.6110, 12270.00
573.7840, 12288.00
574.9570, 12353.00
576.1290, 12286.00
577.3020, 11788.00
578.4740, 11516.00
579.6460, 11015.00
580.8180, 10692.00
581.9900, 10342.00
583.1620, 10488.00
584.3330, 10231.00
585.5040, 10291.00
586.6760, 10332.00
587.8470, 10353.00
589.0180, 10198.00
590.1880, 9976.000
591.3590, 10122.00
592.5290, 9921.000
593.7000, 8815.000
594.8700, 8452.000
596.0400, 8199.000
597.2090, 7975.000
598.3790, 7931.000
599.5490, 7865.000
600.7180, 7968.000
601.8870, 7973.000
603.0560, 8179.000
604.2250, 8355.000
605.3940, 8711.000
606.5620, 9107.000
607.7300, 9669.000
608.8990, 10223.00
610.0670, 10982.00
611.2350, 11969.00
612.4020, 12913.00
613.5700, 14215.00
614.7370, 15287.00
615.9050, 16317.00
617.0720, 17371.00
618.2390, 18311.00
619.4060, 18735.00
620.5720, 18414.00
621.7390, 17712.00
622.9050, 16392.00
624.0710, 14931.00
625.2370, 13313.00
626.4030, 11904.00
627.5690, 10756.00
628.7340, 9934.000
629.9000, 9419.000
631.0650, 8964.000
632.2300, 8789.000
633.3950, 8788.000
634.5600, 8983.000
635.7240, 9071.000
636.8890, 9186.000
638.0530, 9539.000
639.2170, 10050.00
640.3810, 10408.00
641.5450, 10806.00
642.7080, 11014.00
643.8720, 11069.00
645.0350, 11107.00
646.1980, 10882.00
647.3610, 10528.00
648.5240, 10250.00
649.6870, 9867.000
650.8490, 9392.000
652.0120, 9063.000
653.1740, 8664.401
654.3360, 8464.200
655.4980, 8301.200
656.6600, 8181.000
657.8210, 8181.000
658.9830, 8136.000
660.1440, 8177.000
661.3050, 8293.000
662.4660, 8350.000
663.6270, 8611.000
664.7870, 9123.000
665.9480, 9478.000
667.1080, 9781.000
668.2680, 10717.00
669.4280, 11567.00
670.5880, 12504.00
671.7480, 13811.00
672.9070, 15358.00
674.0670, 16651.00
675.2260, 18137.00
676.3850, 19403.00
677.5440, 19806.00
678.7030, 19846.00
679.8610, 19027.00
681.0200, 17778.00
682.1780, 16194.00
683.3360, 15078.00
684.4940, 13855.00
685.6520, 12937.00
686.8090, 12253.00
687.9670, 11599.00
689.1240, 11311.00
690.2810, 11109.00
691.4380, 10957.00
692.5950, 11062.00
693.7520, 11221.56
694.9080, 11680.00
696.0650, 12015.00
697.2210, 12624.00
698.3770, 13414.00
699.5330, 14457.00
700.6880, 15635.00
701.8440, 17371.00
702.9990, 19303.00
704.1550, 21821.00
705.3100, 24921.00
706.4650, 28735.00
707.6190, 33038.00
708.7740, 38130.00
709.9290, 43841.00
711.0830, 49880.00
712.2370, 55022.00
713.3910, 59976.00
714.5450, 62889.00
715.6980, 62487.00
716.8520, 60355.00
718.0050, 56260.00
719.1580, 50505.00
720.3110, 44173.00
721.4640, 38175.00
722.6170, 32710.00
723.7700, 27858.00
724.9220, 24193.00
726.0740, 21059.00
727.2260, 18655.00
728.3780, 16618.00
729.5300, 14903.00
730.6810, 13732.00
731.8330, 12503.00
732.9840, 11789.00
734.1350, 10947.00
735.2860, 10524.00
736.4370, 10022.00
737.5880, 9832.000
738.7380, 9285.000
739.8880, 9143.000
741.0390, 8869.000
742.1890, 8828.000
743.3380, 8720.000
744.4880, 8531.000
745.6380, 8414.000
746.7870, 8454.000
747.9360, 8448.000
749.0850, 8555.000
750.2340, 8793.000
751.3830, 8771.000
752.5310, 9038.000
753.6800, 9385.000
754.8280, 9573.000
755.9760, 9563.000
757.1240, 9871.000
758.2720, 9867.000
759.4190, 10029.00
760.5670, 10184.00
761.7140, 10147.00
762.8610, 10187.00
764.0080, 10213.00
765.1550, 10222.00
766.3020, 10100.00
767.4480, 10017.00
768.5950, 9687.000
769.7410, 9583.000
770.8870, 9162.000
772.0330, 8968.000
773.1780, 8618.000
774.3240, 8223.000
775.4690, 7963.000
776.6140, 7782.000
777.7590, 7426.000
778.9040, 7267.000
780.0490, 7138.000
781.1940, 6936.000
782.3380, 6867.000
783.4820, 6684.000
784.6260, 6643.000
785.7700, 6565.000
786.9140, 6541.000
788.0580, 6504.000
789.2010, 6442.000
790.3450, 6401.882
791.4880, 6351.588
792.6310, 6294.000
793.7730, 6267.000
794.9160, 6216.000
796.0590, 6202.462
797.2010, 6343.000
798.3430, 6218.000
799.4850, 6281.000
800.6270, 6313.000
801.7690, 6291.000
802.9100, 6356.000
804.0520, 6493.000
805.1930, 6581.000
806.3340, 6849.000
807.4750, 6904.000
808.6160, 7211.000
809.7560, 7485.000
810.8970, 7744.000
812.0370, 8047.000
813.1770, 8194.000
814.3170, 8188.000
815.4570, 8115.000
816.5960, 8025.000
817.7360, 7733.000
818.8750, 7657.000
820.0140, 7506.000
821.1530, 7347.000
822.2920, 7276.000
823.4310, 7202.000
824.5690, 7115.000
825.7070, 7018.000
826.8460, 7067.000
827.9840, 7085.000
829.1220, 7047.000
830.2590, 7132.000
831.3970, 7163.000
832.5340, 7185.000
833.6710, 7358.000
834.8080, 7368.000
835.9450, 7535.000
837.0820, 7605.000
838.2190, 7671.000
839.3550, 7770.000
840.4910, 7901.575
841.6270, 8166.000
842.7630, 8237.000
843.8990, 8455.000
845.0350, 8701.000
846.1700, 8848.000
847.3060, 9042.000
848.4410, 9275.000
849.5760, 9392.415
850.7100, 9593.000
851.8450, 9689.000
852.9800, 9695.000
854.1140, 9877.000
855.2480, 9823.000
856.3820, 9909.000
857.5160, 9973.000
858.6500, 10090.00
859.7830, 10082.00
860.9170, 10150.00
862.0500, 10371.00
863.1830, 10375.00
864.3160, 10523.00
865.4480, 10656.00
866.5810, 10661.00
867.7130, 10700.00
868.8460, 10860.00
869.9780, 10883.00
871.1100, 11023.00
872.2410, 11071.00
873.3730, 11312.00
874.5050, 11584.00
875.6360, 11423.00
876.7670, 11867.00
877.8980, 11872.00
879.0290, 12213.00
880.1590, 12294.00
881.2900, 12329.00
882.4200, 12647.00
883.5500, 12786.00
884.6800, 13017.00
885.8100, 13147.00
886.9400, 13552.00
888.0690, 13918.00
889.1990, 14483.00
890.3280, 14719.00
891.4570, 15298.00
892.5860, 16180.00
893.7140, 16979.00
894.8430, 17450.00
895.9710, 18591.00
897.1000, 19474.00
898.2280, 20239.00
899.3560, 20688.00
900.4830, 21414.00
901.6110, 21585.00
902.7380, 21851.00
903.8660, 21501.00
904.9930, 21056.00
906.1200, 20274.00
907.2460, 19524.00
908.3730, 18798.00
909.5000, 18066.32
910.6260, 17252.00
911.7520, 16649.00
912.8780, 15943.42
914.0040, 15240.00
915.1290, 14793.00
916.2550, 14201.00
917.3800, 13826.00
918.5050, 13740.00
919.6300, 13245.00
920.7550, 13147.44
921.8800, 13070.00
923.0040, 12888.00
924.1290, 13073.00
925.2530, 13076.00
926.3770, 13250.00
927.5010, 13473.00
928.6250, 13533.00
929.7480, 13887.00
930.8720, 14074.00
931.9950, 14147.00
933.1180, 14110.00
934.2410, 14207.00
935.3640, 14343.00
936.4860, 14334.00
937.6090, 14637.00
938.7310, 14872.00
939.8530, 15416.00
940.9750, 15874.00
942.0970, 16633.00
943.2180, 17518.00
944.3400, 18391.00
945.4610, 19623.00
946.5820, 21022.00
947.7030, 22461.00
948.8240, 24041.00
949.9450, 25742.00
951.0650, 27400.00
952.1860, 29090.00
953.3060, 30741.00
954.4260, 31939.00
955.5460, 33556.00
956.6650, 35221.00
957.7850, 37047.00
958.9040, 39610.00
960.0230, 42190.00
961.1420, 44094.00
962.2610, 46379.00
963.3800, 47506.00
964.4990, 47469.00
965.6170, 46821.00
966.7350, 44887.00
967.8530, 42684.00
968.9710, 40686.00
970.0890, 38892.00
971.2070, 37946.00
972.3240, 37338.48
973.4410, 36979.00
974.5580, 37733.00
975.6750, 38836.00
976.7920, 40301.00
977.9090, 41431.00
979.0250, 42497.00
980.1410, 42591.00
981.2580, 42527.00
982.3740, 41163.00
983.4890, 39994.00
984.6050, 38390.00
985.7200, 36729.00
986.8360, 35048.00
987.9510, 33661.00
989.0660, 32753.00
990.1810, 31602.00
991.2950, 30894.00
992.4100, 29789.00
993.5240, 29112.00
994.6390, 28211.00
995.7530, 28005.00
996.8660, 27413.00
997.9800, 26963.00
999.0940, 26490.00
1000.207, 26174.00
1001.320, 25754.00
1002.433, 25227.00
1003.546, 24626.91
1004.659, 23939.00
1005.772, 23150.00
1006.884, 22256.00
1007.996, 21324.00
1009.108, 20135.00
1010.220, 18901.00
1011.332, 17957.00
1012.444, 16761.00
1013.555, 15929.00
1014.666, 15014.00
1015.777, 14045.00
1016.888, 13531.00
1017.999, 12882.00
1019.110, 12407.00
1020.220, 12103.00
1021.331, 11491.00
1022.441, 11197.00
1023.551, 10914.00
1024.661, 10944.00
1025.770, 10625.00
1026.880, 10461.00
1027.989, 10415.00
1029.098, 10298.00
1030.207, 10131.35
1031.316, 10061.00
1032.425, 9989.742
1033.533, 9892.000
1034.642, 9900.000
1035.750, 9887.000
1036.858, 9932.397
1037.966, 9949.000
1039.073, 10124.00
1040.181, 10217.00
1041.288, 10392.00
1042.396, 10461.00
1043.503, 10418.00
1044.610, 10477.00
1045.716, 10719.00
1046.823, 10845.00
1047.929, 11141.00
1049.036, 11206.00
1050.142, 11436.00
1051.248, 11807.00
1052.353, 12067.00
1053.459, 12526.00
1054.564, 12873.00
1055.670, 13187.00
1056.775, 13325.00
1057.880, 13400.07
1058.985, 13386.00
1060.089, 13213.00
1061.194, 13076.00
1062.298, 12707.00
1063.402, 12367.00
1064.506, 11999.00
1065.610, 11572.00
1066.713, 11041.00
1067.817, 10793.00
1068.920, 10609.00
1070.023, 10392.00
1071.126, 10278.00
1072.229, 10183.00
1073.332, 10260.00
1074.435, 10393.31
1075.537, 10599.54
1076.639, 10964.00
1077.741, 11268.00
1078.843, 11787.00
1079.945, 12283.00
1081.046, 12793.00
1082.148, 13072.00
1083.249, 13193.87
1084.350, 13250.00
1085.451, 12936.00
1086.551, 12579.00
1087.652, 11903.00
1088.752, 11287.00
1089.853, 10777.00
1090.953, 10263.00
1092.053, 9881.000
1093.152, 9471.000
1094.252, 9114.000
1095.351, 8947.429
1096.451, 9029.000
1097.550, 8803.000
1098.649, 8821.000
1099.748, 8989.000
1100.846, 9043.000
1101.945, 9055.000
1103.043, 9079.000
1104.141, 9119.000
1105.239, 9158.000
1106.337, 9245.000
1107.434, 9060.000
1108.532, 9109.000
1109.629, 8951.000
1110.726, 8955.000
1111.823, 8705.000
1112.920, 8581.000
1114.017, 8415.000
1115.113, 8221.000
1116.210, 8220.000
1117.306, 8125.000
1118.402, 7999.000
1119.498, 7967.272
1120.593, 7880.769
1121.689, 7843.000
1122.784, 7757.000
1123.879, 7712.000
1124.974, 7630.000
1126.069, 7544.000
1127.164, 7437.264
1128.259, 7328.623
1129.353, 7192.000
1130.447, 7082.000
1131.541, 6965.000
1132.635, 6888.472
1133.729, 6821.000
1134.822, 6773.000
1135.916, 6770.000
1137.009, 6753.000
1138.102, 6578.000
1139.195, 6707.000
1140.288, 6604.000
1141.380, 6541.000
1142.473, 6661.000
1143.565, 6518.000
1144.657, 6498.000
1145.749, 6486.000
1146.841, 6437.000
1147.932, 6448.000
1149.024, 6504.000
1150.115, 6361.000
1151.206, 6340.000
1152.297, 6392.000
1153.388, 6423.000
1154.479, 6395.000
1155.569, 6397.724
1156.659, 6336.000
1157.750, 6316.000
1158.839, 6295.000
1159.929, 6207.000
1161.019, 6125.000
1162.108, 6183.000
1163.198, 6153.000
1164.287, 6138.000
1165.376, 6191.000
1166.465, 6107.000
1167.553, 6126.000
1168.642, 6027.000
1169.730, 6129.000
1170.818, 6067.000
1171.906, 6089.000
1172.994, 6086.000
1174.082, 6092.000
1175.170, 6033.000
1176.257, 5998.000
1177.344, 6031.000
1178.431, 5997.000
1179.518, 5991.000
1180.605, 6052.000
1181.691, 6071.000
1182.778, 6099.000
1183.864, 6084.629
1184.950, 6012.000
1186.036, 6026.000
1187.122, 6015.000
1188.207, 5987.000
1189.292, 6078.000
1190.378, 6008.000
1191.463, 5920.000
1192.548, 5999.000
1193.632, 5959.000
1194.717, 5984.000
1195.801, 5909.000
1196.886, 6025.000
1197.970, 6005.000
1199.054, 5991.000
1200.137, 6011.000
1201.221, 5985.000
1202.305, 5960.000
1203.388, 5921.000
1204.471, 5883.000
1205.554, 5848.000
1206.637, 5881.000
1207.719, 5873.000
1208.802, 5882.000
1209.884, 5809.000
1210.966, 5883.000
1212.048, 5917.000
1213.130, 5828.000
1214.212, 5831.000
1215.293, 5765.000
1216.374, 5897.000
1217.456, 5928.000
1218.536, 5877.000
1219.617, 5881.000
1220.698, 5932.000
1221.778, 5894.000
1222.859, 5867.000
1223.939, 5845.000
1225.019, 5815.026
1226.099, 5823.000
1227.178, 5794.000
1228.258, 5807.000
1229.337, 5861.000
1230.417, 5895.000
1231.496, 5821.000
1232.574, 5839.000
1233.653, 5814.000
1234.732, 5775.000
