##NAMES=Axinite-(Fe)
##RRUFFID=R060194
##IDEAL CHEMISTRY=Ca_4_Fe^2+^_2_Al_4_[B_2_Si_8_O_30_](OH)_2_
##LOCALITY=near Dalbandi, Baluchistan Province, Pakistan
##OWNER=RRUFF
##SOURCE=Herbert Obodda
##DESCRIPTION=Brown transparent wedge-shaped single crystal
##STATUS=The identification of this mineral has been confirmed by X-ray diffraction and chemical analysis
##URL=rruff.info/R060194
##MEASURED CHEMISTRY=Ca_2.00_(Fe^2+^_0.66_Mg_0.30_Mn_0.04_)Al_2.00_BSi_4.00_O_15_(OH)
##PIN_ID=L00543
##ORIENTATION=Laser parallel to (-1 0 -1). Fiducial mark perpendicular to laser is parallel to b [0 1 0]
53.91000, 523.0000
55.14900, 517.0000
56.38700, 500.0000
57.62600, 495.0000
58.86400, 516.0000
60.10300, 519.0000
61.34100, 524.0000
62.57900, 529.0000
63.81700, 530.0000
65.05400, 545.0000
66.29200, 550.0000
67.52900, 599.0000
68.76700, 663.0000
70.00400, 773.0000
71.24100, 901.0000
72.47700, 862.0000
73.71400, 846.0000
74.95100, 858.0000
76.18700, 993.0000
77.42300, 1123.000
78.65900, 1188.000
79.89500, 1272.000
81.13100, 1412.000
82.36700, 1514.000
83.60200, 1681.000
84.83700, 1937.000
86.07200, 2094.000
87.30800, 2348.000
88.54200, 2477.000
89.77700, 2770.000
91.01200, 3089.000
92.24600, 3533.000
93.48000, 4175.000
94.71400, 4672.000
95.94800, 5417.000
97.18200, 6448.000
98.41600, 7758.000
99.64900, 9467.000
100.8830, 11289.00
102.1160, 13514.00
103.3490, 15279.00
104.5820, 17977.00
105.8150, 21938.00
107.0470, 26421.00
108.2800, 31418.00
109.5120, 34768.00
110.7440, 33228.00
111.9760, 27319.00
113.2080, 20758.00
114.4400, 15982.00
115.6710, 12606.00
116.9030, 10515.00
118.1340, 9045.000
119.3650, 7958.000
120.5960, 7217.000
121.8270, 6724.000
123.0580, 6464.000
124.2880, 6166.000
125.5190, 5873.000
126.7490, 5596.000
127.9790, 5344.000
129.2090, 5468.000
130.4390, 5692.000
131.6680, 5924.000
132.8980, 6340.000
134.1270, 7068.000
135.3560, 7994.000
136.5850, 9187.000
137.8140, 10584.00
139.0430, 12211.00
140.2710, 13469.00
141.5000, 13931.00
142.7280, 13793.00
143.9560, 12658.00
145.1840, 11438.00
146.4120, 10552.00
147.6390, 9781.000
148.8670, 9672.000
150.0940, 9489.000
151.3210, 9583.000
152.5490, 9556.000
153.7750, 9266.000
155.0020, 9054.000
156.2290, 9090.000
157.4550, 9230.000
158.6810, 9126.000
159.9080, 9253.000
161.1340, 9191.000
162.3590, 9433.000
163.5850, 10003.00
164.8110, 10731.00
166.0360, 11814.00
167.2610, 13093.00
168.4860, 14495.00
169.7110, 16032.00
170.9360, 16685.00
172.1610, 16524.00
173.3850, 15375.00
174.6100, 13723.00
175.8340, 12119.00
177.0580, 10388.00
178.2820, 8902.000
179.5050, 7482.000
180.7290, 6432.000
181.9520, 5782.000
183.1760, 5196.000
184.3990, 4669.000
185.6220, 4448.000
186.8450, 4386.000
188.0670, 4277.000
189.2900, 4377.000
190.5120, 4396.000
191.7340, 4757.000
192.9560, 5095.000
194.1780, 5397.000
195.4000, 5823.000
196.6220, 6083.000
197.8430, 6601.000
199.0640, 7120.000
200.2860, 7970.000
201.5070, 8991.000
202.7270, 10065.00
203.9480, 11304.00
205.1690, 12126.00
206.3890, 12770.00
207.6090, 13028.00
208.8290, 12986.00
210.0490, 12710.00
211.2690, 12365.00
212.4890, 11817.00
213.7080, 10978.00
214.9280, 10402.00
216.1470, 9180.000
217.3660, 8451.000
218.5850, 7723.000
219.8030, 6918.000
221.0220, 6411.000
222.2400, 5833.000
223.4590, 5413.000
224.6770, 4959.000
225.8950, 4741.000
227.1120, 4420.000
228.3300, 4320.000
229.5480, 4142.000
230.7650, 4069.000
231.9820, 3957.000
233.1990, 3936.000
234.4160, 4027.000
235.6330, 4087.000
236.8490, 4196.000
238.0660, 4390.000
239.2820, 4655.000
240.4980, 4970.000
241.7140, 5366.000
242.9300, 5746.000
244.1460, 6191.000
245.3610, 6691.000
246.5770, 7096.000
247.7920, 7418.000
249.0070, 7971.000
250.2220, 8536.000
251.4370, 9319.000
252.6510, 10152.00
253.8660, 11207.00
255.0800, 12031.00
256.2940, 12691.00
257.5080, 12944.00
258.7220, 13291.00
259.9360, 13819.00
261.1490, 14507.00
262.3630, 14939.00
263.5760, 16187.00
264.7890, 17942.00
266.0020, 20015.00
267.2150, 22163.00
268.4270, 24791.00
269.6400, 27108.00
270.8520, 29245.00
272.0640, 30836.00
273.2760, 31762.00
274.4880, 31725.00
275.7000, 30969.00
276.9120, 29350.00
278.1230, 26864.00
279.3340, 24556.00
280.5450, 21600.00
281.7560, 19444.00
282.9670, 17345.00
284.1780, 16110.00
285.3880, 15368.00
286.5980, 14939.00
287.8090, 14743.00
289.0190, 14896.00
290.2290, 14842.00
291.4380, 15430.00
292.6480, 15923.00
293.8570, 16726.00
295.0670, 17587.00
296.2760, 18550.00
297.4850, 19303.00
298.6930, 19988.00
299.9020, 20436.00
301.1110, 20891.00
302.3190, 21160.00
303.5270, 21122.00
304.7350, 21332.00
305.9430, 21333.00
307.1510, 20961.00
308.3580, 19888.00
309.5660, 18312.00
310.7730, 16052.00
311.9800, 14117.00
313.1870, 12377.00
314.3940, 11036.00
315.6010, 10227.00
316.8070, 9640.000
318.0130, 9232.000
319.2200, 8861.000
320.4260, 8617.000
321.6310, 8439.000
322.8370, 8347.000
324.0430, 8422.000
325.2480, 8719.000
326.4540, 9003.000
327.6590, 9639.000
328.8640, 10163.00
330.0680, 10630.00
331.2730, 10648.00
332.4780, 10197.00
333.6820, 9643.000
334.8860, 9182.000
336.0900, 8818.000
337.2940, 8927.000
338.4980, 9432.000
339.7010, 10299.00
340.9050, 11580.00
342.1080, 13272.00
343.3110, 15042.00
344.5140, 16728.00
345.7170, 18281.00
346.9200, 19176.00
348.1220, 19924.00
349.3240, 20744.00
350.5270, 21586.00
351.7290, 22057.00
352.9310, 22316.00
354.1320, 21042.00
355.3340, 18390.00
356.5350, 15598.00
357.7370, 12820.00
358.9380, 10724.00
360.1390, 9023.000
361.3400, 7718.000
362.5400, 6948.000
363.7410, 6277.000
364.9410, 5781.000
366.1410, 5417.000
367.3410, 5127.000
368.5410, 4942.000
369.7410, 4837.000
370.9400, 4771.000
372.1400, 4712.000
373.3390, 4735.000
374.5380, 4729.000
375.7370, 4827.000
376.9360, 4871.000
378.1350, 5139.000
379.3330, 5311.000
380.5310, 5716.000
381.7300, 6100.000
382.9280, 6738.000
384.1260, 7618.000
385.3230, 8352.000
386.5210, 9347.000
387.7180, 10505.00
388.9160, 11856.00
390.1130, 12584.00
391.3100, 12648.00
392.5060, 12157.00
393.7030, 10850.00
394.9000, 9542.000
396.0960, 8307.000
397.2920, 7426.000
398.4880, 7063.000
399.6840, 6752.000
400.8800, 6694.000
402.0750, 6760.000
403.2710, 6871.000
404.4660, 7008.000
405.6610, 7417.000
406.8560, 7890.000
408.0510, 8753.000
409.2450, 9866.000
410.4400, 11347.00
411.6340, 13177.00
412.8280, 15206.00
414.0220, 18611.00
415.2160, 23770.00
416.4100, 27357.00
417.6030, 30693.00
418.7970, 31619.00
419.9900, 28467.00
421.1830, 24695.00
422.3760, 22019.00
423.5690, 20563.00
424.7610, 19960.00
425.9540, 20092.00
427.1460, 20031.00
428.3380, 19840.00
429.5300, 19224.00
430.7220, 18242.00
431.9140, 16851.00
433.1050, 15029.00
434.2970, 13379.00
435.4880, 11773.00
436.6790, 10807.00
437.8700, 10513.00
439.0610, 10689.00
440.2510, 11451.00
441.4420, 12638.00
442.6320, 14255.00
443.8220, 16181.00
445.0120, 17268.00
446.2020, 16929.00
447.3910, 15157.00
448.5810, 12532.00
449.7700, 10179.00
450.9600, 8200.000
452.1490, 7040.000
453.3370, 6207.000
454.5260, 5642.000
455.7150, 5303.000
456.9030, 5072.000
458.0910, 4815.000
459.2800, 4651.000
460.4670, 4444.000
461.6550, 4393.000
462.8430, 4185.000
464.0300, 4202.000
465.2180, 4189.000
466.4050, 4189.000
467.5920, 4232.000
468.7790, 4383.000
469.9650, 4599.000
471.1520, 4945.000
472.3380, 5211.000
473.5250, 5664.000
474.7110, 6227.000
475.8970, 6935.000
477.0820, 8075.000
478.2680, 9048.278
479.4540, 10457.00
480.6390, 11787.00
481.8240, 13592.00
483.0090, 15672.00
484.1940, 17415.00
485.3780, 18375.00
486.5630, 17844.00
487.7470, 15534.00
488.9320, 12421.00
490.1160, 9670.000
491.3000, 7654.000
492.4830, 6511.000
493.6670, 5628.000
494.8500, 5161.000
496.0340, 4846.000
497.2170, 4588.000
498.4000, 4420.000
499.5820, 4385.000
500.7650, 4474.000
501.9480, 4555.000
503.1300, 4663.000
504.3120, 4832.000
505.4940, 5054.000
506.6760, 5287.000
507.8580, 5542.000
509.0390, 5743.000
510.2210, 6147.000
511.4020, 6298.000
512.5830, 6409.000
513.7640, 6366.000
514.9450, 6174.000
516.1250, 5790.000
517.3060, 5466.000
518.4860, 5127.000
519.6660, 4825.000
520.8460, 4687.000
522.0260, 4489.000
523.2060, 4304.000
524.3850, 4261.000
525.5650, 4294.000
526.7440, 4364.000
527.9230, 4374.000
529.1020, 4424.000
530.2810, 4583.000
531.4590, 4769.000
532.6380, 4868.000
533.8160, 5090.000
534.9940, 5180.000
536.1720, 5244.000
537.3500, 5146.000
538.5270, 4986.000
539.7050, 4848.000
540.8820, 4635.000
542.0590, 4611.000
543.2360, 4429.000
544.4130, 4323.000
545.5900, 4445.000
546.7660, 4349.000
547.9430, 4138.000
549.1190, 4104.000
550.2950, 3987.000
551.4710, 4026.000
552.6470, 3900.000
553.8220, 3954.000
554.9980, 4087.000
556.1730, 4233.000
557.3480, 4537.000
558.5230, 4782.000
559.6980, 4942.000
560.8730, 5341.000
562.0470, 5525.000
563.2220, 5605.000
564.3960, 6269.000
565.5700, 5904.000
566.7440, 5853.000
567.9170, 6129.000
569.0910, 6562.000
570.2640, 6947.000
571.4380, 7617.000
572.6110, 8136.000
573.7840, 8456.000
574.9570, 8500.000
576.1290, 8447.000
577.3020, 8204.000
578.4740, 8067.000
579.6460, 8074.000
580.8180, 8234.000
581.9900, 8512.000
583.1620, 9216.000
584.3330, 9961.000
585.5040, 10997.00
586.6760, 12152.00
587.8470, 13180.00
589.0180, 14163.00
590.1880, 14376.00
591.3590, 13958.00
592.5290, 12877.00
593.7000, 11417.00
594.8700, 9963.000
596.0400, 8492.000
597.2090, 7496.000
598.3790, 6656.000
599.5490, 5968.000
600.7180, 5608.000
601.8870, 5171.000
603.0560, 5014.000
604.2250, 4743.000
605.3940, 4650.000
606.5620, 4635.000
607.7300, 4701.000
608.8990, 4753.000
610.0670, 4852.000
611.2350, 5063.000
612.4020, 5091.000
613.5700, 5307.000
614.7370, 5342.000
615.9050, 5411.000
617.0720, 5387.000
618.2390, 5411.000
619.4060, 5198.000
620.5720, 5121.000
621.7390, 4856.000
622.9050, 4679.000
624.0710, 4446.000
625.2370, 4158.000
626.4030, 4003.000
627.5690, 3796.000
628.7340, 3717.835
629.9000, 3768.000
631.0650, 3693.000
632.2300, 3815.000
633.3950, 3949.000
634.5600, 4086.000
635.7240, 4196.000
636.8890, 4448.000
638.0530, 4740.000
639.2170, 5046.000
640.3810, 5482.000
641.5450, 5715.000
642.7080, 6067.000
643.8720, 6179.000
645.0350, 6218.000
646.1980, 6177.000
647.3610, 5978.000
648.5240, 5623.000
649.6870, 5291.000
650.8490, 4907.000
652.0120, 4661.000
653.1740, 4514.000
654.3360, 4236.000
655.4980, 4096.000
656.6600, 4100.000
657.8210, 4023.000
658.9830, 3979.000
660.1440, 4070.000
661.3050, 4084.000
662.4660, 4290.000
663.6270, 4435.000
664.7870, 4731.000
665.9480, 5054.000
667.1080, 5439.000
668.2680, 5948.000
669.4280, 6635.000
670.5880, 7506.000
671.7480, 8343.000
672.9070, 9332.000
674.0670, 10447.00
675.2260, 11402.00
676.3850, 12150.00
677.5440, 12178.00
678.7030, 11800.00
679.8610, 10737.00
681.0200, 9880.000
682.1780, 8625.000
683.3360, 7759.000
684.4940, 6898.000
685.6520, 6407.000
686.8090, 5955.000
687.9670, 5804.000
689.1240, 5684.000
690.2810, 5693.000
691.4380, 5836.000
692.5950, 5996.000
693.7520, 6259.000
694.9080, 6623.000
696.0650, 6815.000
697.2210, 7583.000
698.3770, 8318.000
699.5330, 9274.000
700.6880, 10531.00
701.8440, 12041.00
702.9990, 14033.00
704.1550, 16474.00
705.3100, 19500.00
706.4650, 23364.00
707.6190, 28071.00
708.7740, 32911.00
709.9290, 38666.00
711.0830, 44485.00
712.2370, 49194.00
713.3910, 52667.00
714.5450, 52897.00
715.6980, 50972.00
716.8520, 45888.00
718.0050, 40119.00
719.1580, 33653.00
720.3110, 28119.00
721.4640, 23583.00
722.6170, 19664.00
723.7700, 16517.00
724.9220, 14338.00
726.0740, 12626.00
727.2260, 11053.00
728.3780, 9810.000
729.5300, 8805.000
730.6810, 8220.000
731.8330, 7466.000
732.9840, 6972.000
734.1350, 6548.000
735.2860, 6079.000
736.4370, 5834.000
737.5880, 5656.000
738.7380, 5352.000
739.8880, 5122.000
741.0390, 5034.000
742.1890, 4694.000
743.3380, 4677.000
744.4880, 4637.000
745.6380, 4467.000
746.7870, 4430.000
747.9360, 4335.000
749.0850, 4387.000
750.2340, 4282.000
751.3830, 4279.000
752.5310, 4325.000
753.6800, 4469.000
754.8280, 4343.000
755.9760, 4560.000
757.1240, 4614.000
758.2720, 4842.000
759.4190, 5027.000
760.5670, 5194.000
761.7140, 5588.000
762.8610, 5853.000
764.0080, 6078.000
765.1550, 6304.000
766.3020, 6545.000
767.4480, 6652.000
768.5950, 6766.000
769.7410, 6642.000
770.8870, 6392.000
772.0330, 6161.000
773.1780, 5888.000
774.3240, 5508.000
775.4690, 5242.000
776.6140, 4911.000
777.7590, 4741.000
778.9040, 4576.000
780.0490, 4422.000
781.1940, 4255.000
782.3380, 4140.000
783.4820, 4059.000
784.6260, 4022.000
785.7700, 3854.000
786.9140, 3852.000
788.0580, 3814.000
789.2010, 3744.000
790.3450, 3639.000
791.4880, 3592.000
792.6310, 3600.000
793.7730, 3670.000
794.9160, 3618.000
796.0590, 3698.000
797.2010, 3587.000
798.3430, 3641.000
799.4850, 3770.000
800.6270, 3724.000
801.7690, 3747.000
802.9100, 3877.000
804.0520, 3938.000
805.1930, 4133.000
806.3340, 4249.000
807.4750, 4398.000
808.6160, 4637.000
809.7560, 4997.000
810.8970, 5165.000
812.0370, 5370.000
813.1770, 5343.000
814.3170, 5441.000
815.4570, 5205.000
816.5960, 4870.000
817.7360, 4690.000
818.8750, 4339.000
820.0140, 4106.000
821.1530, 3817.000
822.2920, 3765.000
823.4310, 3646.000
824.5690, 3578.000
825.7070, 3500.000
826.8460, 3550.000
827.9840, 3509.000
829.1220, 3517.000
830.2590, 3568.000
831.3970, 3500.000
832.5340, 3483.000
833.6710, 3552.000
834.8080, 3614.000
835.9450, 3709.000
837.0820, 3783.000
838.2190, 3863.183
839.3550, 3870.000
840.4910, 4021.000
841.6270, 4166.000
842.7630, 4239.000
843.8990, 4461.000
845.0350, 4525.000
846.1700, 4786.000
847.3060, 5043.000
848.4410, 5236.000
849.5760, 5414.000
850.7100, 5615.000
851.8450, 5615.000
852.9800, 5750.000
854.1140, 5686.000
855.2480, 5699.000
856.3820, 5539.000
857.5160, 5453.000
858.6500, 5388.000
859.7830, 5205.000
860.9170, 5221.000
862.0500, 5147.000
863.1830, 5136.000
864.3160, 5097.000
865.4480, 5041.000
866.5810, 5115.000
867.7130, 5145.000
868.8460, 5126.000
869.9780, 5180.000
871.1100, 5238.000
872.2410, 5341.068
873.3730, 5461.000
874.5050, 5642.000
875.6360, 5821.000
876.7670, 6041.000
877.8980, 6101.000
879.0290, 6395.000
880.1590, 6509.000
881.2900, 6883.000
882.4200, 7148.000
883.5500, 7380.000
884.6800, 7805.000
885.8100, 8172.000
886.9400, 8603.000
888.0690, 9299.000
889.1990, 10046.00
890.3280, 10919.00
891.4570, 11989.00
892.5860, 12826.00
893.7140, 14150.00
894.8430, 15636.00
895.9710, 16608.00
897.1000, 17596.00
898.2280, 18405.00
899.3560, 18565.00
900.4830, 18561.00
901.6110, 18126.00
902.7380, 17436.00
903.8660, 16787.00
904.9930, 16052.00
906.1200, 15654.00
907.2460, 15315.00
908.3730, 14880.00
909.5000, 14850.00
910.6260, 14562.00
911.7520, 13976.00
912.8780, 13237.00
914.0040, 12459.00
915.1290, 11665.00
916.2550, 10655.00
917.3800, 10022.00
918.5050, 9473.000
919.6300, 8865.000
920.7550, 8378.000
921.8800, 8213.000
923.0040, 8086.000
924.1290, 8166.000
925.2530, 8228.000
926.3770, 8467.000
927.5010, 8675.000
928.6250, 9036.000
929.7480, 9283.000
930.8720, 9530.000
931.9950, 9584.000
933.1180, 9583.000
934.2410, 9236.000
935.3640, 8772.000
936.4860, 8362.000
937.6090, 8025.000
938.7310, 7790.000
939.8530, 7539.000
940.9750, 7503.000
942.0970, 7531.000
943.2180, 7774.000
944.3400, 7918.000
945.4610, 8157.000
946.5820, 8718.000
947.7030, 9227.000
948.8240, 9579.000
949.9450, 10349.00
951.0650, 10930.00
952.1860, 11559.00
953.3060, 12220.00
954.4260, 12790.00
955.5460, 13556.00
956.6650, 13889.00
957.7850, 14517.00
958.9040, 15287.00
960.0230, 16231.00
961.1420, 17404.00
962.2610, 18726.00
963.3800, 19787.00
964.4990, 20388.00
965.6170, 21002.00
966.7350, 20860.00
967.8530, 20244.00
968.9710, 19868.00
970.0890, 19670.00
971.2070, 19475.00
972.3240, 20116.00
973.4410, 21153.00
974.5580, 22626.00
975.6750, 24873.00
976.7920, 27149.00
977.9090, 29533.00
979.0250, 31579.00
980.1410, 32967.00
981.2580, 33375.00
982.3740, 32730.00
983.4890, 31305.00
984.6050, 29716.00
985.7200, 27991.00
986.8360, 26637.00
987.9510, 26009.00
989.0660, 25568.00
990.1810, 25440.00
991.2950, 25973.00
992.4100, 26504.00
993.5240, 26670.00
994.6390, 26832.00
995.7530, 27004.00
996.8660, 26788.00
997.9800, 27048.00
999.0940, 27148.00
1000.207, 27205.00
1001.320, 27529.00
1002.433, 27708.00
1003.546, 27462.00
1004.659, 26847.00
1005.772, 26007.00
1006.884, 24673.00
1007.996, 23104.00
1009.108, 20850.00
1010.220, 18709.00
1011.332, 16604.00
1012.444, 14906.00
1013.555, 13349.00
1014.666, 12008.00
1015.777, 10832.00
1016.888, 9896.000
1017.999, 8999.000
1019.110, 8568.000
1020.220, 7879.000
1021.331, 7544.000
1022.441, 7196.000
1023.551, 6785.000
1024.661, 6774.000
1025.770, 6615.000
1026.880, 6525.000
1027.989, 6328.000
1029.098, 6228.000
1030.207, 6173.000
1031.316, 5875.000
1032.425, 5720.000
1033.533, 5630.000
1034.642, 5524.000
1035.750, 5364.000
1036.858, 5335.000
1037.966, 5326.000
1039.073, 5179.000
1040.181, 5317.000
1041.288, 5268.000
1042.396, 5263.000
1043.503, 5300.000
1044.610, 5344.000
1045.716, 5325.000
1046.823, 5297.000
1047.929, 5352.000
1049.036, 5400.000
1050.142, 5521.000
1051.248, 5790.000
1052.353, 5672.000
1053.459, 5900.000
1054.564, 6090.000
1055.670, 6022.000
1056.775, 6214.000
1057.880, 6149.000
1058.985, 6156.063
1060.089, 6133.607
1061.194, 6012.000
1062.298, 5921.000
1063.402, 5641.000
1064.506, 5388.000
1065.610, 5205.000
1066.713, 4994.000
1067.817, 4798.000
1068.920, 4569.000
1070.023, 4449.000
1071.126, 4424.000
1072.229, 4348.000
1073.332, 4366.000
1074.435, 4334.000
1075.537, 4321.000
1076.639, 4450.000
1077.741, 4577.000
1078.843, 4663.000
1079.945, 4838.000
1081.046, 5089.000
1082.148, 5254.000
1083.249, 5392.000
1084.350, 5495.000
1085.451, 5492.000
1086.551, 5275.000
1087.652, 5138.000
1088.752, 4810.000
1089.853, 4679.000
1090.953, 4534.000
1092.053, 4478.000
1093.152, 4378.706
1094.252, 4345.000
1095.351, 4263.000
1096.451, 4307.000
1097.550, 4290.000
1098.649, 4418.000
1099.748, 4556.000
1100.846, 4584.000
1101.945, 4767.000
1103.043, 4923.000
1104.141, 5013.000
1105.239, 5217.000
1106.337, 5260.000
1107.434, 5269.000
1108.532, 5197.000
1109.629, 5211.000
1110.726, 5016.000
1111.823, 4728.000
1112.920, 4630.000
1114.017, 4544.000
1115.113, 4361.000
1116.210, 4241.000
1117.306, 4131.099
1118.402, 4091.000
1119.498, 3929.000
1120.593, 3821.000
1121.689, 3757.000
1122.784, 3774.000
1123.879, 3652.000
1124.974, 3670.000
1126.069, 3547.000
1127.164, 3442.000
1128.259, 3513.000
1129.353, 3355.000
1130.447, 3287.000
1131.541, 3236.000
1132.635, 3178.000
1133.729, 3194.000
1134.822, 3204.000
1135.916, 3061.000
1137.009, 3099.000
1138.102, 3099.000
1139.195, 3037.000
1140.288, 3106.000
1141.380, 3051.000
1142.473, 3040.000
1143.565, 3045.000
1144.657, 2994.000
1145.749, 2922.000
1146.841, 2941.000
1147.932, 2967.000
1149.024, 2933.000
1150.115, 2987.000
1151.206, 2907.000
1152.297, 2956.000
1153.388, 2960.000
1154.479, 2909.000
1155.569, 2897.000
1156.659, 2841.000
1157.750, 2845.841
1158.839, 2819.263
1159.929, 2849.000
1161.019, 2799.000
1162.108, 2787.000
1163.198, 2798.000
1164.287, 2806.000
1165.376, 2808.000
1166.465, 2838.000
1167.553, 2754.000
1168.642, 2733.000
1169.730, 2771.000
1170.818, 2716.000
1171.906, 2770.000
1172.994, 2755.000
1174.082, 2773.000
1175.170, 2735.000
1176.257, 2675.000
1177.344, 2729.000
1178.431, 2703.000
1179.518, 2744.000
1180.605, 2729.000
1181.691, 2662.000
1182.778, 2666.000
1183.864, 2684.000
1184.950, 2677.000
1186.036, 2645.000
1187.122, 2657.000
1188.207, 2672.000
1189.292, 2651.000
1190.378, 2707.000
1191.463, 2641.000
1192.548, 2692.000
1193.632, 2711.000
1194.717, 2689.000
1195.801, 2664.000
1196.886, 2680.000
1197.970, 2636.000
1199.054, 2627.000
1200.137, 2672.000
1201.221, 2654.000
1202.305, 2674.000
1203.388, 2651.000
1204.471, 2639.000
1205.554, 2615.000
1206.637, 2631.000
1207.719, 2595.917
1208.802, 2596.810
1209.884, 2563.000
1210.966, 2596.000
1212.048, 2624.000
1213.130, 2653.000
1214.212, 2572.000
1215.293, 2555.000
1216.374, 2633.000
1217.456, 2552.000
1218.536, 2553.000
1219.617, 2560.000
1220.698, 2565.000
1221.778, 2520.000
1222.859, 2518.000
1223.939, 2532.000
1225.019, 2520.000
1226.099, 2579.000
1227.178, 2544.000
1228.258, 2521.000
1229.337, 2571.000
1230.417, 2488.000
1231.496, 2611.000
1232.574, 2516.000
1233.653, 2555.000
1234.732, 2527.000
1235.810, 2618.000
1236.888, 2600.000
