##NAMES=Axinite-(Fe)
##RRUFFID=R060183
##IDEAL CHEMISTRY=Ca_4_Fe^2+^_2_Al_4_[B_2_Si_8_O_30_](OH)_2_
##LOCALITY=Skagit Bluffs, near Manning Park, British Columbia, Canada
##OWNER=RRUFF
##SOURCE=Lloyd Twaites
##DESCRIPTION=Light-pink transparent axe-head-shaped single crystal
##STATUS=The identification of this mineral has been confirmed by X-ray diffraction and chemical analysis
##URL=rruff.info/R060183
##MEASURED CHEMISTRY=Ca_2.00_(Fe^2+^_0.58_Mn_0.23_Mg_0.19_)Al_2.00_B_1.00_Si_4.00_O_15_(OH)
##PIN_ID=L01391
##ORIENTATION=Laser parallel to -a* (-1 0 0). Fiducial mark perpendicular to laser is parallel to -b [0 -1 0]
52.67100, 538.0000
53.91000, 551.0000
55.14900, 701.0000
56.38700, 1909.000
57.62600, 555.0000
58.86400, 561.0000
60.10300, 599.0000
61.34100, 588.0000
62.57900, 604.0000
63.81700, 619.0000
65.05400, 678.0000
66.29200, 723.0000
67.52900, 792.0000
68.76700, 952.0000
70.00400, 1008.968
71.24100, 1254.000
72.47700, 1249.000
73.71400, 1369.000
74.95100, 1589.000
76.18700, 1764.000
77.42300, 1923.000
78.65900, 2001.000
79.89500, 2158.000
81.13100, 2508.000
82.36700, 2875.000
83.60200, 3323.000
84.83700, 3471.000
86.07200, 3590.000
87.30800, 3863.000
88.54200, 4256.000
89.77700, 4788.000
91.01200, 5398.000
92.24600, 5847.000
93.48000, 6191.000
94.71400, 6499.000
95.94800, 6939.000
97.18200, 7289.839
98.41600, 7847.000
99.64900, 8115.200
100.8830, 8550.000
102.1160, 9050.000
103.3490, 9388.000
104.5820, 10268.00
105.8150, 11609.00
107.0470, 13317.00
108.2800, 15031.00
109.5120, 14888.00
110.7440, 12574.00
111.9760, 11267.00
113.2080, 10851.00
114.4400, 10392.00
115.6710, 10385.00
116.9030, 9861.000
118.1340, 9336.000
119.3650, 9171.000
120.5960, 8862.000
121.8270, 8812.000
123.0580, 8615.525
124.2880, 8493.624
125.5190, 8434.000
126.7490, 8287.000
127.9790, 8382.000
129.2090, 8276.000
130.4390, 8440.000
131.6680, 8421.000
132.8980, 8692.000
134.1270, 8833.000
135.3560, 9276.000
136.5850, 9681.000
137.8140, 10023.00
139.0430, 10131.00
140.2710, 9886.000
141.5000, 9375.000
142.7280, 8933.000
143.9560, 8647.000
145.1840, 8295.000
146.4120, 8238.000
147.6390, 8189.000
148.8670, 8096.000
150.0940, 8098.000
151.3210, 8324.000
152.5490, 8470.000
153.7750, 8566.000
155.0020, 8717.000
156.2290, 8494.000
157.4550, 8122.000
158.6810, 7777.000
159.9080, 7594.000
161.1340, 7556.786
162.3590, 7727.000
163.5850, 7812.000
164.8110, 8163.000
166.0360, 8558.000
167.2610, 8870.000
168.4860, 9267.000
169.7110, 9460.000
170.9360, 9414.526
172.1610, 9377.000
173.3850, 9001.000
174.6100, 8624.000
175.8340, 8149.000
177.0580, 7790.000
178.2820, 7333.000
179.5050, 6931.000
180.7290, 6571.000
181.9520, 6447.000
183.1760, 6392.000
184.3990, 6234.000
185.6220, 6346.000
186.8450, 6378.000
188.0670, 6641.000
189.2900, 6814.000
190.5120, 7178.000
191.7340, 7446.000
192.9560, 7621.000
194.1780, 7463.000
195.4000, 7412.000
196.6220, 7577.000
197.8430, 7585.000
199.0640, 7906.000
200.2860, 8323.000
201.5070, 8794.000
202.7270, 9302.000
203.9480, 9692.872
205.1690, 10071.00
206.3890, 10493.00
207.6090, 10904.00
208.8290, 11251.00
210.0490, 11644.00
211.2690, 11765.00
212.4890, 11889.14
213.7080, 11794.00
214.9280, 11742.00
216.1470, 11536.00
217.3660, 11109.00
218.5850, 10553.00
219.8030, 9937.000
221.0220, 9174.000
222.2400, 8555.000
223.4590, 7974.000
224.6770, 7504.000
225.8950, 7203.000
227.1120, 6893.000
228.3300, 6719.000
229.5480, 6582.000
230.7650, 6544.000
231.9820, 6581.000
233.1990, 6664.000
234.4160, 6728.000
235.6330, 6843.000
236.8490, 7042.000
238.0660, 7045.000
239.2820, 7086.000
240.4980, 7346.000
241.7140, 7366.000
242.9300, 7429.000
244.1460, 7743.000
245.3610, 7910.000
246.5770, 8297.000
247.7920, 8758.000
249.0070, 9155.000
250.2220, 9817.000
251.4370, 10574.00
252.6510, 11245.00
253.8660, 11847.00
255.0800, 11968.00
256.2940, 12031.00
257.5080, 12275.00
258.7220, 12562.51
259.9360, 12800.09
261.1490, 13243.00
262.3630, 13544.00
263.5760, 13779.00
264.7890, 14396.00
266.0020, 14993.00
267.2150, 15372.00
268.4270, 15622.00
269.6400, 15815.00
270.8520, 15944.00
272.0640, 15993.00
273.2760, 15896.00
274.4880, 15730.00
275.7000, 15211.00
276.9120, 14437.00
278.1230, 13813.00
279.3340, 12992.00
280.5450, 12705.00
281.7560, 12111.00
282.9670, 11629.00
284.1780, 11700.00
285.3880, 11425.00
286.5980, 11399.00
287.8090, 11464.00
289.0190, 11433.00
290.2290, 11589.00
291.4380, 11710.00
292.6480, 11750.00
293.8570, 11544.00
295.0670, 11437.00
296.2760, 11310.00
297.4850, 11291.00
298.6930, 11060.00
299.9020, 10953.00
301.1110, 10668.00
302.3190, 10677.00
303.5270, 10673.00
304.7350, 10751.00
305.9430, 10618.00
307.1510, 10473.00
308.3580, 10308.00
309.5660, 10432.00
310.7730, 10552.00
311.9800, 10687.00
313.1870, 11185.00
314.3940, 11744.00
315.6010, 12373.00
316.8070, 12931.00
318.0130, 13210.00
319.2200, 12948.00
320.4260, 12889.00
321.6310, 12169.00
322.8370, 11863.00
324.0430, 11459.00
325.2480, 11220.00
326.4540, 11006.00
327.6590, 10917.07
328.8640, 10922.16
330.0680, 11003.00
331.2730, 11219.00
332.4780, 11489.00
333.6820, 11914.00
334.8860, 12333.00
336.0900, 12943.00
337.2940, 13892.00
338.4980, 14460.00
339.7010, 15258.00
340.9050, 15552.00
342.1080, 15661.00
343.3110, 15172.00
344.5140, 14375.00
345.7170, 13815.00
346.9200, 13472.00
348.1220, 12898.00
349.3240, 12427.00
350.5270, 11814.00
351.7290, 11215.00
352.9310, 10513.00
354.1320, 9756.000
355.3340, 9238.000
356.5350, 8573.000
357.7370, 8058.000
358.9380, 7767.000
360.1390, 7489.000
361.3400, 7306.000
362.5400, 7102.000
363.7410, 7003.477
364.9410, 6953.000
366.1410, 6922.000
367.3410, 6934.000
368.5410, 6999.000
369.7410, 7001.000
370.9400, 7074.901
372.1400, 7127.000
373.3390, 7238.000
374.5380, 7359.000
375.7370, 7497.000
376.9360, 7769.000
378.1350, 7936.000
379.3330, 8455.000
380.5310, 8823.000
381.7300, 9444.000
382.9280, 10004.00
384.1260, 10639.00
385.3230, 11189.00
386.5210, 11671.00
387.7180, 11676.00
388.9160, 11737.00
390.1130, 11568.00
391.3100, 11257.00
392.5060, 10875.00
393.7030, 10403.00
394.9000, 10061.00
396.0960, 9748.000
397.2920, 9545.000
398.4880, 9332.000
399.6840, 9242.000
400.8800, 9113.000
402.0750, 8767.000
403.2710, 8917.000
404.4660, 8857.000
405.6610, 9157.000
406.8560, 9386.000
408.0510, 9773.000
409.2450, 10193.00
410.4400, 10754.00
411.6340, 11492.00
412.8280, 12430.00
414.0220, 13387.00
415.2160, 14214.00
416.4100, 14923.00
417.6030, 15852.00
418.7970, 16707.00
419.9900, 17513.00
421.1830, 17986.00
422.3760, 18023.00
423.5690, 17554.00
424.7610, 16884.00
425.9540, 16034.00
427.1460, 14935.00
428.3380, 14179.00
429.5300, 13282.00
430.7220, 12514.00
431.9140, 11983.00
433.1050, 11505.00
434.2970, 11377.00
435.4880, 11527.00
436.6790, 11787.00
437.8700, 12394.00
439.0610, 13297.00
440.2510, 14464.00
441.4420, 15369.00
442.6320, 15968.00
443.8220, 15523.00
445.0120, 14535.00
446.2020, 13378.00
447.3910, 12404.00
448.5810, 11212.00
449.7700, 10440.00
450.9600, 9709.000
452.1490, 9064.000
453.3370, 8796.000
454.5260, 8417.000
455.7150, 8181.000
456.9030, 7990.000
458.0910, 7711.000
459.2800, 7704.000
460.4670, 7523.000
461.6550, 7493.000
462.8430, 7444.000
464.0300, 7446.516
465.2180, 7511.899
466.4050, 7591.000
467.5920, 7703.000
468.7790, 7876.000
469.9650, 7991.000
471.1520, 8187.000
472.3380, 8449.000
473.5250, 8725.000
474.7110, 9046.000
475.8970, 9650.000
477.0820, 10453.00
478.2680, 11072.00
479.4540, 11869.00
480.6390, 12364.00
481.8240, 12736.00
483.0090, 12795.00
484.1940, 12459.00
485.3780, 11752.00
486.5630, 10935.00
487.7470, 10099.00
488.9320, 9520.000
490.1160, 8776.000
491.3000, 8362.000
492.4830, 7853.000
493.6670, 7706.000
494.8500, 7406.000
496.0340, 7428.000
497.2170, 7396.000
498.4000, 7407.000
499.5820, 7339.000
500.7650, 7430.000
501.9480, 7503.000
503.1300, 7569.000
504.3120, 7716.418
505.4940, 7864.000
506.6760, 8049.000
507.8580, 8250.000
509.0390, 8498.000
510.2210, 8443.000
511.4020, 8565.000
512.5830, 8366.000
513.7640, 8287.000
514.9450, 8195.000
516.1250, 7856.000
517.3060, 7734.000
518.4860, 7504.000
519.6660, 7237.000
520.8460, 7235.000
522.0260, 7108.000
523.2060, 7038.000
524.3850, 6890.000
525.5650, 6964.000
526.7440, 6921.000
527.9230, 6851.000
529.1020, 7025.000
530.2810, 6990.000
531.4590, 6964.000
532.6380, 7113.000
533.8160, 7101.000
534.9940, 7177.000
536.1720, 7199.000
537.3500, 7064.000
538.5270, 7146.000
539.7050, 7054.000
540.8820, 7048.000
542.0590, 7028.000
543.2360, 7019.542
544.4130, 7134.000
545.5900, 7098.000
546.7660, 7063.000
547.9430, 7203.000
549.1190, 7214.000
550.2950, 7345.000
551.4710, 7374.000
552.6470, 7573.000
553.8220, 7755.000
554.9980, 7964.000
556.1730, 8218.000
557.3480, 8503.000
558.5230, 8565.000
559.6980, 8705.000
560.8730, 8715.000
562.0470, 8790.000
563.2220, 8901.000
564.3960, 8964.000
565.5700, 9049.548
566.7440, 9149.028
567.9170, 9209.000
569.0910, 9330.000
570.2640, 9427.000
571.4380, 9492.000
572.6110, 9454.343
573.7840, 9412.000
574.9570, 9281.000
576.1290, 9214.000
577.3020, 9076.000
578.4740, 8942.000
579.6460, 8960.000
580.8180, 9051.000
581.9900, 9139.000
583.1620, 9268.000
584.3330, 9325.000
585.5040, 9503.000
586.6760, 9608.000
587.8470, 9622.000
589.0180, 9509.000
590.1880, 9146.000
591.3590, 8841.000
592.5290, 8548.000
593.7000, 8308.000
594.8700, 8097.753
596.0400, 7951.000
597.2090, 7807.000
598.3790, 7673.000
599.5490, 7663.000
600.7180, 7644.711
601.8870, 7883.000
603.0560, 7808.000
604.2250, 8042.000
605.3940, 8294.000
606.5620, 8398.000
607.7300, 8677.000
608.8990, 8927.000
610.0670, 9116.000
611.2350, 9232.000
612.4020, 9378.000
613.5700, 9434.000
614.7370, 9459.000
615.9050, 9330.000
617.0720, 9384.000
618.2390, 9194.000
619.4060, 9146.000
620.5720, 8765.000
621.7390, 8624.000
622.9050, 8249.000
624.0710, 8050.000
625.2370, 8011.000
626.4030, 7741.000
627.5690, 7765.000
628.7340, 7700.000
629.9000, 7521.000
631.0650, 7771.000
632.2300, 7759.000
633.3950, 8001.000
634.5600, 8121.000
635.7240, 8161.000
636.8890, 8438.000
638.0530, 8764.000
639.2170, 8929.000
640.3810, 9281.000
641.5450, 9382.000
642.7080, 9550.000
643.8720, 9420.000
645.0350, 9284.000
646.1980, 9084.000
647.3610, 8804.000
648.5240, 8554.000
649.6870, 8251.000
650.8490, 8154.000
652.0120, 7925.000
653.1740, 7831.000
654.3360, 7743.000
655.4980, 7652.000
656.6600, 7576.000
657.8210, 7532.000
658.9830, 7516.000
660.1440, 7623.000
661.3050, 7644.000
662.4660, 7817.000
663.6270, 8059.000
664.7870, 8243.795
665.9480, 8485.000
667.1080, 8899.000
668.2680, 9322.000
669.4280, 9942.000
670.5880, 10739.00
671.7480, 11306.00
672.9070, 12146.00
674.0670, 12663.00
675.2260, 13081.00
676.3850, 13137.00
677.5440, 13185.00
678.7030, 12597.00
679.8610, 11972.00
681.0200, 11357.00
682.1780, 10881.00
683.3360, 10237.00
684.4940, 9775.000
685.6520, 9293.000
686.8090, 9121.000
687.9670, 8889.000
689.1240, 8815.000
690.2810, 8662.000
691.4380, 8810.000
692.5950, 8862.000
693.7520, 8907.000
694.9080, 9204.000
696.0650, 9459.000
697.2210, 9772.000
698.3770, 10332.00
699.5330, 10780.00
700.6880, 11657.00
701.8440, 12611.00
702.9990, 13805.00
704.1550, 15456.00
705.3100, 17290.00
706.4650, 19315.00
707.6190, 21868.00
708.7740, 24437.00
709.9290, 27064.00
711.0830, 29225.00
712.2370, 30965.00
713.3910, 31514.00
714.5450, 30857.00
715.6980, 29353.00
716.8520, 27104.00
718.0050, 24707.00
719.1580, 22108.00
720.3110, 19466.00
721.4640, 17260.00
722.6170, 15383.00
723.7700, 13905.00
724.9220, 12554.00
726.0740, 11719.00
727.2260, 10800.00
728.3780, 10351.00
729.5300, 9762.000
730.6810, 9337.000
731.8330, 8994.000
732.9840, 8778.000
734.1350, 8466.000
735.2860, 8347.000
736.4370, 8323.000
737.5880, 8044.000
738.7380, 7957.000
739.8880, 7975.000
741.0390, 7787.000
742.1890, 7672.000
743.3380, 7722.000
744.4880, 7666.000
745.6380, 7523.000
746.7870, 7485.000
747.9360, 7463.000
749.0850, 7425.487
750.2340, 7454.000
751.3830, 7450.000
752.5310, 7455.000
753.6800, 7505.000
754.8280, 7503.000
755.9760, 7531.000
757.1240, 7560.000
758.2720, 7592.000
759.4190, 7647.000
760.5670, 7707.000
761.7140, 7646.000
762.8610, 7912.000
764.0080, 7788.000
765.1550, 7892.000
766.3020, 7842.000
767.4480, 7757.000
768.5950, 7791.000
769.7410, 7862.000
770.8870, 7767.000
772.0330, 7763.000
773.1780, 7687.000
774.3240, 7483.000
775.4690, 7588.000
776.6140, 7429.000
777.7590, 7326.000
778.9040, 7342.000
780.0490, 7361.000
781.1940, 7318.000
782.3380, 7273.000
783.4820, 7316.000
784.6260, 7248.000
785.7700, 7242.000
786.9140, 7256.906
788.0580, 7286.000
789.2010, 7270.000
790.3450, 7234.000
791.4880, 7216.000
792.6310, 7292.000
793.7730, 7150.000
794.9160, 7243.000
796.0590, 7192.000
797.2010, 7200.000
798.3430, 7267.000
799.4850, 7333.000
800.6270, 7305.000
801.7690, 7294.000
802.9100, 7392.000
804.0520, 7344.000
805.1930, 7398.000
806.3340, 7428.000
807.4750, 7474.000
808.6160, 7526.000
809.7560, 7541.000
810.8970, 7741.000
812.0370, 7602.000
813.1770, 7723.000
814.3170, 7729.000
815.4570, 7551.000
816.5960, 7537.000
817.7360, 7520.000
818.8750, 7505.000
820.0140, 7489.488
821.1530, 7457.000
822.2920, 7471.000
823.4310, 7516.000
824.5690, 7539.000
825.7070, 7450.000
826.8460, 7530.000
827.9840, 7574.000
829.1220, 7553.000
830.2590, 7653.000
831.3970, 7626.000
832.5340, 7711.000
833.6710, 7637.000
834.8080, 7851.000
835.9450, 7820.000
837.0820, 7789.000
838.2190, 7919.000
839.3550, 8007.000
840.4910, 8012.000
841.6270, 8164.000
842.7630, 8281.000
843.8990, 8457.000
845.0350, 8564.087
846.1700, 8698.888
847.3060, 8785.000
848.4410, 8940.000
849.5760, 9030.000
850.7100, 9134.000
851.8450, 9208.000
852.9800, 9289.000
854.1140, 9327.664
855.2480, 9374.000
856.3820, 9371.000
857.5160, 9460.000
858.6500, 9465.000
859.7830, 9515.304
860.9170, 9580.000
862.0500, 9571.000
863.1830, 9611.000
864.3160, 9565.000
865.4480, 9677.000
866.5810, 9675.000
867.7130, 9934.000
868.8460, 9822.000
869.9780, 9975.000
871.1100, 10024.00
872.2410, 10011.00
873.3730, 10102.00
874.5050, 10103.00
875.6360, 10172.00
876.7670, 10254.00
877.8980, 10384.00
879.0290, 10379.00
880.1590, 10423.00
881.2900, 10570.00
882.4200, 10746.00
883.5500, 10936.00
884.6800, 11120.00
885.8100, 11390.00
886.9400, 11853.00
888.0690, 12068.00
889.1990, 12508.00
890.3280, 13063.00
891.4570, 13717.00
892.5860, 14476.00
893.7140, 15263.00
894.8430, 16103.00
895.9710, 17037.00
897.1000, 18100.00
898.2280, 18912.00
899.3560, 19957.00
900.4830, 20537.00
901.6110, 21121.00
902.7380, 21312.00
903.8660, 21110.00
904.9930, 20519.00
906.1200, 19788.00
907.2460, 18937.00
908.3730, 18121.00
909.5000, 17266.00
910.6260, 16125.00
911.7520, 15498.00
912.8780, 14667.00
914.0040, 14097.00
915.1290, 13548.00
916.2550, 13053.00
917.3800, 12484.00
918.5050, 12241.00
919.6300, 11798.00
920.7550, 11629.00
921.8800, 11403.00
923.0040, 11285.00
924.1290, 11132.00
925.2530, 11091.00
926.3770, 10853.00
927.5010, 10800.00
928.6250, 10749.00
929.7480, 10766.00
930.8720, 10872.00
931.9950, 10768.00
933.1180, 10779.00
934.2410, 10804.00
935.3640, 10766.00
936.4860, 10963.00
937.6090, 10732.00
938.7310, 10829.00
939.8530, 11176.00
940.9750, 11282.00
942.0970, 11549.00
943.2180, 11789.00
944.3400, 12024.00
945.4610, 12342.00
946.5820, 12744.00
947.7030, 13368.00
948.8240, 13772.00
949.9450, 14243.00
951.0650, 14844.00
952.1860, 15319.00
953.3060, 15829.00
954.4260, 16450.00
955.5460, 17470.00
956.6650, 18335.00
957.7850, 19410.00
958.9040, 20652.00
960.0230, 21783.00
961.1420, 22980.00
962.2610, 23756.00
963.3800, 24176.00
964.4990, 24276.00
965.6170, 23933.00
966.7350, 23730.00
967.8530, 23756.00
968.9710, 23159.00
970.0890, 22909.00
971.2070, 23419.00
972.3240, 23866.00
973.4410, 25010.00
974.5580, 26227.00
975.6750, 27438.00
976.7920, 28533.00
977.9090, 29555.00
979.0250, 29955.00
980.1410, 29824.00
981.2580, 28925.00
982.3740, 28004.00
983.4890, 26867.00
984.6050, 25962.00
985.7200, 24891.00
986.8360, 24194.00
987.9510, 23578.00
989.0660, 23138.00
990.1810, 22645.00
991.2950, 22640.00
992.4100, 22458.00
993.5240, 22357.00
994.6390, 22333.00
995.7530, 22365.00
996.8660, 22479.00
997.9800, 22396.00
999.0940, 22039.00
1000.207, 21886.00
1001.320, 21367.00
1002.433, 20695.00
1003.546, 20126.00
1004.659, 18979.00
1005.772, 18290.00
1006.884, 17231.00
1007.996, 16403.00
1009.108, 15727.00
1010.220, 14973.00
1011.332, 14195.00
1012.444, 13616.00
1013.555, 13062.00
1014.666, 12490.00
1015.777, 12154.00
1016.888, 11697.00
1017.999, 11543.00
1019.110, 11256.00
1020.220, 11125.00
1021.331, 10993.00
1022.441, 10883.00
1023.551, 10756.00
1024.661, 10816.00
1025.770, 10697.00
1026.880, 10574.00
1027.989, 10403.00
1029.098, 10466.00
1030.207, 10472.00
1031.316, 10344.00
1032.425, 10376.00
1033.533, 10267.00
1034.642, 10207.00
1035.750, 10221.00
1036.858, 10251.00
1037.966, 10267.00
1039.073, 10221.00
1040.181, 10265.00
1041.288, 10222.00
1042.396, 10140.00
1043.503, 10216.00
1044.610, 10254.00
1045.716, 10341.00
1046.823, 10273.00
1047.929, 10252.00
1049.036, 10382.00
1050.142, 10377.00
1051.248, 10460.00
1052.353, 10658.00
1053.459, 10768.00
1054.564, 10619.00
1055.670, 10782.00
1056.775, 10713.00
1057.880, 10624.00
1058.985, 10529.00
1060.089, 10509.00
1061.194, 10323.00
1062.298, 10165.00
1063.402, 10123.00
1064.506, 9856.000
1065.610, 9926.000
1066.713, 9604.000
1067.817, 9645.000
1068.920, 9618.000
1070.023, 9608.000
1071.126, 9673.000
1072.229, 9607.000
1073.332, 9711.000
1074.435, 9617.000
1075.537, 9725.000
1076.639, 9959.000
1077.741, 10068.00
1078.843, 10279.00
1079.945, 10361.00
1081.046, 10375.00
1082.148, 10441.00
1083.249, 10447.00
1084.350, 10433.00
1085.451, 10298.00
1086.551, 10181.00
1087.652, 9978.000
1088.752, 9815.000
1089.853, 9796.000
1090.953, 9593.000
1092.053, 9477.000
1093.152, 9426.000
1094.252, 9507.000
1095.351, 9360.000
1096.451, 9389.000
1097.550, 9290.000
1098.649, 9423.000
1099.748, 9396.000
1100.846, 9361.000
1101.945, 9329.000
1103.043, 9313.000
1104.141, 9288.793
1105.239, 9275.643
1106.337, 9277.000
1107.434, 9265.000
1108.532, 9304.000
1109.629, 9325.000
1110.726, 9303.000
1111.823, 9162.000
1112.920, 9127.000
1114.017, 9148.000
1115.113, 9194.000
1116.210, 9097.000
1117.306, 9031.000
1118.402, 9224.000
1119.498, 9143.000
1120.593, 9117.000
1121.689, 9165.000
1122.784, 9237.000
1123.879, 9131.000
1124.974, 9100.000
1126.069, 8984.000
1127.164, 9039.000
1128.259, 8888.000
1129.353, 8914.000
1130.447, 8896.242
1131.541, 9009.000
1132.635, 8889.000
1133.729, 8882.000
1134.822, 8880.000
1135.916, 8877.000
1137.009, 8759.000
1138.102, 8777.000
1139.195, 8864.000
1140.288, 8774.000
1141.380, 8933.000
1142.473, 8782.000
1143.565, 8901.000
1144.657, 8781.000
1145.749, 8895.000
1146.841, 8789.000
1147.932, 8834.000
1149.024, 8826.000
1150.115, 8888.000
1151.206, 8883.675
1152.297, 8831.000
1153.388, 8896.000
1154.479, 8808.000
1155.569, 8814.000
1156.659, 8856.000
1157.750, 9091.000
1158.839, 8971.732
1159.929, 8790.000
1161.019, 8920.000
1162.108, 8730.000
1163.198, 8823.000
1164.287, 8841.000
1165.376, 8811.021
1166.465, 8766.000
1167.553, 8850.000
1168.642, 8861.000
1169.730, 8873.000
1170.818, 8879.000
1171.906, 8828.000
1172.994, 8894.000
1174.082, 8688.000
1175.170, 8800.000
1176.257, 8814.000
1177.344, 8912.000
1178.431, 8776.000
1179.518, 8852.000
1180.605, 8834.000
1181.691, 8823.000
1182.778, 8829.000
1183.864, 8788.000
1184.950, 8855.000
1186.036, 8783.000
1187.122, 8805.000
1188.207, 8924.000
1189.292, 8772.000
1190.378, 8905.000
1191.463, 8754.000
1192.548, 8927.000
1193.632, 8828.000
1194.717, 8895.000
1195.801, 8867.000
1196.886, 8877.000
1197.970, 8955.000
1199.054, 8791.000
1200.137, 8898.000
1201.221, 8946.000
1202.305, 8852.000
1203.388, 8919.000
1204.471, 8793.000
1205.554, 8935.000
1206.637, 8900.000
1207.719, 8903.000
1208.802, 8899.000
1209.884, 8945.000
1210.966, 8951.000
1212.048, 8897.000
1213.130, 8836.000
1214.212, 8862.000
1215.293, 8906.000
1216.374, 8901.000
1217.456, 8978.000
1218.536, 8857.000
1219.617, 8889.000
1220.698, 8927.000
1221.778, 8967.000
1222.859, 8878.000
1223.939, 8996.000
1225.019, 8917.000
1226.099, 8940.000
1227.178, 8961.000
1228.258, 8902.000
1229.337, 9092.000
1230.417, 8981.000
1231.496, 8888.000
1232.574, 8978.000
1233.653, 8888.000
