##NAMES=Axinite-(Fe)
##RRUFFID=R060183
##IDEAL CHEMISTRY=Ca_4_Fe^2+^_2_Al_4_[B_2_Si_8_O_30_](OH)_2_
##LOCALITY=Skagit Bluffs, near Manning Park, British Columbia, Canada
##OWNER=RRUFF
##SOURCE=Lloyd Twaites
##DESCRIPTION=Light-pink transparent axe-head-shaped single crystal
##STATUS=The identification of this mineral has been confirmed by X-ray diffraction and chemical analysis
##URL=rruff.info/R060183
##MEASURED CHEMISTRY=Ca_2.00_(Fe^2+^_0.58_Mn_0.23_Mg_0.19_)Al_2.00_B_1.00_Si_4.00_O_15_(OH)
##PIN_ID=L01002
##ORIENTATION=Laser parallel to (-1 0 -1). Fiducial mark perpendicular to laser is parallel to b [0 1 0]
52.67100, 629.0000
53.91000, 631.0000
55.14900, 628.0000
56.38700, 600.0000
57.62600, 1630.000
58.86400, 621.0000
60.10300, 635.0000
61.34100, 620.0000
62.57900, 622.0000
63.81700, 665.0000
65.05400, 632.0000
66.29200, 679.0000
67.52900, 712.0000
68.76700, 782.0000
70.00400, 842.3508
71.24100, 916.4391
72.47700, 993.0000
73.71400, 1078.000
74.95100, 1165.000
76.18700, 1235.000
77.42300, 1259.000
78.65900, 1307.000
79.89500, 1434.000
81.13100, 1572.000
82.36700, 1766.000
83.60200, 1974.167
84.83700, 2204.273
86.07200, 2515.000
87.30800, 2774.000
88.54200, 3170.000
89.77700, 3579.000
91.01200, 4125.000
92.24600, 4916.000
93.48000, 5510.000
94.71400, 5982.000
95.94800, 6237.000
97.18200, 6206.000
98.41600, 5974.000
99.64900, 5850.000
100.8830, 5738.000
102.1160, 5523.000
103.3490, 5470.000
104.5820, 5476.000
105.8150, 5568.000
107.0470, 5905.000
108.2800, 5869.842
109.5120, 5753.996
110.7440, 5927.000
111.9760, 5374.000
113.2080, 5181.000
114.4400, 5162.000
115.6710, 5362.000
116.9030, 5430.000
118.1340, 5402.000
119.3650, 5412.000
120.5960, 5510.000
121.8270, 5645.000
123.0580, 6022.000
124.2880, 6233.000
125.5190, 6599.000
126.7490, 6780.000
127.9790, 6850.000
129.2090, 6842.000
130.4390, 6739.000
131.6680, 6585.000
132.8980, 6422.000
134.1270, 6445.000
135.3560, 6352.000
136.5850, 6496.000
137.8140, 6616.000
139.0430, 6861.000
140.2710, 7276.000
141.5000, 7351.000
142.7280, 7936.000
143.9560, 8408.000
145.1840, 9326.000
146.4120, 10375.00
147.6390, 11766.00
148.8670, 13245.00
150.0940, 14177.00
151.3210, 14103.00
152.5490, 13017.00
153.7750, 11705.00
155.0020, 10897.00
156.2290, 10243.00
157.4550, 9766.000
158.6810, 9313.000
159.9080, 8922.000
161.1340, 8632.000
162.3590, 8464.000
163.5850, 8991.000
164.8110, 9351.000
166.0360, 10044.00
167.2610, 11246.00
168.4860, 12299.00
169.7110, 13619.00
170.9360, 14607.00
172.1610, 14922.00
173.3850, 14696.00
174.6100, 13896.00
175.8340, 13100.00
177.0580, 12124.00
178.2820, 11251.00
179.5050, 9994.000
180.7290, 8997.000
181.9520, 8041.000
183.1760, 7285.000
184.3990, 6653.000
185.6220, 6232.000
186.8450, 5880.000
188.0670, 5690.000
189.2900, 5712.000
190.5120, 5632.000
191.7340, 5890.000
192.9560, 6047.000
194.1780, 6125.000
195.4000, 6254.000
196.6220, 6252.000
197.8430, 6408.000
199.0640, 6552.000
200.2860, 7114.000
201.5070, 7630.000
202.7270, 8382.000
203.9480, 9155.000
205.1690, 9791.000
206.3890, 10713.00
207.6090, 11415.00
208.8290, 12094.00
210.0490, 12588.05
211.2690, 12952.08
212.4890, 13265.00
213.7080, 13350.00
214.9280, 13460.00
216.1470, 13437.00
217.3660, 13373.00
218.5850, 13004.00
219.8030, 12374.00
221.0220, 11303.00
222.2400, 9990.000
223.4590, 9140.000
224.6770, 8129.000
225.8950, 7542.000
227.1120, 6902.000
228.3300, 6577.000
229.5480, 6245.000
230.7650, 6112.000
231.9820, 6057.000
233.1990, 6139.000
234.4160, 6165.000
235.6330, 6342.000
236.8490, 6526.000
238.0660, 6718.000
239.2820, 7000.000
240.4980, 7350.000
241.7140, 7699.000
242.9300, 8237.000
244.1460, 8715.000
245.3610, 8994.000
246.5770, 9391.000
247.7920, 9686.000
249.0070, 10137.00
250.2220, 10498.00
251.4370, 11000.00
252.6510, 11124.00
253.8660, 11329.00
255.0800, 11377.00
256.2940, 11340.00
257.5080, 11282.00
258.7220, 11777.00
259.9360, 12043.00
261.1490, 11851.00
262.3630, 11873.00
263.5760, 12073.00
264.7890, 12114.00
266.0020, 12223.00
267.2150, 12123.00
268.4270, 11752.00
269.6400, 11819.00
270.8520, 11546.00
272.0640, 11309.00
273.2760, 11117.00
274.4880, 10790.00
275.7000, 10326.00
276.9120, 10079.00
278.1230, 9811.000
279.3340, 9686.000
280.5450, 9670.000
281.7560, 9542.000
282.9670, 9415.000
284.1780, 9362.000
285.3880, 9151.000
286.5980, 9054.000
287.8090, 8690.000
289.0190, 8385.000
290.2290, 8255.000
291.4380, 8033.000
292.6480, 7964.000
293.8570, 7857.000
295.0670, 8115.000
296.2760, 8460.000
297.4850, 8754.000
298.6930, 9097.000
299.9020, 9741.000
301.1110, 10589.00
302.3190, 11369.00
303.5270, 12449.00
304.7350, 13369.00
305.9430, 13774.00
307.1510, 13850.00
308.3580, 13277.00
309.5660, 12580.00
310.7730, 12032.00
311.9800, 11591.00
313.1870, 11448.00
314.3940, 11631.00
315.6010, 12222.00
316.8070, 12582.00
318.0130, 13069.00
319.2200, 13273.00
320.4260, 13118.00
321.6310, 12653.00
322.8370, 12068.00
324.0430, 11748.00
325.2480, 11366.00
326.4540, 11417.00
327.6590, 11314.00
328.8640, 11222.00
330.0680, 11260.00
331.2730, 11331.00
332.4780, 11367.00
333.6820, 11676.00
334.8860, 11951.00
336.0900, 12642.00
337.2940, 13374.00
338.4980, 14512.00
339.7010, 15569.00
340.9050, 16651.00
342.1080, 17402.00
343.3110, 18032.00
344.5140, 17870.00
345.7170, 17352.00
346.9200, 16868.00
348.1220, 16483.00
349.3240, 15839.00
350.5270, 14920.00
351.7290, 13817.00
352.9310, 12364.00
354.1320, 10800.00
355.3340, 9542.000
356.5350, 8368.000
357.7370, 7568.000
358.9380, 7069.000
360.1390, 6539.000
361.3400, 6170.000
362.5400, 6003.000
363.7410, 5739.000
364.9410, 5694.000
366.1410, 5602.000
367.3410, 5499.000
368.5410, 5591.000
369.7410, 5754.000
370.9400, 5751.000
372.1400, 5883.000
373.3390, 5995.000
374.5380, 6179.000
375.7370, 6344.000
376.9360, 6684.000
378.1350, 6949.000
379.3330, 7505.000
380.5310, 8033.000
381.7300, 8678.000
382.9280, 9685.000
384.1260, 10545.00
385.3230, 11717.00
386.5210, 12711.00
387.7180, 13836.00
388.9160, 14678.00
390.1130, 15322.00
391.3100, 15409.00
392.5060, 15224.00
393.7030, 14085.00
394.9000, 12903.00
396.0960, 11420.00
397.2920, 10077.00
398.4880, 9309.000
399.6840, 8513.000
400.8800, 7883.000
402.0750, 7523.000
403.2710, 7233.000
404.4660, 7053.000
405.6610, 6980.000
406.8560, 6948.000
408.0510, 7193.000
409.2450, 7489.000
410.4400, 7949.000
411.6340, 8580.000
412.8280, 9329.000
414.0220, 10297.00
415.2160, 11341.00
416.4100, 12710.00
417.6030, 14182.00
418.7970, 15646.00
419.9900, 16904.00
421.1830, 18112.00
422.3760, 18967.00
423.5690, 19249.00
424.7610, 19209.00
425.9540, 18959.00
427.1460, 17956.00
428.3380, 17028.00
429.5300, 15566.00
430.7220, 14251.00
431.9140, 12563.00
433.1050, 11539.00
434.2970, 10259.00
435.4880, 9410.000
436.6790, 8620.000
437.8700, 8120.000
439.0610, 7724.000
440.2510, 7413.000
441.4420, 7360.000
442.6320, 7345.000
443.8220, 7280.000
445.0120, 7167.000
446.2020, 7096.000
447.3910, 7100.000
448.5810, 6897.000
449.7700, 6812.000
450.9600, 6825.000
452.1490, 7005.000
453.3370, 7042.000
454.5260, 7163.000
455.7150, 7156.000
456.9030, 7017.000
458.0910, 6792.000
459.2800, 6660.000
460.4670, 6530.000
461.6550, 6397.000
462.8430, 6357.000
464.0300, 6429.000
465.2180, 6468.000
466.4050, 6778.000
467.5920, 6947.000
468.7790, 7336.000
469.9650, 7714.000
471.1520, 8048.000
472.3380, 8785.000
473.5250, 9421.000
474.7110, 10579.00
475.8970, 12142.00
477.0820, 13901.00
478.2680, 16434.00
479.4540, 19106.00
480.6390, 22403.00
481.8240, 25919.00
483.0090, 29480.00
484.1940, 30553.00
485.3780, 29569.00
486.5630, 26197.00
487.7470, 22027.00
488.9320, 18370.00
490.1160, 15134.00
491.3000, 12808.00
492.4830, 11116.00
493.6670, 9800.000
494.8500, 8865.000
496.0340, 8272.000
497.2170, 7651.000
498.4000, 7226.000
499.5820, 6855.000
500.7650, 6548.000
501.9480, 6218.000
503.1300, 5979.176
504.3120, 5723.000
505.4940, 5564.000
506.6760, 5343.000
507.8580, 5177.000
509.0390, 5051.000
510.2210, 4910.000
511.4020, 4740.000
512.5830, 4691.000
513.7640, 4563.000
514.9450, 4515.000
516.1250, 4504.000
517.3060, 4340.000
518.4860, 4248.000
519.6660, 4267.000
520.8460, 4228.000
522.0260, 4237.000
523.2060, 4251.000
524.3850, 4360.000
525.5650, 4349.000
526.7440, 4501.000
527.9230, 4496.000
529.1020, 4558.000
530.2810, 4753.000
531.4590, 4916.000
532.6380, 5110.000
533.8160, 5117.000
534.9940, 5152.000
536.1720, 5201.000
537.3500, 5140.000
538.5270, 5093.000
539.7050, 5059.000
540.8820, 5138.000
542.0590, 5025.000
543.2360, 5076.000
544.4130, 4996.000
545.5900, 5126.000
546.7660, 5122.000
547.9430, 5165.000
549.1190, 5385.000
550.2950, 5482.000
551.4710, 5685.000
552.6470, 5890.000
553.8220, 6332.000
554.9980, 6708.000
556.1730, 7186.000
557.3480, 7696.000
558.5230, 8255.000
559.6980, 8449.000
560.8730, 8560.000
562.0470, 8421.000
563.2220, 8226.000
564.3960, 8073.000
565.5700, 7922.000
566.7440, 7890.000
567.9170, 7997.000
569.0910, 8227.000
570.2640, 8330.000
571.4380, 8711.000
572.6110, 8761.000
573.7840, 8878.000
574.9570, 8880.000
576.1290, 8750.000
577.3020, 8608.000
578.4740, 8094.000
579.6460, 7934.000
580.8180, 7670.000
581.9900, 7274.000
583.1620, 7279.000
584.3330, 7143.000
585.5040, 7174.000
586.6760, 7149.000
587.8470, 7021.000
589.0180, 6899.000
590.1880, 6798.000
591.3590, 6495.000
592.5290, 6364.000
593.7000, 6093.000
594.8700, 5912.000
596.0400, 5810.000
597.2090, 5737.000
598.3790, 5803.000
599.5490, 5822.000
600.7180, 5970.000
601.8870, 6234.000
603.0560, 6493.000
604.2250, 6904.000
605.3940, 7298.000
606.5620, 7911.000
607.7300, 8784.000
608.8990, 9694.000
610.0670, 10827.00
611.2350, 12157.00
612.4020, 13756.00
613.5700, 15473.00
614.7370, 17254.00
615.9050, 18961.00
617.0720, 20451.00
618.2390, 21988.00
619.4060, 21955.00
620.5720, 21395.00
621.7390, 19737.00
622.9050, 17345.00
624.0710, 15045.00
625.2370, 12757.00
626.4030, 10884.00
627.5690, 9355.000
628.7340, 8238.000
629.9000, 7441.000
631.0650, 6859.000
632.2300, 6387.000
633.3950, 6130.000
634.5600, 5951.000
635.7240, 5941.000
636.8890, 5897.000
638.0530, 5992.000
639.2170, 6046.000
640.3810, 6189.000
641.5450, 6303.000
642.7080, 6412.000
643.8720, 6364.000
645.0350, 6475.000
646.1980, 6395.000
647.3610, 6388.000
648.5240, 6161.000
649.6870, 6108.000
650.8490, 6001.000
652.0120, 5894.000
653.1740, 5760.000
654.3360, 5738.000
655.4980, 5682.000
656.6600, 5653.000
657.8210, 5708.000
658.9830, 5937.000
660.1440, 6137.000
661.3050, 6340.000
662.4660, 6606.000
663.6270, 6924.000
664.7870, 7409.000
665.9480, 8028.000
667.1080, 8859.000
668.2680, 9579.000
669.4280, 10652.00
670.5880, 11979.00
671.7480, 13509.00
672.9070, 15134.00
674.0670, 16847.00
675.2260, 18273.00
676.3850, 19382.00
677.5440, 20025.00
678.7030, 19373.00
679.8610, 18239.00
681.0200, 16576.00
682.1780, 15098.00
683.3360, 13523.00
684.4940, 12389.00
685.6520, 11374.00
686.8090, 10618.00
687.9670, 10176.00
689.1240, 9662.000
690.2810, 9406.000
691.4380, 9571.000
692.5950, 9508.000
693.7520, 9859.000
694.9080, 10083.00
696.0650, 10687.00
697.2210, 11263.00
698.3770, 12156.00
699.5330, 13225.00
700.6880, 14536.00
701.8440, 16426.00
702.9990, 18515.00
704.1550, 21156.00
705.3100, 24437.00
706.4650, 28156.00
707.6190, 32752.00
708.7740, 37869.00
709.9290, 43291.00
711.0830, 49036.00
712.2370, 53951.00
713.3910, 57552.00
714.5450, 59455.00
715.6980, 58079.00
716.8520, 54772.00
718.0050, 49759.00
719.1580, 43460.00
720.3110, 37552.00
721.4640, 31893.00
722.6170, 27233.43
723.7700, 22683.00
724.9220, 19445.00
726.0740, 16564.00
727.2260, 14436.00
728.3780, 12728.00
729.5300, 11213.00
730.6810, 10268.00
731.8330, 9400.000
732.9840, 8738.000
734.1350, 8094.000
735.2860, 7699.000
736.4370, 7245.000
737.5880, 6890.000
738.7380, 6769.000
739.8880, 6464.000
741.0390, 6256.000
742.1890, 6140.000
743.3380, 6024.000
744.4880, 5918.000
745.6380, 5946.000
746.7870, 5942.000
747.9360, 5969.000
749.0850, 5985.000
750.2340, 6070.000
751.3830, 6268.000
752.5310, 6409.000
753.6800, 6547.000
754.8280, 6875.000
755.9760, 6999.000
757.1240, 7256.000
758.2720, 7297.000
759.4190, 7540.000
760.5670, 7438.000
761.7140, 7628.000
762.8610, 7554.000
764.0080, 7706.000
765.1550, 7675.000
766.3020, 7555.000
767.4480, 7424.000
768.5950, 7283.000
769.7410, 6961.000
770.8870, 6755.000
772.0330, 6273.000
773.1780, 5983.000
774.3240, 5707.000
775.4690, 5411.000
776.6140, 5191.000
777.7590, 5011.000
778.9040, 4808.000
780.0490, 4660.000
781.1940, 4554.000
782.3380, 4430.000
783.4820, 4395.000
784.6260, 4357.000
785.7700, 4154.000
786.9140, 4115.000
788.0580, 4194.000
789.2010, 4007.000
790.3450, 4025.000
791.4880, 3960.000
792.6310, 3967.000
793.7730, 3837.000
794.9160, 3846.000
796.0590, 3855.000
797.2010, 3887.000
798.3430, 3901.000
799.4850, 3907.000
800.6270, 3965.000
801.7690, 3993.000
802.9100, 4024.000
804.0520, 4142.000
805.1930, 4279.000
806.3340, 4418.000
807.4750, 4596.000
808.6160, 4903.000
809.7560, 5114.000
810.8970, 5423.000
812.0370, 5758.000
813.1770, 5851.000
814.3170, 5968.000
815.4570, 5921.000
816.5960, 5728.000
817.7360, 5569.000
818.8750, 5437.000
820.0140, 5278.000
821.1530, 5151.000
822.2920, 5111.000
823.4310, 4931.000
824.5690, 4974.000
825.7070, 4916.000
826.8460, 4875.000
827.9840, 4823.000
829.1220, 4839.000
830.2590, 4871.000
831.3970, 4871.000
832.5340, 4922.450
833.6710, 5017.000
834.8080, 5021.000
835.9450, 5148.000
837.0820, 5212.000
838.2190, 5283.000
839.3550, 5411.000
840.4910, 5505.000
841.6270, 5626.000
842.7630, 5760.000
843.8990, 6011.000
845.0350, 6172.000
846.1700, 6268.000
847.3060, 6516.000
848.4410, 6656.000
849.5760, 6749.000
850.7100, 6717.000
851.8450, 6903.000
852.9800, 6989.000
854.1140, 7025.000
855.2480, 7134.000
856.3820, 7214.000
857.5160, 7303.697
858.6500, 7429.000
859.7830, 7494.000
860.9170, 7622.000
862.0500, 7695.000
863.1830, 7754.000
864.3160, 7745.000
865.4480, 8032.000
866.5810, 7983.000
867.7130, 8079.000
868.8460, 8015.000
869.9780, 8125.000
871.1100, 8166.000
872.2410, 8108.000
873.3730, 8118.000
874.5050, 8115.192
875.6360, 8388.000
876.7670, 8385.000
877.8980, 8563.079
879.0290, 8686.028
880.1590, 8906.000
881.2900, 8978.000
882.4200, 9209.000
883.5500, 9502.000
884.6800, 9610.000
885.8100, 10155.00
886.9400, 10445.00
888.0690, 10704.00
889.1990, 11248.00
890.3280, 11994.00
891.4570, 12764.00
892.5860, 13473.00
893.7140, 14269.00
894.8430, 15350.00
895.9710, 16451.00
897.1000, 17590.00
898.2280, 18368.00
899.3560, 19229.00
900.4830, 19867.00
901.6110, 20250.00
902.7380, 20452.00
903.8660, 20086.00
904.9930, 19613.00
906.1200, 18621.00
907.2460, 17722.00
908.3730, 16803.00
909.5000, 15933.00
910.6260, 15108.00
911.7520, 14307.00
912.8780, 13607.00
914.0040, 12971.00
915.1290, 12287.00
916.2550, 11825.00
917.3800, 11508.00
918.5050, 11076.00
919.6300, 10713.00
920.7550, 10662.00
921.8800, 10462.00
923.0040, 10418.00
924.1290, 10287.00
925.2530, 10401.00
926.3770, 10577.00
927.5010, 10758.00
928.6250, 10900.00
929.7480, 11009.00
930.8720, 11169.00
931.9950, 11369.00
933.1180, 11612.00
934.2410, 11559.00
935.3640, 11917.00
936.4860, 12281.00
937.6090, 12545.00
938.7310, 13228.00
939.8530, 13747.00
940.9750, 14584.00
942.0970, 15572.00
943.2180, 16647.00
944.3400, 18026.00
945.4610, 19551.00
946.5820, 21250.00
947.7030, 22880.00
948.8240, 25236.00
949.9450, 26823.00
951.0650, 28862.00
952.1860, 30608.00
953.3060, 32550.00
954.4260, 34072.00
955.5460, 35680.00
956.6650, 37562.00
957.7850, 39821.00
958.9040, 42019.00
960.0230, 44615.00
961.1420, 46931.00
962.2610, 48677.00
963.3800, 49402.00
964.4990, 48986.00
965.6170, 46861.00
966.7350, 44225.00
967.8530, 41327.00
968.9710, 38484.00
970.0890, 35779.00
971.2070, 34022.00
972.3240, 32837.00
973.4410, 32283.00
974.5580, 32143.00
975.6750, 32439.00
976.7920, 33032.00
977.9090, 33871.00
979.0250, 33999.00
980.1410, 33941.00
981.2580, 33437.00
982.3740, 32898.00
983.4890, 31882.00
984.6050, 30886.00
985.7200, 29919.00
986.8360, 29065.00
987.9510, 28579.00
989.0660, 27956.00
990.1810, 27383.00
991.2950, 26678.00
992.4100, 25972.00
993.5240, 25397.00
994.6390, 24748.00
995.7530, 24337.00
996.8660, 23906.00
997.9800, 23550.00
999.0940, 23401.00
1000.207, 23173.00
1001.320, 22876.00
1002.433, 22509.66
1003.546, 22234.00
1004.659, 21499.00
1005.772, 20939.00
1006.884, 20125.00
1007.996, 19121.00
1009.108, 18030.00
1010.220, 16726.00
1011.332, 15787.00
1012.444, 14812.00
1013.555, 13738.00
1014.666, 12858.00
1015.777, 12106.00
1016.888, 11653.00
1017.999, 10789.00
1019.110, 10360.00
1020.220, 9860.000
1021.331, 9476.000
1022.441, 9093.000
1023.551, 8821.008
1024.661, 8515.000
1025.770, 8454.000
1026.880, 8288.000
1027.989, 8260.000
1029.098, 7957.000
1030.207, 7877.000
1031.316, 7903.000
1032.425, 7730.000
1033.533, 7768.000
1034.642, 7718.000
1035.750, 7747.000
1036.858, 7762.000
1037.966, 7802.000
1039.073, 7926.000
1040.181, 7996.000
1041.288, 8134.000
1042.396, 8237.000
1043.503, 8448.984
1044.610, 8725.000
1045.716, 8931.000
1046.823, 9250.000
1047.929, 9541.000
1049.036, 9941.000
1050.142, 10510.00
1051.248, 10850.00
1052.353, 11375.00
1053.459, 11851.00
1054.564, 12372.00
1055.670, 12802.00
1056.775, 13105.00
1057.880, 13024.00
1058.985, 13058.00
1060.089, 12826.00
1061.194, 12570.00
1062.298, 12121.00
1063.402, 11561.42
1064.506, 11145.00
1065.610, 10342.00
1066.713, 9839.000
1067.817, 9534.000
1068.920, 9030.000
1070.023, 8745.000
1071.126, 8729.000
1072.229, 8653.000
1073.332, 8680.146
1074.435, 8783.094
1075.537, 8967.000
1076.639, 9149.000
1077.741, 9485.000
1078.843, 9852.000
1079.945, 10197.00
1081.046, 10580.00
1082.148, 10673.00
1083.249, 10826.00
1084.350, 10560.00
1085.451, 10228.00
1086.551, 9733.000
1087.652, 9038.000
1088.752, 8685.000
1089.853, 8118.000
1090.953, 7766.000
1092.053, 7373.000
1093.152, 7062.000
1094.252, 6949.000
1095.351, 6863.000
1096.451, 6783.000
1097.550, 6836.000
1098.649, 6814.000
1099.748, 6883.000
1100.846, 7074.000
1101.945, 7114.000
1103.043, 7231.000
1104.141, 7337.000
1105.239, 7481.000
1106.337, 7501.000
1107.434, 7363.000
1108.532, 7363.000
1109.629, 7208.000
1110.726, 7041.000
1111.823, 6795.000
1112.920, 6684.000
1114.017, 6563.000
1115.113, 6323.000
1116.210, 6230.000
1117.306, 6132.000
1118.402, 5997.000
1119.498, 5913.000
1120.593, 5756.000
1121.689, 5738.000
1122.784, 5672.000
1123.879, 5625.000
1124.974, 5443.000
1126.069, 5292.000
1127.164, 5246.000
1128.259, 5106.000
1129.353, 4969.000
1130.447, 4938.000
1131.541, 4870.000
1132.635, 4777.000
1133.729, 4711.000
1134.822, 4742.000
1135.916, 4738.000
1137.009, 4631.000
1138.102, 4535.000
1139.195, 4528.000
1140.288, 4443.000
1141.380, 4365.000
1142.473, 4412.000
1143.565, 4351.000
1144.657, 4373.000
1145.749, 4209.000
1146.841, 4291.000
1147.932, 4211.000
1149.024, 4198.000
1150.115, 4234.000
1151.206, 4161.000
1152.297, 4145.000
1153.388, 4095.000
1154.479, 4166.000
1155.569, 4157.000
1156.659, 4107.000
1157.750, 4131.459
1158.839, 3996.000
1159.929, 4089.000
1161.019, 4015.000
1162.108, 3954.000
1163.198, 3978.000
1164.287, 3935.000
1165.376, 3950.000
1166.465, 3980.000
1167.553, 3875.000
1168.642, 3944.000
1169.730, 3883.000
1170.818, 3936.000
1171.906, 3942.000
1172.994, 3949.000
1174.082, 3893.000
1175.170, 3857.000
1176.257, 3892.000
1177.344, 3835.000
1178.431, 3823.000
1179.518, 3866.000
1180.605, 3814.000
1181.691, 3853.000
1182.778, 3803.000
1183.864, 3877.000
1184.950, 3820.000
1186.036, 3761.000
1187.122, 3901.000
1188.207, 3765.000
1189.292, 3889.000
1190.378, 3799.000
1191.463, 3787.000
1192.548, 3859.000
1193.632, 3749.000
1194.717, 3834.000
1195.801, 3729.000
1196.886, 3723.000
1197.970, 3750.000
1199.054, 3778.000
1200.137, 3723.000
1201.221, 3676.000
1202.305, 3692.000
1203.388, 3700.000
1204.471, 3765.000
1205.554, 3741.000
1206.637, 3741.000
1207.719, 3735.000
1208.802, 3720.942
1209.884, 3713.553
1210.966, 3696.000
1212.048, 3687.000
1213.130, 3664.275
1214.212, 3647.000
1215.293, 3652.000
1216.374, 3662.000
1217.456, 3651.000
1218.536, 3622.000
1219.617, 3600.000
1220.698, 3591.000
1221.778, 3594.000
1222.859, 3664.000
1223.939, 3630.000
1225.019, 3652.156
1226.099, 3642.000
1227.178, 3641.000
1228.258, 3644.000
1229.337, 3615.000
1230.417, 3642.000
1231.496, 3633.000
1232.574, 3604.000
1233.653, 3560.000
1234.732, 3619.000
