##NAMES=Axinite-(Fe)
##RRUFFID=R060183
##IDEAL CHEMISTRY=Ca_4_Fe^2+^_2_Al_4_[B_2_Si_8_O_30_](OH)_2_
##LOCALITY=Skagit Bluffs, near Manning Park, British Columbia, Canada
##OWNER=RRUFF
##SOURCE=Lloyd Twaites
##DESCRIPTION=Light-pink transparent axe-head-shaped single crystal
##STATUS=The identification of this mineral has been confirmed by X-ray diffraction and chemical analysis
##URL=rruff.info/R060183
##MEASURED CHEMISTRY=Ca_2.00_(Fe^2+^_0.58_Mn_0.23_Mg_0.19_)Al_2.00_B_1.00_Si_4.00_O_15_(OH)
##PIN_ID=L00798
##ORIENTATION=Laser parallel to -b* (0 -1 0). Fiducial mark perpendicular to laser is parallel to -c [0 0 -1]
52.67100, 1185.000
53.91000, 1135.000
55.14900, 1073.000
56.38700, 1053.000
57.62600, 1035.000
58.86400, 1057.000
60.10300, 1054.000
61.34100, 1048.000
62.57900, 1039.000
63.81700, 1044.000
65.05400, 982.0000
66.29200, 1034.000
67.52900, 1074.000
68.76700, 1159.000
70.00400, 1285.000
71.24100, 1294.000
72.47700, 1310.000
73.71400, 1344.000
74.95100, 1506.000
76.18700, 1685.000
77.42300, 1763.000
78.65900, 1879.000
79.89500, 2029.000
81.13100, 2188.000
82.36700, 2414.000
83.60200, 2680.334
84.83700, 3010.179
86.07200, 3347.000
87.30800, 3820.000
88.54200, 4277.000
89.77700, 4794.000
91.01200, 5642.000
92.24600, 6464.000
93.48000, 7039.000
94.71400, 7593.000
95.94800, 8027.000
97.18200, 8250.000
98.41600, 8382.000
99.64900, 8832.000
100.8830, 9192.000
102.1160, 9666.000
103.3490, 10091.00
104.5820, 10636.16
105.8150, 11688.00
107.0470, 11320.00
108.2800, 11813.00
109.5120, 11154.00
110.7440, 9531.000
111.9760, 8461.000
113.2080, 8020.000
114.4400, 7587.000
115.6710, 7576.000
116.9030, 7485.000
118.1340, 7431.000
119.3650, 7407.000
120.5960, 7375.000
121.8270, 7491.000
123.0580, 7585.000
124.2880, 7631.000
125.5190, 7644.000
126.7490, 7550.202
127.9790, 7304.000
129.2090, 7198.000
130.4390, 6999.000
131.6680, 6662.000
132.8980, 6436.000
134.1270, 6349.000
135.3560, 6364.000
136.5850, 6558.000
137.8140, 6795.000
139.0430, 7038.000
140.2710, 7246.000
141.5000, 7243.000
142.7280, 7308.000
143.9560, 7713.000
145.1840, 8226.000
146.4120, 9033.000
147.6390, 9789.000
148.8670, 10634.00
150.0940, 11063.00
151.3210, 11471.00
152.5490, 12084.00
153.7750, 12918.00
155.0020, 13772.00
156.2290, 14092.00
157.4550, 14171.00
158.6810, 13488.00
159.9080, 12848.00
161.1340, 12737.00
162.3590, 13206.00
163.5850, 13799.00
164.8110, 15261.00
166.0360, 17164.00
167.2610, 19508.00
168.4860, 21807.00
169.7110, 22904.00
170.9360, 22464.00
172.1610, 21250.00
173.3850, 19110.00
174.6100, 16975.00
175.8340, 14733.00
177.0580, 12820.00
178.2820, 11236.00
179.5050, 9932.000
180.7290, 8911.000
181.9520, 7957.000
183.1760, 7660.000
184.3990, 7148.000
185.6220, 7015.000
186.8450, 7070.000
188.0670, 7110.000
189.2900, 7516.000
190.5120, 7981.000
191.7340, 8579.000
192.9560, 9018.000
194.1780, 9257.000
195.4000, 9480.000
196.6220, 10690.00
197.8430, 9813.000
199.0640, 10414.00
200.2860, 11531.00
201.5070, 12658.00
202.7270, 14173.00
203.9480, 15619.00
205.1690, 17313.00
206.3890, 18674.00
207.6090, 19923.00
208.8290, 20782.00
210.0490, 21150.00
211.2690, 20784.00
212.4890, 19921.00
213.7080, 19038.00
214.9280, 17363.00
216.1470, 16154.00
217.3660, 14620.00
218.5850, 13483.00
219.8030, 12136.00
221.0220, 11212.00
222.2400, 10222.00
223.4590, 9561.000
224.6770, 8742.000
225.8950, 8254.000
227.1120, 7750.000
228.3300, 7473.000
229.5480, 7346.000
230.7650, 7128.000
231.9820, 7233.000
233.1990, 7270.000
234.4160, 7329.000
235.6330, 7833.000
236.8490, 8030.000
238.0660, 8579.000
239.2820, 9259.000
240.4980, 9973.000
241.7140, 10905.00
242.9300, 11638.00
244.1460, 12109.00
245.3610, 12822.00
246.5770, 13014.00
247.7920, 13271.00
249.0070, 13233.00
250.2220, 13219.60
251.4370, 13040.00
252.6510, 12819.00
253.8660, 12583.00
255.0800, 12095.00
256.2940, 11659.00
257.5080, 11333.00
258.7220, 11212.49
259.9360, 11149.21
261.1490, 11295.00
262.3630, 11516.00
263.5760, 11851.00
264.7890, 12487.00
266.0020, 13196.00
267.2150, 13776.00
268.4270, 14754.00
269.6400, 15251.00
270.8520, 15811.00
272.0640, 16223.00
273.2760, 16345.00
274.4880, 15830.00
275.7000, 15326.00
276.9120, 14571.00
278.1230, 13782.00
279.3340, 13022.00
280.5450, 12116.00
281.7560, 11512.00
282.9670, 11085.00
284.1780, 10918.00
285.3880, 11045.00
286.5980, 11355.00
287.8090, 11986.00
289.0190, 12726.00
290.2290, 13735.00
291.4380, 15364.00
292.6480, 16726.00
293.8570, 18304.00
295.0670, 20064.00
296.2760, 21525.00
297.4850, 23045.00
298.6930, 24115.00
299.9020, 25499.00
301.1110, 26864.00
302.3190, 27618.00
303.5270, 28436.00
304.7350, 28876.00
305.9430, 28293.00
307.1510, 26683.00
308.3580, 24433.00
309.5660, 22067.00
310.7730, 19996.00
311.9800, 18182.00
313.1870, 16827.00
314.3940, 16438.00
315.6010, 16238.00
316.8070, 15963.00
318.0130, 15742.00
319.2200, 15089.00
320.4260, 14284.00
321.6310, 13163.00
322.8370, 12298.00
324.0430, 11294.00
325.2480, 10702.00
326.4540, 10049.00
327.6590, 9775.000
328.8640, 9536.000
330.0680, 9331.000
331.2730, 9233.000
332.4780, 9231.000
333.6820, 9464.000
334.8860, 9864.000
336.0900, 10343.00
337.2940, 11115.00
338.4980, 12074.00
339.7010, 13271.00
340.9050, 14650.00
342.1080, 16235.00
343.3110, 17403.00
344.5140, 18335.00
345.7170, 19043.00
346.9200, 19990.00
348.1220, 21205.00
349.3240, 22262.00
350.5270, 22878.00
351.7290, 22537.00
352.9310, 20936.00
354.1320, 18600.00
355.3340, 16525.00
356.5350, 14581.00
357.7370, 12759.00
358.9380, 11319.00
360.1390, 10057.00
361.3400, 9232.000
362.5400, 8502.000
363.7410, 8130.000
364.9410, 7783.000
366.1410, 7565.000
367.3410, 7454.000
368.5410, 7459.000
369.7410, 7480.000
370.9400, 7526.000
372.1400, 7569.000
373.3390, 7639.000
374.5380, 7619.000
375.7370, 7982.000
376.9360, 8113.000
378.1350, 8717.000
379.3330, 9261.000
380.5310, 9914.000
381.7300, 11179.00
382.9280, 12437.00
384.1260, 14204.00
385.3230, 15885.00
386.5210, 17623.00
387.7180, 18683.00
388.9160, 19820.00
390.1130, 20564.00
391.3100, 21129.00
392.5060, 20912.00
393.7030, 20027.00
394.9000, 18587.00
396.0960, 17060.00
397.2920, 15668.00
398.4880, 14450.00
399.6840, 13370.00
400.8800, 12302.00
402.0750, 11538.00
403.2710, 10754.00
404.4660, 10271.00
405.6610, 9912.000
406.8560, 9576.000
408.0510, 9692.000
409.2450, 9753.000
410.4400, 10078.00
411.6340, 10602.00
412.8280, 11461.00
414.0220, 12228.00
415.2160, 13221.00
416.4100, 13861.00
417.6030, 14508.00
418.7970, 15069.00
419.9900, 16052.16
421.1830, 16824.00
422.3760, 18154.00
423.5690, 19314.00
424.7610, 20613.00
425.9540, 21858.00
427.1460, 22796.00
428.3380, 22699.00
429.5300, 22678.00
430.7220, 21358.00
431.9140, 19876.00
433.1050, 17994.00
434.2970, 16238.00
435.4880, 14811.00
436.6790, 13655.00
437.8700, 13002.00
439.0610, 12570.00
440.2510, 12694.00
441.4420, 12851.00
442.6320, 13071.00
443.8220, 12995.00
445.0120, 12345.00
446.2020, 11664.00
447.3910, 10719.00
448.5810, 9969.000
449.7700, 9342.000
450.9600, 9004.000
452.1490, 8739.000
453.3370, 8613.000
454.5260, 8359.000
455.7150, 8260.000
456.9030, 8198.000
458.0910, 8062.000
459.2800, 7954.000
460.4670, 7950.000
461.6550, 7806.000
462.8430, 7963.000
464.0300, 8057.000
465.2180, 8308.000
466.4050, 8477.000
467.5920, 8790.000
468.7790, 9051.000
469.9650, 9030.000
471.1520, 8853.000
472.3380, 8691.000
473.5250, 8433.000
474.7110, 8356.000
475.8970, 8408.000
477.0820, 8608.721
478.2680, 8883.000
479.4540, 9483.000
480.6390, 10132.00
481.8240, 10994.00
483.0090, 11653.00
484.1940, 11711.00
485.3780, 11471.00
486.5630, 10588.00
487.7470, 9835.000
488.9320, 9000.000
490.1160, 8420.000
491.3000, 7938.000
492.4830, 7630.000
493.6670, 7432.000
494.8500, 7297.000
496.0340, 7390.000
497.2170, 7474.000
498.4000, 7706.000
499.5820, 7802.000
500.7650, 8037.000
501.9480, 8361.000
503.1300, 8706.000
504.3120, 9030.000
505.4940, 9297.000
506.6760, 9687.000
507.8580, 10065.00
509.0390, 10280.00
510.2210, 10412.00
511.4020, 10543.00
512.5830, 10360.00
513.7640, 10058.00
514.9450, 9865.000
516.1250, 9290.000
517.3060, 8848.000
518.4860, 8661.000
519.6660, 8299.000
520.8460, 8065.000
522.0260, 7712.000
523.2060, 7604.000
524.3850, 7500.000
525.5650, 7297.000
526.7440, 7346.000
527.9230, 7313.000
529.1020, 7254.000
530.2810, 7404.000
531.4590, 7395.000
532.6380, 7618.000
533.8160, 7815.000
534.9940, 8119.000
536.1720, 8438.000
537.3500, 8765.000
538.5270, 9397.000
539.7050, 9851.000
540.8820, 10439.00
542.0590, 10945.00
543.2360, 11358.00
544.4130, 11552.83
545.5900, 11713.00
546.7660, 11602.00
547.9430, 11345.00
549.1190, 11044.00
550.2950, 10832.00
551.4710, 10709.00
552.6470, 10588.00
553.8220, 10852.00
554.9980, 11099.00
556.1730, 11694.00
557.3480, 12016.00
558.5230, 12424.00
559.6980, 12693.00
560.8730, 12632.00
562.0470, 12521.00
563.2220, 12143.00
564.3960, 11893.00
565.5700, 11767.00
566.7440, 11718.00
567.9170, 11905.00
569.0910, 12280.00
570.2640, 12515.00
571.4380, 12719.00
572.6110, 13002.00
573.7840, 12935.00
574.9570, 13117.00
576.1290, 13179.00
577.3020, 13396.00
578.4740, 13613.00
579.6460, 13942.00
580.8180, 14714.00
581.9900, 15399.00
583.1620, 16462.00
584.3330, 17426.00
585.5040, 18501.00
586.6760, 19445.00
587.8470, 19777.00
589.0180, 19133.00
590.1880, 18152.00
591.3590, 16880.00
592.5290, 15372.00
593.7000, 14052.00
594.8700, 13009.00
596.0400, 11971.00
597.2090, 11086.00
598.3790, 10648.00
599.5490, 10546.00
600.7180, 10317.00
601.8870, 10292.00
603.0560, 10492.00
604.2250, 10808.00
605.3940, 11092.00
606.5620, 11363.00
607.7300, 11730.00
608.8990, 12020.00
610.0670, 12045.00
611.2350, 12003.00
612.4020, 11945.00
613.5700, 11720.00
614.7370, 11432.00
615.9050, 11156.00
617.0720, 10836.00
618.2390, 10533.78
619.4060, 10203.95
620.5720, 9877.000
621.7390, 9508.000
622.9050, 9130.000
624.0710, 8741.000
625.2370, 8375.000
626.4030, 8104.503
627.5690, 7873.000
628.7340, 7619.000
629.9000, 7486.000
631.0650, 7385.507
632.2300, 7330.000
633.3950, 7348.000
634.5600, 7382.000
635.7240, 7477.000
636.8890, 7575.000
638.0530, 7659.000
639.2170, 7800.000
640.3810, 7969.000
641.5450, 8036.000
642.7080, 8084.175
643.8720, 8075.568
645.0350, 8052.000
646.1980, 7916.000
647.3610, 7800.000
648.5240, 7627.000
649.6870, 7486.000
650.8490, 7399.000
652.0120, 7351.000
653.1740, 7332.000
654.3360, 7276.000
655.4980, 7251.000
656.6600, 7231.000
657.8210, 7361.441
658.9830, 7578.000
660.1440, 7753.000
661.3050, 8032.000
662.4660, 8381.000
663.6270, 8790.000
664.7870, 9314.000
665.9480, 9920.000
667.1080, 10679.00
668.2680, 11732.00
669.4280, 13128.00
670.5880, 14408.00
671.7480, 15964.00
672.9070, 17721.00
674.0670, 19347.00
675.2260, 20427.00
676.3850, 21017.00
677.5440, 20827.00
678.7030, 19820.00
679.8610, 18498.00
681.0200, 17065.00
682.1780, 15631.00
683.3360, 14194.00
684.4940, 13002.00
685.6520, 12225.00
686.8090, 11672.00
687.9670, 11209.00
689.1240, 10913.00
690.2810, 10862.00
691.4380, 10809.00
692.5950, 11001.00
693.7520, 11356.00
694.9080, 11743.00
696.0650, 12279.00
697.2210, 13231.00
698.3770, 14185.00
699.5330, 15304.00
700.6880, 17035.00
701.8440, 19177.00
702.9990, 21857.00
704.1550, 25017.00
705.3100, 28892.00
706.4650, 33832.00
707.6190, 38794.00
708.7740, 44566.00
709.9290, 50004.00
711.0830, 55118.00
712.2370, 58700.00
713.3910, 59959.00
714.5450, 58866.00
715.6980, 55288.00
716.8520, 50430.00
718.0050, 44539.00
719.1580, 38549.00
720.3110, 33136.00
721.4640, 28455.00
722.6170, 24328.00
723.7700, 21494.00
724.9220, 19048.00
726.0740, 16991.00
727.2260, 15538.00
728.3780, 14150.00
729.5300, 13166.00
730.6810, 12286.00
731.8330, 11611.00
732.9840, 11080.00
734.1350, 10748.00
735.2860, 10321.00
736.4370, 10003.00
737.5880, 9734.822
738.7380, 9489.000
739.8880, 9286.000
741.0390, 9132.000
742.1890, 8979.000
743.3380, 8903.000
744.4880, 8787.000
745.6380, 8746.000
746.7870, 8673.000
747.9360, 8732.000
749.0850, 8665.000
750.2340, 8867.000
751.3830, 8836.000
752.5310, 9115.000
753.6800, 9149.000
754.8280, 9268.000
755.9760, 9709.000
757.1240, 10082.00
758.2720, 10495.00
759.4190, 10986.00
760.5670, 11443.00
761.7140, 12022.00
762.8610, 12731.00
764.0080, 13047.00
765.1550, 13418.00
766.3020, 13687.00
767.4480, 13737.00
768.5950, 13303.00
769.7410, 13078.00
770.8870, 12547.00
772.0330, 11837.00
773.1780, 11398.00
774.3240, 10708.00
775.4690, 10183.00
776.6140, 9820.000
777.7590, 9251.000
778.9040, 8980.000
780.0490, 8718.000
781.1940, 8409.000
782.3380, 8194.000
783.4820, 8041.000
784.6260, 7932.000
785.7700, 7788.000
786.9140, 7537.000
788.0580, 7558.000
789.2010, 7360.000
790.3450, 7382.000
791.4880, 7314.000
792.6310, 7280.000
793.7730, 7259.000
794.9160, 7175.000
796.0590, 7154.000
797.2010, 6990.000
798.3430, 7166.000
799.4850, 7086.000
800.6270, 7214.000
801.7690, 7072.000
802.9100, 7229.000
804.0520, 7239.000
805.1930, 7233.000
806.3340, 7324.000
807.4750, 7450.000
808.6160, 7530.000
809.7560, 7498.000
810.8970, 7572.000
812.0370, 7606.000
813.1770, 7436.000
814.3170, 7269.000
815.4570, 7355.000
816.5960, 7205.000
817.7360, 6975.000
818.8750, 7063.000
820.0140, 6913.000
821.1530, 6893.000
822.2920, 6918.000
823.4310, 6794.000
824.5690, 6839.000
825.7070, 6838.000
826.8460, 6866.000
827.9840, 6785.000
829.1220, 6840.000
830.2590, 6818.000
831.3970, 6781.000
832.5340, 6795.000
833.6710, 6886.000
834.8080, 6964.000
835.9450, 6902.000
837.0820, 6892.000
838.2190, 7053.000
839.3550, 6972.000
840.4910, 7068.000
841.6270, 7024.000
842.7630, 7108.000
843.8990, 7232.000
845.0350, 7172.000
846.1700, 7279.000
847.3060, 7305.000
848.4410, 7288.000
849.5760, 7325.000
850.7100, 7357.640
851.8450, 7467.000
852.9800, 7461.000
854.1140, 7528.000
855.2480, 7612.000
856.3820, 7786.000
857.5160, 7712.000
858.6500, 7806.000
859.7830, 7803.000
860.9170, 7984.000
862.0500, 8120.000
863.1830, 8200.000
864.3160, 8220.000
865.4480, 8298.000
866.5810, 8318.000
867.7130, 8455.000
868.8460, 8491.000
869.9780, 8535.000
871.1100, 8480.000
872.2410, 8464.000
873.3730, 8532.000
874.5050, 8525.000
875.6360, 8772.000
876.7670, 8763.000
877.8980, 8923.000
879.0290, 8778.000
880.1590, 8877.000
881.2900, 8911.000
882.4200, 9085.000
883.5500, 9121.000
884.6800, 9257.000
885.8100, 9616.000
886.9400, 9749.000
888.0690, 9988.000
889.1990, 10389.00
890.3280, 10788.51
891.4570, 11341.00
892.5860, 11943.00
893.7140, 12691.00
894.8430, 13554.00
895.9710, 14229.00
897.1000, 15133.00
898.2280, 16002.00
899.3560, 16778.00
900.4830, 17541.00
901.6110, 18076.00
902.7380, 18326.00
903.8660, 18093.00
904.9930, 17808.00
906.1200, 17232.00
907.2460, 16357.00
908.3730, 15469.00
909.5000, 14481.00
910.6260, 13452.00
911.7520, 12737.00
912.8780, 12107.00
914.0040, 11474.00
915.1290, 11069.00
916.2550, 10591.00
917.3800, 10208.36
918.5050, 10132.00
919.6300, 9622.000
920.7550, 9658.000
921.8800, 9557.000
923.0040, 9351.000
924.1290, 9355.000
925.2530, 9232.000
926.3770, 9498.000
927.5010, 9510.000
928.6250, 9360.000
929.7480, 9441.000
930.8720, 9349.000
931.9950, 9398.000
933.1180, 9267.000
934.2410, 9360.000
935.3640, 9412.000
936.4860, 9435.000
937.6090, 9490.000
938.7310, 9632.000
939.8530, 9686.000
940.9750, 9673.000
942.0970, 9972.000
943.2180, 10133.95
944.3400, 10373.00
945.4610, 10755.00
946.5820, 10971.00
947.7030, 11419.00
948.8240, 11831.00
949.9450, 12421.00
951.0650, 13098.00
952.1860, 14073.00
953.3060, 15263.00
954.4260, 16353.00
955.5460, 17556.00
956.6650, 19306.00
957.7850, 21449.00
958.9040, 23644.00
960.0230, 25670.00
961.1420, 28214.00
962.2610, 29870.00
963.3800, 31033.00
964.4990, 31139.00
965.6170, 30597.00
966.7350, 29405.00
967.8530, 28467.00
968.9710, 27402.00
970.0890, 27182.00
971.2070, 27050.00
972.3240, 27622.00
973.4410, 28750.00
974.5580, 30169.00
975.6750, 31494.00
976.7920, 33124.00
977.9090, 34583.00
979.0250, 34837.00
980.1410, 34554.00
981.2580, 33968.00
982.3740, 32679.00
983.4890, 31325.00
984.6050, 29775.00
985.7200, 28503.00
986.8360, 27435.00
987.9510, 26723.00
989.0660, 26193.00
990.1810, 25857.00
991.2950, 25994.00
992.4100, 25930.00
993.5240, 26381.00
994.6390, 26866.00
995.7530, 27228.00
996.8660, 27765.00
997.9800, 28596.00
999.0940, 28963.00
1000.207, 29168.00
1001.320, 29429.00
1002.433, 28798.00
1003.546, 28414.00
1004.659, 27689.00
1005.772, 26264.00
1006.884, 24984.00
1007.996, 23569.00
1009.108, 21702.00
1010.220, 19988.00
1011.332, 18401.00
1012.444, 17071.64
1013.555, 15963.00
1014.666, 14889.00
1015.777, 14075.00
1016.888, 13406.00
1017.999, 12758.04
1019.110, 12292.44
1020.220, 11918.00
1021.331, 11690.00
1022.441, 11577.00
1023.551, 11412.01
1024.661, 11365.99
1025.770, 11281.00
1026.880, 11321.00
1027.989, 11265.00
1029.098, 11222.00
1030.207, 11016.00
1031.316, 10968.00
1032.425, 10868.00
1033.533, 10930.00
1034.642, 10787.00
1035.750, 10697.00
1036.858, 10917.00
1037.966, 10935.00
1039.073, 10955.00
1040.181, 11076.00
1041.288, 11190.00
1042.396, 11160.00
1043.503, 11283.00
1044.610, 11378.00
1045.716, 11601.00
1046.823, 11817.00
1047.929, 12161.00
1049.036, 12523.00
1050.142, 12933.00
1051.248, 13385.00
1052.353, 13773.00
1053.459, 14173.00
1054.564, 14942.00
1055.670, 14791.99
1056.775, 15463.00
1057.880, 14565.00
1058.985, 14106.00
1060.089, 13813.00
1061.194, 13303.00
1062.298, 12667.00
1063.402, 12125.00
1064.506, 11658.00
1065.610, 11064.00
1066.713, 10789.00
1067.817, 10415.00
1068.920, 10178.00
1070.023, 10214.00
1071.126, 10145.00
1072.229, 10266.00
1073.332, 10424.00
1074.435, 10758.00
1075.537, 11197.00
1076.639, 11764.00
1077.741, 12334.00
1078.843, 13066.00
1079.945, 13799.00
1081.046, 14328.00
1082.148, 14916.00
1083.249, 14783.00
1084.350, 14619.00
1085.451, 14251.00
1086.551, 13577.00
1087.652, 12846.00
1088.752, 12166.00
1089.853, 11591.00
1090.953, 10980.00
1092.053, 10503.00
1093.152, 10293.00
1094.252, 10109.00
1095.351, 9750.000
1096.451, 9532.000
1097.550, 9454.000
1098.649, 9353.000
1099.748, 9356.000
1100.846, 9364.000
1101.945, 9375.000
1103.043, 9303.000
1104.141, 9291.000
1105.239, 9324.000
1106.337, 9097.000
1107.434, 8900.000
1108.532, 8845.000
1109.629, 8768.000
1110.726, 8532.000
1111.823, 8463.000
1112.920, 8302.000
1114.017, 8220.000
1115.113, 8147.000
1116.210, 8128.000
1117.306, 7910.000
1118.402, 7878.000
1119.498, 7673.000
1120.593, 7788.000
1121.689, 7647.000
1122.784, 7662.000
1123.879, 7603.000
1124.974, 7563.000
1126.069, 7563.608
1127.164, 7456.000
1128.259, 7509.000
1129.353, 7436.000
1130.447, 7327.000
1131.541, 7276.000
1132.635, 7286.000
1133.729, 7277.000
1134.822, 7214.000
1135.916, 7273.000
1137.009, 7185.000
1138.102, 7130.000
1139.195, 7133.000
1140.288, 7177.000
1141.380, 7212.000
1142.473, 7118.000
1143.565, 7151.000
1144.657, 7081.000
1145.749, 6997.000
1146.841, 7154.000
1147.932, 7083.000
1149.024, 7023.000
1150.115, 7027.000
1151.206, 7011.000
1152.297, 7127.000
1153.388, 7038.000
1154.479, 6987.000
1155.569, 7175.000
1156.659, 7002.000
1157.750, 7048.000
1158.839, 7021.000
1159.929, 6971.000
1161.019, 7046.000
1162.108, 6918.000
1163.198, 7012.000
1164.287, 6917.000
1165.376, 6903.000
1166.465, 6920.000
1167.553, 6872.000
1168.642, 6987.000
1169.730, 6912.000
1170.818, 6920.000
1171.906, 6935.000
1172.994, 6827.000
1174.082, 6930.000
1175.170, 6922.000
1176.257, 6960.000
1177.344, 6863.000
1178.431, 6946.000
1179.518, 6829.000
1180.605, 7062.000
1181.691, 6841.000
1182.778, 6975.000
1183.864, 6836.000
1184.950, 6953.000
1186.036, 6727.000
1187.122, 6941.000
1188.207, 6900.000
1189.292, 6814.000
1190.378, 6847.000
1191.463, 6843.000
1192.548, 6907.000
1193.632, 6839.000
1194.717, 6877.000
1195.801, 6870.000
1196.886, 6819.000
1197.970, 6853.321
1199.054, 6905.000
1200.137, 6892.000
1201.221, 6856.000
1202.305, 6919.000
1203.388, 6776.000
1204.471, 6925.000
1205.554, 6980.000
1206.637, 6905.000
1207.719, 6815.000
1208.802, 6804.000
1209.884, 6868.000
1210.966, 6950.000
1212.048, 6852.000
1213.130, 6827.000
1214.212, 6875.000
1215.293, 6786.000
1216.374, 6812.000
1217.456, 6728.000
1218.536, 6768.000
1219.617, 6747.576
1220.698, 6735.000
1221.778, 6731.000
1222.859, 6814.000
1223.939, 6791.000
1225.019, 6678.000
1226.099, 6848.000
1227.178, 6775.000
1228.258, 6734.000
1229.337, 6793.000
1230.417, 6817.000
1231.496, 6693.000
1232.574, 6843.000
1233.653, 6759.000
