##NAMES=Axinite-(Fe)
##RRUFFID=R060194
##IDEAL CHEMISTRY=Ca_4_Fe^2+^_2_Al_4_[B_2_Si_8_O_30_](OH)_2_
##LOCALITY=near Dalbandi, Baluchistan Province, Pakistan
##OWNER=RRUFF
##SOURCE=Herbert Obodda
##DESCRIPTION=Brown transparent wedge-shaped single crystal
##STATUS=The identification of this mineral has been confirmed by X-ray diffraction and chemical analysis
##URL=rruff.info/R060194
##MEASURED CHEMISTRY=Ca_2.00_(Fe^2+^_0.66_Mg_0.30_Mn_0.04_)Al_2.00_BSi_4.00_O_15_(OH)
##PIN_ID=L00599
##ORIENTATION=Laser parallel to (0 -1 -1). Fiducial mark perpendicular to laser is parallel to a [1 0 0]
53.91000, 1100.000
55.14900, 1109.000
56.38700, 1115.000
57.62600, 1092.000
58.86400, 1158.000
60.10300, 1118.000
61.34100, 1180.000
62.57900, 1172.000
63.81700, 1219.000
65.05400, 1276.000
66.29200, 1341.000
67.52900, 1430.000
68.76700, 1666.000
70.00400, 1994.000
71.24100, 2254.000
72.47700, 2367.000
73.71400, 2517.000
74.95100, 2711.482
76.18700, 2809.000
77.42300, 3037.000
78.65900, 3065.000
79.89500, 3187.000
81.13100, 3336.000
82.36700, 3631.000
83.60200, 3801.000
84.83700, 4280.000
86.07200, 4458.000
87.30800, 4681.000
88.54200, 4819.000
89.77700, 5091.000
91.01200, 5331.000
92.24600, 5653.000
93.48000, 5973.571
94.71400, 6327.000
95.94800, 6733.000
97.18200, 7154.000
98.41600, 7665.000
99.64900, 8394.000
100.8830, 9105.000
102.1160, 9925.000
103.3490, 10732.00
104.5820, 12236.00
105.8150, 14336.00
107.0470, 16771.00
108.2800, 19656.00
109.5120, 22106.00
110.7440, 21652.00
111.9760, 20547.00
113.2080, 19685.00
114.4400, 17722.00
115.6710, 15571.00
116.9030, 13459.00
118.1340, 11643.00
119.3650, 10124.00
120.5960, 9346.000
121.8270, 8694.000
123.0580, 8350.000
124.2880, 8267.000
125.5190, 7960.000
126.7490, 7718.000
127.9790, 7546.000
129.2090, 7536.000
130.4390, 7588.000
131.6680, 7751.000
132.8980, 7927.000
134.1270, 8021.000
135.3560, 8251.000
136.5850, 8460.000
137.8140, 8806.000
139.0430, 9269.000
140.2710, 9882.000
141.5000, 10238.00
142.7280, 10432.00
143.9560, 10759.00
145.1840, 10912.00
146.4120, 10930.00
147.6390, 11119.00
148.8670, 11399.00
150.0940, 11605.00
151.3210, 12124.00
152.5490, 12611.00
153.7750, 12651.00
155.0020, 12915.00
156.2290, 12973.00
157.4550, 13010.00
158.6810, 12996.00
159.9080, 13207.00
161.1340, 13496.00
162.3590, 14165.00
163.5850, 14709.00
164.8110, 15808.00
166.0360, 17060.00
167.2610, 18651.00
168.4860, 20295.00
169.7110, 21835.00
170.9360, 23091.00
172.1610, 23593.00
173.3850, 23517.00
174.6100, 22808.00
175.8340, 21256.00
177.0580, 19253.00
178.2820, 17086.00
179.5050, 14934.00
180.7290, 13465.00
181.9520, 11915.00
183.1760, 11062.00
184.3990, 10526.00
185.6220, 10206.00
186.8450, 10095.57
188.0670, 10278.00
189.2900, 10673.00
190.5120, 11352.00
191.7340, 12371.00
192.9560, 13378.00
194.1780, 14426.00
195.4000, 15040.00
196.6220, 15555.00
197.8430, 16267.00
199.0640, 16187.00
200.2860, 16285.00
201.5070, 16939.00
202.7270, 17457.00
203.9480, 18719.00
205.1690, 20002.00
206.3890, 21732.00
207.6090, 23494.00
208.8290, 25462.00
210.0490, 27154.00
211.2690, 28582.00
212.4890, 29441.00
213.7080, 29923.00
214.9280, 29687.00
216.1470, 28801.00
217.3660, 27377.00
218.5850, 25862.00
219.8030, 24029.00
221.0220, 22467.00
222.2400, 20591.00
223.4590, 18975.00
224.6770, 17258.00
225.8950, 15971.00
227.1120, 14708.00
228.3300, 13554.00
229.5480, 12892.00
230.7650, 12191.00
231.9820, 11798.00
233.1990, 11403.00
234.4160, 11345.00
235.6330, 11247.00
236.8490, 11171.00
238.0660, 11224.00
239.2820, 11307.00
240.4980, 11469.81
241.7140, 11682.86
242.9300, 11938.00
244.1460, 12226.00
245.3610, 12479.00
246.5770, 12760.00
247.7920, 13287.00
249.0070, 13744.00
250.2220, 14524.00
251.4370, 15182.00
252.6510, 15983.00
253.8660, 16970.00
255.0800, 17519.00
256.2940, 18141.00
257.5080, 18657.00
258.7220, 19091.00
259.9360, 19581.00
261.1490, 19227.00
262.3630, 19300.00
263.5760, 19568.00
264.7890, 20142.00
266.0020, 21456.00
267.2150, 22897.00
268.4270, 24312.00
269.6400, 25558.00
270.8520, 27416.00
272.0640, 28494.00
273.2760, 29935.00
274.4880, 30628.00
275.7000, 30592.00
276.9120, 30451.00
278.1230, 29439.00
279.3340, 27981.00
280.5450, 26545.00
281.7560, 24616.00
282.9670, 22721.00
284.1780, 21172.00
285.3880, 20063.00
286.5980, 19382.00
287.8090, 19285.00
289.0190, 19499.00
290.2290, 20385.00
291.4380, 21536.00
292.6480, 23395.00
293.8570, 24848.00
295.0670, 26395.00
296.2760, 28144.00
297.4850, 29474.00
298.6930, 30328.00
299.9020, 30722.00
301.1110, 30855.00
302.3190, 30702.00
303.5270, 29754.00
304.7350, 29340.00
305.9430, 28287.00
307.1510, 27844.00
308.3580, 27128.00
309.5660, 26685.00
310.7730, 26482.00
311.9800, 26434.00
313.1870, 26728.00
314.3940, 27806.00
315.6010, 29346.00
316.8070, 31450.00
318.0130, 33288.00
319.2200, 34995.00
320.4260, 35309.00
321.6310, 34520.00
322.8370, 32350.00
324.0430, 29533.00
325.2480, 25940.00
326.4540, 22716.00
327.6590, 19897.00
328.8640, 17723.00
330.0680, 16354.00
331.2730, 15534.00
332.4780, 15173.00
333.6820, 15131.00
334.8860, 15815.00
336.0900, 16473.00
337.2940, 17717.00
338.4980, 19380.00
339.7010, 21052.00
340.9050, 23709.00
342.1080, 26930.00
343.3110, 30011.00
344.5140, 32150.00
345.7170, 33815.00
346.9200, 33719.00
348.1220, 31868.00
349.3240, 29502.00
350.5270, 26527.00
351.7290, 23788.00
352.9310, 21318.00
354.1320, 19512.00
355.3340, 17912.00
356.5350, 16448.00
357.7370, 14973.00
358.9380, 13780.00
360.1390, 12725.00
361.3400, 11843.00
362.5400, 11082.00
363.7410, 10689.00
364.9410, 10300.00
366.1410, 9879.000
367.3410, 9673.000
368.5410, 9406.000
369.7410, 9390.000
370.9400, 9261.000
372.1400, 9179.000
373.3390, 9297.000
374.5380, 9341.000
375.7370, 9414.000
376.9360, 9538.000
378.1350, 9807.000
379.3330, 10007.00
380.5310, 10549.00
381.7300, 10946.00
382.9280, 11763.00
384.1260, 12704.00
385.3230, 13588.00
386.5210, 14853.00
387.7180, 15871.00
388.9160, 17007.00
390.1130, 17506.00
391.3100, 18033.00
392.5060, 17856.00
393.7030, 17549.00
394.9000, 16917.00
396.0960, 16215.00
397.2920, 15348.00
398.4880, 14388.00
399.6840, 13750.00
400.8800, 13028.00
402.0750, 12462.00
403.2710, 12090.00
404.4660, 11781.22
405.6610, 11723.00
406.8560, 11645.00
408.0510, 11836.00
409.2450, 12158.00
410.4400, 12766.00
411.6340, 13361.00
412.8280, 14203.00
414.0220, 15580.00
415.2160, 16967.00
416.4100, 18808.00
417.6030, 20458.00
418.7970, 21716.00
419.9900, 22634.00
421.1830, 23359.00
422.3760, 23569.00
423.5690, 24062.00
424.7610, 24899.00
425.9540, 26291.00
427.1460, 28302.00
428.3380, 30205.00
429.5300, 32272.00
430.7220, 33453.00
431.9140, 33632.00
433.1050, 32649.00
434.2970, 31150.00
435.4880, 28354.00
436.6790, 25781.00
437.8700, 23032.00
439.0610, 20948.00
440.2510, 19466.00
441.4420, 18565.00
442.6320, 18451.00
443.8220, 18562.00
445.0120, 18757.00
446.2020, 18781.00
447.3910, 17930.00
448.5810, 17183.00
449.7700, 15807.00
450.9600, 14192.00
452.1490, 12945.00
453.3370, 11865.00
454.5260, 11018.00
455.7150, 10513.00
456.9030, 10093.00
458.0910, 9723.000
459.2800, 9543.000
460.4670, 9417.000
461.6550, 9285.000
462.8430, 9092.000
464.0300, 9078.000
465.2180, 9061.000
466.4050, 8904.000
467.5920, 8920.000
468.7790, 8919.000
469.9650, 8905.000
471.1520, 8929.000
472.3380, 8933.000
473.5250, 8961.000
474.7110, 9122.000
475.8970, 9236.631
477.0820, 9472.000
478.2680, 9647.000
479.4540, 9913.000
480.6390, 10221.00
481.8240, 10591.00
483.0090, 11082.00
484.1940, 11454.00
485.3780, 11773.00
486.5630, 11811.00
487.7470, 11912.00
488.9320, 11627.00
490.1160, 11153.00
491.3000, 10600.00
492.4830, 10156.00
493.6670, 9711.000
494.8500, 9430.000
496.0340, 9168.000
497.2170, 9167.000
498.4000, 9083.000
499.5820, 9163.000
500.7650, 9049.000
501.9480, 9035.000
503.1300, 9116.000
504.3120, 9108.000
505.4940, 9294.000
506.6760, 9228.000
507.8580, 9154.000
509.0390, 9397.000
510.2210, 9195.000
511.4020, 9253.000
512.5830, 9303.000
513.7640, 9254.000
514.9450, 9120.000
516.1250, 9160.000
517.3060, 9110.000
518.4860, 9013.000
519.6660, 8959.000
520.8460, 8877.000
522.0260, 8963.000
523.2060, 9018.000
524.3850, 9033.000
525.5650, 9100.000
526.7440, 9121.000
527.9230, 9238.000
529.1020, 9288.000
530.2810, 9302.000
531.4590, 9612.000
532.6380, 9897.000
533.8160, 9980.000
534.9940, 10292.00
536.1720, 10681.00
537.3500, 11277.00
538.5270, 11829.00
539.7050, 12450.00
540.8820, 13074.00
542.0590, 14023.00
543.2360, 14974.00
544.4130, 15741.00
545.5900, 16458.00
546.7660, 16847.00
547.9430, 17099.00
549.1190, 16873.00
550.2950, 16358.00
551.4710, 15633.00
552.6470, 15062.00
553.8220, 14463.00
554.9980, 14203.00
556.1730, 14118.00
557.3480, 14141.00
558.5230, 14437.00
559.6980, 14584.00
560.8730, 14760.00
562.0470, 15043.00
563.2220, 15002.00
564.3960, 14997.00
565.5700, 14613.00
566.7440, 14275.00
567.9170, 14058.00
569.0910, 13992.00
570.2640, 13906.00
571.4380, 14079.00
572.6110, 14131.00
573.7840, 14481.00
574.9570, 14521.00
576.1290, 14468.00
577.3020, 14385.00
578.4740, 14328.00
579.6460, 14092.00
580.8180, 14014.00
581.9900, 14177.00
583.1620, 14339.00
584.3330, 14619.00
585.5040, 15037.00
586.6760, 15549.00
587.8470, 16122.00
589.0180, 16457.00
590.1880, 16782.00
591.3590, 16628.00
592.5290, 16088.00
593.7000, 15224.00
594.8700, 14309.00
596.0400, 13459.00
597.2090, 12516.00
598.3790, 11695.00
599.5490, 11234.00
600.7180, 10923.00
601.8870, 10638.00
603.0560, 10459.00
604.2250, 10270.00
605.3940, 10322.00
606.5620, 10302.00
607.7300, 10515.00
608.8990, 10561.00
610.0670, 10721.00
611.2350, 10830.00
612.4020, 11130.00
613.5700, 11303.00
614.7370, 11532.00
615.9050, 11879.00
617.0720, 12008.00
618.2390, 12208.00
619.4060, 12374.00
620.5720, 12254.00
621.7390, 12232.00
622.9050, 11974.00
624.0710, 11865.00
625.2370, 11492.00
626.4030, 11084.00
627.5690, 10964.00
628.7340, 10680.00
629.9000, 10498.00
631.0650, 10456.00
632.2300, 10506.00
633.3950, 10543.00
634.5600, 10640.00
635.7240, 10923.00
636.8890, 11053.00
638.0530, 11491.00
639.2170, 11801.00
640.3810, 12275.00
641.5450, 12801.00
642.7080, 13061.00
643.8720, 13354.00
645.0350, 13566.00
646.1980, 13622.00
647.3610, 13425.00
648.5240, 13266.00
649.6870, 12785.00
650.8490, 12315.00
652.0120, 11991.00
653.1740, 11638.00
654.3360, 11281.00
655.4980, 10978.00
656.6600, 10901.00
657.8210, 10790.00
658.9830, 10658.38
660.1440, 10579.00
661.3050, 10548.00
662.4660, 10686.00
663.6270, 10737.00
664.7870, 11120.00
665.9480, 11247.00
667.1080, 11692.00
668.2680, 12270.00
669.4280, 12817.00
670.5880, 13584.00
671.7480, 14684.00
672.9070, 15682.00
674.0670, 16581.00
675.2260, 17873.00
676.3850, 18661.00
677.5440, 19415.00
678.7030, 19268.00
679.8610, 18732.00
681.0200, 18048.00
682.1780, 16938.00
683.3360, 15838.00
684.4940, 14791.00
685.6520, 13918.00
686.8090, 13252.00
687.9670, 12894.00
689.1240, 12378.00
690.2810, 12347.00
691.4380, 12233.00
692.5950, 12208.00
693.7520, 12430.00
694.9080, 12607.00
696.0650, 13168.00
697.2210, 13500.00
698.3770, 14180.00
699.5330, 14883.00
700.6880, 15961.00
701.8440, 17436.00
702.9990, 19240.00
704.1550, 21505.00
705.3100, 24432.00
706.4650, 27891.00
707.6190, 31930.00
708.7740, 36647.00
709.9290, 41761.00
711.0830, 47497.00
712.2370, 52385.00
713.3910, 56560.00
714.5450, 58608.00
715.6980, 58799.00
716.8520, 56597.00
718.0050, 52681.00
719.1580, 47357.00
720.3110, 41543.00
721.4640, 36206.00
722.6170, 31394.00
723.7700, 27623.00
724.9220, 24678.00
726.0740, 22254.00
727.2260, 20215.00
728.3780, 18571.00
729.5300, 17473.00
730.6810, 16440.00
731.8330, 15672.00
732.9840, 14750.00
734.1350, 14346.00
735.2860, 13893.00
736.4370, 13523.00
737.5880, 13183.00
738.7380, 12833.00
739.8880, 12575.00
741.0390, 12469.00
742.1890, 12330.00
743.3380, 12170.00
744.4880, 12102.00
745.6380, 12062.00
746.7870, 11947.00
747.9360, 11983.00
749.0850, 11901.00
750.2340, 11956.00
751.3830, 12018.00
752.5310, 12232.00
753.6800, 12375.00
754.8280, 12607.94
755.9760, 12774.00
757.1240, 13197.00
758.2720, 13557.00
759.4190, 14009.00
760.5670, 14475.00
761.7140, 15219.00
762.8610, 16020.00
764.0080, 16461.00
765.1550, 17198.00
766.3020, 17865.00
767.4480, 18192.00
768.5950, 18257.00
769.7410, 18243.00
770.8870, 18241.00
772.0330, 17460.00
773.1780, 16830.00
774.3240, 15970.00
775.4690, 15341.00
776.6140, 14752.00
777.7590, 13989.00
778.9040, 13604.00
780.0490, 13042.00
781.1940, 12575.00
782.3380, 12286.00
783.4820, 12028.00
784.6260, 11751.00
785.7700, 11610.00
786.9140, 11444.00
788.0580, 11231.00
789.2010, 11147.00
790.3450, 11057.00
791.4880, 10900.00
792.6310, 10762.00
793.7730, 10838.00
794.9160, 10851.00
796.0590, 10696.00
797.2010, 10785.00
798.3430, 10678.00
799.4850, 10589.00
800.6270, 10691.00
801.7690, 10660.00
802.9100, 10482.00
804.0520, 10637.00
805.1930, 10694.00
806.3340, 10816.00
807.4750, 10995.00
808.6160, 11072.00
809.7560, 11263.00
810.8970, 11345.00
812.0370, 11407.00
813.1770, 11516.00
814.3170, 11403.00
815.4570, 11326.00
816.5960, 11293.00
817.7360, 11125.00
818.8750, 10960.00
820.0140, 10774.00
821.1530, 10624.00
822.2920, 10554.00
823.4310, 10518.00
824.5690, 10284.00
825.7070, 10317.00
826.8460, 10370.00
827.9840, 10377.00
829.1220, 10200.00
830.2590, 10179.00
831.3970, 10275.00
832.5340, 10214.00
833.6710, 10311.00
834.8080, 10325.00
835.9450, 10382.00
837.0820, 10361.00
838.2190, 10379.00
839.3550, 10434.00
840.4910, 10384.00
841.6270, 10487.00
842.7630, 10615.00
843.8990, 10553.00
845.0350, 10602.00
846.1700, 10629.00
847.3060, 10707.00
848.4410, 10888.00
849.5760, 10851.00
850.7100, 10918.00
851.8450, 10766.00
852.9800, 10982.00
854.1140, 10928.00
855.2480, 11146.00
856.3820, 11224.00
857.5160, 11124.00
858.6500, 11379.00
859.7830, 11438.00
860.9170, 11383.00
862.0500, 11420.00
863.1830, 11601.00
864.3160, 11484.00
865.4480, 11662.00
866.5810, 11665.00
867.7130, 11559.00
868.8460, 11777.00
869.9780, 11681.00
871.1100, 11626.00
872.2410, 11587.00
873.3730, 11595.53
874.5050, 11581.00
875.6360, 11668.00
876.7670, 11674.00
877.8980, 11708.00
879.0290, 11715.00
880.1590, 11715.00
881.2900, 11712.00
882.4200, 11668.28
883.5500, 11661.00
884.6800, 11622.00
885.8100, 11588.00
886.9400, 11591.71
888.0690, 11637.00
889.1990, 11612.00
890.3280, 11661.00
891.4570, 11717.00
892.5860, 11746.00
893.7140, 11735.00
894.8430, 11992.00
895.9710, 11982.00
897.1000, 12236.00
898.2280, 12291.00
899.3560, 12521.00
900.4830, 12753.00
901.6110, 12892.00
902.7380, 13064.00
903.8660, 13273.00
904.9930, 13351.00
906.1200, 13431.00
907.2460, 13387.33
908.3730, 13401.00
909.5000, 13142.00
910.6260, 12960.00
911.7520, 12742.00
912.8780, 12484.00
914.0040, 12292.00
915.1290, 12211.00
916.2550, 12007.00
917.3800, 12056.00
918.5050, 11864.00
919.6300, 11903.00
920.7550, 11897.00
921.8800, 12008.00
923.0040, 11884.00
924.1290, 11911.00
925.2530, 11974.00
926.3770, 12236.00
927.5010, 12397.00
928.6250, 12483.00
929.7480, 12590.00
930.8720, 12787.00
931.9950, 12898.00
933.1180, 13094.00
934.2410, 13045.00
935.3640, 13077.00
936.4860, 13137.00
937.6090, 13247.00
938.7310, 13300.00
939.8530, 13357.00
940.9750, 13599.00
942.0970, 13727.00
943.2180, 14113.00
944.3400, 14277.00
945.4610, 14716.00
946.5820, 15059.00
947.7030, 15715.00
948.8240, 16259.00
949.9450, 16919.00
951.0650, 17728.00
952.1860, 18640.00
953.3060, 19704.00
954.4260, 20919.00
955.5460, 22306.00
956.6650, 24046.00
957.7850, 26175.00
958.9040, 28389.00
960.0230, 31482.00
961.1420, 34271.00
962.2610, 37267.00
963.3800, 40078.00
964.4990, 42414.00
965.6170, 43092.00
966.7350, 43153.00
967.8530, 42163.00
968.9710, 40437.00
970.0890, 38114.00
971.2070, 36318.00
972.3240, 35139.00
973.4410, 34282.00
974.5580, 34264.00
975.6750, 34903.00
976.7920, 36290.00
977.9090, 37386.00
979.0250, 38693.00
980.1410, 39452.00
981.2580, 39703.00
982.3740, 38670.00
983.4890, 37260.00
984.6050, 34997.00
985.7200, 32733.00
986.8360, 30639.00
987.9510, 28537.00
989.0660, 26810.00
990.1810, 25341.00
991.2950, 24000.00
992.4100, 23350.00
993.5240, 22929.00
994.6390, 22655.00
995.7530, 22545.00
996.8660, 22915.00
997.9800, 22865.00
999.0940, 23059.00
1000.207, 23702.00
1001.320, 23947.00
1002.433, 24330.00
1003.546, 24537.35
1004.659, 24757.00
1005.772, 24401.00
1006.884, 23969.00
1007.996, 23044.00
1009.108, 22314.00
1010.220, 21176.00
1011.332, 19874.00
1012.444, 18858.00
1013.555, 17722.00
1014.666, 17073.00
1015.777, 16189.00
1016.888, 15574.00
1017.999, 14861.00
1019.110, 14424.00
1020.220, 14226.00
1021.331, 13960.00
1022.441, 13760.00
1023.551, 13776.00
1024.661, 13693.00
1025.770, 13804.00
1026.880, 14060.00
1027.989, 14077.00
1029.098, 14219.00
1030.207, 14272.00
1031.316, 14338.00
1032.425, 14222.00
1033.533, 14270.00
1034.642, 14121.00
1035.750, 14165.00
1036.858, 14066.00
1037.966, 14259.00
1039.073, 14009.00
1040.181, 14221.00
1041.288, 14286.00
1042.396, 14232.00
1043.503, 14214.00
1044.610, 14098.00
1045.716, 14304.00
1046.823, 14604.00
1047.929, 14608.11
1049.036, 14879.35
1050.142, 14868.00
1051.248, 15278.00
1052.353, 15472.00
1053.459, 15714.00
1054.564, 16083.00
1055.670, 16418.00
1056.775, 16648.00
1057.880, 16754.00
1058.985, 16814.00
1060.089, 16709.92
1061.194, 16657.00
1062.298, 16226.00
1063.402, 15879.00
1064.506, 15397.00
1065.610, 15056.00
1066.713, 14751.00
1067.817, 14149.00
1068.920, 14110.00
1070.023, 13844.00
1071.126, 13960.00
1072.229, 13853.00
1073.332, 14062.00
1074.435, 14309.00
1075.537, 14641.00
1076.639, 15084.00
1077.741, 15798.00
1078.843, 16774.00
1079.945, 18018.00
1081.046, 18930.00
1082.148, 20071.00
1083.249, 21338.00
1084.350, 21915.00
1085.451, 22160.00
1086.551, 21853.00
1087.652, 21122.00
1088.752, 19926.00
1089.853, 18866.00
1090.953, 17486.00
1092.053, 16633.00
1093.152, 15881.00
1094.252, 15158.00
1095.351, 14413.00
1096.451, 14188.00
1097.550, 13675.00
1098.649, 13308.00
1099.748, 13228.00
1100.846, 12827.00
1101.945, 12693.00
1103.043, 12533.00
1104.141, 12532.00
1105.239, 12169.00
1106.337, 12197.00
1107.434, 12228.00
1108.532, 11988.00
1109.629, 12035.00
1110.726, 11918.00
1111.823, 11950.00
1112.920, 11608.00
1114.017, 11641.00
1115.113, 11753.00
1116.210, 11589.00
1117.306, 11758.00
1118.402, 11738.00
1119.498, 11700.00
1120.593, 11617.00
1121.689, 11509.00
1122.784, 11520.00
1123.879, 11666.00
1124.974, 11646.00
1126.069, 11537.00
1127.164, 11395.00
1128.259, 11378.00
1129.353, 11245.00
1130.447, 11282.00
1131.541, 11095.00
1132.635, 11026.00
1133.729, 10947.00
1134.822, 11023.00
1135.916, 10984.00
1137.009, 10994.00
1138.102, 10909.00
1139.195, 10938.00
1140.288, 10927.00
1141.380, 10928.00
1142.473, 10950.00
1143.565, 10856.00
1144.657, 10897.00
1145.749, 10823.00
1146.841, 10876.00
1147.932, 10736.00
1149.024, 10928.00
1150.115, 10791.00
1151.206, 10860.00
1152.297, 10963.00
1153.388, 10993.00
1154.479, 10786.00
1155.569, 10800.00
1156.659, 10762.00
1157.750, 10770.00
1158.839, 10778.00
1159.929, 10751.00
1161.019, 10758.00
1162.108, 10748.25
1163.198, 10716.00
1164.287, 10746.00
1165.376, 10709.00
1166.465, 10729.00
1167.553, 10820.00
1168.642, 10782.00
1169.730, 10784.00
1170.818, 10853.00
1171.906, 10790.75
1172.994, 10805.52
1174.082, 10710.00
1175.170, 10763.00
1176.257, 10695.00
1177.344, 10657.00
1178.431, 10744.00
1179.518, 10591.00
1180.605, 10698.00
1181.691, 10794.00
1182.778, 10647.00
1183.864, 10688.00
1184.950, 10558.00
1186.036, 10724.00
1187.122, 10678.00
1188.207, 10714.00
1189.292, 10558.00
1190.378, 10630.00
1191.463, 10673.00
1192.548, 10650.00
1193.632, 10636.00
1194.717, 10699.00
1195.801, 10669.00
1196.886, 10666.00
1197.970, 10685.00
1199.054, 10565.00
1200.137, 10762.00
1201.221, 10616.00
1202.305, 10695.00
1203.388, 10628.00
1204.471, 10598.00
1205.554, 10608.00
1206.637, 10629.00
1207.719, 10550.00
1208.802, 10632.00
1209.884, 10473.00
1210.966, 10628.00
1212.048, 10572.00
1213.130, 10561.00
1214.212, 10625.00
1215.293, 10536.00
1216.374, 10547.00
1217.456, 10558.00
1218.536, 10493.00
1219.617, 10542.60
1220.698, 10687.00
1221.778, 10582.00
1222.859, 10559.00
1223.939, 10546.00
1225.019, 10434.00
1226.099, 10462.82
1227.178, 10553.00
1228.258, 10516.00
1229.337, 10541.00
1230.417, 10680.00
1231.496, 10707.00
1232.574, 10591.00
1233.653, 10532.00
1234.732, 10564.00
1235.810, 10621.00
1236.888, 10690.00
