##NAMES=Axinite-(Fe)
##RRUFFID=R060183
##IDEAL CHEMISTRY=Ca_4_Fe^2+^_2_Al_4_[B_2_Si_8_O_30_](OH)_2_
##LOCALITY=Skagit Bluffs, near Manning Park, British Columbia, Canada
##OWNER=RRUFF
##SOURCE=Lloyd Twaites
##DESCRIPTION=Light-pink transparent axe-head-shaped single crystal
##STATUS=The identification of this mineral has been confirmed by X-ray diffraction and chemical analysis
##URL=rruff.info/R060183
##MEASURED CHEMISTRY=Ca_2.00_(Fe^2+^_0.58_Mn_0.23_Mg_0.19_)Al_2.00_B_1.00_Si_4.00_O_15_(OH)
##PIN_ID=L01506
##ORIENTATION=Laser parallel to (-1 -1 0). Fiducial mark perpendicular to laser is parallel to c [0 0 1]
52.67100, 788.0000
53.91000, 765.0000
55.14900, 779.0000
56.38700, 758.0000
57.62600, 753.0000
58.86400, 802.0000
60.10300, 830.0000
61.34100, 839.0000
62.57900, 866.0000
63.81700, 861.0000
65.05400, 927.0000
66.29200, 1005.000
67.52900, 1158.000
68.76700, 1385.000
70.00400, 1491.373
71.24100, 1710.166
72.47700, 1816.000
73.71400, 1955.000
74.95100, 2156.646
76.18700, 2363.761
77.42300, 2682.000
78.65900, 2917.000
79.89500, 3265.000
81.13100, 3664.000
82.36700, 4229.000
83.60200, 4797.000
84.83700, 5185.000
86.07200, 5515.000
87.30800, 5979.000
88.54200, 6675.000
89.77700, 7349.000
91.01200, 8522.000
92.24600, 9372.515
93.48000, 10498.00
94.71400, 11099.00
95.94800, 11478.00
97.18200, 11484.00
98.41600, 11610.00
99.64900, 12052.00
100.8830, 12295.00
102.1160, 12601.00
103.3490, 13015.00
104.5820, 13642.00
105.8150, 15018.00
107.0470, 16673.00
108.2800, 16217.52
109.5120, 17893.00
110.7440, 15493.00
111.9760, 14065.00
113.2080, 13491.00
114.4400, 12988.00
115.6710, 12620.00
116.9030, 12151.00
118.1340, 11977.00
119.3650, 11327.00
120.5960, 11340.00
121.8270, 11415.00
123.0580, 11833.00
124.2880, 11957.00
125.5190, 12084.00
126.7490, 12299.00
127.9790, 12557.00
129.2090, 12620.00
130.4390, 12484.00
131.6680, 12020.00
132.8980, 11818.00
134.1270, 11477.00
135.3560, 11465.00
136.5850, 11575.00
137.8140, 12060.00
139.0430, 12752.00
140.2710, 13187.00
141.5000, 13962.00
142.7280, 14919.00
143.9560, 16229.00
145.1840, 17685.00
146.4120, 19930.00
147.6390, 21899.00
148.8670, 23942.00
150.0940, 24530.00
151.3210, 23527.00
152.5490, 21734.00
153.7750, 19823.00
155.0020, 18069.00
156.2290, 17150.00
157.4550, 16152.00
158.6810, 15562.00
159.9080, 15028.00
161.1340, 14837.00
162.3590, 15131.00
163.5850, 15862.00
164.8110, 17172.00
166.0360, 18413.00
167.2610, 20296.00
168.4860, 22335.00
169.7110, 24447.00
170.9360, 24931.00
172.1610, 24511.00
173.3850, 23587.00
174.6100, 21902.00
175.8340, 20641.00
177.0580, 19117.00
178.2820, 17559.00
179.5050, 16253.00
180.7290, 14990.00
181.9520, 14110.00
183.1760, 13541.00
184.3990, 13147.93
185.6220, 13057.81
186.8450, 13209.00
188.0670, 13617.00
189.2900, 14200.00
190.5120, 15118.00
191.7340, 15907.00
192.9560, 15995.00
194.1780, 15978.00
195.4000, 15324.00
196.6220, 15077.00
197.8430, 15069.00
199.0640, 15353.00
200.2860, 15900.00
201.5070, 16902.00
202.7270, 17898.00
203.9480, 18543.00
205.1690, 18935.00
206.3890, 19418.00
207.6090, 19861.00
208.8290, 19967.00
210.0490, 20055.00
211.2690, 20035.00
212.4890, 19537.00
213.7080, 19307.00
214.9280, 18836.00
216.1470, 18510.00
217.3660, 18130.00
218.5850, 17686.00
219.8030, 16936.00
221.0220, 15822.00
222.2400, 14894.00
223.4590, 13885.00
224.6770, 13029.00
225.8950, 12203.00
227.1120, 11911.00
228.3300, 11500.00
229.5480, 11464.00
230.7650, 11407.00
231.9820, 11259.00
233.1990, 11467.00
234.4160, 11686.00
235.6330, 11974.00
236.8490, 12256.00
238.0660, 12818.00
239.2820, 13231.00
240.4980, 13639.00
241.7140, 14146.00
242.9300, 14390.88
244.1460, 14872.00
245.3610, 14779.00
246.5770, 15121.00
247.7920, 15043.00
249.0070, 15100.00
250.2220, 15439.00
251.4370, 15699.00
252.6510, 16020.00
253.8660, 16032.00
255.0800, 16215.00
256.2940, 15799.00
257.5080, 15958.00
258.7220, 15841.43
259.9360, 15800.05
261.1490, 15838.00
262.3630, 15930.00
263.5760, 16215.00
264.7890, 16482.00
266.0020, 16902.00
267.2150, 17311.00
268.4270, 17706.00
269.6400, 17987.00
270.8520, 18372.00
272.0640, 18474.00
273.2760, 18620.00
274.4880, 18520.00
275.7000, 18040.00
276.9120, 17880.00
278.1230, 17513.00
279.3340, 17148.00
280.5450, 16825.00
281.7560, 16655.00
282.9670, 16594.00
284.1780, 16260.00
285.3880, 16121.00
286.5980, 15857.00
287.8090, 15561.00
289.0190, 15499.00
290.2290, 15193.00
291.4380, 15113.00
292.6480, 15470.00
293.8570, 15546.00
295.0670, 15878.00
296.2760, 16369.00
297.4850, 17128.00
298.6930, 18124.00
299.9020, 18800.00
301.1110, 20249.00
302.3190, 21193.00
303.5270, 22503.00
304.7350, 23326.00
305.9430, 23281.00
307.1510, 22837.00
308.3580, 21315.00
309.5660, 19866.00
310.7730, 18886.00
311.9800, 17731.00
313.1870, 17083.00
314.3940, 16571.00
315.6010, 16799.00
316.8070, 16985.00
318.0130, 17398.00
319.2200, 17170.00
320.4260, 17070.00
321.6310, 17528.00
322.8370, 16640.00
324.0430, 16349.00
325.2480, 16055.00
326.4540, 16160.00
327.6590, 16109.00
328.8640, 16058.00
330.0680, 16023.00
331.2730, 15846.00
332.4780, 16134.00
333.6820, 16466.00
334.8860, 17086.00
336.0900, 18071.00
337.2940, 19349.00
338.4980, 20652.00
339.7010, 22119.00
340.9050, 23586.00
342.1080, 24626.00
343.3110, 24745.00
344.5140, 24229.00
345.7170, 23924.00
346.9200, 23455.00
348.1220, 23264.00
349.3240, 23171.00
350.5270, 22433.00
351.7290, 21181.00
352.9310, 19816.00
354.1320, 18263.00
355.3340, 16818.00
356.5350, 15564.00
357.7370, 14684.00
358.9380, 13917.00
360.1390, 13427.00
361.3400, 12982.00
362.5400, 12760.00
363.7410, 12594.00
364.9410, 12459.00
366.1410, 12385.00
367.3410, 12368.00
368.5410, 12694.00
369.7410, 12720.00
370.9400, 13135.00
372.1400, 13180.00
373.3390, 13481.00
374.5380, 13391.00
375.7370, 13633.00
376.9360, 13675.00
378.1350, 14082.00
379.3330, 14665.00
380.5310, 15412.00
381.7300, 16214.00
382.9280, 17458.00
384.1260, 18883.00
385.3230, 20592.00
386.5210, 22277.00
387.7180, 23848.00
388.9160, 24924.00
390.1130, 25244.00
391.3100, 24997.00
392.5060, 23906.00
393.7030, 22469.00
394.9000, 20716.00
396.0960, 19400.00
397.2920, 18185.00
398.4880, 17086.00
399.6840, 16031.00
400.8800, 15243.00
402.0750, 14558.00
403.2710, 13953.00
404.4660, 14015.00
405.6610, 13757.00
406.8560, 13915.00
408.0510, 14419.00
409.2450, 14831.00
410.4400, 15508.00
411.6340, 16494.00
412.8280, 17726.00
414.0220, 19303.00
415.2160, 20265.00
416.4100, 20980.00
417.6030, 21211.00
418.7970, 21129.00
419.9900, 21167.00
421.1830, 21192.00
422.3760, 21180.00
423.5690, 21031.00
424.7610, 20824.00
425.9540, 20679.00
427.1460, 20243.00
428.3380, 19592.00
429.5300, 18704.00
430.7220, 17957.00
431.9140, 16948.00
433.1050, 15915.00
434.2970, 15042.00
435.4880, 14270.00
436.6790, 13675.00
437.8700, 13407.00
439.0610, 12997.00
440.2510, 13088.00
441.4420, 13216.00
442.6320, 13031.00
443.8220, 13163.00
445.0120, 13089.00
446.2020, 12982.00
447.3910, 12973.00
448.5810, 12781.00
449.7700, 12826.00
450.9600, 12747.00
452.1490, 12886.00
453.3370, 12992.00
454.5260, 13023.00
455.7150, 13111.00
456.9030, 13106.00
458.0910, 12996.00
459.2800, 13007.00
460.4670, 12987.00
461.6550, 12839.00
462.8430, 12976.00
464.0300, 13154.00
465.2180, 13357.00
466.4050, 13850.00
467.5920, 14353.00
468.7790, 14598.00
469.9650, 14809.00
471.1520, 14958.00
472.3380, 15746.00
473.5250, 16214.00
474.7110, 17400.00
475.8970, 18840.00
477.0820, 20682.00
478.2680, 23109.00
479.4540, 26038.00
480.6390, 29591.00
481.8240, 33007.00
483.0090, 35530.00
484.1940, 35775.00
485.3780, 33418.00
486.5630, 29975.00
487.7470, 26183.00
488.9320, 23169.00
490.1160, 20304.00
491.3000, 18371.00
492.4830, 16988.00
493.6670, 15847.00
494.8500, 15382.00
496.0340, 14971.00
497.2170, 14740.00
498.4000, 14661.60
499.5820, 14706.38
500.7650, 14859.00
501.9480, 14949.00
503.1300, 15267.00
504.3120, 15078.00
505.4940, 14972.00
506.6760, 14914.00
507.8580, 14364.00
509.0390, 14171.00
510.2210, 13840.00
511.4020, 13312.00
512.5830, 12874.00
513.7640, 12581.00
514.9450, 12140.00
516.1250, 11863.00
517.3060, 11737.00
518.4860, 11390.00
519.6660, 11355.00
520.8460, 11198.00
522.0260, 11222.00
523.2060, 11261.00
524.3850, 11235.00
525.5650, 11271.00
526.7440, 11278.00
527.9230, 11322.00
529.1020, 11473.00
530.2810, 11579.00
531.4590, 11638.00
532.6380, 11745.16
533.8160, 11975.00
534.9940, 11892.00
536.1720, 11967.00
537.3500, 12034.00
538.5270, 11826.00
539.7050, 11857.00
540.8820, 11931.00
542.0590, 11951.00
543.2360, 11949.00
544.4130, 12004.03
545.5900, 12040.00
546.7660, 12066.00
547.9430, 12100.00
549.1190, 12121.00
550.2950, 12164.00
551.4710, 12266.00
552.6470, 12505.00
553.8220, 12635.00
554.9980, 13009.00
556.1730, 13335.00
557.3480, 13815.00
558.5230, 14153.00
559.6980, 13993.00
560.8730, 14489.00
562.0470, 14347.00
563.2220, 14329.00
564.3960, 14392.00
565.5700, 14505.00
566.7440, 14626.00
567.9170, 14747.00
569.0910, 15329.00
570.2640, 15501.00
571.4380, 15694.00
572.6110, 15994.00
573.7840, 16016.00
574.9570, 15923.00
576.1290, 15809.00
577.3020, 15642.00
578.4740, 15211.00
579.6460, 15129.00
580.8180, 15073.00
581.9900, 14790.00
583.1620, 14807.00
584.3330, 15100.00
585.5040, 15224.00
586.6760, 15184.00
587.8470, 15145.00
589.0180, 14971.00
590.1880, 14485.00
591.3590, 14124.00
592.5290, 13932.00
593.7000, 13430.00
594.8700, 13165.00
596.0400, 13003.00
597.2090, 12930.00
598.3790, 12995.00
599.5490, 12930.00
600.7180, 13138.00
601.8870, 13199.00
603.0560, 13582.00
604.2250, 14075.00
605.3940, 14628.00
606.5620, 15302.00
607.7300, 16093.67
608.8990, 16931.00
610.0670, 17975.00
611.2350, 18993.00
612.4020, 20176.00
613.5700, 21482.00
614.7370, 22665.00
615.9050, 23747.00
617.0720, 24767.00
618.2390, 25457.00
619.4060, 25501.00
620.5720, 24863.00
621.7390, 23030.00
622.9050, 21072.00
624.0710, 19368.00
625.2370, 17723.54
626.4030, 16416.88
627.5690, 15322.56
628.7340, 14399.00
629.9000, 13727.00
631.0650, 13361.00
632.2300, 12958.00
633.3950, 12652.00
634.5600, 12650.00
635.7240, 12619.00
636.8890, 12613.00
638.0530, 12568.00
639.2170, 12749.00
640.3810, 12820.00
641.5450, 13070.00
642.7080, 13080.00
643.8720, 13065.00
645.0350, 13231.00
646.1980, 13042.00
647.3610, 13113.00
648.5240, 13105.00
649.6870, 13160.00
650.8490, 13086.00
652.0120, 13106.00
653.1740, 13330.00
654.3360, 13465.00
655.4980, 13785.00
656.6600, 13989.00
657.8210, 14516.00
658.9830, 15020.00
660.1440, 15597.00
661.3050, 16474.00
662.4660, 17380.00
663.6270, 18271.00
664.7870, 19032.00
665.9480, 19521.00
667.1080, 19832.00
668.2680, 20090.00
669.4280, 20647.00
670.5880, 20859.00
671.7480, 21534.00
672.9070, 22618.00
674.0670, 23015.00
675.2260, 24243.00
676.3850, 24229.00
677.5440, 24102.00
678.7030, 23539.00
679.8610, 22526.74
681.0200, 21139.00
682.1780, 20063.00
683.3360, 18826.00
684.4940, 17993.00
685.6520, 17140.00
686.8090, 16802.00
687.9670, 16297.00
689.1240, 16177.00
690.2810, 15995.00
691.4380, 16006.00
692.5950, 16306.00
693.7520, 16447.00
694.9080, 16948.00
696.0650, 17489.00
697.2210, 18222.00
698.3770, 19329.00
699.5330, 20551.00
700.6880, 22064.00
701.8440, 24002.00
702.9990, 26270.00
704.1550, 29071.00
705.3100, 32360.00
706.4650, 36150.00
707.6190, 40804.00
708.7740, 45611.00
709.9290, 50597.00
711.0830, 55185.00
712.2370, 58194.00
713.3910, 59785.00
714.5450, 59347.00
715.6980, 56423.00
716.8520, 52194.00
718.0050, 46856.00
719.1580, 41096.00
720.3110, 36474.00
721.4640, 32069.00
722.6170, 28477.00
723.7700, 25617.00
724.9220, 23044.00
726.0740, 20983.00
727.2260, 19733.00
728.3780, 18555.00
729.5300, 17515.00
730.6810, 16721.00
731.8330, 16246.00
732.9840, 15698.00
734.1350, 15288.00
735.2860, 14915.90
736.4370, 14604.00
737.5880, 14380.00
738.7380, 14220.00
739.8880, 14059.22
741.0390, 13941.00
742.1890, 13881.00
743.3380, 13892.00
744.4880, 13858.00
745.6380, 13844.00
746.7870, 13730.00
747.9360, 13808.00
749.0850, 13837.00
750.2340, 13919.00
751.3830, 14009.00
752.5310, 14170.88
753.6800, 14351.19
754.8280, 14567.00
755.9760, 14815.00
757.1240, 15041.00
758.2720, 15320.00
759.4190, 15746.00
760.5670, 16250.00
761.7140, 16704.00
762.8610, 17286.00
764.0080, 17691.00
765.1550, 18011.00
766.3020, 18015.00
767.4480, 17820.00
768.5950, 17593.00
769.7410, 17146.00
770.8870, 16804.00
772.0330, 16352.00
773.1780, 15661.00
774.3240, 15389.00
775.4690, 14756.00
776.6140, 14344.00
777.7590, 14077.00
778.9040, 13752.00
780.0490, 13695.00
781.1940, 13391.00
782.3380, 13375.00
783.4820, 13087.00
784.6260, 12854.00
785.7700, 12851.00
786.9140, 12871.00
788.0580, 12733.00
789.2010, 12493.00
790.3450, 12503.00
791.4880, 12510.00
792.6310, 12519.00
793.7730, 12597.00
794.9160, 12471.00
796.0590, 12350.00
797.2010, 12453.00
798.3430, 12574.00
799.4850, 12460.00
800.6270, 12604.00
801.7690, 12608.00
802.9100, 12824.00
804.0520, 12857.00
805.1930, 13161.00
806.3340, 13484.00
807.4750, 13818.00
808.6160, 14037.00
809.7560, 14346.00
810.8970, 14872.00
812.0370, 14793.00
813.1770, 15008.00
814.3170, 14913.00
815.4570, 14830.00
816.5960, 14560.00
817.7360, 14347.00
818.8750, 14024.00
820.0140, 13851.00
821.1530, 13770.00
822.2920, 13631.00
823.4310, 13481.00
824.5690, 13489.00
825.7070, 13402.00
826.8460, 13408.00
827.9840, 13375.92
829.1220, 13356.00
830.2590, 13349.00
831.3970, 13413.00
832.5340, 13445.00
833.6710, 13657.00
834.8080, 13544.00
835.9450, 13631.00
837.0820, 13675.00
838.2190, 13997.00
839.3550, 13905.00
840.4910, 13993.00
841.6270, 14331.00
842.7630, 14288.00
843.8990, 14359.00
845.0350, 14471.00
846.1700, 14826.00
847.3060, 14864.00
848.4410, 14974.00
849.5760, 15062.00
850.7100, 15177.00
851.8450, 15229.00
852.9800, 15379.00
854.1140, 15157.00
855.2480, 15107.00
856.3820, 15278.00
857.5160, 15086.00
858.6500, 15144.00
859.7830, 15455.00
860.9170, 15363.92
862.0500, 15520.97
863.1830, 15437.00
864.3160, 15646.00
865.4480, 15564.00
866.5810, 15568.00
867.7130, 15486.00
868.8460, 15776.00
869.9780, 15669.00
871.1100, 15692.00
872.2410, 15773.00
873.3730, 15764.00
874.5050, 15809.00
875.6360, 15880.00
876.7670, 15915.00
877.8980, 15916.00
879.0290, 15938.00
880.1590, 15991.00
881.2900, 16187.00
882.4200, 16349.00
883.5500, 16544.00
884.6800, 16832.00
885.8100, 16969.00
886.9400, 17477.00
888.0690, 17814.00
889.1990, 18464.00
890.3280, 19172.00
891.4570, 19822.00
892.5860, 20486.00
893.7140, 21423.00
894.8430, 22230.00
895.9710, 23328.00
897.1000, 24205.00
898.2280, 25073.00
899.3560, 26073.00
900.4830, 26621.00
901.6110, 26522.00
902.7380, 26663.00
903.8660, 26343.00
904.9930, 26046.00
906.1200, 25428.00
907.2460, 24792.00
908.3730, 24207.00
909.5000, 23543.00
910.6260, 22663.00
911.7520, 21982.00
912.8780, 21459.00
914.0040, 20808.00
915.1290, 20462.00
916.2550, 19872.00
917.3800, 19682.00
918.5050, 19552.00
919.6300, 19350.00
920.7550, 19164.00
921.8800, 19179.00
923.0040, 19296.00
924.1290, 19542.00
925.2530, 19700.00
926.3770, 20049.00
927.5010, 20206.00
928.6250, 20370.00
929.7480, 20647.00
930.8720, 20580.00
931.9950, 20744.76
933.1180, 21008.00
934.2410, 20964.00
935.3640, 21225.00
936.4860, 21560.00
937.6090, 21807.00
938.7310, 22313.00
939.8530, 23160.00
940.9750, 23731.00
942.0970, 24816.00
943.2180, 25888.00
944.3400, 27583.00
945.4610, 29037.00
946.5820, 30808.00
947.7030, 32739.00
948.8240, 34488.00
949.9450, 36559.00
951.0650, 38086.00
952.1860, 39537.00
953.3060, 41058.00
954.4260, 42241.00
955.5460, 44089.00
956.6650, 45683.00
957.7850, 47749.00
958.9040, 50334.00
960.0230, 53095.00
961.1420, 55339.00
962.2610, 57350.00
963.3800, 57262.00
964.4990, 56587.00
965.6170, 54438.00
966.7350, 51888.00
967.8530, 48557.00
968.9710, 45828.00
970.0890, 43365.00
971.2070, 41245.00
972.3240, 40340.00
973.4410, 39553.00
974.5580, 39290.00
975.6750, 39126.00
976.7920, 39360.00
977.9090, 39068.00
979.0250, 39034.00
980.1410, 38251.00
981.2580, 37372.00
982.3740, 36415.00
983.4890, 35337.00
984.6050, 34386.00
985.7200, 33678.00
986.8360, 33170.00
987.9510, 32920.00
989.0660, 32089.00
990.1810, 32036.00
991.2950, 31674.00
992.4100, 31581.00
993.5240, 31690.00
994.6390, 31937.00
995.7530, 32019.00
996.8660, 32188.00
997.9800, 32978.00
999.0940, 33766.00
1000.207, 34428.00
1001.320, 34740.00
1002.433, 35321.00
1003.546, 35369.00
1004.659, 34912.00
1005.772, 33918.00
1006.884, 32984.00
1007.996, 31639.00
1009.108, 30000.00
1010.220, 28571.00
1011.332, 27163.00
1012.444, 25605.00
1013.555, 24371.00
1014.666, 23588.00
1015.777, 22552.00
1016.888, 21858.00
1017.999, 21397.00
1019.110, 20985.00
1020.220, 20651.00
1021.331, 20559.00
1022.441, 20244.00
1023.551, 20341.00
1024.661, 20307.00
1025.770, 20204.00
1026.880, 20087.42
1027.989, 19955.00
1029.098, 19636.00
1030.207, 19523.00
1031.316, 19178.00
1032.425, 18831.00
1033.533, 18896.00
1034.642, 18655.00
1035.750, 18673.00
1036.858, 18614.00
1037.966, 18805.00
1039.073, 18780.00
1040.181, 18890.00
1041.288, 19145.00
1042.396, 19300.00
1043.503, 19415.00
1044.610, 19422.00
1045.716, 19685.00
1046.823, 19778.00
1047.929, 20450.00
1049.036, 20741.00
1050.142, 21177.00
1051.248, 21671.00
1052.353, 21937.00
1053.459, 22511.00
1054.564, 22750.00
1055.670, 23163.00
1056.775, 23225.00
1057.880, 23329.00
1058.985, 23280.00
1060.089, 23025.73
1061.194, 22496.00
1062.298, 22196.00
1063.402, 21711.00
1064.506, 20973.00
1065.610, 20346.00
1066.713, 19684.00
1067.817, 19481.00
1068.920, 19237.00
1070.023, 19288.00
1071.126, 19234.00
1072.229, 18876.00
1073.332, 18983.00
1074.435, 19313.00
1075.537, 19629.00
1076.639, 20021.00
1077.741, 20642.00
1078.843, 21092.00
1079.945, 21100.00
1081.046, 21508.00
1082.148, 21573.00
1083.249, 21581.00
1084.350, 21090.00
1085.451, 20834.00
1086.551, 20203.00
1087.652, 19444.00
1088.752, 19204.00
1089.853, 18680.00
1090.953, 18566.00
1092.053, 18293.00
1093.152, 18343.00
1094.252, 18236.00
1095.351, 18242.00
1096.451, 18333.00
1097.550, 18467.00
1098.649, 18591.00
1099.748, 18955.00
1100.846, 19258.00
1101.945, 19592.00
1103.043, 19825.00
1104.141, 19936.58
1105.239, 19903.05
1106.337, 19976.00
1107.434, 19611.00
1108.532, 19438.00
1109.629, 19289.00
1110.726, 19037.00
1111.823, 18712.00
1112.920, 18424.00
1114.017, 18214.00
1115.113, 17909.00
1116.210, 17941.00
1117.306, 17684.00
1118.402, 17673.00
1119.498, 17517.00
1120.593, 17439.00
1121.689, 17369.00
1122.784, 17269.00
1123.879, 17145.22
1124.974, 16964.24
1126.069, 16873.00
1127.164, 16714.00
1128.259, 16588.63
1129.353, 16384.00
1130.447, 16264.00
1131.541, 16212.00
1132.635, 16018.00
1133.729, 16029.00
1134.822, 15979.00
1135.916, 15810.00
1137.009, 15806.00
1138.102, 15794.00
1139.195, 15619.00
1140.288, 15636.00
1141.380, 15598.00
1142.473, 15754.00
1143.565, 15475.00
1144.657, 15689.00
1145.749, 15692.00
1146.841, 15556.00
1147.932, 15553.00
1149.024, 15516.00
1150.115, 15438.00
1151.206, 15409.00
1152.297, 15467.00
1153.388, 15398.00
1154.479, 15443.00
1155.569, 15429.33
1156.659, 15403.04
1157.750, 15428.00
1158.839, 15366.00
1159.929, 15387.00
1161.019, 15374.00
1162.108, 15382.00
1163.198, 15286.00
1164.287, 15302.00
1165.376, 15340.00
1166.465, 15457.00
1167.553, 15525.00
1168.642, 15409.00
1169.730, 15471.00
1170.818, 15242.00
1171.906, 15302.00
1172.994, 15341.00
1174.082, 15387.00
1175.170, 15352.00
1176.257, 15362.00
1177.344, 15387.00
1178.431, 15333.00
1179.518, 15385.35
1180.605, 15363.00
1181.691, 15435.00
1182.778, 15409.00
1183.864, 15400.00
1184.950, 15363.00
1186.036, 15402.00
1187.122, 15385.36
1188.207, 15416.43
1189.292, 15382.00
1190.378, 15483.00
1191.463, 15462.00
1192.548, 15484.00
1193.632, 15766.00
1194.717, 16269.00
1195.801, 16369.00
1196.886, 16387.00
1197.970, 16461.00
1199.054, 15595.00
1200.137, 15528.00
1201.221, 15489.00
1202.305, 15487.00
1203.388, 15347.00
1204.471, 15515.00
1205.554, 15582.00
1206.637, 15524.00
1207.719, 15479.00
1208.802, 15580.00
1209.884, 15563.00
1210.966, 15648.00
1212.048, 15521.00
1213.130, 15527.00
1214.212, 15682.00
1215.293, 15569.00
1216.374, 15664.90
1217.456, 15626.00
1218.536, 15736.00
1219.617, 15679.00
1220.698, 15692.00
1221.778, 15683.00
1222.859, 15723.00
1223.939, 15801.00
1225.019, 15658.00
1226.099, 15916.00
1227.178, 15678.00
1228.258, 15676.00
1229.337, 15829.00
1230.417, 15749.00
1231.496, 15886.00
1232.574, 15778.00
1233.653, 15810.00
1234.732, 15670.00
