##NAMES=Axinite-(Fe)
##RRUFFID=R060183
##IDEAL CHEMISTRY=Ca_4_Fe^2+^_2_Al_4_[B_2_Si_8_O_30_](OH)_2_
##LOCALITY=Skagit Bluffs, near Manning Park, British Columbia, Canada
##OWNER=RRUFF
##SOURCE=Lloyd Twaites
##DESCRIPTION=Light-pink transparent axe-head-shaped single crystal
##STATUS=The identification of this mineral has been confirmed by X-ray diffraction and chemical analysis
##URL=rruff.info/R060183
##MEASURED CHEMISTRY=Ca_2.00_(Fe^2+^_0.58_Mn_0.23_Mg_0.19_)Al_2.00_B_1.00_Si_4.00_O_15_(OH)
##PIN_ID=L00943
##ORIENTATION=Laser parallel to c* (0 0 1). Fiducial mark perpendicular to laser is parallel to a [1 0 0]
52.67100, 837.0000
53.91000, 852.0000
55.14900, 785.0000
56.38700, 764.0000
57.62600, 800.0000
58.86400, 835.0000
60.10300, 825.0000
61.34100, 867.0000
62.57900, 845.0000
63.81700, 830.0000
65.05400, 832.0000
66.29200, 832.0000
67.52900, 921.0000
68.76700, 1013.000
70.00400, 1274.000
71.24100, 1359.000
72.47700, 1278.000
73.71400, 1225.000
74.95100, 1355.000
76.18700, 1581.000
77.42300, 1718.000
78.65900, 1735.000
79.89500, 1742.000
81.13100, 1958.000
82.36700, 2180.000
83.60200, 2584.000
84.83700, 2913.000
86.07200, 3043.000
87.30800, 3223.000
88.54200, 3479.000
89.77700, 3918.000
91.01200, 4458.000
92.24600, 5029.646
93.48000, 5741.269
94.71400, 6505.000
95.94800, 7399.000
97.18200, 8372.000
98.41600, 9432.000
99.64900, 10871.00
100.8830, 12368.00
102.1160, 13342.00
103.3490, 14623.00
104.5820, 15881.00
105.8150, 18009.00
107.0470, 20660.00
108.2800, 24175.00
109.5120, 26462.00
110.7440, 24454.00
111.9760, 21219.00
113.2080, 18495.00
114.4400, 16016.00
115.6710, 14293.00
116.9030, 12556.00
118.1340, 11164.00
119.3650, 10110.00
120.5960, 9183.000
121.8270, 8834.000
123.0580, 8445.000
124.2880, 8349.000
125.5190, 8018.000
126.7490, 7778.000
127.9790, 7822.000
129.2090, 7621.000
130.4390, 7886.000
131.6680, 7879.000
132.8980, 8206.000
134.1270, 8687.000
135.3560, 9266.000
136.5850, 10048.00
137.8140, 11154.00
139.0430, 11956.00
140.2710, 12635.00
141.5000, 12997.00
142.7280, 12846.00
143.9560, 12848.00
145.1840, 12851.00
146.4120, 13368.00
147.6390, 14332.00
148.8670, 15102.00
150.0940, 15866.00
151.3210, 15996.00
152.5490, 15571.00
153.7750, 14437.00
155.0020, 12931.00
156.2290, 11881.00
157.4550, 10949.00
158.6810, 10430.00
159.9080, 10066.31
161.1340, 9945.000
162.3590, 10148.00
163.5850, 10626.00
164.8110, 11317.00
166.0360, 12472.00
167.2610, 13572.00
168.4860, 15231.00
169.7110, 16655.00
170.9360, 18161.00
172.1610, 18699.00
173.3850, 17979.00
174.6100, 16897.00
175.8340, 15573.00
177.0580, 14011.00
178.2820, 12681.00
179.5050, 11360.00
180.7290, 10355.00
181.9520, 9450.000
183.1760, 8804.000
184.3990, 8461.000
185.6220, 8365.000
186.8450, 8369.000
188.0670, 8698.209
189.2900, 9203.000
190.5120, 9877.000
191.7340, 10793.00
192.9560, 11790.00
194.1780, 12463.00
195.4000, 12606.00
196.6220, 12425.00
197.8430, 12242.00
199.0640, 12275.00
200.2860, 12459.00
201.5070, 13427.00
202.7270, 14566.00
203.9480, 15849.00
205.1690, 16761.00
206.3890, 17660.00
207.6090, 18554.00
208.8290, 18985.00
210.0490, 19433.00
211.2690, 19050.00
212.4890, 18338.00
213.7080, 17797.00
214.9280, 17338.00
216.1470, 16399.00
217.3660, 15838.00
218.5850, 15274.00
219.8030, 14474.00
221.0220, 13169.00
222.2400, 11920.00
223.4590, 10877.00
224.6770, 9658.000
225.8950, 8777.000
227.1120, 8049.000
228.3300, 7404.000
229.5480, 7108.000
230.7650, 6969.000
231.9820, 6916.000
233.1990, 6907.000
234.4160, 7134.000
235.6330, 7109.000
236.8490, 7586.000
238.0660, 7794.000
239.2820, 8371.000
240.4980, 8788.000
241.7140, 9238.000
242.9300, 9676.000
244.1460, 9966.000
245.3610, 10179.00
246.5770, 10643.00
247.7920, 10700.00
249.0070, 11170.00
250.2220, 11726.00
251.4370, 12372.00
252.6510, 13178.00
253.8660, 13961.00
255.0800, 14689.00
256.2940, 15043.00
257.5080, 15076.00
258.7220, 15487.00
259.9360, 15943.00
261.1490, 15465.00
262.3630, 15307.00
263.5760, 15694.00
264.7890, 16667.00
266.0020, 17563.00
267.2150, 18934.00
268.4270, 20384.00
269.6400, 21839.00
270.8520, 23267.00
272.0640, 24571.00
273.2760, 25488.00
274.4880, 26085.00
275.7000, 25922.00
276.9120, 25523.00
278.1230, 24514.00
279.3340, 23022.00
280.5450, 21820.00
281.7560, 20434.00
282.9670, 19217.00
284.1780, 18278.00
285.3880, 17898.00
286.5980, 17275.00
287.8090, 17081.00
289.0190, 16982.00
290.2290, 16682.00
291.4380, 16757.00
292.6480, 16718.00
293.8570, 16937.00
295.0670, 17114.00
296.2760, 17263.00
297.4850, 17241.00
298.6930, 17708.00
299.9020, 18065.00
301.1110, 18699.00
302.3190, 19482.00
303.5270, 20482.00
304.7350, 21259.00
305.9430, 22187.00
307.1510, 22387.00
308.3580, 21801.00
309.5660, 20540.00
310.7730, 19671.00
311.9800, 18808.00
313.1870, 18373.00
314.3940, 18223.00
315.6010, 18777.00
316.8070, 19686.00
318.0130, 20416.00
319.2200, 21071.00
320.4260, 21290.00
321.6310, 20523.00
322.8370, 19471.00
324.0430, 18349.00
325.2480, 17221.00
326.4540, 16402.00
327.6590, 15799.00
328.8640, 15570.00
330.0680, 15230.19
331.2730, 15285.00
332.4780, 15279.00
333.6820, 15521.00
334.8860, 16090.00
336.0900, 16850.00
337.2940, 18149.00
338.4980, 19514.00
339.7010, 21257.00
340.9050, 23004.00
342.1080, 24638.00
343.3110, 25418.00
344.5140, 25546.00
345.7170, 24996.00
346.9200, 23745.00
348.1220, 22525.00
349.3240, 21345.00
350.5270, 20436.00
351.7290, 19356.00
352.9310, 17987.00
354.1320, 16140.00
355.3340, 14291.00
356.5350, 12569.00
357.7370, 11085.00
358.9380, 9882.610
360.1390, 8832.000
361.3400, 8126.000
362.5400, 7671.000
363.7410, 7387.000
364.9410, 7123.000
366.1410, 6969.000
367.3410, 7038.000
368.5410, 6978.000
369.7410, 7151.000
370.9400, 7190.000
372.1400, 7406.000
373.3390, 7575.000
374.5380, 7660.000
375.7370, 7710.000
376.9360, 7935.000
378.1350, 8389.000
379.3330, 8737.000
380.5310, 9358.000
381.7300, 10348.00
382.9280, 11321.00
384.1260, 12700.00
385.3230, 14046.00
386.5210, 15767.00
387.7180, 17647.00
388.9160, 18880.00
390.1130, 19638.00
391.3100, 19579.00
392.5060, 18914.00
393.7030, 17599.00
394.9000, 16161.00
396.0960, 14614.00
397.2920, 13052.00
398.4880, 12044.00
399.6840, 11226.00
400.8800, 10695.00
402.0750, 9918.000
403.2710, 9408.000
404.4660, 9316.000
405.6610, 9389.000
406.8560, 9683.000
408.0510, 10146.00
409.2450, 10830.00
410.4400, 11890.00
411.6340, 13247.00
412.8280, 15077.00
414.0220, 17364.00
415.2160, 19589.00
416.4100, 21488.00
417.6030, 22658.00
418.7970, 22490.00
419.9900, 21916.00
421.1830, 21176.00
422.3760, 20579.00
423.5690, 20021.00
424.7610, 19484.00
425.9540, 18948.00
427.1460, 18347.00
428.3380, 17357.00
429.5300, 16927.00
430.7220, 16471.00
431.9140, 14958.00
433.1050, 14218.00
434.2970, 12924.00
435.4880, 12282.00
436.6790, 11853.00
437.8700, 11607.00
439.0610, 11781.00
440.2510, 12202.00
441.4420, 13033.00
442.6320, 13561.00
443.8220, 14509.00
445.0120, 14409.00
446.2020, 13872.00
447.3910, 12992.00
448.5810, 11590.00
449.7700, 10463.00
450.9600, 9403.000
452.1490, 8728.000
453.3370, 7933.000
454.5260, 7587.000
455.7150, 7290.000
456.9030, 7013.000
458.0910, 6839.000
459.2800, 6704.000
460.4670, 6542.000
461.6550, 6532.000
462.8430, 6577.000
464.0300, 6678.000
465.2180, 6843.000
466.4050, 7153.000
467.5920, 7474.000
468.7790, 7630.000
469.9650, 7880.000
471.1520, 8263.000
472.3380, 8606.000
473.5250, 8886.000
474.7110, 9528.000
475.8970, 10332.00
477.0820, 11622.00
478.2680, 13052.00
479.4540, 14838.00
480.6390, 17532.00
481.8240, 20355.00
483.0090, 23091.00
484.1940, 25268.00
485.3780, 25671.00
486.5630, 24056.00
487.7470, 21212.00
488.9320, 18219.00
490.1160, 15474.00
491.3000, 12880.00
492.4830, 11270.00
493.6670, 9962.000
494.8500, 9081.000
496.0340, 8643.000
497.2170, 8414.000
498.4000, 8271.000
499.5820, 8253.000
500.7650, 8440.000
501.9480, 8588.000
503.1300, 8955.000
504.3120, 9282.000
505.4940, 9452.000
506.6760, 9605.000
507.8580, 9758.000
509.0390, 9677.000
510.2210, 9754.000
511.4020, 9485.000
512.5830, 9125.000
513.7640, 8787.000
514.9450, 8214.000
516.1250, 7700.000
517.3060, 7162.000
518.4860, 6805.000
519.6660, 6457.000
520.8460, 6004.000
522.0260, 5880.000
523.2060, 5667.000
524.3850, 5500.000
525.5650, 5485.000
526.7440, 5434.000
527.9230, 5405.000
529.1020, 5508.000
530.2810, 5590.000
531.4590, 5746.000
532.6380, 5831.000
533.8160, 5855.000
534.9940, 5948.000
536.1720, 6093.000
537.3500, 5957.000
538.5270, 6030.000
539.7050, 5941.000
540.8820, 5840.000
542.0590, 5776.000
543.2360, 5772.000
544.4130, 5770.000
545.5900, 5683.000
546.7660, 5631.000
547.9430, 5694.000
549.1190, 5744.000
550.2950, 5776.000
551.4710, 5775.000
552.6470, 5954.000
553.8220, 6007.000
554.9980, 6253.000
556.1730, 6563.000
557.3480, 6846.000
558.5230, 6983.000
559.6980, 7402.000
560.8730, 7736.000
562.0470, 7708.000
563.2220, 7870.000
564.3960, 8034.000
565.5700, 8339.000
566.7440, 8562.000
567.9170, 8839.000
569.0910, 9223.000
570.2640, 9766.000
571.4380, 10264.00
572.6110, 10522.00
573.7840, 10853.00
574.9570, 10607.00
576.1290, 10398.00
577.3020, 10250.00
578.4740, 9871.000
579.6460, 9594.000
580.8180, 9267.000
581.9900, 9117.000
583.1620, 9277.000
584.3330, 9291.000
585.5040, 9731.000
586.6760, 9985.000
587.8470, 10176.00
589.0180, 10146.86
590.1880, 9876.000
591.3590, 9685.000
592.5290, 9147.000
593.7000, 8538.000
594.8700, 7884.000
596.0400, 7480.000
597.2090, 7088.000
598.3790, 6720.000
599.5490, 6576.000
600.7180, 6519.000
601.8870, 6439.000
603.0560, 6585.000
604.2250, 6647.000
605.3940, 6817.000
606.5620, 7101.000
607.7300, 7561.000
608.8990, 8195.000
610.0670, 8837.000
611.2350, 9495.000
612.4020, 10315.00
613.5700, 11019.00
614.7370, 11942.00
615.9050, 12434.00
617.0720, 13130.00
618.2390, 13568.00
619.4060, 13865.00
620.5720, 13652.00
621.7390, 12900.00
622.9050, 12049.00
624.0710, 10748.00
625.2370, 9550.000
626.4030, 8589.000
627.5690, 7819.000
628.7340, 7090.000
629.9000, 6799.000
631.0650, 6499.000
632.2300, 6404.000
633.3950, 6351.000
634.5600, 6428.000
635.7240, 6511.000
636.8890, 6748.000
638.0530, 6965.000
639.2170, 7270.000
640.3810, 7633.000
641.5450, 7916.000
642.7080, 8108.000
643.8720, 8349.000
645.0350, 8264.000
646.1980, 8178.000
647.3610, 7944.000
648.5240, 7531.000
649.6870, 7262.000
650.8490, 6898.000
652.0120, 6490.000
653.1740, 6267.000
654.3360, 6104.000
655.4980, 5889.000
656.6600, 5803.000
657.8210, 5777.000
658.9830, 5675.000
660.1440, 5644.000
661.3050, 5783.000
662.4660, 5887.000
663.6270, 6058.000
664.7870, 6394.000
665.9480, 6717.000
667.1080, 7045.000
668.2680, 7516.000
669.4280, 8098.000
670.5880, 8862.000
671.7480, 9799.000
672.9070, 10982.00
674.0670, 11936.00
675.2260, 12992.00
676.3850, 13800.00
677.5440, 14117.00
678.7030, 14188.00
679.8610, 13627.00
681.0200, 12931.00
682.1780, 12030.00
683.3360, 11091.00
684.4940, 10199.00
685.6520, 9433.000
686.8090, 8959.000
687.9670, 8539.000
689.1240, 8344.000
690.2810, 8248.000
691.4380, 8279.000
692.5950, 8331.000
693.7520, 8624.000
694.9080, 8767.000
696.0650, 9223.000
697.2210, 9579.000
698.3770, 10471.00
699.5330, 11268.00
700.6880, 12463.00
701.8440, 13955.00
702.9990, 15674.00
704.1550, 18006.00
705.3100, 20769.00
706.4650, 23878.00
707.6190, 27670.00
708.7740, 32133.00
709.9290, 37232.00
711.0830, 42326.00
712.2370, 46980.00
713.3910, 51365.00
714.5450, 53276.00
715.6980, 53495.00
716.8520, 52120.00
718.0050, 47592.00
719.1580, 42874.00
720.3110, 37550.00
721.4640, 32252.00
722.6170, 27804.00
723.7700, 23441.00
724.9220, 20305.00
726.0740, 17609.00
727.2260, 15479.00
728.3780, 13695.00
729.5300, 12300.00
730.6810, 11303.00
731.8330, 10425.00
732.9840, 9764.000
734.1350, 9095.000
735.2860, 8548.000
736.4370, 8183.000
737.5880, 7901.000
738.7380, 7703.000
739.8880, 7441.654
741.0390, 7289.503
742.1890, 7080.000
743.3380, 7020.000
744.4880, 6933.000
745.6380, 6833.000
746.7870, 6845.000
747.9360, 6823.387
749.0850, 6863.217
750.2340, 6908.000
751.3830, 7021.000
752.5310, 7143.000
753.6800, 7272.000
754.8280, 7394.000
755.9760, 7718.000
757.1240, 7985.000
758.2720, 8325.000
759.4190, 8527.000
760.5670, 8975.000
761.7140, 9529.000
762.8610, 9916.000
764.0080, 10150.00
765.1550, 10627.00
766.3020, 10805.00
767.4480, 10880.00
768.5950, 10588.00
769.7410, 10571.44
770.8870, 10131.13
772.0330, 10023.00
773.1780, 9190.000
774.3240, 8537.000
775.4690, 8090.000
776.6140, 7581.000
777.7590, 7241.000
778.9040, 7007.000
780.0490, 6745.000
781.1940, 6429.000
782.3380, 6284.000
783.4820, 6039.000
784.6260, 5909.000
785.7700, 5745.000
786.9140, 5648.000
788.0580, 5576.000
789.2010, 5599.000
790.3450, 5478.000
791.4880, 5464.000
792.6310, 5431.000
793.7730, 5363.000
794.9160, 5378.000
796.0590, 5270.000
797.2010, 5236.000
798.3430, 5178.000
799.4850, 5199.964
800.6270, 5201.776
801.7690, 5271.000
802.9100, 5356.000
804.0520, 5355.000
805.1930, 5627.000
806.3340, 5699.000
807.4750, 5946.000
808.6160, 6251.000
809.7560, 6562.000
810.8970, 6923.000
812.0370, 7136.000
813.1770, 7359.000
814.3170, 7410.000
815.4570, 7282.000
816.5960, 7048.000
817.7360, 6868.000
818.8750, 6670.000
820.0140, 6323.000
821.1530, 6213.000
822.2920, 5993.000
823.4310, 5795.000
824.5690, 5796.000
825.7070, 5607.000
826.8460, 5675.000
827.9840, 5605.000
829.1220, 5662.000
830.2590, 5584.000
831.3970, 5600.000
832.5340, 5633.000
833.6710, 5720.000
834.8080, 5739.000
835.9450, 5808.000
837.0820, 5851.000
838.2190, 5973.000
839.3550, 6083.065
840.4910, 6140.000
841.6270, 6373.000
842.7630, 6524.000
843.8990, 6695.000
845.0350, 6758.000
846.1700, 7024.000
847.3060, 7113.000
848.4410, 7297.000
849.5760, 7389.000
850.7100, 7521.000
851.8450, 7554.000
852.9800, 7617.000
854.1140, 7442.000
855.2480, 7417.000
856.3820, 7286.000
857.5160, 7324.000
858.6500, 7245.000
859.7830, 7233.198
860.9170, 7225.339
862.0500, 7254.000
863.1830, 7194.000
864.3160, 7266.000
865.4480, 7246.000
866.5810, 7299.719
867.7130, 7396.000
868.8460, 7436.000
869.9780, 7531.000
871.1100, 7631.000
872.2410, 7671.000
873.3730, 7788.000
874.5050, 7874.000
875.6360, 7936.000
876.7670, 8153.000
877.8980, 8170.000
879.0290, 8187.000
880.1590, 8450.000
881.2900, 8613.000
882.4200, 8779.000
883.5500, 9002.000
884.6800, 9302.000
885.8100, 9664.000
886.9400, 9883.000
888.0690, 10457.00
889.1990, 10831.00
890.3280, 11401.00
891.4570, 12236.00
892.5860, 12869.00
893.7140, 13883.00
894.8430, 14639.00
895.9710, 15759.00
897.1000, 16608.00
898.2280, 17344.00
899.3560, 18064.00
900.4830, 18464.00
901.6110, 18540.00
902.7380, 18703.00
903.8660, 18674.00
904.9930, 18252.00
906.1200, 18076.00
907.2460, 17568.00
908.3730, 17136.00
909.5000, 16388.00
910.6260, 15981.00
911.7520, 15453.00
912.8780, 14776.00
914.0040, 14137.00
915.1290, 13606.00
916.2550, 13012.00
917.3800, 12559.00
918.5050, 12297.00
919.6300, 11844.00
920.7550, 11717.00
921.8800, 11471.00
923.0040, 11410.00
924.1290, 11433.00
925.2530, 11504.00
926.3770, 11677.00
927.5010, 11875.00
928.6250, 12011.00
929.7480, 12254.00
930.8720, 12374.00
931.9950, 12360.00
933.1180, 12216.00
934.2410, 12452.00
935.3640, 12594.00
936.4860, 12523.00
937.6090, 12731.00
938.7310, 13026.00
939.8530, 13383.00
940.9750, 14060.00
942.0970, 14776.00
943.2180, 15690.00
944.3400, 16632.00
945.4610, 17854.00
946.5820, 18998.00
947.7030, 20815.00
948.8240, 22395.00
949.9450, 24203.00
951.0650, 25717.00
952.1860, 27381.00
953.3060, 28529.00
954.4260, 30171.00
955.5460, 31479.00
956.6650, 33662.00
957.7850, 34937.00
958.9040, 37107.00
960.0230, 39060.00
961.1420, 41416.00
962.2610, 43481.00
963.3800, 44826.00
964.4990, 44831.00
965.6170, 44292.00
966.7350, 42539.00
967.8530, 40334.00
968.9710, 37977.00
970.0890, 36050.00
971.2070, 34465.00
972.3240, 33561.00
973.4410, 33002.00
974.5580, 33418.00
975.6750, 33943.00
976.7920, 35056.00
977.9090, 35910.00
979.0250, 36570.00
980.1410, 36433.00
981.2580, 36263.00
982.3740, 35225.00
983.4890, 33776.00
984.6050, 32064.00
985.7200, 30821.00
986.8360, 29537.00
987.9510, 28072.00
989.0660, 27152.00
990.1810, 26451.00
991.2950, 25911.00
992.4100, 25255.00
993.5240, 25064.00
994.6390, 24491.00
995.7530, 24230.00
996.8660, 24366.00
997.9800, 24046.00
999.0940, 24139.00
1000.207, 24747.00
1001.320, 25285.00
1002.433, 25516.00
1003.546, 25640.40
1004.659, 25883.00
1005.772, 25232.00
1006.884, 24621.00
1007.996, 23774.00
1009.108, 22136.00
1010.220, 20548.00
1011.332, 19183.00
1012.444, 17400.00
1013.555, 15933.00
1014.666, 14649.00
1015.777, 13717.00
1016.888, 12715.00
1017.999, 11947.00
1019.110, 11238.00
1020.220, 10630.00
1021.331, 10365.00
1022.441, 9983.000
1023.551, 9668.000
1024.661, 9678.000
1025.770, 9550.000
1026.880, 9354.569
1027.989, 9342.000
1029.098, 9021.000
1030.207, 8786.000
1031.316, 8602.000
1032.425, 8306.000
1033.533, 8166.000
1034.642, 7877.000
1035.750, 7742.000
1036.858, 7539.000
1037.966, 7565.000
1039.073, 7335.000
1040.181, 7303.000
1041.288, 7371.000
1042.396, 7218.000
1043.503, 7199.000
1044.610, 7210.000
1045.716, 7286.000
1046.823, 7337.000
1047.929, 7384.000
1049.036, 7452.592
1050.142, 7539.692
1051.248, 7602.000
1052.353, 7718.000
1053.459, 7856.000
1054.564, 7907.000
1055.670, 7943.000
1056.775, 8119.000
1057.880, 8095.000
1058.985, 8040.000
1060.089, 8208.000
1061.194, 8002.000
1062.298, 8098.000
1063.402, 7716.000
1064.506, 7572.000
1065.610, 7397.000
1066.713, 7351.000
1067.817, 7208.000
1068.920, 7042.000
1070.023, 7135.000
1071.126, 7133.000
1072.229, 7120.000
1073.332, 7330.000
1074.435, 7313.000
1075.537, 7633.000
1076.639, 7809.000
1077.741, 8227.000
1078.843, 8538.000
1079.945, 8955.000
1081.046, 9265.000
1082.148, 9496.000
1083.249, 9765.000
1084.350, 9845.000
1085.451, 9644.000
1086.551, 9333.000
1087.652, 8941.000
1088.752, 8602.000
1089.853, 8275.000
1090.953, 8005.000
1092.053, 7661.000
1093.152, 7526.000
1094.252, 7371.000
1095.351, 7291.805
1096.451, 7344.000
1097.550, 7361.000
1098.649, 7517.000
1099.748, 7756.000
1100.846, 7953.000
1101.945, 8097.000
1103.043, 8362.000
1104.141, 8526.000
1105.239, 8710.000
1106.337, 8730.234
1107.434, 8677.000
1108.532, 8591.000
1109.629, 8413.000
1110.726, 8136.000
1111.823, 7990.000
1112.920, 7739.000
1114.017, 7497.000
1115.113, 7208.000
1116.210, 7004.000
1117.306, 6818.000
1118.402, 6647.000
1119.498, 6494.424
1120.593, 6360.063
1121.689, 6247.035
1122.784, 6141.000
1123.879, 6076.000
1124.974, 5936.000
1126.069, 5838.000
1127.164, 5834.000
1128.259, 5791.000
1129.353, 5673.000
1130.447, 5640.000
1131.541, 5549.000
1132.635, 5505.000
1133.729, 5473.557
1134.822, 5410.000
1135.916, 5400.000
1137.009, 5334.000
1138.102, 5247.000
1139.195, 5237.000
1140.288, 5249.000
1141.380, 5079.000
1142.473, 5132.000
1143.565, 5217.000
1144.657, 5073.000
1145.749, 5107.000
1146.841, 5076.000
1147.932, 5037.713
1149.024, 5070.000
1150.115, 4936.000
1151.206, 5014.000
1152.297, 4805.000
1153.388, 4909.000
1154.479, 4905.000
1155.569, 4853.000
1156.659, 4799.000
1157.750, 4910.000
1158.839, 4872.000
1159.929, 4807.000
1161.019, 4849.000
1162.108, 4765.000
1163.198, 4792.000
1164.287, 4808.000
1165.376, 4657.000
1166.465, 4713.000
1167.553, 4701.000
1168.642, 4703.000
1169.730, 4738.000
1170.818, 4638.000
1171.906, 4646.000
1172.994, 4601.000
1174.082, 4609.000
1175.170, 4660.000
1176.257, 4559.000
1177.344, 4634.000
1178.431, 4557.000
1179.518, 4624.000
1180.605, 4593.105
1181.691, 4609.000
1182.778, 4590.000
1183.864, 4557.000
1184.950, 4563.145
1186.036, 4559.000
1187.122, 4544.000
1188.207, 4540.000
1189.292, 4521.774
1190.378, 4486.000
1191.463, 4536.000
1192.548, 4521.000
1193.632, 4519.000
1194.717, 4474.000
1195.801, 4536.000
1196.886, 4529.000
1197.970, 4507.000
1199.054, 4527.000
1200.137, 4484.000
1201.221, 4518.000
1202.305, 4498.000
1203.388, 4535.000
1204.471, 4438.000
1205.554, 4514.000
1206.637, 4520.000
1207.719, 4438.000
1208.802, 4495.000
1209.884, 4536.000
1210.966, 4471.000
1212.048, 4460.000
1213.130, 4471.000
1214.212, 4502.000
1215.293, 4378.000
1216.374, 4422.000
1217.456, 4409.000
1218.536, 4410.000
1219.617, 4401.000
1220.698, 4415.000
1221.778, 4410.000
1222.859, 4439.000
1223.939, 4432.937
1225.019, 4380.000
1226.099, 4428.000
1227.178, 4399.662
1228.258, 4384.000
1229.337, 4431.000
1230.417, 4382.000
1231.496, 4421.000
1232.574, 4326.000
1233.653, 4371.000
1234.732, 4490.000
