##NAMES=Axinite-(Fe)
##RRUFFID=R060183
##IDEAL CHEMISTRY=Ca_4_Fe^2+^_2_Al_4_[B_2_Si_8_O_30_](OH)_2_
##LOCALITY=Skagit Bluffs, near Manning Park, British Columbia, Canada
##OWNER=RRUFF
##SOURCE=Lloyd Twaites
##DESCRIPTION=Light-pink transparent axe-head-shaped single crystal
##STATUS=The identification of this mineral has been confirmed by X-ray diffraction and chemical analysis
##URL=rruff.info/R060183
##MEASURED CHEMISTRY=Ca_2.00_(Fe^2+^_0.58_Mn_0.23_Mg_0.19_)Al_2.00_B_1.00_Si_4.00_O_15_(OH)
##PIN_ID=L01743
##ORIENTATION=Laser parallel to (0 1 1). Fiducial mark perpendicular to laser is parallel to -a [-1 0 0]
52.67100, 1473.000
53.91000, 1431.000
55.14900, 1400.000
56.38700, 1392.000
57.62600, 1365.000
58.86400, 1411.000
60.10300, 1375.000
61.34100, 1401.000
62.57900, 1438.000
63.81700, 1419.000
65.05400, 1430.000
66.29200, 1539.000
67.52900, 1619.000
68.76700, 1817.000
70.00400, 2117.000
71.24100, 2329.000
72.47700, 2381.000
73.71400, 2662.057
74.95100, 2773.000
76.18700, 3051.000
77.42300, 3200.000
78.65900, 3361.000
79.89500, 3511.000
81.13100, 3826.000
82.36700, 4300.000
83.60200, 4826.000
84.83700, 5262.000
86.07200, 5431.000
87.30800, 5740.000
88.54200, 6329.000
89.77700, 7021.000
91.01200, 7996.000
92.24600, 9014.000
93.48000, 9983.000
94.71400, 10855.00
95.94800, 11978.00
97.18200, 13037.00
98.41600, 14340.00
99.64900, 15974.00
100.8830, 17600.00
102.1160, 19183.00
103.3490, 21011.00
104.5820, 23458.00
105.8150, 26712.00
107.0470, 29999.00
108.2800, 32308.00
109.5120, 32032.00
110.7440, 26910.00
111.9760, 22092.00
113.2080, 18771.00
114.4400, 16194.00
115.6710, 14570.00
116.9030, 12997.00
118.1340, 11792.00
119.3650, 10752.00
120.5960, 10030.00
121.8270, 9672.000
123.0580, 9594.000
124.2880, 9637.000
125.5190, 9396.000
126.7490, 9266.000
127.9790, 9469.000
129.2090, 9669.000
130.4390, 10108.00
131.6680, 10469.00
132.8980, 10616.00
134.1270, 11347.00
135.3560, 12040.00
136.5850, 12978.00
137.8140, 13847.00
139.0430, 14553.00
140.2710, 15092.00
141.5000, 14765.00
142.7280, 14800.00
143.9560, 14853.00
145.1840, 14901.00
146.4120, 15187.00
147.6390, 15838.00
148.8670, 16045.00
150.0940, 16012.00
151.3210, 15775.00
152.5490, 15463.00
153.7750, 14924.00
155.0020, 14727.00
156.2290, 14294.00
157.4550, 14080.00
158.6810, 14055.00
159.9080, 13988.00
161.1340, 14183.00
162.3590, 14633.00
163.5850, 15643.00
164.8110, 16797.00
166.0360, 18276.00
167.2610, 19876.00
168.4860, 21575.00
169.7110, 22990.00
170.9360, 23428.00
172.1610, 22842.00
173.3850, 21558.00
174.6100, 19775.00
175.8340, 18033.00
177.0580, 16256.00
178.2820, 14878.00
179.5050, 13573.00
180.7290, 12623.00
181.9520, 11906.00
183.1760, 11734.00
184.3990, 11726.00
185.6220, 11887.00
186.8450, 12282.00
188.0670, 12734.00
189.2900, 13528.00
190.5120, 15015.00
191.7340, 16295.00
192.9560, 17085.00
194.1780, 17256.00
195.4000, 17418.00
196.6220, 17682.00
197.8430, 18033.00
199.0640, 18666.00
200.2860, 20236.00
201.5070, 22006.00
202.7270, 24088.00
203.9480, 25925.00
205.1690, 26675.00
206.3890, 27198.00
207.6090, 27335.00
208.8290, 26998.00
210.0490, 25931.00
211.2690, 24917.00
212.4890, 23356.00
213.7080, 22033.00
214.9280, 20336.00
216.1470, 18736.00
217.3660, 17501.00
218.5850, 16203.00
219.8030, 15082.00
221.0220, 14007.00
222.2400, 13151.00
223.4590, 12192.00
224.6770, 11691.00
225.8950, 10999.00
227.1120, 10731.00
228.3300, 10278.00
229.5480, 10139.00
230.7650, 10059.00
231.9820, 10306.00
233.1990, 10258.00
234.4160, 10548.00
235.6330, 10805.00
236.8490, 11277.00
238.0660, 11827.00
239.2820, 12312.00
240.4980, 12940.00
241.7140, 13617.00
242.9300, 14025.00
244.1460, 14403.00
245.3610, 14904.00
246.5770, 15047.00
247.7920, 15458.00
249.0070, 15793.00
250.2220, 16310.00
251.4370, 16665.00
252.6510, 17095.00
253.8660, 17496.00
255.0800, 17594.00
256.2940, 17520.00
257.5080, 17477.00
258.7220, 18050.00
259.9360, 18563.00
261.1490, 18071.00
262.3630, 18489.00
263.5760, 19360.00
264.7890, 20718.00
266.0020, 22071.00
267.2150, 23922.00
268.4270, 25333.00
269.6400, 27564.00
270.8520, 28748.00
272.0640, 30024.00
273.2760, 30366.00
274.4880, 30043.00
275.7000, 29206.00
276.9120, 28078.00
278.1230, 26260.00
279.3340, 24536.00
280.5450, 22687.00
281.7560, 21274.00
282.9670, 20041.00
284.1780, 19309.00
285.3880, 18858.00
286.5980, 18723.00
287.8090, 18951.00
289.0190, 19123.00
290.2290, 19900.00
291.4380, 20572.00
292.6480, 21534.00
293.8570, 22681.00
295.0670, 23879.00
296.2760, 25194.00
297.4850, 26547.00
298.6930, 27979.00
299.9020, 28921.00
301.1110, 30447.00
302.3190, 31697.00
303.5270, 33172.00
304.7350, 34029.00
305.9430, 33763.00
307.1510, 32906.00
308.3580, 30598.00
309.5660, 28148.00
310.7730, 26038.00
311.9800, 24542.00
313.1870, 23519.00
314.3940, 23144.00
315.6010, 23153.00
316.8070, 23343.00
318.0130, 23450.00
319.2200, 23279.00
320.4260, 22488.00
321.6310, 21438.00
322.8370, 20119.00
324.0430, 19180.00
325.2480, 18320.00
326.4540, 17428.00
327.6590, 16988.00
328.8640, 16531.00
330.0680, 15955.00
331.2730, 15429.00
332.4780, 15216.00
333.6820, 15230.00
334.8860, 15584.00
336.0900, 16317.00
337.2940, 17195.00
338.4980, 18455.00
339.7010, 20647.00
340.9050, 22965.00
342.1080, 24752.00
343.3110, 26859.00
344.5140, 27251.00
345.7170, 27741.00
346.9200, 27563.00
348.1220, 28098.00
349.3240, 28386.00
350.5270, 28192.00
351.7290, 26937.00
352.9310, 25275.00
354.1320, 22672.00
355.3340, 20071.00
356.5350, 17801.00
357.7370, 16080.00
358.9380, 14546.00
360.1390, 13457.00
361.3400, 12578.00
362.5400, 11898.00
363.7410, 11433.00
364.9410, 11196.00
366.1410, 11139.00
367.3410, 11017.00
368.5410, 10855.00
369.7410, 11047.00
370.9400, 10917.00
372.1400, 10989.00
373.3390, 11072.00
374.5380, 11247.00
375.7370, 11397.00
376.9360, 11656.00
378.1350, 12041.00
379.3330, 12703.00
380.5310, 13620.00
381.7300, 14809.00
382.9280, 16160.00
384.1260, 17604.00
385.3230, 19440.00
386.5210, 21374.00
387.7180, 22994.00
388.9160, 23697.00
390.1130, 23818.00
391.3100, 22865.00
392.5060, 21677.00
393.7030, 20124.00
394.9000, 18670.00
396.0960, 17257.00
397.2920, 16167.00
398.4880, 15272.00
399.6840, 14629.00
400.8800, 14098.00
402.0750, 13663.00
403.2710, 13659.00
404.4660, 13768.00
405.6610, 14293.00
406.8560, 15232.64
408.0510, 16513.00
409.2450, 18135.00
410.4400, 20153.00
411.6340, 22590.00
412.8280, 26037.00
414.0220, 29621.00
415.2160, 32705.00
416.4100, 33512.00
417.6030, 32649.00
418.7970, 30389.00
419.9900, 28661.00
421.1830, 27171.00
422.3760, 26672.00
423.5690, 26393.00
424.7610, 26587.00
425.9540, 26779.00
427.1460, 27193.00
428.3380, 27186.00
429.5300, 26678.00
430.7220, 25034.00
431.9140, 23549.00
433.1050, 21918.00
434.2970, 19988.00
435.4880, 18580.00
436.6790, 17343.00
437.8700, 16674.00
439.0610, 16280.00
440.2510, 16518.00
441.4420, 17165.00
442.6320, 17544.00
443.8220, 17629.00
445.0120, 17122.00
446.2020, 16220.00
447.3910, 15085.00
448.5810, 13934.00
449.7700, 13031.00
450.9600, 12318.00
452.1490, 11858.00
453.3370, 11387.00
454.5260, 11053.00
455.7150, 10685.00
456.9030, 10617.00
458.0910, 10474.00
459.2800, 10304.00
460.4670, 10310.00
461.6550, 10243.00
462.8430, 10336.00
464.0300, 10418.00
465.2180, 10426.00
466.4050, 10735.00
467.5920, 10840.00
468.7790, 11137.00
469.9650, 11420.00
471.1520, 11778.00
472.3380, 12369.00
473.5250, 12744.00
474.7110, 13704.00
475.8970, 14797.00
477.0820, 16275.00
478.2680, 17805.00
479.4540, 19744.00
480.6390, 21829.00
481.8240, 24120.00
483.0090, 25594.00
484.1940, 25842.00
485.3780, 24415.00
486.5630, 22193.00
487.7470, 19745.00
488.9320, 17375.00
490.1160, 15637.00
491.3000, 14282.00
492.4830, 13408.00
493.6670, 12772.00
494.8500, 12292.00
496.0340, 12152.00
497.2170, 12188.00
498.4000, 12487.00
499.5820, 12483.00
500.7650, 12860.00
501.9480, 13219.00
503.1300, 13435.00
504.3120, 13966.00
505.4940, 13901.00
506.6760, 14352.00
507.8580, 14452.00
509.0390, 14506.00
510.2210, 14308.00
511.4020, 14230.00
512.5830, 13731.00
513.7640, 13220.00
514.9450, 12657.00
516.1250, 12132.00
517.3060, 11683.00
518.4860, 11254.00
519.6660, 11051.00
520.8460, 10930.00
522.0260, 10650.00
523.2060, 10687.00
524.3850, 10680.00
525.5650, 10589.00
526.7440, 10609.00
527.9230, 10794.00
529.1020, 10934.00
530.2810, 11166.00
531.4590, 11246.00
532.6380, 11500.00
533.8160, 11574.00
534.9940, 11869.00
536.1720, 11921.00
537.3500, 12143.00
538.5270, 12437.00
539.7050, 12792.00
540.8820, 12866.00
542.0590, 13257.00
543.2360, 13550.00
544.4130, 13696.00
545.5900, 13790.00
546.7660, 13604.00
547.9430, 13604.00
549.1190, 13270.00
550.2950, 12922.00
551.4710, 12962.00
552.6470, 12763.00
553.8220, 12782.00
554.9980, 13056.00
556.1730, 13349.00
557.3480, 13681.00
558.5230, 13968.00
559.6980, 14146.00
560.8730, 14203.00
562.0470, 14328.00
563.2220, 14408.00
564.3960, 14579.00
565.5700, 14776.00
566.7440, 15340.00
567.9170, 15802.00
569.0910, 16313.00
570.2640, 16672.00
571.4380, 17180.00
572.6110, 17481.00
573.7840, 17468.00
574.9570, 17366.00
576.1290, 16974.00
577.3020, 17060.00
578.4740, 16974.00
579.6460, 16913.00
580.8180, 17137.00
581.9900, 17511.00
583.1620, 18544.00
584.3330, 19298.00
585.5040, 20259.00
586.6760, 20956.00
587.8470, 21310.00
589.0180, 21143.00
590.1880, 20394.00
591.3590, 19233.00
592.5290, 17787.00
593.7000, 16595.00
594.8700, 15680.00
596.0400, 14502.00
597.2090, 13896.00
598.3790, 13112.00
599.5490, 12643.00
600.7180, 12444.00
601.8870, 12201.00
603.0560, 12190.00
604.2250, 11866.00
605.3940, 12083.00
606.5620, 12157.00
607.7300, 12426.00
608.8990, 12494.00
610.0670, 12553.00
611.2350, 12827.00
612.4020, 13052.00
613.5700, 13166.00
614.7370, 13194.00
615.9050, 13351.00
617.0720, 13451.00
618.2390, 13279.00
619.4060, 13431.00
620.5720, 12987.00
621.7390, 12730.00
622.9050, 12241.00
624.0710, 11827.00
625.2370, 11436.00
626.4030, 11171.00
627.5690, 10905.00
628.7340, 10767.00
629.9000, 10741.00
631.0650, 10686.00
632.2300, 10780.00
633.3950, 10699.00
634.5600, 10788.00
635.7240, 11111.00
636.8890, 11011.00
638.0530, 11450.00
639.2170, 12076.00
640.3810, 11948.00
641.5450, 11998.00
642.7080, 12223.00
643.8720, 12247.00
645.0350, 12120.00
646.1980, 12083.00
647.3610, 11773.00
648.5240, 11548.00
649.6870, 11258.00
650.8490, 11050.00
652.0120, 10811.00
653.1740, 10820.00
654.3360, 10609.00
655.4980, 10735.00
656.6600, 10613.00
657.8210, 10653.00
658.9830, 10760.00
660.1440, 10766.00
661.3050, 10970.00
662.4660, 11114.00
663.6270, 11430.00
664.7870, 11602.00
665.9480, 12222.00
667.1080, 12672.00
668.2680, 13169.00
669.4280, 13996.00
670.5880, 14821.00
671.7480, 15965.00
672.9070, 17227.00
674.0670, 18310.00
675.2260, 19040.00
676.3850, 19310.79
677.5440, 19617.00
678.7030, 18893.00
679.8610, 18290.00
681.0200, 17233.00
682.1780, 16168.00
683.3360, 15418.00
684.4940, 14590.00
685.6520, 14166.00
686.8090, 13702.00
687.9670, 13336.00
689.1240, 13428.00
690.2810, 13283.00
691.4380, 13243.00
692.5950, 13612.00
693.7520, 13965.00
694.9080, 14308.00
696.0650, 14937.00
697.2210, 15634.00
698.3770, 16545.00
699.5330, 17667.00
700.6880, 19357.00
701.8440, 21095.00
702.9990, 23615.00
704.1550, 26513.00
705.3100, 30106.00
706.4650, 34187.00
707.6190, 39121.00
708.7740, 44119.00
709.9290, 49768.00
711.0830, 54593.00
712.2370, 58289.00
713.3910, 60077.00
714.5450, 59924.00
715.6980, 56644.00
716.8520, 52623.00
718.0050, 47148.00
719.1580, 41401.00
720.3110, 36631.00
721.4640, 31714.00
722.6170, 28222.00
723.7700, 25064.00
724.9220, 22697.00
726.0740, 20681.00
727.2260, 18979.00
728.3780, 17761.00
729.5300, 16822.00
730.6810, 16152.00
731.8330, 15200.00
732.9840, 14997.00
734.1350, 14335.81
735.2860, 13988.12
736.4370, 13494.00
737.5880, 13455.00
738.7380, 13155.00
739.8880, 12970.00
741.0390, 12921.00
742.1890, 12709.00
743.3380, 12779.00
744.4880, 12360.00
745.6380, 12521.00
746.7870, 12388.51
747.9360, 12369.10
749.0850, 12373.00
750.2340, 12506.00
751.3830, 12671.00
752.5310, 12861.00
753.6800, 13075.00
754.8280, 13447.00
755.9760, 13828.79
757.1240, 14182.00
758.2720, 14832.00
759.4190, 15400.18
760.5670, 16047.56
761.7140, 16857.00
762.8610, 17368.00
764.0080, 18132.00
765.1550, 18733.00
766.3020, 19025.00
767.4480, 19026.00
768.5950, 18718.00
769.7410, 18452.00
770.8870, 17855.00
772.0330, 16902.00
773.1780, 16229.00
774.3240, 15632.00
775.4690, 15041.00
776.6140, 14342.00
777.7590, 13923.00
778.9040, 13402.00
780.0490, 13089.00
781.1940, 12919.00
782.3380, 12477.00
783.4820, 12318.00
784.6260, 11945.00
785.7700, 11913.00
786.9140, 11744.29
788.0580, 11630.77
789.2010, 11621.00
790.3450, 11483.00
791.4880, 11530.00
792.6310, 11409.00
793.7730, 11295.00
794.9160, 11375.00
796.0590, 11312.00
797.2010, 11522.00
798.3430, 11397.04
799.4850, 11443.00
800.6270, 11342.00
801.7690, 11276.00
802.9100, 11472.00
804.0520, 11609.00
805.1930, 11740.00
806.3340, 11938.00
807.4750, 12255.00
808.6160, 12410.00
809.7560, 12846.00
810.8970, 12891.00
812.0370, 13079.00
813.1770, 13030.00
814.3170, 12881.00
815.4570, 12586.00
816.5960, 12402.00
817.7360, 12049.00
818.8750, 11863.00
820.0140, 11697.00
821.1530, 11536.00
822.2920, 11426.91
823.4310, 11241.00
824.5690, 11304.00
825.7070, 11161.00
826.8460, 11232.00
827.9840, 11195.00
829.1220, 11261.00
830.2590, 11296.00
831.3970, 11196.00
832.5340, 11283.00
833.6710, 11373.00
834.8080, 11489.00
835.9450, 11493.00
837.0820, 11395.00
838.2190, 11625.00
839.3550, 11810.00
840.4910, 11748.00
841.6270, 11961.00
842.7630, 12080.00
843.8990, 12007.00
845.0350, 12322.00
846.1700, 12363.00
847.3060, 12548.00
848.4410, 12796.00
849.5760, 12673.00
850.7100, 12791.00
851.8450, 12883.00
852.9800, 12916.00
854.1140, 12794.00
855.2480, 13260.00
856.3820, 13424.00
857.5160, 13037.00
858.6500, 12848.00
859.7830, 12918.94
860.9170, 12976.00
862.0500, 12997.00
863.1830, 12934.00
864.3160, 13054.00
865.4480, 13005.00
866.5810, 13127.00
867.7130, 13083.00
868.8460, 13148.00
869.9780, 13211.00
871.1100, 13322.00
872.2410, 13359.00
873.3730, 13295.00
874.5050, 13583.00
875.6360, 13920.00
876.7670, 13871.09
877.8980, 14025.00
879.0290, 14038.00
880.1590, 14191.00
881.2900, 14453.00
882.4200, 14609.00
883.5500, 14905.00
884.6800, 15377.00
885.8100, 15786.00
886.9400, 16313.00
888.0690, 16919.00
889.1990, 17633.92
890.3280, 18435.00
891.4570, 19367.00
892.5860, 20467.00
893.7140, 21612.00
894.8430, 22696.00
895.9710, 23738.00
897.1000, 24903.00
898.2280, 25596.00
899.3560, 26136.00
900.4830, 26503.00
901.6110, 26553.00
902.7380, 26465.00
903.8660, 26118.00
904.9930, 25986.00
906.1200, 25663.00
907.2460, 25247.00
908.3730, 24704.00
909.5000, 24153.00
910.6260, 23332.00
911.7520, 22658.00
912.8780, 21677.00
914.0040, 20643.00
915.1290, 19797.00
916.2550, 19092.00
917.3800, 18217.00
918.5050, 17869.00
919.6300, 17602.00
920.7550, 17066.00
921.8800, 16884.00
923.0040, 16827.00
924.1290, 16657.00
925.2530, 16816.00
926.3770, 16906.00
927.5010, 17214.00
928.6250, 17303.00
929.7480, 17212.00
930.8720, 17215.00
931.9950, 16948.00
933.1180, 16885.00
934.2410, 16616.00
935.3640, 16807.00
936.4860, 16448.00
937.6090, 16511.00
938.7310, 16659.00
939.8530, 16750.00
940.9750, 17088.00
942.0970, 17239.00
943.2180, 17744.00
944.3400, 18359.00
945.4610, 19014.00
946.5820, 19996.00
947.7030, 20590.00
948.8240, 21688.00
949.9450, 22395.00
951.0650, 23487.00
952.1860, 24377.00
953.3060, 25184.00
954.4260, 26171.00
955.5460, 27406.00
956.6650, 28947.00
957.7850, 30549.00
958.9040, 32595.00
960.0230, 34657.00
961.1420, 36649.00
962.2610, 37960.00
963.3800, 38979.00
964.4990, 39191.00
965.6170, 38375.00
966.7350, 37280.00
967.8530, 35737.00
968.9710, 34663.00
970.0890, 34089.00
971.2070, 33740.00
972.3240, 33968.26
973.4410, 34365.00
974.5580, 35450.00
975.6750, 36825.00
976.7920, 38323.00
977.9090, 39343.00
979.0250, 39755.48
980.1410, 40323.00
981.2580, 39509.00
982.3740, 38692.00
983.4890, 37364.00
984.6050, 36070.00
985.7200, 35002.00
986.8360, 34374.00
987.9510, 33868.00
989.0660, 33273.00
990.1810, 33349.00
991.2950, 33149.00
992.4100, 33193.00
993.5240, 32826.00
994.6390, 32822.00
995.7530, 33289.00
996.8660, 33719.00
997.9800, 34298.00
999.0940, 34977.00
1000.207, 35992.00
1001.320, 36767.00
1002.433, 37348.00
1003.546, 37737.00
1004.659, 37467.00
1005.772, 36395.00
1006.884, 34896.00
1007.996, 33082.00
1009.108, 30989.00
1010.220, 28559.00
1011.332, 26912.00
1012.444, 24626.00
1013.555, 23074.00
1014.666, 21434.00
1015.777, 20494.00
1016.888, 19459.00
1017.999, 18709.00
1019.110, 18295.00
1020.220, 17726.00
1021.331, 17459.00
1022.441, 17349.00
1023.551, 17402.00
1024.661, 17372.00
1025.770, 17469.00
1026.880, 17556.00
1027.989, 17228.00
1029.098, 17116.00
1030.207, 16730.00
1031.316, 16468.00
1032.425, 16117.00
1033.533, 15759.00
1034.642, 15297.00
1035.750, 15255.00
1036.858, 15030.00
1037.966, 15041.00
1039.073, 14914.00
1040.181, 14820.00
1041.288, 14882.00
1042.396, 14910.00
1043.503, 14892.00
1044.610, 14836.00
1045.716, 14751.00
1046.823, 14957.00
1047.929, 14896.00
1049.036, 15228.00
1050.142, 15393.00
1051.248, 15655.00
1052.353, 15803.00
1053.459, 15940.00
1054.564, 16072.59
1055.670, 16147.00
1056.775, 16224.00
1057.880, 16258.00
1058.985, 16274.00
1060.089, 15765.00
1061.194, 15685.00
1062.298, 15284.00
1063.402, 15064.00
1064.506, 14836.00
1065.610, 14557.00
1066.713, 14252.00
1067.817, 14021.00
1068.920, 13984.00
1070.023, 13995.00
1071.126, 14078.00
1072.229, 14215.00
1073.332, 14448.00
1074.435, 14679.00
1075.537, 15018.00
1076.639, 15360.47
1077.741, 15644.00
1078.843, 16245.00
1079.945, 16725.00
1081.046, 17373.00
1082.148, 17687.00
1083.249, 17834.00
1084.350, 17801.00
1085.451, 17468.00
1086.551, 16976.00
1087.652, 16543.00
1088.752, 15999.00
1089.853, 15474.00
1090.953, 15118.00
1092.053, 14789.33
1093.152, 14622.00
1094.252, 14381.00
1095.351, 14328.00
1096.451, 14271.00
1097.550, 14197.00
1098.649, 14352.00
1099.748, 14385.00
1100.846, 14513.00
1101.945, 14640.00
1103.043, 14669.00
1104.141, 14809.00
1105.239, 14834.00
1106.337, 14807.00
1107.434, 14575.00
1108.532, 14459.00
1109.629, 14298.00
1110.726, 14138.20
1111.823, 14011.66
1112.920, 13858.00
1114.017, 13706.00
1115.113, 13579.00
1116.210, 13358.00
1117.306, 13097.00
1118.402, 13147.00
1119.498, 12790.00
1120.593, 12789.00
1121.689, 12660.00
1122.784, 12756.00
1123.879, 12694.00
1124.974, 12505.00
1126.069, 12635.00
1127.164, 12521.00
1128.259, 12387.00
1129.353, 12454.00
1130.447, 12290.00
1131.541, 12314.00
1132.635, 12489.00
1133.729, 12321.00
1134.822, 12269.00
1135.916, 12210.00
1137.009, 12148.79
1138.102, 12164.00
1139.195, 12129.00
1140.288, 12075.00
1141.380, 12133.00
1142.473, 11931.00
1143.565, 11971.00
1144.657, 12095.00
1145.749, 12148.00
1146.841, 12021.00
1147.932, 12144.00
1149.024, 11851.00
1150.115, 12044.00
1151.206, 12036.00
1152.297, 11872.00
1153.388, 11984.00
1154.479, 11963.00
1155.569, 12116.00
1156.659, 11979.00
1157.750, 11893.00
1158.839, 11951.00
1159.929, 11899.00
1161.019, 11782.00
1162.108, 11923.00
1163.198, 11948.00
1164.287, 11852.00
1165.376, 11812.00
1166.465, 11935.00
1167.553, 11829.00
1168.642, 11922.00
1169.730, 11938.00
1170.818, 11867.00
1171.906, 11811.00
1172.994, 11808.89
1174.082, 11753.81
1175.170, 11823.00
1176.257, 11707.00
1177.344, 11808.00
1178.431, 11824.00
1179.518, 11887.00
1180.605, 11842.00
1181.691, 11884.51
1182.778, 11944.00
1183.864, 11910.00
1184.950, 11826.00
1186.036, 11818.00
1187.122, 11881.00
1188.207, 11800.00
1189.292, 11873.00
1190.378, 11854.00
1191.463, 11808.00
1192.548, 11854.00
1193.632, 11848.79
1194.717, 11908.00
1195.801, 11864.00
1196.886, 11947.00
1197.970, 11885.00
1199.054, 11936.00
1200.137, 11823.00
1201.221, 11827.00
1202.305, 11858.00
1203.388, 11937.00
1204.471, 12017.00
1205.554, 11864.00
1206.637, 11990.00
1207.719, 11978.00
1208.802, 11795.00
1209.884, 11979.00
1210.966, 11715.00
1212.048, 11821.00
1213.130, 12035.00
1214.212, 11910.00
1215.293, 11930.00
1216.374, 11805.00
1217.456, 11812.00
1218.536, 11805.59
1219.617, 11794.00
1220.698, 11830.00
1221.778, 11815.53
1222.859, 11836.25
1223.939, 11834.00
1225.019, 11891.00
1226.099, 11940.00
1227.178, 12019.00
1228.258, 11968.00
1229.337, 11884.00
1230.417, 11889.00
1231.496, 11808.00
1232.574, 11886.00
1233.653, 11970.00
1234.732, 11866.00
