##NAMES=Axinite-(Fe)
##RRUFFID=R060194
##IDEAL CHEMISTRY=Ca_4_Fe^2+^_2_Al_4_[B_2_Si_8_O_30_](OH)_2_
##LOCALITY=near Dalbandi, Baluchistan Province, Pakistan
##OWNER=RRUFF
##SOURCE=Herbert Obodda
##DESCRIPTION=Brown transparent wedge-shaped single crystal
##STATUS=The identification of this mineral has been confirmed by X-ray diffraction and chemical analysis
##URL=rruff.info/R060194
##MEASURED CHEMISTRY=Ca_2.00_(Fe^2+^_0.66_Mg_0.30_Mn_0.04_)Al_2.00_BSi_4.00_O_15_(OH)
##PIN_ID=L00952
##ORIENTATION=Laser parallel to (1 1 0). Fiducial mark perpendicular to laser is parallel to -c [0 0 -1]
53.91000, 1202.000
55.14900, 1174.000
56.38700, 1163.000
57.62600, 1190.000
58.86400, 1223.000
60.10300, 1262.000
61.34100, 1326.000
62.57900, 1397.000
63.81700, 1455.000
65.05400, 1556.000
66.29200, 1656.000
67.52900, 1865.000
68.76700, 2125.000
70.00400, 2547.000
71.24100, 2806.391
72.47700, 3337.000
73.71400, 3537.000
74.95100, 4197.000
76.18700, 4714.000
77.42300, 5219.000
78.65900, 5416.000
79.89500, 5704.000
81.13100, 6110.000
82.36700, 6765.000
83.60200, 7709.000
84.83700, 8660.000
86.07200, 9075.000
87.30800, 9379.000
88.54200, 10052.00
89.77700, 10768.00
91.01200, 11609.00
92.24600, 12729.00
93.48000, 13630.00
94.71400, 13770.00
95.94800, 14098.00
97.18200, 14360.00
98.41600, 14693.50
99.64900, 15002.28
100.8830, 15427.00
102.1160, 15772.00
103.3490, 16112.00
104.5820, 16780.00
105.8150, 18089.00
107.0470, 19562.00
108.2800, 22652.00
109.5120, 25339.00
110.7440, 22257.00
111.9760, 18604.00
113.2080, 17123.00
114.4400, 16379.00
115.6710, 16342.00
116.9030, 16341.00
118.1340, 15898.00
119.3650, 15643.00
120.5960, 15346.00
121.8270, 15053.00
123.0580, 14940.00
124.2880, 14631.22
125.5190, 14304.18
126.7490, 14074.00
127.9790, 13699.00
129.2090, 13483.28
130.4390, 13221.00
131.6680, 13001.00
132.8980, 12774.00
134.1270, 12508.00
135.3560, 12561.00
136.5850, 12426.00
137.8140, 12667.00
139.0430, 12919.00
140.2710, 13351.00
141.5000, 13345.00
142.7280, 13394.00
143.9560, 13502.00
145.1840, 13933.22
146.4120, 14257.00
147.6390, 15106.00
148.8670, 15819.00
150.0940, 16707.00
151.3210, 17637.00
152.5490, 18291.00
153.7750, 18674.00
155.0020, 19023.00
156.2290, 19429.00
157.4550, 19033.00
158.6810, 18608.00
159.9080, 17939.00
161.1340, 17714.00
162.3590, 17927.00
163.5850, 18590.00
164.8110, 19247.00
166.0360, 20596.00
167.2610, 21856.00
168.4860, 23450.00
169.7110, 25140.00
170.9360, 25422.00
172.1610, 24245.00
173.3850, 22376.00
174.6100, 20416.00
175.8340, 18524.00
177.0580, 16843.00
178.2820, 15390.00
179.5050, 14318.59
180.7290, 13585.00
181.9520, 12924.00
183.1760, 12583.00
184.3990, 12537.00
185.6220, 12419.00
186.8450, 12736.00
188.0670, 12734.00
189.2900, 13187.00
190.5120, 13887.00
191.7340, 14604.00
192.9560, 15515.00
194.1780, 16328.00
195.4000, 16327.00
196.6220, 16188.00
197.8430, 16265.00
199.0640, 16625.00
200.2860, 17292.00
201.5070, 18134.00
202.7270, 19722.00
203.9480, 20694.00
205.1690, 22321.00
206.3890, 23054.00
207.6090, 23635.00
208.8290, 24037.00
210.0490, 24142.05
211.2690, 24039.48
212.4890, 23706.00
213.7080, 23054.00
214.9280, 22162.00
216.1470, 20951.00
217.3660, 20067.00
218.5850, 18798.00
219.8030, 18134.00
221.0220, 17060.00
222.2400, 16234.00
223.4590, 15288.00
224.6770, 14599.00
225.8950, 14176.00
227.1120, 13651.00
228.3300, 13343.00
229.5480, 13015.00
230.7650, 12771.00
231.9820, 12717.00
233.1990, 12796.00
234.4160, 12847.00
235.6330, 13004.54
236.8490, 13157.00
238.0660, 13507.00
239.2820, 13858.00
240.4980, 14335.00
241.7140, 14556.00
242.9300, 14849.00
244.1460, 15570.00
245.3610, 15944.00
246.5770, 16430.00
247.7920, 16651.00
249.0070, 17066.00
250.2220, 17201.00
251.4370, 17472.00
252.6510, 17659.00
253.8660, 17700.00
255.0800, 17546.00
256.2940, 17440.00
257.5080, 17508.00
258.7220, 18319.00
259.9360, 18255.44
261.1490, 19340.00
262.3630, 18865.00
263.5760, 18897.00
264.7890, 19406.00
266.0020, 20119.00
267.2150, 20709.00
268.4270, 21040.00
269.6400, 21745.00
270.8520, 21892.00
272.0640, 21703.00
273.2760, 21431.00
274.4880, 20832.00
275.7000, 20160.00
276.9120, 19387.00
278.1230, 18443.00
279.3340, 17376.00
280.5450, 16788.00
281.7560, 16151.00
282.9670, 15856.00
284.1780, 15551.00
285.3880, 15539.00
286.5980, 15682.00
287.8090, 16176.00
289.0190, 16980.00
290.2290, 18310.00
291.4380, 19393.00
292.6480, 20337.00
293.8570, 21891.00
295.0670, 23323.00
296.2760, 24686.00
297.4850, 26218.00
298.6930, 27515.00
299.9020, 28487.00
301.1110, 29121.00
302.3190, 29746.00
303.5270, 30034.00
304.7350, 30345.00
305.9430, 30020.00
307.1510, 29213.00
308.3580, 27753.00
309.5660, 25971.00
310.7730, 23732.00
311.9800, 22022.00
313.1870, 20537.00
314.3940, 19651.00
315.6010, 18988.00
316.8070, 18407.00
318.0130, 18299.00
319.2200, 17938.00
320.4260, 17025.00
321.6310, 16329.00
322.8370, 15541.00
324.0430, 14871.00
325.2480, 14371.00
326.4540, 13991.74
327.6590, 13598.00
328.8640, 13654.00
330.0680, 13714.00
331.2730, 13876.00
332.4780, 13874.00
333.6820, 14285.00
334.8860, 14597.00
336.0900, 15270.00
337.2940, 16012.00
338.4980, 16937.00
339.7010, 18171.00
340.9050, 19816.00
342.1080, 21422.00
343.3110, 23171.00
344.5140, 24295.00
345.7170, 24909.00
346.9200, 25341.00
348.1220, 25635.00
349.3240, 26062.00
350.5270, 26336.00
351.7290, 26503.00
352.9310, 25970.00
354.1320, 24174.00
355.3340, 22309.00
356.5350, 20298.00
357.7370, 18423.00
358.9380, 16983.51
360.1390, 15624.00
361.3400, 14507.00
362.5400, 13999.00
363.7410, 13378.00
364.9410, 13075.00
366.1410, 12695.00
367.3410, 12661.00
368.5410, 12714.00
369.7410, 12722.00
370.9400, 12723.00
372.1400, 12867.00
373.3390, 12876.00
374.5380, 12927.00
375.7370, 12993.00
376.9360, 12989.00
378.1350, 13254.00
379.3330, 13671.00
380.5310, 14344.00
381.7300, 14884.00
382.9280, 16037.00
384.1260, 17080.00
385.3230, 18606.00
386.5210, 20128.00
387.7180, 21569.00
388.9160, 23013.00
390.1130, 23685.00
391.3100, 24476.00
392.5060, 24741.00
393.7030, 24211.00
394.9000, 23300.00
396.0960, 21843.00
397.2920, 20434.00
398.4880, 19183.00
399.6840, 18047.00
400.8800, 17141.43
402.0750, 16333.71
403.2710, 15736.00
404.4660, 15254.00
405.6610, 14991.13
406.8560, 14886.16
408.0510, 14982.00
409.2450, 15230.00
410.4400, 15697.00
411.6340, 16372.00
412.8280, 17074.00
414.0220, 18232.00
415.2160, 20147.00
416.4100, 21946.00
417.6030, 23215.00
418.7970, 23724.00
419.9900, 23683.00
421.1830, 23744.00
422.3760, 24214.00
423.5690, 24860.00
424.7610, 25985.00
425.9540, 27328.00
427.1460, 28502.00
428.3380, 28887.00
429.5300, 28947.00
430.7220, 27893.00
431.9140, 26018.00
433.1050, 23980.00
434.2970, 21957.00
435.4880, 20151.00
436.6790, 18530.00
437.8700, 17651.00
439.0610, 17131.00
440.2510, 16732.00
441.4420, 16834.00
442.6320, 17119.00
443.8220, 17660.00
445.0120, 17273.00
446.2020, 16643.00
447.3910, 15883.00
448.5810, 15106.00
449.7700, 14440.00
450.9600, 13880.00
452.1490, 13397.00
453.3370, 13198.00
454.5260, 13102.00
455.7150, 13059.00
456.9030, 12884.00
458.0910, 12835.00
459.2800, 12890.00
460.4670, 12783.00
461.6550, 12845.00
462.8430, 12885.00
464.0300, 13076.00
465.2180, 13289.00
466.4050, 13431.00
467.5920, 13770.00
468.7790, 13809.00
469.9650, 14200.00
471.1520, 14313.00
472.3380, 14146.00
473.5250, 13910.00
474.7110, 13815.00
475.8970, 13938.00
477.0820, 14080.74
478.2680, 14445.00
479.4540, 14870.00
480.6390, 15245.00
481.8240, 16049.00
483.0090, 17104.00
484.1940, 18074.00
485.3780, 18316.00
486.5630, 17962.00
487.7470, 16888.00
488.9320, 15708.00
490.1160, 14790.00
491.3000, 14026.00
492.4830, 13643.00
493.6670, 13286.00
494.8500, 13121.00
496.0340, 13141.00
497.2170, 13136.00
498.4000, 13428.00
499.5820, 13693.00
500.7650, 13909.00
501.9480, 14329.00
503.1300, 14339.00
504.3120, 14746.00
505.4940, 15574.00
506.6760, 15293.00
507.8580, 15613.00
509.0390, 15613.00
510.2210, 15701.00
511.4020, 15729.00
512.5830, 15694.00
513.7640, 15625.00
514.9450, 15201.00
516.1250, 14944.00
517.3060, 14748.00
518.4860, 14375.00
519.6660, 14007.00
520.8460, 13778.00
522.0260, 13527.00
523.2060, 13380.00
524.3850, 13125.00
525.5650, 12960.00
526.7440, 12878.00
527.9230, 12814.00
529.1020, 12948.00
530.2810, 12834.00
531.4590, 12950.00
532.6380, 13028.00
533.8160, 13682.00
534.9940, 13582.17
536.1720, 13871.09
537.3500, 13854.00
538.5270, 14296.00
539.7050, 14710.00
540.8820, 15187.00
542.0590, 15685.00
543.2360, 16081.00
544.4130, 16511.00
545.5900, 16717.00
546.7660, 16719.00
547.9430, 16415.00
549.1190, 16099.00
550.2950, 15516.00
551.4710, 15299.00
552.6470, 15144.00
553.8220, 14930.00
554.9980, 15080.00
556.1730, 15042.00
557.3480, 15283.00
558.5230, 15579.00
559.6980, 15859.00
560.8730, 16103.00
562.0470, 16133.00
563.2220, 16173.00
564.3960, 16064.00
565.5700, 15896.00
566.7440, 16025.00
567.9170, 16163.00
569.0910, 16286.00
570.2640, 16666.00
571.4380, 17133.00
572.6110, 17626.00
573.7840, 17629.00
574.9570, 17879.00
576.1290, 17942.00
577.3020, 18261.00
578.4740, 18322.00
579.6460, 18326.00
580.8180, 18943.00
581.9900, 19236.00
583.1620, 20111.00
584.3330, 20910.00
585.5040, 21993.00
586.6760, 22849.00
587.8470, 23548.00
589.0180, 23858.00
590.1880, 23542.00
591.3590, 22858.00
592.5290, 21552.00
593.7000, 20137.00
594.8700, 18870.00
596.0400, 17836.00
597.2090, 17087.00
598.3790, 16368.00
599.5490, 16036.00
600.7180, 15755.00
601.8870, 15687.00
603.0560, 15697.00
604.2250, 15870.00
605.3940, 15968.00
606.5620, 16323.00
607.7300, 16583.00
608.8990, 16844.00
610.0670, 17211.00
611.2350, 17554.00
612.4020, 17651.00
613.5700, 17612.00
614.7370, 17915.00
615.9050, 17598.00
617.0720, 17646.00
618.2390, 17551.00
619.4060, 17537.00
620.5720, 17361.00
621.7390, 16889.00
622.9050, 16679.00
624.0710, 16111.00
625.2370, 15877.00
626.4030, 15370.00
627.5690, 15322.00
628.7340, 14716.00
629.9000, 14676.00
631.0650, 14234.00
632.2300, 14018.00
633.3950, 13837.00
634.5600, 13661.00
635.7240, 13747.00
636.8890, 13856.00
638.0530, 14017.00
639.2170, 14145.97
640.3810, 14324.00
641.5450, 14475.00
642.7080, 14721.00
643.8720, 14919.00
645.0350, 14918.00
646.1980, 14792.00
647.3610, 14790.00
648.5240, 14863.00
649.6870, 14577.00
650.8490, 14474.00
652.0120, 14214.00
653.1740, 14020.00
654.3360, 13824.00
655.4980, 13784.87
656.6600, 13754.00
657.8210, 13832.00
658.9830, 13798.00
660.1440, 13912.00
661.3050, 13868.00
662.4660, 14252.00
663.6270, 14390.00
664.7870, 14733.00
665.9480, 15313.00
667.1080, 15902.00
668.2680, 16564.00
669.4280, 17609.00
670.5880, 18719.00
671.7480, 20107.00
672.9070, 21329.00
674.0670, 22550.00
675.2260, 23503.00
676.3850, 23997.00
677.5440, 23965.00
678.7030, 23120.00
679.8610, 21918.00
681.0200, 20605.00
682.1780, 19210.00
683.3360, 18278.00
684.4940, 17247.00
685.6520, 16495.00
686.8090, 16006.00
687.9670, 15491.00
689.1240, 15442.00
690.2810, 15307.00
691.4380, 15463.00
692.5950, 15482.00
693.7520, 15694.00
694.9080, 16144.00
696.0650, 16658.00
697.2210, 17283.00
698.3770, 17968.00
699.5330, 18937.00
700.6880, 20262.00
701.8440, 21927.00
702.9990, 24035.00
704.1550, 26699.00
705.3100, 29941.00
706.4650, 33488.00
707.6190, 37778.00
708.7740, 42294.00
709.9290, 46894.00
711.0830, 51500.00
712.2370, 54679.00
713.3910, 56271.00
714.5450, 55701.00
715.6980, 52814.00
716.8520, 48562.00
718.0050, 43539.00
719.1580, 38297.00
720.3110, 34046.00
721.4640, 30483.00
722.6170, 27369.00
723.7700, 24804.96
724.9220, 22738.24
726.0740, 21075.00
727.2260, 19915.00
728.3780, 18883.00
729.5300, 18243.00
730.6810, 17595.00
731.8330, 17120.00
732.9840, 16633.00
734.1350, 16120.00
735.2860, 15893.00
736.4370, 15564.00
737.5880, 15441.00
738.7380, 15180.00
739.8880, 15025.00
741.0390, 14964.00
742.1890, 14891.00
743.3380, 14916.00
744.4880, 14841.00
745.6380, 14805.00
746.7870, 14815.00
747.9360, 14779.00
749.0850, 14889.00
750.2340, 14852.00
751.3830, 15060.00
752.5310, 15032.00
753.6800, 15466.00
754.8280, 15660.00
755.9760, 15955.00
757.1240, 16446.00
758.2720, 16898.00
759.4190, 17392.00
760.5670, 18133.00
761.7140, 18753.00
762.8610, 19226.00
764.0080, 19923.00
765.1550, 20366.00
766.3020, 20804.00
767.4480, 20823.00
768.5950, 20804.00
769.7410, 20386.00
770.8870, 19916.00
772.0330, 19363.00
773.1780, 18691.00
774.3240, 18061.00
775.4690, 17544.00
776.6140, 16906.00
777.7590, 16527.00
778.9040, 16066.00
780.0490, 15778.00
781.1940, 15536.00
782.3380, 15185.00
783.4820, 15027.00
784.6260, 14886.00
785.7700, 14811.00
786.9140, 14646.00
788.0580, 14651.00
789.2010, 14363.00
790.3450, 14345.00
791.4880, 14456.00
792.6310, 14285.00
793.7730, 14348.00
794.9160, 14289.00
796.0590, 14384.00
797.2010, 14353.00
798.3430, 14242.00
799.4850, 14204.00
800.6270, 14373.00
801.7690, 14218.00
802.9100, 14268.00
804.0520, 14406.00
805.1930, 14375.00
806.3340, 14598.00
807.4750, 14497.00
808.6160, 14505.00
809.7560, 14589.00
810.8970, 14673.00
812.0370, 14676.00
813.1770, 14747.00
814.3170, 14671.00
815.4570, 14876.00
816.5960, 14679.00
817.7360, 14383.00
818.8750, 14473.00
820.0140, 14485.00
821.1530, 14479.00
822.2920, 14392.00
823.4310, 14395.00
824.5690, 14431.00
825.7070, 14508.00
826.8460, 14407.00
827.9840, 14309.00
829.1220, 14619.00
830.2590, 14558.00
831.3970, 14621.00
832.5340, 14466.00
833.6710, 14641.00
834.8080, 14586.00
835.9450, 14578.00
837.0820, 14680.00
838.2190, 14874.00
839.3550, 14866.00
840.4910, 14903.00
841.6270, 15137.00
842.7630, 15193.00
843.8990, 15360.00
845.0350, 15289.00
846.1700, 15423.00
847.3060, 15541.00
848.4410, 15555.00
849.5760, 15737.00
850.7100, 15840.00
851.8450, 15822.00
852.9800, 16101.00
854.1140, 16254.00
855.2480, 16388.00
856.3820, 16411.00
857.5160, 16640.00
858.6500, 16683.00
859.7830, 16818.00
860.9170, 17154.00
862.0500, 17018.00
863.1830, 17110.00
864.3160, 17009.00
865.4480, 17064.00
866.5810, 16911.00
867.7130, 16846.00
868.8460, 16852.00
869.9780, 16678.00
871.1100, 16669.00
872.2410, 16591.00
873.3730, 16841.00
874.5050, 16794.00
875.6360, 16818.00
876.7670, 16905.00
877.8980, 16862.00
879.0290, 16940.00
880.1590, 17044.00
881.2900, 16843.00
882.4200, 17087.00
883.5500, 17213.00
884.6800, 17254.00
885.8100, 17475.00
886.9400, 17483.00
888.0690, 17751.00
889.1990, 18054.00
890.3280, 18540.00
891.4570, 18888.00
892.5860, 19519.00
893.7140, 20167.00
894.8430, 20715.00
895.9710, 21533.00
897.1000, 22369.00
898.2280, 23048.00
899.3560, 23832.00
900.4830, 24905.00
901.6110, 25803.00
902.7380, 26726.00
903.8660, 27321.00
904.9930, 28286.00
906.1200, 28612.00
907.2460, 28407.00
908.3730, 27818.00
909.5000, 27097.00
910.6260, 26091.00
911.7520, 25085.00
912.8780, 23974.00
914.0040, 22765.00
915.1290, 21849.00
916.2550, 20968.00
917.3800, 20183.00
918.5050, 19607.00
919.6300, 19017.00
920.7550, 18731.00
921.8800, 18304.00
923.0040, 17964.00
924.1290, 17933.00
925.2530, 17668.00
926.3770, 17699.00
927.5010, 17509.00
928.6250, 17514.00
929.7480, 17668.00
930.8720, 17797.00
931.9950, 17512.00
933.1180, 17785.00
934.2410, 17643.00
935.3640, 17639.00
936.4860, 17761.00
937.6090, 17700.00
938.7310, 17942.00
939.8530, 18199.00
940.9750, 18147.00
942.0970, 18402.00
943.2180, 18613.00
944.3400, 18900.00
945.4610, 19345.00
946.5820, 19700.00
947.7030, 20310.00
948.8240, 20689.00
949.9450, 21361.00
951.0650, 22105.00
952.1860, 23015.00
953.3060, 23770.00
954.4260, 24884.00
955.5460, 26232.00
956.6650, 27665.00
957.7850, 29406.00
958.9040, 31435.00
960.0230, 33363.00
961.1420, 35863.00
962.2610, 37959.00
963.3800, 39658.00
964.4990, 40525.00
965.6170, 40267.00
966.7350, 39634.00
967.8530, 38173.00
968.9710, 36746.00
970.0890, 35493.00
971.2070, 34572.00
972.3240, 34502.00
973.4410, 34445.00
974.5580, 35414.00
975.6750, 36246.00
976.7920, 37332.00
977.9090, 38819.00
979.0250, 39951.00
980.1410, 40298.00
981.2580, 40308.00
982.3740, 39615.00
983.4890, 38617.00
984.6050, 37290.00
985.7200, 36199.00
986.8360, 35218.00
987.9510, 34554.00
989.0660, 33832.00
990.1810, 33965.00
991.2950, 33697.00
992.4100, 34089.00
993.5240, 34175.00
994.6390, 34839.00
995.7530, 35220.00
996.8660, 36226.00
997.9800, 37308.00
999.0940, 37993.00
1000.207, 38562.00
1001.320, 39117.00
1002.433, 39185.00
1003.546, 39128.00
1004.659, 38353.00
1005.772, 36959.00
1006.884, 35288.00
1007.996, 33306.00
1009.108, 31351.00
1010.220, 29389.00
1011.332, 27991.00
1012.444, 26337.00
1013.555, 24989.00
1014.666, 23673.00
1015.777, 22703.00
1016.888, 22086.00
1017.999, 21417.00
1019.110, 21216.00
1020.220, 20809.00
1021.331, 20768.00
1022.441, 20612.00
1023.551, 20459.00
1024.661, 20622.00
1025.770, 20853.00
1026.880, 20988.00
1027.989, 20985.62
1029.098, 20768.00
1030.207, 20763.00
1031.316, 20579.00
1032.425, 20171.00
1033.533, 19904.00
1034.642, 19553.00
1035.750, 19310.00
1036.858, 19229.00
1037.966, 19014.00
1039.073, 18947.00
1040.181, 19010.00
1041.288, 18985.00
1042.396, 19005.00
1043.503, 18838.00
1044.610, 18908.00
1045.716, 18824.00
1046.823, 18898.00
1047.929, 18923.00
1049.036, 19170.00
1050.142, 19430.00
1051.248, 19638.00
1052.353, 20015.00
1053.459, 20102.00
1054.564, 20318.00
1055.670, 20321.00
1056.775, 20191.00
1057.880, 20278.00
1058.985, 20081.00
1060.089, 19936.00
1061.194, 19718.00
1062.298, 19336.00
1063.402, 19297.00
1064.506, 18940.00
1065.610, 18333.00
1066.713, 18408.00
1067.817, 18174.00
1068.920, 17990.00
1070.023, 17922.00
1071.126, 17933.50
1072.229, 17955.00
1073.332, 18165.00
1074.435, 18439.00
1075.537, 18655.00
1076.639, 19172.00
1077.741, 19597.00
1078.843, 20311.00
1079.945, 21049.00
1081.046, 21503.00
1082.148, 22122.00
1083.249, 22344.00
1084.350, 22706.00
1085.451, 22535.00
1086.551, 22082.00
1087.652, 21407.00
1088.752, 20866.00
1089.853, 20233.00
1090.953, 19616.00
1092.053, 19275.00
1093.152, 18920.00
1094.252, 18511.00
1095.351, 18437.00
1096.451, 18280.00
1097.550, 18079.00
1098.649, 17955.00
1099.748, 17994.00
1100.846, 18047.00
1101.945, 17901.00
1103.043, 17994.00
1104.141, 18064.00
1105.239, 18077.00
1106.337, 18056.00
1107.434, 17932.00
1108.532, 17893.00
1109.629, 17845.00
1110.726, 17828.00
1111.823, 17505.00
1112.920, 17558.00
1114.017, 17355.00
1115.113, 17290.00
1116.210, 17063.00
1117.306, 17012.00
1118.402, 17014.00
1119.498, 16825.00
1120.593, 16808.00
1121.689, 16837.00
1122.784, 16866.00
1123.879, 16573.00
1124.974, 16603.00
1126.069, 16528.00
1127.164, 16533.00
1128.259, 16486.96
1129.353, 16334.00
1130.447, 16364.00
1131.541, 16248.00
1132.635, 16122.00
1133.729, 16248.00
1134.822, 16050.00
1135.916, 16231.00
1137.009, 16089.00
1138.102, 15990.00
1139.195, 16011.00
1140.288, 15876.00
1141.380, 15974.00
1142.473, 15868.00
1143.565, 15943.00
1144.657, 15794.00
1145.749, 15995.00
1146.841, 15786.00
1147.932, 15779.00
1149.024, 15676.00
1150.115, 15839.00
1151.206, 15773.00
1152.297, 15850.00
1153.388, 16021.00
1154.479, 15866.00
1155.569, 15856.00
1156.659, 15970.00
1157.750, 15889.00
1158.839, 15997.00
1159.929, 15914.00
1161.019, 16086.00
1162.108, 16071.00
1163.198, 16016.00
1164.287, 15954.00
1165.376, 16056.00
1166.465, 15985.00
1167.553, 16139.00
1168.642, 15991.00
1169.730, 16162.00
1170.818, 16078.00
1171.906, 16229.00
1172.994, 16024.00
1174.082, 16268.00
1175.170, 16019.00
1176.257, 16144.00
1177.344, 16101.00
1178.431, 16085.00
1179.518, 16141.00
1180.605, 16164.00
1181.691, 16148.00
1182.778, 15958.00
1183.864, 16042.00
1184.950, 16000.00
1186.036, 15938.00
1187.122, 16087.00
1188.207, 16114.00
1189.292, 15923.00
1190.378, 15968.00
1191.463, 15929.45
1192.548, 15879.00
1193.632, 15861.00
1194.717, 15941.00
1195.801, 15787.00
1196.886, 15966.00
1197.970, 15771.00
1199.054, 15976.00
1200.137, 15990.00
1201.221, 16082.00
1202.305, 16082.00
1203.388, 16021.00
1204.471, 16172.00
1205.554, 16020.00
1206.637, 16014.00
1207.719, 16008.00
1208.802, 16131.00
1209.884, 16042.00
1210.966, 16112.00
1212.048, 16088.00
1213.130, 16178.00
1214.212, 16147.00
1215.293, 16025.00
1216.374, 16231.00
1217.456, 16127.00
1218.536, 16246.00
1219.617, 16288.00
1220.698, 16209.00
1221.778, 16199.00
1222.859, 16191.00
1223.939, 16165.00
1225.019, 16213.00
1226.099, 16222.00
1227.178, 16044.28
1228.258, 16248.69
1229.337, 16367.31
1230.417, 16404.76
1231.496, 16117.90
1232.574, 16249.80
1233.653, 16213.89
1234.732, 16171.10
1235.810, 16361.94
1236.888, 16122.24
