##NAMES=Axinite-(Fe)
##RRUFFID=R060183
##IDEAL CHEMISTRY=Ca_4_Fe^2+^_2_Al_4_[B_2_Si_8_O_30_](OH)_2_
##LOCALITY=Skagit Bluffs, near Manning Park, British Columbia, Canada
##OWNER=RRUFF
##SOURCE=Lloyd Twaites
##DESCRIPTION=Light-pink transparent axe-head-shaped single crystal
##STATUS=The identification of this mineral has been confirmed by X-ray diffraction and chemical analysis
##URL=rruff.info/R060183
##MEASURED CHEMISTRY=Ca_2.00_(Fe^2+^_0.58_Mn_0.23_Mg_0.19_)Al_2.00_B_1.00_Si_4.00_O_15_(OH)
##PIN_ID=L01506
##ORIENTATION=Laser parallel to (-1 -1 0). Fiducial mark perpendicular to laser is parallel to c [0 0 1]
52.67100, 989.0000
53.91000, 944.0000
55.14900, 956.0000
56.38700, 952.0000
57.62600, 964.0000
58.86400, 973.0000
60.10300, 977.0000
61.34100, 1001.000
62.57900, 1024.000
63.81700, 1016.000
65.05400, 1052.000
66.29200, 1129.000
67.52900, 1274.000
68.76700, 1513.000
70.00400, 1801.000
71.24100, 1906.000
72.47700, 1994.000
73.71400, 2267.000
74.95100, 2652.000
76.18700, 2935.000
77.42300, 2953.000
78.65900, 3018.000
79.89500, 3257.000
81.13100, 3599.000
82.36700, 4199.000
83.60200, 4556.975
84.83700, 5225.000
86.07200, 5567.000
87.30800, 5984.000
88.54200, 6548.000
89.77700, 7420.000
91.01200, 8591.000
92.24600, 9656.000
93.48000, 10326.00
94.71400, 10944.00
95.94800, 11380.00
97.18200, 11438.00
98.41600, 11941.00
99.64900, 13066.00
100.8830, 12954.00
102.1160, 13428.00
103.3490, 14641.00
104.5820, 15525.00
105.8150, 16879.00
107.0470, 19366.00
108.2800, 21199.00
109.5120, 21689.00
110.7440, 17179.00
111.9760, 16138.00
113.2080, 14927.00
114.4400, 14048.00
115.6710, 13890.00
116.9030, 13227.00
118.1340, 12742.00
119.3650, 12379.00
120.5960, 12133.00
121.8270, 12307.00
123.0580, 13183.00
124.2880, 13707.00
125.5190, 14115.00
126.7490, 14445.00
127.9790, 14487.00
129.2090, 13972.00
130.4390, 13372.00
131.6680, 13061.00
132.8980, 12201.00
134.1270, 12009.00
135.3560, 11850.00
136.5850, 12189.00
137.8140, 12830.00
139.0430, 13441.00
140.2710, 14093.00
141.5000, 14403.00
142.7280, 14923.00
143.9560, 15809.00
145.1840, 16793.00
146.4120, 18102.00
147.6390, 19527.00
148.8670, 20598.00
150.0940, 20337.23
151.3210, 20764.00
152.5490, 19102.00
153.7750, 17821.00
155.0020, 16924.00
156.2290, 16436.00
157.4550, 15683.00
158.6810, 15280.00
159.9080, 15045.00
161.1340, 15152.00
162.3590, 15478.00
163.5850, 16090.00
164.8110, 17339.00
166.0360, 18715.00
167.2610, 20655.00
168.4860, 22702.00
169.7110, 23964.00
170.9360, 24608.00
172.1610, 24021.00
173.3850, 22734.00
174.6100, 21230.00
175.8340, 19609.00
177.0580, 18187.00
178.2820, 16766.00
179.5050, 15365.00
180.7290, 14517.00
181.9520, 13824.00
183.1760, 13315.00
184.3990, 13168.00
185.6220, 13130.00
186.8450, 13259.00
188.0670, 13860.00
189.2900, 14494.00
190.5120, 15615.00
191.7340, 16406.00
192.9560, 17044.00
194.1780, 17134.00
195.4000, 17176.00
196.6220, 17048.00
197.8430, 17415.00
199.0640, 17889.00
200.2860, 18804.00
201.5070, 19902.00
202.7270, 21139.00
203.9480, 22105.00
205.1690, 22823.00
206.3890, 23568.46
207.6090, 24100.00
208.8290, 24356.00
210.0490, 24335.00
211.2690, 24075.00
212.4890, 23179.00
213.7080, 22430.00
214.9280, 21594.00
216.1470, 20707.00
217.3660, 19809.00
218.5850, 18745.00
219.8030, 17743.00
221.0220, 16472.00
222.2400, 15459.00
223.4590, 14585.00
224.6770, 13734.00
225.8950, 13224.00
227.1120, 12714.00
228.3300, 12052.00
229.5480, 11987.00
230.7650, 11632.00
231.9820, 11689.00
233.1990, 11883.00
234.4160, 12070.00
235.6330, 12334.24
236.8490, 12612.00
238.0660, 13013.00
239.2820, 13441.00
240.4980, 13889.00
241.7140, 14274.00
242.9300, 14792.00
244.1460, 15151.00
245.3610, 15405.00
246.5770, 15578.00
247.7920, 15480.00
249.0070, 15771.00
250.2220, 15908.00
251.4370, 16146.00
252.6510, 16288.00
253.8660, 16505.00
255.0800, 16245.00
256.2940, 16668.09
257.5080, 16175.00
258.7220, 16905.00
259.9360, 16931.00
261.1490, 16259.00
262.3630, 16147.00
263.5760, 16270.00
264.7890, 16901.00
266.0020, 17465.00
267.2150, 17683.00
268.4270, 18346.00
269.6400, 19201.00
270.8520, 19598.35
272.0640, 20066.14
273.2760, 20389.00
274.4880, 20367.00
275.7000, 19907.00
276.9120, 19294.00
278.1230, 18547.00
279.3340, 18016.00
280.5450, 17506.00
281.7560, 16949.39
282.9670, 16537.00
284.1780, 16066.00
285.3880, 16040.00
286.5980, 15801.00
287.8090, 15953.00
289.0190, 16136.00
290.2290, 16269.00
291.4380, 16617.00
292.6480, 16978.00
293.8570, 17602.00
295.0670, 18222.00
296.2760, 18941.00
297.4850, 19806.00
298.6930, 20328.00
299.9020, 21274.00
301.1110, 22320.00
302.3190, 23088.00
303.5270, 23994.00
304.7350, 24666.00
305.9430, 24402.00
307.1510, 23605.00
308.3580, 22279.00
309.5660, 21098.00
310.7730, 20321.00
311.9800, 19509.00
313.1870, 19336.00
314.3940, 19139.00
315.6010, 19542.00
316.8070, 20422.00
318.0130, 20471.00
319.2200, 19966.00
320.4260, 19484.00
321.6310, 19000.00
322.8370, 17860.00
324.0430, 17091.00
325.2480, 16751.00
326.4540, 16152.00
327.6590, 16080.00
328.8640, 15790.00
330.0680, 15578.00
331.2730, 15489.00
332.4780, 15662.00
333.6820, 16065.00
334.8860, 16663.00
336.0900, 17636.00
337.2940, 18569.00
338.4980, 19993.00
339.7010, 21576.00
340.9050, 22933.00
342.1080, 23755.00
343.3110, 24089.00
344.5140, 23827.00
345.7170, 23297.00
346.9200, 23087.00
348.1220, 22546.00
349.3240, 22627.00
350.5270, 22284.00
351.7290, 21431.00
352.9310, 20248.00
354.1320, 18752.00
355.3340, 17162.00
356.5350, 15842.00
357.7370, 14819.00
358.9380, 13835.00
360.1390, 13146.00
361.3400, 12816.00
362.5400, 12421.00
363.7410, 12169.00
364.9410, 12012.00
366.1410, 12050.00
367.3410, 12010.00
368.5410, 12192.00
369.7410, 12257.00
370.9400, 12597.00
372.1400, 12596.00
373.3390, 12755.00
374.5380, 12677.00
375.7370, 12844.00
376.9360, 13072.00
378.1350, 13311.00
379.3330, 13920.00
380.5310, 14688.97
381.7300, 15566.00
382.9280, 16783.00
384.1260, 18063.00
385.3230, 19437.00
386.5210, 20926.00
387.7180, 22015.00
388.9160, 23092.00
390.1130, 23227.00
391.3100, 23413.00
392.5060, 22737.00
393.7030, 21589.00
394.9000, 20165.00
396.0960, 19159.00
397.2920, 17985.00
398.4880, 17117.00
399.6840, 16409.00
400.8800, 15849.00
402.0750, 14984.00
403.2710, 14474.00
404.4660, 14128.00
405.6610, 13982.00
406.8560, 14038.00
408.0510, 14362.00
409.2450, 14786.00
410.4400, 15419.00
411.6340, 16331.00
412.8280, 17351.00
414.0220, 18698.00
415.2160, 19928.00
416.4100, 20546.00
417.6030, 20657.00
418.7970, 20533.00
419.9900, 20622.00
421.1830, 20719.00
422.3760, 21148.00
423.5690, 21232.00
424.7610, 21585.00
425.9540, 21810.00
427.1460, 21797.00
428.3380, 22004.00
429.5300, 21605.00
430.7220, 20868.00
431.9140, 20048.00
433.1050, 18909.00
434.2970, 17845.00
435.4880, 16737.00
436.6790, 16020.00
437.8700, 15397.00
439.0610, 15072.00
440.2510, 14968.00
441.4420, 15020.00
442.6320, 15001.00
443.8220, 15117.00
445.0120, 15000.00
446.2020, 14792.00
447.3910, 14644.00
448.5810, 14121.00
449.7700, 14173.00
450.9600, 14265.00
452.1490, 14420.00
453.3370, 14934.00
454.5260, 15319.00
455.7150, 16044.00
456.9030, 17064.00
458.0910, 18359.00
459.2800, 20146.00
460.4670, 22281.00
461.6550, 23873.00
462.8430, 24762.00
464.0300, 24650.00
465.2180, 23163.00
466.4050, 21825.00
467.5920, 20442.00
468.7790, 19202.00
469.9650, 18143.00
471.1520, 17649.00
472.3380, 17040.00
473.5250, 17011.00
474.7110, 17099.00
475.8970, 17728.00
477.0820, 18983.00
478.2680, 20111.00
479.4540, 21716.00
480.6390, 24032.00
481.8240, 25812.00
483.0090, 27337.00
484.1940, 27189.00
485.3780, 25743.00
486.5630, 23223.00
487.7470, 21132.00
488.9320, 19136.00
490.1160, 17553.15
491.3000, 16054.00
492.4830, 15235.00
493.6670, 14495.00
494.8500, 14163.00
496.0340, 14062.00
497.2170, 13882.00
498.4000, 14039.00
499.5820, 14026.00
500.7650, 14150.00
501.9480, 14512.00
503.1300, 14303.00
504.3120, 14546.00
505.4940, 14625.00
506.6760, 14487.00
507.8580, 14255.00
509.0390, 13940.00
510.2210, 13851.00
511.4020, 13581.00
512.5830, 13284.00
513.7640, 12900.00
514.9450, 12546.00
516.1250, 12396.00
517.3060, 12082.00
518.4860, 11939.00
519.6660, 11871.00
520.8460, 11728.00
522.0260, 11697.00
523.2060, 11668.00
524.3850, 11594.00
525.5650, 11599.56
526.7440, 11645.00
527.9230, 11634.00
529.1020, 11713.00
530.2810, 11837.00
531.4590, 11907.00
532.6380, 12058.00
533.8160, 12231.00
534.9940, 12353.71
536.1720, 12545.00
537.3500, 12714.00
538.5270, 12881.00
539.7050, 13173.00
540.8820, 13380.00
542.0590, 13715.00
543.2360, 13913.00
544.4130, 14065.00
545.5900, 14007.00
546.7660, 14214.00
547.9430, 13921.00
549.1190, 13862.00
550.2950, 13676.00
551.4710, 13708.00
552.6470, 13886.00
553.8220, 14050.00
554.9980, 14329.00
556.1730, 14590.00
557.3480, 14903.00
558.5230, 15211.00
559.6980, 15322.00
560.8730, 15314.00
562.0470, 15175.00
563.2220, 15022.00
564.3960, 14964.00
565.5700, 14801.00
566.7440, 14940.00
567.9170, 15327.00
569.0910, 15331.00
570.2640, 15681.00
571.4380, 15849.00
572.6110, 16134.00
573.7840, 16142.00
574.9570, 16134.00
576.1290, 15777.00
577.3020, 15617.00
578.4740, 15718.00
579.6460, 15639.00
580.8180, 15756.00
581.9900, 15617.00
583.1620, 15845.00
584.3330, 16099.00
585.5040, 16543.00
586.6760, 16642.00
587.8470, 16789.00
589.0180, 16583.00
590.1880, 15950.00
591.3590, 15410.00
592.5290, 14980.00
593.7000, 14480.00
594.8700, 13931.00
596.0400, 13405.00
597.2090, 13389.00
598.3790, 13315.00
599.5490, 13338.00
600.7180, 13248.00
601.8870, 13484.00
603.0560, 13602.00
604.2250, 13972.00
605.3940, 14363.00
606.5620, 14842.00
607.7300, 15344.00
608.8990, 16017.00
610.0670, 16454.00
611.2350, 17102.00
612.4020, 17682.00
613.5700, 18545.00
614.7370, 19090.00
615.9050, 19842.00
617.0720, 20448.00
618.2390, 20584.00
619.4060, 20546.00
620.5720, 19781.00
621.7390, 18854.00
622.9050, 17816.00
624.0710, 16480.00
625.2370, 15347.00
626.4030, 14617.00
627.5690, 14006.00
628.7340, 13557.00
629.9000, 13108.00
631.0650, 12944.00
632.2300, 12739.00
633.3950, 12733.00
634.5600, 12557.00
635.7240, 12712.00
636.8890, 12711.00
638.0530, 12942.00
639.2170, 12935.00
640.3810, 13129.00
641.5450, 13360.00
642.7080, 13404.00
643.8720, 13287.00
645.0350, 13419.00
646.1980, 13178.00
647.3610, 13107.00
648.5240, 13068.00
649.6870, 13071.00
650.8490, 13016.00
652.0120, 13102.00
653.1740, 12992.00
654.3360, 13074.00
655.4980, 13136.00
656.6600, 13379.00
657.8210, 13748.00
658.9830, 13993.00
660.1440, 14408.65
661.3050, 14782.00
662.4660, 15256.00
663.6270, 15788.00
664.7870, 16247.00
665.9480, 16709.00
667.1080, 17177.00
668.2680, 17612.00
669.4280, 18132.00
670.5880, 18857.00
671.7480, 19583.00
672.9070, 20685.00
674.0670, 21738.00
675.2260, 22683.00
676.3850, 22977.00
677.5440, 22976.00
678.7030, 22411.00
679.8610, 21189.00
681.0200, 20219.00
682.1780, 19297.00
683.3360, 18184.00
684.4940, 17393.00
685.6520, 16672.00
686.8090, 16161.00
687.9670, 15843.00
689.1240, 15686.00
690.2810, 15641.00
691.4380, 15690.00
692.5950, 15860.80
693.7520, 16156.54
694.9080, 16509.00
696.0650, 17090.00
697.2210, 17671.00
698.3770, 18424.00
699.5330, 19404.00
700.6880, 20949.00
701.8440, 22533.00
702.9990, 24645.00
704.1550, 27301.00
705.3100, 30338.00
706.4650, 33896.00
707.6190, 38238.00
708.7740, 42508.00
709.9290, 47422.00
711.0830, 51609.00
712.2370, 55017.00
713.3910, 56614.00
714.5450, 56112.00
715.6980, 53584.00
716.8520, 49882.00
718.0050, 44990.00
719.1580, 40273.00
720.3110, 35376.00
721.4640, 31465.00
722.6170, 27861.00
723.7700, 24981.00
724.9220, 22714.00
726.0740, 21003.00
727.2260, 19665.00
728.3780, 18431.00
729.5300, 17521.00
730.6810, 16848.00
731.8330, 16349.00
732.9840, 15844.00
734.1350, 15260.00
735.2860, 15150.00
736.4370, 14674.00
737.5880, 14511.00
738.7380, 14390.00
739.8880, 14232.00
741.0390, 14135.00
742.1890, 14145.00
743.3380, 14103.00
744.4880, 14143.00
745.6380, 13866.00
746.7870, 13835.00
747.9360, 13922.00
749.0850, 14061.00
750.2340, 14029.00
751.3830, 14238.58
752.5310, 14201.00
753.6800, 14566.00
754.8280, 14623.00
755.9760, 14739.00
757.1240, 15327.00
758.2720, 15653.00
759.4190, 15909.00
760.5670, 16382.00
761.7140, 16889.00
762.8610, 17448.00
764.0080, 17846.00
765.1550, 18186.00
766.3020, 18133.00
767.4480, 18298.00
768.5950, 17933.00
769.7410, 17662.00
770.8870, 17236.00
772.0330, 16646.00
773.1780, 16234.00
774.3240, 15613.00
775.4690, 15223.00
776.6140, 14897.00
777.7590, 14551.00
778.9040, 14171.00
780.0490, 13967.00
781.1940, 13719.50
782.3380, 13690.00
783.4820, 13434.00
784.6260, 13333.00
785.7700, 13343.00
786.9140, 13272.00
788.0580, 13146.00
789.2010, 12994.00
790.3450, 13088.00
791.4880, 13023.00
792.6310, 12956.00
793.7730, 13064.00
794.9160, 12893.00
796.0590, 12945.00
797.2010, 12927.00
798.3430, 13042.00
799.4850, 13107.00
800.6270, 13194.00
801.7690, 13039.00
802.9100, 13301.00
804.0520, 13407.00
805.1930, 13617.00
806.3340, 13947.00
807.4750, 14112.00
808.6160, 14427.00
809.7560, 14561.93
810.8970, 14594.00
812.0370, 14761.00
813.1770, 14774.00
814.3170, 14726.00
815.4570, 14480.00
816.5960, 14264.00
817.7360, 14110.00
818.8750, 13828.00
820.0140, 13702.00
821.1530, 13703.00
822.2920, 13522.00
823.4310, 13493.00
824.5690, 13495.00
825.7070, 13383.00
826.8460, 13272.00
827.9840, 13507.00
829.1220, 13344.00
830.2590, 13416.00
831.3970, 13467.00
832.5340, 13441.00
833.6710, 13419.00
834.8080, 13547.00
835.9450, 13668.00
837.0820, 13760.00
838.2190, 13873.00
839.3550, 13964.79
840.4910, 14053.91
841.6270, 14153.00
842.7630, 14205.00
843.8990, 14314.00
845.0350, 14350.00
846.1700, 14454.00
847.3060, 14646.00
848.4410, 14664.00
849.5760, 14806.00
850.7100, 14829.00
851.8450, 14763.00
852.9800, 14739.00
854.1140, 14789.00
855.2480, 14852.00
856.3820, 14790.00
857.5160, 14783.00
858.6500, 14884.00
859.7830, 15081.00
860.9170, 15136.00
862.0500, 15234.32
863.1830, 15303.00
864.3160, 15331.00
865.4480, 15399.00
866.5810, 15375.00
867.7130, 15403.00
868.8460, 15456.61
869.9780, 15379.00
871.1100, 15549.00
872.2410, 15562.00
873.3730, 15580.00
874.5050, 15733.00
875.6360, 15638.00
876.7670, 15624.00
877.8980, 15838.00
879.0290, 15885.00
880.1590, 15914.00
881.2900, 15898.00
882.4200, 16028.00
883.5500, 16104.00
884.6800, 16171.00
885.8100, 16614.00
886.9400, 16877.00
888.0690, 17079.00
889.1990, 17449.00
890.3280, 17945.00
891.4570, 18548.00
892.5860, 18935.00
893.7140, 19582.00
894.8430, 20388.00
895.9710, 21337.00
897.1000, 22043.00
898.2280, 22665.00
899.3560, 23292.00
900.4830, 23682.00
901.6110, 23992.00
902.7380, 24011.00
903.8660, 23798.00
904.9930, 23411.00
906.1200, 22938.00
907.2460, 22496.00
908.3730, 22029.00
909.5000, 21753.00
910.6260, 20764.00
911.7520, 20195.00
912.8780, 19647.00
914.0040, 19362.00
915.1290, 18843.00
916.2550, 18775.00
917.3800, 18294.00
918.5050, 18285.00
919.6300, 18162.00
920.7550, 18119.00
921.8800, 18047.00
923.0040, 18087.00
924.1290, 18221.00
925.2530, 18296.00
926.3770, 18525.00
927.5010, 18569.00
928.6250, 19065.00
929.7480, 18943.00
930.8720, 19130.00
931.9950, 19145.00
933.1180, 19123.00
934.2410, 19187.00
935.3640, 19269.00
936.4860, 19441.00
937.6090, 19721.00
938.7310, 20206.00
939.8530, 20455.00
940.9750, 21206.00
942.0970, 21694.00
943.2180, 22492.00
944.3400, 23537.00
945.4610, 24863.00
946.5820, 25908.70
947.7030, 26878.00
948.8240, 28336.00
949.9450, 29644.00
951.0650, 30785.00
952.1860, 31863.00
953.3060, 33090.00
954.4260, 34292.00
955.5460, 35917.00
956.6650, 37626.00
957.7850, 39507.00
958.9040, 41894.00
960.0230, 44225.00
961.1420, 46365.00
962.2610, 48004.00
963.3800, 48203.00
964.4990, 47739.00
965.6170, 46141.00
966.7350, 44230.00
967.8530, 42186.00
968.9710, 40014.00
970.0890, 38060.00
971.2070, 37438.00
972.3240, 36544.00
973.4410, 36269.00
974.5580, 36489.00
975.6750, 37102.00
976.7920, 37358.00
977.9090, 37620.00
979.0250, 37538.00
980.1410, 36918.00
981.2580, 36426.00
982.3740, 35257.00
983.4890, 34309.00
984.6050, 33067.00
985.7200, 32158.00
986.8360, 31568.00
987.9510, 30917.18
989.0660, 30589.00
990.1810, 30269.00
991.2950, 30043.00
992.4100, 30011.00
993.5240, 30116.00
994.6390, 30258.00
995.7530, 30688.00
996.8660, 30886.00
997.9800, 31370.00
999.0940, 31545.00
1000.207, 32089.00
1001.320, 32706.00
1002.433, 32735.00
1003.546, 32765.00
1004.659, 32195.00
1005.772, 31341.00
1006.884, 30334.00
1007.996, 29247.00
1009.108, 28232.00
1010.220, 26767.00
1011.332, 25541.00
1012.444, 24367.00
1013.555, 23194.00
1014.666, 22294.00
1015.777, 21499.00
1016.888, 20941.00
1017.999, 20610.00
1019.110, 20073.00
1020.220, 20004.00
1021.331, 19776.00
1022.441, 19585.00
1023.551, 19507.00
1024.661, 19738.00
1025.770, 19570.00
1026.880, 19490.00
1027.989, 19367.00
1029.098, 19290.00
1030.207, 19162.00
1031.316, 18927.00
1032.425, 18746.00
1033.533, 18739.00
1034.642, 18654.00
1035.750, 18613.00
1036.858, 18602.00
1037.966, 18581.00
1039.073, 18730.00
1040.181, 18964.00
1041.288, 19089.00
1042.396, 19227.88
1043.503, 19398.93
1044.610, 19481.00
1045.716, 19753.00
1046.823, 19943.00
1047.929, 20258.00
1049.036, 20381.00
1050.142, 20676.00
1051.248, 21090.00
1052.353, 21530.00
1053.459, 21853.00
1054.564, 22260.00
1055.670, 22559.00
1056.775, 22630.00
1057.880, 22710.00
1058.985, 22554.00
1060.089, 22320.00
1061.194, 21732.00
1062.298, 21419.00
1063.402, 20820.00
1064.506, 20068.00
1065.610, 20019.00
1066.713, 19627.00
1067.817, 19233.00
1068.920, 19093.00
1070.023, 18762.00
1071.126, 19105.00
1072.229, 19036.00
1073.332, 19115.00
1074.435, 19564.00
1075.537, 19889.00
1076.639, 20278.00
1077.741, 20722.00
1078.843, 21413.00
1079.945, 22035.00
1081.046, 22327.00
1082.148, 22677.00
1083.249, 22630.00
1084.350, 22162.00
1085.451, 21559.00
1086.551, 21121.00
1087.652, 20577.00
1088.752, 19889.00
1089.853, 19387.00
1090.953, 19065.00
1092.053, 18731.00
1093.152, 18593.00
1094.252, 18387.00
1095.351, 18332.00
1096.451, 18140.00
1097.550, 18375.00
1098.649, 18475.00
1099.748, 18624.00
1100.846, 18616.00
1101.945, 18860.00
1103.043, 18975.00
1104.141, 18932.00
1105.239, 18966.00
1106.337, 18923.00
1107.434, 18808.00
1108.532, 18773.00
1109.629, 18465.00
1110.726, 18426.00
1111.823, 18195.00
1112.920, 17876.00
1114.017, 17881.00
1115.113, 17529.00
1116.210, 17449.00
1117.306, 17488.00
1118.402, 17485.00
1119.498, 17538.00
1120.593, 17536.00
1121.689, 17561.00
1122.784, 17484.00
1123.879, 17360.00
1124.974, 17052.00
1126.069, 17111.00
1127.164, 16794.00
1128.259, 16630.00
1129.353, 16510.00
1130.447, 16391.00
1131.541, 16306.00
1132.635, 16150.00
1133.729, 16253.00
1134.822, 16160.00
1135.916, 16235.00
1137.009, 15984.00
1138.102, 16077.00
1139.195, 16157.00
1140.288, 16010.00
1141.380, 16079.00
1142.473, 15962.00
1143.565, 15982.00
1144.657, 15974.00
1145.749, 15912.00
1146.841, 15908.00
1147.932, 16109.00
1149.024, 15990.00
1150.115, 15810.00
1151.206, 15998.00
1152.297, 15929.00
1153.388, 16021.00
1154.479, 15888.00
1155.569, 15930.00
1156.659, 16118.00
1157.750, 16105.00
1158.839, 16117.00
1159.929, 16178.00
1161.019, 16018.00
1162.108, 16087.00
1163.198, 16058.00
1164.287, 15958.00
1165.376, 15797.00
1166.465, 15881.00
1167.553, 15908.00
1168.642, 15850.00
1169.730, 15914.00
1170.818, 15794.00
1171.906, 15925.00
1172.994, 15906.00
1174.082, 15846.00
1175.170, 15883.00
1176.257, 15937.00
1177.344, 15904.00
1178.431, 15880.00
1179.518, 15794.00
1180.605, 15855.00
1181.691, 15782.00
1182.778, 15780.38
1183.864, 15815.00
1184.950, 15807.00
1186.036, 15848.00
1187.122, 15966.00
1188.207, 15911.00
1189.292, 15909.00
1190.378, 15926.00
1191.463, 15767.00
1192.548, 15955.00
1193.632, 16075.00
1194.717, 15776.00
1195.801, 15815.00
1196.886, 15857.00
1197.970, 16021.00
1199.054, 15814.00
1200.137, 15940.00
1201.221, 16016.00
1202.305, 16014.00
1203.388, 16184.00
1204.471, 16184.15
1205.554, 16029.00
1206.637, 16169.00
1207.719, 16090.00
1208.802, 15877.00
1209.884, 15934.00
1210.966, 16014.00
1212.048, 16133.00
1213.130, 16044.00
1214.212, 16239.00
1215.293, 16165.00
1216.374, 16257.00
1217.456, 16174.00
1218.536, 16071.00
1219.617, 16299.00
1220.698, 16161.00
1221.778, 16039.00
1222.859, 16249.00
1223.939, 16212.00
1225.019, 16206.00
1226.099, 16218.00
1227.178, 16212.91
1228.258, 16316.00
1229.337, 16271.00
1230.417, 16355.00
1231.496, 16463.00
1232.574, 16275.00
1233.653, 16399.00
1234.732, 16187.00
