##NAMES=Axinite-(Fe)
##RRUFFID=R060183
##IDEAL CHEMISTRY=Ca_4_Fe^2+^_2_Al_4_[B_2_Si_8_O_30_](OH)_2_
##LOCALITY=Skagit Bluffs, near Manning Park, British Columbia, Canada
##OWNER=RRUFF
##SOURCE=Lloyd Twaites
##DESCRIPTION=Light-pink transparent axe-head-shaped single crystal
##STATUS=The identification of this mineral has been confirmed by X-ray diffraction and chemical analysis
##URL=rruff.info/R060183
##MEASURED CHEMISTRY=Ca_2.00_(Fe^2+^_0.58_Mn_0.23_Mg_0.19_)Al_2.00_B_1.00_Si_4.00_O_15_(OH)
##PIN_ID=L01743
##ORIENTATION=Laser parallel to (0 1 1). Fiducial mark perpendicular to laser is parallel to -a [-1 0 0]
52.67100, 1020.000
53.91000, 1038.000
55.14900, 1036.000
56.38700, 1072.000
57.62600, 1032.000
58.86400, 1033.000
60.10300, 1065.000
61.34100, 1067.000
62.57900, 1116.000
63.81700, 1180.000
65.05400, 1225.042
66.29200, 1325.510
67.52900, 1430.103
68.76700, 1558.000
70.00400, 1700.258
71.24100, 1876.238
72.47700, 2053.000
73.71400, 2248.000
74.95100, 2439.255
76.18700, 2711.000
77.42300, 2833.000
78.65900, 3068.000
79.89500, 3254.000
81.13100, 3565.000
82.36700, 4087.000
83.60200, 4638.000
84.83700, 5009.000
86.07200, 5228.000
87.30800, 5683.000
88.54200, 6251.000
89.77700, 7056.000
91.01200, 8189.000
92.24600, 9353.000
93.48000, 10530.00
94.71400, 11887.00
95.94800, 13277.00
97.18200, 14535.00
98.41600, 15981.00
99.64900, 17825.00
100.8830, 19549.00
102.1160, 21093.00
103.3490, 23109.00
104.5820, 25876.00
105.8150, 29751.00
107.0470, 33737.00
108.2800, 36566.00
109.5120, 34843.00
110.7440, 28827.00
111.9760, 23234.00
113.2080, 18808.00
114.4400, 15799.00
115.6710, 13719.00
116.9030, 11907.00
118.1340, 10322.00
119.3650, 9348.000
120.5960, 8708.000
121.8270, 8159.000
123.0580, 8139.000
124.2880, 8157.000
125.5190, 7760.000
126.7490, 7766.000
127.9790, 8100.000
129.2090, 8388.000
130.4390, 8823.000
131.6680, 9543.000
132.8980, 10159.00
134.1270, 11082.00
135.3560, 12323.00
136.5850, 13801.00
137.8140, 14727.00
139.0430, 15680.00
140.2710, 15808.00
141.5000, 15354.00
142.7280, 14920.00
143.9560, 14919.00
145.1840, 15094.00
146.4120, 15724.00
147.6390, 16271.00
148.8670, 16434.00
150.0940, 15945.00
151.3210, 15025.00
152.5490, 13859.00
153.7750, 13158.00
155.0020, 12776.00
156.2290, 12641.00
157.4550, 12414.00
158.6810, 12313.00
159.9080, 12391.00
161.1340, 12826.71
162.3590, 13335.00
163.5850, 14321.00
164.8110, 15378.00
166.0360, 16742.00
167.2610, 18475.00
168.4860, 20378.00
169.7110, 21531.00
170.9360, 21686.00
172.1610, 20779.00
173.3850, 19258.00
174.6100, 17442.00
175.8340, 15338.00
177.0580, 14061.00
178.2820, 12639.00
179.5050, 11562.00
180.7290, 10559.00
181.9520, 10045.00
183.1760, 9732.000
184.3990, 10038.00
185.6220, 10188.00
186.8450, 10482.00
188.0670, 11142.00
189.2900, 11860.00
190.5120, 13203.00
191.7340, 14665.00
192.9560, 15659.00
194.1780, 15916.00
195.4000, 15898.00
196.6220, 16033.00
197.8430, 16788.00
199.0640, 17812.00
200.2860, 19640.00
201.5070, 21786.00
202.7270, 24200.00
203.9480, 26038.00
205.1690, 27001.00
206.3890, 26987.00
207.6090, 26023.00
208.8290, 24701.00
210.0490, 22959.00
211.2690, 20978.00
212.4890, 19391.00
213.7080, 17558.00
214.9280, 15907.00
216.1470, 14485.00
217.3660, 13338.00
218.5850, 12337.00
219.8030, 11387.00
221.0220, 10401.00
222.2400, 9657.000
223.4590, 9054.000
224.6770, 8637.000
225.8950, 8180.000
227.1120, 7974.000
228.3300, 7892.000
229.5480, 7725.000
230.7650, 7702.000
231.9820, 7817.000
233.1990, 8071.000
234.4160, 8224.000
235.6330, 8673.000
236.8490, 9270.000
238.0660, 9617.000
239.2820, 10382.00
240.4980, 10970.00
241.7140, 11528.60
242.9300, 12192.00
244.1460, 12643.00
245.3610, 12931.00
246.5770, 13251.00
247.7920, 13414.00
249.0070, 13715.00
250.2220, 13811.00
251.4370, 14367.00
252.6510, 14890.00
253.8660, 15304.00
255.0800, 15240.00
256.2940, 15242.00
257.5080, 15171.00
258.7220, 15905.00
259.9360, 16549.00
261.1490, 16596.00
262.3630, 16904.00
263.5760, 18264.00
264.7890, 19744.00
266.0020, 21197.00
267.2150, 23206.00
268.4270, 25063.00
269.6400, 27111.00
270.8520, 28907.00
272.0640, 30064.00
273.2760, 30650.00
274.4880, 30030.00
275.7000, 29057.00
276.9120, 27487.00
278.1230, 25475.00
279.3340, 23668.00
280.5450, 21718.00
281.7560, 20375.00
282.9670, 19388.00
284.1780, 18786.00
285.3880, 18240.00
286.5980, 18066.00
287.8090, 17860.00
289.0190, 17979.00
290.2290, 18334.00
291.4380, 18942.00
292.6480, 19749.00
293.8570, 20579.00
295.0670, 21657.00
296.2760, 22902.00
297.4850, 24208.00
298.6930, 25713.00
299.9020, 27325.00
301.1110, 29050.00
302.3190, 30950.00
303.5270, 33145.00
304.7350, 34446.00
305.9430, 34444.00
307.1510, 32938.00
308.3580, 30427.00
309.5660, 27083.00
310.7730, 24469.00
311.9800, 22439.00
313.1870, 21163.00
314.3940, 19907.00
315.6010, 19729.00
316.8070, 19540.00
318.0130, 19197.00
319.2200, 18624.00
320.4260, 17737.00
321.6310, 16848.00
322.8370, 16070.00
324.0430, 15752.00
325.2480, 15367.00
326.4540, 15538.00
327.6590, 15412.00
328.8640, 15089.00
330.0680, 14430.00
331.2730, 14027.00
332.4780, 13309.00
333.6820, 12994.00
334.8860, 13106.00
336.0900, 13713.00
337.2940, 14499.00
338.4980, 15808.00
339.7010, 17336.00
340.9050, 19058.00
342.1080, 21248.00
343.3110, 22550.00
344.5140, 23652.00
345.7170, 24255.00
346.9200, 24721.00
348.1220, 25556.00
349.3240, 26853.00
350.5270, 27180.00
351.7290, 26162.00
352.9310, 23711.00
354.1320, 20784.00
355.3340, 17963.00
356.5350, 15680.00
357.7370, 13745.00
358.9380, 12355.00
360.1390, 11199.00
361.3400, 10301.00
362.5400, 9726.000
363.7410, 9233.000
364.9410, 8880.000
366.1410, 8840.000
367.3410, 8686.000
368.5410, 8772.000
369.7410, 8900.000
370.9400, 8978.000
372.1400, 8970.000
373.3390, 9102.000
374.5380, 9279.000
375.7370, 9327.000
376.9360, 9587.000
378.1350, 9952.000
379.3330, 10755.00
380.5310, 11788.00
381.7300, 12708.00
382.9280, 14284.00
384.1260, 15735.00
385.3230, 17749.00
386.5210, 19861.00
387.7180, 21660.00
388.9160, 22674.00
390.1130, 22462.00
391.3100, 21302.00
392.5060, 19602.00
393.7030, 17732.00
394.9000, 16016.00
396.0960, 14688.00
397.2920, 13468.00
398.4880, 12646.00
399.6840, 11903.00
400.8800, 11582.00
402.0750, 11373.00
403.2710, 11306.00
404.4660, 12536.00
405.6610, 12342.00
406.8560, 13426.00
408.0510, 15258.00
409.2450, 17228.00
410.4400, 19548.00
411.6340, 22642.00
412.8280, 26489.00
414.0220, 31047.00
415.2160, 34575.00
416.4100, 35625.00
417.6030, 33738.00
418.7970, 30306.00
419.9900, 27334.00
421.1830, 25821.00
422.3760, 24770.00
423.5690, 24547.00
424.7610, 24331.00
425.9540, 24613.00
427.1460, 24561.00
428.3380, 23667.00
429.5300, 22501.00
430.7220, 20762.00
431.9140, 19303.00
433.1050, 17367.00
434.2970, 15519.00
435.4880, 14332.00
436.6790, 13377.00
437.8700, 12950.00
439.0610, 12836.00
440.2510, 13089.00
441.4420, 13364.00
442.6320, 13741.00
443.8220, 13918.00
445.0120, 13250.00
446.2020, 12299.00
447.3910, 11161.00
448.5810, 10311.00
449.7700, 9627.000
450.9600, 8980.000
452.1490, 8517.000
453.3370, 8230.000
454.5260, 8090.000
455.7150, 7907.000
456.9030, 7751.000
458.0910, 7626.000
459.2800, 7575.195
460.4670, 7466.000
461.6550, 7583.000
462.8430, 7621.000
464.0300, 7719.139
465.2180, 7791.000
466.4050, 7975.000
467.5920, 8227.000
468.7790, 8472.000
469.9650, 8982.000
471.1520, 9372.000
472.3380, 10007.00
473.5250, 10804.00
474.7110, 11901.00
475.8970, 13174.00
477.0820, 14883.31
478.2680, 16850.00
479.4540, 19047.00
480.6390, 21637.00
481.8240, 24329.00
483.0090, 26513.00
484.1940, 26851.00
485.3780, 24855.00
486.5630, 21668.00
487.7470, 18502.00
488.9320, 16073.00
490.1160, 13905.00
491.3000, 12560.00
492.4830, 11664.00
493.6670, 11007.00
494.8500, 10773.00
496.0340, 10857.00
497.2170, 11187.00
498.4000, 11482.00
499.5820, 11947.00
500.7650, 12658.00
501.9480, 13061.00
503.1300, 13981.00
504.3120, 14603.00
505.4940, 15336.00
506.6760, 16534.00
507.8580, 17035.00
509.0390, 16505.00
510.2210, 16180.00
511.4020, 15534.00
512.5830, 14837.00
513.7640, 13666.00
514.9450, 12766.00
516.1250, 11736.00
517.3060, 10644.00
518.4860, 10026.00
519.6660, 9452.000
520.8460, 9066.000
522.0260, 8748.000
523.2060, 8478.000
524.3850, 8408.000
525.5650, 8452.000
526.7440, 8414.000
527.9230, 8407.000
529.1020, 8635.000
530.2810, 8743.000
531.4590, 8836.000
532.6380, 8999.000
533.8160, 9155.000
534.9940, 9328.000
536.1720, 9333.000
537.3500, 9518.000
538.5270, 9716.000
539.7050, 9672.000
540.8820, 9906.000
542.0590, 10064.00
543.2360, 10042.00
544.4130, 10134.00
545.5900, 10077.00
546.7660, 10113.00
547.9430, 10022.00
549.1190, 9658.000
550.2950, 9668.000
551.4710, 9576.000
552.6470, 9523.000
553.8220, 9786.000
554.9980, 9938.000
556.1730, 10254.00
557.3480, 10631.00
558.5230, 10884.00
559.6980, 11183.00
560.8730, 11501.00
562.0470, 11707.00
563.2220, 11944.00
564.3960, 12203.00
565.5700, 12858.00
566.7440, 13419.00
567.9170, 14276.00
569.0910, 15167.00
570.2640, 15826.00
571.4380, 16378.00
572.6110, 16781.00
573.7840, 16873.00
574.9570, 16511.00
576.1290, 16181.00
577.3020, 15906.00
578.4740, 15521.00
579.6460, 15491.00
580.8180, 15644.00
581.9900, 16012.00
583.1620, 16767.00
584.3330, 17602.00
585.5040, 18564.00
586.6760, 19296.00
587.8470, 19807.00
589.0180, 19178.00
590.1880, 18384.00
591.3590, 16888.00
592.5290, 15594.00
593.7000, 14209.00
594.8700, 12906.00
596.0400, 11843.00
597.2090, 11003.00
598.3790, 10443.00
599.5490, 9897.000
600.7180, 9473.000
601.8870, 9383.000
603.0560, 9189.000
604.2250, 9166.000
605.3940, 9028.000
606.5620, 9129.000
607.7300, 9088.000
608.8990, 9293.000
610.0670, 9389.000
611.2350, 9666.000
612.4020, 9864.000
613.5700, 9927.000
614.7370, 10102.00
615.9050, 10000.00
617.0720, 10040.00
618.2390, 9950.000
619.4060, 9944.000
620.5720, 9511.000
621.7390, 9242.000
622.9050, 8758.000
624.0710, 8508.000
625.2370, 8140.000
626.4030, 7848.000
627.5690, 7720.000
628.7340, 7501.000
629.9000, 7462.000
631.0650, 7433.000
632.2300, 7435.000
633.3950, 7511.000
634.5600, 7781.000
635.7240, 7891.000
636.8890, 8162.000
638.0530, 8240.000
639.2170, 8641.000
640.3810, 8784.000
641.5450, 8810.000
642.7080, 8954.000
643.8720, 8907.000
645.0350, 8807.000
646.1980, 8732.000
647.3610, 8560.000
648.5240, 8309.000
649.6870, 7942.000
650.8490, 7929.000
652.0120, 7652.000
653.1740, 7549.000
654.3360, 7423.000
655.4980, 7443.000
656.6600, 7488.000
657.8210, 7464.000
658.9830, 7536.000
660.1440, 7563.000
661.3050, 7770.000
662.4660, 7820.000
663.6270, 7957.000
664.7870, 8415.000
665.9480, 8788.000
667.1080, 9419.000
668.2680, 10060.00
669.4280, 10628.00
670.5880, 11804.00
671.7480, 12678.00
672.9070, 13612.00
674.0670, 14738.00
675.2260, 15497.00
676.3850, 15882.00
677.5440, 15665.00
678.7030, 14984.00
679.8610, 14183.00
681.0200, 13101.00
682.1780, 12470.00
683.3360, 11636.00
684.4940, 10905.00
685.6520, 10598.00
686.8090, 10133.00
687.9670, 9902.000
689.1240, 10086.00
690.2810, 9889.000
691.4380, 10034.00
692.5950, 10226.00
693.7520, 10652.00
694.9080, 11056.00
696.0650, 11717.00
697.2210, 12652.00
698.3770, 13430.00
699.5330, 14646.00
700.6880, 16130.00
701.8440, 18274.00
702.9990, 20742.00
704.1550, 23878.00
705.3100, 27360.00
706.4650, 31865.00
707.6190, 36747.00
708.7740, 41820.00
709.9290, 46865.00
711.0830, 51883.00
712.2370, 55328.00
713.3910, 56712.00
714.5450, 56349.00
715.6980, 53197.00
716.8520, 48579.00
718.0050, 42777.00
719.1580, 37318.00
720.3110, 32224.00
721.4640, 27863.00
722.6170, 24406.00
723.7700, 21352.00
724.9220, 18861.00
726.0740, 16930.00
727.2260, 15431.00
728.3780, 14255.00
729.5300, 13224.00
730.6810, 12514.00
731.8330, 11835.00
732.9840, 11269.00
734.1350, 10834.00
735.2860, 10403.00
736.4370, 10232.00
737.5880, 9953.000
738.7380, 9682.000
739.8880, 9448.000
741.0390, 9321.000
742.1890, 9314.000
743.3380, 9181.000
744.4880, 9006.000
745.6380, 9112.000
746.7870, 9057.000
747.9360, 9169.000
749.0850, 9245.382
750.2340, 9346.000
751.3830, 9484.000
752.5310, 9667.000
753.6800, 9871.000
754.8280, 10164.00
755.9760, 10714.00
757.1240, 10982.00
758.2720, 11748.00
759.4190, 12349.00
760.5670, 13264.00
761.7140, 13896.00
762.8610, 14715.00
764.0080, 15350.00
765.1550, 15995.00
766.3020, 16459.00
767.4480, 16274.00
768.5950, 16049.00
769.7410, 15296.00
770.8870, 14867.00
772.0330, 13935.00
773.1780, 13110.00
774.3240, 12441.00
775.4690, 11695.00
776.6140, 11095.00
777.7590, 10594.00
778.9040, 9999.000
780.0490, 9773.000
781.1940, 9389.000
782.3380, 9113.000
783.4820, 8878.000
784.6260, 8657.033
785.7700, 8468.000
786.9140, 8359.000
788.0580, 8254.000
789.2010, 8169.000
790.3450, 8060.000
791.4880, 7968.000
792.6310, 7922.000
793.7730, 7911.000
794.9160, 7928.000
796.0590, 7933.000
797.2010, 7861.000
798.3430, 7845.000
799.4850, 7729.000
800.6270, 7874.000
801.7690, 8061.000
802.9100, 8152.000
804.0520, 8157.000
805.1930, 8329.000
806.3340, 8713.000
807.4750, 9087.000
808.6160, 9490.000
809.7560, 9726.000
810.8970, 9849.000
812.0370, 9918.000
813.1770, 9917.000
814.3170, 9617.000
815.4570, 9377.000
816.5960, 8951.000
817.7360, 8859.000
818.8750, 8552.000
820.0140, 8295.000
821.1530, 8148.000
822.2920, 8027.000
823.4310, 7948.000
824.5690, 7916.000
825.7070, 7698.000
826.8460, 7757.000
827.9840, 7715.000
829.1220, 7852.000
830.2590, 8018.000
831.3970, 8176.000
832.5340, 7869.000
833.6710, 8080.000
834.8080, 8016.000
835.9450, 8080.000
837.0820, 8142.000
838.2190, 8286.000
839.3550, 8397.000
840.4910, 8600.000
841.6270, 8627.000
842.7630, 8620.000
843.8990, 8988.000
845.0350, 9210.000
846.1700, 9198.000
847.3060, 9466.000
848.4410, 9425.000
849.5760, 9632.000
850.7100, 9817.000
851.8450, 9600.000
852.9800, 9837.000
854.1140, 9792.000
855.2480, 9816.000
856.3820, 9731.000
857.5160, 9777.000
858.6500, 9763.000
859.7830, 9804.000
860.9170, 9780.000
862.0500, 9915.000
863.1830, 10005.00
864.3160, 10122.00
865.4480, 10000.00
866.5810, 10195.00
867.7130, 10167.00
868.8460, 10307.00
869.9780, 10254.00
871.1100, 10203.00
872.2410, 10309.00
873.3730, 10336.25
874.5050, 10433.67
875.6360, 10575.00
876.7670, 10732.00
877.8980, 10957.00
879.0290, 11242.00
880.1590, 11359.00
881.2900, 11686.18
882.4200, 12049.34
883.5500, 12337.00
884.6800, 12965.00
885.8100, 13469.00
886.9400, 14113.00
888.0690, 14838.00
889.1990, 15701.00
890.3280, 16811.00
891.4570, 18075.00
892.5860, 19458.00
893.7140, 20660.00
894.8430, 22365.00
895.9710, 23564.00
897.1000, 24802.00
898.2280, 25541.55
899.3560, 26142.00
900.4830, 26386.00
901.6110, 26430.00
902.7380, 26362.00
903.8660, 25822.00
904.9930, 25621.00
906.1200, 25251.00
907.2460, 24842.00
908.3730, 24192.00
909.5000, 23607.00
910.6260, 22500.00
911.7520, 21555.00
912.8780, 20465.00
914.0040, 19381.00
915.1290, 18103.00
916.2550, 17264.00
917.3800, 16469.00
918.5050, 15784.00
919.6300, 15416.00
920.7550, 14831.00
921.8800, 14635.00
923.0040, 14448.00
924.1290, 14629.00
925.2530, 14576.00
926.3770, 14916.00
927.5010, 15052.00
928.6250, 14772.00
929.7480, 15158.00
930.8720, 15021.00
931.9950, 14810.00
933.1180, 14772.00
934.2410, 14307.00
935.3640, 14042.00
936.4860, 13762.00
937.6090, 13640.00
938.7310, 13589.00
939.8530, 13745.00
940.9750, 13915.00
942.0970, 14293.00
943.2180, 14808.00
944.3400, 15282.00
945.4610, 16191.00
946.5820, 16886.00
947.7030, 17707.00
948.8240, 18527.00
949.9450, 19415.50
951.0650, 20512.00
952.1860, 21398.00
953.3060, 22451.00
954.4260, 23677.00
955.5460, 24616.00
956.6650, 25735.00
957.7850, 27292.00
958.9040, 28980.00
960.0230, 31017.00
961.1420, 32601.00
962.2610, 33921.00
963.3800, 34315.00
964.4990, 34092.00
965.6170, 33320.00
966.7350, 32086.00
967.8530, 30905.00
968.9710, 29973.00
970.0890, 29323.00
971.2070, 29237.00
972.3240, 29515.00
973.4410, 30495.00
974.5580, 31935.00
975.6750, 33474.00
976.7920, 35086.00
977.9090, 36306.00
979.0250, 37103.00
980.1410, 37174.00
981.2580, 36538.00
982.3740, 35973.00
983.4890, 34789.00
984.6050, 33715.00
985.7200, 33080.00
986.8360, 32306.00
987.9510, 32236.00
989.0660, 32459.00
990.1810, 32340.00
991.2950, 32295.00
992.4100, 32391.00
993.5240, 32019.00
994.6390, 32390.00
995.7530, 32586.00
996.8660, 33084.00
997.9800, 33660.00
999.0940, 34513.00
1000.207, 35632.00
1001.320, 36635.00
1002.433, 37317.00
1003.546, 37732.00
1004.659, 37362.00
1005.772, 36227.00
1006.884, 34529.00
1007.996, 32620.00
1009.108, 29784.00
1010.220, 27308.00
1011.332, 24801.00
1012.444, 22693.00
1013.555, 20698.00
1014.666, 19063.00
1015.777, 17640.00
1016.888, 16546.00
1017.999, 15851.00
1019.110, 15200.00
1020.220, 14808.00
1021.331, 14667.00
1022.441, 14596.00
1023.551, 14740.00
1024.661, 14799.00
1025.770, 14587.00
1026.880, 14708.00
1027.989, 14357.00
1029.098, 14027.00
1030.207, 13597.00
1031.316, 13178.00
1032.425, 12749.00
1033.533, 12061.00
1034.642, 11776.00
1035.750, 11478.00
1036.858, 11146.00
1037.966, 11121.00
1039.073, 11017.00
1040.181, 10776.00
1041.288, 10822.00
1042.396, 10811.00
1043.503, 10741.00
1044.610, 10611.00
1045.716, 10742.00
1046.823, 10691.00
1047.929, 10759.00
1049.036, 10841.00
1050.142, 10891.00
1051.248, 11119.00
1052.353, 11230.00
1053.459, 11406.00
1054.564, 11405.00
1055.670, 11474.00
1056.775, 11505.00
1057.880, 11379.00
1058.985, 11273.00
1060.089, 11119.00
1061.194, 10848.00
1062.298, 10543.00
1063.402, 10239.00
1064.506, 10066.00
1065.610, 9827.000
1066.713, 9667.000
1067.817, 9584.000
1068.920, 9423.000
1070.023, 9471.000
1071.126, 9505.000
1072.229, 9614.000
1073.332, 9786.000
1074.435, 9974.235
1075.537, 10110.00
1076.639, 10484.00
1077.741, 10844.00
1078.843, 11144.00
1079.945, 11772.00
1081.046, 12067.00
1082.148, 12382.00
1083.249, 12501.00
1084.350, 12348.00
1085.451, 11905.00
1086.551, 11607.00
1087.652, 11217.00
1088.752, 10818.00
1089.853, 10687.00
1090.953, 10365.94
1092.053, 10165.00
1093.152, 9974.000
1094.252, 9882.000
1095.351, 9778.000
1096.451, 9837.000
1097.550, 9960.000
1098.649, 10048.00
1099.748, 10138.00
1100.846, 10429.00
1101.945, 10471.00
1103.043, 10747.00
1104.141, 10791.00
1105.239, 10846.00
1106.337, 10846.00
1107.434, 10681.00
1108.532, 10628.00
1109.629, 10412.00
1110.726, 10221.00
1111.823, 9854.000
1112.920, 9678.000
1114.017, 9484.000
1115.113, 9325.000
1116.210, 9045.000
1117.306, 9004.000
1118.402, 8841.000
1119.498, 8656.000
1120.593, 8619.000
1121.689, 8467.000
1122.784, 8401.000
1123.879, 8245.000
1124.974, 8133.000
1126.069, 7995.000
1127.164, 8036.000
1128.259, 7965.000
1129.353, 7899.000
1130.447, 7923.000
1131.541, 7881.000
1132.635, 7860.000
1133.729, 7675.000
1134.822, 7708.000
1135.916, 7733.000
1137.009, 7592.000
1138.102, 7641.000
1139.195, 7572.000
1140.288, 7629.000
1141.380, 7601.000
1142.473, 7588.000
1143.565, 7480.000
1144.657, 7580.000
1145.749, 7423.000
1146.841, 7430.000
1147.932, 7356.000
1149.024, 7388.000
1150.115, 7394.000
1151.206, 7373.000
1152.297, 7386.000
1153.388, 7373.963
1154.479, 7357.000
1155.569, 7369.000
1156.659, 7276.000
1157.750, 7287.000
1158.839, 7259.000
1159.929, 7289.000
1161.019, 7176.000
1162.108, 7230.000
1163.198, 7222.000
1164.287, 7285.000
1165.376, 7273.000
1166.465, 7143.000
1167.553, 7144.000
1168.642, 7171.000
1169.730, 7194.000
1170.818, 7145.000
1171.906, 7160.000
1172.994, 7227.000
1174.082, 7097.000
1175.170, 7263.000
1176.257, 7181.000
1177.344, 7134.000
1178.431, 7020.000
1179.518, 7198.000
1180.605, 7103.000
1181.691, 7124.000
1182.778, 7235.000
1183.864, 7004.000
1184.950, 7172.000
1186.036, 7076.000
1187.122, 7127.000
1188.207, 7157.000
1189.292, 7206.000
1190.378, 7161.000
1191.463, 7081.000
1192.548, 7193.000
1193.632, 7140.000
1194.717, 7184.000
1195.801, 7088.000
1196.886, 7065.000
1197.970, 7160.000
1199.054, 7116.000
1200.137, 7059.000
1201.221, 7185.000
1202.305, 7118.000
1203.388, 7056.000
1204.471, 7144.000
1205.554, 7112.000
1206.637, 7112.000
1207.719, 7128.380
1208.802, 7096.000
1209.884, 7109.000
1210.966, 7115.000
1212.048, 7089.000
1213.130, 7128.000
1214.212, 7207.000
1215.293, 7018.000
1216.374, 7038.000
1217.456, 6992.000
1218.536, 7071.000
1219.617, 7110.000
1220.698, 7032.000
1221.778, 7047.000
1222.859, 7018.000
1223.939, 6980.383
1225.019, 6987.633
1226.099, 6957.000
1227.178, 6977.000
1228.258, 7046.000
1229.337, 7050.000
1230.417, 7085.000
1231.496, 7008.000
1232.574, 7043.000
1233.653, 7039.000
1234.732, 7091.000
