##NAMES=Axinite-(Fe)
##RRUFFID=R060558
##IDEAL CHEMISTRY=Ca_4_Fe^2+^_2_Al_4_[B_2_Si_8_O_30_](OH)_2_
##LOCALITY=unknown
##OWNER=RRUFF
##SOURCE=Gemological Institute of America
##DESCRIPTION=Brown flattened crystal
##STATUS=The identification of this mineral has been confirmed by X-ray diffraction and chemical analysis
##URL=rruff.info/R060558
##MEASURED CHEMISTRY=Ca_2.00_(Fe^2+^_0.60_Mg_0.35_Mn_0.05_)_Î£=1_Al_2.00_BSi_4.00_O_15_(OH) ; B not measured
##PIN_ID=M01661
##ORIENTATION=Laser parallel to (1 1 0). Fiducial mark perpendicular to laser is parallel to c [0 0 1]
91.53100, 2326.000
92.77800, 2771.000
94.02500, 3523.000
95.27200, 4170.000
96.51900, 5148.000
97.76500, 6090.000
99.01100, 7045.000
100.2570, 7854.000
101.5030, 8652.000
102.7490, 9662.000
103.9940, 10847.00
105.2390, 12368.00
106.4840, 13400.00
107.7290, 13567.00
108.9740, 12306.00
110.2180, 10025.00
111.4620, 8154.000
112.7060, 6492.000
113.9500, 5279.000
115.1940, 4347.000
116.4370, 3616.000
117.6800, 3160.000
118.9230, 2907.000
120.1660, 2637.150
121.4090, 2642.000
122.6510, 2469.000
123.8940, 2350.000
125.1360, 2243.000
126.3770, 2164.000
127.6190, 2228.000
128.8600, 2292.000
130.1020, 2336.000
131.3430, 2439.000
132.5840, 2427.000
133.8240, 2591.000
135.0650, 2714.000
136.3050, 2926.000
137.5450, 3348.000
138.7850, 3630.000
140.0250, 3816.000
141.2640, 4070.000
142.5030, 4176.000
143.7430, 4363.000
144.9810, 4451.000
146.2200, 4665.000
147.4590, 5046.000
148.6970, 5472.000
149.9350, 5979.000
151.1730, 6441.000
152.4110, 6765.000
153.6480, 7210.000
154.8860, 7595.000
156.1230, 7767.000
157.3600, 7826.000
158.5960, 7620.000
159.8330, 7400.000
161.0690, 7439.000
162.3050, 7317.000
163.5410, 7368.000
164.7770, 7699.000
166.0130, 8080.000
167.2480, 8619.000
168.4830, 9209.000
169.7180, 9775.000
170.9530, 10039.00
172.1880, 9698.000
173.4220, 9191.000
174.6560, 8304.000
175.8900, 7406.000
177.1240, 6510.000
178.3580, 5863.000
179.5910, 5111.000
180.8250, 4717.000
182.0580, 4466.000
183.2900, 4508.000
184.5230, 4604.000
185.7560, 4793.000
186.9880, 4916.000
188.2200, 5052.000
189.4520, 5381.000
190.6830, 5868.000
191.9150, 6514.000
193.1460, 7055.000
194.3770, 7415.000
195.6080, 7605.000
196.8390, 7964.000
198.0700, 8480.000
199.3000, 9149.000
200.5300, 9889.000
201.7600, 10757.00
202.9900, 11659.00
204.2190, 12431.00
205.4490, 12825.00
206.6780, 12980.00
207.9070, 12684.00
209.1360, 12326.00
210.3640, 11810.00
211.5930, 11154.00
212.8210, 10477.00
214.0490, 9880.000
215.2770, 9090.000
216.5040, 8453.000
217.7320, 7848.000
218.9590, 7120.000
220.1860, 6634.000
221.4130, 5957.000
222.6400, 5629.000
223.8660, 5086.000
225.0920, 4744.000
226.3190, 4426.000
227.5450, 4170.000
228.7700, 3949.000
229.9960, 3779.000
231.2210, 3682.000
232.4460, 3599.448
233.6710, 3518.000
234.8960, 3619.000
236.1210, 3683.000
237.3450, 3860.000
238.5690, 4119.000
239.7930, 4338.000
241.0170, 4658.000
242.2410, 5042.000
243.4640, 5459.000
244.6870, 5910.000
245.9100, 6158.000
247.1330, 6611.000
248.3560, 6825.000
249.5780, 7138.000
250.8000, 7415.000
252.0230, 7778.000
253.2440, 8000.000
254.4660, 8155.000
255.6880, 8362.000
256.9090, 8684.400
258.1300, 8960.849
259.3510, 9384.000
260.5720, 9729.000
261.7920, 10119.00
263.0130, 10673.00
264.2330, 11423.00
265.4530, 12210.00
266.6730, 12944.00
267.8920, 13694.00
269.1120, 14175.00
270.3310, 14444.00
271.5500, 14113.00
272.7690, 13828.00
273.9880, 12910.00
275.2060, 12159.00
276.4240, 11160.00
277.6430, 10059.00
278.8600, 9279.000
280.0780, 8371.000
281.2960, 7723.000
282.5130, 7195.000
283.7300, 6954.000
284.9470, 6858.000
286.1640, 7017.000
287.3810, 7376.000
288.5970, 8029.000
289.8130, 8821.000
291.0290, 9689.000
292.2450, 11058.00
293.4610, 12204.00
294.6760, 13748.00
295.8910, 15250.00
297.1060, 16814.00
298.3210, 18326.00
299.5360, 19564.00
300.7510, 20937.00
301.9650, 21942.00
303.1790, 22850.00
304.3930, 23267.00
305.6070, 23327.00
306.8200, 23289.00
308.0340, 22217.00
309.2470, 20804.00
310.4600, 18710.00
311.6730, 16591.00
312.8850, 14496.00
314.0980, 12382.00
315.3100, 10601.00
316.5220, 9223.000
317.7340, 7966.000
318.9460, 7026.000
320.1570, 6217.000
321.3690, 5773.000
322.5800, 5392.000
323.7910, 5113.000
325.0010, 4928.000
326.2120, 4841.000
327.4220, 4931.000
328.6330, 4892.000
329.8430, 5027.000
331.0520, 5116.000
332.2620, 5182.000
333.4720, 5449.000
334.6810, 5652.000
335.8900, 6031.000
337.0990, 6478.000
338.3070, 7146.000
339.5160, 8074.000
340.7240, 9175.000
341.9320, 10305.00
343.1400, 11986.00
344.3480, 13540.00
345.5560, 15175.00
346.7630, 16511.00
347.9700, 17776.00
349.1770, 19301.00
350.3840, 20925.00
351.5910, 21906.00
352.7970, 21871.00
354.0040, 21222.00
355.2100, 19596.00
356.4160, 17296.00
357.6220, 14793.00
358.8270, 12629.00
360.0320, 10564.00
361.2380, 8996.000
362.4430, 7758.000
363.6470, 6752.000
364.8520, 6057.000
366.0560, 5507.000
367.2610, 5093.000
368.4650, 4869.000
369.6690, 4620.000
370.8720, 4383.000
372.0760, 4364.000
373.2790, 4271.000
374.4820, 4188.000
375.6850, 4237.000
376.8880, 4316.000
378.0910, 4447.000
379.2930, 4629.000
380.4950, 5017.000
381.6970, 5353.000
382.8990, 6026.000
384.1010, 6799.000
385.3020, 7470.000
386.5040, 8472.000
387.7050, 9561.000
388.9060, 10562.00
390.1060, 11441.00
391.3070, 11955.00
392.5070, 11994.00
393.7080, 11347.00
394.9080, 10539.00
396.1070, 9468.000
397.3070, 8525.000
398.5070, 7709.000
399.7060, 7035.000
400.9050, 6572.000
402.1040, 6288.000
403.3030, 6166.000
404.5010, 6201.000
405.7000, 6370.000
406.8980, 6739.000
408.0960, 7351.000
409.2940, 8333.000
410.4910, 9422.000
411.6890, 10731.00
412.8860, 12517.00
414.0830, 14543.00
415.2800, 16981.00
416.4770, 19667.00
417.6730, 21564.00
418.8690, 21630.00
420.0660, 20998.00
421.2620, 20010.00
422.4570, 18968.00
423.6530, 18565.00
424.8480, 18157.00
426.0440, 18237.00
427.2390, 18572.00
428.4340, 18532.00
429.6280, 17905.00
430.8230, 16801.00
432.0170, 15084.00
433.2110, 13173.00
434.4050, 11638.00
435.5990, 10164.00
436.7930, 9232.000
437.9860, 8605.000
439.1800, 8501.000
440.3730, 8804.000
441.5660, 9274.000
442.7580, 9962.000
443.9510, 10751.00
445.1430, 11061.00
446.3350, 10708.00
447.5270, 9847.000
448.7190, 8589.000
449.9110, 7392.000
451.1020, 6353.000
452.2930, 5448.000
453.4850, 4819.000
454.6750, 4383.000
455.8660, 4115.000
457.0570, 3803.000
458.2470, 3628.000
459.4370, 3557.000
460.6270, 3464.000
461.8170, 3430.000
463.0070, 3376.000
464.1960, 3412.000
465.3850, 3455.000
466.5750, 3547.000
467.7630, 3694.000
468.9520, 3886.000
470.1410, 4081.000
471.3290, 4347.000
472.5170, 4636.000
473.7050, 5167.000
474.8930, 5555.000
476.0810, 6174.000
477.2680, 7055.000
478.4560, 8096.000
479.6430, 9317.000
480.8300, 10763.00
482.0160, 12317.00
483.2030, 14124.00
484.3890, 15552.00
485.5760, 16311.00
486.7620, 15840.00
487.9480, 14027.00
489.1330, 12299.00
490.3190, 10269.00
491.5040, 8641.000
492.6890, 7286.000
493.8740, 6429.000
495.0590, 5862.000
496.2440, 5626.000
497.4280, 5524.000
498.6120, 5512.000
499.7960, 5633.000
500.9800, 5820.000
502.1640, 5988.000
503.3470, 6273.000
504.5310, 6395.000
505.7140, 6451.000
506.8970, 6518.000
508.0800, 6594.000
509.2620, 6593.000
510.4450, 6567.000
511.6270, 6409.000
512.8090, 6087.000
513.9910, 5814.000
515.1730, 5464.000
516.3550, 5139.000
517.5360, 4792.000
518.7170, 4680.000
519.8980, 4419.000
521.0790, 4227.000
522.2600, 4050.000
523.4400, 3921.069
524.6210, 3801.000
525.8010, 3746.000
526.9810, 3745.000
528.1610, 3686.000
529.3400, 3748.000
530.5200, 3698.000
531.6990, 3749.000
532.8780, 3861.000
534.0570, 3848.000
535.2360, 4016.000
536.4140, 4082.000
537.5930, 4160.000
538.7710, 4240.000
539.9490, 4299.000
541.1270, 4366.000
542.3040, 4396.000
543.4820, 4519.000
544.6590, 4530.000
545.8360, 4504.000
547.0130, 4450.000
548.1900, 4310.000
549.3670, 4184.000
550.5430, 4017.000
551.7190, 3812.000
552.8960, 3709.000
554.0710, 3678.000
555.2470, 3533.000
556.4230, 3513.000
557.5980, 3537.000
558.7730, 3558.000
559.9480, 3603.000
561.1230, 3610.000
562.2980, 3556.000
563.4720, 3666.000
564.6470, 3576.000
565.8210, 3695.000
566.9950, 3739.000
568.1690, 3800.000
569.3420, 3967.000
570.5160, 4068.000
571.6890, 4283.000
572.8620, 4492.000
574.0350, 4775.000
575.2080, 5028.000
576.3800, 5577.000
577.5530, 5937.000
578.7250, 6497.000
579.8970, 7143.000
581.0690, 7902.915
582.2410, 8944.000
583.4120, 9839.000
584.5830, 11064.00
585.7550, 12422.00
586.9260, 13793.00
588.0960, 15009.00
589.2670, 15695.00
590.4380, 15869.00
591.6080, 15290.00
592.7780, 14001.00
593.9480, 12550.00
595.1180, 11116.00
596.2870, 9584.000
597.4570, 8409.000
598.6260, 7445.000
599.7950, 6635.000
600.9640, 6086.000
602.1330, 5686.000
603.3010, 5410.000
604.4700, 5115.000
605.6380, 5060.000
606.8060, 5044.000
607.9740, 4989.000
609.1420, 5143.000
610.3090, 5151.000
611.4760, 5290.000
612.6440, 5420.000
613.8110, 5333.000
614.9770, 5282.000
616.1440, 5197.000
617.3110, 4986.000
618.4770, 4688.000
619.6430, 4397.000
620.8090, 4164.000
621.9750, 3966.000
623.1400, 3748.000
624.3060, 3521.000
625.4710, 3320.000
626.6360, 3169.000
627.8010, 3075.000
628.9660, 2976.000
630.1300, 2908.123
631.2950, 2852.000
632.4590, 2835.000
633.6230, 2812.000
634.7870, 2824.000
635.9510, 2876.000
637.1140, 2869.000
638.2780, 2864.000
639.4410, 2965.000
640.6040, 3035.000
641.7670, 3033.000
642.9290, 3095.000
644.0920, 3131.000
645.2540, 3074.000
646.4160, 3005.000
647.5780, 3021.000
648.7400, 3055.000
649.9020, 2918.000
651.0630, 2971.000
652.2250, 2919.000
653.3860, 2828.000
654.5470, 2846.000
655.7080, 2822.000
656.8680, 2848.000
658.0290, 2953.000
659.1890, 3004.000
660.3490, 3058.000
661.5090, 3170.000
662.6690, 3287.000
663.8280, 3563.000
664.9880, 3697.000
666.1470, 4025.000
667.3060, 4470.000
668.4650, 4991.000
669.6240, 5525.000
670.7820, 6101.000
671.9410, 6966.000
673.0990, 7860.000
674.2570, 8565.000
675.4150, 9254.000
676.5720, 9674.000
677.7300, 9609.000
678.8870, 9249.000
680.0450, 8691.000
681.2020, 7952.000
682.3590, 7086.000
683.5150, 6290.000
684.6720, 5744.000
685.8280, 5248.000
686.9840, 4963.000
688.1400, 4640.000
689.2960, 4525.000
690.4520, 4424.000
691.6070, 4447.000
692.7630, 4469.000
693.9180, 4621.000
695.0730, 4846.000
696.2280, 5117.000
697.3820, 5476.000
698.5370, 5951.000
699.6910, 6626.000
700.8450, 7442.000
701.9990, 8605.000
703.1530, 9825.000
704.3070, 11596.00
705.4600, 13549.00
706.6130, 16382.00
707.7660, 19238.00
708.9190, 22598.00
710.0720, 26298.00
711.2250, 29840.00
712.3770, 33078.00
713.5300, 35347.00
714.6820, 35495.00
715.8340, 34058.00
716.9850, 31393.00
718.1370, 27701.00
719.2880, 23855.00
720.4400, 20403.00
721.5910, 17078.00
722.7420, 14455.00
723.8930, 12352.00
725.0430, 10690.00
726.1940, 9282.000
727.3440, 8434.000
728.4940, 7581.000
729.6440, 6831.000
730.7940, 6319.000
731.9430, 6029.000
733.0930, 5557.000
734.2420, 5214.000
735.3910, 4947.000
736.5400, 4739.000
737.6890, 4614.000
738.8370, 4438.000
739.9860, 4355.000
741.1340, 4276.000
742.2820, 4110.000
743.4300, 4063.000
744.5780, 4067.000
745.7250, 3957.000
746.8730, 4060.000
748.0200, 4099.000
749.1670, 4039.000
750.3140, 4154.000
751.4610, 4234.000
752.6070, 4376.000
753.7540, 4522.000
754.9000, 4747.000
756.0460, 5015.000
757.1920, 5403.000
758.3380, 5714.000
759.4830, 6202.000
760.6280, 6758.000
761.7740, 7200.000
762.9190, 7772.000
764.0640, 8246.000
765.2080, 8752.000
766.3530, 9008.000
767.4970, 9056.000
768.6420, 9175.000
769.7860, 8819.000
770.9300, 8421.000
772.0730, 7933.000
773.2170, 7380.000
774.3600, 6842.000
775.5040, 6374.000
776.6470, 5756.000
777.7900, 5391.000
778.9320, 5042.000
780.0750, 4740.000
781.2170, 4516.000
782.3600, 4340.000
783.5020, 4097.000
784.6440, 3972.000
785.7850, 3853.000
786.9270, 3717.000
788.0680, 3634.474
789.2100, 3509.000
790.3510, 3474.000
791.4920, 3461.000
792.6320, 3395.000
793.7730, 3332.000
794.9130, 3267.000
796.0540, 3176.000
797.1940, 3202.000
798.3340, 3252.000
799.4730, 3257.000
800.6130, 3224.000
801.7520, 3288.950
802.8920, 3252.897
804.0310, 3378.000
805.1700, 3291.000
806.3090, 3329.000
807.4470, 3489.000
808.5860, 3548.000
809.7240, 3664.000
810.8620, 3742.000
812.0000, 3821.000
813.1380, 3733.000
814.2750, 3654.000
815.4130, 3549.000
816.5500, 3474.000
817.6870, 3279.000
818.8240, 3175.000
819.9610, 3077.000
821.0980, 2988.000
822.2340, 2954.000
823.3700, 2910.000
824.5070, 2879.000
825.6430, 2850.000
826.7780, 2869.000
827.9140, 2790.000
829.0500, 2822.000
830.1850, 2832.000
831.3200, 2895.000
832.4550, 2906.070
833.5900, 2892.000
834.7250, 2960.000
835.8590, 3014.000
836.9930, 3058.434
838.1280, 3128.511
839.2620, 3159.000
840.3950, 3233.000
841.5290, 3329.000
842.6630, 3334.000
843.7960, 3427.000
844.9290, 3503.000
846.0620, 3490.000
847.1950, 3633.000
848.3280, 3724.000
849.4600, 3805.000
850.5930, 3785.000
851.7250, 3918.000
852.8570, 3934.000
853.9890, 3898.000
855.1210, 3736.000
856.2520, 3805.000
857.3840, 3747.000
858.5150, 3794.000
859.6460, 3726.000
860.7770, 3710.000
861.9080, 3680.000
863.0380, 3729.000
864.1690, 3673.000
865.2990, 3658.000
866.4290, 3676.000
867.5590, 3554.000
868.6890, 3599.000
869.8190, 3553.000
870.9480, 3650.000
872.0770, 3573.000
873.2070, 3605.000
874.3360, 3646.000
875.4640, 3676.000
876.5930, 3751.000
877.7220, 3830.000
878.8500, 3814.000
879.9780, 3951.000
881.1060, 4035.000
882.2340, 4160.000
883.3620, 4459.000
884.4890, 4744.000
885.6170, 4923.000
886.7440, 5203.000
887.8710, 5656.000
888.9980, 6039.000
890.1240, 6549.000
891.2510, 6973.000
892.3770, 7683.000
893.5040, 8365.000
894.6300, 9198.000
895.7560, 9668.000
896.8810, 10502.00
898.0070, 10868.00
899.1330, 11384.00
900.2580, 11444.00
901.3830, 11334.00
902.5080, 11445.00
903.6330, 11309.00
904.7570, 11258.00
905.8820, 10970.00
907.0060, 11043.00
908.1300, 11018.00
909.2540, 10882.00
910.3780, 10566.00
911.5020, 10250.00
912.6250, 9625.000
913.7490, 9095.000
914.8720, 8478.000
915.9950, 7787.000
917.1180, 7150.000
918.2400, 6655.000
919.3630, 6330.000
920.4850, 5994.000
921.6080, 5782.000
922.7300, 5461.000
923.8520, 5393.000
924.9730, 5223.000
926.0950, 5027.000
927.2160, 5036.000
928.3380, 4970.000
929.4590, 4905.939
930.5800, 4913.000
931.7010, 4866.000
932.8210, 4861.000
933.9420, 4898.000
935.0620, 4945.000
936.1820, 4913.000
937.3020, 4881.000
938.4220, 4902.000
939.5420, 5083.000
940.6610, 5184.000
941.7810, 5282.000
942.9000, 5471.000
944.0190, 5546.000
945.1380, 5740.000
946.2570, 6046.000
947.3750, 6415.000
948.4940, 6716.000
949.6120, 7113.000
950.7300, 7508.000
951.8480, 7858.000
952.9660, 8404.000
954.0830, 8916.000
955.2010, 9521.000
956.3180, 10240.00
957.4350, 11222.00
958.5520, 12254.00
959.6690, 13398.00
960.7860, 14689.00
961.9020, 15804.00
963.0190, 16778.00
964.1350, 17217.00
965.2510, 17766.00
966.3670, 17558.00
967.4830, 17186.00
968.5980, 16729.00
969.7140, 16225.00
970.8290, 16253.00
971.9440, 16394.00
973.0590, 17109.00
974.1740, 17989.00
975.2880, 19381.00
976.4030, 20804.00
977.5170, 22398.00
978.6310, 23396.00
979.7450, 24069.00
980.8590, 24362.00
981.9730, 23740.00
983.0860, 22925.00
984.2000, 21930.00
985.3130, 20678.00
986.4260, 19546.00
987.5390, 18920.00
988.6520, 18555.00
989.7640, 18265.00
990.8770, 18372.00
991.9890, 18806.00
993.1010, 19289.00
994.2130, 19916.00
995.3250, 20791.00
996.4370, 21538.00
997.5480, 22627.00
998.6590, 23624.00
999.7710, 24787.00
1000.882, 25755.00
1001.993, 26351.00
1003.103, 26974.00
1004.214, 26741.00
1005.324, 26210.00
1006.434, 25245.00
1007.545, 23179.00
1008.655, 21158.00
1009.764, 19069.00
1010.874, 16943.00
1011.983, 14896.00
1013.093, 13147.00
1014.202, 11724.00
1015.311, 10380.00
1016.420, 9250.000
1017.528, 8515.000
1018.637, 7839.000
1019.745, 7391.000
1020.854, 7056.000
1021.962, 6873.000
1023.070, 6705.000
1024.177, 6764.000
1025.285, 6690.000
1026.392, 6764.000
1027.500, 6647.000
1028.607, 6659.000
1029.714, 6385.000
1030.821, 6112.000
1031.927, 5814.000
1033.034, 5460.000
1034.140, 5114.000
1035.246, 4880.000
1036.352, 4603.000
1037.458, 4353.000
1038.564, 4258.000
1039.670, 4069.000
1040.775, 3868.000
1041.880, 3844.000
1042.986, 3759.000
1044.090, 3617.000
1045.195, 3608.000
1046.300, 3543.000
1047.404, 3482.000
1048.509, 3427.000
1049.613, 3306.000
1050.717, 3363.000
1051.821, 3466.000
1052.925, 3340.000
1054.028, 3372.000
1055.132, 3403.000
1056.235, 3382.000
1057.338, 3413.000
1058.441, 3329.000
1059.544, 3288.000
1060.647, 3303.000
1061.749, 3338.000
1062.851, 3315.000
1063.954, 3238.000
1065.056, 3175.000
1066.158, 3124.000
1067.259, 3086.000
1068.361, 3034.000
1069.462, 3026.000
1070.564, 3025.000
1071.665, 2994.000
1072.766, 3104.000
1073.867, 3018.000
1074.967, 3167.000
1076.068, 3173.000
1077.168, 3277.000
1078.268, 3258.000
1079.368, 3341.000
1080.468, 3422.000
1081.568, 3486.000
1082.668, 3515.000
1083.767, 3544.000
1084.866, 3500.000
1085.966, 3463.000
1087.065, 3370.000
1088.163, 3317.144
1089.262, 3235.602
1090.361, 3153.000
1091.459, 3078.000
1092.557, 2958.000
1093.655, 2898.000
1094.753, 2829.000
1095.851, 2808.000
1096.949, 2813.000
1098.046, 2799.000
1099.143, 2697.000
1100.241, 2645.000
1101.338, 2727.000
1102.434, 2664.000
1103.531, 2705.000
1104.628, 2594.000
1105.724, 2640.000
1106.820, 2570.000
1107.916, 2625.000
1109.012, 2676.000
1110.108, 2644.000
1111.204, 2565.000
1112.299, 2553.000
1113.395, 2509.000
1114.490, 2497.000
1115.585, 2512.000
1116.680, 2540.000
1117.775, 2563.000
1118.869, 2470.000
1119.964, 2448.000
1121.058, 2436.000
1122.152, 2420.000
1123.246, 2451.000
1124.340, 2421.000
1125.434, 2400.000
1126.527, 2412.000
1127.620, 2360.000
1128.714, 2343.000
1129.807, 2359.000
1130.900, 2380.000
1131.992, 2379.000
1133.085, 2339.000
1134.178, 2294.000
1135.270, 2318.000
1136.362, 2300.000
1137.454, 2280.000
1138.546, 2306.000
1139.638, 2287.729
1140.729, 2290.000
1141.821, 2287.000
1142.912, 2305.000
1144.003, 2312.000
1145.094, 2250.000
1146.185, 2236.000
1147.276, 2249.000
1148.366, 2242.000
1149.456, 2304.000
1150.547, 2290.000
1151.637, 2281.000
1152.727, 2276.000
1153.816, 2219.000
1154.906, 2239.000
1155.995, 2213.000
1157.085, 2238.000
1158.174, 2190.000
1159.263, 2202.000
1160.352, 2187.000
1161.441, 2191.000
1162.529, 2240.000
1163.618, 2203.000
1164.706, 2205.000
1165.794, 2170.000
1166.882, 2183.000
1167.970, 2140.000
1169.058, 2172.000
1170.145, 2178.000
1171.232, 2154.000
1172.320, 2138.000
1173.407, 2174.000
1174.494, 2089.000
1175.580, 2154.000
1176.667, 2141.000
1177.754, 2117.000
1178.840, 2110.000
1179.926, 2114.000
1181.012, 2156.000
1182.098, 2119.000
1183.184, 2089.000
1184.269, 2160.000
1185.355, 2092.000
1186.440, 2114.000
1187.525, 2123.000
1188.610, 2121.000
1189.695, 2172.000
1190.780, 2107.000
1191.864, 2083.000
1192.949, 2095.000
1194.033, 2101.000
1195.117, 2121.000
1196.201, 2116.000
1197.285, 2083.000
1198.369, 2078.000
1199.452, 2087.000
1200.536, 2101.000
1201.619, 2081.000
1202.702, 2117.000
1203.785, 2104.000
1204.868, 2094.911
1205.950, 2092.000
1207.033, 2046.000
1208.115, 2045.000
1209.197, 1978.000
1210.279, 2015.000
1211.361, 1984.000
1212.443, 2031.000
1213.525, 2021.000
1214.606, 1985.000
1215.687, 2015.000
1216.769, 1990.000
1217.850, 2010.000
1218.930, 1985.000
1220.011, 2029.000
1221.092, 2041.000
1222.172, 1963.000
1223.252, 1995.000
1224.333, 1989.000
1225.413, 1954.000
1226.492, 1955.000
1227.572, 1993.000
1228.652, 1988.854
1229.731, 1984.444
1230.810, 2025.000
1231.889, 1975.000
1232.968, 1975.000
1234.047, 2007.000
1235.126, 1990.000
1236.204, 2002.000
1237.283, 1985.000
1238.361, 1965.000
1239.439, 1951.000
1240.517, 2006.000
1241.595, 2020.000
1242.673, 2022.000
1243.750, 1977.000
1244.827, 1966.000
1245.905, 1964.000
1246.982, 1950.000
1248.059, 2011.000
1249.135, 1967.000
1250.212, 2002.000
1251.288, 2002.000
1252.365, 1932.000
1253.441, 1977.000
1254.517, 1963.000
1255.593, 1930.000
1256.669, 2016.000
1257.744, 1947.000
1258.820, 1950.000
1259.895, 1977.000
1260.970, 1958.000
1262.045, 1978.000
1263.120, 1940.000
1264.195, 1994.000
1265.270, 1958.000
1266.344, 1962.000
1267.418, 1980.000
1268.492, 1913.000
1269.566, 1936.000
1270.640, 1908.000
1271.714, 1911.814
