##NAMES=Axinite-(Fe)
##RRUFFID=R060194
##IDEAL CHEMISTRY=Ca_4_Fe^2+^_2_Al_4_[B_2_Si_8_O_30_](OH)_2_
##LOCALITY=near Dalbandi, Baluchistan Province, Pakistan
##OWNER=RRUFF
##SOURCE=Herbert Obodda
##DESCRIPTION=Brown transparent wedge-shaped single crystal
##STATUS=The identification of this mineral has been confirmed by X-ray diffraction and chemical analysis
##URL=rruff.info/R060194
##MEASURED CHEMISTRY=Ca_2.00_(Fe^2+^_0.66_Mg_0.30_Mn_0.04_)Al_2.00_BSi_4.00_O_15_(OH)
##PIN_ID=L01255
##ORIENTATION=Laser parallel to (-1 0 -1). Fiducial mark perpendicular to laser is parallel to -b [0 -1 0]
53.91000, 706.0000
55.14900, 691.0000
56.38700, 697.0000
57.62600, 698.0000
58.86400, 682.0000
60.10300, 742.0000
61.34100, 781.0000
62.57900, 812.0000
63.81700, 817.0000
65.05400, 878.0000
66.29200, 938.0000
67.52900, 1041.000
68.76700, 1337.000
70.00400, 1450.570
71.24100, 1642.176
72.47700, 1872.000
73.71400, 2028.000
74.95100, 2278.000
76.18700, 2553.000
77.42300, 2790.000
78.65900, 3053.000
79.89500, 3339.000
81.13100, 3837.000
82.36700, 4399.000
83.60200, 5001.000
84.83700, 5506.854
86.07200, 6055.000
87.30800, 6575.000
88.54200, 7091.000
89.77700, 7620.000
91.01200, 8278.000
92.24600, 8831.699
93.48000, 9893.000
94.71400, 9938.000
95.94800, 10483.00
97.18200, 10792.00
98.41600, 10951.00
99.64900, 11201.00
100.8830, 11494.00
102.1160, 11424.00
103.3490, 11448.00
104.5820, 11949.00
105.8150, 13002.00
107.0470, 14193.00
108.2800, 14095.44
109.5120, 13800.94
110.7440, 14035.00
111.9760, 12355.00
113.2080, 12089.00
114.4400, 12236.00
115.6710, 12698.00
116.9030, 12570.00
118.1340, 12488.00
119.3650, 12513.00
120.5960, 12469.00
121.8270, 12597.00
123.0580, 12703.00
124.2880, 12702.58
125.5190, 12873.00
126.7490, 12813.00
127.9790, 12829.00
129.2090, 12980.00
130.4390, 12892.00
131.6680, 12984.00
132.8980, 12867.00
134.1270, 13005.00
135.3560, 13322.00
136.5850, 13305.00
137.8140, 13687.00
139.0430, 14146.00
140.2710, 15018.00
141.5000, 15555.00
142.7280, 15872.00
143.9560, 16081.00
145.1840, 16288.00
146.4120, 16313.00
147.6390, 16805.00
148.8670, 17436.00
150.0940, 18585.00
151.3210, 20185.00
152.5490, 21165.00
153.7750, 20942.00
155.0020, 20243.00
156.2290, 18891.00
157.4550, 18014.00
158.6810, 17157.00
159.9080, 16788.00
161.1340, 16227.00
162.3590, 16142.00
163.5850, 16255.00
164.8110, 16290.00
166.0360, 16666.00
167.2610, 16799.00
168.4860, 17030.00
169.7110, 17891.00
170.9360, 18860.00
172.1610, 19809.00
173.3850, 20666.00
174.6100, 20924.00
175.8340, 20618.00
177.0580, 19840.00
178.2820, 18985.00
179.5050, 18077.00
180.7290, 17150.00
181.9520, 16244.00
183.1760, 15813.00
184.3990, 15048.00
185.6220, 14812.00
186.8450, 14566.00
188.0670, 14049.00
189.2900, 14058.00
190.5120, 13793.00
191.7340, 13858.00
192.9560, 13767.00
194.1780, 13910.93
195.4000, 14638.00
196.6220, 13970.00
197.8430, 14710.00
199.0640, 14028.00
200.2860, 14186.00
201.5070, 14496.00
202.7270, 14899.00
203.9480, 15366.00
205.1690, 15495.00
206.3890, 15949.00
207.6090, 16620.00
208.8290, 17171.00
210.0490, 18066.00
211.2690, 18860.00
212.4890, 19375.00
213.7080, 19811.00
214.9280, 20052.00
216.1470, 20531.00
217.3660, 20530.00
218.5850, 20831.00
219.8030, 20674.00
221.0220, 20273.00
222.2400, 19704.00
223.4590, 18834.00
224.6770, 17788.00
225.8950, 17106.00
227.1120, 16128.00
228.3300, 15885.00
229.5480, 15269.00
230.7650, 14897.00
231.9820, 14942.00
233.1990, 14903.00
234.4160, 14490.00
235.6330, 14614.00
236.8490, 14599.00
238.0660, 14630.00
239.2820, 14760.00
240.4980, 14869.41
241.7140, 15045.33
242.9300, 15254.00
244.1460, 15471.00
245.3610, 15757.00
246.5770, 16001.00
247.7920, 16271.00
249.0070, 16585.00
250.2220, 17001.00
251.4370, 17607.00
252.6510, 18273.00
253.8660, 18949.00
255.0800, 19609.00
256.2940, 20314.00
257.5080, 20030.00
258.7220, 20681.00
259.9360, 21217.00
261.1490, 19970.00
262.3630, 19193.00
263.5760, 19443.00
264.7890, 19804.00
266.0020, 19959.00
267.2150, 20117.00
268.4270, 20304.00
269.6400, 20420.00
270.8520, 20557.00
272.0640, 20377.00
273.2760, 20399.00
274.4880, 20111.00
275.7000, 19538.00
276.9120, 19300.00
278.1230, 19043.00
279.3340, 18506.00
280.5450, 18323.00
281.7560, 18030.00
282.9670, 18153.00
284.1780, 18245.00
285.3880, 18198.00
286.5980, 18215.00
287.8090, 18090.00
289.0190, 17705.00
290.2290, 17393.00
291.4380, 17463.00
292.6480, 17204.00
293.8570, 17003.00
295.0670, 16961.00
296.2760, 17274.00
297.4850, 17237.00
298.6930, 17527.00
299.9020, 17725.00
301.1110, 18075.00
302.3190, 18381.00
303.5270, 18802.00
304.7350, 19268.00
305.9430, 19725.00
307.1510, 20166.00
308.3580, 20541.00
309.5660, 20397.00
310.7730, 20362.00
311.9800, 19958.00
313.1870, 20098.00
314.3940, 20092.00
315.6010, 20324.00
316.8070, 20682.00
318.0130, 21290.00
319.2200, 22281.00
320.4260, 22749.00
321.6310, 22691.00
322.8370, 22207.00
324.0430, 21378.00
325.2480, 20807.00
326.4540, 20188.00
327.6590, 19607.00
328.8640, 19486.00
330.0680, 19400.00
331.2730, 19102.00
332.4780, 19497.00
333.6820, 19289.00
334.8860, 19537.00
336.0900, 19772.00
337.2940, 20108.00
338.4980, 20750.00
339.7010, 21376.00
340.9050, 22353.00
342.1080, 23487.00
343.3110, 24757.00
344.5140, 26016.00
345.7170, 26392.00
346.9200, 26431.00
348.1220, 25504.00
349.3240, 24792.00
350.5270, 23699.00
351.7290, 23017.00
352.9310, 21746.00
354.1320, 20483.00
355.3340, 19457.00
356.5350, 18573.00
357.7370, 17771.00
358.9380, 17105.00
360.1390, 16840.00
361.3400, 16593.00
362.5400, 16296.00
363.7410, 16083.00
364.9410, 15964.00
366.1410, 15900.00
367.3410, 15831.94
368.5410, 15841.00
369.7410, 15905.00
370.9400, 15878.00
372.1400, 16112.00
373.3390, 16130.00
374.5380, 16311.00
375.7370, 16371.00
376.9360, 16501.00
378.1350, 16850.00
379.3330, 16877.00
380.5310, 17308.00
381.7300, 17825.00
382.9280, 18222.00
384.1260, 18907.00
385.3230, 19712.00
386.5210, 20469.00
387.7180, 21482.00
388.9160, 22153.00
390.1130, 22791.00
391.3100, 23450.00
392.5060, 23636.00
393.7030, 23481.00
394.9000, 23141.00
396.0960, 22335.00
397.2920, 21145.00
398.4880, 20264.00
399.6840, 19231.00
400.8800, 18720.00
402.0750, 18376.00
403.2710, 17751.00
404.4660, 17735.00
405.6610, 17659.00
406.8560, 17444.00
408.0510, 17274.00
409.2450, 17624.00
410.4400, 17642.00
411.6340, 17839.00
412.8280, 18185.00
414.0220, 18436.00
415.2160, 19145.00
416.4100, 19826.00
417.6030, 20820.00
418.7970, 21639.00
419.9900, 22674.00
421.1830, 23723.00
422.3760, 24941.00
423.5690, 26096.00
424.7610, 27307.00
425.9540, 28129.00
427.1460, 28857.00
428.3380, 29041.00
429.5300, 28658.00
430.7220, 27777.00
431.9140, 26365.00
433.1050, 24831.00
434.2970, 23407.00
435.4880, 21858.00
436.6790, 20792.00
437.8700, 20030.00
439.0610, 19341.00
440.2510, 18952.00
441.4420, 18650.00
442.6320, 18483.00
443.8220, 18534.00
445.0120, 18599.00
446.2020, 18570.00
447.3910, 18614.00
448.5810, 18275.00
449.7700, 18360.00
450.9600, 18146.00
452.1490, 18052.00
453.3370, 18121.00
454.5260, 18074.00
455.7150, 18037.00
456.9030, 18106.00
458.0910, 18133.00
459.2800, 18247.00
460.4670, 18109.00
461.6550, 17885.00
462.8430, 18280.00
464.0300, 17955.00
465.2180, 17882.00
466.4050, 17964.00
467.5920, 18150.00
468.7790, 18466.00
469.9650, 18379.00
471.1520, 18916.00
472.3380, 19414.00
473.5250, 19528.00
474.7110, 20390.00
475.8970, 20936.00
477.0820, 22008.00
478.2680, 23165.00
479.4540, 24542.00
480.6390, 25979.00
481.8240, 28382.00
483.0090, 30759.00
484.1940, 33530.00
485.3780, 35534.00
486.5630, 36592.00
487.7470, 34653.00
488.9320, 31929.00
490.1160, 28736.00
491.3000, 25741.00
492.4830, 23493.00
493.6670, 21579.00
494.8500, 20517.00
496.0340, 20048.00
497.2170, 19392.00
498.4000, 18955.00
499.5820, 18864.00
500.7650, 18376.00
501.9480, 18251.00
503.1300, 18007.00
504.3120, 17788.00
505.4940, 17603.00
506.6760, 17458.00
507.8580, 17232.00
509.0390, 17289.00
510.2210, 17006.00
511.4020, 17063.00
512.5830, 16988.00
513.7640, 16747.00
514.9450, 16843.00
516.1250, 16763.00
517.3060, 16685.00
518.4860, 16729.00
519.6660, 16685.22
520.8460, 16632.00
522.0260, 16706.00
523.2060, 16717.00
524.3850, 16745.00
525.5650, 16839.14
526.7440, 16889.07
527.9230, 16986.00
529.1020, 17045.00
530.2810, 17045.00
531.4590, 17095.00
532.6380, 17152.94
533.8160, 17307.00
534.9940, 17298.00
536.1720, 17364.29
537.3500, 17473.00
538.5270, 17414.00
539.7050, 17346.00
540.8820, 17401.00
542.0590, 17371.16
543.2360, 17390.50
544.4130, 17418.00
545.5900, 17486.00
546.7660, 17539.00
547.9430, 17557.83
549.1190, 17548.00
550.2950, 17640.00
551.4710, 17649.00
552.6470, 17777.00
553.8220, 17896.00
554.9980, 18145.00
556.1730, 18434.04
557.3480, 18815.00
558.5230, 19220.00
559.6980, 19733.00
560.8730, 20299.00
562.0470, 20584.00
563.2220, 20923.00
564.3960, 20644.00
565.5700, 20421.00
566.7440, 20218.00
567.9170, 20328.00
569.0910, 20051.00
570.2640, 20252.00
571.4380, 20190.00
572.6110, 20355.00
573.7840, 20652.00
574.9570, 20604.00
576.1290, 20651.81
577.3020, 20767.00
578.4740, 20439.00
579.6460, 20425.00
580.8180, 20156.00
581.9900, 19874.00
583.1620, 19793.00
584.3330, 19612.00
585.5040, 19393.00
586.6760, 19253.00
587.8470, 19476.00
589.0180, 19497.00
590.1880, 19330.00
591.3590, 19267.00
592.5290, 19017.00
593.7000, 18725.00
594.8700, 18579.00
596.0400, 18658.00
597.2090, 18836.00
598.3790, 18626.00
599.5490, 18710.00
600.7180, 18677.00
601.8870, 18799.00
603.0560, 19060.00
604.2250, 19386.00
605.3940, 19536.00
606.5620, 20109.00
607.7300, 20545.00
608.8990, 21061.00
610.0670, 22093.00
611.2350, 22684.00
612.4020, 23946.00
613.5700, 24893.00
614.7370, 26098.00
615.9050, 27327.00
617.0720, 28761.00
618.2390, 29930.00
619.4060, 30924.00
620.5720, 31460.00
621.7390, 31193.00
622.9050, 30051.00
624.0710, 28565.00
625.2370, 26436.00
626.4030, 24813.00
627.5690, 23281.00
628.7340, 22051.67
629.9000, 21036.00
631.0650, 20333.00
632.2300, 19851.00
633.3950, 19538.00
634.5600, 19398.00
635.7240, 19351.00
636.8890, 19246.00
638.0530, 19187.00
639.2170, 19610.00
640.3810, 19564.00
641.5450, 19562.00
642.7080, 19690.00
643.8720, 19692.00
645.0350, 19837.00
646.1980, 19835.00
647.3610, 19808.00
648.5240, 19631.00
649.6870, 19249.00
650.8490, 19385.00
652.0120, 19237.00
653.1740, 19094.00
654.3360, 19188.00
655.4980, 19025.00
656.6600, 19086.00
657.8210, 19155.00
658.9830, 19358.00
660.1440, 19331.00
661.3050, 19662.00
662.4660, 19780.00
663.6270, 20041.00
664.7870, 20297.00
665.9480, 20643.00
667.1080, 21106.00
668.2680, 21615.00
669.4280, 22464.00
670.5880, 23296.00
671.7480, 24029.00
672.9070, 25115.00
674.0670, 26560.00
675.2260, 27731.00
676.3850, 28776.00
677.5440, 29278.00
678.7030, 29227.00
679.8610, 28377.00
681.0200, 27456.00
682.1780, 26122.00
683.3360, 25070.00
684.4940, 24025.00
685.6520, 23318.00
686.8090, 22738.00
687.9670, 22458.00
689.1240, 22080.00
690.2810, 21879.00
691.4380, 22031.00
692.5950, 21949.00
693.7520, 22248.00
694.9080, 22566.00
696.0650, 22817.00
697.2210, 23318.00
698.3770, 24036.00
699.5330, 24697.00
700.6880, 25788.00
701.8440, 27198.00
702.9990, 28771.00
704.1550, 30635.00
705.3100, 32994.00
706.4650, 35796.00
707.6190, 38930.00
708.7740, 42765.00
709.9290, 46234.00
711.0830, 50390.00
712.2370, 54258.00
713.3910, 56916.00
714.5450, 57854.00
715.6980, 57072.00
716.8520, 54114.00
718.0050, 49849.00
719.1580, 45339.00
720.3110, 40483.00
721.4640, 36467.00
722.6170, 32876.00
723.7700, 29895.00
724.9220, 27795.00
726.0740, 26205.00
727.2260, 25004.00
728.3780, 23928.00
729.5300, 23091.00
730.6810, 22672.00
731.8330, 22164.00
732.9840, 21582.00
734.1350, 21449.00
735.2860, 20975.00
736.4370, 20880.00
737.5880, 20450.00
738.7380, 20351.00
739.8880, 20360.00
741.0390, 20250.00
742.1890, 20317.00
743.3380, 20037.00
744.4880, 19859.00
745.6380, 19997.00
746.7870, 20201.00
747.9360, 19917.00
749.0850, 19965.00
750.2340, 20048.00
751.3830, 20172.00
752.5310, 20172.65
753.6800, 19994.00
754.8280, 20220.00
755.9760, 20297.00
757.1240, 20354.00
758.2720, 20570.00
759.4190, 20836.00
760.5670, 20877.00
761.7140, 20990.00
762.8610, 21059.00
764.0080, 21142.00
765.1550, 21254.00
766.3020, 21325.00
767.4480, 21335.00
768.5950, 21316.00
769.7410, 21277.00
770.8870, 20959.00
772.0330, 20913.00
773.1780, 20627.00
774.3240, 20645.00
775.4690, 20369.00
776.6140, 20231.00
777.7590, 19975.00
778.9040, 19906.00
780.0490, 19686.00
781.1940, 19733.00
782.3380, 19507.00
783.4820, 19493.00
784.6260, 19468.00
785.7700, 19550.00
786.9140, 19567.00
788.0580, 19384.00
789.2010, 19557.00
790.3450, 19407.00
791.4880, 19555.00
792.6310, 19292.00
793.7730, 19457.00
794.9160, 19426.00
796.0590, 19268.00
797.2010, 19474.00
798.3430, 19398.00
799.4850, 19327.00
800.6270, 19427.00
801.7690, 19543.00
802.9100, 19515.00
804.0520, 19606.00
805.1930, 19708.00
806.3340, 19855.00
807.4750, 19989.00
808.6160, 20134.00
809.7560, 20353.00
810.8970, 20461.00
812.0370, 20693.00
813.1770, 21069.00
814.3170, 21202.00
815.4570, 21109.00
816.5960, 21035.00
817.7360, 21264.00
818.8750, 20968.00
820.0140, 20820.00
821.1530, 20934.00
822.2920, 20618.00
823.4310, 20485.00
824.5690, 20412.00
825.7070, 20341.00
826.8460, 20505.00
827.9840, 20532.00
829.1220, 20461.00
830.2590, 20497.00
831.3970, 20387.00
832.5340, 20441.00
833.6710, 20498.00
834.8080, 20496.00
835.9450, 20601.81
837.0820, 20779.00
838.2190, 20780.00
839.3550, 20857.00
840.4910, 20936.00
841.6270, 20856.00
842.7630, 21067.00
843.8990, 21092.00
845.0350, 21114.00
846.1700, 21249.00
847.3060, 21556.00
848.4410, 21636.00
849.5760, 21886.00
850.7100, 22181.00
851.8450, 22319.00
852.9800, 22312.00
854.1140, 22396.00
855.2480, 22570.00
856.3820, 22622.00
857.5160, 22757.00
858.6500, 22738.00
859.7830, 22923.00
860.9170, 22928.00
862.0500, 22960.00
863.1830, 23012.00
864.3160, 23092.00
865.4480, 23176.00
866.5810, 23252.00
867.7130, 22985.00
868.8460, 23022.00
869.9780, 23040.00
871.1100, 23184.00
872.2410, 23037.00
873.3730, 23103.00
874.5050, 22924.00
875.6360, 23076.00
876.7670, 23016.00
877.8980, 22962.00
879.0290, 23054.00
880.1590, 23076.00
881.2900, 22860.00
882.4200, 23083.00
883.5500, 23324.00
884.6800, 23265.00
885.8100, 23636.00
886.9400, 23515.00
888.0690, 23747.00
889.1990, 24184.00
890.3280, 24725.00
891.4570, 24927.00
892.5860, 25612.00
893.7140, 25917.00
894.8430, 26614.00
895.9710, 27388.00
897.1000, 28427.00
898.2280, 29241.00
899.3560, 30048.30
900.4830, 30850.00
901.6110, 31577.00
902.7380, 32417.00
903.8660, 33106.00
904.9930, 33773.00
906.1200, 34140.00
907.2460, 34220.00
908.3730, 33669.00
909.5000, 33009.00
910.6260, 32112.00
911.7520, 31210.00
912.8780, 30232.00
914.0040, 29255.00
915.1290, 28164.00
916.2550, 27369.00
917.3800, 26724.00
918.5050, 26182.00
919.6300, 25831.00
920.7550, 25347.00
921.8800, 25074.00
923.0040, 25042.00
924.1290, 24971.00
925.2530, 24919.00
926.3770, 24864.00
927.5010, 25015.64
928.6250, 25211.00
929.7480, 25430.00
930.8720, 25728.00
931.9950, 26050.00
933.1180, 25989.00
934.2410, 26091.00
935.3640, 25977.00
936.4860, 26302.00
937.6090, 26343.00
938.7310, 26757.00
939.8530, 26886.00
940.9750, 27354.00
942.0970, 27810.00
943.2180, 28376.00
944.3400, 29304.00
945.4610, 30221.00
946.5820, 31229.00
947.7030, 32379.83
948.8240, 33595.64
949.9450, 34935.00
951.0650, 36362.75
952.1860, 37946.20
953.3060, 39601.00
954.4260, 41293.00
955.5460, 43020.00
956.6650, 44816.00
957.7850, 46616.00
958.9040, 48762.00
960.0230, 50950.00
961.1420, 54128.00
962.2610, 56204.00
963.3800, 58499.00
964.4990, 60429.00
965.6170, 60673.00
966.7350, 60290.00
967.8530, 58048.00
968.9710, 55310.00
970.0890, 52396.00
971.2070, 49328.00
972.3240, 47093.00
973.4410, 44823.00
974.5580, 44183.00
975.6750, 43317.00
976.7920, 43453.00
977.9090, 43617.00
979.0250, 43849.00
980.1410, 43903.00
981.2580, 43903.00
982.3740, 43265.00
983.4890, 42477.00
984.6050, 41486.00
985.7200, 40314.00
986.8360, 39648.00
987.9510, 39507.00
989.0660, 38896.00
990.1810, 38726.00
991.2950, 38688.00
992.4100, 38392.00
993.5240, 38115.00
994.6390, 37378.00
995.7530, 36748.00
996.8660, 36320.00
997.9800, 35953.00
999.0940, 36037.00
1000.207, 35605.00
1001.320, 35932.00
1002.433, 35576.00
1003.546, 35637.00
1004.659, 35354.00
1005.772, 34667.00
1006.884, 33922.00
1007.996, 33344.00
1009.108, 32476.00
1010.220, 31562.00
1011.332, 30744.00
1012.444, 29985.00
1013.555, 29288.00
1014.666, 28708.71
1015.777, 28002.00
1016.888, 27701.00
1017.999, 27243.00
1019.110, 26787.00
1020.220, 26579.00
1021.331, 26221.00
1022.441, 26041.00
1023.551, 25805.00
1024.661, 25453.00
1025.770, 25487.00
1026.880, 25609.00
1027.989, 25577.00
1029.098, 25327.00
1030.207, 25340.00
1031.316, 25320.00
1032.425, 25076.00
1033.533, 25059.00
1034.642, 25030.00
1035.750, 25268.00
1036.858, 25256.00
1037.966, 25315.17
1039.073, 25610.00
1040.181, 25358.00
1041.288, 25419.00
1042.396, 25393.00
1043.503, 25604.00
1044.610, 25852.00
1045.716, 25960.00
1046.823, 26417.00
1047.929, 26404.00
1049.036, 26530.00
1050.142, 26916.00
1051.248, 27274.00
1052.353, 27402.00
1053.459, 28081.00
1054.564, 28253.00
1055.670, 28783.00
1056.775, 28898.00
1057.880, 29279.00
1058.985, 29626.00
1060.089, 29450.00
1061.194, 29726.00
1062.298, 29408.00
1063.402, 29387.00
1064.506, 29120.00
1065.610, 28678.00
1066.713, 28372.00
1067.817, 27891.00
1068.920, 27332.00
1070.023, 27180.00
1071.126, 27052.00
1072.229, 26533.00
1073.332, 26490.00
1074.435, 26739.00
1075.537, 26621.00
1076.639, 26864.00
1077.741, 26753.00
1078.843, 27283.00
1079.945, 27579.00
1081.046, 27702.00
1082.148, 28136.00
1083.249, 28231.00
1084.350, 28682.00
1085.451, 28133.00
1086.551, 28252.00
1087.652, 28155.00
1088.752, 27389.00
1089.853, 26715.00
1090.953, 26309.00
1092.053, 25909.00
1093.152, 25508.00
1094.252, 25515.00
1095.351, 25450.00
1096.451, 25323.00
1097.550, 25379.00
1098.649, 25375.00
1099.748, 25390.00
1100.846, 25526.00
1101.945, 25608.00
1103.043, 25565.00
1104.141, 25778.00
1105.239, 25841.65
1106.337, 26189.00
1107.434, 26042.00
1108.532, 26107.00
1109.629, 26073.00
1110.726, 26044.00
1111.823, 25736.00
1112.920, 25790.00
1114.017, 25594.00
1115.113, 25684.00
1116.210, 25416.00
1117.306, 25381.00
1118.402, 25343.00
1119.498, 25319.00
1120.593, 25254.16
1121.689, 25176.00
1122.784, 25144.91
1123.879, 25096.00
1124.974, 25083.00
1126.069, 24955.00
1127.164, 24799.00
1128.259, 24730.00
1129.353, 24501.00
1130.447, 24383.00
1131.541, 24373.00
1132.635, 24192.00
1133.729, 24448.00
1134.822, 24243.00
1135.916, 24238.00
1137.009, 24343.00
1138.102, 24300.00
1139.195, 24108.00
1140.288, 24360.00
1141.380, 24202.00
1142.473, 23999.00
1143.565, 24290.00
1144.657, 24010.00
1145.749, 24114.00
1146.841, 24101.00
1147.932, 24143.00
1149.024, 24138.00
1150.115, 24191.00
1151.206, 24124.98
1152.297, 24066.00
1153.388, 23943.00
1154.479, 24026.00
1155.569, 23849.00
1156.659, 24065.00
1157.750, 24047.00
1158.839, 23951.00
1159.929, 24141.00
1161.019, 23894.00
1162.108, 24072.00
1163.198, 23982.00
1164.287, 23937.00
1165.376, 24081.00
1166.465, 24063.00
1167.553, 24024.00
1168.642, 24212.00
1169.730, 24171.00
1170.818, 24061.00
1171.906, 24143.00
1172.994, 24226.00
1174.082, 23951.00
1175.170, 24055.00
1176.257, 24100.00
1177.344, 23777.00
1178.431, 24102.00
1179.518, 24203.00
1180.605, 24065.00
1181.691, 24351.00
1182.778, 24146.00
1183.864, 24100.00
1184.950, 24152.00
1186.036, 24009.00
1187.122, 24096.00
1188.207, 24104.00
1189.292, 24063.00
1190.378, 23985.00
1191.463, 24036.26
1192.548, 24049.85
1193.632, 24103.00
1194.717, 24109.00
1195.801, 24142.00
1196.886, 24036.00
1197.970, 24304.00
1199.054, 24264.00
1200.137, 24401.00
1201.221, 24237.00
1202.305, 24430.00
1203.388, 24046.00
1204.471, 24194.00
1205.554, 24217.00
1206.637, 24225.00
1207.719, 24274.00
1208.802, 24257.32
1209.884, 24245.00
1210.966, 24276.00
1212.048, 24272.00
1213.130, 24295.21
1214.212, 24439.00
1215.293, 24343.00
1216.374, 24407.00
1217.456, 24435.00
1218.536, 24372.00
1219.617, 24325.00
1220.698, 24191.00
1221.778, 24340.00
1222.859, 24432.00
1223.939, 24116.00
1225.019, 24649.00
1226.099, 24527.00
1227.178, 24645.00
1228.258, 24479.00
1229.337, 24685.00
1230.417, 24595.00
1231.496, 24456.00
1232.574, 24651.00
1233.653, 24590.00
1234.732, 24470.00
1235.810, 24488.00
1236.888, 24545.00
