##NAMES=Axinite-(Fe)
##RRUFFID=R060194
##IDEAL CHEMISTRY=Ca_4_Fe^2+^_2_Al_4_[B_2_Si_8_O_30_](OH)_2_
##LOCALITY=near Dalbandi, Baluchistan Province, Pakistan
##OWNER=RRUFF
##SOURCE=Herbert Obodda
##DESCRIPTION=Brown transparent wedge-shaped single crystal
##STATUS=The identification of this mineral has been confirmed by X-ray diffraction and chemical analysis
##URL=rruff.info/R060194
##MEASURED CHEMISTRY=Ca_2.00_(Fe^2+^_0.66_Mg_0.30_Mn_0.04_)Al_2.00_BSi_4.00_O_15_(OH)
##PIN_ID=L01255
##ORIENTATION=Laser parallel to (-1 0 -1). Fiducial mark perpendicular to laser is parallel to -b [0 -1 0]
53.91000, 708.0000
55.14900, 702.0000
56.38700, 718.0000
57.62600, 734.0000
58.86400, 758.0000
60.10300, 766.0000
61.34100, 788.0000
62.57900, 841.0000
63.81700, 888.0000
65.05400, 916.0000
66.29200, 1016.000
67.52900, 1167.000
68.76700, 1422.000
70.00400, 1988.000
71.24100, 2298.000
72.47700, 2294.000
73.71400, 2299.000
74.95100, 2584.000
76.18700, 2902.000
77.42300, 3342.000
78.65900, 3446.000
79.89500, 3822.000
81.13100, 4220.000
82.36700, 4776.000
83.60200, 5395.000
84.83700, 5956.787
86.07200, 6740.000
87.30800, 7256.000
88.54200, 7857.000
89.77700, 8551.000
91.01200, 9376.000
92.24600, 10375.00
93.48000, 11434.00
94.71400, 12093.00
95.94800, 12553.00
97.18200, 12936.00
98.41600, 12993.00
99.64900, 13186.00
100.8830, 13476.00
102.1160, 13825.00
103.3490, 13887.02
104.5820, 14525.66
105.8150, 15078.51
107.0470, 15549.82
108.2800, 15697.20
109.5120, 16262.98
110.7440, 16660.94
111.9760, 17052.02
113.2080, 17676.75
114.4400, 17870.93
115.6710, 18442.00
116.9030, 18584.00
118.1340, 18229.00
119.3650, 18302.00
120.5960, 18159.00
121.8270, 18267.00
123.0580, 18143.00
124.2880, 18054.63
125.5190, 17950.76
126.7490, 17814.00
127.9790, 17573.00
129.2090, 17421.00
130.4390, 17133.00
131.6680, 17075.00
132.8980, 17035.00
134.1270, 16861.00
135.3560, 16659.00
136.5850, 16985.00
137.8140, 17176.00
139.0430, 17566.00
140.2710, 18214.00
141.5000, 18675.00
142.7280, 18965.00
143.9560, 19220.00
145.1840, 19280.00
146.4120, 19445.00
147.6390, 20243.00
148.8670, 20936.00
150.0940, 21985.00
151.3210, 23248.00
152.5490, 24036.00
153.7750, 24022.00
155.0020, 23010.00
156.2290, 22127.00
157.4550, 21426.00
158.6810, 20970.00
159.9080, 20376.00
161.1340, 20206.00
162.3590, 20073.00
163.5850, 20020.00
164.8110, 20655.00
166.0360, 21237.00
167.2610, 21908.00
168.4860, 22730.00
169.7110, 23954.00
170.9360, 25049.00
172.1610, 26149.00
173.3850, 25849.00
174.6100, 25258.00
175.8340, 24148.00
177.0580, 23186.00
178.2820, 21944.00
179.5050, 21071.00
180.7290, 20070.00
181.9520, 19378.00
183.1760, 18857.00
184.3990, 18404.00
185.6220, 18163.00
186.8450, 18002.00
188.0670, 17696.00
189.2900, 17944.00
190.5120, 18007.00
191.7340, 18072.00
192.9560, 18285.00
194.1780, 18539.00
195.4000, 18393.00
196.6220, 18636.00
197.8430, 18367.00
199.0640, 18428.00
200.2860, 18710.00
201.5070, 18910.00
202.7270, 19255.00
203.9480, 19723.00
205.1690, 19936.00
206.3890, 20402.00
207.6090, 20683.00
208.8290, 21299.00
210.0490, 22103.00
211.2690, 22513.00
212.4890, 23050.00
213.7080, 23678.00
214.9280, 23708.00
216.1470, 23652.00
217.3660, 23686.00
218.5850, 23758.00
219.8030, 23675.00
221.0220, 22991.00
222.2400, 22665.00
223.4590, 22039.00
224.6770, 20972.00
225.8950, 20373.00
227.1120, 19917.00
228.3300, 19296.00
229.5480, 18954.00
230.7650, 18783.00
231.9820, 18622.12
233.1990, 18780.00
234.4160, 18724.00
235.6330, 18961.00
236.8490, 19170.00
238.0660, 19488.00
239.2820, 19904.00
240.4980, 20274.00
241.7140, 20532.00
242.9300, 20820.00
244.1460, 20992.00
245.3610, 20900.00
246.5770, 21020.00
247.7920, 21127.00
249.0070, 21306.00
250.2220, 21386.00
251.4370, 21776.00
252.6510, 22349.00
253.8660, 22505.00
255.0800, 23137.00
256.2940, 23174.00
257.5080, 23384.00
258.7220, 24086.00
259.9360, 23610.69
261.1490, 24328.00
262.3630, 23212.00
263.5760, 22934.00
264.7890, 23265.00
266.0020, 23868.00
267.2150, 24415.00
268.4270, 24794.00
269.6400, 25326.00
270.8520, 25923.00
272.0640, 26108.00
273.2760, 26416.00
274.4880, 26419.00
275.7000, 26511.00
276.9120, 26295.00
278.1230, 25989.00
279.3340, 25419.00
280.5450, 24983.00
281.7560, 24592.00
282.9670, 23931.00
284.1780, 23645.00
285.3880, 23737.00
286.5980, 23276.90
287.8090, 23164.00
289.0190, 22929.00
290.2290, 22931.00
291.4380, 22961.00
292.6480, 22828.00
293.8570, 22949.00
295.0670, 23132.00
296.2760, 23438.00
297.4850, 23404.00
298.6930, 23537.00
299.9020, 23893.00
301.1110, 23861.00
302.3190, 23995.00
303.5270, 24446.00
304.7350, 24598.00
305.9430, 24397.00
307.1510, 24690.00
308.3580, 24636.00
309.5660, 24588.00
310.7730, 24438.00
311.9800, 24469.00
313.1870, 24498.00
314.3940, 24854.00
315.6010, 25636.00
316.8070, 26541.00
318.0130, 27373.00
319.2200, 28231.00
320.4260, 28701.00
321.6310, 28534.00
322.8370, 27839.00
324.0430, 26963.00
325.2480, 26138.00
326.4540, 25522.00
327.6590, 24914.00
328.8640, 24700.00
330.0680, 24257.00
331.2730, 24515.00
332.4780, 24132.00
333.6820, 24482.00
334.8860, 24367.00
336.0900, 24568.00
337.2940, 25169.00
338.4980, 26114.00
339.7010, 26763.00
340.9050, 28140.00
342.1080, 29725.00
343.3110, 30905.00
344.5140, 32241.00
345.7170, 32514.00
346.9200, 31734.00
348.1220, 30835.00
349.3240, 29708.00
350.5270, 28559.00
351.7290, 27438.00
352.9310, 26266.00
354.1320, 25406.00
355.3340, 24470.00
356.5350, 23228.00
357.7370, 22640.00
358.9380, 21995.00
360.1390, 21665.00
361.3400, 21393.00
362.5400, 21024.00
363.7410, 20850.00
364.9410, 20765.00
366.1410, 20758.00
367.3410, 20643.00
368.5410, 20822.00
369.7410, 20882.00
370.9400, 21184.00
372.1400, 21299.00
373.3390, 21581.00
374.5380, 21782.00
375.7370, 21860.00
376.9360, 21980.00
378.1350, 21908.00
379.3330, 21803.00
380.5310, 21998.00
381.7300, 22372.00
382.9280, 22807.00
384.1260, 23352.00
385.3230, 24075.00
386.5210, 24751.00
387.7180, 25757.00
388.9160, 26635.00
390.1130, 27349.00
391.3100, 27871.00
392.5060, 28153.00
393.7030, 27878.00
394.9000, 27461.00
396.0960, 26727.00
397.2920, 25961.00
398.4880, 25115.00
399.6840, 24354.00
400.8800, 24084.00
402.0750, 23667.00
403.2710, 23359.00
404.4660, 23171.00
405.6610, 22797.00
406.8560, 22709.00
408.0510, 22714.00
409.2450, 22497.00
410.4400, 22544.00
411.6340, 22827.00
412.8280, 23200.00
414.0220, 23452.00
415.2160, 24070.00
416.4100, 24624.00
417.6030, 25228.00
418.7970, 26042.00
419.9900, 26758.00
421.1830, 27119.00
422.3760, 27546.00
423.5690, 28459.00
424.7610, 29189.00
425.9540, 29952.00
427.1460, 30300.00
428.3380, 30725.00
429.5300, 30676.00
430.7220, 30485.00
431.9140, 30003.00
433.1050, 28820.00
434.2970, 27754.00
435.4880, 27076.00
436.6790, 25802.00
437.8700, 25287.00
439.0610, 24559.00
440.2510, 24461.00
441.4420, 24516.00
442.6320, 24770.00
443.8220, 24655.00
445.0120, 25235.00
446.2020, 25232.00
447.3910, 24857.00
448.5810, 24399.00
449.7700, 24109.00
450.9600, 23844.00
452.1490, 23557.00
453.3370, 23367.00
454.5260, 23327.00
455.7150, 23001.00
456.9030, 23181.00
458.0910, 23029.00
459.2800, 22919.00
460.4670, 22938.00
461.6550, 22893.00
462.8430, 22796.00
464.0300, 22752.00
465.2180, 22757.00
466.4050, 22916.00
467.5920, 23115.00
468.7790, 23378.00
469.9650, 23633.00
471.1520, 24007.00
472.3380, 24031.00
473.5250, 24316.00
474.7110, 24361.00
475.8970, 24631.00
477.0820, 25297.00
478.2680, 25648.00
479.4540, 26719.00
480.6390, 27913.00
481.8240, 29178.00
483.0090, 30923.00
484.1940, 32310.00
485.3780, 33494.00
486.5630, 34002.00
487.7470, 32786.00
488.9320, 30954.00
490.1160, 29084.00
491.3000, 27193.00
492.4830, 25752.00
493.6670, 24780.00
494.8500, 24415.00
496.0340, 24037.00
497.2170, 23652.00
498.4000, 23485.00
499.5820, 23372.00
500.7650, 23453.00
501.9480, 23386.00
503.1300, 23400.00
504.3120, 23402.16
505.4940, 23544.00
506.6760, 23378.00
507.8580, 23520.00
509.0390, 23505.00
510.2210, 23442.00
511.4020, 23243.00
512.5830, 23220.00
513.7640, 22935.00
514.9450, 23024.00
516.1250, 23015.00
517.3060, 22757.00
518.4860, 22779.00
519.6660, 22804.00
520.8460, 22646.00
522.0260, 22569.00
523.2060, 22610.00
524.3850, 22630.00
525.5650, 22584.79
526.7440, 22377.00
527.9230, 22580.00
529.1020, 22467.00
530.2810, 22552.00
531.4590, 22626.00
532.6380, 22676.00
533.8160, 22730.00
534.9940, 22781.99
536.1720, 22957.00
537.3500, 22905.00
538.5270, 23045.00
539.7050, 23182.00
540.8820, 23146.00
542.0590, 23265.00
543.2360, 23221.00
544.4130, 23361.00
545.5900, 23558.00
546.7660, 23696.00
547.9430, 23686.00
549.1190, 23877.00
550.2950, 23588.00
551.4710, 23575.00
552.6470, 23706.00
553.8220, 24031.00
554.9980, 23926.00
556.1730, 24314.00
557.3480, 24684.00
558.5230, 24865.00
559.6980, 25328.00
560.8730, 25582.00
562.0470, 25875.00
563.2220, 26146.00
564.3960, 26157.00
565.5700, 25742.00
566.7440, 25559.00
567.9170, 25548.00
569.0910, 25631.00
570.2640, 25755.00
571.4380, 25862.00
572.6110, 26113.00
573.7840, 26395.00
574.9570, 26602.00
576.1290, 26600.00
577.3020, 26563.00
578.4740, 26316.00
579.6460, 26256.00
580.8180, 25788.00
581.9900, 25679.00
583.1620, 25569.00
584.3330, 25253.00
585.5040, 25167.00
586.6760, 25033.00
587.8470, 25237.00
589.0180, 25147.00
590.1880, 25413.00
591.3590, 24973.00
592.5290, 24961.00
593.7000, 24701.00
594.8700, 24673.00
596.0400, 24503.00
597.2090, 24279.00
598.3790, 24231.00
599.5490, 24309.00
600.7180, 24183.00
601.8870, 24332.00
603.0560, 24561.00
604.2250, 24695.00
605.3940, 24716.00
606.5620, 25159.00
607.7300, 25325.00
608.8990, 25814.00
610.0670, 26305.00
611.2350, 26984.00
612.4020, 27566.00
613.5700, 28400.00
614.7370, 28823.00
615.9050, 29979.00
617.0720, 30802.00
618.2390, 31709.00
619.4060, 31925.00
620.5720, 32006.00
621.7390, 31959.00
622.9050, 31614.00
624.0710, 30296.00
625.2370, 29134.00
626.4030, 27997.00
627.5690, 27175.00
628.7340, 26384.00
629.9000, 25785.00
631.0650, 25441.00
632.2300, 25106.00
633.3950, 24878.00
634.5600, 25011.00
635.7240, 24845.00
636.8890, 24992.00
638.0530, 25076.00
639.2170, 25297.00
640.3810, 25327.00
641.5450, 25578.00
642.7080, 25879.00
643.8720, 26055.00
645.0350, 25791.00
646.1980, 26101.00
647.3610, 25909.00
648.5240, 25721.00
649.6870, 25681.00
650.8490, 25420.00
652.0120, 25378.00
653.1740, 25163.00
654.3360, 25133.00
655.4980, 25075.00
656.6600, 24992.00
657.8210, 24910.00
658.9830, 24923.00
660.1440, 25245.00
661.3050, 25144.00
662.4660, 25380.00
663.6270, 25697.00
664.7870, 25733.00
665.9480, 26040.00
667.1080, 26228.00
668.2680, 26693.00
669.4280, 27327.00
670.5880, 27986.00
671.7480, 28947.00
672.9070, 29439.00
674.0670, 31432.00
675.2260, 31450.00
676.3850, 31867.00
677.5440, 32412.00
678.7030, 32100.00
679.8610, 31778.00
681.0200, 31122.00
682.1780, 30146.00
683.3360, 29393.00
684.4940, 28496.00
685.6520, 28080.00
686.8090, 27546.00
687.9670, 27365.00
689.1240, 27060.00
690.2810, 27151.00
691.4380, 27322.00
692.5950, 27353.00
693.7520, 27367.00
694.9080, 27610.00
696.0650, 27906.00
697.2210, 28446.00
698.3770, 28680.00
699.5330, 29345.00
700.6880, 30333.00
701.8440, 31057.00
702.9990, 32137.00
704.1550, 33758.00
705.3100, 35673.00
706.4650, 37836.00
707.6190, 40586.00
708.7740, 43240.00
709.9290, 46358.00
711.0830, 49857.00
712.2370, 53045.00
713.3910, 55258.00
714.5450, 55983.00
715.6980, 55440.00
716.8520, 53008.00
718.0050, 49730.00
719.1580, 46189.00
720.3110, 42542.00
721.4640, 39434.00
722.6170, 36984.00
723.7700, 34519.00
724.9220, 32771.00
726.0740, 31634.00
727.2260, 30475.00
728.3780, 29757.00
729.5300, 28958.00
730.6810, 28721.00
731.8330, 28202.00
732.9840, 28024.00
734.1350, 27622.00
735.2860, 27406.00
736.4370, 27217.00
737.5880, 26974.50
738.7380, 27007.00
739.8880, 26710.00
741.0390, 26679.00
742.1890, 26737.00
743.3380, 26650.46
744.4880, 26783.00
745.6380, 26607.00
746.7870, 26563.00
747.9360, 26322.00
749.0850, 26687.00
750.2340, 26532.00
751.3830, 26740.00
752.5310, 26615.00
753.6800, 26846.00
754.8280, 26766.00
755.9760, 27033.00
757.1240, 26940.00
758.2720, 27240.00
759.4190, 27228.00
760.5670, 27247.00
761.7140, 27641.00
762.8610, 27817.00
764.0080, 27942.00
765.1550, 28168.00
766.3020, 28214.00
767.4480, 28263.00
768.5950, 28272.52
769.7410, 28161.00
770.8870, 28087.00
772.0330, 27996.00
773.1780, 27734.00
774.3240, 27610.00
775.4690, 27468.00
776.6140, 27114.00
777.7590, 27152.00
778.9040, 26883.00
780.0490, 26975.00
781.1940, 26620.00
782.3380, 26607.00
783.4820, 26762.00
784.6260, 26596.00
785.7700, 26594.00
786.9140, 26660.00
788.0580, 26617.00
789.2010, 26393.00
790.3450, 26506.00
791.4880, 26645.00
792.6310, 26229.00
793.7730, 26545.00
794.9160, 26699.00
796.0590, 26575.00
797.2010, 26461.00
798.3430, 26684.00
799.4850, 26653.00
800.6270, 26710.00
801.7690, 26867.00
802.9100, 26570.00
804.0520, 26682.00
805.1930, 26832.00
806.3340, 27095.00
807.4750, 27028.00
808.6160, 27241.00
809.7560, 27574.00
810.8970, 27605.00
812.0370, 27798.00
813.1770, 27905.00
814.3170, 28157.00
815.4570, 28040.00
816.5960, 28111.00
817.7360, 28229.00
818.8750, 28175.00
820.0140, 27832.00
821.1530, 27991.00
822.2920, 27817.00
823.4310, 27777.00
824.5690, 27664.00
825.7070, 27425.00
826.8460, 27593.00
827.9840, 27636.00
829.1220, 27508.00
830.2590, 27733.00
831.3970, 27669.00
832.5340, 27791.00
833.6710, 27641.00
834.8080, 27764.00
835.9450, 27683.00
837.0820, 27799.00
838.2190, 27867.00
839.3550, 28010.00
840.4910, 28001.00
841.6270, 28296.00
842.7630, 28486.00
843.8990, 28139.00
845.0350, 28583.00
846.1700, 28579.00
847.3060, 28702.00
848.4410, 28747.00
849.5760, 28958.00
850.7100, 29080.62
851.8450, 29374.00
852.9800, 29338.00
854.1140, 29508.00
855.2480, 29469.00
856.3820, 29629.00
857.5160, 29663.00
858.6500, 29705.00
859.7830, 29753.40
860.9170, 29787.86
862.0500, 29826.00
863.1830, 29887.00
864.3160, 30035.00
865.4480, 30141.00
866.5810, 30051.00
867.7130, 30074.00
868.8460, 29982.00
869.9780, 29951.00
871.1100, 30014.00
872.2410, 29797.00
873.3730, 29938.00
874.5050, 30077.00
875.6360, 29974.00
876.7670, 30049.00
877.8980, 30156.00
879.0290, 30156.00
880.1590, 30343.00
881.2900, 30231.00
882.4200, 30344.00
883.5500, 30479.00
884.6800, 30308.00
885.8100, 30730.00
886.9400, 30555.00
888.0690, 30803.00
889.1990, 31005.00
890.3280, 31295.00
891.4570, 31547.00
892.5860, 31931.00
893.7140, 32104.00
894.8430, 32692.00
895.9710, 32965.00
897.1000, 33489.00
898.2280, 34126.00
899.3560, 34587.00
900.4830, 35045.00
901.6110, 35571.00
902.7380, 36139.00
903.8660, 36083.00
904.9930, 36612.00
906.1200, 36848.00
907.2460, 36654.00
908.3730, 36586.00
909.5000, 36181.00
910.6260, 35597.00
911.7520, 35042.00
912.8780, 34350.00
914.0040, 33691.00
915.1290, 33396.00
916.2550, 32873.00
917.3800, 32432.00
918.5050, 32190.00
919.6300, 31767.00
920.7550, 31708.00
921.8800, 31709.00
923.0040, 31761.00
924.1290, 31753.72
925.2530, 31887.00
926.3770, 31941.00
927.5010, 31986.00
928.6250, 32351.00
929.7480, 32573.00
930.8720, 32761.00
931.9950, 32961.00
933.1180, 33305.00
934.2410, 33064.00
935.3640, 33368.00
936.4860, 33225.00
937.6090, 33352.00
938.7310, 33566.00
939.8530, 33698.00
940.9750, 33786.00
942.0970, 34109.00
943.2180, 34341.00
944.3400, 34975.00
945.4610, 35599.00
946.5820, 36208.00
947.7030, 37095.55
948.8240, 38158.00
949.9450, 39019.00
951.0650, 40103.00
952.1860, 41292.00
953.3060, 42466.00
954.4260, 43585.00
955.5460, 44462.00
956.6650, 45740.00
957.7850, 47190.00
958.9040, 48673.00
960.0230, 50387.00
961.1420, 52701.00
962.2610, 54655.00
963.3800, 56717.00
964.4990, 58013.00
965.6170, 58259.00
966.7350, 58162.00
967.8530, 56514.00
968.9710, 54439.00
970.0890, 52724.00
971.2070, 50355.00
972.3240, 49142.00
973.4410, 47640.00
974.5580, 47230.00
975.6750, 47053.00
976.7920, 47226.00
977.9090, 47568.00
979.0250, 48091.00
980.1410, 48293.00
981.2580, 48144.00
982.3740, 47626.00
983.4890, 46866.00
984.6050, 46028.00
985.7200, 45021.00
986.8360, 44483.21
987.9510, 43555.00
989.0660, 43382.00
990.1810, 42831.00
991.2950, 42445.00
992.4100, 41884.00
993.5240, 41781.00
994.6390, 41509.00
995.7530, 41260.00
996.8660, 41080.00
997.9800, 40878.00
999.0940, 41065.00
1000.207, 41279.00
1001.320, 41032.00
1002.433, 40930.00
1003.546, 40915.00
1004.659, 40627.00
1005.772, 40391.00
1006.884, 40084.00
1007.996, 39392.00
1009.108, 38802.00
1010.220, 38253.00
1011.332, 37712.00
1012.444, 36813.00
1013.555, 36378.00
1014.666, 35809.00
1015.777, 35512.00
1016.888, 35135.14
1017.999, 35102.00
1019.110, 34427.00
1020.220, 34610.00
1021.331, 34050.00
1022.441, 33785.00
1023.551, 33816.00
1024.661, 33862.00
1025.770, 33867.00
1026.880, 33634.00
1027.989, 33832.00
1029.098, 33657.00
1030.207, 33740.00
1031.316, 33484.00
1032.425, 33604.00
1033.533, 33729.00
1034.642, 33673.00
1035.750, 33583.00
1036.858, 33723.00
1037.966, 33913.00
1039.073, 33948.00
1040.181, 34071.00
1041.288, 34316.00
1042.396, 34342.00
1043.503, 34321.00
1044.610, 34526.00
1045.716, 34609.00
1046.823, 34697.00
1047.929, 34798.00
1049.036, 34918.00
1050.142, 35057.00
1051.248, 35363.00
1052.353, 35628.00
1053.459, 35936.00
1054.564, 36090.00
1055.670, 36346.00
1056.775, 36555.00
1057.880, 36747.00
1058.985, 36697.00
1060.089, 37136.00
1061.194, 36969.00
1062.298, 36969.00
1063.402, 36730.00
1064.506, 36782.00
1065.610, 36509.95
1066.713, 36385.00
1067.817, 35970.00
1068.920, 35594.00
1070.023, 35220.00
1071.126, 34948.00
1072.229, 34861.00
1073.332, 34890.00
1074.435, 34826.00
1075.537, 34772.00
1076.639, 35238.00
1077.741, 35582.00
1078.843, 35727.00
1079.945, 36198.00
1081.046, 36605.00
1082.148, 37006.00
1083.249, 37361.00
1084.350, 37298.00
1085.451, 37521.00
1086.551, 37335.00
1087.652, 37244.00
1088.752, 36511.00
1089.853, 36180.00
1090.953, 35567.00
1092.053, 35135.00
1093.152, 35043.00
1094.252, 34616.00
1095.351, 34720.00
1096.451, 34216.00
1097.550, 34294.00
1098.649, 34409.00
1099.748, 34311.00
1100.846, 34535.00
1101.945, 34467.00
1103.043, 34677.00
1104.141, 34791.00
1105.239, 34912.00
1106.337, 34808.00
1107.434, 34858.00
1108.532, 34915.00
1109.629, 34787.00
1110.726, 34807.00
1111.823, 34689.00
1112.920, 34486.00
1114.017, 34680.00
1115.113, 34285.00
1116.210, 34636.00
1117.306, 34583.00
1118.402, 34772.00
1119.498, 34666.00
1120.593, 34735.00
1121.689, 34541.00
1122.784, 34753.00
1123.879, 34553.00
1124.974, 34419.00
1126.069, 34481.00
1127.164, 34357.00
1128.259, 34199.47
1129.353, 33678.00
1130.447, 33849.00
1131.541, 33650.00
1132.635, 33532.00
1133.729, 33734.00
1134.822, 33396.00
1135.916, 33632.00
1137.009, 33726.00
1138.102, 33596.00
1139.195, 33356.00
1140.288, 33719.00
1141.380, 33521.00
1142.473, 33333.00
1143.565, 33570.00
1144.657, 33615.00
1145.749, 33634.00
1146.841, 33714.00
1147.932, 33698.12
1149.024, 33702.44
1150.115, 33644.00
1151.206, 33681.00
1152.297, 33664.07
1153.388, 33592.00
1154.479, 33685.00
1155.569, 33695.00
1156.659, 33739.14
1157.750, 33711.00
1158.839, 33762.00
1159.929, 33717.00
1161.019, 33640.00
1162.108, 33666.88
1163.198, 33639.00
1164.287, 33632.00
1165.376, 33618.00
1166.465, 33559.00
1167.553, 33688.00
1168.642, 33844.00
1169.730, 33883.00
1170.818, 33659.00
1171.906, 33850.00
1172.994, 33841.00
1174.082, 33784.00
1175.170, 33898.00
1176.257, 33786.00
1177.344, 33809.00
1178.431, 33861.00
1179.518, 33899.00
1180.605, 33743.00
1181.691, 33768.00
1182.778, 33818.00
1183.864, 33887.00
1184.950, 33963.00
1186.036, 33947.52
1187.122, 33935.00
1188.207, 33913.00
1189.292, 33948.00
1190.378, 33935.00
1191.463, 33860.00
1192.548, 34164.00
1193.632, 34045.18
1194.717, 34277.00
1195.801, 34154.00
1196.886, 33866.00
1197.970, 34150.00
1199.054, 34190.00
1200.137, 34413.00
1201.221, 34270.00
1202.305, 34185.00
1203.388, 34290.00
1204.471, 34247.00
1205.554, 34497.00
1206.637, 34372.00
1207.719, 34299.00
1208.802, 34414.00
1209.884, 34332.98
1210.966, 34311.00
1212.048, 34357.00
1213.130, 34391.00
1214.212, 34436.00
1215.293, 34365.00
1216.374, 34281.00
1217.456, 34355.59
1218.536, 34329.04
1219.617, 34499.00
1220.698, 34483.00
1221.778, 34644.00
1222.859, 34640.43
1223.939, 34494.00
1225.019, 34673.00
1226.099, 34645.00
1227.178, 34722.00
1228.258, 34673.00
1229.337, 34586.00
1230.417, 34867.00
1231.496, 34931.00
1232.574, 34681.00
1233.653, 34890.00
1234.732, 34844.00
1235.810, 34681.00
1236.888, 34690.00
