##NAMES=Axinite-(Fe)
##RRUFFID=R060183
##IDEAL CHEMISTRY=Ca_4_Fe^2+^_2_Al_4_[B_2_Si_8_O_30_](OH)_2_
##LOCALITY=Skagit Bluffs, near Manning Park, British Columbia, Canada
##OWNER=RRUFF
##SOURCE=Lloyd Twaites
##DESCRIPTION=Light-pink transparent axe-head-shaped single crystal
##STATUS=The identification of this mineral has been confirmed by X-ray diffraction and chemical analysis
##URL=rruff.info/R060183
##MEASURED CHEMISTRY=Ca_2.00_(Fe^2+^_0.58_Mn_0.23_Mg_0.19_)Al_2.00_B_1.00_Si_4.00_O_15_(OH)
##PIN_ID=L01506
##ORIENTATION=Laser parallel to (-1 -1 0). Fiducial mark perpendicular to laser is parallel to c [0 0 1]
52.67100, 1348.000
53.91000, 1305.000
55.14900, 1264.000
56.38700, 1210.000
57.62600, 1205.000
58.86400, 1213.000
60.10300, 1285.000
61.34100, 1283.000
62.57900, 1281.000
63.81700, 1292.000
65.05400, 1320.000
66.29200, 1377.000
67.52900, 1514.000
68.76700, 1778.000
70.00400, 2139.000
71.24100, 2352.000
72.47700, 2492.000
73.71400, 2694.000
74.95100, 2947.129
76.18700, 3112.589
77.42300, 3446.000
78.65900, 3567.000
79.89500, 3733.000
81.13100, 4072.000
82.36700, 4718.000
83.60200, 5390.000
84.83700, 5925.000
86.07200, 6189.000
87.30800, 6679.000
88.54200, 7357.000
89.77700, 8425.000
91.01200, 9687.000
92.24600, 11100.00
93.48000, 12012.00
94.71400, 12742.00
95.94800, 13092.00
97.18200, 13265.00
98.41600, 13472.00
99.64900, 13983.00
100.8830, 14473.00
102.1160, 14960.00
103.3490, 15666.00
104.5820, 16857.00
105.8150, 18600.00
107.0470, 20715.00
108.2800, 20497.08
109.5120, 23283.00
110.7440, 19825.00
111.9760, 17673.00
113.2080, 16347.00
114.4400, 15539.00
115.6710, 15009.00
116.9030, 14234.00
118.1340, 13706.00
119.3650, 13178.00
120.5960, 12880.00
121.8270, 13144.00
123.0580, 13329.00
124.2880, 13616.00
125.5190, 13731.00
126.7490, 13932.00
127.9790, 14065.00
129.2090, 14130.00
130.4390, 13921.00
131.6680, 13767.00
132.8980, 13480.00
134.1270, 13370.00
135.3560, 13804.00
136.5850, 14127.00
137.8140, 15360.00
139.0430, 16937.00
140.2710, 18275.00
141.5000, 18991.00
142.7280, 18927.00
143.9560, 18553.00
145.1840, 18194.00
146.4120, 18330.00
147.6390, 18370.00
148.8670, 18356.00
150.0940, 18040.00
151.3210, 17826.00
152.5490, 17727.00
153.7750, 17492.00
155.0020, 17383.00
156.2290, 17198.00
157.4550, 16671.00
158.6810, 15836.00
159.9080, 15374.00
161.1340, 15426.00
162.3590, 15613.00
163.5850, 16407.00
164.8110, 17722.00
166.0360, 19290.00
167.2610, 21417.00
168.4860, 23882.00
169.7110, 25509.00
170.9360, 25723.00
172.1610, 25251.00
173.3850, 23315.00
174.6100, 21190.00
175.8340, 19257.00
177.0580, 17268.00
178.2820, 15589.00
179.5050, 14144.00
180.7290, 13081.00
181.9520, 12297.00
183.1760, 11702.00
184.3990, 11424.08
185.6220, 11468.00
186.8450, 11560.00
188.0670, 12006.00
189.2900, 12625.00
190.5120, 13515.00
191.7340, 14260.00
192.9560, 14770.00
194.1780, 14955.00
195.4000, 15031.00
196.6220, 15243.00
197.8430, 15258.00
199.0640, 15695.00
200.2860, 16325.00
201.5070, 17754.00
202.7270, 18811.00
203.9480, 20385.00
205.1690, 21208.00
206.3890, 22720.00
207.6090, 23918.00
208.8290, 24854.00
210.0490, 25330.00
211.2690, 25498.00
212.4890, 24915.00
213.7080, 24175.00
214.9280, 23177.00
216.1470, 21852.00
217.3660, 20735.15
218.5850, 19635.00
219.8030, 18084.00
221.0220, 16775.00
222.2400, 15509.00
223.4590, 14501.00
224.6770, 13525.00
225.8950, 12850.00
227.1120, 12293.00
228.3300, 11904.00
229.5480, 11560.00
230.7650, 11492.00
231.9820, 11437.00
233.1990, 11534.00
234.4160, 11679.00
235.6330, 11988.00
236.8490, 12287.00
238.0660, 12825.00
239.2820, 13261.00
240.4980, 13919.00
241.7140, 14417.00
242.9300, 14756.00
244.1460, 15254.00
245.3610, 15644.00
246.5770, 15585.00
247.7920, 15673.00
249.0070, 15857.00
250.2220, 16105.00
251.4370, 16300.00
252.6510, 16560.00
253.8660, 16640.00
255.0800, 16503.00
256.2940, 16268.00
257.5080, 16254.00
258.7220, 16094.50
259.9360, 15891.05
261.1490, 15998.00
262.3630, 15744.00
263.5760, 15908.00
264.7890, 16440.00
266.0020, 16972.00
267.2150, 18019.00
268.4270, 18884.00
269.6400, 19856.00
270.8520, 20519.00
272.0640, 21433.00
273.2760, 21711.00
274.4880, 21566.00
275.7000, 21141.00
276.9120, 20204.00
278.1230, 19311.00
279.3340, 18257.00
280.5450, 17364.00
281.7560, 16479.00
282.9670, 15949.00
284.1780, 15428.00
285.3880, 15311.00
286.5980, 15290.00
287.8090, 15750.00
289.0190, 16192.00
290.2290, 16983.00
291.4380, 18018.00
292.6480, 18800.00
293.8570, 19886.00
295.0670, 20933.00
296.2760, 21920.00
297.4850, 22905.00
298.6930, 23543.00
299.9020, 24537.00
301.1110, 25087.00
302.3190, 25764.00
303.5270, 26088.00
304.7350, 26357.00
305.9430, 25769.00
307.1510, 24841.00
308.3580, 23815.00
309.5660, 22815.00
310.7730, 21819.00
311.9800, 21437.00
313.1870, 21066.00
314.3940, 21445.00
315.6010, 22137.00
316.8070, 22891.00
318.0130, 23271.00
319.2200, 23233.00
320.4260, 22622.00
321.6310, 21412.00
322.8370, 20249.00
324.0430, 19047.00
325.2480, 18116.56
326.4540, 17039.00
327.6590, 16491.00
328.8640, 15962.00
330.0680, 15553.00
331.2730, 15374.00
332.4780, 15510.00
333.6820, 15862.00
334.8860, 16467.00
336.0900, 17244.00
337.2940, 18483.00
338.4980, 20010.00
339.7010, 21848.00
340.9050, 23396.00
342.1080, 24535.00
343.3110, 25274.00
344.5140, 25526.00
345.7170, 25117.00
346.9200, 24847.00
348.1220, 24525.00
349.3240, 24220.00
350.5270, 23775.00
351.7290, 22935.00
352.9310, 21583.00
354.1320, 19904.00
355.3340, 19837.00
356.5350, 20052.00
357.7370, 15564.00
358.9380, 14404.00
360.1390, 13689.00
361.3400, 13005.00
362.5400, 12648.00
363.7410, 12413.00
364.9410, 12436.00
366.1410, 12260.00
367.3410, 12417.00
368.5410, 12562.00
369.7410, 12617.00
370.9400, 12771.33
372.1400, 12883.34
373.3390, 12962.00
374.5380, 13100.00
375.7370, 13099.00
376.9360, 13121.00
378.1350, 13592.00
379.3330, 13896.00
380.5310, 14582.00
381.7300, 15244.00
382.9280, 16306.00
384.1260, 17701.00
385.3230, 19071.00
386.5210, 20151.00
387.7180, 21120.00
388.9160, 21875.00
390.1130, 22450.00
391.3100, 22605.19
392.5060, 22546.00
393.7030, 22094.00
394.9000, 21455.00
396.0960, 20307.00
397.2920, 19446.00
398.4880, 18506.00
399.6840, 17718.00
400.8800, 16777.00
402.0750, 16033.00
403.2710, 15366.00
404.4660, 14840.00
405.6610, 14427.00
406.8560, 14529.00
408.0510, 14383.00
409.2450, 14813.00
410.4400, 15456.00
411.6340, 16253.00
412.8280, 17429.00
414.0220, 18820.00
415.2160, 20034.00
416.4100, 20538.00
417.6030, 20838.00
418.7970, 20956.00
419.9900, 21111.00
421.1830, 21300.00
422.3760, 21893.00
423.5690, 22560.00
424.7610, 23845.00
425.9540, 24809.00
427.1460, 25662.00
428.3380, 26194.00
429.5300, 26323.00
430.7220, 25802.00
431.9140, 24658.00
433.1050, 23553.00
434.2970, 21544.00
435.4880, 19884.00
436.6790, 18487.00
437.8700, 17627.00
439.0610, 17073.00
440.2510, 16797.00
441.4420, 16885.00
442.6320, 16745.00
443.8220, 16634.00
445.0120, 16225.00
446.2020, 15528.00
447.3910, 15160.00
448.5810, 14296.00
449.7700, 13854.00
450.9600, 13514.00
452.1490, 13388.00
453.3370, 13296.00
454.5260, 13392.00
455.7150, 13372.00
456.9030, 13316.00
458.0910, 13150.00
459.2800, 13042.00
460.4670, 12908.00
461.6550, 12794.00
462.8430, 12906.00
464.0300, 12891.25
465.2180, 12852.00
466.4050, 13071.00
467.5920, 13228.00
468.7790, 13331.20
469.9650, 13578.00
471.1520, 13401.00
472.3380, 13249.00
473.5250, 13086.00
474.7110, 13116.00
475.8970, 13133.00
477.0820, 13220.00
478.2680, 13662.00
479.4540, 14103.00
480.6390, 14614.00
481.8240, 15373.00
483.0090, 15846.00
484.1940, 16156.00
485.3780, 15946.00
486.5630, 15490.00
487.7470, 14616.00
488.9320, 13976.00
490.1160, 13358.00
491.3000, 12857.00
492.4830, 12509.00
493.6670, 12253.00
494.8500, 12225.00
496.0340, 12365.00
497.2170, 12568.00
498.4000, 12780.00
499.5820, 12971.00
500.7650, 13490.00
501.9480, 13701.00
503.1300, 14098.00
504.3120, 14305.00
505.4940, 14468.00
506.6760, 14300.00
507.8580, 14358.00
509.0390, 14196.00
510.2210, 14114.00
511.4020, 13882.00
512.5830, 13632.15
513.7640, 13144.00
514.9450, 12975.00
516.1250, 12714.00
517.3060, 12266.00
518.4860, 12104.00
519.6660, 11769.00
520.8460, 11847.00
522.0260, 11613.00
523.2060, 11482.00
524.3850, 11423.00
525.5650, 11396.00
526.7440, 11491.00
527.9230, 11362.00
529.1020, 11397.00
530.2810, 11744.00
531.4590, 11601.00
532.6380, 11725.00
533.8160, 12059.00
534.9940, 12257.00
536.1720, 12471.00
537.3500, 13010.00
538.5270, 13380.00
539.7050, 13983.00
540.8820, 14739.00
542.0590, 15021.00
543.2360, 15601.00
544.4130, 15862.00
545.5900, 16019.00
546.7660, 16033.00
547.9430, 15917.00
549.1190, 15728.00
550.2950, 15274.00
551.4710, 15160.00
552.6470, 15144.00
553.8220, 15189.00
554.9980, 15377.00
556.1730, 15516.00
557.3480, 16050.00
558.5230, 16402.00
559.6980, 16433.00
560.8730, 16262.00
562.0470, 16089.00
563.2220, 15813.00
564.3960, 15723.00
565.5700, 15545.00
566.7440, 15572.00
567.9170, 15471.00
569.0910, 15614.00
570.2640, 15619.00
571.4380, 15849.00
572.6110, 15891.00
573.7840, 16204.00
574.9570, 15904.00
576.1290, 15827.00
577.3020, 16029.00
578.4740, 15978.00
579.6460, 15753.00
580.8180, 16170.00
581.9900, 16373.00
583.1620, 16898.00
584.3330, 17332.00
585.5040, 17850.00
586.6760, 18116.00
587.8470, 18259.00
589.0180, 17808.00
590.1880, 17260.00
591.3590, 16614.00
592.5290, 15967.00
593.7000, 15240.00
594.8700, 14432.00
596.0400, 14082.00
597.2090, 13570.00
598.3790, 13184.00
599.5490, 13125.00
600.7180, 13124.00
601.8870, 13164.00
603.0560, 13309.83
604.2250, 13456.00
605.3940, 13733.00
606.5620, 14005.00
607.7300, 14277.00
608.8990, 14569.00
610.0670, 14744.00
611.2350, 14972.00
612.4020, 15086.00
613.5700, 15043.00
614.7370, 15226.00
615.9050, 15111.00
617.0720, 15168.00
618.2390, 15278.00
619.4060, 15285.00
620.5720, 14962.00
621.7390, 14516.00
622.9050, 14101.00
624.0710, 13896.00
625.2370, 13354.00
626.4030, 13073.00
627.5690, 12592.00
628.7340, 12452.00
629.9000, 12363.00
631.0650, 12359.00
632.2300, 12275.00
633.3950, 12464.00
634.5600, 12352.00
635.7240, 12662.00
636.8890, 12782.00
638.0530, 12875.00
639.2170, 12996.00
640.3810, 13201.00
641.5450, 13306.00
642.7080, 13354.00
643.8720, 13442.00
645.0350, 13293.00
646.1980, 13307.00
647.3610, 13061.00
648.5240, 13024.00
649.6870, 12820.00
650.8490, 12731.00
652.0120, 12603.00
653.1740, 12623.00
654.3360, 12534.00
655.4980, 12761.00
656.6600, 12799.00
657.8210, 13194.00
658.9830, 13333.63
660.1440, 13598.35
661.3050, 13884.00
662.4660, 14110.00
663.6270, 14615.00
664.7870, 14818.00
665.9480, 15324.00
667.1080, 15582.00
668.2680, 15967.00
669.4280, 16758.00
670.5880, 17425.00
671.7480, 18248.00
672.9070, 19296.00
674.0670, 20603.00
675.2260, 21625.00
676.3850, 22111.00
677.5440, 22386.00
678.7030, 21996.00
679.8610, 21333.00
681.0200, 20258.00
682.1780, 19114.00
683.3360, 17941.00
684.4940, 17054.00
685.6520, 16385.00
686.8090, 15648.00
687.9670, 15245.00
689.1240, 14892.00
690.2810, 14692.00
691.4380, 14830.00
692.5950, 14864.00
693.7520, 14999.00
694.9080, 15098.00
696.0650, 15900.00
697.2210, 16317.00
698.3770, 17084.00
699.5330, 18121.00
700.6880, 19120.00
701.8440, 20687.00
702.9990, 22723.00
704.1550, 25119.00
705.3100, 27797.00
706.4650, 31545.00
707.6190, 35351.00
708.7740, 39967.00
709.9290, 44674.00
711.0830, 49445.00
712.2370, 52772.00
713.3910, 54853.00
714.5450, 55563.00
715.6980, 53669.00
716.8520, 50384.00
718.0050, 45966.00
719.1580, 41333.00
720.3110, 36314.00
721.4640, 32269.00
722.6170, 28563.00
723.7700, 25580.00
724.9220, 23121.00
726.0740, 21107.00
727.2260, 19668.00
728.3780, 18394.00
729.5300, 17333.00
730.6810, 16586.00
731.8330, 15805.00
732.9840, 15214.00
734.1350, 14947.00
735.2860, 14679.00
736.4370, 14352.00
737.5880, 14186.00
738.7380, 14878.00
739.8880, 13820.00
741.0390, 14075.00
742.1890, 13318.00
743.3380, 13513.00
744.4880, 13105.00
745.6380, 13220.00
746.7870, 13084.00
747.9360, 13280.00
749.0850, 13205.00
750.2340, 13281.00
751.3830, 13490.00
752.5310, 13391.00
753.6800, 13696.00
754.8280, 13945.00
755.9760, 14218.00
757.1240, 14557.00
758.2720, 14895.00
759.4190, 15374.00
760.5670, 15863.00
761.7140, 16496.00
762.8610, 17024.00
764.0080, 17459.00
765.1550, 18066.00
766.3020, 18353.00
767.4480, 18161.00
768.5950, 18135.00
769.7410, 17793.00
770.8870, 17176.00
772.0330, 16982.00
773.1780, 16242.00
774.3240, 15841.00
775.4690, 15330.00
776.6140, 14875.00
777.7590, 14411.00
778.9040, 14059.00
780.0490, 13858.00
781.1940, 13449.00
782.3380, 13335.00
783.4820, 13219.00
784.6260, 12954.00
785.7700, 12789.00
786.9140, 12795.00
788.0580, 12451.00
789.2010, 12489.00
790.3450, 12383.00
791.4880, 12350.00
792.6310, 12238.00
793.7730, 12263.00
794.9160, 12216.00
796.0590, 12253.00
797.2010, 12261.66
798.3430, 12178.00
799.4850, 12306.00
800.6270, 12216.00
801.7690, 12226.00
802.9100, 12164.00
804.0520, 12364.00
805.1930, 12536.00
806.3340, 12413.00
807.4750, 12466.00
808.6160, 12521.00
809.7560, 12743.00
810.8970, 12848.00
812.0370, 12935.00
813.1770, 12861.00
814.3170, 12674.00
815.4570, 12742.00
816.5960, 12624.00
817.7360, 12661.00
818.8750, 12455.00
820.0140, 12514.00
821.1530, 12371.00
822.2920, 12283.00
823.4310, 12247.00
824.5690, 12197.00
825.7070, 12229.00
826.8460, 12227.78
827.9840, 12246.00
829.1220, 12274.00
830.2590, 12342.00
831.3970, 12336.00
832.5340, 12377.92
833.6710, 12330.00
834.8080, 12458.00
835.9450, 12491.00
837.0820, 12598.00
838.2190, 12630.00
839.3550, 12643.00
840.4910, 12732.00
841.6270, 12862.00
842.7630, 12973.00
843.8990, 13027.00
845.0350, 12916.00
846.1700, 13043.00
847.3060, 13281.00
848.4410, 13152.00
849.5760, 13316.00
850.7100, 13257.00
851.8450, 13447.00
852.9800, 13517.00
854.1140, 13405.00
855.2480, 13420.00
856.3820, 13503.97
857.5160, 13624.00
858.6500, 13668.00
859.7830, 13728.00
860.9170, 13751.00
862.0500, 13862.00
863.1830, 13956.00
864.3160, 14139.00
865.4480, 14121.00
866.5810, 14126.00
867.7130, 14137.00
868.8460, 14404.00
869.9780, 14378.00
871.1100, 14392.00
872.2410, 14491.00
873.3730, 14375.00
874.5050, 14494.00
875.6360, 14366.00
876.7670, 14700.00
877.8980, 14490.00
879.0290, 14720.00
880.1590, 14773.00
881.2900, 14658.00
882.4200, 14860.00
883.5500, 14833.00
884.6800, 15017.00
885.8100, 15092.00
886.9400, 15195.12
888.0690, 15359.37
889.1990, 15569.00
890.3280, 15843.00
891.4570, 16317.00
892.5860, 16750.42
893.7140, 17208.00
894.8430, 17903.00
895.9710, 18549.00
897.1000, 19250.00
898.2280, 19907.00
899.3560, 20564.00
900.4830, 21310.00
901.6110, 21539.00
902.7380, 21872.00
903.8660, 22004.00
904.9930, 21724.00
906.1200, 21266.00
907.2460, 20687.00
908.3730, 20256.00
909.5000, 19538.00
910.6260, 18973.00
911.7520, 18674.00
912.8780, 18043.00
914.0040, 17691.00
915.1290, 17260.00
916.2550, 17057.00
917.3800, 16543.00
918.5050, 16296.00
919.6300, 16141.00
920.7550, 16177.00
921.8800, 16239.00
923.0040, 16095.00
924.1290, 15953.00
925.2530, 15822.00
926.3770, 16043.00
927.5010, 16073.00
928.6250, 16168.00
929.7480, 16178.00
930.8720, 16253.00
931.9950, 16249.00
933.1180, 16352.00
934.2410, 16441.00
935.3640, 16328.00
936.4860, 16513.00
937.6090, 16503.00
938.7310, 16674.00
939.8530, 16998.00
940.9750, 17252.00
942.0970, 17560.00
943.2180, 17774.00
944.3400, 18386.00
945.4610, 18626.00
946.5820, 19193.00
947.7030, 20067.00
948.8240, 20745.00
949.9450, 21333.00
951.0650, 22333.00
952.1860, 23241.00
953.3060, 24246.00
954.4260, 25305.00
955.5460, 26830.00
956.6650, 28407.00
957.7850, 30140.00
958.9040, 32397.00
960.0230, 34572.00
961.1420, 36837.00
962.2610, 38515.00
963.3800, 39704.00
964.4990, 40259.00
965.6170, 39647.00
966.7350, 38900.00
967.8530, 37825.00
968.9710, 36641.00
970.0890, 35539.00
971.2070, 34908.00
972.3240, 34673.00
973.4410, 34977.00
974.5580, 35538.00
975.6750, 36331.00
976.7920, 37083.00
977.9090, 37708.00
979.0250, 37869.00
980.1410, 37767.00
981.2580, 36862.00
982.3740, 36106.00
983.4890, 34890.00
984.6050, 33659.00
985.7200, 33069.00
986.8360, 31904.00
987.9510, 31442.00
989.0660, 30786.00
990.1810, 30396.00
991.2950, 30264.00
992.4100, 29891.00
993.5240, 30041.00
994.6390, 30224.00
995.7530, 30494.00
996.8660, 30853.00
997.9800, 31070.00
999.0940, 31478.00
1000.207, 31826.00
1001.320, 31923.00
1002.433, 31821.00
1003.546, 31580.00
1004.659, 31299.00
1005.772, 30218.00
1006.884, 29406.00
1007.996, 27964.00
1009.108, 26649.00
1010.220, 25211.00
1011.332, 24177.00
1012.444, 23066.00
1013.555, 21969.00
1014.666, 21029.00
1015.777, 20321.00
1016.888, 19827.00
1017.999, 19318.00
1019.110, 18945.42
1020.220, 18694.00
1021.331, 18482.00
1022.441, 18333.00
1023.551, 18369.00
1024.661, 18495.00
1025.770, 18517.00
1026.880, 18591.00
1027.989, 18732.00
1029.098, 18447.00
1030.207, 18236.00
1031.316, 17891.00
1032.425, 18013.00
1033.533, 18030.00
1034.642, 17830.00
1035.750, 17800.00
1036.858, 17870.00
1037.966, 18006.00
1039.073, 18107.00
1040.181, 18295.00
1041.288, 18516.00
1042.396, 18588.00
1043.503, 18711.00
1044.610, 18648.00
1045.716, 18990.00
1046.823, 19058.00
1047.929, 19565.00
1049.036, 19674.00
1050.142, 20350.00
1051.248, 20759.00
1052.353, 21008.00
1053.459, 21471.00
1054.564, 21888.00
1055.670, 21939.00
1056.775, 22337.00
1057.880, 22184.00
1058.985, 22042.00
1060.089, 21604.00
1061.194, 21204.00
1062.298, 20473.00
1063.402, 19954.00
1064.506, 19298.00
1065.610, 18709.00
1066.713, 18437.00
1067.817, 17978.00
1068.920, 17831.00
1070.023, 17688.00
1071.126, 17671.00
1072.229, 17731.00
1073.332, 18132.00
1074.435, 18353.00
1075.537, 18774.00
1076.639, 19421.00
1077.741, 19719.00
1078.843, 20725.00
1079.945, 21448.00
1081.046, 22104.00
1082.148, 22419.00
1083.249, 22507.00
1084.350, 22110.00
1085.451, 21916.00
1086.551, 21276.00
1087.652, 20814.00
1088.752, 19754.00
1089.853, 19131.00
1090.953, 18331.00
1092.053, 17886.00
1093.152, 17741.00
1094.252, 17276.00
1095.351, 16982.00
1096.451, 16778.00
1097.550, 16875.00
1098.649, 16661.00
1099.748, 16777.00
1100.846, 16559.00
1101.945, 16670.00
1103.043, 16444.00
1104.141, 16385.00
1105.239, 16287.00
1106.337, 16180.06
1107.434, 16086.80
1108.532, 16071.00
1109.629, 15901.00
1110.726, 15912.00
1111.823, 15898.00
1112.920, 15600.00
1114.017, 15282.00
1115.113, 15423.00
1116.210, 15390.00
1117.306, 15252.00
1118.402, 15231.00
1119.498, 15189.00
1120.593, 15438.00
1121.689, 15213.00
1122.784, 15284.00
1123.879, 15053.00
1124.974, 15029.00
1126.069, 15270.00
1127.164, 14841.00
1128.259, 14859.00
1129.353, 14715.00
1130.447, 14533.00
1131.541, 14717.00
1132.635, 14615.00
1133.729, 14435.00
1134.822, 14463.00
1135.916, 14581.00
1137.009, 14713.00
1138.102, 14634.00
1139.195, 14465.00
1140.288, 14586.00
1141.380, 14512.00
1142.473, 14641.00
1143.565, 14455.00
1144.657, 14509.00
1145.749, 14433.00
1146.841, 14538.00
1147.932, 14491.00
1149.024, 14504.11
1150.115, 14414.00
1151.206, 14504.00
1152.297, 14559.00
1153.388, 14539.00
1154.479, 14537.06
1155.569, 14414.00
1156.659, 14448.00
1157.750, 14426.00
1158.839, 14401.00
1159.929, 14434.00
1161.019, 14412.00
1162.108, 14392.00
1163.198, 14427.00
1164.287, 14406.48
1165.376, 14359.00
1166.465, 14397.00
1167.553, 14468.00
1168.642, 14447.00
1169.730, 14368.00
1170.818, 14311.00
1171.906, 14305.00
1172.994, 14294.00
1174.082, 14268.00
1175.170, 14355.00
1176.257, 14494.00
1177.344, 14575.00
1178.431, 14460.00
1179.518, 14324.00
1180.605, 14401.00
1181.691, 14554.00
1182.778, 14596.00
1183.864, 14546.00
1184.950, 14519.00
1186.036, 14484.00
1187.122, 14463.00
1188.207, 14458.22
1189.292, 14437.00
1190.378, 14495.00
1191.463, 14468.00
1192.548, 14556.00
1193.632, 14602.00
1194.717, 14491.00
1195.801, 14586.00
1196.886, 14538.17
1197.970, 14602.00
1199.054, 14515.00
1200.137, 14570.00
1201.221, 14583.00
1202.305, 14560.00
1203.388, 14705.00
1204.471, 14537.00
1205.554, 14483.00
1206.637, 14592.00
1207.719, 14650.00
1208.802, 14711.00
1209.884, 14583.00
1210.966, 14602.00
1212.048, 14613.00
1213.130, 14512.00
1214.212, 14560.00
1215.293, 14653.00
1216.374, 14680.00
1217.456, 14639.00
1218.536, 14701.00
1219.617, 14696.97
1220.698, 14618.00
1221.778, 14730.00
1222.859, 14753.00
1223.939, 14771.86
1225.019, 14833.00
1226.099, 14748.00
1227.178, 14716.00
1228.258, 14721.00
1229.337, 14610.00
1230.417, 14859.00
1231.496, 14920.00
1232.574, 14839.00
1233.653, 14800.00
1234.732, 14936.00
