##NAMES=Axinite-(Fe)
##RRUFFID=R060194
##IDEAL CHEMISTRY=Ca_4_Fe^2+^_2_Al_4_[B_2_Si_8_O_30_](OH)_2_
##LOCALITY=near Dalbandi, Baluchistan Province, Pakistan
##OWNER=RRUFF
##SOURCE=Herbert Obodda
##DESCRIPTION=Brown transparent wedge-shaped single crystal
##STATUS=The identification of this mineral has been confirmed by X-ray diffraction and chemical analysis
##URL=rruff.info/R060194
##MEASURED CHEMISTRY=Ca_2.00_(Fe^2+^_0.66_Mg_0.30_Mn_0.04_)Al_2.00_BSi_4.00_O_15_(OH)
##PIN_ID=L01255
##ORIENTATION=Laser parallel to (-1 0 -1). Fiducial mark perpendicular to laser is parallel to -b [0 -1 0]
53.91000, 683.0000
55.14900, 676.0000
56.38700, 697.0000
57.62600, 683.0000
58.86400, 696.0000
60.10300, 709.4390
61.34100, 739.0000
62.57900, 752.0000
63.81700, 789.0000
65.05400, 838.0000
66.29200, 912.0000
67.52900, 1021.000
68.76700, 1165.000
70.00400, 1584.000
71.24100, 2022.000
72.47700, 1910.000
73.71400, 1887.000
74.95100, 2003.000
76.18700, 2330.000
77.42300, 2714.000
78.65900, 2760.000
79.89500, 2992.000
81.13100, 3364.000
82.36700, 3851.000
83.60200, 4351.000
84.83700, 4658.401
86.07200, 5262.000
87.30800, 5417.000
88.54200, 5771.000
89.77700, 6373.000
91.01200, 6944.000
92.24600, 7896.000
93.48000, 8753.000
94.71400, 8922.000
95.94800, 9240.000
97.18200, 9830.000
98.41600, 10109.00
99.64900, 10617.00
100.8830, 11208.00
102.1160, 11274.00
103.3490, 11485.00
104.5820, 12137.00
105.8150, 13172.00
107.0470, 14793.00
108.2800, 18079.24
109.5120, 18572.52
110.7440, 18980.01
111.9760, 19306.32
113.2080, 18537.00
114.4400, 18154.00
115.6710, 17500.00
116.9030, 16797.00
118.1340, 15717.00
119.3650, 14877.00
120.5960, 14428.00
121.8270, 14243.00
123.0580, 14195.00
124.2880, 14266.00
125.5190, 14204.00
126.7490, 13659.00
127.9790, 13674.00
129.2090, 13551.00
130.4390, 13398.00
131.6680, 13293.00
132.8980, 13153.00
134.1270, 12839.00
135.3560, 13020.00
136.5850, 13152.00
137.8140, 13587.00
139.0430, 14214.00
140.2710, 15021.00
141.5000, 15725.00
142.7280, 16098.00
143.9560, 16426.00
145.1840, 17018.00
146.4120, 17205.00
147.6390, 17405.00
148.8670, 17431.00
150.0940, 17460.00
151.3210, 17930.00
152.5490, 18778.00
153.7750, 19123.00
155.0020, 19277.00
156.2290, 19160.00
157.4550, 18486.00
158.6810, 17582.00
159.9080, 16954.00
161.1340, 16442.00
162.3590, 16417.00
163.5850, 16560.00
164.8110, 16926.00
166.0360, 17459.00
167.2610, 17901.00
168.4860, 18698.00
169.7110, 19782.00
170.9360, 21049.00
172.1610, 22379.00
173.3850, 23223.00
174.6100, 23421.00
175.8340, 22870.00
177.0580, 21688.00
178.2820, 20157.00
179.5050, 18560.00
180.7290, 17152.00
181.9520, 15903.00
183.1760, 15142.00
184.3990, 14279.00
185.6220, 13677.00
186.8450, 13454.00
188.0670, 13088.00
189.2900, 12825.00
190.5120, 12791.00
191.7340, 12718.00
192.9560, 12956.00
194.1780, 13224.00
195.4000, 13491.00
196.6220, 13718.00
197.8430, 13948.00
199.0640, 14037.00
200.2860, 14188.00
201.5070, 14410.00
202.7270, 14845.00
203.9480, 15268.00
205.1690, 15746.00
206.3890, 16175.00
207.6090, 16825.00
208.8290, 17671.00
210.0490, 18892.00
211.2690, 19778.00
212.4890, 20517.00
213.7080, 21434.00
214.9280, 21913.00
216.1470, 21889.00
217.3660, 21893.00
218.5850, 21578.00
219.8030, 21257.00
221.0220, 20559.00
222.2400, 20118.00
223.4590, 19349.00
224.6770, 18196.00
225.8950, 17232.00
227.1120, 16395.00
228.3300, 15549.00
229.5480, 14931.00
230.7650, 14278.00
231.9820, 14013.00
233.1990, 13887.00
234.4160, 13629.00
235.6330, 13707.00
236.8490, 13620.00
238.0660, 13676.00
239.2820, 14018.00
240.4980, 14286.00
241.7140, 14544.00
242.9300, 15011.00
244.1460, 15222.00
245.3610, 15425.00
246.5770, 15867.00
247.7920, 15726.00
249.0070, 16035.00
250.2220, 16341.00
251.4370, 16654.00
252.6510, 17385.00
253.8660, 17778.00
255.0800, 18446.00
256.2940, 19025.00
257.5080, 19707.00
258.7220, 20824.00
259.9360, 20555.31
261.1490, 21660.00
262.3630, 20295.00
263.5760, 19912.00
264.7890, 20038.00
266.0020, 20704.00
267.2150, 21236.00
268.4270, 22095.00
269.6400, 23349.00
270.8520, 24184.00
272.0640, 25223.00
273.2760, 26137.00
274.4880, 26992.00
275.7000, 27498.00
276.9120, 27542.99
278.1230, 27742.00
279.3340, 26837.00
280.5450, 26122.00
281.7560, 25098.00
282.9670, 23941.00
284.1780, 22787.00
285.3880, 21786.00
286.5980, 21110.00
287.8090, 20524.00
289.0190, 20265.00
290.2290, 20255.00
291.4380, 20060.00
292.6480, 20416.00
293.8570, 20465.00
295.0670, 20752.00
296.2760, 21041.00
297.4850, 21506.00
298.6930, 21855.00
299.9020, 21901.00
301.1110, 22104.00
302.3190, 22188.00
303.5270, 21872.00
304.7350, 21562.00
305.9430, 21396.00
307.1510, 21370.00
308.3580, 21326.00
309.5660, 21180.00
310.7730, 21255.00
311.9800, 21307.00
313.1870, 21321.00
314.3940, 21598.00
315.6010, 21995.00
316.8070, 23071.00
318.0130, 24041.00
319.2200, 25663.00
320.4260, 26644.00
321.6310, 26992.72
322.8370, 27411.00
324.0430, 26701.00
325.2480, 25503.00
326.4540, 23899.00
327.6590, 22421.00
328.8640, 21124.00
330.0680, 20366.00
331.2730, 20007.00
332.4780, 19908.00
333.6820, 19782.00
334.8860, 19924.00
336.0900, 19969.00
337.2940, 20170.00
338.4980, 20742.00
339.7010, 21276.00
340.9050, 22108.00
342.1080, 23449.00
343.3110, 25204.00
344.5140, 26702.00
345.7170, 27990.00
346.9200, 28866.00
348.1220, 28910.00
349.3240, 27897.00
350.5270, 26425.00
351.7290, 24748.00
352.9310, 23250.00
354.1320, 21882.00
355.3340, 20580.00
356.5350, 19450.00
357.7370, 18349.00
358.9380, 17403.80
360.1390, 16607.00
361.3400, 15863.00
362.5400, 15323.00
363.7410, 14936.00
364.9410, 14635.00
366.1410, 14453.00
367.3410, 14308.13
368.5410, 14266.00
369.7410, 14271.00
370.9400, 14404.00
372.1400, 14546.00
373.3390, 14685.00
374.5380, 14874.00
375.7370, 15006.00
376.9360, 15125.50
378.1350, 15013.00
379.3330, 15306.00
380.5310, 15441.00
381.7300, 15465.00
382.9280, 16001.00
384.1260, 16376.00
385.3230, 16923.00
386.5210, 17623.00
387.7180, 18498.00
388.9160, 19233.00
390.1130, 19904.00
391.3100, 20887.00
392.5060, 21421.00
393.7030, 21486.00
394.9000, 21249.00
396.0960, 21085.00
397.2920, 20572.00
398.4880, 19663.00
399.6840, 18864.00
400.8800, 18253.00
402.0750, 17542.00
403.2710, 17137.00
404.4660, 16947.00
405.6610, 16601.00
406.8560, 16635.00
408.0510, 16628.00
409.2450, 16515.00
410.4400, 16534.00
411.6340, 16905.00
412.8280, 17242.00
414.0220, 17446.00
415.2160, 18138.00
416.4100, 19198.00
417.6030, 20568.00
418.7970, 21640.78
419.9900, 22502.39
421.1830, 24029.00
422.3760, 24059.00
423.5690, 24641.00
424.7610, 25349.00
425.9540, 26406.00
427.1460, 27388.00
428.3380, 28208.00
429.5300, 29007.00
430.7220, 29553.00
431.9140, 29700.00
433.1050, 28963.00
434.2970, 28068.00
435.4880, 26643.00
436.6790, 24988.00
437.8700, 23197.00
439.0610, 21874.00
440.2510, 20665.00
441.4420, 20177.00
442.6320, 19754.00
443.8220, 19851.00
445.0120, 19949.00
446.2020, 20469.00
447.3910, 20628.00
448.5810, 20521.00
449.7700, 19836.00
450.9600, 19105.00
452.1490, 18173.00
453.3370, 17457.00
454.5260, 16712.00
455.7150, 16622.00
456.9030, 16333.00
458.0910, 16373.00
459.2800, 16341.00
460.4670, 16068.00
461.6550, 16006.00
462.8430, 16055.00
464.0300, 15814.00
465.2180, 15741.00
466.4050, 15812.00
467.5920, 15779.00
468.7790, 15681.00
469.9650, 16038.00
471.1520, 16061.00
472.3380, 16409.00
473.5250, 16519.00
474.7110, 16726.00
475.8970, 16984.00
477.0820, 17308.00
478.2680, 17726.00
479.4540, 18073.00
480.6390, 18884.00
481.8240, 19787.00
483.0090, 20806.00
484.1940, 22101.00
485.3780, 23395.00
486.5630, 24416.00
487.7470, 25163.00
488.9320, 25003.00
490.1160, 23757.00
491.3000, 21860.00
492.4830, 20179.00
493.6670, 18578.00
494.8500, 17486.00
496.0340, 16946.00
497.2170, 16582.00
498.4000, 16334.00
499.5820, 16218.00
500.7650, 15893.00
501.9480, 15790.00
503.1300, 15989.00
504.3120, 15963.00
505.4940, 15765.00
506.6760, 15940.00
507.8580, 15949.00
509.0390, 16093.00
510.2210, 16117.00
511.4020, 16203.00
512.5830, 16281.00
513.7640, 16313.00
514.9450, 16296.00
516.1250, 16306.00
517.3060, 16329.00
518.4860, 16174.23
519.6660, 15881.00
520.8460, 15814.00
522.0260, 15623.00
523.2060, 15362.00
524.3850, 15430.00
525.5650, 15339.00
526.7440, 15274.00
527.9230, 15297.00
529.1020, 15223.00
530.2810, 15194.00
531.4590, 15337.00
532.6380, 15316.00
533.8160, 15445.00
534.9940, 15712.00
536.1720, 15708.00
537.3500, 15874.00
538.5270, 15936.00
539.7050, 16174.00
540.8820, 16102.00
542.0590, 16275.00
543.2360, 16563.00
544.4130, 16658.00
545.5900, 17000.00
546.7660, 17104.00
547.9430, 17096.00
549.1190, 17315.00
550.2950, 17325.00
551.4710, 17254.00
552.6470, 17080.00
553.8220, 17161.00
554.9980, 17270.00
556.1730, 17370.00
557.3480, 17496.00
558.5230, 17814.00
559.6980, 18305.00
560.8730, 18851.00
562.0470, 19340.00
563.2220, 19829.00
564.3960, 19790.00
565.5700, 19814.00
566.7440, 19519.00
567.9170, 19141.00
569.0910, 18645.00
570.2640, 18486.00
571.4380, 18409.00
572.6110, 18539.00
573.7840, 18848.00
574.9570, 18839.00
576.1290, 18883.00
577.3020, 18959.00
578.4740, 18973.00
579.6460, 18867.00
580.8180, 18664.00
581.9900, 18526.00
583.1620, 18338.00
584.3330, 18182.00
585.5040, 18110.00
586.6760, 18196.00
587.8470, 18221.00
589.0180, 18321.00
590.1880, 18383.00
591.3590, 18380.00
592.5290, 18379.00
593.7000, 18348.00
594.8700, 17782.00
596.0400, 17345.00
597.2090, 17223.00
598.3790, 16993.00
599.5490, 16818.00
600.7180, 16902.00
601.8870, 16677.00
603.0560, 16621.00
604.2250, 16908.00
605.3940, 16819.00
606.5620, 17069.00
607.7300, 17388.00
608.8990, 17550.00
610.0670, 17851.00
611.2350, 18199.00
612.4020, 18921.00
613.5700, 19361.00
614.7370, 20143.00
615.9050, 20895.00
617.0720, 21702.00
618.2390, 22482.00
619.4060, 23087.00
620.5720, 23864.00
621.7390, 23975.00
622.9050, 24085.00
624.0710, 23594.00
625.2370, 22862.00
626.4030, 21793.00
627.5690, 20612.00
628.7340, 19561.00
629.9000, 18940.00
631.0650, 18249.00
632.2300, 17877.00
633.3950, 17817.00
634.5600, 17663.00
635.7240, 17557.00
636.8890, 17737.00
638.0530, 17737.00
639.2170, 17950.10
640.3810, 18257.00
641.5450, 18478.00
642.7080, 18822.00
643.8720, 19171.00
645.0350, 19379.00
646.1980, 19456.00
647.3610, 19551.00
648.5240, 19531.00
649.6870, 19146.00
650.8490, 18890.00
652.0120, 18642.00
653.1740, 18136.00
654.3360, 18131.00
655.4980, 17736.00
656.6600, 17416.00
657.8210, 17561.00
658.9830, 17476.00
660.1440, 17309.00
661.3050, 17384.00
662.4660, 17601.00
663.6270, 17579.00
664.7870, 17925.00
665.9480, 18147.00
667.1080, 18366.00
668.2680, 18747.00
669.4280, 19454.00
670.5880, 19840.00
671.7480, 20794.00
672.9070, 21668.00
674.0670, 22712.00
675.2260, 23690.00
676.3850, 24527.00
677.5440, 25579.00
678.7030, 26019.00
679.8610, 25886.00
681.0200, 25472.00
682.1780, 24713.00
683.3360, 23472.00
684.4940, 22548.00
685.6520, 21664.00
686.8090, 20973.00
687.9670, 20245.00
689.1240, 20078.00
690.2810, 19845.00
691.4380, 19654.00
692.5950, 19468.00
693.7520, 19548.91
694.9080, 19701.10
696.0650, 19976.00
697.2210, 20436.00
698.3770, 21030.00
699.5330, 21731.00
700.6880, 22281.00
701.8440, 23285.00
702.9990, 24807.00
704.1550, 26189.00
705.3100, 28239.00
706.4650, 30593.00
707.6190, 33347.00
708.7740, 36712.00
709.9290, 40300.00
711.0830, 44358.00
712.2370, 48419.00
713.3910, 52467.00
714.5450, 55701.00
715.6980, 57424.00
716.8520, 56784.00
718.0050, 54908.00
719.1580, 50653.00
720.3110, 45667.00
721.4640, 40999.00
722.6170, 36554.00
723.7700, 32656.00
724.9220, 29802.00
726.0740, 27359.00
727.2260, 25601.00
728.3780, 24125.00
729.5300, 22929.00
730.6810, 22200.00
731.8330, 21468.00
732.9840, 20849.00
734.1350, 20052.00
735.2860, 19926.00
736.4370, 19808.00
737.5880, 19305.00
738.7380, 19190.00
739.8880, 19145.00
741.0390, 18716.00
742.1890, 18880.00
743.3380, 18534.00
744.4880, 18450.00
745.6380, 18547.00
746.7870, 18348.00
747.9360, 18196.00
749.0850, 18179.00
750.2340, 18323.00
751.3830, 18403.00
752.5310, 18426.59
753.6800, 18473.00
754.8280, 18479.00
755.9760, 18562.00
757.1240, 18540.00
758.2720, 18742.00
759.4190, 18711.00
760.5670, 18945.00
761.7140, 19061.00
762.8610, 19216.00
764.0080, 19296.00
765.1550, 19454.00
766.3020, 19700.00
767.4480, 19846.00
768.5950, 19823.00
769.7410, 19975.00
770.8870, 19789.00
772.0330, 19841.00
773.1780, 19741.00
774.3240, 19228.00
775.4690, 19064.00
776.6140, 19006.00
777.7590, 18809.00
778.9040, 18541.00
780.0490, 18433.00
781.1940, 18390.00
782.3380, 18260.00
783.4820, 18197.00
784.6260, 18142.00
785.7700, 17992.00
786.9140, 18078.00
788.0580, 17918.00
789.2010, 17909.00
790.3450, 18028.00
791.4880, 17967.00
792.6310, 17894.00
793.7730, 17893.00
794.9160, 17849.00
796.0590, 17796.21
797.2010, 17890.00
798.3430, 17740.00
799.4850, 17819.00
800.6270, 17901.00
801.7690, 17918.00
802.9100, 17933.00
804.0520, 17997.00
805.1930, 17995.00
806.3340, 18116.00
807.4750, 18115.00
808.6160, 18269.82
809.7560, 18631.00
810.8970, 18617.00
812.0370, 18886.00
813.1770, 19149.00
814.3170, 19259.00
815.4570, 19305.00
816.5960, 19545.00
817.7360, 19443.00
818.8750, 19334.00
820.0140, 19080.00
821.1530, 19024.00
822.2920, 18913.00
823.4310, 18668.00
824.5690, 18587.00
825.7070, 18522.00
826.8460, 18683.00
827.9840, 18546.00
829.1220, 18611.00
830.2590, 18606.00
831.3970, 18593.00
832.5340, 18612.00
833.6710, 18645.00
834.8080, 18648.79
835.9450, 18620.00
837.0820, 18756.00
838.2190, 18782.00
839.3550, 18990.00
840.4910, 18863.00
841.6270, 18883.00
842.7630, 19049.00
843.8990, 19352.00
845.0350, 19446.00
846.1700, 19446.00
847.3060, 19616.00
848.4410, 19777.00
849.5760, 19878.00
850.7100, 20083.00
851.8450, 20234.00
852.9800, 20304.00
854.1140, 20416.00
855.2480, 20577.00
856.3820, 20694.00
857.5160, 20842.00
858.6500, 20929.37
859.7830, 21049.74
860.9170, 21084.00
862.0500, 21200.00
863.1830, 21267.00
864.3160, 21319.31
865.4480, 21300.00
866.5810, 21422.00
867.7130, 21396.00
868.8460, 21432.00
869.9780, 21440.00
871.1100, 21438.00
872.2410, 21521.00
873.3730, 21398.00
874.5050, 21240.00
875.6360, 21571.00
876.7670, 21339.00
877.8980, 21399.00
879.0290, 21537.00
880.1590, 21746.00
881.2900, 21421.00
882.4200, 21613.00
883.5500, 21580.00
884.6800, 21702.00
885.8100, 21605.00
886.9400, 21683.00
888.0690, 21742.00
889.1990, 21915.00
890.3280, 22028.00
891.4570, 22302.00
892.5860, 22533.00
893.7140, 22925.00
894.8430, 23213.00
895.9710, 23536.00
897.1000, 24203.00
898.2280, 24822.00
899.3560, 25344.00
900.4830, 25974.00
901.6110, 26516.00
902.7380, 26939.00
903.8660, 27413.00
904.9930, 27998.00
906.1200, 28166.00
907.2460, 28654.00
908.3730, 28881.00
909.5000, 28489.00
910.6260, 27882.00
911.7520, 27469.00
912.8780, 26632.00
914.0040, 25906.00
915.1290, 25469.00
916.2550, 24718.00
917.3800, 24104.00
918.5050, 23506.00
919.6300, 22979.00
920.7550, 22967.00
921.8800, 22743.00
923.0040, 22588.00
924.1290, 22601.00
925.2530, 22546.00
926.3770, 22724.00
927.5010, 22851.00
928.6250, 23018.00
929.7480, 23250.00
930.8720, 23508.00
931.9950, 23610.00
933.1180, 23962.00
934.2410, 24061.00
935.3640, 24206.00
936.4860, 24126.00
937.6090, 24054.00
938.7310, 23932.00
939.8530, 24178.00
940.9750, 24276.00
942.0970, 24359.00
943.2180, 24478.00
944.3400, 24892.29
945.4610, 25565.00
946.5820, 25919.00
947.7030, 26652.00
948.8240, 27397.00
949.9450, 28574.00
951.0650, 29306.00
952.1860, 30412.00
953.3060, 31511.00
954.4260, 32701.00
955.5460, 33937.00
956.6650, 35093.00
957.7850, 36443.00
958.9040, 37988.00
960.0230, 39697.00
961.1420, 42188.00
962.2610, 44198.00
963.3800, 46787.00
964.4990, 48568.00
965.6170, 50032.00
966.7350, 50948.00
967.8530, 50839.00
968.9710, 49541.00
970.0890, 47472.00
971.2070, 45547.00
972.3240, 43497.00
973.4410, 42103.00
974.5580, 41001.00
975.6750, 40716.00
976.7920, 40779.00
977.9090, 41612.00
979.0250, 42471.00
980.1410, 43027.00
981.2580, 43393.00
982.3740, 43312.00
983.4890, 42832.00
984.6050, 42015.00
985.7200, 40485.00
986.8360, 39391.00
987.9510, 37728.00
989.0660, 36830.00
990.1810, 36135.00
991.2950, 35734.00
992.4100, 35182.25
993.5240, 35063.00
994.6390, 34301.00
995.7530, 34135.00
996.8660, 33353.00
997.9800, 33475.00
999.0940, 33459.00
1000.207, 33008.00
1001.320, 33245.00
1002.433, 32961.00
1003.546, 32823.00
1004.659, 32631.00
1005.772, 32393.00
1006.884, 31779.00
1007.996, 31232.00
1009.108, 30443.00
1010.220, 29667.00
1011.332, 29101.00
1012.444, 28153.00
1013.555, 27380.00
1014.666, 26833.00
1015.777, 26141.00
1016.888, 25801.00
1017.999, 25550.00
1019.110, 24980.00
1020.220, 24764.00
1021.331, 24532.00
1022.441, 24075.00
1023.551, 24153.00
1024.661, 23981.00
1025.770, 24001.00
1026.880, 23758.00
1027.989, 23770.00
1029.098, 23697.00
1030.207, 23755.00
1031.316, 23775.00
1032.425, 23619.00
1033.533, 23564.00
1034.642, 23639.00
1035.750, 23743.00
1036.858, 24072.00
1037.966, 23808.00
1039.073, 24133.00
1040.181, 24122.00
1041.288, 24444.00
1042.396, 24519.00
1043.503, 24790.00
1044.610, 24747.00
1045.716, 24899.00
1046.823, 24865.00
1047.929, 25170.00
1049.036, 25081.00
1050.142, 25313.00
1051.248, 25401.00
1052.353, 25828.00
1053.459, 25851.00
1054.564, 26269.00
1055.670, 26582.00
1056.775, 26782.00
1057.880, 27067.00
1058.985, 27167.00
1060.089, 27510.00
1061.194, 27254.00
1062.298, 27222.00
1063.402, 27309.00
1064.506, 27065.00
1065.610, 26873.00
1066.713, 26457.00
1067.817, 25986.00
1068.920, 25800.00
1070.023, 25380.00
1071.126, 24950.00
1072.229, 25085.00
1073.332, 25010.00
1074.435, 24743.00
1075.537, 24765.00
1076.639, 24905.00
1077.741, 25267.00
1078.843, 25773.00
1079.945, 26100.00
1081.046, 26761.00
1082.148, 27065.00
1083.249, 27743.00
1084.350, 27980.00
1085.451, 28648.00
1086.551, 28331.00
1087.652, 28264.00
1088.752, 27766.00
1089.853, 27298.00
1090.953, 26660.00
1092.053, 25861.00
1093.152, 25205.00
1094.252, 24679.00
1095.351, 24428.00
1096.451, 23969.00
1097.550, 23913.00
1098.649, 23658.00
1099.748, 23944.00
1100.846, 23736.00
1101.945, 23797.00
1103.043, 23813.00
1104.141, 23869.00
1105.239, 23870.38
1106.337, 23868.77
1107.434, 23848.00
1108.532, 23863.00
1109.629, 23808.00
1110.726, 23857.00
1111.823, 23870.00
1112.920, 23791.00
1114.017, 23795.00
1115.113, 24033.00
1116.210, 23698.00
1117.306, 23467.00
1118.402, 23588.00
1119.498, 23832.00
1120.593, 23663.00
1121.689, 23523.00
1122.784, 23617.00
1123.879, 23669.00
1124.974, 23606.00
1126.069, 23531.00
1127.164, 23342.00
1128.259, 23179.00
1129.353, 23019.00
1130.447, 22894.00
1131.541, 23012.00
1132.635, 22805.00
1133.729, 22750.00
1134.822, 22599.00
1135.916, 22824.00
1137.009, 22872.00
1138.102, 22528.00
1139.195, 22738.00
1140.288, 22542.00
1141.380, 22582.00
1142.473, 22810.00
1143.565, 22533.00
1144.657, 22814.00
1145.749, 22672.00
1146.841, 22684.00
1147.932, 22532.00
1149.024, 22659.00
1150.115, 22670.00
1151.206, 22712.00
1152.297, 22645.00
1153.388, 22562.00
1154.479, 22584.00
1155.569, 22931.00
1156.659, 22751.00
1157.750, 22699.00
1158.839, 22904.00
1159.929, 22771.00
1161.019, 22530.00
1162.108, 22740.00
1163.198, 22718.00
1164.287, 22696.00
1165.376, 22635.00
1166.465, 22828.00
1167.553, 22786.00
1168.642, 22837.00
1169.730, 22613.00
1170.818, 22600.00
1171.906, 22594.00
1172.994, 22726.00
1174.082, 22987.00
1175.170, 22707.00
1176.257, 22859.00
1177.344, 22567.00
1178.431, 22675.00
1179.518, 22660.00
1180.605, 22846.00
1181.691, 22747.00
1182.778, 22732.00
1183.864, 22894.00
1184.950, 22782.00
1186.036, 22874.00
1187.122, 22834.00
1188.207, 22762.00
1189.292, 22663.00
1190.378, 22885.00
1191.463, 22926.00
1192.548, 22822.00
1193.632, 22917.00
1194.717, 22692.00
1195.801, 22909.00
1196.886, 22991.00
1197.970, 22834.00
1199.054, 22910.00
1200.137, 22942.00
1201.221, 22992.00
1202.305, 23181.00
1203.388, 23208.00
1204.471, 23034.00
1205.554, 22881.00
1206.637, 23041.00
1207.719, 22933.00
1208.802, 22970.00
1209.884, 22997.00
1210.966, 23070.00
1212.048, 23057.88
1213.130, 23091.03
1214.212, 23066.00
1215.293, 23088.00
1216.374, 23126.00
1217.456, 23069.00
1218.536, 23144.00
1219.617, 23125.16
1220.698, 23136.99
1221.778, 23131.00
1222.859, 23148.00
1223.939, 23151.00
1225.019, 23123.00
1226.099, 23165.33
1227.178, 23439.00
1228.258, 23219.00
1229.337, 23271.00
1230.417, 23281.00
1231.496, 23063.00
1232.574, 23314.00
1233.653, 23280.00
1234.732, 23214.00
1235.810, 23439.00
1236.888, 23273.00
