##NAMES=Axinite-(Fe)
##RRUFFID=R060194
##IDEAL CHEMISTRY=Ca_4_Fe^2+^_2_Al_4_[B_2_Si_8_O_30_](OH)_2_
##LOCALITY=near Dalbandi, Baluchistan Province, Pakistan
##OWNER=RRUFF
##SOURCE=Herbert Obodda
##DESCRIPTION=Brown transparent wedge-shaped single crystal
##STATUS=The identification of this mineral has been confirmed by X-ray diffraction and chemical analysis
##URL=rruff.info/R060194
##MEASURED CHEMISTRY=Ca_2.00_(Fe^2+^_0.66_Mg_0.30_Mn_0.04_)Al_2.00_BSi_4.00_O_15_(OH)
##PIN_ID=L00599
##ORIENTATION=Laser parallel to (0 -1 -1). Fiducial mark perpendicular to laser is parallel to a [1 0 0]
53.91000, 1112.000
55.14900, 1186.000
56.38700, 1123.000
57.62600, 1112.000
58.86400, 1157.000
60.10300, 1170.000
61.34100, 1197.000
62.57900, 1224.000
63.81700, 1259.000
65.05400, 1286.000
66.29200, 1344.000
67.52900, 1499.000
68.76700, 1684.000
70.00400, 2015.000
71.24100, 2265.000
72.47700, 2432.000
73.71400, 2702.498
74.95100, 2832.000
76.18700, 3075.000
77.42300, 3237.000
78.65900, 3294.000
79.89500, 3399.000
81.13100, 3541.000
82.36700, 3845.000
83.60200, 4197.000
84.83700, 4637.000
86.07200, 4961.000
87.30800, 5147.000
88.54200, 5451.000
89.77700, 5839.000
91.01200, 6314.000
92.24600, 6910.272
93.48000, 7542.505
94.71400, 8414.000
95.94800, 9233.000
97.18200, 10292.00
98.41600, 11676.00
99.64900, 13143.00
100.8830, 14966.00
102.1160, 16329.00
103.3490, 17806.00
104.5820, 19879.00
105.8150, 22695.00
107.0470, 26285.00
108.2800, 30026.00
109.5120, 32831.00
110.7440, 31475.00
111.9760, 28149.00
113.2080, 25707.00
114.4400, 22621.00
115.6710, 19422.00
116.9030, 16455.00
118.1340, 13868.00
119.3650, 12124.00
120.5960, 10883.00
121.8270, 10137.00
123.0580, 9634.000
124.2880, 9250.000
125.5190, 9086.000
126.7490, 8763.000
127.9790, 8729.000
129.2090, 8800.000
130.4390, 8814.000
131.6680, 9125.000
132.8980, 9431.000
134.1270, 9579.000
135.3560, 9992.000
136.5850, 10698.00
137.8140, 11503.00
139.0430, 12331.00
140.2710, 13173.00
141.5000, 13675.00
142.7280, 14101.00
143.9560, 13936.00
145.1840, 13784.00
146.4120, 13475.00
147.6390, 13548.00
148.8670, 13585.00
150.0940, 13683.00
151.3210, 14118.00
152.5490, 14347.00
153.7750, 14519.00
155.0020, 14345.00
156.2290, 14322.00
157.4550, 14478.00
158.6810, 14352.00
159.9080, 14435.00
161.1340, 14857.00
162.3590, 15332.00
163.5850, 16048.27
164.8110, 16958.00
166.0360, 17967.00
167.2610, 19090.00
168.4860, 20383.00
169.7110, 21828.00
170.9360, 22674.00
172.1610, 23400.00
173.3850, 23190.00
174.6100, 22479.00
175.8340, 21120.00
177.0580, 19495.00
178.2820, 17581.00
179.5050, 15461.00
180.7290, 14095.00
181.9520, 12707.00
183.1760, 11806.00
184.3990, 11317.00
185.6220, 11099.00
186.8450, 10918.00
188.0670, 11021.00
189.2900, 11190.00
190.5120, 11900.00
191.7340, 12806.00
192.9560, 13758.00
194.1780, 14652.00
195.4000, 15503.00
196.6220, 16026.00
197.8430, 16749.00
199.0640, 16972.00
200.2860, 17567.00
201.5070, 18291.00
202.7270, 19480.00
203.9480, 20940.00
205.1690, 22327.00
206.3890, 23656.00
207.6090, 24643.00
208.8290, 25495.00
210.0490, 26000.00
211.2690, 26130.00
212.4890, 25740.00
213.7080, 24861.00
214.9280, 24059.00
216.1470, 22865.00
217.3660, 21444.00
218.5850, 19978.00
219.8030, 18650.00
221.0220, 17558.00
222.2400, 16224.00
223.4590, 14967.00
224.6770, 14039.00
225.8950, 13101.00
227.1120, 12519.00
228.3300, 11766.00
229.5480, 11370.00
230.7650, 10876.00
231.9820, 10704.00
233.1990, 10416.00
234.4160, 10574.00
235.6330, 10582.00
236.8490, 10808.00
238.0660, 10830.00
239.2820, 11197.00
240.4980, 11561.00
241.7140, 11992.00
242.9300, 12318.00
244.1460, 12783.00
245.3610, 13050.00
246.5770, 13694.00
247.7920, 14144.00
249.0070, 14579.00
250.2220, 15238.00
251.4370, 15750.00
252.6510, 16535.00
253.8660, 17369.00
255.0800, 17727.00
256.2940, 18299.00
257.5080, 18684.00
258.7220, 19733.00
259.9360, 20521.00
261.1490, 20869.00
262.3630, 20820.00
263.5760, 21144.00
264.7890, 22387.00
266.0020, 23927.00
267.2150, 25684.00
268.4270, 27432.00
269.6400, 29303.00
270.8520, 30680.00
272.0640, 32107.00
273.2760, 33162.00
274.4880, 33362.00
275.7000, 33448.00
276.9120, 32478.00
278.1230, 31358.00
279.3340, 29533.00
280.5450, 27424.00
281.7560, 25569.00
282.9670, 23645.00
284.1780, 22236.00
285.3880, 21055.00
286.5980, 20518.00
287.8090, 20091.00
289.0190, 20174.00
290.2290, 20544.00
291.4380, 21549.00
292.6480, 22430.00
293.8570, 23717.00
295.0670, 24762.00
296.2760, 26318.00
297.4850, 27828.00
298.6930, 28782.00
299.9020, 30052.00
301.1110, 30847.00
302.3190, 31129.00
303.5270, 31475.00
304.7350, 31779.00
305.9430, 31930.00
307.1510, 31556.99
308.3580, 31491.00
309.5660, 30242.00
310.7730, 29114.00
311.9800, 27857.00
313.1870, 26775.00
314.3940, 25690.00
315.6010, 25141.00
316.8070, 25160.00
318.0130, 25331.00
319.2200, 25642.00
320.4260, 25361.00
321.6310, 25004.00
322.8370, 23865.00
324.0430, 22388.00
325.2480, 20802.00
326.4540, 19324.00
327.6590, 18140.00
328.8640, 17255.56
330.0680, 16695.00
331.2730, 16162.00
332.4780, 15919.00
333.6820, 15912.00
334.8860, 15775.00
336.0900, 16077.00
337.2940, 16734.00
338.4980, 17499.00
339.7010, 18647.00
340.9050, 20490.00
342.1080, 22724.00
343.3110, 25005.00
344.5140, 27079.00
345.7170, 28768.00
346.9200, 29586.00
348.1220, 29660.00
349.3240, 29507.00
350.5270, 29029.00
351.7290, 28394.00
352.9310, 27467.00
354.1320, 25988.00
355.3340, 24350.00
356.5350, 22167.00
357.7370, 20055.00
358.9380, 17855.00
360.1390, 16119.00
361.3400, 14451.00
362.5400, 13206.00
363.7410, 12306.00
364.9410, 11660.00
366.1410, 11241.00
367.3410, 10990.00
368.5410, 10731.00
369.7410, 10563.04
370.9400, 10545.00
372.1400, 10400.00
373.3390, 10420.00
374.5380, 10447.00
375.7370, 10633.00
376.9360, 10565.00
378.1350, 10997.00
379.3330, 11314.00
380.5310, 11936.00
381.7300, 12507.00
382.9280, 13390.00
384.1260, 14506.00
385.3230, 15685.00
386.5210, 16929.00
387.7180, 18608.00
388.9160, 20101.00
390.1130, 21029.00
391.3100, 21348.97
392.5060, 21679.00
393.7030, 20742.00
394.9000, 19775.00
396.0960, 18525.00
397.2920, 17196.00
398.4880, 15980.00
399.6840, 15188.00
400.8800, 14339.00
402.0750, 13957.00
403.2710, 13530.00
404.4660, 13451.00
405.6610, 13697.00
406.8560, 14111.38
408.0510, 14835.22
409.2450, 15810.00
410.4400, 17025.00
411.6340, 18500.00
412.8280, 20238.00
414.0220, 22852.00
415.2160, 26222.00
416.4100, 29478.00
417.6030, 32075.00
418.7970, 33025.00
419.9900, 33072.00
421.1830, 32317.00
422.3760, 30864.00
423.5690, 29583.00
424.7610, 28469.00
425.9540, 28145.00
427.1460, 28849.00
428.3380, 29340.00
429.5300, 29829.00
430.7220, 30198.00
431.9140, 29220.00
433.1050, 28101.00
434.2970, 25803.00
435.4880, 24244.00
436.6790, 21992.00
437.8700, 20184.00
439.0610, 18801.00
440.2510, 18115.00
441.4420, 17722.00
442.6320, 17855.00
443.8220, 18288.00
445.0120, 18398.00
446.2020, 18495.00
447.3910, 17747.00
448.5810, 16871.00
449.7700, 15618.00
450.9600, 14311.00
452.1490, 13052.00
453.3370, 12017.00
454.5260, 11441.00
455.7150, 11049.00
456.9030, 10606.00
458.0910, 10431.00
459.2800, 10084.00
460.4670, 10115.00
461.6550, 9874.000
462.8430, 9830.000
464.0300, 9850.000
465.2180, 9947.000
466.4050, 9714.000
467.5920, 9956.000
468.7790, 9979.000
469.9650, 10183.00
471.1520, 10278.00
472.3380, 10671.00
473.5250, 11125.00
474.7110, 11384.00
475.8970, 12174.00
477.0820, 12992.00
478.2680, 14160.00
479.4540, 15238.00
480.6390, 16565.00
481.8240, 18322.00
483.0090, 19719.00
484.1940, 21561.00
485.3780, 22608.00
486.5630, 22531.00
487.7470, 21422.00
488.9320, 19760.00
490.1160, 17746.00
491.3000, 15858.00
492.4830, 14343.00
493.6670, 12991.00
494.8500, 12064.00
496.0340, 11613.00
497.2170, 11291.00
498.4000, 11155.00
499.5820, 11153.00
500.7650, 11331.00
501.9480, 11406.00
503.1300, 11534.00
504.3120, 11715.00
505.4940, 11940.00
506.6760, 12200.00
507.8580, 12336.00
509.0390, 12485.00
510.2210, 12515.00
511.4020, 12544.00
512.5830, 12569.00
513.7640, 12348.00
514.9450, 12169.00
516.1250, 11794.00
517.3060, 11498.00
518.4860, 11271.00
519.6660, 10897.00
520.8460, 10695.00
522.0260, 10422.00
523.2060, 10398.00
524.3850, 10331.00
525.5650, 10234.00
526.7440, 10310.00
527.9230, 10360.00
529.1020, 10356.00
530.2810, 10612.00
531.4590, 10631.00
532.6380, 10830.00
533.8160, 10917.00
534.9940, 11393.00
536.1720, 11362.00
537.3500, 11785.00
538.5270, 11860.00
539.7050, 12246.00
540.8820, 12413.00
542.0590, 12621.00
543.2360, 13280.00
544.4130, 13405.00
545.5900, 13864.00
546.7660, 13884.00
547.9430, 13905.00
549.1190, 13994.00
550.2950, 13656.00
551.4710, 13212.00
552.6470, 12818.00
553.8220, 12801.00
554.9980, 12649.00
556.1730, 12559.00
557.3480, 12732.00
558.5230, 13081.00
559.6980, 13267.00
560.8730, 13717.00
562.0470, 13807.00
563.2220, 14211.00
564.3960, 14192.00
565.5700, 14262.00
566.7440, 14216.00
567.9170, 14523.00
569.0910, 14746.00
570.2640, 15105.00
571.4380, 15615.00
572.6110, 16234.00
573.7840, 16424.00
574.9570, 16599.00
576.1290, 16634.00
577.3020, 16562.00
578.4740, 16445.00
579.6460, 16179.00
580.8180, 16267.00
581.9900, 16354.00
583.1620, 16478.00
584.3330, 17293.00
585.5040, 17874.00
586.6760, 18678.00
587.8470, 19533.00
589.0180, 20311.00
590.1880, 20618.00
591.3590, 20540.00
592.5290, 19877.00
593.7000, 18613.00
594.8700, 17384.00
596.0400, 16055.00
597.2090, 14927.00
598.3790, 13944.00
599.5490, 13162.00
600.7180, 12538.00
601.8870, 12147.00
603.0560, 11651.00
604.2250, 11553.00
605.3940, 11410.00
606.5620, 11292.00
607.7300, 11288.00
608.8990, 11318.47
610.0670, 11658.00
611.2350, 11592.00
612.4020, 11714.00
613.5700, 12011.00
614.7370, 12030.00
615.9050, 12059.00
617.0720, 12229.00
618.2390, 12288.00
619.4060, 12402.00
620.5720, 12348.00
621.7390, 12129.00
622.9050, 12042.00
624.0710, 11706.00
625.2370, 11306.00
626.4030, 11110.00
627.5690, 10977.00
628.7340, 10709.00
629.9000, 10587.00
631.0650, 10550.00
632.2300, 10557.00
633.3950, 10578.00
634.5600, 10697.00
635.7240, 10820.00
636.8890, 11206.00
638.0530, 11466.00
639.2170, 11722.00
640.3810, 11942.00
641.5450, 12176.00
642.7080, 12524.00
643.8720, 12824.00
645.0350, 13058.00
646.1980, 13043.00
647.3610, 12933.00
648.5240, 12579.00
649.6870, 12322.00
650.8490, 11975.00
652.0120, 11696.00
653.1740, 11371.00
654.3360, 11183.00
655.4980, 10999.00
656.6600, 10798.00
657.8210, 10723.00
658.9830, 10853.00
660.1440, 10852.00
661.3050, 10915.00
662.4660, 10971.00
663.6270, 11180.00
664.7870, 11371.00
665.9480, 11750.00
667.1080, 12116.00
668.2680, 12784.00
669.4280, 13324.00
670.5880, 14135.00
671.7480, 15060.00
672.9070, 16280.00
674.0670, 17143.00
675.2260, 18183.00
676.3850, 18846.00
677.5440, 19557.00
678.7030, 19401.00
679.8610, 18802.00
681.0200, 17863.00
682.1780, 16940.00
683.3360, 16069.00
684.4940, 15058.00
685.6520, 14250.00
686.8090, 13683.00
687.9670, 13298.00
689.1240, 13015.00
690.2810, 12784.00
691.4380, 12890.00
692.5950, 13021.00
693.7520, 13252.00
694.9080, 13220.00
696.0650, 13940.00
697.2210, 14246.00
698.3770, 15124.00
699.5330, 16129.00
700.6880, 17392.00
701.8440, 18795.00
702.9990, 20715.00
704.1550, 23294.00
705.3100, 26223.00
706.4650, 30324.00
707.6190, 34654.00
708.7740, 39545.00
709.9290, 44588.00
711.0830, 50137.00
712.2370, 55340.00
713.3910, 58820.00
714.5450, 60590.00
715.6980, 60364.00
716.8520, 57491.00
718.0050, 53251.00
719.1580, 47797.00
720.3110, 41924.00
721.4640, 36525.00
722.6170, 32214.00
723.7700, 28108.00
724.9220, 24916.00
726.0740, 22314.00
727.2260, 20500.00
728.3780, 18858.00
729.5300, 17584.00
730.6810, 16691.00
731.8330, 15783.00
732.9840, 15214.00
734.1350, 14776.00
735.2860, 14130.00
736.4370, 13783.00
737.5880, 13497.00
738.7380, 13269.00
739.8880, 13042.81
741.0390, 12832.00
742.1890, 12711.00
743.3380, 12572.00
744.4880, 12456.00
745.6380, 12441.00
746.7870, 12352.00
747.9360, 12271.00
749.0850, 12401.00
750.2340, 12390.00
751.3830, 12417.00
752.5310, 12593.00
753.6800, 12612.00
754.8280, 12910.00
755.9760, 13168.00
757.1240, 13353.00
758.2720, 13842.00
759.4190, 14522.00
760.5670, 15019.00
761.7140, 15580.00
762.8610, 16249.00
764.0080, 16953.00
765.1550, 17533.00
766.3020, 18032.00
767.4480, 18408.00
768.5950, 18436.00
769.7410, 18362.01
770.8870, 18185.00
772.0330, 17501.00
773.1780, 16991.00
774.3240, 15987.00
775.4690, 15645.00
776.6140, 14738.00
777.7590, 14206.00
778.9040, 13885.00
780.0490, 13326.00
781.1940, 12983.00
782.3380, 12791.00
783.4820, 12481.00
784.6260, 12201.00
785.7700, 12159.00
786.9140, 11847.00
788.0580, 11805.00
789.2010, 11647.00
790.3450, 11550.00
791.4880, 11582.00
792.6310, 11325.00
793.7730, 11414.00
794.9160, 11342.00
796.0590, 11254.00
797.2010, 11466.00
798.3430, 11329.00
799.4850, 11178.00
800.6270, 11300.00
801.7690, 11274.00
802.9100, 11277.00
804.0520, 11445.00
805.1930, 11630.00
806.3340, 11783.00
807.4750, 11979.00
808.6160, 12045.00
809.7560, 12330.00
810.8970, 12627.00
812.0370, 12776.00
813.1770, 12899.00
814.3170, 12960.00
815.4570, 12963.00
816.5960, 12612.00
817.7360, 12314.00
818.8750, 12061.00
820.0140, 11899.00
821.1530, 11669.75
822.2920, 11538.18
823.4310, 11344.00
824.5690, 11336.00
825.7070, 11250.37
826.8460, 11243.06
827.9840, 11168.00
829.1220, 11200.00
830.2590, 11217.00
831.3970, 11202.00
832.5340, 11228.00
833.6710, 11341.00
834.8080, 11352.00
835.9450, 11412.00
837.0820, 11389.00
838.2190, 11351.00
839.3550, 11516.00
840.4910, 11566.00
841.6270, 11684.00
842.7630, 11842.00
843.8990, 11882.00
845.0350, 12008.00
846.1700, 12173.00
847.3060, 12238.00
848.4410, 12460.00
849.5760, 12521.00
850.7100, 12613.00
851.8450, 12695.00
852.9800, 12874.00
854.1140, 12845.00
855.2480, 12771.00
856.3820, 12899.00
857.5160, 12720.00
858.6500, 12788.00
859.7830, 12647.00
860.9170, 12886.00
862.0500, 12791.00
863.1830, 12831.00
864.3160, 12868.00
865.4480, 12802.00
866.5810, 12823.00
867.7130, 12901.00
868.8460, 12893.00
869.9780, 12965.00
871.1100, 12927.00
872.2410, 12997.00
873.3730, 13053.00
874.5050, 13183.00
875.6360, 13248.00
876.7670, 13285.00
877.8980, 13490.00
879.0290, 13451.00
880.1590, 13802.00
881.2900, 13786.00
882.4200, 13966.00
883.5500, 14295.00
884.6800, 14395.00
885.8100, 14701.00
886.9400, 14912.00
888.0690, 15548.00
889.1990, 15968.00
890.3280, 16528.00
891.4570, 17162.00
892.5860, 17864.91
893.7140, 18622.00
894.8430, 19526.00
895.9710, 20386.00
897.1000, 21374.00
898.2280, 21853.00
899.3560, 22691.00
900.4830, 22968.00
901.6110, 23288.00
902.7380, 23415.00
903.8660, 23428.00
904.9930, 23772.00
906.1200, 23721.00
907.2460, 23997.00
908.3730, 23970.00
909.5000, 24135.00
910.6260, 24138.00
911.7520, 23598.00
912.8780, 23157.00
914.0040, 22112.00
915.1290, 21414.00
916.2550, 20205.00
917.3800, 19145.00
918.5050, 18244.00
919.6300, 17556.00
920.7550, 16926.00
921.8800, 16555.00
923.0040, 16206.00
924.1290, 15986.00
925.2530, 15904.53
926.3770, 16046.00
927.5010, 16016.00
928.6250, 16196.00
929.7480, 16473.00
930.8720, 16479.00
931.9950, 16653.00
933.1180, 16550.00
934.2410, 16659.00
935.3640, 16552.00
936.4860, 16256.00
937.6090, 16076.00
938.7310, 15913.00
939.8530, 15943.00
940.9750, 15827.00
942.0970, 16179.00
943.2180, 16236.00
944.3400, 16581.00
945.4610, 17123.00
946.5820, 17556.00
947.7030, 18174.00
948.8240, 18759.00
949.9450, 19465.00
951.0650, 20543.00
952.1860, 21439.00
953.3060, 22207.00
954.4260, 23236.00
955.5460, 24044.00
956.6650, 25584.00
957.7850, 26820.00
958.9040, 28402.00
960.0230, 30443.00
961.1420, 32479.00
962.2610, 34888.00
963.3800, 36562.00
964.4990, 38104.00
965.6170, 39038.00
966.7350, 38865.00
967.8530, 38278.00
968.9710, 36887.00
970.0890, 35575.00
971.2070, 34271.00
972.3240, 33570.00
973.4410, 33483.00
974.5580, 33823.00
975.6750, 35294.00
976.7920, 36450.00
977.9090, 38334.00
979.0250, 39703.00
980.1410, 40911.00
981.2580, 41103.00
982.3740, 40889.00
983.4890, 40184.00
984.6050, 38598.00
985.7200, 37330.00
986.8360, 35368.00
987.9510, 34748.00
989.0660, 33678.00
990.1810, 33383.00
991.2950, 32748.00
992.4100, 33206.00
993.5240, 33226.00
994.6390, 33336.00
995.7530, 33528.00
996.8660, 33813.00
997.9800, 34119.00
999.0940, 34579.00
1000.207, 35089.00
1001.320, 35937.00
1002.433, 36160.00
1003.546, 36724.00
1004.659, 36635.00
1005.772, 36082.00
1006.884, 35306.00
1007.996, 33882.00
1009.108, 32245.00
1010.220, 30156.00
1011.332, 27673.00
1012.444, 26086.00
1013.555, 23945.00
1014.666, 22266.00
1015.777, 20767.00
1016.888, 19605.00
1017.999, 18673.00
1019.110, 18049.00
1020.220, 17405.00
1021.331, 17021.00
1022.441, 16791.00
1023.551, 16340.00
1024.661, 16361.00
1025.770, 16586.00
1026.880, 16500.00
1027.989, 16442.00
1029.098, 16500.00
1030.207, 16421.00
1031.316, 16430.00
1032.425, 16206.00
1033.533, 15930.00
1034.642, 15684.00
1035.750, 15436.87
1036.858, 15233.96
1037.966, 15010.00
1039.073, 14904.00
1040.181, 14858.00
1041.288, 14803.00
1042.396, 14990.00
1043.503, 14856.00
1044.610, 14916.00
1045.716, 14818.00
1046.823, 14844.00
1047.929, 14803.00
1049.036, 14878.00
1050.142, 15160.00
1051.248, 15362.00
1052.353, 15576.00
1053.459, 15691.00
1054.564, 15871.00
1055.670, 15937.00
1056.775, 16123.00
1057.880, 16271.00
1058.985, 16111.00
1060.089, 16131.00
1061.194, 15806.00
1062.298, 15774.00
1063.402, 15502.00
1064.506, 15238.00
1065.610, 15033.00
1066.713, 14790.00
1067.817, 14604.00
1068.920, 14263.00
1070.023, 14150.00
1071.126, 14049.00
1072.229, 13933.00
1073.332, 14089.00
1074.435, 14270.00
1075.537, 14392.00
1076.639, 14740.00
1077.741, 14942.00
1078.843, 15538.00
1079.945, 16053.00
1081.046, 16836.00
1082.148, 17398.00
1083.249, 17942.00
1084.350, 18373.00
1085.451, 18751.00
1086.551, 18556.00
1087.652, 18038.00
1088.752, 17274.00
1089.853, 16554.00
1090.953, 16104.00
1092.053, 15615.00
1093.152, 15224.00
1094.252, 14771.00
1095.351, 14251.00
1096.451, 14106.00
1097.550, 14019.00
1098.649, 14014.00
1099.748, 14058.00
1100.846, 13831.00
1101.945, 13896.00
1103.043, 13939.00
1104.141, 14076.00
1105.239, 14083.00
1106.337, 14101.00
1107.434, 14130.00
1108.532, 14062.00
1109.629, 13990.00
1110.726, 13878.00
1111.823, 13728.00
1112.920, 13489.00
1114.017, 13509.00
1115.113, 13187.00
1116.210, 13284.00
1117.306, 13244.00
1118.402, 13128.00
1119.498, 13158.00
1120.593, 13151.00
1121.689, 12994.00
1122.784, 12971.00
1123.879, 12998.00
1124.974, 12977.00
1126.069, 12879.00
1127.164, 12672.00
1128.259, 12557.00
1129.353, 12470.00
1130.447, 12393.00
1131.541, 12258.00
1132.635, 12168.00
1133.729, 12116.36
1134.822, 12067.30
1135.916, 12047.00
1137.009, 12036.00
1138.102, 12043.00
1139.195, 12025.00
1140.288, 11953.00
1141.380, 11823.00
1142.473, 11839.05
1143.565, 11932.00
1144.657, 11839.00
1145.749, 11893.00
1146.841, 11951.00
1147.932, 11903.00
1149.024, 11793.00
1150.115, 11777.00
1151.206, 11958.00
1152.297, 11845.00
1153.388, 11939.00
1154.479, 11809.00
1155.569, 11779.00
1156.659, 11904.00
1157.750, 11960.00
1158.839, 11828.00
1159.929, 11784.00
1161.019, 11729.00
1162.108, 11773.00
1163.198, 11718.00
1164.287, 11745.00
1165.376, 11569.00
1166.465, 11721.00
1167.553, 11867.00
1168.642, 11659.00
1169.730, 11765.00
1170.818, 11757.00
1171.906, 11541.00
1172.994, 11698.00
1174.082, 11640.00
1175.170, 11735.00
1176.257, 11641.00
1177.344, 11696.00
1178.431, 11614.00
1179.518, 11601.00
1180.605, 11643.00
1181.691, 11575.00
1182.778, 11654.00
1183.864, 11704.00
1184.950, 11695.00
1186.036, 11791.00
1187.122, 11708.00
1188.207, 11752.00
1189.292, 11843.00
1190.378, 11872.00
1191.463, 11673.00
1192.548, 11730.00
1193.632, 11700.00
1194.717, 11792.00
1195.801, 11784.00
1196.886, 11627.00
1197.970, 11621.00
1199.054, 11526.00
1200.137, 11774.00
1201.221, 11807.00
1202.305, 11884.00
1203.388, 11760.00
1204.471, 11707.00
1205.554, 11659.00
1206.637, 11638.00
1207.719, 11614.00
1208.802, 11686.00
1209.884, 11670.00
1210.966, 11786.00
1212.048, 11737.80
1213.130, 11857.00
1214.212, 11649.00
1215.293, 11619.00
1216.374, 11525.00
1217.456, 11739.00
1218.536, 11878.00
1219.617, 11657.00
1220.698, 11853.00
1221.778, 11526.00
1222.859, 11689.00
1223.939, 11536.00
1225.019, 11580.00
1226.099, 11712.00
1227.178, 11784.00
1228.258, 11653.00
1229.337, 11752.00
1230.417, 11705.00
1231.496, 11644.00
1232.574, 11831.00
1233.653, 11787.00
1234.732, 11825.00
1235.810, 11699.00
1236.888, 11763.00
