##NAMES=Axinite-(Fe)
##RRUFFID=R060194
##IDEAL CHEMISTRY=Ca_4_Fe^2+^_2_Al_4_[B_2_Si_8_O_30_](OH)_2_
##LOCALITY=near Dalbandi, Baluchistan Province, Pakistan
##OWNER=RRUFF
##SOURCE=Herbert Obodda
##DESCRIPTION=Brown transparent wedge-shaped single crystal
##STATUS=The identification of this mineral has been confirmed by X-ray diffraction and chemical analysis
##URL=rruff.info/R060194
##MEASURED CHEMISTRY=Ca_2.00_(Fe^2+^_0.66_Mg_0.30_Mn_0.04_)Al_2.00_BSi_4.00_O_15_(OH)
##PIN_ID=L01072
##ORIENTATION=Laser parallel to -c* (0 0 -1). Fiducial mark perpendicular to laser is parallel to a [1 0 0]
53.91000, 795.0000
55.14900, 793.0000
56.38700, 795.0000
57.62600, 761.0000
58.86400, 772.0000
60.10300, 777.0000
61.34100, 787.0000
62.57900, 796.0000
63.81700, 811.0000
65.05400, 825.0000
66.29200, 864.0000
67.52900, 919.0000
68.76700, 965.0000
70.00400, 1139.000
71.24100, 1418.000
72.47700, 1501.000
73.71400, 1527.000
74.95100, 1522.000
76.18700, 1715.000
77.42300, 1971.000
78.65900, 2117.000
79.89500, 2246.000
81.13100, 2475.000
82.36700, 2722.000
83.60200, 2909.000
84.83700, 3364.000
86.07200, 3769.000
87.30800, 4042.000
88.54200, 4267.000
89.77700, 4768.000
91.01200, 5247.000
92.24600, 5779.000
93.48000, 6496.000
94.71400, 7047.000
95.94800, 7472.000
97.18200, 8289.000
98.41600, 9037.000
99.64900, 9757.000
100.8830, 11183.00
102.1160, 12440.00
103.3490, 13557.00
104.5820, 14813.00
105.8150, 16530.00
107.0470, 18903.00
108.2800, 22105.00
109.5120, 25713.00
110.7440, 28390.00
111.9760, 26663.00
113.2080, 23680.00
114.4400, 20622.00
115.6710, 18177.00
116.9030, 16411.00
118.1340, 15063.00
119.3650, 14094.00
120.5960, 13477.00
121.8270, 12863.00
123.0580, 12205.00
124.2880, 11789.00
125.5190, 11591.00
126.7490, 11119.00
127.9790, 10982.00
129.2090, 10306.00
130.4390, 10081.00
131.6680, 9844.000
132.8980, 9992.000
134.1270, 10182.00
135.3560, 10529.00
136.5850, 11047.00
137.8140, 11768.00
139.0430, 12825.00
140.2710, 14147.00
141.5000, 15084.00
142.7280, 15752.00
143.9560, 16020.00
145.1840, 15938.00
146.4120, 15847.00
147.6390, 15996.00
148.8670, 16411.00
150.0940, 17377.00
151.3210, 18672.00
152.5490, 19896.00
153.7750, 20917.00
155.0020, 20516.00
156.2290, 19391.00
157.4550, 18067.00
158.6810, 16835.00
159.9080, 15924.00
161.1340, 15214.00
162.3590, 14502.00
163.5850, 14663.00
164.8110, 14948.00
166.0360, 15694.00
167.2610, 16692.00
168.4860, 17885.00
169.7110, 19551.00
170.9360, 21176.00
172.1610, 23299.00
173.3850, 24417.00
174.6100, 24214.00
175.8340, 23357.00
177.0580, 21592.00
178.2820, 19403.00
179.5050, 17188.00
180.7290, 15552.00
181.9520, 13895.00
183.1760, 12748.00
184.3990, 12039.00
185.6220, 11770.00
186.8450, 11655.00
188.0670, 11794.00
189.2900, 12153.00
190.5120, 12819.00
191.7340, 14057.00
192.9560, 15611.00
194.1780, 17312.00
195.4000, 18687.00
196.6220, 19168.00
197.8430, 18186.00
199.0640, 17228.00
200.2860, 16612.00
201.5070, 16868.00
202.7270, 17874.00
203.9480, 19148.00
205.1690, 20378.00
206.3890, 21573.00
207.6090, 22327.00
208.8290, 22914.00
210.0490, 23406.00
211.2690, 23448.00
212.4890, 23112.00
213.7080, 22914.00
214.9280, 22407.00
216.1470, 21998.00
217.3660, 21310.00
218.5850, 20716.00
219.8030, 20118.00
221.0220, 19345.00
222.2400, 18458.00
223.4590, 17194.00
224.6770, 15905.00
225.8950, 14509.00
227.1120, 13367.00
228.3300, 12671.00
229.5480, 11962.00
230.7650, 11427.00
231.9820, 11002.00
233.1990, 10882.00
234.4160, 10707.00
235.6330, 10845.00
236.8490, 11039.00
238.0660, 11171.00
239.2820, 11431.00
240.4980, 11771.00
241.7140, 12342.00
242.9300, 12415.00
244.1460, 12786.00
245.3610, 12859.00
246.5770, 13286.00
247.7920, 13621.00
249.0070, 13881.00
250.2220, 14263.00
251.4370, 15004.00
252.6510, 15913.00
253.8660, 16934.00
255.0800, 18023.00
256.2940, 18909.00
257.5080, 19647.00
258.7220, 19655.00
259.9360, 20164.00
261.1490, 20453.00
262.3630, 20051.00
263.5760, 20273.00
264.7890, 21093.00
266.0020, 22213.00
267.2150, 23871.00
268.4270, 25622.00
269.6400, 27221.00
270.8520, 29209.00
272.0640, 30850.00
273.2760, 31780.00
274.4880, 32510.00
275.7000, 32346.00
276.9120, 31791.00
278.1230, 30800.00
279.3340, 29164.00
280.5450, 27218.00
281.7560, 25500.00
282.9670, 23485.00
284.1780, 22074.00
285.3880, 21363.00
286.5980, 20780.00
287.8090, 20367.00
289.0190, 20218.00
290.2290, 20215.00
291.4380, 20255.00
292.6480, 20591.00
293.8570, 21024.00
295.0670, 21705.00
296.2760, 22162.00
297.4850, 22684.00
298.6930, 23321.00
299.9020, 23768.00
301.1110, 24166.00
302.3190, 24775.00
303.5270, 25477.00
304.7350, 26054.00
305.9430, 26745.00
307.1510, 27534.00
308.3580, 27809.00
309.5660, 27563.00
310.7730, 26557.00
311.9800, 25090.00
313.1870, 23791.00
314.3940, 22743.00
315.6010, 22416.00
316.8070, 22482.00
318.0130, 23051.00
319.2200, 24083.00
320.4260, 24542.00
321.6310, 24658.00
322.8370, 23857.00
324.0430, 22683.00
325.2480, 21274.00
326.4540, 19963.00
327.6590, 19157.00
328.8640, 18448.00
330.0680, 18134.00
331.2730, 18090.00
332.4780, 18172.00
333.6820, 18052.00
334.8860, 18352.00
336.0900, 18760.00
337.2940, 19293.00
338.4980, 20609.00
339.7010, 21808.00
340.9050, 23902.00
342.1080, 26488.00
343.3110, 29309.00
344.5140, 32058.00
345.7170, 33934.00
346.9200, 33744.00
348.1220, 32397.00
349.3240, 30559.00
350.5270, 28588.00
351.7290, 27344.00
352.9310, 26338.00
354.1320, 24955.00
355.3340, 23149.00
356.5350, 21227.00
357.7370, 19158.00
358.9380, 17287.00
360.1390, 15844.00
361.3400, 14503.00
362.5400, 13792.00
363.7410, 13109.00
364.9410, 12541.00
366.1410, 12298.00
367.3410, 12198.00
368.5410, 12121.00
369.7410, 12055.00
370.9400, 12218.00
372.1400, 12354.00
373.3390, 12597.00
374.5380, 12760.00
375.7370, 12801.00
376.9360, 12695.00
378.1350, 12784.00
379.3330, 12920.00
380.5310, 13294.00
381.7300, 13760.00
382.9280, 14668.00
384.1260, 15649.00
385.3230, 17191.00
386.5210, 18680.00
387.7180, 20682.00
388.9160, 22551.00
390.1130, 24832.00
391.3100, 26618.00
392.5060, 26982.00
393.7030, 26637.00
394.9000, 25004.00
396.0960, 22840.00
397.2920, 20877.00
398.4880, 19113.00
399.6840, 17915.00
400.8800, 17078.00
402.0750, 16362.00
403.2710, 16162.00
404.4660, 15928.00
405.6610, 15559.00
406.8560, 15294.00
408.0510, 15236.00
409.2450, 15416.00
410.4400, 15949.00
411.6340, 16775.00
412.8280, 18271.94
414.0220, 19763.00
415.2160, 22442.00
416.4100, 25214.00
417.6030, 28405.00
418.7970, 31028.00
419.9900, 31996.00
421.1830, 30976.00
422.3760, 29246.00
423.5690, 28295.00
424.7610, 27659.00
425.9540, 27678.00
427.1460, 27848.00
428.3380, 27354.00
429.5300, 26811.00
430.7220, 26161.00
431.9140, 25129.00
433.1050, 23598.00
434.2970, 21758.00
435.4880, 20515.00
436.6790, 19087.00
437.8700, 17997.00
439.0610, 17447.00
440.2510, 17317.00
441.4420, 17772.00
442.6320, 18698.00
443.8220, 20343.00
445.0120, 21789.00
446.2020, 22888.00
447.3910, 23027.00
448.5810, 21435.00
449.7700, 19519.00
450.9600, 17294.00
452.1490, 15626.00
453.3370, 14509.00
454.5260, 13647.00
455.7150, 12881.00
456.9030, 12580.00
458.0910, 12299.00
459.2800, 12172.00
460.4670, 11986.00
461.6550, 12001.00
462.8430, 11884.00
464.0300, 11974.00
465.2180, 12143.00
466.4050, 12310.00
467.5920, 12634.00
468.7790, 12827.00
469.9650, 13311.00
471.1520, 13754.00
472.3380, 14147.00
473.5250, 14353.00
474.7110, 14651.00
475.8970, 14990.00
477.0820, 15589.00
478.2680, 16398.00
479.4540, 18014.00
480.6390, 19561.00
481.8240, 22133.00
483.0090, 25150.00
484.1940, 28632.00
485.3780, 31717.00
486.5630, 33890.00
487.7470, 33719.00
488.9320, 30874.00
490.1160, 26656.00
491.3000, 22534.00
492.4830, 19448.00
493.6670, 17190.00
494.8500, 15776.00
496.0340, 14635.00
497.2170, 14133.00
498.4000, 13938.00
499.5820, 13972.00
500.7650, 14100.00
501.9480, 14194.00
503.1300, 14532.00
504.3120, 14850.00
505.4940, 15461.00
506.6760, 15839.00
507.8580, 16055.00
509.0390, 16382.00
510.2210, 16497.00
511.4020, 16343.00
512.5830, 15960.00
513.7640, 15628.00
514.9450, 15222.00
516.1250, 14390.00
517.3060, 13845.00
518.4860, 13144.00
519.6660, 12664.00
520.8460, 12252.00
522.0260, 11934.00
523.2060, 11588.00
524.3850, 11371.00
525.5650, 11319.00
526.7440, 11274.00
527.9230, 11190.39
529.1020, 11163.23
530.2810, 11144.00
531.4590, 11209.00
532.6380, 11223.00
533.8160, 11506.00
534.9940, 11596.00
536.1720, 11736.00
537.3500, 11712.00
538.5270, 11680.00
539.7050, 11776.00
540.8820, 11656.00
542.0590, 11644.00
543.2360, 11637.00
544.4130, 11581.00
545.5900, 11503.00
546.7660, 11569.00
547.9430, 11506.00
549.1190, 11328.00
550.2950, 11407.00
551.4710, 11297.00
552.6470, 11405.00
553.8220, 11440.00
554.9980, 11490.00
556.1730, 11675.00
557.3480, 11796.00
558.5230, 12041.00
559.6980, 12201.00
560.8730, 12688.00
562.0470, 12898.00
563.2220, 13238.00
564.3960, 13568.00
565.5700, 13434.00
566.7440, 13652.00
567.9170, 13797.00
569.0910, 14154.00
570.2640, 14396.00
571.4380, 14851.00
572.6110, 15310.00
573.7840, 15674.00
574.9570, 15874.00
576.1290, 16075.00
577.3020, 16072.00
578.4740, 15704.00
579.6460, 15432.00
580.8180, 15146.00
581.9900, 15039.00
583.1620, 15063.00
584.3330, 15155.00
585.5040, 15497.00
586.6760, 16149.00
587.8470, 16769.00
589.0180, 17435.00
590.1880, 17842.00
591.3590, 18143.00
592.5290, 17827.00
593.7000, 17012.00
594.8700, 16354.00
596.0400, 15247.00
597.2090, 14491.00
598.3790, 13882.00
599.5490, 13262.00
600.7180, 12942.00
601.8870, 12556.00
603.0560, 12577.00
604.2250, 12640.00
605.3940, 12605.00
606.5620, 12966.00
607.7300, 13109.00
608.8990, 13556.00
610.0670, 13930.00
611.2350, 14461.00
612.4020, 15075.00
613.5700, 15801.00
614.7370, 16461.00
615.9050, 17114.93
617.0720, 17643.00
618.2390, 18275.00
619.4060, 18526.00
620.5720, 18739.00
621.7390, 18434.00
622.9050, 18170.00
624.0710, 17231.00
625.2370, 16254.00
626.4030, 15163.00
627.5690, 14159.00
628.7340, 13615.00
629.9000, 13003.00
631.0650, 12516.00
632.2300, 12353.00
633.3950, 12359.00
634.5600, 12439.00
635.7240, 12501.00
636.8890, 12642.00
638.0530, 12878.00
639.2170, 13113.00
640.3810, 13555.00
641.5450, 13779.00
642.7080, 14316.00
643.8720, 14631.00
645.0350, 14699.00
646.1980, 14762.00
647.3610, 14718.00
648.5240, 14447.00
649.6870, 14001.00
650.8490, 13813.00
652.0120, 13444.00
653.1740, 13035.00
654.3360, 12525.00
655.4980, 12435.00
656.6600, 12402.00
657.8210, 12177.00
658.9830, 12149.00
660.1440, 12068.00
661.3050, 12224.00
662.4660, 12185.00
663.6270, 12454.00
664.7870, 12498.00
665.9480, 12753.00
667.1080, 13029.00
668.2680, 13627.00
669.4280, 14101.00
670.5880, 14754.00
671.7480, 15650.00
672.9070, 16454.00
674.0670, 17809.00
675.2260, 18840.00
676.3850, 19828.00
677.5440, 20584.00
678.7030, 20691.00
679.8610, 20391.74
681.0200, 20258.00
682.1780, 18706.00
683.3360, 17639.00
684.4940, 16373.00
685.6520, 15841.00
686.8090, 14971.00
687.9670, 14739.00
689.1240, 14400.00
690.2810, 14077.00
691.4380, 14196.00
692.5950, 14167.00
693.7520, 14444.00
694.9080, 14523.00
696.0650, 14927.00
697.2210, 15472.00
698.3770, 16021.00
699.5330, 16872.00
700.6880, 17631.00
701.8440, 18801.00
702.9990, 20303.00
704.1550, 22300.00
705.3100, 24704.00
706.4650, 27694.00
707.6190, 31290.00
708.7740, 35695.00
709.9290, 40706.00
711.0830, 46126.00
712.2370, 51757.00
713.3910, 56490.00
714.5450, 59824.00
715.6980, 60822.00
716.8520, 59380.00
718.0050, 55126.00
719.1580, 49248.00
720.3110, 45029.00
721.4640, 37996.00
722.6170, 33234.00
723.7700, 29023.00
724.9220, 25942.00
726.0740, 23353.00
727.2260, 21796.00
728.3780, 20123.00
729.5300, 18861.00
730.6810, 17740.00
731.8330, 17131.00
732.9840, 16517.00
734.1350, 15840.00
735.2860, 15321.00
736.4370, 15142.00
737.5880, 14709.00
738.7380, 14392.00
739.8880, 14404.00
741.0390, 14106.00
742.1890, 14117.00
743.3380, 13946.00
744.4880, 13679.00
745.6380, 13657.00
746.7870, 13685.00
747.9360, 13608.00
749.0850, 13545.00
750.2340, 13625.00
751.3830, 13876.00
752.5310, 14042.00
753.6800, 14002.00
754.8280, 14381.00
755.9760, 14430.00
757.1240, 14819.00
758.2720, 15180.00
759.4190, 15573.00
760.5670, 16102.00
761.7140, 16632.00
762.8610, 17241.00
764.0080, 17734.00
765.1550, 18441.00
766.3020, 19084.00
767.4480, 19247.00
768.5950, 19580.00
769.7410, 19492.00
770.8870, 19201.00
772.0330, 18673.00
773.1780, 18159.00
774.3240, 17333.00
775.4690, 16584.00
776.6140, 16146.00
777.7590, 15547.00
778.9040, 15127.00
780.0490, 14635.00
781.1940, 14453.00
782.3380, 14122.00
783.4820, 13714.00
784.6260, 13700.00
785.7700, 13416.00
786.9140, 13265.00
788.0580, 13184.00
789.2010, 13031.00
790.3450, 12960.95
791.4880, 13000.00
792.6310, 12836.00
793.7730, 12809.00
794.9160, 12791.00
796.0590, 12714.00
797.2010, 12758.00
798.3430, 12751.00
799.4850, 12793.00
800.6270, 12796.64
801.7690, 12841.00
802.9100, 12832.00
804.0520, 12860.00
805.1930, 12929.00
806.3340, 13117.01
807.4750, 13217.00
808.6160, 13650.00
809.7560, 13755.00
810.8970, 14142.00
812.0370, 14393.00
813.1770, 14632.00
814.3170, 14925.00
815.4570, 15167.00
816.5960, 15082.00
817.7360, 14878.00
818.8750, 14524.00
820.0140, 14405.00
821.1530, 13970.00
822.2920, 13786.00
823.4310, 13556.00
824.5690, 13490.00
825.7070, 13447.00
826.8460, 13247.00
827.9840, 13277.00
829.1220, 13220.00
830.2590, 13366.00
831.3970, 13311.00
832.5340, 13259.00
833.6710, 13353.00
834.8080, 13400.00
835.9450, 13438.00
837.0820, 13576.00
838.2190, 13640.38
839.3550, 13694.00
840.4910, 13847.00
841.6270, 13900.00
842.7630, 14006.00
843.8990, 14200.00
845.0350, 14443.00
846.1700, 14683.00
847.3060, 15027.00
848.4410, 15143.00
849.5760, 15401.00
850.7100, 15767.00
851.8450, 15824.00
852.9800, 15906.00
854.1140, 15983.00
855.2480, 15908.00
856.3820, 15904.20
857.5160, 15865.00
858.6500, 15748.00
859.7830, 15682.00
860.9170, 15578.00
862.0500, 15592.00
863.1830, 15599.00
864.3160, 15572.00
865.4480, 15523.00
866.5810, 15888.00
867.7130, 15462.00
868.8460, 15628.00
869.9780, 15817.00
871.1100, 15574.00
872.2410, 15616.00
873.3730, 15836.00
874.5050, 15960.00
875.6360, 15955.00
876.7670, 16104.88
877.8980, 16132.00
879.0290, 16306.00
880.1590, 16489.00
881.2900, 16715.00
882.4200, 16926.00
883.5500, 17012.00
884.6800, 17223.00
885.8100, 17303.00
886.9400, 17707.00
888.0690, 18049.00
889.1990, 18318.00
890.3280, 18843.00
891.4570, 19548.00
892.5860, 20151.00
893.7140, 20949.00
894.8430, 21992.00
895.9710, 22976.00
897.1000, 24160.00
898.2280, 25314.00
899.3560, 26024.00
900.4830, 26821.00
901.6110, 27556.00
902.7380, 28168.00
903.8660, 28839.00
904.9930, 29463.00
906.1200, 30146.00
907.2460, 30658.00
908.3730, 30911.00
909.5000, 30890.00
910.6260, 30895.00
911.7520, 30351.00
912.8780, 29702.00
914.0040, 28271.00
915.1290, 27108.00
916.2550, 25611.00
917.3800, 24132.00
918.5050, 22905.00
919.6300, 22021.00
920.7550, 20881.00
921.8800, 20407.00
923.0040, 20020.00
924.1290, 19510.00
925.2530, 19474.00
926.3770, 19426.00
927.5010, 19402.00
928.6250, 19607.00
929.7480, 19644.00
930.8720, 20051.00
931.9950, 20186.00
933.1180, 20113.00
934.2410, 20353.00
935.3640, 20296.00
936.4860, 20388.00
937.6090, 20382.00
938.7310, 20270.00
939.8530, 20563.00
940.9750, 20676.00
942.0970, 21136.00
943.2180, 21677.00
944.3400, 22644.00
945.4610, 23214.00
946.5820, 24481.00
947.7030, 25523.00
948.8240, 27082.00
949.9450, 28514.00
951.0650, 30156.00
952.1860, 31959.00
953.3060, 33643.00
954.4260, 35499.00
955.5460, 36976.00
956.6650, 38482.00
957.7850, 40612.00
958.9040, 42530.00
960.0230, 44850.00
961.1420, 48010.00
962.2610, 50874.00
963.3800, 54029.00
964.4990, 56463.00
965.6170, 58361.00
966.7350, 58372.00
967.8530, 57398.00
968.9710, 54756.00
970.0890, 51711.00
971.2070, 48494.00
972.3240, 45948.00
973.4410, 44161.00
974.5580, 43310.00
975.6750, 43171.00
976.7920, 44101.00
977.9090, 45361.00
979.0250, 47186.00
980.1410, 48461.00
981.2580, 48958.00
982.3740, 48924.00
983.4890, 47798.00
984.6050, 46005.00
985.7200, 43850.00
986.8360, 41939.00
987.9510, 40275.00
989.0660, 38942.00
990.1810, 37948.00
991.2950, 37675.00
992.4100, 37304.00
993.5240, 37389.00
994.6390, 37573.00
995.7530, 37577.00
996.8660, 37699.00
997.9800, 37720.00
999.0940, 38238.00
1000.207, 38626.00
1001.320, 39413.00
1002.433, 40243.00
1003.546, 40364.00
1004.659, 41245.00
1005.772, 41237.00
1006.884, 40430.00
1007.996, 39618.00
1009.108, 37710.00
1010.220, 35395.00
1011.332, 32912.00
1012.444, 31086.00
1013.555, 28664.00
1014.666, 26915.00
1015.777, 25226.00
1016.888, 23713.00
1017.999, 22637.00
1019.110, 21794.00
1020.220, 20789.00
1021.331, 20490.00
1022.441, 20077.00
1023.551, 19708.00
1024.661, 19501.00
1025.770, 19694.00
1026.880, 19814.00
1027.989, 19722.00
1029.098, 19902.00
1030.207, 19694.00
1031.316, 19429.00
1032.425, 19124.00
1033.533, 18621.00
1034.642, 18264.00
1035.750, 18012.00
1036.858, 17669.00
1037.966, 17412.00
1039.073, 17249.00
1040.181, 17210.00
1041.288, 17053.85
1042.396, 17014.46
1043.503, 16864.00
1044.610, 16918.00
1045.716, 16762.00
1046.823, 16675.00
1047.929, 16927.00
1049.036, 16962.00
1050.142, 16922.00
1051.248, 16960.00
1052.353, 17237.00
1053.459, 17247.00
1054.564, 17512.00
1055.670, 17601.00
1056.775, 17693.00
1057.880, 17792.00
1058.985, 17849.00
1060.089, 17930.00
1061.194, 17921.00
1062.298, 17902.00
1063.402, 17809.00
1064.506, 17726.75
1065.610, 17597.55
1066.713, 17452.00
1067.817, 17291.00
1068.920, 17080.00
1070.023, 16927.00
1071.126, 16866.00
1072.229, 16907.00
1073.332, 16700.00
1074.435, 16740.00
1075.537, 16844.00
1076.639, 17125.00
1077.741, 17413.00
1078.843, 17637.00
1079.945, 17951.00
1081.046, 18598.00
1082.148, 18829.00
1083.249, 19221.00
1084.350, 19739.00
1085.451, 19738.00
1086.551, 19751.00
1087.652, 19518.00
1088.752, 19132.00
1089.853, 18458.00
1090.953, 18089.00
1092.053, 17741.00
1093.152, 17435.00
1094.252, 17124.00
1095.351, 16954.00
1096.451, 16841.00
1097.550, 16855.00
1098.649, 16821.00
1099.748, 17027.00
1100.846, 17160.00
1101.945, 17349.00
1103.043, 17413.00
1104.141, 17636.00
1105.239, 18000.00
1106.337, 18104.00
1107.434, 18142.00
1108.532, 18228.00
1109.629, 18254.00
1110.726, 18028.00
1111.823, 17856.00
1112.920, 17754.00
1114.017, 17448.00
1115.113, 17344.00
1116.210, 16967.00
1117.306, 16941.00
1118.402, 16587.00
1119.498, 16593.00
1120.593, 16427.00
1121.689, 16360.00
1122.784, 16244.00
1123.879, 16160.00
1124.974, 16089.00
1126.069, 15979.56
1127.164, 15904.00
1128.259, 15782.00
1129.353, 15742.00
1130.447, 15641.19
1131.541, 15749.00
1132.635, 15651.00
1133.729, 15515.00
1134.822, 15626.00
1135.916, 15513.00
1137.009, 15476.00
1138.102, 15374.00
1139.195, 15457.00
1140.288, 15385.00
1141.380, 15467.00
1142.473, 15451.00
1143.565, 15391.00
1144.657, 15346.00
1145.749, 15326.00
1146.841, 15386.00
1147.932, 15297.00
1149.024, 15400.00
1150.115, 15420.00
1151.206, 15424.46
1152.297, 15448.60
1153.388, 15454.00
1154.479, 15399.00
1155.569, 15362.00
1156.659, 15266.00
1157.750, 15254.00
1158.839, 15303.00
1159.929, 15211.00
1161.019, 15249.00
1162.108, 15269.00
1163.198, 15161.00
1164.287, 15160.00
1165.376, 15298.00
1166.465, 15125.00
1167.553, 15169.00
1168.642, 15261.00
1169.730, 15132.00
1170.818, 15039.00
1171.906, 15191.00
1172.994, 15182.00
1174.082, 15318.00
1175.170, 15206.00
1176.257, 15152.00
1177.344, 15049.00
1178.431, 15041.91
1179.518, 15047.36
1180.605, 15095.00
1181.691, 15178.00
1182.778, 15325.00
1183.864, 15269.67
1184.950, 15293.83
1186.036, 15217.00
1187.122, 15229.00
1188.207, 15254.00
1189.292, 15281.00
1190.378, 15299.89
1191.463, 15371.00
1192.548, 15305.00
1193.632, 15338.00
1194.717, 15253.00
1195.801, 15280.00
1196.886, 15333.00
1197.970, 15307.00
1199.054, 15396.00
1200.137, 15241.00
1201.221, 15346.00
1202.305, 15327.00
1203.388, 15385.00
1204.471, 15387.00
1205.554, 15234.00
1206.637, 15329.00
1207.719, 15499.00
1208.802, 15364.00
1209.884, 15244.00
1210.966, 15368.00
1212.048, 15326.00
1213.130, 15229.00
1214.212, 15411.00
1215.293, 15275.00
1216.374, 15333.00
1217.456, 15398.00
1218.536, 15283.00
1219.617, 15213.00
1220.698, 15441.00
1221.778, 15311.00
1222.859, 15399.00
1223.939, 15331.00
1225.019, 15508.00
1226.099, 15280.00
1227.178, 15435.00
1228.258, 15388.00
1229.337, 15471.00
1230.417, 15510.00
1231.496, 15442.00
1232.574, 15447.00
1233.653, 15390.00
1234.732, 15541.00
1235.810, 15457.00
1236.888, 15488.00
