##NAMES=Axinite-(Fe)
##RRUFFID=R060183
##IDEAL CHEMISTRY=Ca_4_Fe^2+^_2_Al_4_[B_2_Si_8_O_30_](OH)_2_
##LOCALITY=Skagit Bluffs, near Manning Park, British Columbia, Canada
##OWNER=RRUFF
##SOURCE=Lloyd Twaites
##DESCRIPTION=Light-pink transparent axe-head-shaped single crystal
##STATUS=The identification of this mineral has been confirmed by X-ray diffraction and chemical analysis
##URL=rruff.info/R060183
##MEASURED CHEMISTRY=Ca_2.00_(Fe^2+^_0.58_Mn_0.23_Mg_0.19_)Al_2.00_B_1.00_Si_4.00_O_15_(OH)
##PIN_ID=L01506
##ORIENTATION=Laser parallel to (-1 -1 0). Fiducial mark perpendicular to laser is parallel to c [0 0 1]
52.67100, 881.0000
53.91000, 867.0000
55.14900, 891.0000
56.38700, 853.0000
57.62600, 883.0000
58.86400, 895.0000
60.10300, 919.0000
61.34100, 910.0000
62.57900, 962.0000
63.81700, 1137.000
65.05400, 1090.933
66.29200, 1236.000
67.52900, 1214.000
68.76700, 1488.000
70.00400, 1804.000
71.24100, 1871.000
72.47700, 1920.000
73.71400, 2189.000
74.95100, 2492.000
76.18700, 2801.000
77.42300, 2833.000
78.65900, 2988.000
79.89500, 3331.000
81.13100, 3655.000
82.36700, 4284.000
83.60200, 4811.000
84.83700, 5137.000
86.07200, 5489.000
87.30800, 5996.000
88.54200, 6509.000
89.77700, 7603.000
91.01200, 8725.000
92.24600, 9751.000
93.48000, 10372.00
94.71400, 11083.00
95.94800, 11430.00
97.18200, 11887.79
98.41600, 11894.00
99.64900, 12570.00
100.8830, 12950.00
102.1160, 13382.00
103.3490, 14281.00
104.5820, 15466.00
105.8150, 17165.00
107.0470, 19253.00
108.2800, 18538.00
109.5120, 20104.00
110.7440, 16929.00
111.9760, 15318.00
113.2080, 14012.00
114.4400, 13544.00
115.6710, 13027.00
116.9030, 12312.00
118.1340, 11841.00
119.3650, 11248.00
120.5960, 11109.00
121.8270, 11219.00
123.0580, 11562.00
124.2880, 11522.00
125.5190, 11416.00
126.7490, 11383.00
127.9790, 11586.00
129.2090, 11688.00
130.4390, 11538.00
131.6680, 11293.00
132.8980, 11098.00
134.1270, 11251.00
135.3560, 11612.00
136.5850, 12057.00
137.8140, 12830.00
139.0430, 13741.00
140.2710, 14661.00
141.5000, 15090.60
142.7280, 15712.00
143.9560, 15902.00
145.1840, 16083.00
146.4120, 16416.00
147.6390, 16631.00
148.8670, 16397.00
150.0940, 16210.00
151.3210, 16200.00
152.5490, 15755.00
153.7750, 15566.00
155.0020, 15776.00
156.2290, 15450.00
157.4550, 15143.00
158.6810, 14668.00
159.9080, 14454.00
161.1340, 14458.00
162.3590, 14883.00
163.5850, 15756.00
164.8110, 16970.00
166.0360, 18765.00
167.2610, 20782.00
168.4860, 23185.00
169.7110, 24733.00
170.9360, 24872.00
172.1610, 23812.00
173.3850, 22004.00
174.6100, 20175.00
175.8340, 18306.00
177.0580, 16699.00
178.2820, 14500.00
179.5050, 13251.00
180.7290, 12093.00
181.9520, 11488.00
183.1760, 11052.00
184.3990, 10599.00
185.6220, 10662.00
186.8450, 10987.00
188.0670, 11898.00
189.2900, 11649.00
190.5120, 12440.00
191.7340, 13134.00
192.9560, 13801.00
194.1780, 14063.00
195.4000, 14187.00
196.6220, 14200.00
197.8430, 14366.00
199.0640, 14923.00
200.2860, 15667.00
201.5070, 16808.00
202.7270, 18150.00
203.9480, 19101.00
205.1690, 20430.00
206.3890, 21701.00
207.6090, 23037.00
208.8290, 24339.00
210.0490, 24814.00
211.2690, 24581.00
212.4890, 23936.00
213.7080, 23165.00
214.9280, 21985.00
216.1470, 20572.00
217.3660, 19493.00
218.5850, 18152.00
219.8030, 16996.00
221.0220, 15639.00
222.2400, 14349.00
223.4590, 13623.00
224.6770, 12579.00
225.8950, 12070.00
227.1120, 11538.00
228.3300, 11109.00
229.5480, 10827.00
230.7650, 10693.00
231.9820, 10587.41
233.1990, 10782.00
234.4160, 10771.00
235.6330, 11134.00
236.8490, 11560.00
238.0660, 11884.00
239.2820, 12543.00
240.4980, 13037.00
241.7140, 13434.53
242.9300, 13904.59
244.1460, 14192.00
245.3610, 14569.00
246.5770, 14789.00
247.7920, 14919.00
249.0070, 15009.00
250.2220, 15276.00
251.4370, 15364.00
252.6510, 15502.00
253.8660, 15644.00
255.0800, 15604.00
256.2940, 15189.00
257.5080, 15205.00
258.7220, 14988.18
259.9360, 15451.00
261.1490, 14871.00
262.3630, 14656.00
263.5760, 15015.00
264.7890, 15508.00
266.0020, 16286.00
267.2150, 17070.00
268.4270, 17952.00
269.6400, 19319.00
270.8520, 20220.00
272.0640, 20820.00
273.2760, 21373.00
274.4880, 21432.00
275.7000, 20957.00
276.9120, 20024.00
278.1230, 18982.00
279.3340, 17702.00
280.5450, 16618.00
281.7560, 15840.93
282.9670, 15098.00
284.1780, 14649.00
285.3880, 14626.00
286.5980, 14621.00
287.8090, 15085.00
289.0190, 15583.00
290.2290, 16305.00
291.4380, 17355.00
292.6480, 18263.00
293.8570, 19388.00
295.0670, 20425.00
296.2760, 21249.00
297.4850, 22158.00
298.6930, 22698.00
299.9020, 23433.00
301.1110, 23994.00
302.3190, 24548.00
303.5270, 24919.00
304.7350, 25137.00
305.9430, 24771.00
307.1510, 23893.00
308.3580, 22872.00
309.5660, 21758.00
310.7730, 20889.00
311.9800, 20455.00
313.1870, 20313.00
314.3940, 21103.00
315.6010, 21934.00
316.8070, 22826.00
318.0130, 22961.00
319.2200, 22826.00
320.4260, 21879.00
321.6310, 20616.00
322.8370, 19398.00
324.0430, 17748.00
325.2480, 16588.00
326.4540, 15862.00
327.6590, 15351.00
328.8640, 14750.00
330.0680, 14312.00
331.2730, 14302.00
332.4780, 14273.00
333.6820, 14491.00
334.8860, 15035.00
336.0900, 15755.66
337.2940, 16629.00
338.4980, 18002.00
339.7010, 19520.00
340.9050, 21270.00
342.1080, 22462.00
343.3110, 22951.00
344.5140, 23013.00
345.7170, 22702.00
346.9200, 22319.00
348.1220, 22076.00
349.3240, 21974.00
350.5270, 21619.00
351.7290, 20952.00
352.9310, 19635.00
354.1320, 18123.00
355.3340, 16771.00
356.5350, 15392.00
357.7370, 14227.00
358.9380, 13276.00
360.1390, 12374.00
361.3400, 11816.00
362.5400, 11606.00
363.7410, 11233.00
364.9410, 11052.00
366.1410, 11092.00
367.3410, 11003.00
368.5410, 11065.00
369.7410, 11256.00
370.9400, 11377.00
372.1400, 11490.00
373.3390, 11410.00
374.5380, 11541.00
375.7370, 11599.00
376.9360, 11646.00
378.1350, 11942.00
379.3330, 12584.00
380.5310, 13039.00
381.7300, 13884.00
382.9280, 14873.00
384.1260, 16175.00
385.3230, 17386.00
386.5210, 18651.00
387.7180, 19460.00
388.9160, 20003.00
390.1130, 20691.00
391.3100, 20787.00
392.5060, 20472.00
393.7030, 20242.00
394.9000, 19301.00
396.0960, 18434.00
397.2920, 17406.00
398.4880, 16555.00
399.6840, 15645.00
400.8800, 15071.00
402.0750, 14248.00
403.2710, 13803.00
404.4660, 13289.00
405.6610, 13128.00
406.8560, 13032.00
408.0510, 13308.00
409.2450, 13469.00
410.4400, 13975.00
411.6340, 14723.00
412.8280, 15777.00
414.0220, 16908.00
415.2160, 17951.00
416.4100, 18487.00
417.6030, 18844.00
418.7970, 18940.00
419.9900, 19332.00
421.1830, 19674.00
422.3760, 20336.00
423.5690, 21274.00
424.7610, 22561.00
425.9540, 23616.00
427.1460, 24524.00
428.3380, 25355.00
429.5300, 25367.00
430.7220, 24979.00
431.9140, 23929.00
433.1050, 22031.00
434.2970, 20342.00
435.4880, 18662.00
436.6790, 17200.00
437.8700, 16255.00
439.0610, 15760.00
440.2510, 15533.00
441.4420, 15702.00
442.6320, 15628.00
443.8220, 15597.00
445.0120, 15321.00
446.2020, 14690.00
447.3910, 14020.00
448.5810, 13153.00
449.7700, 12831.00
450.9600, 12466.00
452.1490, 12033.00
453.3370, 12125.00
454.5260, 12086.00
455.7150, 11981.00
456.9030, 11934.00
458.0910, 11705.00
459.2800, 11524.00
460.4670, 11381.00
461.6550, 11329.27
462.8430, 11331.73
464.0300, 11398.00
465.2180, 11544.00
466.4050, 11761.00
467.5920, 12046.00
468.7790, 12043.00
469.9650, 12085.00
471.1520, 12137.00
472.3380, 11885.00
473.5250, 11678.00
474.7110, 11544.00
475.8970, 11735.00
477.0820, 11992.00
478.2680, 12132.00
479.4540, 12527.00
480.6390, 12873.00
481.8240, 13446.00
483.0090, 13804.00
484.1940, 14027.00
485.3780, 13737.00
486.5630, 13261.00
487.7470, 12732.00
488.9320, 12231.00
490.1160, 11672.00
491.3000, 11242.00
492.4830, 11026.00
493.6670, 10856.00
494.8500, 10812.00
496.0340, 10946.00
497.2170, 11072.00
498.4000, 11209.00
499.5820, 11407.97
500.7650, 11689.00
501.9480, 11842.00
503.1300, 12043.00
504.3120, 12182.71
505.4940, 12349.00
506.6760, 12380.00
507.8580, 12438.00
509.0390, 12470.00
510.2210, 12298.00
511.4020, 12203.00
512.5830, 12097.00
513.7640, 11824.00
514.9450, 11738.00
516.1250, 11473.00
517.3060, 11244.00
518.4860, 11023.00
519.6660, 10858.36
520.8460, 10723.47
522.0260, 10628.00
523.2060, 10538.00
524.3850, 10540.00
525.5650, 10489.00
526.7440, 10405.00
527.9230, 10638.00
529.1020, 10675.00
530.2810, 10529.00
531.4590, 10812.00
532.6380, 10884.00
533.8160, 11090.00
534.9940, 11409.00
536.1720, 11587.00
537.3500, 12070.00
538.5270, 12488.00
539.7050, 12949.00
540.8820, 13594.00
542.0590, 14155.00
543.2360, 14789.00
544.4130, 14985.00
545.5900, 15266.00
546.7660, 15148.00
547.9430, 14991.00
549.1190, 14700.00
550.2950, 14304.00
551.4710, 14174.00
552.6470, 14206.00
553.8220, 14369.00
554.9980, 14497.00
556.1730, 14936.00
557.3480, 15227.00
558.5230, 15389.00
559.6980, 15495.00
560.8730, 15309.00
562.0470, 14981.00
563.2220, 14904.00
564.3960, 14505.62
565.5700, 14204.00
566.7440, 14024.00
567.9170, 14064.00
569.0910, 14375.00
570.2640, 14377.00
571.4380, 14525.00
572.6110, 14660.00
573.7840, 14698.00
574.9570, 14623.00
576.1290, 14478.00
577.3020, 14554.00
578.4740, 14500.00
579.6460, 14703.00
580.8180, 14869.00
581.9900, 15211.00
583.1620, 15754.00
584.3330, 16210.00
585.5040, 16574.00
586.6760, 17056.00
587.8470, 17311.00
589.0180, 16816.00
590.1880, 16513.00
591.3590, 15786.00
592.5290, 14817.00
593.7000, 14137.00
594.8700, 13419.00
596.0400, 12951.00
597.2090, 12716.00
598.3790, 12418.00
599.5490, 12191.00
600.7180, 12159.00
601.8870, 12160.00
603.0560, 12379.00
604.2250, 12523.00
605.3940, 12725.00
606.5620, 12926.00
607.7300, 13273.00
608.8990, 13535.00
610.0670, 13476.00
611.2350, 13810.00
612.4020, 13663.00
613.5700, 13731.00
614.7370, 13799.00
615.9050, 13822.00
617.0720, 13758.00
618.2390, 13657.00
619.4060, 13625.00
620.5720, 13355.00
621.7390, 13235.00
622.9050, 12741.00
624.0710, 12423.00
625.2370, 12097.00
626.4030, 11888.00
627.5690, 11513.00
628.7340, 11471.00
629.9000, 11324.00
631.0650, 11308.00
632.2300, 11449.00
633.3950, 11487.00
634.5600, 11558.00
635.7240, 11775.00
636.8890, 11850.00
638.0530, 12173.00
639.2170, 12129.00
640.3810, 12482.00
641.5450, 12686.00
642.7080, 12704.00
643.8720, 12687.00
645.0350, 12635.00
646.1980, 12572.00
647.3610, 12486.00
648.5240, 12338.73
649.6870, 12298.25
650.8490, 12097.00
652.0120, 12152.00
653.1740, 12261.00
654.3360, 12168.00
655.4980, 12376.00
656.6600, 12696.00
657.8210, 13184.00
658.9830, 13524.00
660.1440, 14027.00
661.3050, 14621.00
662.4660, 15262.00
663.6270, 15592.00
664.7870, 16139.00
665.9480, 16243.00
667.1080, 16585.00
668.2680, 16800.00
669.4280, 17146.00
670.5880, 17587.00
671.7480, 18319.00
672.9070, 19267.00
674.0670, 20253.00
675.2260, 20904.00
676.3850, 21550.00
677.5440, 21686.00
678.7030, 21134.00
679.8610, 20080.00
681.0200, 19117.00
682.1780, 18038.00
683.3360, 16884.00
684.4940, 15811.00
685.6520, 15039.00
686.8090, 14470.67
687.9670, 14156.00
689.1240, 13890.00
690.2810, 13844.00
691.4380, 13905.00
692.5950, 13706.00
693.7520, 13986.00
694.9080, 14283.00
696.0650, 14802.00
697.2210, 15364.00
698.3770, 15954.00
699.5330, 16823.00
700.6880, 18071.00
701.8440, 19804.00
702.9990, 21609.00
704.1550, 24163.00
705.3100, 27021.00
706.4650, 30141.00
707.6190, 34373.00
708.7740, 38862.00
709.9290, 43417.00
711.0830, 47878.00
712.2370, 51478.00
713.3910, 53604.00
714.5450, 53952.00
715.6980, 51784.00
716.8520, 48517.00
718.0050, 44193.00
719.1580, 39282.00
720.3110, 34829.00
721.4640, 30230.00
722.6170, 26959.00
723.7700, 24136.00
724.9220, 21511.00
726.0740, 19784.00
727.2260, 18301.00
728.3780, 17338.00
729.5300, 16291.00
730.6810, 15493.00
731.8330, 14900.00
732.9840, 14465.00
734.1350, 13975.00
735.2860, 13622.88
736.4370, 13255.61
737.5880, 13091.00
738.7380, 12903.00
739.8880, 12833.00
741.0390, 12717.56
742.1890, 12804.00
743.3380, 12467.00
744.4880, 12781.00
745.6380, 12453.00
746.7870, 12402.00
747.9360, 12425.00
749.0850, 12356.00
750.2340, 12253.00
751.3830, 12547.00
752.5310, 12753.00
753.6800, 12647.00
754.8280, 12909.00
755.9760, 13094.00
757.1240, 13493.00
758.2720, 13763.00
759.4190, 14194.00
760.5670, 14657.00
761.7140, 15049.00
762.8610, 15596.00
764.0080, 16220.00
765.1550, 16519.00
766.3020, 16738.00
767.4480, 16634.00
768.5950, 16743.00
769.7410, 16368.00
770.8870, 15785.00
772.0330, 15319.00
773.1780, 14949.00
774.3240, 14357.00
775.4690, 14119.00
776.6140, 13500.00
777.7590, 13089.00
778.9040, 12857.00
780.0490, 12571.00
781.1940, 12372.00
782.3380, 12181.00
783.4820, 12025.00
784.6260, 11838.45
785.7700, 11720.44
786.9140, 11561.00
788.0580, 11500.00
789.2010, 11506.00
790.3450, 11417.00
791.4880, 11356.00
792.6310, 11287.00
793.7730, 11238.00
794.9160, 11184.00
796.0590, 11200.00
797.2010, 11235.00
798.3430, 11249.00
799.4850, 11256.00
800.6270, 11213.00
801.7690, 11290.00
802.9100, 11187.00
804.0520, 11413.00
805.1930, 11552.00
806.3340, 11637.00
807.4750, 11615.00
808.6160, 11629.00
809.7560, 11765.00
810.8970, 11970.00
812.0370, 11833.00
813.1770, 11820.00
814.3170, 11919.00
815.4570, 11757.00
816.5960, 11685.00
817.7360, 11706.00
818.8750, 11436.00
820.0140, 11444.00
821.1530, 11326.00
822.2920, 11242.00
823.4310, 11347.00
824.5690, 11333.00
825.7070, 11323.00
826.8460, 11388.00
827.9840, 11275.00
829.1220, 11449.00
830.2590, 11419.00
831.3970, 11431.00
832.5340, 11337.00
833.6710, 11386.00
834.8080, 11535.00
835.9450, 11663.00
837.0820, 11635.00
838.2190, 11563.00
839.3550, 11644.00
840.4910, 11625.00
841.6270, 11699.00
842.7630, 11769.00
843.8990, 11882.00
845.0350, 11954.73
846.1700, 12050.00
847.3060, 12122.00
848.4410, 12193.00
849.5760, 12258.00
850.7100, 12361.00
851.8450, 12275.00
852.9800, 12238.00
854.1140, 12334.00
855.2480, 12397.00
856.3820, 12511.00
857.5160, 12536.00
858.6500, 12634.91
859.7830, 12708.30
860.9170, 12797.00
862.0500, 12855.00
863.1830, 12934.00
864.3160, 12991.00
865.4480, 13057.24
866.5810, 13133.00
867.7130, 13182.00
868.8460, 13179.00
869.9780, 13231.00
871.1100, 13212.00
872.2410, 13334.00
873.3730, 13245.00
874.5050, 13403.00
875.6360, 13489.00
876.7670, 13551.00
877.8980, 13466.00
879.0290, 13622.00
880.1590, 13581.00
881.2900, 13514.00
882.4200, 13754.00
883.5500, 13675.00
884.6800, 13845.00
885.8100, 13964.00
886.9400, 14069.00
888.0690, 14269.00
889.1990, 14561.00
890.3280, 14869.00
891.4570, 15206.47
892.5860, 15615.00
893.7140, 16048.00
894.8430, 16521.00
895.9710, 17125.00
897.1000, 17944.00
898.2280, 18403.00
899.3560, 18983.00
900.4830, 19488.00
901.6110, 19790.00
902.7380, 19891.82
903.8660, 19758.00
904.9930, 19640.00
906.1200, 19139.00
907.2460, 18647.00
908.3730, 18177.00
909.5000, 17857.00
910.6260, 17362.58
911.7520, 16734.00
912.8780, 16486.00
914.0040, 16061.00
915.1290, 15608.00
916.2550, 15542.00
917.3800, 15376.00
918.5050, 15289.00
919.6300, 15198.94
920.7550, 15062.00
921.8800, 15049.00
923.0040, 14976.00
924.1290, 14943.00
925.2530, 15060.00
926.3770, 15114.00
927.5010, 15239.00
928.6250, 15185.00
929.7480, 15291.00
930.8720, 15064.00
931.9950, 15232.00
933.1180, 15221.00
934.2410, 15070.00
935.3640, 15234.00
936.4860, 15240.00
937.6090, 15259.00
938.7310, 15387.00
939.8530, 15470.00
940.9750, 15849.00
942.0970, 16091.00
943.2180, 16399.00
944.3400, 16689.00
945.4610, 17208.00
946.5820, 17391.00
947.7030, 18302.00
948.8240, 18557.00
949.9450, 19119.00
951.0650, 20099.00
952.1860, 20860.00
953.3060, 21852.00
954.4260, 22917.00
955.5460, 24356.00
956.6650, 25757.00
957.7850, 27425.00
958.9040, 29757.00
960.0230, 31653.00
961.1420, 33698.00
962.2610, 35283.00
963.3800, 36070.00
964.4990, 36250.00
965.6170, 35848.00
966.7350, 34770.00
967.8530, 33784.00
968.9710, 32683.00
970.0890, 32111.00
971.2070, 31773.00
972.3240, 31502.00
973.4410, 32096.00
974.5580, 32943.00
975.6750, 33995.00
976.7920, 34689.00
977.9090, 35566.00
979.0250, 35650.00
980.1410, 35163.00
981.2580, 34734.00
982.3740, 33712.00
983.4890, 32406.00
984.6050, 31315.00
985.7200, 30357.00
986.8360, 29154.00
987.9510, 29031.00
989.0660, 28187.00
990.1810, 28096.00
991.2950, 27877.00
992.4100, 27631.00
993.5240, 27607.00
994.6390, 27969.00
995.7530, 28169.00
996.8660, 28245.00
997.9800, 28580.00
999.0940, 28965.00
1000.207, 29501.00
1001.320, 29420.00
1002.433, 29247.00
1003.546, 28891.00
1004.659, 28403.00
1005.772, 27680.00
1006.884, 26823.00
1007.996, 25674.00
1009.108, 24351.00
1010.220, 23345.00
1011.332, 22183.00
1012.444, 21330.00
1013.555, 20241.00
1014.666, 19477.00
1015.777, 18731.00
1016.888, 18390.00
1017.999, 18022.00
1019.110, 17546.00
1020.220, 17284.00
1021.331, 17325.00
1022.441, 17213.00
1023.551, 17320.00
1024.661, 17189.00
1025.770, 17244.00
1026.880, 17306.00
1027.989, 17063.00
1029.098, 17099.00
1030.207, 16908.00
1031.316, 16859.67
1032.425, 16932.00
1033.533, 16802.00
1034.642, 16849.00
1035.750, 16919.00
1036.858, 16940.00
1037.966, 17110.00
1039.073, 17347.00
1040.181, 17595.00
1041.288, 17761.00
1042.396, 17941.00
1043.503, 17914.00
1044.610, 18071.00
1045.716, 18252.00
1046.823, 18582.00
1047.929, 18988.00
1049.036, 19204.00
1050.142, 19753.00
1051.248, 20178.00
1052.353, 20722.00
1053.459, 20899.00
1054.564, 21190.00
1055.670, 21253.00
1056.775, 21234.00
1057.880, 21366.00
1058.985, 20971.00
1060.089, 20723.00
1061.194, 20198.22
1062.298, 19546.38
1063.402, 18928.00
1064.506, 18182.00
1065.610, 17657.00
1066.713, 17312.00
1067.817, 16884.00
1068.920, 16926.00
1070.023, 16645.00
1071.126, 16549.00
1072.229, 16909.00
1073.332, 16991.00
1074.435, 17361.00
1075.537, 17858.00
1076.639, 18521.00
1077.741, 18818.00
1078.843, 19662.00
1079.945, 20336.00
1081.046, 21012.00
1082.148, 21210.00
1083.249, 21495.00
1084.350, 21019.00
1085.451, 20600.00
1086.551, 19806.00
1087.652, 19092.00
1088.752, 18377.00
1089.853, 17882.00
1090.953, 17368.00
1092.053, 16886.20
1093.152, 16387.00
1094.252, 16151.00
1095.351, 15887.00
1096.451, 15730.00
1097.550, 15578.65
1098.649, 15608.00
1099.748, 15389.00
1100.846, 15418.00
1101.945, 15386.00
1103.043, 15357.00
1104.141, 15375.00
1105.239, 16492.00
1106.337, 17297.00
1107.434, 15024.00
1108.532, 16223.00
1109.629, 14864.00
1110.726, 14892.00
1111.823, 14588.00
1112.920, 14576.00
1114.017, 14623.00
1115.113, 14470.00
1116.210, 14421.00
1117.306, 14404.00
1118.402, 14613.00
1119.498, 14552.00
1120.593, 14619.00
1121.689, 14599.00
1122.784, 14517.21
1123.879, 14628.00
1124.974, 14320.00
1126.069, 14169.00
1127.164, 14029.00
1128.259, 13950.00
1129.353, 13840.00
1130.447, 13711.00
1131.541, 13769.00
1132.635, 13576.00
1133.729, 13613.00
1134.822, 13502.00
1135.916, 13612.00
1137.009, 13501.00
1138.102, 13487.00
1139.195, 13413.00
1140.288, 13429.00
1141.380, 13285.00
1142.473, 13495.00
1143.565, 13477.00
1144.657, 13469.00
1145.749, 13285.00
1146.841, 13535.00
1147.932, 13380.00
1149.024, 13450.00
1150.115, 13427.00
1151.206, 13346.00
1152.297, 13279.00
1153.388, 13375.00
1154.479, 13522.00
1155.569, 13512.00
1156.659, 13382.00
1157.750, 13427.00
1158.839, 13416.00
1159.929, 13343.00
1161.019, 13402.00
1162.108, 13235.00
1163.198, 13430.00
1164.287, 13398.55
1165.376, 13397.00
1166.465, 13497.00
1167.553, 13362.00
1168.642, 13417.00
1169.730, 13420.00
1170.818, 13538.00
1171.906, 13446.00
1172.994, 13382.00
1174.082, 13336.00
1175.170, 13354.00
1176.257, 13515.00
1177.344, 13406.00
1178.431, 13348.00
1179.518, 13494.00
1180.605, 13369.00
1181.691, 13491.00
1182.778, 13441.00
1183.864, 13484.00
1184.950, 13498.00
1186.036, 13394.00
1187.122, 13578.00
1188.207, 13492.17
1189.292, 13602.00
1190.378, 13453.00
1191.463, 13552.00
1192.548, 13528.00
1193.632, 13403.00
1194.717, 13557.00
1195.801, 13446.00
1196.886, 13741.00
1197.970, 13537.00
1199.054, 13530.00
1200.137, 13648.00
1201.221, 13517.00
1202.305, 13576.00
1203.388, 13525.00
1204.471, 13648.00
1205.554, 13669.00
1206.637, 13562.00
1207.719, 13572.00
1208.802, 13444.00
1209.884, 13723.00
1210.966, 13733.00
1212.048, 13611.00
1213.130, 13675.00
1214.212, 13651.00
1215.293, 13802.00
1216.374, 13764.15
1217.456, 13638.00
1218.536, 13726.00
1219.617, 13661.00
1220.698, 13573.00
1221.778, 13678.00
1222.859, 13788.00
1223.939, 13760.00
1225.019, 13706.00
1226.099, 13723.00
1227.178, 13805.00
1228.258, 13705.00
1229.337, 13845.00
1230.417, 13775.00
1231.496, 13781.00
1232.574, 13864.00
1233.653, 13759.00
1234.732, 13888.00
