##NAMES=Axinite-(Fe)
##RRUFFID=R060183
##IDEAL CHEMISTRY=Ca_4_Fe^2+^_2_Al_4_[B_2_Si_8_O_30_](OH)_2_
##LOCALITY=Skagit Bluffs, near Manning Park, British Columbia, Canada
##OWNER=RRUFF
##SOURCE=Lloyd Twaites
##DESCRIPTION=Light-pink transparent axe-head-shaped single crystal
##STATUS=The identification of this mineral has been confirmed by X-ray diffraction and chemical analysis
##URL=rruff.info/R060183
##MEASURED CHEMISTRY=Ca_2.00_(Fe^2+^_0.58_Mn_0.23_Mg_0.19_)Al_2.00_B_1.00_Si_4.00_O_15_(OH)
##PIN_ID=L01743
##ORIENTATION=Laser parallel to (0 1 1). Fiducial mark perpendicular to laser is parallel to -a [-1 0 0]
52.67100, 629.0000
53.91000, 595.0000
55.14900, 612.0000
56.38700, 603.0000
57.62600, 595.0000
58.86400, 615.0000
60.10300, 622.0000
61.34100, 654.0000
62.57900, 654.0000
63.81700, 669.0000
65.05400, 691.0000
66.29200, 748.0000
67.52900, 824.0000
68.76700, 898.0000
70.00400, 996.5723
71.24100, 1115.075
72.47700, 1207.000
73.71400, 1387.347
74.95100, 1491.000
76.18700, 1640.000
77.42300, 1753.000
78.65900, 1842.000
79.89500, 1932.000
81.13100, 2174.000
82.36700, 2511.000
83.60200, 2822.000
84.83700, 3154.000
86.07200, 3283.000
87.30800, 3692.000
88.54200, 4072.000
89.77700, 4763.000
91.01200, 5629.000
92.24600, 6565.000
93.48000, 7653.000
94.71400, 9011.000
95.94800, 10777.00
97.18200, 12830.00
98.41600, 15033.00
99.64900, 17774.00
100.8830, 20335.00
102.1160, 23374.00
103.3490, 26331.00
104.5820, 29998.00
105.8150, 34150.00
107.0470, 37390.00
108.2800, 38306.00
109.5120, 35659.00
110.7440, 29692.00
111.9760, 23876.00
113.2080, 19364.00
114.4400, 16047.00
115.6710, 13150.00
116.9030, 11119.00
118.1340, 9316.000
119.3650, 8181.000
120.5960, 7207.000
121.8270, 6612.000
123.0580, 6422.000
124.2880, 6195.000
125.5190, 5988.000
126.7490, 5790.000
127.9790, 5826.000
129.2090, 6016.000
130.4390, 6290.000
131.6680, 6628.000
132.8980, 6941.000
134.1270, 7394.000
135.3560, 8126.000
136.5850, 8686.000
137.8140, 9100.000
139.0430, 9346.541
140.2710, 9801.000
141.5000, 9421.000
142.7280, 9272.000
143.9560, 9039.000
145.1840, 8963.000
146.4120, 9154.000
147.6390, 9194.000
148.8670, 9586.000
150.0940, 9690.000
151.3210, 9825.000
152.5490, 10143.00
153.7750, 10099.00
155.0020, 10179.00
156.2290, 10529.00
157.4550, 10390.00
158.6810, 10281.00
159.9080, 10433.00
161.1340, 10652.00
162.3590, 11105.00
163.5850, 11994.00
164.8110, 12900.00
166.0360, 14177.00
167.2610, 15402.00
168.4860, 16845.00
169.7110, 18150.00
170.9360, 18853.00
172.1610, 18638.00
173.3850, 17365.00
174.6100, 16013.00
175.8340, 14696.00
177.0580, 13368.00
178.2820, 12234.00
179.5050, 11052.00
180.7290, 10129.00
181.9520, 9441.000
183.1760, 9237.000
184.3990, 9163.000
185.6220, 9140.000
186.8450, 9493.000
188.0670, 10045.00
189.2900, 10920.00
190.5120, 12102.00
191.7340, 13108.00
192.9560, 13679.00
194.1780, 13859.00
195.4000, 14095.00
196.6220, 14734.00
197.8430, 15909.00
199.0640, 17385.00
200.2860, 19478.00
201.5070, 21714.00
202.7270, 24063.00
203.9480, 25776.00
205.1690, 26510.00
206.3890, 25599.00
207.6090, 24373.00
208.8290, 22486.00
210.0490, 20799.00
211.2690, 18473.00
212.4890, 16465.00
213.7080, 14600.00
214.9280, 12747.00
216.1470, 11194.00
217.3660, 10106.00
218.5850, 9102.000
219.8030, 8273.000
221.0220, 7653.000
222.2400, 7124.000
223.4590, 6624.000
224.6770, 6437.000
225.8950, 6207.000
227.1120, 6113.000
228.3300, 5971.000
229.5480, 6070.000
230.7650, 6053.000
231.9820, 6217.000
233.1990, 6594.000
234.4160, 6910.000
235.6330, 7440.000
236.8490, 8088.000
238.0660, 8695.000
239.2820, 9628.000
240.4980, 10408.00
241.7140, 11262.00
242.9300, 11884.00
244.1460, 12254.00
245.3610, 12593.00
246.5770, 12935.00
247.7920, 13113.00
249.0070, 13250.00
250.2220, 13448.00
251.4370, 13825.00
252.6510, 14094.00
253.8660, 14175.00
255.0800, 14105.00
256.2940, 13983.00
257.5080, 14003.00
258.7220, 14514.00
259.9360, 15133.00
261.1490, 15402.00
262.3630, 16226.00
263.5760, 17297.00
264.7890, 18987.00
266.0020, 20886.00
267.2150, 22984.00
268.4270, 25097.00
269.6400, 27333.00
270.8520, 28817.00
272.0640, 29918.00
273.2760, 29886.00
274.4880, 29253.00
275.7000, 27959.00
276.9120, 25877.00
278.1230, 23765.00
279.3340, 21709.00
280.5450, 19904.00
281.7560, 18405.00
282.9670, 17448.00
284.1780, 16332.00
285.3880, 15765.00
286.5980, 15375.00
287.8090, 14990.00
289.0190, 14965.00
290.2290, 15387.00
291.4380, 15689.00
292.6480, 16618.00
293.8570, 17584.00
295.0670, 18749.00
296.2760, 20393.00
297.4850, 22260.00
298.6930, 24440.00
299.9020, 26447.00
301.1110, 29313.00
302.3190, 31469.00
303.5270, 33643.00
304.7350, 35063.00
305.9430, 34423.00
307.1510, 32149.00
308.3580, 29009.00
309.5660, 25432.00
310.7730, 22457.00
311.9800, 19498.00
313.1870, 16948.00
314.3940, 15121.00
315.6010, 13554.00
316.8070, 12438.00
318.0130, 11742.00
319.2200, 11255.00
320.4260, 10928.00
321.6310, 10898.00
322.8370, 10916.00
324.0430, 11248.00
325.2480, 11426.00
326.4540, 11635.00
327.6590, 11780.00
328.8640, 11643.00
330.0680, 11088.00
331.2730, 10569.00
332.4780, 10302.00
333.6820, 10136.00
334.8860, 10281.44
336.0900, 10583.00
337.2940, 11313.00
338.4980, 12172.00
339.7010, 13576.00
340.9050, 15196.00
342.1080, 17152.00
343.3110, 19025.59
344.5140, 21130.00
345.7170, 23371.00
346.9200, 25445.00
348.1220, 27918.00
349.3240, 29656.00
350.5270, 30322.00
351.7290, 29143.00
352.9310, 26253.00
354.1320, 23021.00
355.3340, 20108.00
356.5350, 17280.00
357.7370, 15059.00
358.9380, 12803.00
360.1390, 11394.00
361.3400, 10106.00
362.5400, 9211.000
363.7410, 8547.000
364.9410, 8056.000
366.1410, 7864.000
367.3410, 7564.000
368.5410, 7428.000
369.7410, 7339.000
370.9400, 7273.000
372.1400, 7222.000
373.3390, 7423.000
374.5380, 7659.000
375.7370, 7847.000
376.9360, 8259.000
378.1350, 8751.000
379.3330, 9723.000
380.5310, 10742.00
381.7300, 12160.00
382.9280, 13856.00
384.1260, 15802.00
385.3230, 18110.00
386.5210, 20693.00
387.7180, 22696.00
388.9160, 23657.00
390.1130, 23243.00
391.3100, 21607.00
392.5060, 19717.00
393.7030, 17953.00
394.9000, 16311.00
396.0960, 14688.00
397.2920, 13317.00
398.4880, 12432.00
399.6840, 11575.00
400.8800, 11075.00
402.0750, 10938.00
403.2710, 10921.00
404.4660, 11455.00
405.6610, 12291.00
406.8560, 13865.00
408.0510, 15925.00
409.2450, 18929.00
410.4400, 22534.00
411.6340, 26849.00
412.8280, 32445.00
414.0220, 37948.00
415.2160, 41932.00
416.4100, 41410.00
417.6030, 38435.00
418.7970, 33991.00
419.9900, 30563.00
421.1830, 27848.00
422.3760, 25891.00
423.5690, 24296.00
424.7610, 23332.00
425.9540, 22729.00
427.1460, 21419.00
428.3380, 20410.00
429.5300, 18528.00
430.7220, 16960.00
431.9140, 15194.00
433.1050, 13841.00
434.2970, 12542.00
435.4880, 11658.00
436.6790, 11100.00
437.8700, 10775.00
439.0610, 10931.00
440.2510, 11209.00
441.4420, 11613.00
442.6320, 12036.00
443.8220, 11559.54
445.0120, 11269.00
446.2020, 10428.00
447.3910, 9557.000
448.5810, 8848.000
449.7700, 8287.000
450.9600, 7737.000
452.1490, 7285.000
453.3370, 6962.000
454.5260, 6847.000
455.7150, 6657.000
456.9030, 6582.000
458.0910, 6506.000
459.2800, 6487.000
460.4670, 6418.000
461.6550, 6501.000
462.8430, 6414.000
464.0300, 6464.000
465.2180, 6727.000
466.4050, 6872.000
467.5920, 7094.000
468.7790, 7443.000
469.9650, 7987.000
471.1520, 8469.000
472.3380, 9241.000
473.5250, 10400.00
474.7110, 11831.00
475.8970, 13698.00
477.0820, 16182.00
478.2680, 18755.00
479.4540, 22235.00
480.6390, 25670.00
481.8240, 29230.00
483.0090, 31812.00
484.1940, 31457.00
485.3780, 28988.00
486.5630, 24845.00
487.7470, 21263.00
488.9320, 17953.00
490.1160, 15238.00
491.3000, 12907.00
492.4830, 11289.00
493.6670, 9919.000
494.8500, 9100.000
496.0340, 8528.000
497.2170, 8178.000
498.4000, 7999.000
499.5820, 7866.000
500.7650, 7856.000
501.9480, 7975.000
503.1300, 7941.000
504.3120, 7844.000
505.4940, 7825.000
506.6760, 7760.000
507.8580, 7653.248
509.0390, 7698.000
510.2210, 7368.000
511.4020, 7095.000
512.5830, 6794.000
513.7640, 6820.000
514.9450, 6631.000
516.1250, 6457.000
517.3060, 6317.000
518.4860, 6189.000
519.6660, 6166.000
520.8460, 6160.000
522.0260, 6268.000
523.2060, 6273.000
524.3850, 6441.000
525.5650, 6591.000
526.7440, 6839.000
527.9230, 6982.000
529.1020, 7235.000
530.2810, 7340.000
531.4590, 7608.000
532.6380, 7797.000
533.8160, 7825.000
534.9940, 7910.000
536.1720, 7806.000
537.3500, 7679.000
538.5270, 7486.000
539.7050, 7434.000
540.8820, 7328.000
542.0590, 7196.000
543.2360, 6956.000
544.4130, 6814.000
545.5900, 6738.000
546.7660, 6513.000
547.9430, 6518.000
549.1190, 6415.000
550.2950, 6438.000
551.4710, 6375.000
552.6470, 6474.000
553.8220, 6409.000
554.9980, 6550.000
556.1730, 6816.000
557.3480, 6958.000
558.5230, 7301.000
559.6980, 7656.000
560.8730, 7982.000
562.0470, 8518.000
563.2220, 9070.000
564.3960, 9677.000
565.5700, 10609.00
566.7440, 11555.00
567.9170, 12539.00
569.0910, 13335.00
570.2640, 14235.00
571.4380, 14930.00
572.6110, 15209.00
573.7840, 15313.00
574.9570, 14985.00
576.1290, 14627.00
577.3020, 14303.00
578.4740, 14268.00
579.6460, 14379.00
580.8180, 14662.00
581.9900, 15455.00
583.1620, 16369.00
584.3330, 17587.00
585.5040, 18695.00
586.6760, 19551.00
587.8470, 19891.00
589.0180, 19540.00
590.1880, 18728.00
591.3590, 17055.00
592.5290, 15680.00
593.7000, 14347.00
594.8700, 12723.00
596.0400, 11521.00
597.2090, 10641.00
598.3790, 9734.000
599.5490, 9129.000
600.7180, 8696.000
601.8870, 8313.000
603.0560, 8040.000
604.2250, 7717.000
605.3940, 7807.000
606.5620, 7863.000
607.7300, 7831.000
608.8990, 7925.000
610.0670, 8027.000
611.2350, 8229.000
612.4020, 8358.000
613.5700, 8503.000
614.7370, 8592.000
615.9050, 8548.000
617.0720, 8597.000
618.2390, 8572.000
619.4060, 8375.000
620.5720, 8119.000
621.7390, 7682.000
622.9050, 7337.000
624.0710, 7029.000
625.2370, 6776.000
626.4030, 6523.000
627.5690, 6306.000
628.7340, 6227.000
629.9000, 6064.000
631.0650, 5918.000
632.2300, 5936.000
633.3950, 5969.000
634.5600, 5947.000
635.7240, 6087.000
636.8890, 6036.000
638.0530, 6212.000
639.2170, 6383.000
640.3810, 6357.000
641.5450, 6477.000
642.7080, 6487.000
643.8720, 6485.000
645.0350, 6471.733
646.1980, 6308.000
647.3610, 6344.000
648.5240, 6262.000
649.6870, 6168.000
650.8490, 6147.000
652.0120, 6082.430
653.1740, 6131.000
654.3360, 6028.000
655.4980, 6094.000
656.6600, 6121.000
657.8210, 6216.000
658.9830, 6307.000
660.1440, 6452.000
661.3050, 6551.000
662.4660, 6765.000
663.6270, 6998.000
664.7870, 7284.000
665.9480, 7623.000
667.1080, 8412.000
668.2680, 8872.000
669.4280, 9604.000
670.5880, 10735.00
671.7480, 11646.00
672.9070, 12698.00
674.0670, 13895.00
675.2260, 14590.00
676.3850, 14899.00
677.5440, 14684.00
678.7030, 14127.00
679.8610, 13346.00
681.0200, 12572.00
682.1780, 11643.00
683.3360, 10938.00
684.4940, 10272.00
685.6520, 9691.000
686.8090, 9441.000
687.9670, 9288.000
689.1240, 9118.000
690.2810, 9100.000
691.4380, 9276.000
692.5950, 9509.000
693.7520, 9873.000
694.9080, 10292.00
696.0650, 10916.00
697.2210, 11775.00
698.3770, 12914.00
699.5330, 13983.00
700.6880, 15870.00
701.8440, 17722.00
702.9990, 20449.00
704.1550, 23349.00
705.3100, 27457.00
706.4650, 32148.00
707.6190, 37142.00
708.7740, 42880.00
709.9290, 48391.00
711.0830, 53583.00
712.2370, 56835.00
713.3910, 58018.00
714.5450, 57123.00
715.6980, 54121.00
716.8520, 49115.00
718.0050, 43716.00
719.1580, 38349.00
720.3110, 33332.00
721.4640, 28487.00
722.6170, 24718.00
723.7700, 21380.00
724.9220, 18626.00
726.0740, 16719.00
727.2260, 14896.00
728.3780, 13656.00
729.5300, 12615.00
730.6810, 11742.00
731.8330, 11031.00
732.9840, 10465.00
734.1350, 9912.000
735.2860, 9545.000
736.4370, 9304.000
737.5880, 9015.000
738.7380, 8757.391
739.8880, 8520.000
741.0390, 8329.000
742.1890, 8213.000
743.3380, 8100.000
744.4880, 8094.000
745.6380, 8020.000
746.7870, 8011.000
747.9360, 8011.000
749.0850, 8064.000
750.2340, 7965.000
751.3830, 8154.000
752.5310, 8224.000
753.6800, 8565.000
754.8280, 8797.000
755.9760, 9160.000
757.1240, 9522.000
758.2720, 10048.00
759.4190, 10580.00
760.5670, 11204.00
761.7140, 12093.00
762.8610, 12765.00
764.0080, 13417.00
765.1550, 13952.00
766.3020, 14138.00
767.4480, 14157.00
768.5950, 13941.00
769.7410, 13315.00
770.8870, 12662.00
772.0330, 12035.00
773.1780, 11532.00
774.3240, 10856.00
775.4690, 10191.00
776.6140, 9688.000
777.7590, 9236.000
778.9040, 8853.000
780.0490, 8465.000
781.1940, 8235.000
782.3380, 7881.000
783.4820, 7650.000
784.6260, 7648.000
785.7700, 7383.000
786.9140, 7331.000
788.0580, 7276.000
789.2010, 7252.000
790.3450, 6911.000
791.4880, 6982.000
792.6310, 6870.000
793.7730, 6890.000
794.9160, 6879.000
796.0590, 6824.000
797.2010, 6810.000
798.3430, 6855.471
799.4850, 6843.000
800.6270, 7020.000
801.7690, 7100.000
802.9100, 7285.000
804.0520, 7421.000
805.1930, 7740.000
806.3340, 8040.000
807.4750, 8338.000
808.6160, 8837.000
809.7560, 9215.000
810.8970, 9486.000
812.0370, 9571.000
813.1770, 9539.000
814.3170, 9315.000
815.4570, 8905.000
816.5960, 8693.000
817.7360, 8184.000
818.8750, 7759.000
820.0140, 7588.000
821.1530, 7305.000
822.2920, 7186.000
823.4310, 7075.000
824.5690, 6937.000
825.7070, 6919.000
826.8460, 6901.000
827.9840, 6872.000
829.1220, 6740.000
830.2590, 6893.000
831.3970, 6819.000
832.5340, 6910.134
833.6710, 6971.000
834.8080, 7075.000
835.9450, 7115.000
837.0820, 7142.000
838.2190, 7358.000
839.3550, 7330.000
840.4910, 7418.000
841.6270, 7653.000
842.7630, 7820.000
843.8990, 7885.000
845.0350, 8101.000
846.1700, 8324.000
847.3060, 8525.000
848.4410, 8567.000
849.5760, 8748.000
850.7100, 8666.000
851.8450, 8714.000
852.9800, 8568.000
854.1140, 8478.000
855.2480, 8439.000
856.3820, 8361.000
857.5160, 8192.000
858.6500, 8209.000
859.7830, 8244.000
860.9170, 8147.679
862.0500, 7981.000
863.1830, 8088.000
864.3160, 8138.000
865.4480, 8168.000
866.5810, 8357.000
867.7130, 8455.000
868.8460, 8348.000
869.9780, 8514.000
871.1100, 8787.000
872.2410, 8779.000
873.3730, 9066.000
874.5050, 9301.000
875.6360, 9499.000
876.7670, 9765.000
877.8980, 9951.000
879.0290, 10346.00
880.1590, 10652.94
881.2900, 11134.76
882.4200, 11515.00
883.5500, 12209.00
884.6800, 12916.00
885.8100, 13499.00
886.9400, 14626.00
888.0690, 15569.00
889.1990, 17001.00
890.3280, 18341.00
891.4570, 19929.00
892.5860, 21757.00
893.7140, 23968.00
894.8430, 26248.00
895.9710, 27537.00
897.1000, 29063.00
898.2280, 30291.00
899.3560, 31037.00
900.4830, 31088.00
901.6110, 31211.00
902.7380, 30978.00
903.8660, 30513.00
904.9930, 29944.00
906.1200, 29519.00
907.2460, 29094.00
908.3730, 28314.00
909.5000, 27545.00
910.6260, 26208.00
911.7520, 24927.00
912.8780, 23586.00
914.0040, 21958.00
915.1290, 20520.00
916.2550, 19239.00
917.3800, 17891.00
918.5050, 17129.00
919.6300, 16183.00
920.7550, 15608.00
921.8800, 15202.00
923.0040, 14704.00
924.1290, 14662.00
925.2530, 14667.00
926.3770, 14566.00
927.5010, 14629.00
928.6250, 14481.00
929.7480, 14584.00
930.8720, 14245.00
931.9950, 14023.00
933.1180, 13747.00
934.2410, 13363.00
935.3640, 13193.00
936.4860, 12866.00
937.6090, 12829.00
938.7310, 12898.00
939.8530, 13043.00
940.9750, 13303.00
942.0970, 13701.00
943.2180, 14168.00
944.3400, 14800.80
945.4610, 15572.00
946.5820, 16416.00
947.7030, 17333.00
948.8240, 18471.00
949.9450, 19307.00
951.0650, 20061.00
952.1860, 20781.00
953.3060, 21495.00
954.4260, 22310.00
955.5460, 22794.00
956.6650, 23585.00
957.7850, 24685.00
958.9040, 25864.00
960.0230, 27107.00
961.1420, 28329.00
962.2610, 29217.00
963.3800, 29467.00
964.4990, 29477.00
965.6170, 28789.00
966.7350, 28144.00
967.8530, 27246.00
968.9710, 26492.00
970.0890, 26196.00
971.2070, 26293.55
972.3240, 26549.00
973.4410, 27528.00
974.5580, 28676.00
975.6750, 30187.00
976.7920, 31731.00
977.9090, 33024.00
979.0250, 33912.00
980.1410, 33847.00
981.2580, 33739.00
982.3740, 33604.00
983.4890, 32826.00
984.6050, 32499.00
985.7200, 32265.00
986.8360, 32313.00
987.9510, 32542.00
989.0660, 32653.00
990.1810, 33115.00
991.2950, 33125.00
992.4100, 33172.00
993.5240, 32840.00
994.6390, 32755.00
995.7530, 32770.00
996.8660, 33260.00
997.9800, 34057.00
999.0940, 34731.00
1000.207, 35936.00
1001.320, 37130.00
1002.433, 37959.00
1003.546, 38474.00
1004.659, 38289.00
1005.772, 37637.00
1006.884, 35739.00
1007.996, 33495.00
1009.108, 30672.00
1010.220, 27892.00
1011.332, 25337.00
1012.444, 22770.00
1013.555, 20600.00
1014.666, 18798.00
1015.777, 17328.00
1016.888, 15954.00
1017.999, 14909.00
1019.110, 14073.00
1020.220, 13508.00
1021.331, 13089.00
1022.441, 12923.00
1023.551, 12606.00
1024.661, 12369.00
1025.770, 12178.00
1026.880, 12045.00
1027.989, 11628.00
1029.098, 11371.00
1030.207, 11097.00
1031.316, 10614.00
1032.425, 10324.00
1033.533, 9917.000
1034.642, 9657.000
1035.750, 9339.000
1036.858, 9239.000
1037.966, 8931.000
1039.073, 8987.000
1040.181, 8926.000
1041.288, 8685.000
1042.396, 8605.000
1043.503, 8585.000
1044.610, 8636.000
1045.716, 8427.000
1046.823, 8484.000
1047.929, 8438.000
1049.036, 8500.000
1050.142, 8459.000
1051.248, 8483.000
1052.353, 8388.000
1053.459, 8451.000
1054.564, 8419.000
1055.670, 8422.000
1056.775, 8404.000
1057.880, 8206.000
1058.985, 8180.000
1060.089, 8101.000
1061.194, 8102.000
1062.298, 8060.000
1063.402, 7922.000
1064.506, 7748.000
1065.610, 7691.000
1066.713, 7479.000
1067.817, 7505.000
1068.920, 7379.000
1070.023, 7461.000
1071.126, 7385.000
1072.229, 7381.000
1073.332, 7403.000
1074.435, 7363.000
1075.537, 7442.000
1076.639, 7696.000
1077.741, 7583.000
1078.843, 7841.000
1079.945, 7918.000
1081.046, 7915.000
1082.148, 8045.000
1083.249, 7973.000
1084.350, 7989.000
1085.451, 7950.000
1086.551, 7907.968
1087.652, 7826.000
1088.752, 7827.000
1089.853, 7797.000
1090.953, 7757.000
1092.053, 7840.000
1093.152, 7928.000
1094.252, 7837.000
1095.351, 8037.000
1096.451, 8180.000
1097.550, 8487.000
1098.649, 8692.000
1099.748, 8918.000
1100.846, 9169.000
1101.945, 9395.000
1103.043, 9588.000
1104.141, 9714.000
1105.239, 9854.000
1106.337, 9824.204
1107.434, 9794.000
1108.532, 9652.000
1109.629, 9471.000
1110.726, 9292.000
1111.823, 9084.000
1112.920, 8901.000
1114.017, 8725.000
1115.113, 8402.000
1116.210, 8226.000
1117.306, 8087.000
1118.402, 7947.000
1119.498, 7914.000
1120.593, 7805.000
1121.689, 7725.000
1122.784, 7667.903
1123.879, 7617.000
1124.974, 7546.000
1126.069, 7304.000
1127.164, 7246.000
1128.259, 7016.000
1129.353, 6946.000
1130.447, 6809.000
1131.541, 6858.000
1132.635, 6817.000
1133.729, 6768.000
1134.822, 6768.000
1135.916, 6690.000
1137.009, 6531.000
1138.102, 6588.766
1139.195, 6522.472
1140.288, 6624.000
1141.380, 6527.000
1142.473, 6529.000
1143.565, 6547.000
1144.657, 6524.000
1145.749, 6440.000
1146.841, 6416.000
1147.932, 6473.000
1149.024, 6299.000
1150.115, 6407.000
1151.206, 6350.000
1152.297, 6419.000
1153.388, 6381.000
1154.479, 6291.000
1155.569, 6246.000
1156.659, 6304.000
1157.750, 6342.000
1158.839, 6282.000
1159.929, 6340.000
1161.019, 6335.000
1162.108, 6247.000
1163.198, 6280.000
1164.287, 6169.000
1165.376, 6151.000
1166.465, 6181.000
1167.553, 6287.000
1168.642, 6165.000
1169.730, 6148.000
1170.818, 6077.000
1171.906, 6248.000
1172.994, 6126.000
1174.082, 6187.000
1175.170, 6168.000
1176.257, 6071.000
1177.344, 6112.000
1178.431, 6086.000
1179.518, 6222.000
1180.605, 6136.000
1181.691, 6168.000
1182.778, 6146.000
1183.864, 6260.000
1184.950, 6158.000
1186.036, 6228.000
1187.122, 6130.000
1188.207, 6156.000
1189.292, 6050.000
1190.378, 6160.000
1191.463, 6182.000
1192.548, 6219.000
1193.632, 6181.000
1194.717, 6145.000
1195.801, 6133.000
1196.886, 6107.000
1197.970, 6072.000
1199.054, 6130.000
1200.137, 6170.000
1201.221, 6148.000
1202.305, 6114.000
1203.388, 6218.000
1204.471, 6152.000
1205.554, 6172.000
1206.637, 6078.000
1207.719, 6205.000
1208.802, 6182.000
1209.884, 6112.000
1210.966, 6133.000
1212.048, 6021.000
1213.130, 6087.000
1214.212, 6156.000
1215.293, 6123.000
1216.374, 6104.000
1217.456, 6061.000
1218.536, 6005.000
1219.617, 6163.000
1220.698, 6128.000
1221.778, 6165.000
1222.859, 6079.000
1223.939, 6156.000
1225.019, 6136.000
1226.099, 6098.000
1227.178, 6106.000
1228.258, 6133.000
1229.337, 6129.000
1230.417, 6108.000
1231.496, 6116.000
1232.574, 6125.256
1233.653, 6141.000
1234.732, 6169.000
