##NAMES=Axinite-(Fe)
##RRUFFID=R060183
##IDEAL CHEMISTRY=Ca_4_Fe^2+^_2_Al_4_[B_2_Si_8_O_30_](OH)_2_
##LOCALITY=Skagit Bluffs, near Manning Park, British Columbia, Canada
##OWNER=RRUFF
##SOURCE=Lloyd Twaites
##DESCRIPTION=Light-pink transparent axe-head-shaped single crystal
##STATUS=The identification of this mineral has been confirmed by X-ray diffraction and chemical analysis
##URL=rruff.info/R060183
##MEASURED CHEMISTRY=Ca_2.00_(Fe^2+^_0.58_Mn_0.23_Mg_0.19_)Al_2.00_B_1.00_Si_4.00_O_15_(OH)
##PIN_ID=L01743
##ORIENTATION=Laser parallel to (0 1 1). Fiducial mark perpendicular to laser is parallel to -a [-1 0 0]
52.67100, 1769.000
53.91000, 1688.000
55.14900, 1645.000
56.38700, 1689.000
57.62600, 1649.000
58.86400, 1753.000
60.10300, 1729.000
61.34100, 1901.000
62.57900, 1941.000
63.81700, 1986.000
65.05400, 2147.000
66.29200, 2236.000
67.52900, 2449.000
68.76700, 2720.000
70.00400, 3040.000
71.24100, 3284.000
72.47700, 3426.000
73.71400, 3748.000
74.95100, 4075.000
76.18700, 4450.000
77.42300, 4703.000
78.65900, 4871.000
79.89500, 5194.000
81.13100, 5525.000
82.36700, 5860.000
83.60200, 6197.707
84.83700, 6656.000
86.07200, 6855.000
87.30800, 7074.000
88.54200, 7332.000
89.77700, 7793.000
91.01200, 8488.000
92.24600, 9124.000
93.48000, 9467.000
94.71400, 9828.000
95.94800, 10047.00
97.18200, 10217.00
98.41600, 10913.00
99.64900, 11977.00
100.8830, 13054.00
102.1160, 14693.00
103.3490, 17110.00
104.5820, 19710.00
105.8150, 22859.00
107.0470, 25655.00
108.2800, 26133.00
109.5120, 25077.00
110.7440, 20416.00
111.9760, 16356.00
113.2080, 14329.00
114.4400, 12774.00
115.6710, 11825.00
116.9030, 10901.00
118.1340, 10069.15
119.3650, 9720.000
120.5960, 9090.000
121.8270, 8875.000
123.0580, 8916.000
124.2880, 8958.000
125.5190, 8644.000
126.7490, 8625.000
127.9790, 8891.000
129.2090, 9158.000
130.4390, 9567.000
131.6680, 9890.000
132.8980, 10330.00
134.1270, 10992.00
135.3560, 11910.00
136.5850, 12600.00
137.8140, 13267.00
139.0430, 13757.00
140.2710, 13662.00
141.5000, 13525.00
142.7280, 13556.00
143.9560, 13561.00
145.1840, 13850.00
146.4120, 14459.00
147.6390, 15052.00
148.8670, 15393.00
150.0940, 15119.00
151.3210, 14526.00
152.5490, 13922.00
153.7750, 13555.00
155.0020, 13306.00
156.2290, 13241.00
157.4550, 13166.00
158.6810, 13460.00
159.9080, 13757.00
161.1340, 14648.00
162.3590, 15752.00
163.5850, 17313.00
164.8110, 18985.00
166.0360, 21187.00
167.2610, 23275.00
168.4860, 24979.00
169.7110, 25213.00
170.9360, 24033.00
172.1610, 22111.00
173.3850, 19692.00
174.6100, 17401.00
175.8340, 15548.00
177.0580, 14034.00
178.2820, 12700.00
179.5050, 11789.00
180.7290, 11231.00
181.9520, 10853.00
183.1760, 10792.00
184.3990, 10870.00
185.6220, 11325.00
186.8450, 11868.00
188.0670, 12568.00
189.2900, 13745.00
190.5120, 15238.00
191.7340, 16025.00
192.9560, 16260.00
194.1780, 15832.00
195.4000, 15674.00
196.6220, 15890.00
197.8430, 16412.00
199.0640, 17415.00
200.2860, 18979.00
201.5070, 20839.00
202.7270, 23046.00
203.9480, 24860.00
205.1690, 27021.00
206.3890, 28854.00
207.6090, 30517.00
208.8290, 31211.00
210.0490, 31258.00
211.2690, 30236.00
212.4890, 28619.00
213.7080, 26917.00
214.9280, 25122.00
216.1470, 23539.00
217.3660, 21717.00
218.5850, 19780.00
219.8030, 18053.00
221.0220, 16477.00
222.2400, 15057.00
223.4590, 14107.00
224.6770, 12983.00
225.8950, 12307.00
227.1120, 11876.00
228.3300, 11724.00
229.5480, 11267.00
230.7650, 11056.00
231.9820, 11072.00
233.1990, 11213.00
234.4160, 11420.00
235.6330, 11552.00
236.8490, 11754.00
238.0660, 11893.00
239.2820, 12121.00
240.4980, 12511.00
241.7140, 12891.00
242.9300, 13296.00
244.1460, 13836.64
245.3610, 14408.60
246.5770, 15042.00
247.7920, 15799.00
249.0070, 16571.00
250.2220, 17463.00
251.4370, 18321.00
252.6510, 19029.00
253.8660, 19194.00
255.0800, 18860.00
256.2940, 18284.00
257.5080, 17854.00
258.7220, 18206.00
259.9360, 18423.00
261.1490, 18080.00
262.3630, 18728.00
263.5760, 19561.00
264.7890, 21108.00
266.0020, 22846.00
267.2150, 24606.00
268.4270, 26786.00
269.6400, 28578.00
270.8520, 30149.00
272.0640, 30758.00
273.2760, 30789.00
274.4880, 30505.00
275.7000, 29247.00
276.9120, 27563.00
278.1230, 25341.00
279.3340, 23212.00
280.5450, 21446.00
281.7560, 20376.00
282.9670, 19526.00
284.1780, 19400.00
285.3880, 19812.00
286.5980, 20502.00
287.8090, 21231.00
289.0190, 22451.00
290.2290, 23865.00
291.4380, 25219.00
292.6480, 26551.00
293.8570, 27697.00
295.0670, 28339.00
296.2760, 28752.00
297.4850, 28683.00
298.6930, 28511.00
299.9020, 28205.00
301.1110, 28350.00
302.3190, 28148.00
303.5270, 27848.00
304.7350, 27301.00
305.9430, 26997.00
307.1510, 26187.00
308.3580, 25816.00
309.5660, 26114.00
310.7730, 27130.00
311.9800, 29121.00
313.1870, 31526.00
314.3940, 34492.00
315.6010, 37234.00
316.8070, 38511.00
318.0130, 38048.00
319.2200, 35781.00
320.4260, 32348.00
321.6310, 28777.00
322.8370, 25102.00
324.0430, 22403.00
325.2480, 20227.00
326.4540, 18807.00
327.6590, 17600.00
328.8640, 16924.00
330.0680, 16550.00
331.2730, 16454.00
332.4780, 16566.00
333.6820, 17585.00
334.8860, 18923.00
336.0900, 20742.00
337.2940, 23227.00
338.4980, 26256.00
339.7010, 29635.00
340.9050, 32003.00
342.1080, 33059.00
343.3110, 31912.00
344.5140, 29361.00
345.7170, 27141.00
346.9200, 25034.00
348.1220, 23088.00
349.3240, 21562.00
350.5270, 19891.00
351.7290, 18316.00
352.9310, 16774.00
354.1320, 15440.00
355.3340, 14073.00
356.5350, 13275.00
357.7370, 12380.00
358.9380, 11754.00
360.1390, 11346.00
361.3400, 10912.00
362.5400, 10656.00
363.7410, 10610.00
364.9410, 10300.00
366.1410, 10314.00
367.3410, 10168.00
368.5410, 10061.00
369.7410, 10044.00
370.9400, 10158.00
372.1400, 10219.00
373.3390, 10228.00
374.5380, 10622.00
375.7370, 10681.00
376.9360, 11107.00
378.1350, 11629.00
379.3330, 12204.00
380.5310, 13035.00
381.7300, 14270.00
382.9280, 15611.00
384.1260, 16976.00
385.3230, 17952.00
386.5210, 18518.00
387.7180, 18643.00
388.9160, 18327.00
390.1130, 17880.00
391.3100, 17424.00
392.5060, 16689.00
393.7030, 15835.00
394.9000, 14804.00
396.0960, 14067.00
397.2920, 13391.00
398.4880, 12858.00
399.6840, 12473.00
400.8800, 12128.00
402.0750, 11956.00
403.2710, 11898.00
404.4660, 12271.00
405.6610, 12419.00
406.8560, 13006.00
408.0510, 13510.00
409.2450, 14645.00
410.4400, 15927.00
411.6340, 17396.00
412.8280, 19415.00
414.0220, 21598.00
415.2160, 22600.00
416.4100, 22642.00
417.6030, 22247.00
418.7970, 22356.00
419.9900, 22858.00
421.1830, 24097.00
422.3760, 25377.00
423.5690, 27122.00
424.7610, 28813.00
425.9540, 30419.00
427.1460, 31924.00
428.3380, 32586.00
429.5300, 32190.00
430.7220, 30732.00
431.9140, 28042.00
433.1050, 25542.00
434.2970, 22783.00
435.4880, 20824.00
436.6790, 19316.00
437.8700, 18864.00
439.0610, 18832.00
440.2510, 19300.00
441.4420, 19981.00
442.6320, 20350.00
443.8220, 20557.00
445.0120, 20304.00
446.2020, 19981.00
447.3910, 16337.00
448.5810, 13677.00
449.7700, 12742.00
450.9600, 11960.00
452.1490, 11491.00
453.3370, 11105.00
454.5260, 10655.00
455.7150, 10504.00
456.9030, 10125.00
458.0910, 10083.00
459.2800, 10085.00
460.4670, 9954.000
461.6550, 9842.000
462.8430, 9799.000
464.0300, 9803.000
465.2180, 9905.000
466.4050, 9781.000
467.5920, 9896.000
468.7790, 9907.000
469.9650, 9968.000
471.1520, 10048.00
472.3380, 10049.00
473.5250, 10103.00
474.7110, 10427.00
475.8970, 10637.00
477.0820, 11083.00
478.2680, 11522.00
479.4540, 11803.00
480.6390, 12340.00
481.8240, 12685.00
483.0090, 12927.00
484.1940, 14205.00
485.3780, 14329.00
486.5630, 12923.00
487.7470, 11372.00
488.9320, 11072.00
490.1160, 10475.00
491.3000, 10113.00
492.4830, 9961.000
493.6670, 9742.000
494.8500, 9764.000
496.0340, 9720.000
497.2170, 9683.000
498.4000, 9825.000
499.5820, 9710.000
500.7650, 9814.000
501.9480, 9963.000
503.1300, 9949.000
504.3120, 10098.00
505.4940, 10249.00
506.6760, 10189.00
507.8580, 10278.00
509.0390, 10379.00
510.2210, 10381.00
511.4020, 10231.00
512.5830, 10209.00
513.7640, 10132.00
514.9450, 9924.000
516.1250, 9846.000
517.3060, 9720.000
518.4860, 9737.000
519.6660, 9712.000
520.8460, 9811.000
522.0260, 9821.586
523.2060, 9813.000
524.3850, 9911.000
525.5650, 9982.000
526.7440, 10019.00
527.9230, 10170.00
529.1020, 10465.00
530.2810, 10558.00
531.4590, 10871.00
532.6380, 11164.00
533.8160, 11411.00
534.9940, 12048.00
536.1720, 12505.00
537.3500, 13292.00
538.5270, 14196.00
539.7050, 15149.00
540.8820, 15862.00
542.0590, 16567.00
543.2360, 17386.00
544.4130, 17488.00
545.5900, 17154.00
546.7660, 17457.00
547.9430, 16527.00
549.1190, 16046.00
550.2950, 15613.00
551.4710, 15269.00
552.6470, 15300.00
553.8220, 15492.00
554.9980, 15766.00
556.1730, 16374.00
557.3480, 16707.00
558.5230, 16917.00
559.6980, 16607.39
560.8730, 16386.00
562.0470, 15523.00
563.2220, 15036.00
564.3960, 14437.00
565.5700, 14254.00
566.7440, 14160.00
567.9170, 14266.00
569.0910, 14288.00
570.2640, 14305.00
571.4380, 14564.00
572.6110, 14322.00
573.7840, 14512.00
574.9570, 14036.00
576.1290, 13962.00
577.3020, 14052.00
578.4740, 14040.00
579.6460, 14191.00
580.8180, 14500.00
581.9900, 14990.00
583.1620, 15599.00
584.3330, 16087.00
585.5040, 16743.00
586.6760, 16921.00
587.8470, 16881.00
589.0180, 16161.00
590.1880, 15342.00
591.3590, 14373.00
592.5290, 13501.00
593.7000, 12866.00
594.8700, 12337.00
596.0400, 11781.00
597.2090, 11468.00
598.3790, 11260.00
599.5490, 11124.00
600.7180, 10990.00
601.8870, 10952.00
603.0560, 10941.00
604.2250, 11021.00
605.3940, 10986.00
606.5620, 11167.00
607.7300, 11325.00
608.8990, 11499.00
610.0670, 11859.24
611.2350, 12609.00
612.4020, 12517.00
613.5700, 12967.00
614.7370, 13065.00
615.9050, 13021.85
617.0720, 13386.00
618.2390, 12882.00
619.4060, 12687.00
620.5720, 12542.00
621.7390, 12137.00
622.9050, 11795.00
624.0710, 11646.00
625.2370, 11170.00
626.4030, 11160.00
627.5690, 10966.00
628.7340, 10914.00
629.9000, 10807.00
631.0650, 11008.00
632.2300, 11146.00
633.3950, 11225.00
634.5600, 11697.00
635.7240, 11999.00
636.8890, 12470.00
638.0530, 13019.00
639.2170, 13368.00
640.3810, 13699.00
641.5450, 13974.00
642.7080, 13895.00
643.8720, 13890.00
645.0350, 13648.00
646.1980, 13141.00
647.3610, 12672.00
648.5240, 12255.00
649.6870, 11959.00
650.8490, 11584.00
652.0120, 11294.00
653.1740, 11160.00
654.3360, 11035.00
655.4980, 10783.00
656.6600, 10739.00
657.8210, 10957.00
658.9830, 10905.00
660.1440, 10999.00
661.3050, 11015.00
662.4660, 11321.00
663.6270, 11525.00
664.7870, 12021.00
665.9480, 12442.00
667.1080, 13063.00
668.2680, 13738.00
669.4280, 14677.00
670.5880, 15844.00
671.7480, 17193.00
672.9070, 18310.00
674.0670, 19598.00
675.2260, 20266.00
676.3850, 20292.00
677.5440, 19930.00
678.7030, 18845.00
679.8610, 17634.00
681.0200, 16558.00
682.1780, 15588.00
683.3360, 14599.00
684.4940, 14050.00
685.6520, 13527.00
686.8090, 13277.00
687.9670, 13122.00
689.1240, 13013.00
690.2810, 13104.00
691.4380, 13190.00
692.5950, 13501.00
693.7520, 13893.82
694.9080, 14250.00
696.0650, 15060.00
697.2210, 15761.00
698.3770, 16659.00
699.5330, 18016.00
700.6880, 19936.00
701.8440, 21897.00
702.9990, 24749.00
704.1550, 27941.00
705.3100, 31998.00
706.4650, 36817.00
707.6190, 42665.00
708.7740, 48299.00
709.9290, 53774.00
711.0830, 58649.00
712.2370, 61366.00
713.3910, 61298.00
714.5450, 59277.00
715.6980, 54647.00
716.8520, 49576.00
718.0050, 43475.00
719.1580, 38230.00
720.3110, 33366.00
721.4640, 29427.00
722.6170, 26057.00
723.7700, 23469.00
724.9220, 21166.00
726.0740, 19552.00
727.2260, 18086.00
728.3780, 16934.00
729.5300, 16211.00
730.6810, 15393.60
731.8330, 14934.00
732.9840, 14402.00
734.1350, 14009.00
735.2860, 13591.00
736.4370, 13193.00
737.5880, 13097.00
738.7380, 12982.00
739.8880, 12609.00
741.0390, 12594.00
742.1890, 12502.00
743.3380, 12288.00
744.4880, 12287.00
745.6380, 12287.00
746.7870, 12173.00
747.9360, 12287.00
749.0850, 12143.00
750.2340, 12281.00
751.3830, 12362.00
752.5310, 12548.00
753.6800, 12773.00
754.8280, 12995.00
755.9760, 13330.00
757.1240, 13730.00
758.2720, 14276.00
759.4190, 14719.00
760.5670, 15329.00
761.7140, 16140.00
762.8610, 16641.00
764.0080, 17254.00
765.1550, 17455.00
766.3020, 17598.00
767.4480, 17583.00
768.5950, 17246.00
769.7410, 16754.00
770.8870, 16039.00
772.0330, 15459.00
773.1780, 14642.00
774.3240, 14119.00
775.4690, 13777.00
776.6140, 13207.00
777.7590, 12797.00
778.9040, 12401.00
780.0490, 12182.00
781.1940, 11948.00
782.3380, 11649.00
783.4820, 11583.00
784.6260, 11196.00
785.7700, 11255.00
786.9140, 11113.67
788.0580, 11007.00
789.2010, 10967.00
790.3450, 10961.00
791.4880, 10801.00
792.6310, 10808.00
793.7730, 10666.00
794.9160, 10712.00
796.0590, 10674.00
797.2010, 10706.00
798.3430, 10653.00
799.4850, 10663.00
800.6270, 10727.00
801.7690, 10779.00
802.9100, 10785.00
804.0520, 10802.00
805.1930, 10918.00
806.3340, 11052.00
807.4750, 11014.00
808.6160, 11148.00
809.7560, 11264.00
810.8970, 11335.00
812.0370, 11394.00
813.1770, 11250.00
814.3170, 11152.00
815.4570, 10978.00
816.5960, 10917.00
817.7360, 10902.00
818.8750, 10734.00
820.0140, 10676.00
821.1530, 10545.00
822.2920, 10449.00
823.4310, 10462.00
824.5690, 10301.00
825.7070, 10361.00
826.8460, 10419.00
827.9840, 10577.00
829.1220, 10304.00
830.2590, 10455.00
831.3970, 10332.00
832.5340, 10327.00
833.6710, 10466.00
834.8080, 10446.00
835.9450, 10512.00
837.0820, 10538.00
838.2190, 10441.00
839.3550, 10500.00
840.4910, 10408.00
841.6270, 10605.00
842.7630, 10813.00
843.8990, 10762.00
845.0350, 10600.00
846.1700, 10958.00
847.3060, 10828.00
848.4410, 10954.00
849.5760, 11074.00
850.7100, 11053.00
851.8450, 11071.00
852.9800, 11174.00
854.1140, 11241.00
855.2480, 11164.00
856.3820, 11438.00
857.5160, 11391.00
858.6500, 11384.00
859.7830, 11724.00
860.9170, 11744.00
862.0500, 11810.00
863.1830, 11847.00
864.3160, 11892.35
865.4480, 11922.00
866.5810, 11986.00
867.7130, 12021.43
868.8460, 12065.00
869.9780, 12046.00
871.1100, 12065.00
872.2410, 11983.00
873.3730, 11964.00
874.5050, 11795.00
875.6360, 11953.00
876.7670, 11958.00
877.8980, 11786.00
879.0290, 11887.55
880.1590, 11840.00
881.2900, 11872.00
882.4200, 11874.00
883.5500, 11845.00
884.6800, 11793.00
885.8100, 11865.00
886.9400, 11822.00
888.0690, 12030.00
889.1990, 12079.00
890.3280, 12191.00
891.4570, 12288.23
892.5860, 12373.00
893.7140, 12493.00
894.8430, 12692.00
895.9710, 12928.00
897.1000, 13143.00
898.2280, 13301.74
899.3560, 13539.00
900.4830, 13578.00
901.6110, 13682.00
902.7380, 13750.00
903.8660, 13627.00
904.9930, 13326.00
906.1200, 13101.00
907.2460, 12902.00
908.3730, 12826.00
909.5000, 12549.00
910.6260, 12426.00
911.7520, 12256.00
912.8780, 12057.00
914.0040, 12139.00
915.1290, 12027.00
916.2550, 12080.00
917.3800, 12105.00
918.5050, 12186.00
919.6300, 12078.00
920.7550, 12274.00
921.8800, 12223.00
923.0040, 12469.00
924.1290, 12293.00
925.2530, 12699.00
926.3770, 12761.00
927.5010, 12932.00
928.6250, 13028.00
929.7480, 13106.00
930.8720, 13208.00
931.9950, 13264.00
933.1180, 13264.00
934.2410, 13403.00
935.3640, 13432.00
936.4860, 13584.00
937.6090, 13663.00
938.7310, 13765.00
939.8530, 14121.00
940.9750, 14311.00
942.0970, 14515.00
943.2180, 15017.00
944.3400, 15449.00
945.4610, 15963.00
946.5820, 16557.00
947.7030, 17218.00
948.8240, 18040.00
949.9450, 18880.00
951.0650, 19747.00
952.1860, 20984.00
953.3060, 22304.00
954.4260, 23734.00
955.5460, 26099.00
956.6650, 28031.00
957.7850, 31132.00
958.9040, 33772.00
960.0230, 36711.00
961.1420, 39396.00
962.2610, 40749.00
963.3800, 41382.00
964.4990, 40840.00
965.6170, 39452.00
966.7350, 37151.00
967.8530, 35650.00
968.9710, 34229.00
970.0890, 33422.00
971.2070, 33363.00
972.3240, 33952.00
973.4410, 35191.00
974.5580, 36540.00
975.6750, 37908.00
976.7920, 39210.00
977.9090, 39696.00
979.0250, 39838.00
980.1410, 38807.00
981.2580, 36937.00
982.3740, 34723.00
983.4890, 32670.00
984.6050, 30634.00
985.7200, 28650.00
986.8360, 27433.00
987.9510, 26068.00
989.0660, 25205.00
990.1810, 24471.00
991.2950, 23981.00
992.4100, 23778.00
993.5240, 23405.00
994.6390, 23541.00
995.7530, 23696.00
996.8660, 23630.00
997.9800, 24017.00
999.0940, 24215.00
1000.207, 24333.00
1001.320, 24327.00
1002.433, 24313.00
1003.546, 23919.00
1004.659, 23450.00
1005.772, 22636.00
1006.884, 21603.00
1007.996, 20864.00
1009.108, 19893.00
1010.220, 18780.00
1011.332, 17880.00
1012.444, 16756.00
1013.555, 16068.00
1014.666, 15471.00
1015.777, 15024.00
1016.888, 14647.00
1017.999, 14420.00
1019.110, 14103.00
1020.220, 13939.00
1021.331, 13935.00
1022.441, 13905.00
1023.551, 13941.00
1024.661, 14011.00
1025.770, 13983.00
1026.880, 14025.00
1027.989, 13866.00
1029.098, 13920.00
1030.207, 13765.00
1031.316, 13796.00
1032.425, 13584.00
1033.533, 13595.00
1034.642, 13652.00
1035.750, 13701.00
1036.858, 13756.00
1037.966, 13892.00
1039.073, 13808.00
1040.181, 14035.00
1041.288, 13969.00
1042.396, 14067.00
1043.503, 14231.00
1044.610, 14226.00
1045.716, 14486.00
1046.823, 14745.00
1047.929, 15070.00
1049.036, 15543.00
1050.142, 16394.00
1051.248, 17063.00
1052.353, 16951.00
1053.459, 17438.00
1054.564, 17688.00
1055.670, 17691.00
1056.775, 17772.00
1057.880, 17399.00
1058.985, 17273.00
1060.089, 16856.00
1061.194, 16289.00
1062.298, 15891.00
1063.402, 15312.00
1064.506, 14830.00
1065.610, 14643.00
1066.713, 14367.00
1067.817, 14082.00
1068.920, 14231.00
1070.023, 14228.00
1071.126, 14309.00
1072.229, 14595.00
1073.332, 15169.00
1074.435, 15860.00
1075.537, 16507.00
1076.639, 17554.00
1077.741, 18686.00
1078.843, 19537.00
1079.945, 20811.00
1081.046, 21909.00
1082.148, 22213.00
1083.249, 22028.00
1084.350, 21697.00
1085.451, 20829.00
1086.551, 19486.00
1087.652, 18235.00
1088.752, 17346.00
1089.853, 16423.00
1090.953, 15618.00
1092.053, 14897.00
1093.152, 14427.00
1094.252, 14060.00
1095.351, 13670.00
1096.451, 13387.26
1097.550, 13159.00
1098.649, 12952.00
1099.748, 12825.00
1100.846, 12740.00
1101.945, 12532.00
1103.043, 12372.00
1104.141, 12276.00
1105.239, 12120.41
1106.337, 12096.00
1107.434, 11919.00
1108.532, 11839.00
1109.629, 11804.00
1110.726, 11853.00
1111.823, 11657.00
1112.920, 11572.00
1114.017, 11383.00
1115.113, 11466.00
1116.210, 11450.00
1117.306, 11245.00
1118.402, 11322.00
1119.498, 11262.00
1120.593, 11194.00
1121.689, 11129.00
1122.784, 11046.00
1123.879, 11185.00
1124.974, 11116.00
1126.069, 11022.00
1127.164, 11097.00
1128.259, 11040.00
1129.353, 11010.00
1130.447, 10998.64
1131.541, 10894.00
1132.635, 10934.00
1133.729, 10802.00
1134.822, 10793.00
1135.916, 10775.00
1137.009, 10756.00
1138.102, 10829.00
1139.195, 10754.00
1140.288, 10804.00
1141.380, 10726.00
1142.473, 10691.00
1143.565, 10721.00
1144.657, 10648.00
1145.749, 10794.00
1146.841, 10686.00
1147.932, 10611.00
1149.024, 10836.00
1150.115, 10712.00
1151.206, 10708.00
1152.297, 10601.00
1153.388, 10754.00
1154.479, 10784.00
1155.569, 10689.00
1156.659, 10580.00
1157.750, 10693.00
1158.839, 10691.00
1159.929, 10762.00
1161.019, 10631.00
1162.108, 10632.00
1163.198, 10449.00
1164.287, 10661.00
1165.376, 10730.00
1166.465, 10524.00
1167.553, 10535.00
1168.642, 10587.00
1169.730, 10603.00
1170.818, 10551.00
1171.906, 10434.00
1172.994, 10478.00
1174.082, 10404.00
1175.170, 10421.00
1176.257, 10510.00
1177.344, 10559.00
1178.431, 10589.00
1179.518, 10478.00
1180.605, 10598.00
1181.691, 10580.00
1182.778, 10617.00
1183.864, 10438.00
1184.950, 10461.00
1186.036, 10559.00
1187.122, 10656.00
1188.207, 10474.00
1189.292, 10571.00
1190.378, 10518.00
1191.463, 10533.00
1192.548, 10510.00
1193.632, 10502.00
1194.717, 10384.00
1195.801, 10480.00
1196.886, 10401.00
1197.970, 10409.00
1199.054, 10468.00
1200.137, 10459.00
1201.221, 10411.00
1202.305, 10461.00
1203.388, 10404.00
1204.471, 10316.00
1205.554, 10434.00
1206.637, 10484.00
1207.719, 10401.00
1208.802, 10444.00
1209.884, 10309.00
1210.966, 10467.00
1212.048, 10495.00
1213.130, 10339.00
1214.212, 10477.00
1215.293, 10493.00
1216.374, 10404.00
1217.456, 10407.00
1218.536, 10391.00
1219.617, 10376.00
1220.698, 10247.00
1221.778, 10429.00
1222.859, 10515.00
1223.939, 10366.00
1225.019, 10380.00
1226.099, 10359.00
1227.178, 10486.00
1228.258, 10457.23
1229.337, 10460.00
1230.417, 10457.00
1231.496, 10444.00
1232.574, 10384.00
1233.653, 10383.00
1234.732, 10470.00
