##NAMES=Axinite-(Fe)
##RRUFFID=R060183
##IDEAL CHEMISTRY=Ca_4_Fe^2+^_2_Al_4_[B_2_Si_8_O_30_](OH)_2_
##LOCALITY=Skagit Bluffs, near Manning Park, British Columbia, Canada
##OWNER=RRUFF
##SOURCE=Lloyd Twaites
##DESCRIPTION=Light-pink transparent axe-head-shaped single crystal
##STATUS=The identification of this mineral has been confirmed by X-ray diffraction and chemical analysis
##URL=rruff.info/R060183
##MEASURED CHEMISTRY=Ca_2.00_(Fe^2+^_0.58_Mn_0.23_Mg_0.19_)Al_2.00_B_1.00_Si_4.00_O_15_(OH)
##PIN_ID=L00943
##ORIENTATION=Laser parallel to c* (0 0 1). Fiducial mark perpendicular to laser is parallel to a [1 0 0]
52.67100, 568.0000
53.91000, 569.0000
55.14900, 565.0000
56.38700, 578.0000
57.62600, 576.0000
58.86400, 587.0000
60.10300, 585.0880
61.34100, 644.0000
62.57900, 592.0000
63.81700, 623.0000
65.05400, 653.0000
66.29200, 840.0000
67.52900, 900.7526
68.76700, 894.0000
70.00400, 1087.000
71.24100, 1130.000
72.47700, 1091.000
73.71400, 1111.000
74.95100, 1240.000
76.18700, 1436.000
77.42300, 1577.000
78.65900, 1612.000
79.89500, 1696.000
81.13100, 1910.000
82.36700, 2192.000
83.60200, 2440.068
84.83700, 2741.741
86.07200, 3075.000
87.30800, 3445.000
88.54200, 3752.000
89.77700, 4263.000
91.01200, 5101.000
92.24600, 6059.000
93.48000, 6634.000
94.71400, 7550.000
95.94800, 8610.000
97.18200, 9717.000
98.41600, 11175.00
99.64900, 12715.00
100.8830, 14213.00
102.1160, 15218.00
103.3490, 16345.00
104.5820, 17395.00
105.8150, 19391.00
107.0470, 21357.00
108.2800, 24006.00
109.5120, 24781.00
110.7440, 21764.00
111.9760, 19259.00
113.2080, 16518.00
114.4400, 14260.00
115.6710, 12668.00
116.9030, 10987.00
118.1340, 9766.000
119.3650, 8875.000
120.5960, 8302.000
121.8270, 7878.000
123.0580, 7699.000
124.2880, 7326.832
125.5190, 7279.000
126.7490, 6981.000
127.9790, 6823.000
129.2090, 6880.000
130.4390, 6873.000
131.6680, 6988.000
132.8980, 7033.000
134.1270, 7520.000
135.3560, 7951.000
136.5850, 8539.000
137.8140, 9374.000
139.0430, 10024.00
140.2710, 10640.00
141.5000, 10959.00
142.7280, 11241.00
143.9560, 11877.00
145.1840, 12869.00
146.4120, 14225.00
147.6390, 16032.00
148.8670, 17920.00
150.0940, 19132.00
151.3210, 19710.00
152.5490, 19019.00
153.7750, 17289.00
155.0020, 15729.00
156.2290, 14286.00
157.4550, 12962.00
158.6810, 11963.00
159.9080, 11355.00
161.1340, 11299.00
162.3590, 11607.00
163.5850, 12196.00
164.8110, 13074.00
166.0360, 14522.00
167.2610, 16275.00
168.4860, 18478.00
169.7110, 20666.00
170.9360, 21956.00
172.1610, 22360.00
173.3850, 21712.00
174.6100, 20209.00
175.8340, 18432.00
177.0580, 16565.00
178.2820, 15010.00
179.5050, 13360.00
180.7290, 12223.00
181.9520, 10956.00
183.1760, 10314.00
184.3990, 9944.000
185.6220, 9751.000
186.8450, 9992.000
188.0670, 10362.00
189.2900, 11070.00
190.5120, 12329.00
191.7340, 13786.00
192.9560, 15037.00
194.1780, 15604.00
195.4000, 15563.00
196.6220, 15432.00
197.8430, 14843.00
199.0640, 14818.00
200.2860, 15031.00
201.5070, 15919.00
202.7270, 17202.00
203.9480, 18550.00
205.1690, 19697.00
206.3890, 20531.00
207.6090, 21531.00
208.8290, 21863.00
210.0490, 21279.00
211.2690, 20774.00
212.4890, 19822.00
213.7080, 19181.00
214.9280, 18584.00
216.1470, 17855.00
217.3660, 17281.00
218.5850, 16620.00
219.8030, 15616.00
221.0220, 14332.00
222.2400, 12809.00
223.4590, 11505.00
224.6770, 10297.00
225.8950, 9312.000
227.1120, 8587.000
228.3300, 8134.000
229.5480, 7944.000
230.7650, 7716.000
231.9820, 7772.000
233.1990, 7946.000
234.4160, 8094.000
235.6330, 8595.000
236.8490, 9073.000
238.0660, 9714.000
239.2820, 10459.00
240.4980, 11137.00
241.7140, 11836.00
242.9300, 12282.00
244.1460, 12753.00
245.3610, 12846.00
246.5770, 12843.00
247.7920, 12946.00
249.0070, 12955.00
250.2220, 13133.00
251.4370, 13622.00
252.6510, 13677.00
253.8660, 14284.00
255.0800, 14167.00
256.2940, 14223.00
257.5080, 14106.00
258.7220, 14059.65
259.9360, 14015.29
261.1490, 14076.00
262.3630, 14208.00
263.5760, 14549.00
264.7890, 15378.00
266.0020, 16379.00
267.2150, 17554.00
268.4270, 18849.00
269.6400, 20262.00
270.8520, 21650.00
272.0640, 22832.00
273.2760, 23615.00
274.4880, 24075.00
275.7000, 23809.00
276.9120, 23147.00
278.1230, 22149.00
279.3340, 20701.00
280.5450, 19728.00
281.7560, 18726.00
282.9670, 17727.00
284.1780, 17049.00
285.3880, 16556.00
286.5980, 16036.00
287.8090, 15632.00
289.0190, 15228.00
290.2290, 14957.00
291.4380, 14741.00
292.6480, 14838.00
293.8570, 14789.00
295.0670, 15200.00
296.2760, 15681.00
297.4850, 15965.00
298.6930, 17156.00
299.9020, 18055.00
301.1110, 19515.00
302.3190, 21429.00
303.5270, 23463.00
304.7350, 25090.00
305.9430, 26605.00
307.1510, 26832.00
308.3580, 26428.00
309.5660, 24937.00
310.7730, 23396.00
311.9800, 21836.00
313.1870, 20638.00
314.3940, 19855.00
315.6010, 20114.00
316.8070, 20591.00
318.0130, 20925.00
319.2200, 21056.00
320.4260, 20846.00
321.6310, 19670.00
322.8370, 18588.00
324.0430, 17806.00
325.2480, 17136.00
326.4540, 16372.00
327.6590, 16137.00
328.8640, 16042.00
330.0680, 15820.00
331.2730, 15470.00
332.4780, 15444.00
333.6820, 15766.00
334.8860, 16352.00
336.0900, 17164.00
337.2940, 18535.00
338.4980, 20197.00
339.7010, 22206.00
340.9050, 24046.00
342.1080, 25819.00
343.3110, 26333.00
344.5140, 26090.00
345.7170, 25445.00
346.9200, 24606.00
348.1220, 24075.00
349.3240, 23540.00
350.5270, 22886.00
351.7290, 22215.00
352.9310, 20667.00
354.1320, 18858.00
355.3340, 16724.00
356.5350, 14570.00
357.7370, 12802.00
358.9380, 11327.00
360.1390, 10244.00
361.3400, 9236.000
362.5400, 8699.000
363.7410, 8406.000
364.9410, 8169.000
366.1410, 7996.000
367.3410, 7961.092
368.5410, 7999.000
369.7410, 8131.000
370.9400, 8385.000
372.1400, 8711.000
373.3390, 8798.000
374.5380, 8937.000
375.7370, 9142.000
376.9360, 9324.000
378.1350, 9593.000
379.3330, 10179.00
380.5310, 10866.00
381.7300, 11911.00
382.9280, 13305.00
384.1260, 14964.00
385.3230, 16990.00
386.5210, 18980.00
387.7180, 21288.00
388.9160, 23348.00
390.1130, 24849.00
391.3100, 24857.00
392.5060, 24369.00
393.7030, 22430.00
394.9000, 20301.00
396.0960, 18145.00
397.2920, 16155.00
398.4880, 14381.00
399.6840, 13094.00
400.8800, 12168.00
402.0750, 11241.00
403.2710, 10727.00
404.4660, 10209.00
405.6610, 10111.00
406.8560, 10208.00
408.0510, 10482.00
409.2450, 11150.00
410.4400, 12301.00
411.6340, 13714.00
412.8280, 15873.00
414.0220, 18381.00
415.2160, 21154.00
416.4100, 23162.00
417.6030, 24304.00
418.7970, 24278.00
419.9900, 23871.00
421.1830, 22624.00
422.3760, 21450.00
423.5690, 20324.00
424.7610, 19469.00
425.9540, 18867.00
427.1460, 18217.00
428.3380, 17673.00
429.5300, 16724.00
430.7220, 15668.00
431.9140, 14556.00
433.1050, 13365.00
434.2970, 12218.00
435.4880, 11347.00
436.6790, 10759.00
437.8700, 10309.00
439.0610, 9988.000
440.2510, 10251.00
441.4420, 10360.00
442.6320, 10868.00
443.8220, 10893.00
445.0120, 10782.00
446.2020, 10321.00
447.3910, 9669.000
448.5810, 9238.000
449.7700, 8522.000
450.9600, 8061.000
452.1490, 7699.000
453.3370, 7467.000
454.5260, 7245.537
455.7150, 7108.047
456.9030, 7108.000
458.0910, 6978.000
459.2800, 7139.000
460.4670, 7151.000
461.6550, 7269.000
462.8430, 7545.000
464.0300, 7810.000
465.2180, 8213.000
466.4050, 8666.000
467.5920, 9195.000
468.7790, 9846.000
469.9650, 10302.00
471.1520, 10513.00
472.3380, 11124.00
473.5250, 11380.00
474.7110, 12288.00
475.8970, 13404.00
477.0820, 15074.00
478.2680, 17479.00
479.4540, 20547.00
480.6390, 23976.00
481.8240, 28411.00
483.0090, 32704.00
484.1940, 35798.00
485.3780, 34920.00
486.5630, 32203.00
487.7470, 28416.00
488.9320, 24054.00
490.1160, 20077.00
491.3000, 16544.00
492.4830, 14108.00
493.6670, 12174.00
494.8500, 11208.00
496.0340, 10389.00
497.2170, 10103.00
498.4000, 9666.000
499.5820, 9830.000
500.7650, 9851.000
501.9480, 10006.00
503.1300, 10281.00
504.3120, 10579.00
505.4940, 10702.00
506.6760, 10787.00
507.8580, 10706.00
509.0390, 10460.00
510.2210, 10145.00
511.4020, 9713.000
512.5830, 9112.000
513.7640, 8610.000
514.9450, 8036.000
516.1250, 7624.000
517.3060, 7201.000
518.4860, 6824.000
519.6660, 6467.000
520.8460, 6368.000
522.0260, 6204.000
523.2060, 6006.000
524.3850, 6007.000
525.5650, 5954.000
526.7440, 5987.000
527.9230, 6439.000
529.1020, 6876.000
530.2810, 6480.000
531.4590, 6479.000
532.6380, 6491.000
533.8160, 6584.000
534.9940, 6703.000
536.1720, 6794.000
537.3500, 6748.000
538.5270, 6671.000
539.7050, 6551.000
540.8820, 6408.000
542.0590, 6326.000
543.2360, 6222.000
544.4130, 6165.000
545.5900, 6149.000
546.7660, 6204.000
547.9430, 6093.000
549.1190, 6182.000
550.2950, 6136.000
551.4710, 6341.000
552.6470, 6431.000
553.8220, 6699.000
554.9980, 6977.000
556.1730, 7233.000
557.3480, 7605.000
558.5230, 7939.000
559.6980, 8260.000
560.8730, 8647.000
562.0470, 8916.000
563.2220, 9229.000
564.3960, 9621.000
565.5700, 10134.00
566.7440, 10877.00
567.9170, 11677.00
569.0910, 12629.00
570.2640, 13473.00
571.4380, 14202.00
572.6110, 14940.00
573.7840, 15116.00
574.9570, 14781.00
576.1290, 14495.00
577.3020, 13746.00
578.4740, 13068.00
579.6460, 12494.00
580.8180, 11807.00
581.9900, 11396.00
583.1620, 11349.00
584.3330, 11499.00
585.5040, 11485.00
586.6760, 11849.00
587.8470, 12055.00
589.0180, 12029.00
590.1880, 11704.00
591.3590, 11453.00
592.5290, 10862.00
593.7000, 10181.00
594.8700, 9585.000
596.0400, 8992.000
597.2090, 8441.000
598.3790, 8121.000
599.5490, 7915.000
600.7180, 7806.000
601.8870, 7726.000
603.0560, 7925.000
604.2250, 8110.100
605.3940, 8363.000
606.5620, 8942.000
607.7300, 9637.000
608.8990, 10445.00
610.0670, 11436.00
611.2350, 12343.00
612.4020, 13444.00
613.5700, 14637.00
614.7370, 15674.00
615.9050, 16663.00
617.0720, 17335.00
618.2390, 18146.00
619.4060, 18388.00
620.5720, 17510.00
621.7390, 16541.00
622.9050, 14936.00
624.0710, 13182.00
625.2370, 11583.00
626.4030, 10233.00
627.5690, 9126.000
628.7340, 8189.000
629.9000, 7528.000
631.0650, 7141.000
632.2300, 7249.000
633.3950, 6841.489
634.5600, 6716.000
635.7240, 6650.000
636.8890, 6693.000
638.0530, 6783.000
639.2170, 6833.000
640.3810, 7057.000
641.5450, 7158.000
642.7080, 7490.000
643.8720, 7486.000
645.0350, 7448.000
646.1980, 7237.000
647.3610, 7165.000
648.5240, 7035.000
649.6870, 6760.000
650.8490, 6630.000
652.0120, 6427.000
653.1740, 6283.000
654.3360, 6254.000
655.4980, 6139.000
656.6600, 6218.000
657.8210, 6235.000
658.9830, 6249.000
660.1440, 6379.000
661.3050, 6498.000
662.4660, 6704.000
663.6270, 6846.000
664.7870, 7231.000
665.9480, 7552.000
667.1080, 8103.000
668.2680, 8667.000
669.4280, 9428.510
670.5880, 10278.00
671.7480, 11303.00
672.9070, 12495.00
674.0670, 13749.00
675.2260, 14886.00
676.3850, 15776.00
677.5440, 16254.00
678.7030, 15982.00
679.8610, 15287.00
681.0200, 14433.00
682.1780, 13240.00
683.3360, 12355.00
684.4940, 11438.00
685.6520, 10589.00
686.8090, 10112.00
687.9670, 9742.000
689.1240, 9464.000
690.2810, 9350.000
691.4380, 9377.000
692.5950, 9564.000
693.7520, 9819.513
694.9080, 10161.33
696.0650, 10776.00
697.2210, 11245.00
698.3770, 12105.00
699.5330, 13118.00
700.6880, 14339.00
701.8440, 15872.00
702.9990, 17876.00
704.1550, 20415.00
705.3100, 23399.00
706.4650, 27115.00
707.6190, 31525.00
708.7740, 36824.00
709.9290, 42275.00
711.0830, 47931.00
712.2370, 53431.00
713.3910, 56860.00
714.5450, 58853.00
715.6980, 58198.00
716.8520, 55758.00
718.0050, 51338.00
719.1580, 45525.00
720.3110, 39707.00
721.4640, 34200.00
722.6170, 29159.00
723.7700, 25131.00
724.9220, 21579.00
726.0740, 18804.00
727.2260, 16577.00
728.3780, 14916.00
729.5300, 13550.00
730.6810, 12592.00
731.8330, 11615.00
732.9840, 10822.00
734.1350, 10279.00
735.2860, 9711.000
736.4370, 9261.000
737.5880, 9123.000
738.7380, 8791.000
739.8880, 8564.000
741.0390, 8406.000
742.1890, 8208.000
743.3380, 8130.000
744.4880, 8062.000
745.6380, 8086.000
746.7870, 8058.000
747.9360, 8031.000
749.0850, 8123.000
750.2340, 8147.000
751.3830, 8304.482
752.5310, 8450.309
753.6800, 8758.000
754.8280, 8893.000
755.9760, 9315.000
757.1240, 9699.000
758.2720, 9889.000
759.4190, 10605.00
760.5670, 11176.00
761.7140, 11656.00
762.8610, 12373.00
764.0080, 13059.00
765.1550, 13544.00
766.3020, 13781.00
767.4480, 13768.00
768.5950, 13773.00
769.7410, 13370.00
770.8870, 12721.00
772.0330, 12075.00
773.1780, 11495.00
774.3240, 10671.00
775.4690, 9973.000
776.6140, 9350.000
777.7590, 8805.000
778.9040, 8484.000
780.0490, 8024.000
781.1940, 7718.000
782.3380, 7403.000
783.4820, 7259.000
784.6260, 7087.000
785.7700, 6898.000
786.9140, 6790.000
788.0580, 6659.000
789.2010, 6588.000
790.3450, 6516.000
791.4880, 6390.000
792.6310, 6255.000
793.7730, 6303.000
794.9160, 6142.000
796.0590, 6139.000
797.2010, 6203.000
798.3430, 6258.000
799.4850, 6213.000
800.6270, 6173.000
801.7690, 6197.000
802.9100, 6372.000
804.0520, 6435.000
805.1930, 6708.000
806.3340, 6954.000
807.4750, 7140.000
808.6160, 7656.000
809.7560, 8057.000
810.8970, 8523.000
812.0370, 9028.000
813.1770, 9113.000
814.3170, 9132.000
815.4570, 9008.000
816.5960, 8785.000
817.7360, 8521.000
818.8750, 8261.357
820.0140, 7815.000
821.1530, 7635.000
822.2920, 7338.000
823.4310, 7023.000
824.5690, 6991.000
825.7070, 6860.000
826.8460, 6765.000
827.9840, 6761.000
829.1220, 6756.000
830.2590, 6760.000
831.3970, 6733.000
832.5340, 6779.000
833.6710, 6805.000
834.8080, 6859.703
835.9450, 6939.876
837.0820, 7021.000
838.2190, 7135.000
839.3550, 7253.000
840.4910, 7381.000
841.6270, 7450.000
842.7630, 7666.000
843.8990, 7695.000
845.0350, 7931.000
846.1700, 7977.000
847.3060, 8331.000
848.4410, 8387.000
849.5760, 8443.000
850.7100, 8556.000
851.8450, 8462.000
852.9800, 8781.000
854.1140, 11083.00
855.2480, 10387.00
856.3820, 10153.00
857.5160, 8760.000
858.6500, 8072.000
859.7830, 8024.000
860.9170, 7940.000
862.0500, 8022.000
863.1830, 8026.000
864.3160, 7957.000
865.4480, 8128.000
866.5810, 8137.000
867.7130, 8142.000
868.8460, 8207.000
869.9780, 8315.000
871.1100, 8384.686
872.2410, 8520.000
873.3730, 8573.000
874.5050, 8672.000
875.6360, 8714.000
876.7670, 8849.000
877.8980, 9042.000
879.0290, 9184.000
880.1590, 9472.000
881.2900, 9534.000
882.4200, 9770.000
883.5500, 10129.00
884.6800, 10492.00
885.8100, 10883.00
886.9400, 11388.00
888.0690, 12032.00
889.1990, 12722.21
890.3280, 13491.00
891.4570, 14435.00
892.5860, 15420.00
893.7140, 16520.00
894.8430, 17742.00
895.9710, 19045.00
897.1000, 20223.00
898.2280, 21189.00
899.3560, 22147.00
900.4830, 22802.00
901.6110, 22984.00
902.7380, 23096.00
903.8660, 23433.00
904.9930, 22998.00
906.1200, 22777.00
907.2460, 22034.00
908.3730, 21752.00
909.5000, 21423.00
910.6260, 20673.00
911.7520, 19780.00
912.8780, 19187.00
914.0040, 18266.00
915.1290, 17589.00
916.2550, 16854.00
917.3800, 16101.00
918.5050, 15637.00
919.6300, 15258.00
920.7550, 14705.00
921.8800, 14499.00
923.0040, 14339.00
924.1290, 14311.00
925.2530, 14629.00
926.3770, 14585.00
927.5010, 14890.00
928.6250, 15012.00
929.7480, 15319.00
930.8720, 15484.00
931.9950, 15369.00
933.1180, 15392.00
934.2410, 15451.00
935.3640, 15588.00
936.4860, 15830.00
937.6090, 15867.00
938.7310, 16284.00
939.8530, 16970.00
940.9750, 17635.00
942.0970, 18690.00
943.2180, 19766.00
944.3400, 21212.00
945.4610, 22925.00
946.5820, 24822.00
947.7030, 26792.00
948.8240, 28990.00
949.9450, 31254.00
951.0650, 33399.00
952.1860, 35386.00
953.3060, 37478.00
954.4260, 38776.00
955.5460, 40662.00
956.6650, 42709.00
957.7850, 44839.00
958.9040, 47209.00
960.0230, 50025.00
961.1420, 52246.00
962.2610, 54929.00
963.3800, 56023.00
964.4990, 55528.00
965.6170, 54083.00
966.7350, 51662.00
967.8530, 48318.00
968.9710, 44757.00
970.0890, 41659.00
971.2070, 39549.00
972.3240, 37915.00
973.4410, 36730.00
974.5580, 36557.00
975.6750, 36619.00
976.7920, 37209.00
977.9090, 37883.00
979.0250, 38238.00
980.1410, 38193.00
981.2580, 37537.00
982.3740, 36371.00
983.4890, 35224.00
984.6050, 34201.00
985.7200, 32629.00
986.8360, 31624.00
987.9510, 30878.00
989.0660, 30013.00
990.1810, 29678.00
991.2950, 29166.00
992.4100, 29016.00
993.5240, 28039.00
994.6390, 27868.00
995.7530, 27724.00
996.8660, 27338.00
997.9800, 27925.00
999.0940, 28161.00
1000.207, 28878.00
1001.320, 29441.00
1002.433, 30368.00
1003.546, 30990.00
1004.659, 31391.00
1005.772, 31197.00
1006.884, 30710.00
1007.996, 29275.00
1009.108, 27693.00
1010.220, 25816.00
1011.332, 23726.00
1012.444, 21797.00
1013.555, 20032.00
1014.666, 18258.00
1015.777, 16737.00
1016.888, 15456.00
1017.999, 14482.00
1019.110, 13654.00
1020.220, 12984.00
1021.331, 12500.00
1022.441, 12173.00
1023.551, 11714.00
1024.661, 11662.00
1025.770, 11588.00
1026.880, 11479.00
1027.989, 11296.00
1029.098, 11055.00
1030.207, 10727.00
1031.316, 10451.00
1032.425, 10123.00
1033.533, 9938.000
1034.642, 9570.000
1035.750, 9524.000
1036.858, 9422.000
1037.966, 9188.000
1039.073, 9126.000
1040.181, 9174.000
1041.288, 9259.000
1042.396, 9201.000
1043.503, 9181.000
1044.610, 9103.000
1045.716, 9150.000
1046.823, 9179.000
1047.929, 9237.000
1049.036, 9379.000
1050.142, 9403.000
1051.248, 9498.000
1052.353, 9714.000
1053.459, 9895.000
1054.564, 10136.00
1055.670, 10205.00
1056.775, 10315.00
1057.880, 10334.00
1058.985, 10289.00
1060.089, 10155.00
1061.194, 10038.00
1062.298, 9866.251
1063.402, 9785.000
1064.506, 9463.000
1065.610, 9370.000
1066.713, 9170.000
1067.817, 9080.000
1068.920, 8928.000
1070.023, 8880.000
1071.126, 8808.000
1072.229, 8963.000
1073.332, 9084.000
1074.435, 9220.000
1075.537, 9571.000
1076.639, 9922.000
1077.741, 10268.00
1078.843, 10566.00
1079.945, 11147.00
1081.046, 11635.00
1082.148, 11973.00
1083.249, 12112.00
1084.350, 12026.00
1085.451, 11662.00
1086.551, 11406.00
1087.652, 10946.00
1088.752, 10472.00
1089.853, 10256.00
1090.953, 9761.000
1092.053, 9497.000
1093.152, 9328.000
1094.252, 9294.000
1095.351, 9266.000
1096.451, 9323.000
1097.550, 9420.000
1098.649, 9768.000
1099.748, 10053.00
1100.846, 10275.00
1101.945, 10693.00
1103.043, 11037.00
1104.141, 11217.32
1105.239, 11417.00
1106.337, 11497.00
1107.434, 11510.00
1108.532, 11428.00
1109.629, 11120.00
1110.726, 10931.00
1111.823, 10449.00
1112.920, 10042.00
1114.017, 9806.000
1115.113, 9377.000
1116.210, 9246.000
1117.306, 8911.000
1118.402, 8589.000
1119.498, 8350.000
1120.593, 8248.000
1121.689, 8139.000
1122.784, 7945.000
1123.879, 7781.000
1124.974, 7645.000
1126.069, 7574.000
1127.164, 7442.000
1128.259, 7212.000
1129.353, 7084.000
1130.447, 7083.000
1131.541, 6958.000
1132.635, 6919.000
1133.729, 6939.000
1134.822, 6759.000
1135.916, 6723.000
1137.009, 6759.000
1138.102, 6581.000
1139.195, 6425.000
1140.288, 6505.000
1141.380, 6429.000
1142.473, 6424.000
1143.565, 6367.000
1144.657, 6302.000
1145.749, 6310.000
1146.841, 6251.000
1147.932, 6223.342
1149.024, 6199.888
1150.115, 6162.000
1151.206, 6141.000
1152.297, 6119.698
1153.388, 6092.000
1154.479, 6044.000
1155.569, 6015.000
1156.659, 5923.000
1157.750, 5948.000
1158.839, 6027.000
1159.929, 5943.000
1161.019, 5982.000
1162.108, 5868.000
1163.198, 5892.000
1164.287, 6017.000
1165.376, 5773.000
1166.465, 5940.000
1167.553, 5781.000
1168.642, 5777.000
1169.730, 5798.000
1170.818, 5757.000
1171.906, 5774.000
1172.994, 5794.000
1174.082, 5748.000
1175.170, 5730.000
1176.257, 5706.000
1177.344, 5700.989
1178.431, 5718.000
1179.518, 5735.000
1180.605, 5611.000
1181.691, 5674.000
1182.778, 5631.000
1183.864, 5586.000
1184.950, 5659.000
1186.036, 5738.000
1187.122, 5633.000
1188.207, 5692.000
1189.292, 5665.000
1190.378, 5608.000
1191.463, 5686.000
1192.548, 5634.000
1193.632, 5654.000
1194.717, 5621.000
1195.801, 5563.000
1196.886, 5634.000
1197.970, 5655.000
1199.054, 5605.000
1200.137, 5589.000
1201.221, 5618.000
1202.305, 5603.000
1203.388, 5531.000
1204.471, 5592.000
1205.554, 5556.000
1206.637, 5533.000
1207.719, 5557.000
1208.802, 5560.000
1209.884, 5547.000
1210.966, 5580.000
1212.048, 5491.000
1213.130, 5557.000
1214.212, 5492.000
1215.293, 5430.000
1216.374, 5612.000
1217.456, 5506.000
1218.536, 5575.000
1219.617, 5411.000
1220.698, 5501.000
1221.778, 5536.000
1222.859, 5523.000
1223.939, 5530.000
1225.019, 5502.000
1226.099, 5551.000
1227.178, 5529.417
1228.258, 5505.000
1229.337, 5519.000
1230.417, 5487.000
1231.496, 5474.000
1232.574, 5457.896
1233.653, 5449.000
1234.732, 5446.000
