##NAMES=Axinite-(Fe)
##RRUFFID=R060183
##IDEAL CHEMISTRY=Ca_4_Fe^2+^_2_Al_4_[B_2_Si_8_O_30_](OH)_2_
##LOCALITY=Skagit Bluffs, near Manning Park, British Columbia, Canada
##OWNER=RRUFF
##SOURCE=Lloyd Twaites
##DESCRIPTION=Light-pink transparent axe-head-shaped single crystal
##STATUS=The identification of this mineral has been confirmed by X-ray diffraction and chemical analysis
##URL=rruff.info/R060183
##MEASURED CHEMISTRY=Ca_2.00_(Fe^2+^_0.58_Mn_0.23_Mg_0.19_)Al_2.00_B_1.00_Si_4.00_O_15_(OH)
##PIN_ID=L01002
##ORIENTATION=Laser parallel to (-1 0 -1). Fiducial mark perpendicular to laser is parallel to b [0 1 0]
52.67100, 765.0000
53.91000, 740.0000
55.14900, 762.0000
56.38700, 730.0000
57.62600, 739.0000
58.86400, 753.0000
60.10300, 779.0000
61.34100, 786.0000
62.57900, 800.0000
63.81700, 806.0000
65.05400, 847.0000
66.29200, 861.0000
67.52900, 948.0000
68.76700, 1178.000
70.00400, 1464.000
71.24100, 1561.000
72.47700, 1629.000
73.71400, 1749.000
74.95100, 2071.000
76.18700, 2373.000
77.42300, 2438.000
78.65900, 2526.000
79.89500, 2799.000
81.13100, 3121.000
82.36700, 3601.000
83.60200, 4102.725
84.83700, 4721.836
86.07200, 5445.000
87.30800, 6164.000
88.54200, 7153.000
89.77700, 8000.000
91.01200, 9394.000
92.24600, 11138.00
93.48000, 12595.00
94.71400, 13863.00
95.94800, 15397.00
97.18200, 16574.00
98.41600, 18016.00
99.64900, 19723.00
100.8830, 21165.00
102.1160, 22177.00
103.3490, 23214.00
104.5820, 24500.00
105.8150, 26772.00
107.0470, 29568.00
108.2800, 33896.00
109.5120, 35038.00
110.7440, 31454.00
111.9760, 27610.00
113.2080, 24569.00
114.4400, 22140.00
115.6710, 20288.00
116.9030, 18335.00
118.1340, 17172.00
119.3650, 16100.00
120.5960, 15219.00
121.8270, 14593.00
123.0580, 14540.00
124.2880, 14120.00
125.5190, 13745.00
126.7490, 13134.00
127.9790, 12933.00
129.2090, 12851.00
130.4390, 12745.00
131.6680, 12768.00
132.8980, 12866.00
134.1270, 13662.00
135.3560, 14746.00
136.5850, 15973.00
137.8140, 17438.00
139.0430, 18702.00
140.2710, 18966.00
141.5000, 18454.00
142.7280, 17492.00
143.9560, 16915.00
145.1840, 16505.00
146.4120, 16272.00
147.6390, 16847.00
148.8670, 17243.00
150.0940, 17104.00
151.3210, 16616.00
152.5490, 15609.00
153.7750, 14441.00
155.0020, 13743.00
156.2290, 13340.00
157.4550, 12961.00
158.6810, 12788.00
159.9080, 12814.00
161.1340, 13072.00
162.3590, 13383.00
163.5850, 14231.00
164.8110, 15349.00
166.0360, 16393.00
167.2610, 17956.00
168.4860, 19764.00
169.7110, 21224.00
170.9360, 21830.00
172.1610, 20728.00
173.3850, 19101.00
174.6100, 17693.00
175.8340, 15700.00
177.0580, 14059.00
178.2820, 12562.00
179.5050, 11360.00
180.7290, 10526.00
181.9520, 9682.000
183.1760, 9170.000
184.3990, 8835.000
185.6220, 8741.000
186.8450, 8679.000
188.0670, 8776.000
189.2900, 9110.000
190.5120, 9502.000
191.7340, 10025.00
192.9560, 10722.00
194.1780, 11261.00
195.4000, 11596.00
196.6220, 11930.00
197.8430, 12295.00
199.0640, 12834.00
200.2860, 13917.00
201.5070, 15254.00
202.7270, 16809.00
203.9480, 18320.00
205.1690, 19525.00
206.3890, 20849.00
207.6090, 22328.00
208.8290, 23433.00
210.0490, 24490.00
211.2690, 24916.00
212.4890, 25007.00
213.7080, 24673.00
214.9280, 24343.00
216.1470, 24013.00
217.3660, 23528.00
218.5850, 22609.62
219.8030, 21961.00
221.0220, 20173.00
222.2400, 18273.00
223.4590, 16263.00
224.6770, 14582.00
225.8950, 13183.00
227.1120, 12024.00
228.3300, 11528.00
229.5480, 11109.00
230.7650, 10974.00
231.9820, 11108.00
233.1990, 11305.00
234.4160, 11565.00
235.6330, 12028.00
236.8490, 12344.00
238.0660, 13084.00
239.2820, 13436.00
240.4980, 13965.00
241.7140, 14393.00
242.9300, 14688.00
244.1460, 14920.00
245.3610, 15211.00
246.5770, 15287.00
247.7920, 15589.00
249.0070, 16289.00
250.2220, 17178.00
251.4370, 18015.00
252.6510, 19395.00
253.8660, 20706.00
255.0800, 21727.00
256.2940, 22382.00
257.5080, 22873.00
258.7220, 23645.00
259.9360, 24152.00
261.1490, 23404.00
262.3630, 23989.00
263.5760, 25169.00
264.7890, 26575.00
266.0020, 28070.00
267.2150, 30253.00
268.4270, 31555.00
269.6400, 33432.00
270.8520, 35234.00
272.0640, 36542.00
273.2760, 37461.00
274.4880, 37783.00
275.7000, 37397.00
276.9120, 36478.00
278.1230, 34779.00
279.3340, 32312.00
280.5450, 30214.00
281.7560, 28111.00
282.9670, 26379.00
284.1780, 25469.00
285.3880, 24954.00
286.5980, 24529.00
287.8090, 24350.00
289.0190, 23922.00
290.2290, 23887.00
291.4380, 24054.00
292.6480, 24023.00
293.8570, 23940.00
295.0670, 23787.00
296.2760, 23362.71
297.4850, 22716.00
298.6930, 22200.00
299.9020, 21404.00
301.1110, 20496.00
302.3190, 20161.00
303.5270, 20197.00
304.7350, 20073.00
305.9430, 20341.00
307.1510, 20842.00
308.3580, 21156.00
309.5660, 21738.00
310.7730, 23117.00
311.9800, 24390.00
313.1870, 26423.00
314.3940, 28674.00
315.6010, 31455.00
316.8070, 34031.00
318.0130, 36258.00
319.2200, 37315.00
320.4260, 37393.00
321.6310, 35717.00
322.8370, 33325.00
324.0430, 31268.00
325.2480, 29201.00
326.4540, 28102.00
327.6590, 27433.00
328.8640, 27240.00
330.0680, 26983.59
331.2730, 27246.00
332.4780, 27578.00
333.6820, 28650.00
334.8860, 29807.00
336.0900, 31293.00
337.2940, 33228.00
338.4980, 34939.00
339.7010, 37366.00
340.9050, 39343.00
342.1080, 40514.00
343.3110, 40171.00
344.5140, 38560.00
345.7170, 35847.00
346.9200, 32367.00
348.1220, 28975.00
349.3240, 26192.00
350.5270, 23800.00
351.7290, 21910.00
352.9310, 19637.00
354.1320, 17621.00
355.3340, 15617.00
356.5350, 14023.00
357.7370, 13027.00
358.9380, 12025.00
360.1390, 11307.00
361.3400, 10790.00
362.5400, 10491.00
363.7410, 10191.00
364.9410, 10113.71
366.1410, 10143.00
367.3410, 10254.00
368.5410, 10517.00
369.7410, 10809.00
370.9400, 11032.00
372.1400, 11396.00
373.3390, 11620.00
374.5380, 11642.00
375.7370, 11964.00
376.9360, 12110.00
378.1350, 12436.00
379.3330, 13139.00
380.5310, 13603.00
381.7300, 14886.00
382.9280, 15643.00
384.1260, 16840.00
385.3230, 18011.00
386.5210, 19148.00
387.7180, 20080.00
388.9160, 20247.00
390.1130, 20331.00
391.3100, 19806.00
392.5060, 19055.00
393.7030, 18013.00
394.9000, 17177.00
396.0960, 16389.00
397.2920, 15755.92
398.4880, 14975.00
399.6840, 14813.00
400.8800, 14712.00
402.0750, 14488.00
403.2710, 14232.00
404.4660, 14298.00
405.6610, 14397.00
406.8560, 14853.00
408.0510, 15260.00
409.2450, 16286.00
410.4400, 17479.00
411.6340, 19036.00
412.8280, 20971.00
414.0220, 23473.00
415.2160, 26051.00
416.4100, 28176.00
417.6030, 29544.00
418.7970, 30373.00
419.9900, 31648.00
421.1830, 32444.00
422.3760, 33530.00
423.5690, 33730.00
424.7610, 33534.00
425.9540, 32639.00
427.1460, 32094.00
428.3380, 30831.00
429.5300, 29181.00
430.7220, 27906.00
431.9140, 25967.00
433.1050, 24259.00
434.2970, 22796.00
435.4880, 21650.00
436.6790, 20720.00
437.8700, 20821.00
439.0610, 21081.00
440.2510, 22122.00
441.4420, 23788.00
442.6320, 25205.00
443.8220, 25756.00
445.0120, 25300.00
446.2020, 23501.00
447.3910, 21100.00
448.5810, 18407.00
449.7700, 16556.00
450.9600, 14797.00
452.1490, 13426.00
453.3370, 12404.00
454.5260, 11835.00
455.7150, 11343.00
456.9030, 10809.00
458.0910, 10472.00
459.2800, 10019.00
460.4670, 9639.000
461.6550, 9636.000
462.8430, 9560.000
464.0300, 9611.000
465.2180, 9604.000
466.4050, 9932.000
467.5920, 10204.00
468.7790, 10611.00
469.9650, 10999.00
471.1520, 11003.00
472.3380, 11236.00
473.5250, 11543.00
474.7110, 11998.00
475.8970, 12396.00
477.0820, 13130.00
478.2680, 14145.00
479.4540, 15347.00
480.6390, 16313.00
481.8240, 17709.00
483.0090, 20196.00
484.1940, 19396.00
485.3780, 18962.00
486.5630, 17742.00
487.7470, 15944.00
488.9320, 14282.00
490.1160, 12810.00
491.3000, 11770.00
492.4830, 10953.00
493.6670, 10436.00
494.8500, 10328.00
496.0340, 10011.00
497.2170, 10100.00
498.4000, 9955.000
499.5820, 10150.00
500.7650, 10214.00
501.9480, 10414.00
503.1300, 10717.00
504.3120, 10935.00
505.4940, 11259.00
506.6760, 11435.00
507.8580, 11795.00
509.0390, 12012.00
510.2210, 12090.00
511.4020, 11975.00
512.5830, 11692.00
513.7640, 11353.00
514.9450, 10720.00
516.1250, 10166.00
517.3060, 9786.000
518.4860, 9319.000
519.6660, 8801.000
520.8460, 8474.000
522.0260, 8193.000
523.2060, 7895.000
524.3850, 7835.000
525.5650, 7704.000
526.7440, 7654.000
527.9230, 7620.000
529.1020, 7599.000
530.2810, 7720.000
531.4590, 7845.000
532.6380, 7990.000
533.8160, 7977.000
534.9940, 8046.000
536.1720, 8194.000
537.3500, 8323.000
538.5270, 8401.553
539.7050, 8490.000
540.8820, 8603.000
542.0590, 8649.000
543.2360, 8796.000
544.4130, 8890.929
545.5900, 9075.000
546.7660, 9118.000
547.9430, 9231.000
549.1190, 9333.000
550.2950, 9417.000
551.4710, 9549.000
552.6470, 9832.000
553.8220, 10241.00
554.9980, 10552.00
556.1730, 11096.00
557.3480, 11805.00
558.5230, 12185.00
559.6980, 12667.00
560.8730, 12915.00
562.0470, 13086.00
563.2220, 13128.13
564.3960, 13444.00
565.5700, 13104.00
566.7440, 13375.00
567.9170, 13729.00
569.0910, 14140.00
570.2640, 14637.00
571.4380, 15066.00
572.6110, 15346.00
573.7840, 15305.00
574.9570, 15112.00
576.1290, 14768.00
577.3020, 14160.00
578.4740, 13375.00
579.6460, 12762.00
580.8180, 12153.00
581.9900, 11704.00
583.1620, 11635.00
584.3330, 11356.00
585.5040, 11326.00
586.6760, 11203.00
587.8470, 11106.00
589.0180, 11062.00
590.1880, 10666.00
591.3590, 10269.00
592.5290, 9684.000
593.7000, 9374.000
594.8700, 8978.000
596.0400, 8584.000
597.2090, 8449.000
598.3790, 8231.000
599.5490, 8142.000
600.7180, 8180.000
601.8870, 8290.000
603.0560, 8324.000
604.2250, 8603.000
605.3940, 8919.000
606.5620, 9266.000
607.7300, 9786.000
608.8990, 10312.00
610.0670, 11074.00
611.2350, 11787.00
612.4020, 12601.00
613.5700, 13345.00
614.7370, 14016.00
615.9050, 14659.00
617.0720, 15159.00
618.2390, 15538.00
619.4060, 15435.00
620.5720, 15126.00
621.7390, 14279.00
622.9050, 13335.00
624.0710, 12357.00
625.2370, 11222.00
626.4030, 10396.00
627.5690, 9889.000
628.7340, 9423.000
629.9000, 9211.000
631.0650, 9093.000
632.2300, 9186.000
633.3950, 9345.000
634.5600, 9651.000
635.7240, 10063.00
636.8890, 10627.00
638.0530, 11163.00
639.2170, 11818.00
640.3810, 12352.00
641.5450, 12897.00
642.7080, 13266.00
643.8720, 13367.00
645.0350, 13480.00
646.1980, 13033.00
647.3610, 12636.00
648.5240, 11931.00
649.6870, 11340.00
650.8490, 10591.00
652.0120, 10293.00
653.1740, 9516.000
654.3360, 9152.000
655.4980, 8927.000
656.6600, 8631.000
657.8210, 8531.000
658.9830, 8324.000
660.1440, 8344.000
661.3050, 8542.000
662.4660, 8583.000
663.6270, 8812.000
664.7870, 9298.000
665.9480, 9538.000
667.1080, 10240.00
668.2680, 10801.00
669.4280, 11882.00
670.5880, 12785.00
671.7480, 13913.00
672.9070, 15232.00
674.0670, 16532.00
675.2260, 17628.00
676.3850, 18581.00
677.5440, 18836.00
678.7030, 18505.00
679.8610, 17800.00
681.0200, 16647.00
682.1780, 15437.00
683.3360, 14219.00
684.4940, 13186.00
685.6520, 12293.00
686.8090, 11684.00
687.9670, 11180.00
689.1240, 10930.00
690.2810, 10713.00
691.4380, 10700.00
692.5950, 10777.00
693.7520, 11153.00
694.9080, 11398.00
696.0650, 11886.00
697.2210, 12739.00
698.3770, 13558.00
699.5330, 14633.00
700.6880, 16109.00
701.8440, 18081.00
702.9990, 20319.00
704.1550, 22984.00
705.3100, 26651.00
706.4650, 30631.00
707.6190, 35512.00
708.7740, 40670.00
709.9290, 46450.00
711.0830, 52239.00
712.2370, 57622.00
713.3910, 61234.00
714.5450, 63549.00
715.6980, 63255.00
716.8520, 61137.00
718.0050, 56190.00
719.1580, 50669.00
720.3110, 44255.00
721.4640, 38343.00
722.6170, 32687.00
723.7700, 28323.00
724.9220, 24462.00
726.0740, 21551.00
727.2260, 18963.00
728.3780, 16782.00
729.5300, 15387.00
730.6810, 13998.00
731.8330, 13067.00
732.9840, 12233.00
734.1350, 11369.00
735.2860, 10844.00
736.4370, 10349.00
737.5880, 9954.000
738.7380, 9600.000
739.8880, 9345.000
741.0390, 9179.000
742.1890, 8954.000
743.3380, 8940.000
744.4880, 8958.000
745.6380, 8854.000
746.7870, 8929.000
747.9360, 8917.000
749.0850, 9071.000
750.2340, 9134.000
751.3830, 9453.000
752.5310, 9701.000
753.6800, 9868.000
754.8280, 10157.10
755.9760, 10312.74
757.1240, 10568.00
758.2720, 10600.00
759.4190, 10637.00
760.5670, 10646.00
761.7140, 10728.00
762.8610, 10688.00
764.0080, 10496.00
765.1550, 10406.00
766.3020, 10114.00
767.4480, 9952.000
768.5950, 9762.000
769.7410, 9434.000
770.8870, 9205.000
772.0330, 8960.000
773.1780, 8539.000
774.3240, 8282.000
775.4690, 8028.000
776.6140, 7625.000
777.7590, 7533.000
778.9040, 7444.000
780.0490, 7204.000
781.1940, 7045.000
782.3380, 7041.000
783.4820, 6890.000
784.6260, 6818.000
785.7700, 6958.000
786.9140, 6683.000
788.0580, 6493.000
789.2010, 6514.000
790.3450, 6580.000
791.4880, 6381.000
792.6310, 6384.000
793.7730, 6393.000
794.9160, 6412.000
796.0590, 6370.000
797.2010, 6443.000
798.3430, 6433.659
799.4850, 6452.029
800.6270, 6528.000
801.7690, 6494.000
802.9100, 6666.000
804.0520, 6707.000
805.1930, 6856.000
806.3340, 7007.000
807.4750, 7282.000
808.6160, 7639.000
809.7560, 7740.000
810.8970, 7978.000
812.0370, 8166.000
813.1770, 8192.000
814.3170, 8206.000
815.4570, 8043.000
816.5960, 7977.000
817.7360, 7792.000
818.8750, 7611.000
820.0140, 7633.000
821.1530, 7443.000
822.2920, 7424.000
823.4310, 7317.000
824.5690, 7258.722
825.7070, 7265.867
826.8460, 7221.000
827.9840, 7282.000
829.1220, 7357.000
830.2590, 7361.000
831.3970, 7565.000
832.5340, 7606.000
833.6710, 7692.000
834.8080, 7732.000
835.9450, 7855.000
837.0820, 8083.000
838.2190, 8214.000
839.3550, 8393.000
840.4910, 8625.000
841.6270, 8845.693
842.7630, 9229.000
843.8990, 9387.000
845.0350, 9714.000
846.1700, 10029.00
847.3060, 10255.00
848.4410, 10411.00
849.5760, 10843.00
850.7100, 11059.00
851.8450, 10958.00
852.9800, 11234.00
854.1140, 11219.91
855.2480, 11523.00
856.3820, 11309.00
857.5160, 11250.00
858.6500, 11346.00
859.7830, 11516.00
860.9170, 11664.00
862.0500, 11569.00
863.1830, 11806.00
864.3160, 11851.00
865.4480, 12173.00
866.5810, 12056.00
867.7130, 12292.00
868.8460, 12477.00
869.9780, 12564.00
871.1100, 12704.00
872.2410, 13040.00
873.3730, 13204.00
874.5050, 13495.00
875.6360, 13781.00
876.7670, 13835.00
877.8980, 14316.00
879.0290, 14378.00
880.1590, 14815.00
881.2900, 14953.00
882.4200, 15102.00
883.5500, 15376.00
884.6800, 15730.00
885.8100, 16052.00
886.9400, 16387.00
888.0690, 16593.00
889.1990, 17154.00
890.3280, 17829.00
891.4570, 18561.00
892.5860, 19372.00
893.7140, 20301.00
894.8430, 21229.00
895.9710, 22274.00
897.1000, 23373.00
898.2280, 24222.00
899.3560, 24953.00
900.4830, 25520.00
901.6110, 26120.00
902.7380, 26216.00
903.8660, 25946.00
904.9930, 25352.00
906.1200, 24662.00
907.2460, 23831.00
908.3730, 23015.00
909.5000, 22129.50
910.6260, 20888.00
911.7520, 20242.00
912.8780, 19216.00
914.0040, 18222.00
915.1290, 17703.00
916.2550, 16956.00
917.3800, 16449.00
918.5050, 15922.00
919.6300, 15632.00
920.7550, 15328.00
921.8800, 15236.00
923.0040, 15057.00
924.1290, 15125.00
925.2530, 14970.00
926.3770, 15208.00
927.5010, 15354.00
928.6250, 15451.00
929.7480, 15777.00
930.8720, 15675.00
931.9950, 15835.00
933.1180, 15664.00
934.2410, 15749.00
935.3640, 15682.00
936.4860, 15684.00
937.6090, 16082.00
938.7310, 16369.00
939.8530, 16720.00
940.9750, 17204.00
942.0970, 18034.00
943.2180, 18860.00
944.3400, 20000.00
945.4610, 21105.00
946.5820, 22303.00
947.7030, 23988.00
948.8240, 25459.00
949.9450, 26922.00
951.0650, 28472.00
952.1860, 30127.00
953.3060, 31791.00
954.4260, 33510.00
955.5460, 35081.00
956.6650, 37235.00
957.7850, 39638.00
958.9040, 42513.00
960.0230, 45196.00
961.1420, 46854.00
962.2610, 49349.00
963.3800, 49963.00
964.4990, 50459.00
965.6170, 49505.00
966.7350, 47907.00
967.8530, 46455.00
968.9710, 44849.00
970.0890, 43538.00
971.2070, 43162.00
972.3240, 43566.00
973.4410, 44531.00
974.5580, 46168.00
975.6750, 48185.00
976.7920, 49850.00
977.9090, 51572.00
979.0250, 52709.00
980.1410, 53102.00
981.2580, 52822.00
982.3740, 51103.00
983.4890, 49113.00
984.6050, 47058.00
985.7200, 44901.00
986.8360, 42842.00
987.9510, 41211.77
989.0660, 39656.00
990.1810, 38232.00
991.2950, 36815.00
992.4100, 35643.00
993.5240, 34713.00
994.6390, 33440.00
995.7530, 32813.00
996.8660, 32127.00
997.9800, 31238.00
999.0940, 30293.00
1000.207, 29940.00
1001.320, 29209.00
1002.433, 28202.00
1003.546, 27378.00
1004.659, 26335.00
1005.772, 25244.00
1006.884, 23882.00
1007.996, 22742.00
1009.108, 21469.00
1010.220, 19921.00
1011.332, 18931.00
1012.444, 17697.00
1013.555, 16517.00
1014.666, 15513.00
1015.777, 14938.00
1016.888, 14242.00
1017.999, 13525.00
1019.110, 13047.00
1020.220, 12543.00
1021.331, 12269.00
1022.441, 11855.00
1023.551, 11677.00
1024.661, 11519.00
1025.770, 11359.00
1026.880, 11219.00
1027.989, 11083.00
1029.098, 11012.00
1030.207, 10929.00
1031.316, 10690.00
1032.425, 10692.00
1033.533, 10794.00
1034.642, 10611.00
1035.750, 10653.00
1036.858, 10705.00
1037.966, 10767.00
1039.073, 10789.00
1040.181, 11107.00
1041.288, 11050.00
1042.396, 11252.00
1043.503, 11104.00
1044.610, 11310.00
1045.716, 11177.00
1046.823, 11139.00
1047.929, 11175.00
1049.036, 11186.11
1050.142, 11462.00
1051.248, 11433.00
1052.353, 11628.00
1053.459, 11963.00
1054.564, 12142.00
1055.670, 12226.00
1056.775, 12169.00
1057.880, 12253.00
1058.985, 12096.00
1060.089, 12024.00
1061.194, 11807.00
1062.298, 11511.00
1063.402, 11230.00
1064.506, 10973.12
1065.610, 10619.00
1066.713, 10473.00
1067.817, 10260.00
1068.920, 10112.00
1070.023, 10093.00
1071.126, 10007.00
1072.229, 10187.00
1073.332, 10253.00
1074.435, 10448.00
1075.537, 10811.00
1076.639, 11232.00
1077.741, 11596.00
1078.843, 12170.00
1079.945, 12620.00
1081.046, 13049.00
1082.148, 13346.00
1083.249, 13461.00
1084.350, 13365.00
1085.451, 13135.00
1086.551, 12598.00
1087.652, 12090.00
1088.752, 11504.00
1089.853, 10982.00
1090.953, 10520.00
1092.053, 10122.00
1093.152, 9781.700
1094.252, 9506.000
1095.351, 9307.000
1096.451, 9103.000
1097.550, 9060.000
1098.649, 9007.000
1099.748, 9057.000
1100.846, 8947.000
1101.945, 9036.000
1103.043, 8948.000
1104.141, 9100.000
1105.239, 9024.000
1106.337, 11266.00
1107.434, 9232.000
1108.532, 11060.00
1109.629, 9845.000
1110.726, 8700.000
1111.823, 8564.000
1112.920, 8367.000
1114.017, 8402.000
1115.113, 8147.000
1116.210, 8087.000
1117.306, 7955.000
1118.402, 7901.000
1119.498, 7939.000
1120.593, 7789.000
1121.689, 7726.000
1122.784, 7668.000
1123.879, 7556.000
1124.974, 7479.000
1126.069, 7471.000
1127.164, 7346.000
1128.259, 7331.000
1129.353, 7250.000
1130.447, 7079.000
1131.541, 7080.000
1132.635, 6990.000
1133.729, 6945.000
1134.822, 6952.000
1135.916, 6933.000
1137.009, 6882.840
1138.102, 6870.000
1139.195, 6847.136
1140.288, 6814.000
1141.380, 6821.000
1142.473, 6812.000
1143.565, 6812.000
1144.657, 6750.000
1145.749, 6762.000
1146.841, 6740.709
1147.932, 6710.000
1149.024, 6717.000
1150.115, 6711.000
1151.206, 6689.000
1152.297, 6578.000
1153.388, 6609.000
1154.479, 6568.000
1155.569, 6606.000
1156.659, 6559.000
1157.750, 6563.000
1158.839, 6535.000
1159.929, 6474.000
1161.019, 6475.000
1162.108, 6433.000
1163.198, 6476.000
1164.287, 6458.371
1165.376, 6547.000
1166.465, 6455.000
1167.553, 6457.000
1168.642, 6437.000
1169.730, 6287.000
1170.818, 6476.000
1171.906, 6365.000
1172.994, 6468.000
1174.082, 6396.000
1175.170, 6422.000
1176.257, 6301.000
1177.344, 6390.000
1178.431, 6313.000
1179.518, 6427.000
1180.605, 6331.000
1181.691, 6339.000
1182.778, 6466.000
1183.864, 6324.000
1184.950, 6376.000
1186.036, 6362.000
1187.122, 6312.000
1188.207, 6334.665
1189.292, 6382.000
1190.378, 6324.000
1191.463, 6409.000
1192.548, 6423.000
1193.632, 6289.000
1194.717, 6374.000
1195.801, 6281.000
1196.886, 6324.000
1197.970, 6261.000
1199.054, 6368.000
1200.137, 6329.000
1201.221, 6299.000
1202.305, 6269.000
1203.388, 6265.000
1204.471, 6246.000
1205.554, 6259.169
1206.637, 6261.555
1207.719, 6276.000
1208.802, 6278.000
1209.884, 6242.000
1210.966, 6230.000
1212.048, 6139.000
1213.130, 6290.000
1214.212, 6215.000
1215.293, 6279.000
1216.374, 6136.000
1217.456, 6180.000
1218.536, 6124.000
1219.617, 6259.000
1220.698, 6100.000
1221.778, 6174.000
1222.859, 6190.000
1223.939, 6176.371
1225.019, 6173.000
1226.099, 6211.000
1227.178, 6164.000
1228.258, 6114.000
1229.337, 6207.000
1230.417, 6131.000
1231.496, 6192.000
1232.574, 6221.000
1233.653, 6248.000
1234.732, 6083.000
