##NAMES=Baddeleyite
##RRUFFID=R060078
##IDEAL CHEMISTRY=Zr^4+^O_2_
##LOCALITY=Wetloo mine, Mogok, Burma
##OWNER=RRUFF
##SOURCE=Marcus Origlieri
##DESCRIPTION=Dark brown fragment
##STATUS=The identification of this mineral has been confirmed by X-ray diffraction and chemical analysis
##URL=rruff.info/R060078
##MEASURED CHEMISTRY=(Zr_0.99_Hf_0.01_)_Î£=1_O_2_
##PIN_ID=L01430
##ORIENTATION=Laser parallel to c* (0 0 1). Fiducial mark perpendicular to laser is parallel to a [1 0 0]
51.43100, 1054.000
52.67100, 1563.000
53.91000, 950.0000
55.14900, 949.0000
56.38700, 959.0000
57.62600, 1026.000
58.86400, 1048.000
60.10300, 1059.000
61.34100, 996.0000
62.57900, 1048.000
63.81700, 1109.000
65.05400, 1200.000
66.29200, 1312.000
67.52900, 1563.000
68.76700, 1984.000
70.00400, 2215.482
71.24100, 2427.275
72.47700, 2932.000
73.71400, 2880.000
74.95100, 3291.000
76.18700, 3771.000
77.42300, 3455.000
78.65900, 3409.000
79.89500, 3916.000
81.13100, 4755.000
82.36700, 5800.000
83.60200, 6667.000
84.83700, 6421.000
86.07200, 6049.000
87.30800, 6232.000
88.54200, 6890.000
89.77700, 7838.000
91.01200, 9104.000
92.24600, 10011.00
93.48000, 10098.00
94.71400, 10350.00
95.94800, 10798.00
97.18200, 11252.00
98.41600, 12486.00
99.64900, 14578.00
100.8830, 17741.00
102.1160, 23733.00
103.3490, 34968.00
104.5820, 50359.00
105.8150, 59613.00
107.0470, 53044.00
108.2800, 39795.00
109.5120, 30311.00
110.7440, 20541.00
111.9760, 14669.00
113.2080, 13945.00
114.4400, 12890.00
115.6710, 12541.00
116.9030, 12171.00
118.1340, 11763.00
119.3650, 10850.00
120.5960, 9941.000
121.8270, 10101.00
123.0580, 10014.00
124.2880, 9780.000
125.5190, 8956.000
126.7490, 8718.000
127.9790, 8641.000
129.2090, 8742.000
130.4390, 8748.000
131.6680, 8652.000
132.8980, 8179.000
134.1270, 8120.000
135.3560, 8257.168
136.5850, 9069.000
137.8140, 8552.000
139.0430, 8988.000
140.2710, 8747.000
141.5000, 8278.000
142.7280, 7965.000
143.9560, 7781.000
145.1840, 7731.860
146.4120, 7770.000
147.6390, 7748.519
148.8670, 7768.000
150.0940, 7962.000
151.3210, 8104.000
152.5490, 8129.251
153.7750, 8300.000
155.0020, 8117.000
156.2290, 8015.000
157.4550, 7787.000
158.6810, 7872.000
159.9080, 8018.000
161.1340, 8169.000
162.3590, 8778.000
163.5850, 9226.000
164.8110, 9857.000
166.0360, 10479.00
167.2610, 10925.00
168.4860, 10882.00
169.7110, 11689.00
170.9360, 12124.00
172.1610, 12705.00
173.3850, 13908.00
174.6100, 15638.00
175.8340, 19391.00
177.0580, 26288.00
178.2820, 37175.00
179.5050, 47499.00
180.7290, 46028.00
181.9520, 34657.00
183.1760, 23997.00
184.3990, 18756.00
185.6220, 17665.00
186.8450, 15663.00
188.0670, 16473.00
189.2900, 19453.00
190.5120, 25775.00
191.7340, 34710.00
192.9560, 38876.00
194.1780, 33037.00
195.4000, 24052.00
196.6220, 18284.00
197.8430, 15244.00
199.0640, 14180.00
200.2860, 13922.00
201.5070, 14297.00
202.7270, 14392.00
203.9480, 13051.00
205.1690, 11148.00
206.3890, 9808.000
207.6090, 9275.000
208.8290, 9213.000
210.0490, 9024.000
211.2690, 8933.000
212.4890, 9045.000
213.7080, 9070.000
214.9280, 9047.000
216.1470, 8933.000
217.3660, 8915.000
218.5850, 9191.000
219.8030, 9343.000
221.0220, 10107.00
222.2400, 10820.00
223.4590, 11439.00
224.6770, 11108.00
225.8950, 10179.00
227.1120, 9367.000
228.3300, 9165.000
229.5480, 8391.000
230.7650, 8286.000
231.9820, 8201.000
233.1990, 8229.000
234.4160, 8154.000
235.6330, 8156.000
236.8490, 8150.000
238.0660, 7998.000
239.2820, 8111.000
240.4980, 8028.000
241.7140, 7986.000
242.9300, 8006.000
244.1460, 8186.000
245.3610, 8279.000
246.5770, 8233.000
247.7920, 8352.000
249.0070, 8294.000
250.2220, 8375.000
251.4370, 8376.000
252.6510, 8350.000
253.8660, 8507.000
255.0800, 8397.000
256.2940, 8656.000
257.5080, 8858.000
258.7220, 9865.000
259.9360, 9465.821
261.1490, 10080.00
262.3630, 9074.000
263.5760, 8687.000
264.7890, 8477.000
266.0020, 8412.000
267.2150, 8468.000
268.4270, 8372.615
269.6400, 8376.000
270.8520, 8327.000
272.0640, 8348.000
273.2760, 8256.000
274.4880, 8451.000
275.7000, 8424.000
276.9120, 8583.000
278.1230, 8530.000
279.3340, 8593.000
280.5450, 8720.000
281.7560, 8875.000
282.9670, 8933.000
284.1780, 9215.000
285.3880, 10078.00
286.5980, 9795.570
287.8090, 10200.00
289.0190, 9757.000
290.2290, 10083.00
291.4380, 10289.00
292.6480, 10505.00
293.8570, 10767.00
295.0670, 10858.00
296.2760, 11113.00
297.4850, 11374.00
298.6930, 11657.00
299.9020, 12128.00
301.1110, 12523.00
302.3190, 13398.00
303.5270, 14365.00
304.7350, 15546.00
305.9430, 16916.00
307.1510, 18221.00
308.3580, 18883.00
309.5660, 18908.00
310.7730, 18291.00
311.9800, 16355.00
313.1870, 14583.00
314.3940, 13661.00
315.6010, 12912.00
316.8070, 12219.00
318.0130, 12059.00
319.2200, 11693.00
320.4260, 11725.00
321.6310, 11863.00
322.8370, 12167.00
324.0430, 12398.00
325.2480, 12727.00
326.4540, 13199.00
327.6590, 13933.00
328.8640, 15352.00
330.0680, 16762.00
331.2730, 19025.00
332.4780, 21935.00
333.6820, 24306.00
334.8860, 24201.00
336.0900, 21623.00
337.2940, 18334.00
338.4980, 16062.00
339.7010, 14122.00
340.9050, 13304.00
342.1080, 13147.00
343.3110, 13573.00
344.5140, 14444.00
345.7170, 16128.00
346.9200, 18076.00
348.1220, 20046.00
349.3240, 20624.00
350.5270, 19254.00
351.7290, 16811.00
352.9310, 14351.00
354.1320, 12524.00
355.3340, 11066.00
356.5350, 10046.00
357.7370, 9412.000
358.9380, 8967.000
360.1390, 8556.000
361.3400, 8315.000
362.5400, 8116.000
363.7410, 8042.000
364.9410, 7966.618
366.1410, 7972.000
367.3410, 8019.000
368.5410, 8091.152
369.7410, 8167.000
370.9400, 8390.000
372.1400, 8609.000
373.3390, 8880.000
374.5380, 9584.000
375.7370, 10630.00
376.9360, 11856.00
378.1350, 13486.00
379.3330, 14871.00
380.5310, 15072.00
381.7300, 14292.00
382.9280, 12993.00
384.1260, 12198.00
385.3230, 11459.00
386.5210, 10780.00
387.7180, 9837.000
388.9160, 9162.000
390.1130, 8585.000
391.3100, 8159.000
392.5060, 7789.000
393.7030, 7430.000
394.9000, 7222.534
396.0960, 7167.000
397.2920, 6961.000
398.4880, 6972.000
399.6840, 6999.000
400.8800, 6721.000
402.0750, 6829.000
403.2710, 6723.530
404.4660, 6608.759
405.6610, 6634.000
406.8560, 6457.000
408.0510, 6391.000
409.2450, 6392.000
410.4400, 6452.000
411.6340, 6414.000
412.8280, 6345.000
414.0220, 6406.000
415.2160, 6413.000
416.4100, 6319.000
417.6030, 6304.000
418.7970, 6276.000
419.9900, 6300.067
421.1830, 6372.000
422.3760, 6430.000
423.5690, 6436.000
424.7610, 6559.000
425.9540, 6541.000
427.1460, 6538.000
428.3380, 6727.000
429.5300, 6752.000
430.7220, 6656.000
431.9140, 6769.000
433.1050, 6862.000
434.2970, 6902.000
435.4880, 6822.000
436.6790, 6902.000
437.8700, 6904.000
439.0610, 6901.000
440.2510, 6970.000
441.4420, 6869.000
442.6320, 7086.000
443.8220, 7169.000
445.0120, 7095.000
446.2020, 7125.000
447.3910, 7230.000
448.5810, 7266.000
449.7700, 7340.805
450.9600, 7481.000
452.1490, 7505.000
453.3370, 7564.000
454.5260, 7695.000
455.7150, 7861.000
456.9030, 7921.000
458.0910, 8229.000
459.2800, 8405.000
460.4670, 8604.000
461.6550, 8956.000
462.8430, 9437.000
464.0300, 9948.000
465.2180, 10566.00
466.4050, 11309.00
467.5920, 12498.00
468.7790, 13848.00
469.9650, 15640.00
471.1520, 18051.00
472.3380, 21262.00
473.5250, 24556.00
474.7110, 28169.00
475.8970, 29547.00
477.0820, 29054.00
478.2680, 26338.00
479.4540, 22435.00
480.6390, 18835.00
481.8240, 15838.00
483.0090, 13883.00
484.1940, 12361.00
485.3780, 11348.00
486.5630, 10557.00
487.7470, 9963.000
488.9320, 9559.878
490.1160, 9277.613
491.3000, 9281.000
492.4830, 9128.000
493.6670, 9283.000
494.8500, 9366.000
496.0340, 9583.000
497.2170, 9877.000
498.4000, 10356.00
499.5820, 10926.00
500.7650, 11821.00
501.9480, 12094.00
503.1300, 11938.00
504.3120, 11418.00
505.4940, 10472.00
506.6760, 9797.000
507.8580, 9203.000
509.0390, 8755.000
510.2210, 8406.000
511.4020, 8219.000
512.5830, 8071.000
513.7640, 7881.000
514.9450, 7868.000
516.1250, 7683.000
517.3060, 7766.000
518.4860, 7645.000
519.6660, 7802.000
520.8460, 7784.000
522.0260, 7780.975
523.2060, 7968.000
524.3850, 7837.000
525.5650, 7911.000
526.7440, 8045.000
527.9230, 8115.000
529.1020, 8226.000
530.2810, 8461.000
531.4590, 8669.000
532.6380, 8991.000
533.8160, 9450.000
534.9940, 10048.00
536.1720, 10833.00
537.3500, 11527.00
538.5270, 12071.00
539.7050, 12175.00
540.8820, 11493.00
542.0590, 10896.00
543.2360, 10176.00
544.4130, 9955.000
545.5900, 9614.000
546.7660, 9441.000
547.9430, 9314.000
549.1190, 9341.000
550.2950, 9709.000
551.4710, 9905.000
552.6470, 10320.00
553.8220, 10693.00
554.9980, 11143.00
556.1730, 11945.00
557.3480, 12301.00
558.5230, 12547.00
559.6980, 12543.00
560.8730, 12125.00
562.0470, 11559.00
563.2220, 11109.00
564.3960, 10380.00
565.5700, 9872.000
566.7440, 9669.000
567.9170, 9288.000
569.0910, 9032.000
570.2640, 8914.000
571.4380, 8827.000
572.6110, 8572.000
573.7840, 8483.000
574.9570, 8382.000
576.1290, 8258.000
577.3020, 8140.000
578.4740, 8130.000
579.6460, 8100.000
580.8180, 7926.000
581.9900, 8054.000
583.1620, 8018.000
584.3330, 7990.000
585.5040, 8089.000
586.6760, 8037.000
587.8470, 7954.000
589.0180, 8047.000
590.1880, 8202.000
591.3590, 8080.000
592.5290, 8237.000
593.7000, 8341.000
594.8700, 8404.000
596.0400, 8756.000
597.2090, 8872.000
598.3790, 9133.000
599.5490, 9378.000
600.7180, 9584.000
601.8870, 10020.00
603.0560, 10475.00
604.2250, 11046.00
605.3940, 11711.00
606.5620, 12389.00
607.7300, 13204.04
608.8990, 14158.00
610.0670, 15004.00
611.2350, 16116.00
612.4020, 17164.00
613.5700, 18398.00
614.7370, 19506.00
615.9050, 20145.00
617.0720, 20214.00
618.2390, 19941.00
619.4060, 19242.00
620.5720, 18228.00
621.7390, 17710.00
622.9050, 17387.00
624.0710, 17216.00
625.2370, 17489.00
626.4030, 18047.00
627.5690, 19113.00
628.7340, 20431.00
629.9000, 22389.00
631.0650, 24577.00
632.2300, 27843.00
633.3950, 31104.00
634.5600, 35069.00
635.7240, 38228.00
636.8890, 41121.00
638.0530, 42091.00
639.2170, 41091.00
640.3810, 38582.00
641.5450, 34435.00
642.7080, 30829.00
643.8720, 27498.56
645.0350, 24135.11
646.1980, 20997.00
647.3610, 18554.00
648.5240, 16778.00
649.6870, 15208.00
650.8490, 14187.00
652.0120, 13240.00
653.1740, 12556.00
654.3360, 11775.00
655.4980, 11294.00
656.6600, 10860.00
657.8210, 10435.00
658.9830, 10469.00
660.1440, 10090.37
661.3050, 9846.000
662.4660, 9560.000
663.6270, 9325.114
664.7870, 9313.000
665.9480, 8976.000
667.1080, 8926.000
668.2680, 8892.000
669.4280, 8631.000
670.5880, 8678.000
671.7480, 8623.000
672.9070, 8545.000
674.0670, 8534.000
675.2260, 8459.000
676.3850, 8405.000
677.5440, 8373.000
678.7030, 8351.000
679.8610, 8582.000
681.0200, 8458.067
682.1780, 8496.418
683.3360, 8404.000
684.4940, 8412.000
685.6520, 8444.000
686.8090, 8368.000
687.9670, 8402.000
689.1240, 8455.000
690.2810, 8489.917
691.4380, 8692.000
692.5950, 8611.000
693.7520, 8789.000
694.9080, 8780.000
696.0650, 8807.000
697.2210, 9033.000
698.3770, 9060.248
699.5330, 9241.000
700.6880, 9270.000
701.8440, 9378.000
702.9990, 9448.000
704.1550, 9412.000
705.3100, 9510.000
706.4650, 9524.417
707.6190, 9705.000
708.7740, 9616.000
709.9290, 9559.000
711.0830, 9643.000
712.2370, 9353.000
713.3910, 9390.000
714.5450, 9163.000
715.6980, 9112.000
716.8520, 8794.000
718.0050, 8806.000
719.1580, 8626.000
720.3110, 8385.000
721.4640, 8191.000
722.6170, 8181.000
723.7700, 8123.000
724.9220, 7918.000
726.0740, 7655.000
727.2260, 7710.000
728.3780, 7512.000
729.5300, 7621.000
730.6810, 7436.000
731.8330, 7479.000
732.9840, 7405.000
734.1350, 7474.000
735.2860, 7362.000
736.4370, 7398.000
737.5880, 7559.000
738.7380, 7465.000
739.8880, 7348.000
741.0390, 7471.000
742.1890, 7444.000
743.3380, 7415.000
744.4880, 7420.000
745.6380, 7567.000
746.7870, 7571.888
747.9360, 7610.000
749.0850, 7658.000
750.2340, 7644.000
751.3830, 7570.000
752.5310, 7641.772
753.6800, 7680.000
754.8280, 7719.000
755.9760, 7632.000
757.1240, 7655.000
758.2720, 7545.000
759.4190, 7411.000
760.5670, 7445.000
761.7140, 7424.000
762.8610, 7377.000
764.0080, 7360.000
765.1550, 7010.350
766.3020, 7098.994
767.4480, 7130.725
768.5950, 7108.533
769.7410, 6871.090
770.8870, 6911.645
772.0330, 6840.791
773.1780, 6765.406
774.3240, 6845.086
775.4690, 6638.992
776.6140, 6716.247
777.7590, 6680.396
778.9040, 6744.000
780.0490, 6628.000
781.1940, 6601.000
782.3380, 6599.000
783.4820, 6687.000
784.6260, 6614.130
785.7700, 6606.000
786.9140, 6538.000
788.0580, 6414.000
789.2010, 6378.000
790.3450, 6429.000
791.4880, 6352.226
792.6310, 6449.000
793.7730, 6310.000
794.9160, 6315.000
796.0590, 6293.000
797.2010, 6192.000
798.3430, 6210.000
799.4850, 6247.000
800.6270, 6259.000
801.7690, 6240.000
802.9100, 6283.000
804.0520, 6080.000
805.1930, 6235.000
806.3340, 6101.000
807.4750, 6081.000
808.6160, 6148.000
809.7560, 6090.000
810.8970, 6157.000
812.0370, 6058.000
813.1770, 5995.000
814.3170, 5991.000
815.4570, 6009.000
816.5960, 5995.000
817.7360, 5970.000
818.8750, 6071.000
820.0140, 5986.000
821.1530, 5977.000
822.2920, 6043.000
823.4310, 6019.000
824.5690, 5951.000
825.7070, 6008.000
826.8460, 6021.000
827.9840, 5955.000
829.1220, 5938.000
830.2590, 5893.000
831.3970, 5865.000
832.5340, 5885.829
833.6710, 5889.446
834.8080, 5915.000
835.9450, 5939.000
837.0820, 5904.000
838.2190, 5895.000
839.3550, 5980.000
840.4910, 5954.607
841.6270, 5980.000
842.7630, 5948.000
843.8990, 6000.245
845.0350, 5917.382
846.1700, 6004.000
847.3060, 5962.000
848.4410, 5968.000
849.5760, 5985.000
850.7100, 5902.000
851.8450, 5940.000
852.9800, 5890.000
854.1140, 5927.000
855.2480, 5944.000
856.3820, 5898.000
857.5160, 5927.000
858.6500, 5935.591
859.7830, 5904.000
860.9170, 5982.000
862.0500, 6013.000
863.1830, 6041.000
864.3160, 6054.933
865.4480, 5956.000
866.5810, 6040.000
867.7130, 5976.000
868.8460, 5953.000
869.9780, 5963.000
871.1100, 6013.000
872.2410, 6006.165
873.3730, 6038.000
874.5050, 6026.000
875.6360, 6004.000
876.7670, 5981.000
877.8980, 5919.000
879.0290, 5992.000
880.1590, 5936.000
881.2900, 6055.000
882.4200, 6044.000
883.5500, 6021.119
884.6800, 6045.000
885.8100, 5906.000
886.9400, 6023.000
888.0690, 5862.466
889.1990, 5986.000
890.3280, 5945.000
891.4570, 6082.000
892.5860, 6046.000
893.7140, 5966.000
894.8430, 6092.000
895.9710, 6000.000
897.1000, 5919.000
898.2280, 6090.000
899.3560, 6044.000
900.4830, 6063.000
901.6110, 6081.000
902.7380, 6075.000
903.8660, 6009.000
904.9930, 6061.000
906.1200, 6079.000
907.2460, 6134.000
908.3730, 6058.000
909.5000, 6121.000
910.6260, 6094.000
911.7520, 6026.000
912.8780, 6196.000
914.0040, 6366.000
915.1290, 6307.711
916.2550, 6581.000
917.3800, 6204.000
918.5050, 6283.000
919.6300, 6050.000
920.7550, 6090.000
921.8800, 6191.000
923.0040, 6086.000
924.1290, 6163.000
925.2530, 6066.000
926.3770, 6109.000
927.5010, 6141.000
928.6250, 6082.234
929.7480, 6152.000
930.8720, 6058.000
931.9950, 6048.000
933.1180, 6110.000
934.2410, 6134.000
935.3640, 6293.000
936.4860, 6114.000
937.6090, 6218.000
938.7310, 6079.000
939.8530, 6108.000
940.9750, 6123.032
942.0970, 6307.000
943.2180, 6143.000
944.3400, 6129.000
945.4610, 6112.000
946.5820, 6016.000
947.7030, 6125.000
948.8240, 6248.000
949.9450, 6156.343
951.0650, 6162.000
952.1860, 6087.000
953.3060, 6111.000
954.4260, 6120.000
955.5460, 6107.423
956.6650, 6145.000
957.7850, 6141.000
958.9040, 6118.000
960.0230, 6160.000
961.1420, 6214.000
962.2610, 6083.000
963.3800, 6176.000
964.4990, 6198.000
965.6170, 6089.000
966.7350, 6180.000
967.8530, 5982.000
968.9710, 6124.000
970.0890, 6187.000
971.2070, 6167.000
972.3240, 6113.000
973.4410, 6160.000
974.5580, 6165.000
975.6750, 6171.000
976.7920, 6178.000
977.9090, 6167.809
979.0250, 6182.000
980.1410, 6147.000
981.2580, 6154.000
982.3740, 6150.000
983.4890, 6250.000
984.6050, 6276.000
985.7200, 6272.000
986.8360, 6280.000
987.9510, 6272.460
989.0660, 6290.000
990.1810, 6155.406
991.2950, 6287.260
992.4100, 6362.169
993.5240, 6383.190
994.6390, 6188.928
995.7530, 6272.659
996.8660, 6244.981
997.9800, 6212.737
999.0940, 6335.595
1000.207, 6172.643
1001.320, 6293.040
1002.433, 6300.329
1003.546, 6359.385
1004.659, 6295.000
1005.772, 6361.000
1006.884, 6345.074
1007.996, 6324.000
1009.108, 6329.000
1010.220, 6273.000
1011.332, 6262.000
1012.444, 6277.000
1013.555, 6272.000
1014.666, 6307.000
1015.777, 6287.965
1016.888, 6291.312
1017.999, 6273.000
1019.110, 6287.000
1020.220, 6304.000
1021.331, 6326.000
1022.441, 6204.000
1023.551, 6279.000
1024.661, 6238.000
1025.770, 6281.000
1026.880, 6248.000
1027.989, 6238.000
1029.098, 6294.000
1030.207, 6213.000
1031.316, 6293.000
1032.425, 6193.000
1033.533, 6306.000
1034.642, 6303.000
1035.750, 6273.000
1036.858, 6249.000
1037.966, 6300.000
1039.073, 6178.000
1040.181, 6224.000
1041.288, 6170.000
1042.396, 6259.000
1043.503, 6263.000
1044.610, 6274.000
1045.716, 6253.000
1046.823, 6306.000
1047.929, 6292.035
1049.036, 6245.000
1050.142, 6305.000
1051.248, 6313.000
1052.353, 6332.000
1053.459, 6374.000
1054.564, 6314.000
1055.670, 6324.000
1056.775, 6229.000
1057.880, 6276.000
1058.985, 6281.000
1060.089, 6208.000
1061.194, 6286.000
1062.298, 6279.000
1063.402, 6296.000
1064.506, 6313.000
1065.610, 6313.000
1066.713, 6339.000
1067.817, 6255.000
1068.920, 6232.000
1070.023, 6255.000
1071.126, 6241.000
1072.229, 6288.000
1073.332, 6351.000
1074.435, 6274.000
1075.537, 6283.000
1076.639, 6298.000
1077.741, 6341.000
1078.843, 6308.000
1079.945, 6233.000
1081.046, 6228.000
1082.148, 6216.000
1083.249, 6266.000
1084.350, 6225.000
1085.451, 6215.000
1086.551, 6163.000
1087.652, 6180.000
1088.752, 6100.000
1089.853, 6134.000
1090.953, 6108.000
1092.053, 6270.000
1093.152, 6144.000
1094.252, 6178.000
1095.351, 6152.000
1096.451, 6344.000
1097.550, 6247.062
1098.649, 6269.206
1099.748, 6187.000
1100.846, 6164.000
1101.945, 6201.000
1103.043, 6073.000
1104.141, 6205.000
1105.239, 6113.000
1106.337, 6094.000
1107.434, 6090.000
1108.532, 6063.000
1109.629, 6028.000
1110.726, 6067.484
1111.823, 6052.000
1112.920, 6127.000
1114.017, 6122.000
1115.113, 6116.000
1116.210, 6122.000
1117.306, 6031.000
1118.402, 6188.000
1119.498, 6101.000
1120.593, 6230.000
1121.689, 6134.000
1122.784, 6150.000
1123.879, 6257.000
1124.974, 6135.000
1126.069, 6164.000
1127.164, 6176.000
1128.259, 6062.000
1129.353, 6136.000
1130.447, 6102.000
1131.541, 6042.927
1132.635, 5978.000
1133.729, 5971.000
1134.822, 5990.000
1135.916, 6034.000
1137.009, 6043.000
1138.102, 6025.608
1139.195, 5997.812
1140.288, 5985.000
1141.380, 5841.900
1142.473, 5969.217
1143.565, 6039.589
1144.657, 6056.075
1145.749, 5857.275
1146.841, 5936.472
1147.932, 5904.263
1149.024, 5867.482
1150.115, 5985.808
1151.206, 5818.324
1152.297, 5934.189
1153.388, 5936.947
1154.479, 5991.472
1155.569, 5997.000
1156.659, 5932.000
1157.750, 5874.000
1158.839, 5915.219
1159.929, 5878.622
1161.019, 5941.000
1162.108, 5891.000
1163.198, 5913.000
1164.287, 5925.000
1165.376, 5966.359
1166.465, 5900.979
1167.553, 6047.000
1168.642, 5869.000
1169.730, 5787.000
1170.818, 5991.000
1171.906, 5971.000
1172.994, 5824.000
1174.082, 5951.000
1175.170, 5854.000
1176.257, 5889.000
1177.344, 5886.000
1178.431, 5842.000
1179.518, 5831.000
1180.605, 5828.119
1181.691, 5833.000
1182.778, 5823.000
1183.864, 5815.000
1184.950, 5797.000
1186.036, 5810.000
1187.122, 5855.000
1188.207, 5806.000
1189.292, 5811.000
1190.378, 5841.000
1191.463, 5912.000
1192.548, 5914.000
1193.632, 5782.000
1194.717, 5855.000
1195.801, 5805.000
1196.886, 5776.000
1197.970, 5840.000
1199.054, 5912.000
1200.137, 5803.000
1201.221, 5787.000
1202.305, 5826.000
1203.388, 5860.000
1204.471, 5843.003
1205.554, 5939.000
1206.637, 5860.000
1207.719, 5705.000
1208.802, 5770.000
1209.884, 5815.000
1210.966, 5863.000
1212.048, 5760.000
1213.130, 5805.000
1214.212, 5763.000
1215.293, 5811.000
1216.374, 5840.000
1217.456, 5913.000
1218.536, 5860.000
1219.617, 5811.000
1220.698, 5856.000
1221.778, 5861.137
1222.859, 6020.000
1223.939, 5967.000
1225.019, 5949.000
1226.099, 6017.000
1227.178, 5949.000
1228.258, 6137.000
1229.337, 5831.000
1230.417, 5757.000
1231.496, 5858.000
1232.574, 5811.000
1233.653, 5839.000
1234.732, 5726.000
1235.810, 5861.000
1236.888, 5786.000
1237.966, 5888.000
1239.044, 5794.000
1240.122, 5829.000
1241.199, 5788.000
