##NAMES=Baddeleyite
##RRUFFID=R060078
##IDEAL CHEMISTRY=Zr^4+^O_2_
##LOCALITY=Wetloo mine, Mogok, Burma
##OWNER=RRUFF
##SOURCE=Marcus Origlieri
##DESCRIPTION=Dark brown fragment
##STATUS=The identification of this mineral has been confirmed by X-ray diffraction and chemical analysis
##URL=rruff.info/R060078
##MEASURED CHEMISTRY=(Zr_0.99_Hf_0.01_)_Î£=1_O_2_
##PIN_ID=L01430
##ORIENTATION=Laser parallel to c* (0 0 1). Fiducial mark perpendicular to laser is parallel to a [1 0 0]
51.43100, 758.0000
52.67100, 785.0000
53.91000, 815.0000
55.14900, 775.0000
56.38700, 803.0000
57.62600, 814.0000
58.86400, 874.0000
60.10300, 841.0000
61.34100, 820.0000
62.57900, 825.0000
63.81700, 908.0000
65.05400, 970.0000
66.29200, 1083.000
67.52900, 1259.000
68.76700, 2010.000
70.00400, 1951.043
71.24100, 2962.000
72.47700, 2332.000
73.71400, 2348.000
74.95100, 2722.000
76.18700, 3080.000
77.42300, 2800.000
78.65900, 2806.000
79.89500, 3252.000
81.13100, 3819.000
82.36700, 4717.000
83.60200, 5393.000
84.83700, 5192.000
86.07200, 4963.000
87.30800, 5240.000
88.54200, 5820.000
89.77700, 6603.000
91.01200, 7858.000
92.24600, 8484.000
93.48000, 8863.000
94.71400, 9425.000
95.94800, 9911.000
97.18200, 10834.00
98.41600, 12681.00
99.64900, 15437.00
100.8830, 19771.00
102.1160, 28410.00
103.3490, 43150.00
104.5820, 61583.00
105.8150, 65535.00
107.0470, 56442.00
108.2800, 39484.00
109.5120, 33925.00
110.7440, 19074.00
111.9760, 13568.00
113.2080, 11271.00
114.4400, 10566.00
115.6710, 10461.00
116.9030, 9700.000
118.1340, 9027.000
119.3650, 8408.000
120.5960, 8124.000
121.8270, 8204.000
123.0580, 8253.000
124.2880, 9032.000
125.5190, 8553.000
126.7490, 8228.000
127.9790, 7513.000
129.2090, 7115.000
130.4390, 7058.000
131.6680, 6948.000
132.8980, 6596.000
134.1270, 6533.000
135.3560, 6585.000
136.5850, 6743.000
137.8140, 6975.000
139.0430, 6865.980
140.2710, 7132.000
141.5000, 6717.000
142.7280, 6453.000
143.9560, 6387.000
145.1840, 6212.000
146.4120, 6237.901
147.6390, 6208.793
148.8670, 6432.000
150.0940, 6341.000
151.3210, 6570.000
152.5490, 6819.000
153.7750, 6522.000
155.0020, 6443.000
156.2290, 6412.000
157.4550, 6275.000
158.6810, 6326.000
159.9080, 6479.000
161.1340, 6681.000
162.3590, 7080.000
163.5850, 7533.000
164.8110, 7879.648
166.0360, 8464.000
167.2610, 8735.000
168.4860, 9217.000
169.7110, 9658.000
170.9360, 10337.00
172.1610, 11040.00
173.3850, 12261.00
174.6100, 14790.00
175.8340, 18885.00
177.0580, 26926.00
178.2820, 39108.00
179.5050, 48992.00
180.7290, 44378.00
181.9520, 31574.00
183.1760, 21079.00
184.3990, 15405.00
185.6220, 12717.00
186.8450, 11814.00
188.0670, 13103.00
189.2900, 19414.00
190.5120, 15921.00
191.7340, 19663.00
192.9560, 20596.00
194.1780, 17284.00
195.4000, 13705.00
196.6220, 11319.00
197.8430, 10229.00
199.0640, 9744.000
200.2860, 10385.00
201.5070, 10996.00
202.7270, 10496.00
203.9480, 9434.000
205.1690, 7931.000
206.3890, 7222.000
207.6090, 6865.000
208.8290, 6704.000
210.0490, 6565.000
211.2690, 6705.000
212.4890, 6591.000
213.7080, 6734.000
214.9280, 6731.000
216.1470, 6742.000
217.3660, 6765.000
218.5850, 6936.000
219.8030, 7279.000
221.0220, 7851.000
222.2400, 8455.000
223.4590, 9109.000
224.6770, 8718.000
225.8950, 7810.000
227.1120, 7076.000
228.3300, 6745.000
229.5480, 6394.000
230.7650, 6288.000
231.9820, 6175.000
233.1990, 6096.000
234.4160, 6156.000
235.6330, 6006.000
236.8490, 6103.000
238.0660, 5997.000
239.2820, 6042.564
240.4980, 6005.030
241.7140, 6158.000
242.9300, 5994.000
244.1460, 6083.000
245.3610, 6238.000
246.5770, 6208.000
247.7920, 6220.000
249.0070, 6308.000
250.2220, 6321.000
251.4370, 6243.000
252.6510, 6252.000
253.8660, 6396.000
255.0800, 6340.000
256.2940, 6465.000
257.5080, 6853.000
258.7220, 7515.000
259.9360, 7217.024
261.1490, 7497.000
262.3630, 6803.000
263.5760, 6599.000
264.7890, 6343.000
266.0020, 6245.000
267.2150, 6209.000
268.4270, 6281.000
269.6400, 6096.000
270.8520, 6122.000
272.0640, 6270.000
273.2760, 6197.000
274.4880, 6248.000
275.7000, 6317.000
276.9120, 6439.000
278.1230, 6276.000
279.3340, 6359.000
280.5450, 6409.000
281.7560, 6516.000
282.9670, 6662.000
284.1780, 6822.000
285.3880, 6830.000
286.5980, 7102.000
287.8090, 7165.000
289.0190, 7366.000
290.2290, 7479.000
291.4380, 7623.000
292.6480, 7818.000
293.8570, 7967.000
295.0670, 8155.000
296.2760, 8289.000
297.4850, 8559.000
298.6930, 8777.000
299.9020, 9204.000
301.1110, 9396.000
302.3190, 10085.00
303.5270, 10675.00
304.7350, 11633.00
305.9430, 12606.00
307.1510, 13354.00
308.3580, 13857.00
309.5660, 13516.00
310.7730, 12765.00
311.9800, 11826.00
313.1870, 10875.00
314.3940, 10537.00
315.6010, 9633.000
316.8070, 9178.000
318.0130, 8959.000
319.2200, 8793.000
320.4260, 8877.000
321.6310, 8954.000
322.8370, 9214.000
324.0430, 9540.000
325.2480, 10087.00
326.4540, 10745.00
327.6590, 11613.00
328.8640, 12932.00
330.0680, 14622.00
331.2730, 17359.00
332.4780, 20228.00
333.6820, 22419.00
334.8860, 22170.00
336.0900, 19247.00
337.2940, 15925.00
338.4980, 13020.00
339.7010, 11089.00
340.9050, 9915.000
342.1080, 9349.000
343.3110, 9111.000
344.5140, 9157.000
345.7170, 9465.000
346.9200, 9822.000
348.1220, 10214.00
349.3240, 10129.00
350.5270, 9263.000
351.7290, 8213.000
352.9310, 7680.000
354.1320, 6945.000
355.3340, 6567.000
356.5350, 6061.000
357.7370, 5813.000
358.9380, 5810.000
360.1390, 5650.000
361.3400, 5608.000
362.5400, 5569.000
363.7410, 5582.000
364.9410, 5633.000
366.1410, 5445.000
367.3410, 5573.000
368.5410, 5612.000
369.7410, 5764.000
370.9400, 5981.000
372.1400, 6043.000
373.3390, 6352.000
374.5380, 6844.000
375.7370, 7389.000
376.9360, 8488.000
378.1350, 9472.000
379.3330, 10215.00
380.5310, 10008.00
381.7300, 9534.000
382.9280, 8683.000
384.1260, 8023.000
385.3230, 7379.000
386.5210, 7019.000
387.7180, 6542.000
388.9160, 6191.000
390.1130, 5844.000
391.3100, 5552.000
392.5060, 5480.000
393.7030, 5301.000
394.9000, 5226.000
396.0960, 5123.000
397.2920, 5007.000
398.4880, 5025.000
399.6840, 4989.000
400.8800, 4920.000
402.0750, 4906.000
403.2710, 4944.000
404.4660, 4874.000
405.6610, 4758.000
406.8560, 4827.000
408.0510, 4751.000
409.2450, 4725.552
410.4400, 4744.442
411.6340, 4693.000
412.8280, 4736.000
414.0220, 4782.000
415.2160, 4758.000
416.4100, 4725.000
417.6030, 4762.876
418.7970, 4795.000
419.9900, 4777.000
421.1830, 4811.000
422.3760, 4768.000
423.5690, 4874.000
424.7610, 4814.000
425.9540, 4979.000
427.1460, 4951.000
428.3380, 4938.000
429.5300, 5014.000
430.7220, 5017.000
431.9140, 5180.000
433.1050, 5145.342
434.2970, 5193.000
435.4880, 5161.000
436.6790, 5111.000
437.8700, 5168.000
439.0610, 5166.000
440.2510, 5252.000
441.4420, 5343.000
442.6320, 5336.942
443.8220, 5532.000
445.0120, 5386.000
446.2020, 5330.000
447.3910, 5396.000
448.5810, 5451.000
449.7700, 5455.000
450.9600, 5615.000
452.1490, 5570.000
453.3370, 5769.000
454.5260, 5667.000
455.7150, 5900.000
456.9030, 5936.000
458.0910, 6203.000
459.2800, 6309.000
460.4670, 6459.000
461.6550, 6807.000
462.8430, 7028.000
464.0300, 7546.000
465.2180, 8110.000
466.4050, 8663.000
467.5920, 9504.000
468.7790, 10627.00
469.9650, 12098.00
471.1520, 13819.00
472.3380, 16466.00
473.5250, 19170.00
474.7110, 21860.00
475.8970, 23059.00
477.0820, 22361.00
478.2680, 20040.00
479.4540, 17193.00
480.6390, 14659.00
481.8240, 12318.00
483.0090, 10824.00
484.1940, 9706.000
485.3780, 9275.000
486.5630, 8388.000
487.7470, 7961.000
488.9320, 7690.000
490.1160, 7644.000
491.3000, 7517.761
492.4830, 7450.000
493.6670, 7635.000
494.8500, 7727.000
496.0340, 7925.000
497.2170, 8320.000
498.4000, 8800.000
499.5820, 9553.000
500.7650, 10463.00
501.9480, 10824.00
503.1300, 10576.00
504.3120, 9969.000
505.4940, 9039.000
506.6760, 8327.000
507.8580, 7598.000
509.0390, 7188.000
510.2210, 6670.000
511.4020, 6553.000
512.5830, 6413.000
513.7640, 6294.000
514.9450, 6260.000
516.1250, 6157.000
517.3060, 6185.000
518.4860, 6038.000
519.6660, 6074.000
520.8460, 6115.000
522.0260, 6222.000
523.2060, 6125.000
524.3850, 6188.000
525.5650, 6223.000
526.7440, 6411.000
527.9230, 6467.000
529.1020, 6641.000
530.2810, 6756.000
531.4590, 7031.000
532.6380, 7494.000
533.8160, 7851.000
534.9940, 8534.000
536.1720, 9199.000
537.3500, 9912.000
538.5270, 10482.00
539.7050, 10521.00
540.8820, 10020.00
542.0590, 9176.000
543.2360, 8434.000
544.4130, 7990.000
545.5900, 7657.000
546.7660, 7376.000
547.9430, 7323.000
549.1190, 7295.000
550.2950, 7337.492
551.4710, 7479.000
552.6470, 7593.000
553.8220, 7934.000
554.9980, 8027.000
556.1730, 8582.000
557.3480, 8711.000
558.5230, 8897.000
559.6980, 8850.000
560.8730, 8491.000
562.0470, 8117.000
563.2220, 7906.000
564.3960, 7599.000
565.5700, 7406.000
566.7440, 7203.000
567.9170, 6915.000
569.0910, 6859.000
570.2640, 6867.000
571.4380, 6640.000
572.6110, 6681.000
573.7840, 6594.000
574.9570, 6551.000
576.1290, 6452.000
577.3020, 6415.000
578.4740, 6413.000
579.6460, 6361.000
580.8180, 6362.000
581.9900, 6457.000
583.1620, 6353.000
584.3330, 6466.000
585.5040, 6374.000
586.6760, 6403.000
587.8470, 6451.000
589.0180, 6511.000
590.1880, 6649.000
591.3590, 6614.000
592.5290, 6707.000
593.7000, 6817.000
594.8700, 6994.000
596.0400, 7171.000
597.2090, 7376.777
598.3790, 7599.994
599.5490, 7861.000
600.7180, 8194.000
601.8870, 8489.000
603.0560, 9036.000
604.2250, 9522.000
605.3940, 10014.00
606.5620, 10726.00
607.7300, 11625.00
608.8990, 12528.00
610.0670, 13567.86
611.2350, 14942.00
612.4020, 15881.00
613.5700, 17207.00
614.7370, 18531.00
615.9050, 19098.00
617.0720, 19501.00
618.2390, 18977.00
619.4060, 18574.00
620.5720, 17762.00
621.7390, 17339.00
622.9050, 17031.00
624.0710, 16981.00
625.2370, 17544.00
626.4030, 18553.00
627.5690, 19804.00
628.7340, 21484.00
629.9000, 23877.00
631.0650, 26711.00
632.2300, 30477.00
633.3950, 34572.00
634.5600, 39190.00
635.7240, 43125.00
636.8890, 46047.00
638.0530, 47169.00
639.2170, 45753.00
640.3810, 42961.00
641.5450, 38155.00
642.7080, 33254.00
643.8720, 28952.00
645.0350, 25267.00
646.1980, 21832.00
647.3610, 19147.00
648.5240, 17171.00
649.6870, 15508.00
650.8490, 14204.00
652.0120, 12937.00
653.1740, 12114.00
654.3360, 11281.00
655.4980, 10664.00
656.6600, 10191.20
657.8210, 9689.754
658.9830, 9322.226
660.1440, 9022.000
661.3050, 8705.000
662.4660, 8493.000
663.6270, 8228.000
664.7870, 8107.000
665.9480, 7854.000
667.1080, 7801.000
668.2680, 7659.000
669.4280, 7569.000
670.5880, 7502.000
671.7480, 7423.000
672.9070, 7469.000
674.0670, 7347.000
675.2260, 7249.000
676.3850, 7217.000
677.5440, 7094.000
678.7030, 7081.000
679.8610, 7039.000
681.0200, 7124.000
682.1780, 7096.160
683.3360, 7134.000
684.4940, 7063.000
685.6520, 7097.000
686.8090, 7074.344
687.9670, 7069.000
689.1240, 7060.821
690.2810, 7058.000
691.4380, 7083.000
692.5950, 7291.000
693.7520, 7190.000
694.9080, 7177.000
696.0650, 7409.000
697.2210, 7302.000
698.3770, 7502.000
699.5330, 7441.000
700.6880, 7648.000
701.8440, 7679.000
702.9990, 7913.000
704.1550, 7852.000
705.3100, 8000.000
706.4650, 8052.000
707.6190, 8002.000
708.7740, 7920.000
709.9290, 8003.000
711.0830, 7971.000
712.2370, 7843.635
713.3910, 7746.903
714.5450, 7580.000
715.6980, 7393.000
716.8520, 7299.000
718.0050, 7136.000
719.1580, 6990.447
720.3110, 6819.000
721.4640, 6718.000
722.6170, 6604.000
723.7700, 6515.000
724.9220, 6474.000
726.0740, 6256.000
727.2260, 6247.000
728.3780, 6111.000
729.5300, 6131.000
730.6810, 6116.000
731.8330, 6053.000
732.9840, 6020.000
734.1350, 5955.000
735.2860, 6009.000
736.4370, 6080.000
737.5880, 6068.000
738.7380, 5988.000
739.8880, 6065.000
741.0390, 6044.000
742.1890, 6109.000
743.3380, 6066.000
744.4880, 6126.000
745.6380, 6219.000
746.7870, 6124.000
747.9360, 6242.000
749.0850, 6253.000
750.2340, 6223.000
751.3830, 6323.000
752.5310, 6301.880
753.6800, 6337.000
754.8280, 6297.000
755.9760, 6356.000
757.1240, 6285.000
758.2720, 6383.000
759.4190, 6226.000
760.5670, 6195.000
761.7140, 6079.000
762.8610, 6005.000
764.0080, 6020.000
765.1550, 5992.000
766.3020, 5897.000
767.4480, 5763.000
768.5950, 5810.000
769.7410, 5633.000
770.8870, 5614.913
772.0330, 5606.000
773.1780, 5526.000
774.3240, 5495.000
775.4690, 5471.000
776.6140, 5454.000
777.7590, 5439.000
778.9040, 5436.000
780.0490, 5372.000
781.1940, 5334.000
782.3380, 5328.000
783.4820, 5273.000
784.6260, 5253.000
785.7700, 5239.000
786.9140, 5094.000
788.0580, 5148.000
789.2010, 5189.000
790.3450, 5248.000
791.4880, 5103.000
792.6310, 5129.000
793.7730, 4977.000
794.9160, 5034.000
796.0590, 5061.000
797.2010, 4931.000
798.3430, 5054.000
799.4850, 4966.261
800.6270, 4898.000
801.7690, 4883.000
802.9100, 4983.000
804.0520, 4951.000
805.1930, 4938.000
806.3340, 4859.000
807.4750, 4848.000
808.6160, 4838.000
809.7560, 4800.000
810.8970, 4880.000
812.0370, 4794.000
813.1770, 4835.000
814.3170, 4733.000
815.4570, 4695.000
816.5960, 4709.000
817.7360, 4766.000
818.8750, 4757.000
820.0140, 4719.000
821.1530, 4618.000
822.2920, 4603.000
823.4310, 4643.000
824.5690, 4741.000
825.7070, 4728.000
826.8460, 4698.000
827.9840, 4594.000
829.1220, 4659.000
830.2590, 4687.000
831.3970, 4625.000
832.5340, 4688.000
833.6710, 4644.000
834.8080, 4638.000
835.9450, 4507.000
837.0820, 4634.000
838.2190, 4589.000
839.3550, 4602.000
840.4910, 4655.000
841.6270, 4623.000
842.7630, 4671.000
843.8990, 4609.000
845.0350, 4580.000
846.1700, 4565.000
847.3060, 4558.000
848.4410, 4693.000
849.5760, 4659.909
850.7100, 4648.333
851.8450, 4690.000
852.9800, 4580.000
854.1140, 4568.000
855.2480, 4583.000
856.3820, 4611.000
857.5160, 4656.000
858.6500, 4627.000
859.7830, 4624.000
860.9170, 4649.139
862.0500, 4601.000
863.1830, 4677.000
864.3160, 4682.000
865.4480, 4682.000
866.5810, 4638.000
867.7130, 4645.000
868.8460, 4652.163
869.9780, 4660.000
871.1100, 4689.000
872.2410, 4661.000
873.3730, 4678.000
874.5050, 4618.000
875.6360, 4549.000
876.7670, 4701.000
877.8980, 4580.000
879.0290, 4680.000
880.1590, 4576.000
881.2900, 4669.000
882.4200, 4599.000
883.5500, 4702.000
884.6800, 4623.000
885.8100, 4661.000
886.9400, 4561.000
888.0690, 4694.000
889.1990, 4657.000
890.3280, 4670.000
891.4570, 4574.000
892.5860, 4637.000
893.7140, 4635.000
894.8430, 4665.000
895.9710, 4768.000
897.1000, 4736.035
898.2280, 4740.000
899.3560, 4616.000
900.4830, 4874.000
901.6110, 4588.000
902.7380, 4664.000
903.8660, 4803.000
904.9930, 4621.000
906.1200, 4711.000
907.2460, 4757.000
908.3730, 4736.000
909.5000, 4738.000
910.6260, 4689.000
911.7520, 4785.000
912.8780, 4723.000
914.0040, 4712.000
915.1290, 4769.000
916.2550, 4728.000
917.3800, 4835.000
918.5050, 4797.000
919.6300, 4792.000
920.7550, 4696.000
921.8800, 4659.000
923.0040, 4720.000
924.1290, 4694.000
925.2530, 4726.000
926.3770, 4644.000
927.5010, 4815.000
928.6250, 4705.000
929.7480, 4761.000
930.8720, 4775.000
931.9950, 4701.000
933.1180, 4735.000
934.2410, 4658.000
935.3640, 4768.000
936.4860, 4752.000
937.6090, 4649.000
938.7310, 4636.000
939.8530, 4733.000
940.9750, 4702.000
942.0970, 4797.000
943.2180, 4653.000
944.3400, 4747.000
945.4610, 4583.621
946.5820, 4718.822
947.7030, 4795.957
948.8240, 4818.144
949.9450, 4620.813
951.0650, 4706.942
952.1860, 4679.475
953.3060, 4647.347
954.4260, 4773.372
955.5460, 4607.967
956.6650, 4731.481
957.7850, 4739.666
958.9040, 4800.632
960.0230, 4723.000
961.1420, 4704.000
962.2610, 4660.000
963.3800, 4715.000
964.4990, 4696.000
965.6170, 4650.000
966.7350, 4716.000
967.8530, 4675.000
968.9710, 4726.000
970.0890, 4712.967
971.2070, 4759.000
972.3240, 4727.000
973.4410, 4637.000
974.5580, 4715.000
975.6750, 4647.000
976.7920, 4757.000
977.9090, 4802.000
979.0250, 4752.000
980.1410, 4706.000
981.2580, 4755.000
982.3740, 4803.000
983.4890, 4702.000
984.6050, 4767.000
985.7200, 4777.000
986.8360, 4831.000
987.9510, 4806.000
989.0660, 4841.000
990.1810, 4793.000
991.2950, 4819.000
992.4100, 4823.000
993.5240, 4792.000
994.6390, 4817.000
995.7530, 4828.000
996.8660, 4770.000
997.9800, 4835.000
999.0940, 4801.000
1000.207, 4869.000
1001.320, 4793.000
1002.433, 4886.000
1003.546, 4866.000
1004.659, 4803.000
1005.772, 4816.000
1006.884, 4862.000
1007.996, 4891.000
1009.108, 4853.000
1010.220, 4869.000
1011.332, 4857.802
1012.444, 4797.000
1013.555, 4833.000
1014.666, 4835.000
1015.777, 4814.000
1016.888, 4834.000
1017.999, 4762.000
1019.110, 4841.000
1020.220, 4796.000
1021.331, 4791.000
1022.441, 4816.000
1023.551, 4728.000
1024.661, 4736.000
1025.770, 4851.000
1026.880, 4741.000
1027.989, 4711.000
1029.098, 4821.000
1030.207, 4759.000
1031.316, 4763.000
1032.425, 4884.000
1033.533, 4801.150
1034.642, 4854.000
1035.750, 4719.000
1036.858, 4877.000
1037.966, 4798.000
1039.073, 4813.000
1040.181, 4744.000
1041.288, 4777.000
1042.396, 4767.000
1043.503, 4800.000
1044.610, 4816.000
1045.716, 4795.000
1046.823, 4691.000
1047.929, 4877.000
1049.036, 4829.000
1050.142, 5058.000
1051.248, 4778.000
1052.353, 4800.000
1053.459, 4708.000
1054.564, 4762.000
1055.670, 4832.000
1056.775, 4829.000
1057.880, 4875.000
1058.985, 4758.000
1060.089, 4769.000
1061.194, 4845.000
1062.298, 4759.000
1063.402, 4823.902
1064.506, 4881.000
1065.610, 4866.000
1066.713, 4806.000
1067.817, 4802.000
1068.920, 4712.000
1070.023, 4839.000
1071.126, 4725.000
1072.229, 4762.000
1073.332, 4688.000
1074.435, 4731.000
1075.537, 4725.965
1076.639, 4761.000
1077.741, 4758.000
1078.843, 4761.275
1079.945, 4735.000
1081.046, 4749.000
1082.148, 4714.000
1083.249, 4685.000
1084.350, 4711.208
1085.451, 4768.000
1086.551, 4767.000
1087.652, 4735.000
1088.752, 4793.000
1089.853, 4753.000
1090.953, 4845.000
1092.053, 4701.000
1093.152, 4772.000
1094.252, 4706.000
1095.351, 4710.000
1096.451, 4708.000
1097.550, 4695.000
1098.649, 4619.000
1099.748, 4660.000
1100.846, 4643.000
1101.945, 4612.000
1103.043, 4655.000
1104.141, 4650.000
1105.239, 4719.000
1106.337, 4743.000
1107.434, 4671.000
1108.532, 4679.000
1109.629, 4647.000
1110.726, 4733.000
1111.823, 4637.000
1112.920, 4731.000
1114.017, 4705.179
1115.113, 4823.000
1116.210, 4676.000
1117.306, 4726.000
1118.402, 4685.000
1119.498, 4588.000
1120.593, 4736.000
1121.689, 4734.000
1122.784, 4747.000
1123.879, 4719.000
1124.974, 4722.000
1126.069, 4721.000
1127.164, 4682.141
1128.259, 4731.000
1129.353, 4627.000
1130.447, 4609.000
1131.541, 4616.000
1132.635, 4642.000
1133.729, 4633.000
1134.822, 4557.000
1135.916, 4575.000
1137.009, 4595.000
1138.102, 4618.000
1139.195, 4627.000
1140.288, 4613.000
1141.380, 4583.000
1142.473, 4611.000
1143.565, 4571.000
1144.657, 4644.000
1145.749, 4605.000
1146.841, 4554.000
1147.932, 4682.000
1149.024, 4648.000
1150.115, 4522.000
1151.206, 4528.000
1152.297, 4511.000
1153.388, 4570.000
1154.479, 4574.000
1155.569, 4564.426
1156.659, 4582.746
1157.750, 4551.000
1158.839, 4557.000
1159.929, 4580.000
1161.019, 4528.000
1162.108, 4508.000
1163.198, 4512.407
1164.287, 4508.000
1165.376, 4525.000
1166.465, 4486.000
1167.553, 4523.000
1168.642, 4583.000
1169.730, 4563.000
1170.818, 4490.000
1171.906, 4603.000
1172.994, 4522.000
1174.082, 4506.000
1175.170, 4496.000
1176.257, 4500.000
1177.344, 4474.026
1178.431, 4472.079
1179.518, 4460.000
1180.605, 4450.000
1181.691, 4503.000
1182.778, 4489.000
1183.864, 4483.000
1184.950, 4432.000
1186.036, 4511.000
1187.122, 4546.000
1188.207, 4472.000
1189.292, 4601.000
1190.378, 4435.000
1191.463, 4532.000
1192.548, 4340.000
1193.632, 4470.000
1194.717, 4420.000
1195.801, 4398.000
1196.886, 4479.000
1197.970, 4422.000
1199.054, 4545.000
1200.137, 4504.000
1201.221, 4544.000
1202.305, 4530.000
1203.388, 4476.000
1204.471, 4500.009
1205.554, 4478.272
1206.637, 4470.000
1207.719, 4516.000
1208.802, 4458.000
1209.884, 4562.000
1210.966, 4460.000
1212.048, 4340.000
1213.130, 4510.000
1214.212, 4496.000
1215.293, 4483.000
1216.374, 4464.000
1217.456, 4553.000
1218.536, 4526.000
1219.617, 4563.000
1220.698, 4473.000
1221.778, 4515.000
1222.859, 4520.000
1223.939, 4574.000
1225.019, 4622.000
1226.099, 4580.000
1227.178, 4510.000
1228.258, 4518.000
1229.337, 4488.000
1230.417, 4512.000
1231.496, 4541.000
1232.574, 4489.000
1233.653, 4486.000
1234.732, 4472.000
1235.810, 4440.000
1236.888, 4427.000
1237.966, 4419.000
1239.044, 4447.000
1240.122, 4287.443
1241.199, 4424.152
