##NAMES=Baddeleyite
##RRUFFID=R060078
##IDEAL CHEMISTRY=Zr^4+^O_2_
##LOCALITY=Wetloo mine, Mogok, Burma
##OWNER=RRUFF
##SOURCE=Marcus Origlieri
##DESCRIPTION=Dark brown fragment
##STATUS=The identification of this mineral has been confirmed by X-ray diffraction and chemical analysis
##URL=rruff.info/R060078
##MEASURED CHEMISTRY=(Zr_0.99_Hf_0.01_)_Î£=1_O_2_
##PIN_ID=L00545
##ORIENTATION=Laser parallel to b* (0 1 0). Fiducial mark perpendicular to laser is parallel to c [0 0 1]
51.43100, 583.0000
52.67100, 581.0000
53.91000, 592.0000
55.14900, 1063.000
56.38700, 1024.000
57.62600, 629.0000
58.86400, 652.0000
60.10300, 684.0000
61.34100, 728.0000
62.57900, 805.0000
63.81700, 814.0000
65.05400, 949.0000
66.29200, 1055.000
67.52900, 1203.000
68.76700, 1413.000
70.00400, 1692.000
71.24100, 1987.000
72.47700, 2172.000
73.71400, 2397.000
74.95100, 2767.000
76.18700, 3138.000
77.42300, 3366.000
78.65900, 3742.000
79.89500, 4138.000
81.13100, 4685.000
82.36700, 5232.000
83.60200, 5718.000
84.83700, 6069.000
86.07200, 6435.000
87.30800, 6986.000
88.54200, 7745.000
89.77700, 8796.000
91.01200, 10696.00
92.24600, 13672.00
93.48000, 17721.00
94.71400, 22784.00
95.94800, 25962.00
97.18200, 25629.00
98.41600, 22507.00
99.64900, 20002.00
100.8830, 17919.00
102.1160, 16154.00
103.3490, 14690.00
104.5820, 14036.00
105.8150, 13364.00
107.0470, 12994.00
108.2800, 12923.00
109.5120, 12778.00
110.7440, 11892.00
111.9760, 10954.00
113.2080, 10587.00
114.4400, 10438.00
115.6710, 10473.00
116.9030, 10364.00
118.1340, 10159.00
119.3650, 10168.00
120.5960, 10011.00
121.8270, 9848.000
123.0580, 9902.000
124.2880, 9711.000
125.5190, 9555.000
126.7490, 9515.000
127.9790, 9542.000
129.2090, 9661.000
130.4390, 9510.000
131.6680, 9549.000
132.8980, 9354.000
134.1270, 9421.000
135.3560, 9452.000
136.5850, 9602.000
137.8140, 9683.000
139.0430, 9701.000
140.2710, 9761.000
141.5000, 9586.000
142.7280, 9504.000
143.9560, 9855.000
145.1840, 9730.000
146.4120, 9905.000
147.6390, 9987.000
148.8670, 10075.00
150.0940, 10228.00
151.3210, 10498.00
152.5490, 10716.47
153.7750, 11014.16
155.0020, 11287.00
156.2290, 11631.00
157.4550, 11893.00
158.6810, 12142.00
159.9080, 12605.00
161.1340, 13191.00
162.3590, 13886.00
163.5850, 14866.00
164.8110, 16239.00
166.0360, 18576.00
167.2610, 22703.00
168.4860, 28239.00
169.7110, 33690.00
170.9360, 34811.00
172.1610, 31923.00
173.3850, 28555.00
174.6100, 26525.00
175.8340, 24956.00
177.0580, 24772.00
178.2820, 26218.00
179.5050, 31329.00
180.7290, 39870.00
181.9520, 51079.00
183.1760, 57270.00
184.3990, 54145.00
185.6220, 45541.00
186.8450, 39490.00
188.0670, 34347.00
189.2900, 29740.00
190.5120, 26147.00
191.7340, 24061.00
192.9560, 22617.00
194.1780, 21383.00
195.4000, 20368.00
196.6220, 19095.00
197.8430, 17939.00
199.0640, 17148.00
200.2860, 16560.00
201.5070, 16396.00
202.7270, 16136.00
203.9480, 15763.00
205.1690, 15160.00
206.3890, 14780.00
207.6090, 14732.00
208.8290, 14486.00
210.0490, 14404.00
211.2690, 14714.00
212.4890, 14557.00
213.7080, 14625.00
214.9280, 14735.00
216.1470, 14401.00
217.3660, 14268.00
218.5850, 13935.00
219.8030, 13666.00
221.0220, 13783.00
222.2400, 13618.00
223.4590, 13423.00
224.6770, 13419.00
225.8950, 13322.00
227.1120, 13355.00
228.3300, 13324.00
229.5480, 13221.00
230.7650, 13313.00
231.9820, 13283.00
233.1990, 13259.00
234.4160, 13460.00
235.6330, 13543.00
236.8490, 13624.74
238.0660, 13786.96
239.2820, 13842.00
240.4980, 13985.00
241.7140, 14143.00
242.9300, 14101.00
244.1460, 14200.08
245.3610, 14273.00
246.5770, 14195.00
247.7920, 14600.00
249.0070, 14522.00
250.2220, 14868.00
251.4370, 15041.00
252.6510, 14991.00
253.8660, 14952.00
255.0800, 14838.00
256.2940, 14639.00
257.5080, 14506.00
258.7220, 14673.00
259.9360, 14446.00
261.1490, 14576.00
262.3630, 14363.00
263.5760, 14434.00
264.7890, 14265.00
266.0020, 14459.00
267.2150, 14429.00
268.4270, 14476.00
269.6400, 14601.00
270.8520, 14729.00
272.0640, 14856.00
273.2760, 15230.00
274.4880, 15570.00
275.7000, 15748.00
276.9120, 16342.00
278.1230, 16614.00
279.3340, 16904.00
280.5450, 17277.00
281.7560, 17572.00
282.9670, 18125.00
284.1780, 18447.00
285.3880, 18718.00
286.5980, 18983.00
287.8090, 19562.00
289.0190, 19949.00
290.2290, 20496.00
291.4380, 20919.00
292.6480, 21783.00
293.8570, 22846.00
295.0670, 24090.00
296.2760, 25395.00
297.4850, 27397.00
298.6930, 28714.00
299.9020, 29809.00
301.1110, 29562.00
302.3190, 28810.00
303.5270, 27707.00
304.7350, 26204.00
305.9430, 25049.00
307.1510, 24046.00
308.3580, 23073.00
309.5660, 22510.00
310.7730, 21611.00
311.9800, 21124.00
313.1870, 20911.00
314.3940, 20526.98
315.6010, 20426.47
316.8070, 20293.00
318.0130, 20382.00
319.2200, 20349.00
320.4260, 20483.00
321.6310, 20633.00
322.8370, 20657.00
324.0430, 20859.00
325.2480, 20768.00
326.4540, 20601.00
327.6590, 20177.00
328.8640, 19929.00
330.0680, 19815.00
331.2730, 20034.00
332.4780, 20717.00
333.6820, 21877.00
334.8860, 23571.00
336.0900, 26431.00
337.2940, 30202.00
338.4980, 34643.00
339.7010, 37893.00
340.9050, 39359.00
342.1080, 38437.00
343.3110, 35658.00
344.5140, 32463.00
345.7170, 29082.00
346.9200, 25923.00
348.1220, 23429.00
349.3240, 21417.00
350.5270, 19732.00
351.7290, 18269.00
352.9310, 17007.00
354.1320, 15944.00
355.3340, 15016.00
356.5350, 14476.00
357.7370, 14244.00
358.9380, 14116.00
360.1390, 13819.00
361.3400, 13991.00
362.5400, 14187.00
363.7410, 14603.00
364.9410, 15345.00
366.1410, 16494.00
367.3410, 18284.00
368.5410, 20675.00
369.7410, 23362.00
370.9400, 25568.00
372.1400, 26223.00
373.3390, 25433.00
374.5380, 24394.00
375.7370, 22931.00
376.9360, 21370.00
378.1350, 19851.00
379.3330, 18721.00
380.5310, 17538.00
381.7300, 16375.00
382.9280, 15367.00
384.1260, 14430.00
385.3230, 13716.00
386.5210, 13093.00
387.7180, 12612.00
388.9160, 12033.00
390.1130, 11608.00
391.3100, 11215.00
392.5060, 10932.09
393.7030, 10847.00
394.9000, 10566.00
396.0960, 10423.00
397.2920, 10325.00
398.4880, 10108.00
399.6840, 10031.00
400.8800, 9935.000
402.0750, 9898.000
403.2710, 9838.000
404.4660, 9816.000
405.6610, 9760.000
406.8560, 9731.105
408.0510, 9740.000
409.2450, 9669.000
410.4400, 9686.000
411.6340, 9653.000
412.8280, 9729.000
414.0220, 9819.000
415.2160, 9929.000
416.4100, 9934.000
417.6030, 9933.000
418.7970, 10023.00
419.9900, 10159.00
421.1830, 10286.00
422.3760, 10319.00
423.5690, 10424.00
424.7610, 10514.00
425.9540, 10675.00
427.1460, 10637.00
428.3380, 10813.00
429.5300, 10814.00
430.7220, 10943.00
431.9140, 11013.00
433.1050, 10996.00
434.2970, 11112.00
435.4880, 11141.00
436.6790, 11236.00
437.8700, 11523.00
439.0610, 11544.00
440.2510, 11652.00
441.4420, 11676.00
442.6320, 11875.00
443.8220, 11929.00
445.0120, 12158.00
446.2020, 12229.00
447.3910, 12482.00
448.5810, 12849.00
449.7700, 13208.00
450.9600, 13505.00
452.1490, 14056.00
453.3370, 14397.00
454.5260, 15272.00
455.7150, 15895.00
456.9030, 16816.00
458.0910, 18149.00
459.2800, 19855.00
460.4670, 21824.00
461.6550, 24563.00
462.8430, 28118.00
464.0300, 32552.00
465.2180, 37842.00
466.4050, 43266.00
467.5920, 47174.00
468.7790, 48304.00
469.9650, 46634.00
471.1520, 43052.00
472.3380, 38668.00
473.5250, 34135.00
474.7110, 30134.00
475.8970, 26890.00
477.0820, 23972.00
478.2680, 21604.00
479.4540, 19840.00
480.6390, 18264.00
481.8240, 16911.00
483.0090, 16026.00
484.1940, 15121.00
485.3780, 14524.00
486.5630, 14359.00
487.7470, 14079.00
488.9320, 13885.00
490.1160, 13941.00
491.3000, 13907.00
492.4830, 13927.00
493.6670, 14082.00
494.8500, 13948.00
496.0340, 13818.00
497.2170, 13666.00
498.4000, 13440.00
499.5820, 13204.51
500.7650, 12945.00
501.9480, 12639.00
503.1300, 12515.00
504.3120, 12237.00
505.4940, 12156.00
506.6760, 12049.00
507.8580, 11920.00
509.0390, 11794.00
510.2210, 11724.00
511.4020, 11690.16
512.5830, 11670.99
513.7640, 11693.00
514.9450, 11723.00
516.1250, 11735.00
517.3060, 11789.00
518.4860, 11938.00
519.6660, 11973.00
520.8460, 12046.00
522.0260, 12030.00
523.2060, 12250.00
524.3850, 12274.00
525.5650, 12459.00
526.7440, 12647.00
527.9230, 12831.00
529.1020, 13156.00
530.2810, 13393.00
531.4590, 13589.00
532.6380, 13745.00
533.8160, 13741.00
534.9940, 13941.00
536.1720, 14258.00
537.3500, 14540.00
538.5270, 14832.00
539.7050, 15299.00
540.8820, 15842.00
542.0590, 16561.00
543.2360, 17587.00
544.4130, 18894.00
545.5900, 20591.00
546.7660, 22433.00
547.9430, 24724.00
549.1190, 27116.00
550.2950, 28744.00
551.4710, 29786.00
552.6470, 29675.00
553.8220, 28579.00
554.9980, 27036.00
556.1730, 25386.00
557.3480, 23762.00
558.5230, 22144.00
559.6980, 20656.00
560.8730, 19522.00
562.0470, 18416.00
563.2220, 17322.00
564.3960, 16509.00
565.5700, 15868.00
566.7440, 15323.00
567.9170, 14645.00
569.0910, 14351.00
570.2640, 14168.00
571.4380, 13974.00
572.6110, 13542.00
573.7840, 13379.00
574.9570, 13198.00
576.1290, 13098.00
577.3020, 12940.00
578.4740, 12848.46
579.6460, 12780.00
580.8180, 12729.00
581.9900, 12701.00
583.1620, 12754.00
584.3330, 12801.00
585.5040, 12801.00
586.6760, 12937.00
587.8470, 13225.00
589.0180, 13324.00
590.1880, 13646.00
591.3590, 13921.00
592.5290, 14129.00
593.7000, 14454.00
594.8700, 15072.00
596.0400, 15795.00
597.2090, 16502.00
598.3790, 17168.00
599.5490, 18006.00
600.7180, 18923.00
601.8870, 20076.00
603.0560, 20898.00
604.2250, 21894.00
605.3940, 22400.00
606.5620, 23049.00
607.7300, 23459.00
608.8990, 23745.00
610.0670, 23525.00
611.2350, 23336.00
612.4020, 22825.00
613.5700, 22317.00
614.7370, 21861.00
615.9050, 21340.00
617.0720, 21108.00
618.2390, 21085.00
619.4060, 21095.00
620.5720, 21540.00
621.7390, 22430.00
622.9050, 23573.00
624.0710, 25495.00
625.2370, 27650.00
626.4030, 30127.00
627.5690, 32640.00
628.7340, 35623.00
629.9000, 37767.00
631.0650, 39019.00
632.2300, 38947.00
633.3950, 37879.00
634.5600, 36187.00
635.7240, 33875.00
636.8890, 31388.00
638.0530, 28783.00
639.2170, 26600.00
640.3810, 24449.00
641.5450, 22540.00
642.7080, 20753.00
643.8720, 19278.00
645.0350, 18015.00
646.1980, 17067.00
647.3610, 16214.00
648.5240, 15579.00
649.6870, 15037.00
650.8490, 14760.00
652.0120, 14261.00
653.1740, 13941.00
654.3360, 13659.00
655.4980, 13353.00
656.6600, 13168.00
657.8210, 13060.00
658.9830, 12894.00
660.1440, 12707.00
661.3050, 12541.00
662.4660, 12456.19
663.6270, 12495.00
664.7870, 12359.00
665.9480, 12350.00
667.1080, 12403.00
668.2680, 12382.00
669.4280, 12275.00
670.5880, 12225.00
671.7480, 12261.00
672.9070, 12251.77
674.0670, 12186.00
675.2260, 12394.00
676.3850, 12412.00
677.5440, 12585.00
678.7030, 12483.00
679.8610, 12626.00
681.0200, 12689.00
682.1780, 12796.00
683.3360, 12953.00
684.4940, 12960.00
685.6520, 13064.00
686.8090, 13184.00
687.9670, 13429.00
689.1240, 13701.00
690.2810, 13713.00
691.4380, 14129.00
692.5950, 14207.00
693.7520, 14683.00
694.9080, 14823.00
696.0650, 14993.00
697.2210, 15287.00
698.3770, 15404.00
699.5330, 15591.00
700.6880, 15644.00
701.8440, 15626.00
702.9990, 15757.00
704.1550, 15680.00
705.3100, 15612.00
706.4650, 15315.00
707.6190, 15123.00
708.7740, 14782.00
709.9290, 14435.00
711.0830, 14124.00
712.2370, 13693.00
713.3910, 13414.00
714.5450, 12964.00
715.6980, 12842.00
716.8520, 12582.00
718.0050, 12240.00
719.1580, 11968.00
720.3110, 11804.00
721.4640, 11579.00
722.6170, 11329.00
723.7700, 11158.00
724.9220, 10989.64
726.0740, 10943.00
727.2260, 10723.00
728.3780, 10662.00
729.5300, 10551.35
730.6810, 10636.00
731.8330, 10474.00
732.9840, 10412.00
734.1350, 10492.00
735.2860, 10451.00
736.4370, 10419.00
737.5880, 10279.00
738.7380, 10252.00
739.8880, 10262.00
741.0390, 10237.00
742.1890, 10336.00
743.3380, 10233.00
744.4880, 10278.00
745.6380, 10149.00
746.7870, 10311.00
747.9360, 10290.00
749.0850, 10223.00
750.2340, 10136.00
751.3830, 10151.00
752.5310, 10126.00
753.6800, 10082.00
754.8280, 10016.00
755.9760, 9982.697
757.1240, 10052.00
758.2720, 9856.000
759.4190, 9879.000
760.5670, 9749.000
761.7140, 9764.000
762.8610, 9596.000
764.0080, 9508.000
765.1550, 9610.000
766.3020, 9389.000
767.4480, 9434.000
768.5950, 9511.000
769.7410, 9320.000
770.8870, 9411.000
772.0330, 9311.000
773.1780, 9294.000
774.3240, 9208.000
775.4690, 9095.000
776.6140, 9219.000
777.7590, 9176.000
778.9040, 8914.000
780.0490, 9090.000
781.1940, 8900.000
782.3380, 8999.000
783.4820, 8882.000
784.6260, 8992.000
785.7700, 8821.000
786.9140, 8786.000
788.0580, 8667.000
789.2010, 8615.000
790.3450, 8633.000
791.4880, 8682.000
792.6310, 8564.000
793.7730, 8597.000
794.9160, 8543.000
796.0590, 8485.000
797.2010, 8413.000
798.3430, 8450.000
799.4850, 8290.000
800.6270, 8404.000
801.7690, 8421.000
802.9100, 8311.000
804.0520, 8330.000
805.1930, 8212.000
806.3340, 8135.000
807.4750, 8160.000
808.6160, 8196.000
809.7560, 8265.000
810.8970, 8203.000
812.0370, 8189.000
813.1770, 8234.000
814.3170, 8226.000
815.4570, 8079.000
816.5960, 8167.000
817.7360, 8130.000
818.8750, 8026.000
820.0140, 8066.000
821.1530, 8172.000
822.2920, 8094.000
823.4310, 8261.000
824.5690, 8093.000
825.7070, 8032.000
826.8460, 8035.000
827.9840, 8079.000
829.1220, 8130.000
830.2590, 7934.000
831.3970, 8001.000
832.5340, 7970.000
833.6710, 7920.000
834.8080, 7894.000
835.9450, 7996.000
837.0820, 8049.000
838.2190, 7913.000
839.3550, 7932.000
840.4910, 7890.000
841.6270, 7918.000
842.7630, 7944.000
843.8990, 7977.000
845.0350, 7921.000
846.1700, 7812.000
847.3060, 7883.000
848.4410, 7898.000
849.5760, 7914.000
850.7100, 7954.000
851.8450, 7963.125
852.9800, 8015.000
854.1140, 7983.000
855.2480, 7957.000
856.3820, 7931.000
857.5160, 7967.000
858.6500, 7968.000
859.7830, 7942.000
860.9170, 7957.000
862.0500, 7945.000
863.1830, 7938.000
864.3160, 7862.000
865.4480, 7917.000
866.5810, 7889.000
867.7130, 7963.000
868.8460, 7890.000
869.9780, 7903.000
871.1100, 7886.000
872.2410, 7885.659
873.3730, 7890.000
874.5050, 7879.000
875.6360, 7908.000
876.7670, 7825.000
877.8980, 7894.000
879.0290, 7903.000
880.1590, 7938.000
881.2900, 7858.000
882.4200, 7832.000
883.5500, 7741.000
884.6800, 7726.000
885.8100, 7791.000
886.9400, 7889.000
888.0690, 7873.000
889.1990, 7731.000
890.3280, 7875.000
891.4570, 7905.000
892.5860, 7814.000
893.7140, 7988.000
894.8430, 7905.000
895.9710, 7900.000
897.1000, 7859.000
898.2280, 7832.000
899.3560, 7785.000
900.4830, 7958.000
901.6110, 7790.000
902.7380, 7806.000
903.8660, 7896.000
904.9930, 7745.000
906.1200, 7868.000
907.2460, 7889.000
908.3730, 7853.000
909.5000, 7823.000
910.6260, 7808.000
911.7520, 7823.000
912.8780, 7853.000
914.0040, 7783.000
915.1290, 7780.000
916.2550, 7822.000
917.3800, 7894.000
918.5050, 7798.000
919.6300, 7890.000
920.7550, 7854.000
921.8800, 7752.000
923.0040, 7821.000
924.1290, 7875.000
925.2530, 7594.000
926.3770, 7773.000
927.5010, 7639.000
928.6250, 7794.000
929.7480, 7819.000
930.8720, 7750.000
931.9950, 7783.000
933.1180, 7624.000
934.2410, 7763.000
935.3640, 7743.000
936.4860, 7716.000
937.6090, 7821.000
938.7310, 7753.248
939.8530, 7764.000
940.9750, 7688.000
942.0970, 7606.000
943.2180, 7542.000
944.3400, 7732.000
945.4610, 7531.000
946.5820, 7701.000
947.7030, 7654.000
948.8240, 7616.000
949.9450, 7582.000
951.0650, 7630.000
952.1860, 7445.000
953.3060, 7628.000
954.4260, 7521.000
955.5460, 7519.000
956.6650, 7549.000
957.7850, 7566.000
958.9040, 7570.878
960.0230, 7597.000
961.1420, 7579.000
962.2610, 7550.000
963.3800, 7536.000
964.4990, 7527.662
965.6170, 7562.000
966.7350, 7525.000
967.8530, 7552.000
968.9710, 7564.000
970.0890, 7556.000
971.2070, 7570.000
972.3240, 7470.000
973.4410, 7660.000
974.5580, 7625.000
975.6750, 7465.000
976.7920, 7563.000
977.9090, 7542.000
979.0250, 7569.000
980.1410, 7410.000
981.2580, 7541.000
982.3740, 7580.000
983.4890, 7491.000
984.6050, 7604.000
985.7200, 7544.000
986.8360, 7528.000
987.9510, 7721.000
989.0660, 7607.000
990.1810, 7485.000
991.2950, 7430.000
992.4100, 7508.000
993.5240, 7485.000
994.6390, 7566.000
995.7530, 7575.000
996.8660, 7601.000
997.9800, 7647.000
999.0940, 7661.000
1000.207, 7659.624
1001.320, 7608.000
1002.433, 7632.000
1003.546, 7492.000
1004.659, 7462.000
1005.772, 7591.000
1006.884, 7498.000
1007.996, 7516.000
1009.108, 7415.000
1010.220, 7533.000
1011.332, 7431.000
1012.444, 7444.000
1013.555, 7471.000
1014.666, 7360.000
1015.777, 7412.000
1016.888, 7420.000
1017.999, 7321.000
1019.110, 7276.000
1020.220, 7273.000
1021.331, 7353.000
1022.441, 7452.000
1023.551, 7376.000
1024.661, 7448.000
1025.770, 7471.000
1026.880, 7415.000
1027.989, 7432.000
1029.098, 7454.000
1030.207, 7379.000
1031.316, 7298.000
1032.425, 7400.000
1033.533, 7267.000
1034.642, 7244.000
1035.750, 7300.000
1036.858, 7278.000
1037.966, 7343.000
1039.073, 7338.083
1040.181, 7272.000
1041.288, 7375.000
1042.396, 7301.000
1043.503, 7377.229
1044.610, 7319.000
1045.716, 7355.000
1046.823, 7303.000
1047.929, 7202.000
1049.036, 7159.000
1050.142, 7234.000
1051.248, 7269.000
1052.353, 7274.000
1053.459, 7132.000
1054.564, 7209.000
1055.670, 7206.000
1056.775, 7118.000
1057.880, 7221.000
1058.985, 7069.000
1060.089, 7195.000
1061.194, 7259.000
1062.298, 7148.000
1063.402, 7094.000
1064.506, 7154.000
1065.610, 7171.000
1066.713, 7158.000
1067.817, 7135.000
1068.920, 7074.000
1070.023, 7139.000
1071.126, 7059.000
1072.229, 7154.000
1073.332, 7013.000
1074.435, 7095.000
1075.537, 6985.000
1076.639, 7000.000
1077.741, 7050.000
1078.843, 7050.000
1079.945, 7147.000
1081.046, 7146.000
1082.148, 7016.000
1083.249, 7011.000
1084.350, 7057.000
1085.451, 6914.000
1086.551, 6956.000
1087.652, 6973.000
1088.752, 7014.000
1089.853, 7029.000
1090.953, 6908.000
1092.053, 7055.000
1093.152, 6946.000
1094.252, 7108.000
1095.351, 7062.000
1096.451, 6995.000
1097.550, 6969.000
1098.649, 6891.000
1099.748, 7007.000
1100.846, 6941.000
1101.945, 6915.000
1103.043, 6962.000
1104.141, 6884.000
1105.239, 6851.000
1106.337, 6939.000
1107.434, 6966.000
1108.532, 6981.000
1109.629, 6992.208
1110.726, 6980.488
1111.823, 6951.000
1112.920, 6926.000
1114.017, 6883.000
1115.113, 6896.144
1116.210, 6834.000
1117.306, 6925.000
1118.402, 6981.000
1119.498, 7006.000
1120.593, 7121.000
1121.689, 7075.000
1122.784, 7085.000
1123.879, 7098.000
1124.974, 7013.000
1126.069, 6917.000
1127.164, 6904.000
1128.259, 6941.000
1129.353, 6944.000
1130.447, 6813.000
1131.541, 6901.000
1132.635, 6808.000
1133.729, 6966.000
1134.822, 6893.000
1135.916, 6884.000
1137.009, 6860.000
1138.102, 6952.000
1139.195, 6802.000
1140.288, 6923.000
1141.380, 6877.000
1142.473, 6898.000
1143.565, 6932.000
1144.657, 6887.000
1145.749, 6840.000
1146.841, 6837.000
1147.932, 6911.000
1149.024, 6883.000
1150.115, 6954.000
1151.206, 6788.000
1152.297, 6742.000
1153.388, 6751.000
1154.479, 6861.000
1155.569, 6956.000
1156.659, 6942.000
1157.750, 6830.000
1158.839, 6780.000
1159.929, 6800.000
1161.019, 6772.905
1162.108, 6876.000
1163.198, 6827.000
1164.287, 6837.000
1165.376, 6883.000
1166.465, 6683.000
1167.553, 6794.000
1168.642, 6688.000
1169.730, 6824.000
1170.818, 6743.000
1171.906, 6817.000
1172.994, 6754.000
1174.082, 6769.000
1175.170, 6830.000
1176.257, 6786.000
1177.344, 6680.000
1178.431, 6595.000
1179.518, 6791.000
1180.605, 6689.000
1181.691, 6706.000
1182.778, 6660.000
1183.864, 6676.000
1184.950, 6679.716
1186.036, 6738.000
1187.122, 6715.000
1188.207, 6727.000
1189.292, 6769.000
1190.378, 6723.000
1191.463, 6670.000
1192.548, 6719.000
1193.632, 6681.000
1194.717, 6726.000
1195.801, 6745.000
1196.886, 6810.000
1197.970, 6696.000
1199.054, 6648.000
1200.137, 6714.000
1201.221, 6682.000
1202.305, 6682.000
1203.388, 6688.652
1204.471, 6584.000
1205.554, 6679.000
1206.637, 6655.000
1207.719, 6668.000
1208.802, 6754.000
1209.884, 6740.000
1210.966, 6720.000
1212.048, 6756.000
1213.130, 6728.000
1214.212, 6748.744
1215.293, 6797.000
1216.374, 6773.000
1217.456, 6799.000
1218.536, 6805.000
1219.617, 6868.000
1220.698, 6870.000
1221.778, 6892.000
1222.859, 6744.000
1223.939, 6757.000
1225.019, 6780.000
1226.099, 6769.000
1227.178, 6796.000
1228.258, 6770.895
1229.337, 6784.000
1230.417, 6730.000
1231.496, 6665.000
1232.574, 6657.000
1233.653, 6626.000
1234.732, 6637.000
1235.810, 6558.000
1236.888, 6599.000
1237.966, 6659.000
1239.044, 6638.000
1240.122, 6773.000
1241.199, 6598.000
