##NAMES=Baddeleyite
##RRUFFID=R060016
##IDEAL CHEMISTRY=Zr^4+^O_2_
##LOCALITY=Wet Loo, Myanmar
##OWNER=RRUFF
##SOURCE=American Museum of Natural History
##DESCRIPTION=Brown crystal fragment
##STATUS=The identification of this mineral has been confirmed by X-ray diffraction and chemical analysis
##URL=rruff.info/R060016
##MEASURED CHEMISTRY=(Zr_0.99_Ti_0.01_)_Î£=1_O_2_
##PIN_ID=M00268
##ORIENTATION=Laser parallel to b* (0 1 0). Fiducial mark perpendicular to laser is parallel to -c [0 0 -1]
129.5460, 5497.000
130.7790, 5512.000
132.0110, 5516.000
133.2430, 5478.000
134.4750, 5492.000
135.7070, 5559.000
136.9380, 5620.000
138.1700, 5646.000
139.4010, 5711.000
140.6330, 5709.000
141.8640, 5743.000
143.0950, 5752.000
144.3250, 5648.000
145.5560, 5818.000
146.7860, 5934.000
148.0160, 5865.000
149.2470, 5990.000
150.4760, 6069.000
151.7060, 6154.000
152.9360, 6240.000
154.1650, 6401.556
155.3950, 6692.000
156.6240, 6802.000
157.8530, 7033.000
159.0820, 7352.000
160.3100, 7890.000
161.5390, 8254.000
162.7670, 8836.000
163.9950, 9981.000
165.2230, 11475.00
166.4510, 13698.00
167.6790, 15868.00
168.9060, 18070.00
170.1340, 20089.00
171.3610, 23708.00
172.5880, 29517.00
173.8150, 35472.00
175.0420, 40101.00
176.2690, 42529.00
177.4950, 43109.00
178.7210, 41202.00
179.9470, 37282.00
181.1730, 30983.00
182.3990, 24456.00
183.6250, 19213.00
184.8500, 16641.00
186.0760, 16105.00
187.3010, 16385.00
188.5260, 16487.00
189.7510, 16249.00
190.9750, 15735.00
192.2000, 14802.00
193.4240, 13182.00
194.6490, 11567.00
195.8730, 10033.00
197.0970, 8872.000
198.3200, 8171.000
199.5440, 7931.000
200.7670, 7744.000
201.9910, 7651.000
203.2140, 7567.000
204.4370, 7400.000
205.6590, 7264.000
206.8820, 7312.000
208.1050, 7329.000
209.3270, 7291.000
210.5490, 7343.000
211.7710, 7534.000
212.9930, 7448.000
214.2150, 7762.000
215.4360, 7771.000
216.6570, 8040.000
217.8790, 8318.000
219.1000, 8540.000
220.3210, 8571.000
221.5410, 8398.000
222.7620, 8351.000
223.9820, 8034.000
225.2030, 7690.000
226.4230, 7358.000
227.6430, 7076.000
228.8620, 6900.000
230.0820, 6823.000
231.3010, 6606.000
232.5210, 6556.000
233.7400, 6609.000
234.9590, 6562.000
236.1780, 6687.000
237.3960, 6736.000
238.6150, 6744.000
239.8330, 6715.000
241.0510, 6716.000
242.2690, 6838.000
243.4870, 6849.000
244.7050, 7008.000
245.9230, 6968.000
247.1400, 7026.000
248.3570, 7129.000
249.5740, 7082.000
250.7910, 7136.000
252.0080, 7118.000
253.2240, 7165.000
254.4410, 7186.000
255.6570, 7265.000
256.8730, 7290.000
258.0890, 7375.000
259.3050, 7263.000
260.5210, 7244.000
261.7360, 7178.000
262.9510, 6983.000
264.1670, 6940.000
265.3820, 6973.000
266.5960, 6900.000
267.8110, 6954.000
269.0260, 6821.000
270.2400, 6819.000
271.4540, 6961.000
272.6680, 7034.000
273.8820, 6987.000
275.0960, 7165.000
276.3090, 7204.000
277.5230, 7344.000
278.7360, 7501.000
279.9490, 7588.000
281.1620, 7758.000
282.3750, 8061.000
283.5880, 8221.000
284.8000, 8420.000
286.0120, 8759.000
287.2240, 8877.000
288.4360, 9178.000
289.6480, 9451.000
290.8600, 9777.000
292.0710, 10031.00
293.2830, 10453.00
294.4940, 10922.42
295.7050, 11316.00
296.9160, 12013.00
298.1260, 12619.00
299.3370, 13215.00
300.5470, 14098.00
301.7580, 15001.00
302.9680, 15637.00
304.1770, 16196.00
305.3870, 16464.00
306.5970, 16578.00
307.8060, 16227.00
309.0150, 15600.00
310.2250, 14408.00
311.4340, 13624.00
312.6420, 12706.00
313.8510, 12079.00
315.0590, 11571.00
316.2680, 11390.00
317.4760, 11306.00
318.6840, 11509.00
319.8920, 11754.00
321.0990, 12320.00
322.3070, 13179.00
323.5140, 14177.00
324.7210, 14985.00
325.9280, 16258.00
327.1350, 17430.00
328.3420, 18896.00
329.5490, 20019.00
330.7550, 20965.00
331.9610, 21018.00
333.1670, 20423.00
334.3730, 18815.00
335.5790, 17324.00
336.7840, 15499.00
337.9900, 13832.00
339.1950, 12834.00
340.4000, 12053.00
341.6050, 11902.00
342.8100, 11816.00
344.0150, 12101.00
345.2190, 11985.00
346.4230, 11745.00
347.6280, 11248.00
348.8320, 10621.00
350.0350, 9873.000
351.2390, 8873.000
352.4430, 7919.000
353.6460, 7226.000
354.8490, 6703.000
356.0520, 6363.000
357.2550, 6079.000
358.4580, 5942.000
359.6600, 5883.000
360.8630, 5759.000
362.0650, 5727.000
363.2670, 5749.000
364.4690, 5847.000
365.6710, 6006.000
366.8720, 6221.000
368.0740, 6565.000
369.2750, 7027.000
370.4760, 7339.000
371.6770, 7877.000
372.8780, 8438.000
374.0780, 9356.000
375.2790, 9892.000
376.4790, 10336.00
377.6790, 10290.00
378.8790, 10266.00
380.0790, 9548.000
381.2790, 8907.000
382.4780, 8120.000
383.6780, 7293.000
384.8770, 6754.000
386.0760, 6284.000
387.2750, 5866.000
388.4730, 5694.000
389.6720, 5472.000
390.8700, 5325.000
392.0690, 5134.000
393.2670, 5121.000
394.4650, 4841.000
395.6620, 4816.000
396.8600, 4706.000
398.0570, 4780.000
399.2550, 4636.000
400.4520, 4632.000
401.6490, 4589.000
402.8450, 4558.000
404.0420, 4570.000
405.2390, 4471.000
406.4350, 4435.000
407.6310, 4463.000
408.8270, 4506.000
410.0230, 4493.711
411.2190, 4510.310
412.4140, 4505.000
413.6090, 4501.000
414.8050, 4489.000
416.0000, 4473.000
417.1940, 4542.000
418.3890, 4534.000
419.5840, 4544.000
420.7780, 4518.000
421.9720, 4566.000
423.1660, 4591.000
424.3600, 4708.000
425.5540, 4762.000
426.7480, 4797.000
427.9410, 4859.073
429.1340, 4839.000
430.3270, 4939.000
431.5200, 4880.000
432.7130, 4933.000
433.9060, 4829.000
435.0980, 4998.000
436.2900, 5054.000
437.4830, 4969.000
438.6750, 5047.000
439.8660, 5073.000
441.0580, 5134.000
442.2500, 5140.000
443.4410, 5165.000
444.6320, 5198.000
445.8230, 5344.000
447.0140, 5339.000
448.2050, 5489.000
449.3950, 5562.000
450.5860, 5681.000
451.7760, 5767.000
452.9660, 6000.000
454.1560, 6089.000
455.3450, 6205.000
456.5350, 6515.000
457.7240, 6796.000
458.9140, 7141.000
460.1030, 7644.000
461.2920, 8058.000
462.4810, 8837.000
463.6690, 9679.000
464.8580, 10950.00
466.0460, 12237.00
467.2340, 13659.00
468.4220, 15203.00
469.6100, 16923.00
470.7970, 18647.00
471.9850, 20206.00
473.1720, 21013.00
474.3590, 21352.00
475.5460, 20313.00
476.7330, 18747.00
477.9200, 16813.00
479.1060, 14974.00
480.2930, 13133.00
481.4790, 11457.00
482.6650, 10369.00
483.8510, 9506.000
485.0370, 8871.000
486.2220, 8458.000
487.4080, 8239.000
488.5930, 7958.000
489.7780, 8156.000
490.9630, 8115.000
492.1480, 8378.000
493.3320, 8630.000
494.5170, 8919.000
495.7010, 9221.000
496.8850, 9652.000
498.0690, 10043.00
499.2530, 10199.00
500.4360, 10134.97
501.6200, 9888.000
502.8030, 9516.000
503.9860, 8980.000
505.1690, 8269.000
506.3520, 7874.000
507.5350, 7293.000
508.7170, 6949.000
509.9000, 6650.000
511.0820, 6438.000
512.2640, 6318.000
513.4460, 6240.000
514.6270, 6227.000
515.8090, 6103.000
516.9900, 6121.000
518.1710, 6124.000
519.3530, 6107.000
520.5330, 6245.000
521.7140, 6211.000
522.8950, 6301.000
524.0750, 6592.000
525.2550, 6694.000
526.4350, 6925.000
527.6150, 7081.000
528.7950, 7541.000
529.9750, 7817.000
531.1540, 8116.000
532.3340, 8680.000
533.5130, 9165.000
534.6920, 9522.000
535.8700, 9774.832
537.0490, 10027.00
538.2280, 9861.000
539.4060, 9664.000
540.5840, 9221.000
541.7620, 8855.000
542.9400, 8550.000
544.1180, 8167.000
545.2950, 8006.000
546.4720, 8045.000
547.6500, 8162.000
548.8270, 8216.000
550.0040, 8301.000
551.1800, 8829.000
552.3570, 9057.000
553.5330, 9207.000
554.7090, 9483.000
555.8850, 9497.000
557.0610, 9488.000
558.2370, 9273.000
559.4130, 9083.000
560.5880, 8849.000
561.7630, 8443.000
562.9380, 8074.000
564.1130, 7873.000
565.2880, 7635.000
566.4630, 7494.000
567.6370, 7328.000
568.8120, 7208.000
569.9860, 7150.000
571.1600, 6988.000
572.3330, 6975.000
573.5070, 6852.000
574.6810, 6932.000
575.8540, 6887.000
577.0270, 6797.000
578.2000, 6683.000
579.3730, 6784.000
580.5460, 6810.000
581.7180, 6838.000
582.8910, 6964.000
584.0630, 6940.000
585.2350, 6976.000
586.4070, 7141.000
587.5780, 7236.000
588.7500, 7343.000
589.9210, 7431.000
591.0930, 7633.000
592.2640, 7803.000
593.4350, 8058.000
594.6050, 8415.000
595.7760, 8617.000
596.9460, 9133.000
598.1170, 9583.000
599.2870, 10178.00
600.4570, 10704.00
601.6260, 11456.00
602.7960, 12187.00
603.9650, 13226.00
605.1350, 14314.00
606.3040, 15399.00
607.4730, 16557.42
608.6420, 17882.00
609.8100, 18928.00
610.9790, 20194.00
612.1470, 21398.00
613.3150, 22119.00
614.4830, 22718.00
615.6510, 23095.00
616.8190, 23355.00
617.9860, 23401.00
619.1540, 23798.00
620.3210, 23895.00
621.4880, 24819.00
622.6550, 26156.00
623.8220, 27970.00
624.9880, 30747.00
626.1550, 33702.00
627.3210, 37504.00
628.4870, 41878.00
629.6530, 47064.00
630.8190, 51992.00
631.9840, 57090.00
633.1500, 61419.00
634.3150, 64670.00
635.4800, 65535.00
636.6450, 65535.00
637.8100, 64025.00
638.9740, 59920.00
640.1390, 54574.00
641.3030, 48903.00
642.4670, 42920.00
643.6310, 37337.00
644.7950, 32342.00
645.9590, 28209.00
647.1220, 24894.00
648.2850, 21939.00
649.4490, 19767.00
650.6120, 17737.00
651.7740, 16225.00
652.9370, 14947.00
654.1000, 14000.00
655.2620, 12992.00
656.4240, 12433.00
657.5860, 11781.00
658.7480, 11137.00
659.9100, 10651.00
661.0710, 10097.00
662.2330, 9854.000
663.3940, 9618.000
664.5550, 9353.000
665.7160, 9076.000
666.8770, 8991.000
668.0370, 8874.000
669.1980, 8673.000
670.3580, 8498.000
671.5180, 8345.000
672.6780, 8254.000
673.8380, 8181.000
674.9970, 8108.000
676.1570, 8063.000
677.3160, 8013.000
678.4750, 7956.171
679.6340, 7968.000
680.7930, 7904.000
681.9520, 7854.000
683.1100, 7934.000
684.2680, 7890.888
685.4270, 7933.000
686.5850, 7945.000
687.7420, 7946.000
688.9000, 8043.000
690.0580, 8120.000
691.2150, 8146.000
692.3720, 8246.000
693.5290, 8335.000
694.6860, 8426.000
695.8430, 8546.000
696.9990, 8595.000
698.1560, 8810.000
699.3120, 8826.000
700.4680, 8948.000
701.6240, 9056.000
702.7800, 9106.000
703.9350, 9154.168
705.0900, 9184.000
706.2460, 9141.000
707.4010, 9117.000
708.5560, 9017.000
709.7110, 8932.000
710.8650, 8852.000
712.0200, 8792.000
713.1740, 8448.000
714.3280, 8106.000
715.4820, 8035.000
716.6360, 7825.000
717.7890, 7572.000
718.9430, 7400.000
720.0960, 7190.753
721.2490, 7178.000
722.4020, 6850.000
723.5550, 6776.000
724.7080, 6691.000
725.8600, 6484.000
727.0130, 6452.000
728.1650, 6396.000
729.3170, 6266.000
730.4690, 6361.000
731.6200, 6212.000
732.7720, 6101.000
733.9230, 6109.000
735.0740, 6090.000
736.2250, 6029.000
737.3760, 6090.000
738.5270, 6038.000
739.6780, 6049.000
740.8280, 6008.000
741.9780, 6097.000
743.1280, 6110.000
744.2780, 6095.000
745.4280, 6099.000
746.5770, 6189.000
747.7270, 6141.000
748.8760, 6204.000
750.0250, 6246.000
751.1740, 6210.000
752.3230, 6259.000
753.4720, 6201.000
754.6200, 6211.000
755.7680, 6131.000
756.9160, 6087.358
758.0640, 6056.000
759.2120, 5957.000
760.3600, 5929.000
761.5070, 5849.000
762.6550, 5791.000
763.8020, 5652.000
764.9490, 5719.000
766.0960, 5463.000
767.2420, 5467.000
768.3890, 5469.000
769.5350, 5307.000
770.6810, 5279.000
771.8270, 5325.000
772.9730, 5244.000
774.1190, 5213.616
775.2640, 5068.000
776.4100, 5123.000
777.5550, 4980.000
778.7000, 5001.000
779.8450, 4959.000
780.9900, 4840.000
782.1340, 4892.000
783.2790, 4798.000
784.4230, 4826.000
785.5670, 4749.000
786.7110, 4792.000
787.8550, 4741.000
788.9980, 4686.000
790.1420, 4719.000
791.2850, 4662.000
792.4280, 4589.000
793.5710, 4563.000
794.7140, 4560.000
795.8560, 4623.000
796.9990, 4473.000
798.1410, 4502.000
799.2830, 4490.000
800.4250, 4429.000
801.5670, 4439.000
802.7090, 4312.000
803.8500, 4383.000
804.9920, 4327.000
806.1330, 4401.000
807.2740, 4307.000
808.4150, 4230.000
809.5550, 4251.000
810.6960, 4307.000
811.8360, 4167.000
812.9760, 4152.000
814.1160, 4169.000
815.2560, 4104.000
816.3960, 4185.000
817.5350, 4086.000
818.6750, 4050.000
819.8140, 3965.000
820.9530, 4044.000
822.0920, 4025.000
823.2310, 4016.000
824.3690, 4037.000
825.5080, 4055.000
826.6460, 4012.000
827.7840, 4019.000
828.9220, 3989.000
830.0600, 4074.000
831.1970, 4020.000
832.3350, 3913.000
833.4720, 3994.000
834.6090, 3927.000
835.7460, 3931.000
836.8830, 3964.000
838.0190, 3795.000
839.1560, 3938.000
840.2920, 3818.000
841.4280, 3895.000
842.5640, 3909.000
843.7000, 3820.000
844.8360, 3834.000
845.9710, 3914.000
847.1070, 3870.000
848.2420, 3898.000
849.3770, 3969.000
850.5120, 3953.000
851.6460, 3961.352
852.7810, 3836.000
853.9150, 3920.000
855.0490, 3838.000
856.1830, 3798.000
857.3170, 3860.000
858.4510, 3913.000
859.5840, 3831.000
860.7180, 3893.000
861.8510, 3804.000
862.9840, 3806.000
864.1170, 3890.000
865.2500, 3790.000
866.3820, 3835.000
867.5150, 3850.000
868.6470, 3847.000
869.7790, 3855.000
870.9110, 3829.000
872.0430, 3792.000
873.1740, 3815.000
874.3060, 3763.000
875.4370, 3837.000
876.5680, 3730.000
877.6990, 3769.000
878.8300, 3784.000
879.9600, 3777.000
881.0910, 3804.000
882.2210, 3753.000
883.3510, 3746.000
884.4810, 3740.000
885.6110, 3733.000
886.7410, 3686.000
887.8700, 3808.000
888.9990, 3782.000
890.1290, 3790.000
891.2580, 3759.000
892.3860, 3775.000
893.5150, 3802.000
894.6440, 3759.000
895.7720, 3766.000
896.9000, 3763.000
898.0280, 3700.000
899.1560, 3672.000
900.2840, 3731.000
901.4110, 3778.000
902.5390, 3768.000
903.6660, 3779.000
904.7930, 3776.712
905.9200, 3764.000
907.0470, 3758.000
908.1730, 3754.000
909.3000, 3759.000
910.4260, 3772.000
911.5520, 3750.000
912.6780, 3815.000
913.8030, 3756.000
914.9290, 3726.000
916.0540, 3739.000
917.1800, 3784.000
918.3050, 3801.000
919.4300, 3783.000
920.5550, 3728.000
921.6790, 3683.000
922.8040, 3729.000
923.9280, 3715.000
925.0520, 3699.000
926.1760, 3736.000
927.3000, 3710.000
928.4230, 3687.000
929.5470, 3748.000
930.6700, 3666.000
931.7930, 3628.000
932.9160, 3767.000
934.0390, 3665.000
935.1620, 3683.000
936.2840, 3618.000
937.4070, 3727.000
938.5290, 3606.000
939.6510, 3673.000
940.7730, 3665.000
941.8940, 3624.000
943.0160, 3587.000
944.1370, 3582.000
945.2580, 3613.000
946.3800, 3540.000
947.5000, 3567.000
948.6210, 3635.000
949.7420, 3574.000
950.8620, 3622.000
951.9820, 3530.000
953.1020, 3588.000
954.2220, 3586.385
955.3420, 3572.000
956.4620, 3593.000
957.5810, 3558.000
958.7000, 3491.000
959.8190, 3553.000
960.9380, 3528.000
962.0570, 3482.000
963.1760, 3542.000
964.2940, 3538.000
965.4120, 3580.000
966.5300, 3577.579
967.6480, 3562.557
968.7660, 3559.000
969.8840, 3530.000
971.0010, 3507.000
972.1190, 3521.000
973.2360, 3489.000
974.3530, 3440.000
975.4690, 3495.000
976.5860, 3527.000
977.7030, 3500.000
978.8190, 3493.000
979.9350, 3503.000
981.0510, 3475.000
982.1670, 3498.000
983.2830, 3481.000
984.3980, 3465.000
985.5130, 3504.000
986.6290, 3423.000
987.7440, 3475.000
988.8590, 3451.000
989.9730, 3521.000
991.0880, 3411.000
992.2020, 3508.000
993.3160, 3463.000
994.4300, 3451.000
995.5440, 3447.000
996.6580, 3447.513
997.7720, 3484.000
998.8850, 3487.000
999.9980, 3485.000
1001.111, 3519.000
1002.224, 3490.000
1003.337, 3536.000
1004.450, 3425.000
1005.562, 3510.000
1006.674, 3487.000
1007.786, 3524.000
1008.898, 3446.000
1010.010, 3509.000
1011.122, 3468.000
1012.233, 3458.000
1013.344, 3385.000
1014.455, 3408.000
1015.566, 3407.000
1016.677, 3386.837
1017.788, 3473.000
1018.898, 3412.000
1020.009, 3419.000
1021.119, 3497.000
1022.229, 3372.000
1023.339, 3470.000
1024.448, 3485.000
1025.558, 3455.000
1026.667, 3397.000
1027.776, 3469.000
1028.885, 3397.000
1029.994, 3430.000
1031.103, 3432.000
1032.211, 3420.000
1033.320, 3358.000
1034.428, 3386.000
1035.536, 3422.000
1036.644, 3341.000
1037.751, 3326.000
1038.859, 3346.000
1039.966, 3370.000
1041.074, 3355.793
1042.181, 3395.000
1043.288, 3354.000
1044.394, 3392.000
1045.501, 3414.000
1046.607, 3356.000
1047.713, 3390.000
1048.820, 3319.000
1049.925, 3364.000
1051.031, 3367.000
1052.137, 3369.000
1053.242, 3360.000
1054.348, 3398.000
1055.453, 3281.000
1056.558, 3330.000
1057.662, 3261.000
1058.767, 3299.000
1059.871, 3265.000
1060.976, 3295.000
1062.080, 3270.000
1063.184, 3282.000
1064.288, 3313.000
1065.391, 3272.000
1066.495, 3317.000
1067.598, 3242.000
1068.701, 3348.000
1069.804, 3364.000
1070.907, 3316.000
1072.010, 3385.000
1073.112, 3305.000
1074.214, 3365.000
1075.317, 3315.000
1076.419, 3321.000
1077.521, 3258.000
1078.622, 3265.000
1079.724, 3245.000
1080.825, 3226.000
1081.926, 3300.000
1083.027, 3294.000
1084.128, 3188.000
1085.229, 3254.000
1086.329, 3283.000
1087.430, 3252.000
1088.530, 3318.000
1089.630, 3221.000
1090.730, 3294.000
1091.830, 3246.000
1092.929, 3273.000
1094.029, 3293.000
1095.128, 3334.000
1096.227, 3171.000
1097.326, 3237.000
1098.425, 3204.000
1099.523, 3268.000
1100.622, 3307.000
1101.720, 3271.000
1102.818, 3253.000
1103.916, 3320.000
1105.014, 3205.000
1106.111, 3256.000
1107.209, 3216.000
1108.306, 3209.000
1109.403, 3236.000
1110.500, 3244.000
1111.597, 3249.000
1112.694, 3265.000
1113.790, 3290.000
1114.887, 3278.000
1115.983, 3269.982
1117.079, 3238.000
1118.174, 3241.000
1119.270, 3260.000
1120.366, 3285.000
1121.461, 3259.000
1122.556, 3327.000
1123.651, 3262.000
1124.746, 3272.000
1125.841, 3347.000
1126.935, 3382.000
1128.030, 3290.000
1129.124, 3294.000
1130.218, 3315.000
1131.312, 3280.000
1132.405, 3289.000
1133.499, 3291.305
1134.592, 3281.000
1135.686, 3301.000
1136.779, 3309.000
1137.871, 3315.000
1138.964, 3339.000
1140.057, 3324.000
1141.149, 3395.000
1142.241, 3427.000
1143.334, 3346.000
1144.425, 3391.000
1145.517, 3442.000
1146.609, 3365.000
1147.700, 3378.000
1148.791, 3399.000
1149.883, 3317.000
1150.974, 3325.000
1152.064, 3366.000
1153.155, 3392.000
1154.245, 3337.000
1155.336, 3326.000
1156.426, 3268.000
1157.516, 3267.000
1158.606, 3336.000
1159.695, 3337.000
1160.785, 3232.000
1161.874, 3311.000
1162.963, 3354.000
1164.052, 3256.000
1165.141, 3348.000
1166.230, 3343.000
1167.318, 3274.000
1168.406, 3336.000
1169.495, 3308.000
1170.583, 3296.000
1171.670, 3287.000
1172.758, 3280.556
1173.846, 3278.396
1174.933, 3272.000
1176.020, 3280.000
1177.107, 3255.000
1178.194, 3254.279
1179.281, 3261.000
1180.367, 3259.000
1181.454, 3295.000
1182.540, 3283.000
1183.626, 3288.000
1184.712, 3256.000
1185.798, 3264.000
1186.883, 3326.000
1187.969, 3287.000
1189.054, 3344.000
1190.139, 3339.000
1191.224, 3240.000
1192.309, 3307.000
1193.393, 3282.000
1194.478, 3319.000
1195.562, 3252.000
1196.646, 3229.000
1197.730, 3276.000
1198.814, 3365.000
1199.897, 3289.000
1200.981, 3311.000
1202.064, 3294.000
1203.147, 3232.000
1204.230, 3254.000
1205.313, 3242.000
1206.396, 3286.000
1207.478, 3288.000
1208.560, 3312.000
1209.642, 3322.000
1210.724, 3228.000
1211.806, 3303.000
1212.888, 3260.000
1213.969, 3328.000
1215.051, 3246.000
1216.132, 3244.000
1217.213, 3314.000
1218.294, 3325.000
1219.374, 3329.000
1220.455, 3342.000
1221.535, 3348.884
1222.616, 3361.000
1223.696, 3354.000
1224.775, 3360.000
1225.855, 3338.000
1226.935, 3326.000
1228.014, 3304.000
1229.093, 3324.000
1230.172, 3298.000
1231.251, 3264.000
1232.330, 3243.000
1233.408, 3285.000
1234.487, 3270.000
1235.565, 3297.000
1236.643, 3301.000
1237.721, 3235.000
1238.799, 3249.000
1239.876, 3270.000
1240.954, 3315.000
1242.031, 3296.000
1243.108, 3239.000
1244.185, 3325.000
1245.262, 3301.000
1246.338, 3206.000
1247.415, 3212.000
1248.491, 3270.000
1249.567, 3256.000
1250.643, 3278.000
1251.719, 3251.000
1252.795, 3288.000
1253.870, 3227.000
1254.945, 3255.000
1256.021, 3143.000
1257.096, 3221.000
1258.170, 3223.000
1259.245, 3254.000
1260.320, 3205.000
1261.394, 3231.000
1262.468, 3263.000
1263.542, 3194.000
1264.616, 3230.000
1265.690, 3232.000
1266.763, 3231.000
1267.836, 3256.000
1268.910, 3394.000
1269.983, 3329.083
1271.055, 3320.797
1272.128, 3235.000
1273.201, 3256.000
1274.273, 3122.000
1275.345, 3220.000
1276.417, 3218.000
1277.489, 3148.000
1278.561, 3201.000
1279.632, 3195.000
1280.704, 3185.000
1281.775, 3215.000
1282.846, 3197.201
1283.917, 3230.000
1284.988, 3198.000
1286.058, 3206.000
1287.129, 3232.000
1288.199, 3278.000
1289.269, 3168.000
1290.339, 3188.000
1291.409, 3205.000
1292.478, 3167.000
1293.548, 3221.000
1294.617, 3203.000
1295.686, 3236.000
1296.755, 3206.000
1297.824, 3233.000
1298.893, 3192.000
1299.961, 3229.000
1301.029, 3231.000
1302.097, 3231.000
1303.165, 3225.000
1304.233, 3219.018
1305.301, 3206.000
1306.368, 3223.000
1307.436, 3252.000
1308.503, 3307.000
