##NAMES=Baddeleyite
##RRUFFID=R060078
##IDEAL CHEMISTRY=Zr^4+^O_2_
##LOCALITY=Wetloo mine, Mogok, Burma
##OWNER=RRUFF
##SOURCE=Marcus Origlieri
##DESCRIPTION=Dark brown fragment
##STATUS=The identification of this mineral has been confirmed by X-ray diffraction and chemical analysis
##URL=rruff.info/R060078
##MEASURED CHEMISTRY=(Zr_0.99_Hf_0.01_)_Î£=1_O_2_
##PIN_ID=L00545
##ORIENTATION=Laser parallel to b* (0 1 0). Fiducial mark perpendicular to laser is parallel to c [0 0 1]
51.43100, 574.0000
52.67100, 583.0000
53.91000, 579.0000
55.14900, 590.0000
56.38700, 605.0000
57.62600, 623.0000
58.86400, 660.0000
60.10300, 676.0000
61.34100, 716.0000
62.57900, 753.0000
63.81700, 827.0000
65.05400, 899.0000
66.29200, 1035.000
67.52900, 1161.000
68.76700, 1358.000
70.00400, 1689.000
71.24100, 1984.000
72.47700, 2159.000
73.71400, 2485.000
74.95100, 2693.000
76.18700, 3174.000
77.42300, 3515.000
78.65900, 3869.000
79.89500, 4440.000
81.13100, 5008.000
82.36700, 5717.000
83.60200, 6333.000
84.83700, 7062.000
86.07200, 7710.000
87.30800, 8924.000
88.54200, 10845.00
89.77700, 13569.00
91.01200, 18150.00
92.24600, 26106.00
93.48000, 37702.00
94.71400, 50647.00
95.94800, 59583.00
97.18200, 57379.00
98.41600, 48780.00
99.64900, 41319.00
100.8830, 35995.00
102.1160, 30375.00
103.3490, 25609.00
104.5820, 22471.00
105.8150, 20530.00
107.0470, 18667.00
108.2800, 17275.00
109.5120, 15675.00
110.7440, 13624.00
111.9760, 11978.00
113.2080, 11115.00
114.4400, 10658.00
115.6710, 10560.00
116.9030, 10016.00
118.1340, 9769.000
119.3650, 9441.000
120.5960, 9409.000
121.8270, 9346.000
123.0580, 9286.000
124.2880, 9005.000
125.5190, 9125.000
126.7490, 8881.000
127.9790, 8978.000
129.2090, 9032.000
130.4390, 9000.000
131.6680, 8869.000
132.8980, 8794.000
134.1270, 8861.000
135.3560, 8745.000
136.5850, 8787.000
137.8140, 9016.000
139.0430, 8967.000
140.2710, 8963.000
141.5000, 8913.000
142.7280, 8925.000
143.9560, 9024.000
145.1840, 9004.000
146.4120, 9236.000
147.6390, 9383.000
148.8670, 9461.000
150.0940, 9736.000
151.3210, 9982.000
152.5490, 10360.00
153.7750, 10493.00
155.0020, 10766.00
156.2290, 10931.00
157.4550, 11414.00
158.6810, 11815.00
159.9080, 12381.00
161.1340, 13104.00
162.3590, 14204.00
163.5850, 15569.00
164.8110, 18173.00
166.0360, 22312.00
167.2610, 29575.00
168.4860, 39193.00
169.7110, 48297.00
170.9360, 49850.00
172.1610, 43840.00
173.3850, 38042.00
174.6100, 33910.00
175.8340, 30827.00
177.0580, 28594.00
178.2820, 28375.00
179.5050, 31420.00
180.7290, 38112.00
181.9520, 46269.00
183.1760, 50748.00
184.3990, 46786.00
185.6220, 39415.00
186.8450, 34062.00
188.0670, 29742.00
189.2900, 25897.00
190.5120, 22751.00
191.7340, 20640.00
192.9560, 19480.00
194.1780, 18255.00
195.4000, 17103.00
196.6220, 16268.00
197.8430, 15450.24
199.0640, 14571.00
200.2860, 14299.00
201.5070, 14097.00
202.7270, 13807.00
203.9480, 13488.00
205.1690, 13107.00
206.3890, 12805.00
207.6090, 12744.00
208.8290, 12653.00
210.0490, 12738.00
211.2690, 12814.00
212.4890, 13165.00
213.7080, 13308.00
214.9280, 13225.00
216.1470, 12913.00
217.3660, 12645.00
218.5850, 12505.00
219.8030, 12249.00
221.0220, 12206.00
222.2400, 12063.00
223.4590, 11956.00
224.6770, 11816.00
225.8950, 11822.00
227.1120, 11780.00
228.3300, 11657.00
229.5480, 11494.00
230.7650, 11638.00
231.9820, 11698.00
233.1990, 11577.00
234.4160, 11782.00
235.6330, 11899.00
236.8490, 12016.00
238.0660, 12123.00
239.2820, 12134.00
240.4980, 12177.00
241.7140, 12173.00
242.9300, 11964.00
244.1460, 12294.00
245.3610, 12207.00
246.5770, 12300.00
247.7920, 12525.00
249.0070, 12519.00
250.2220, 12778.00
251.4370, 12982.00
252.6510, 12889.00
253.8660, 12883.00
255.0800, 12807.00
256.2940, 12593.00
257.5080, 12463.00
258.7220, 12471.00
259.9360, 12376.05
261.1490, 12348.80
262.3630, 12369.00
263.5760, 12329.00
264.7890, 12357.00
266.0020, 12411.00
267.2150, 12315.00
268.4270, 12505.00
269.6400, 12566.00
270.8520, 12530.00
272.0640, 12593.00
273.2760, 13030.00
274.4880, 13462.00
275.7000, 13648.00
276.9120, 13958.00
278.1230, 14301.00
279.3340, 14641.00
280.5450, 14976.00
281.7560, 15334.00
282.9670, 15556.00
284.1780, 16032.00
285.3880, 16259.00
286.5980, 16802.00
287.8090, 17012.00
289.0190, 17529.00
290.2290, 18132.00
291.4380, 18745.00
292.6480, 19635.00
293.8570, 20837.00
295.0670, 21960.00
296.2760, 23856.00
297.4850, 25822.00
298.6930, 28032.00
299.9020, 27980.14
301.1110, 28048.00
302.3190, 27216.00
303.5270, 25756.00
304.7350, 24460.00
305.9430, 23253.00
307.1510, 21979.00
308.3580, 20883.00
309.5660, 20346.00
310.7730, 19393.00
311.9800, 18940.00
313.1870, 18542.00
314.3940, 18287.00
315.6010, 18111.00
316.8070, 18018.00
318.0130, 18239.00
319.2200, 18547.99
320.4260, 19017.00
321.6310, 19731.00
322.8370, 20562.00
324.0430, 21557.00
325.2480, 21733.00
326.4540, 21766.00
327.6590, 21261.00
328.8640, 20828.00
330.0680, 20273.00
331.2730, 20010.00
332.4780, 20295.00
333.6820, 20801.00
334.8860, 22285.00
336.0900, 24304.00
337.2940, 27280.00
338.4980, 30468.00
339.7010, 33124.00
340.9050, 33783.00
342.1080, 32923.00
343.3110, 30221.00
344.5140, 27507.00
345.7170, 24704.00
346.9200, 22119.00
348.1220, 20043.00
349.3240, 17930.00
350.5270, 16572.00
351.7290, 15265.00
352.9310, 14212.00
354.1320, 13239.00
355.3340, 12704.00
356.5350, 12162.00
357.7370, 11812.00
358.9380, 11763.00
360.1390, 11617.00
361.3400, 11710.00
362.5400, 11755.00
363.7410, 12223.00
364.9410, 12753.00
366.1410, 13741.00
367.3410, 15324.00
368.5410, 17257.00
369.7410, 19421.00
370.9400, 20900.00
372.1400, 21522.00
373.3390, 21007.00
374.5380, 20215.00
375.7370, 18903.00
376.9360, 17810.00
378.1350, 16816.00
379.3330, 15684.00
380.5310, 14705.00
381.7300, 13892.00
382.9280, 12956.00
384.1260, 12163.00
385.3230, 11418.00
386.5210, 10858.00
387.7180, 10352.00
388.9160, 10141.00
390.1130, 9760.000
391.3100, 9502.000
392.5060, 9363.000
393.7030, 9084.000
394.9000, 8878.000
396.0960, 8752.000
397.2920, 8755.000
398.4880, 8600.000
399.6840, 8411.000
400.8800, 8370.000
402.0750, 8250.000
403.2710, 8336.000
404.4660, 8302.000
405.6610, 8222.000
406.8560, 8231.000
408.0510, 8149.000
409.2450, 8170.000
410.4400, 8169.000
411.6340, 8188.000
412.8280, 8310.000
414.0220, 8322.000
415.2160, 8396.061
416.4100, 8462.000
417.6030, 8495.000
418.7970, 8528.000
419.9900, 8523.000
421.1830, 8726.000
422.3760, 8768.000
423.5690, 8772.000
424.7610, 8877.000
425.9540, 8862.000
427.1460, 8975.000
428.3380, 8989.000
429.5300, 9036.000
430.7220, 9106.230
431.9140, 9157.000
433.1050, 9205.000
434.2970, 9254.000
435.4880, 9272.000
436.6790, 9391.000
437.8700, 9333.000
439.0610, 9669.000
440.2510, 9515.000
441.4420, 9645.000
442.6320, 9827.000
443.8220, 9826.000
445.0120, 9951.000
446.2020, 10223.00
447.3910, 10226.00
448.5810, 10504.00
449.7700, 10704.00
450.9600, 10872.00
452.1490, 11292.00
453.3370, 11695.00
454.5260, 12200.00
455.7150, 12660.00
456.9030, 13393.00
458.0910, 14169.00
459.2800, 15376.00
460.4670, 16697.00
461.6550, 18910.00
462.8430, 21350.00
464.0300, 24653.00
465.2180, 28342.00
466.4050, 32056.00
467.5920, 34808.00
468.7790, 35805.00
469.9650, 35099.00
471.1520, 32832.00
472.3380, 30013.00
473.5250, 26953.00
474.7110, 24248.00
475.8970, 21625.00
477.0820, 19805.00
478.2680, 17928.00
479.4540, 16639.00
480.6390, 15407.00
481.8240, 14241.00
483.0090, 13407.00
484.1940, 12928.00
485.3780, 12415.00
486.5630, 12307.00
487.7470, 12202.00
488.9320, 12202.00
490.1160, 12241.00
491.3000, 12427.00
492.4830, 12703.00
493.6670, 12885.00
494.8500, 12921.00
496.0340, 12773.00
497.2170, 12588.00
498.4000, 12419.00
499.5820, 11995.00
500.7650, 11658.00
501.9480, 11427.00
503.1300, 11132.00
504.3120, 10920.82
505.4940, 10672.00
506.6760, 10586.00
507.8580, 10325.00
509.0390, 10279.00
510.2210, 10127.00
511.4020, 9969.000
512.5830, 10088.00
513.7640, 10024.00
514.9450, 10127.00
516.1250, 10084.00
517.3060, 10172.00
518.4860, 10187.00
519.6660, 10332.00
520.8460, 10477.00
522.0260, 10545.00
523.2060, 10611.00
524.3850, 10776.00
525.5650, 11078.00
526.7440, 11212.00
527.9230, 11604.00
529.1020, 11952.00
530.2810, 12196.00
531.4590, 12461.39
532.6380, 12649.00
533.8160, 12761.00
534.9940, 12807.00
536.1720, 12923.72
537.3500, 12887.00
538.5270, 13076.00
539.7050, 13152.00
540.8820, 13265.00
542.0590, 13836.00
543.2360, 14387.00
544.4130, 15225.00
545.5900, 15995.00
546.7660, 17410.00
547.9430, 18844.00
549.1190, 20447.00
550.2950, 21239.00
551.4710, 21915.00
552.6470, 21879.00
553.8220, 21274.00
554.9980, 20356.00
556.1730, 19543.00
557.3480, 18254.00
558.5230, 17361.00
559.6980, 16366.00
560.8730, 15625.00
562.0470, 14846.00
563.2220, 14186.00
564.3960, 13538.00
565.5700, 13197.00
566.7440, 12657.00
567.9170, 12258.00
569.0910, 12128.00
570.2640, 11910.00
571.4380, 11691.00
572.6110, 11516.00
573.7840, 11389.39
574.9570, 11314.00
576.1290, 11237.00
577.3020, 11229.00
578.4740, 11258.00
579.6460, 11173.00
580.8180, 11097.00
581.9900, 11181.00
583.1620, 11134.00
584.3330, 11288.00
585.5040, 11488.00
586.6760, 11533.00
587.8470, 11610.00
589.0180, 11883.00
590.1880, 12047.00
591.3590, 12341.00
592.5290, 12898.00
593.7000, 13214.00
594.8700, 13691.00
596.0400, 14303.00
597.2090, 15010.00
598.3790, 15855.00
599.5490, 16717.00
600.7180, 17668.00
601.8870, 18810.00
603.0560, 19804.00
604.2250, 20935.00
605.3940, 21919.00
606.5620, 22724.00
607.7300, 23485.05
608.8990, 23974.16
610.0670, 24530.00
611.2350, 24566.00
612.4020, 24632.00
613.5700, 24571.00
614.7370, 24534.00
615.9050, 24533.00
617.0720, 24642.00
618.2390, 25363.00
619.4060, 26535.00
620.5720, 27945.00
621.7390, 29935.00
622.9050, 32704.00
624.0710, 36337.00
625.2370, 40499.00
626.4030, 46109.00
627.5690, 51105.00
628.7340, 56101.00
629.9000, 60015.00
631.0650, 62628.00
632.2300, 62777.00
633.3950, 61372.00
634.5600, 58436.00
635.7240, 54126.00
636.8890, 49878.00
638.0530, 44656.00
639.2170, 40316.00
640.3810, 35991.00
641.5450, 32275.00
642.7080, 28786.00
643.8720, 26133.00
645.0350, 23510.00
646.1980, 21625.00
647.3610, 19838.00
648.5240, 18461.00
649.6870, 17368.00
650.8490, 16648.00
652.0120, 15497.00
653.1740, 15263.00
654.3360, 14429.00
655.4980, 13858.00
656.6600, 13683.00
657.8210, 13307.00
658.9830, 12775.00
660.1440, 12650.00
661.3050, 12397.00
662.4660, 12279.00
663.6270, 12140.00
664.7870, 12013.00
665.9480, 11917.00
667.1080, 11824.00
668.2680, 11657.00
669.4280, 11603.00
670.5880, 11567.00
671.7480, 11519.00
672.9070, 11577.00
674.0670, 11547.27
675.2260, 11398.00
676.3850, 11560.00
677.5440, 11459.00
678.7030, 11450.00
679.8610, 11493.00
681.0200, 11596.00
682.1780, 11607.00
683.3360, 11713.00
684.4940, 11758.00
685.6520, 11786.00
686.8090, 11911.00
687.9670, 12022.34
689.1240, 12165.77
690.2810, 12330.00
691.4380, 12528.00
692.5950, 12693.00
693.7520, 12908.00
694.9080, 13118.00
696.0650, 13289.00
697.2210, 13473.00
698.3770, 13741.00
699.5330, 13855.00
700.6880, 13926.00
701.8440, 14027.00
702.9990, 13888.00
704.1550, 13899.00
705.3100, 13846.00
706.4650, 13510.00
707.6190, 13476.00
708.7740, 12978.00
709.9290, 12943.00
711.0830, 12610.00
712.2370, 12334.00
713.3910, 11952.00
714.5450, 11654.00
715.6980, 11425.00
716.8520, 11177.00
718.0050, 10763.00
719.1580, 10732.00
720.3110, 10572.00
721.4640, 10173.00
722.6170, 10092.00
723.7700, 9894.000
724.9220, 9903.000
726.0740, 9647.000
727.2260, 9585.000
728.3780, 9587.000
729.5300, 9483.000
730.6810, 9382.000
731.8330, 9349.000
732.9840, 9323.000
734.1350, 9295.000
735.2860, 9269.000
736.4370, 9268.000
737.5880, 9288.644
738.7380, 9163.000
739.8880, 9299.000
741.0390, 9215.000
742.1890, 9076.000
743.3380, 9097.000
744.4880, 9126.000
745.6380, 9122.000
746.7870, 9239.000
747.9360, 9174.000
749.0850, 9161.000
750.2340, 9148.000
751.3830, 9069.354
752.5310, 9136.000
753.6800, 8977.000
754.8280, 8822.000
755.9760, 8869.000
757.1240, 8891.000
758.2720, 8757.000
759.4190, 8649.000
760.5670, 8720.000
761.7140, 8667.000
762.8610, 8540.000
764.0080, 8638.000
765.1550, 8383.000
766.3020, 8314.000
767.4480, 8262.000
768.5950, 8128.000
769.7410, 8167.000
770.8870, 7986.000
772.0330, 8124.000
773.1780, 8039.000
774.3240, 8013.997
775.4690, 8006.248
776.6140, 7927.000
777.7590, 7933.000
778.9040, 7799.000
780.0490, 7813.000
781.1940, 7651.000
782.3380, 7626.000
783.4820, 7669.000
784.6260, 7754.000
785.7700, 7651.000
786.9140, 7676.733
788.0580, 7601.000
789.2010, 7615.000
790.3450, 7473.000
791.4880, 7461.000
792.6310, 7414.000
793.7730, 7381.000
794.9160, 7327.000
796.0590, 7387.000
797.2010, 7302.000
798.3430, 7351.000
799.4850, 7303.733
800.6270, 7210.000
801.7690, 7212.000
802.9100, 7191.000
804.0520, 7127.000
805.1930, 7088.000
806.3340, 7035.000
807.4750, 7072.000
808.6160, 7057.390
809.7560, 7050.112
810.8970, 7077.000
812.0370, 7026.000
813.1770, 6991.000
814.3170, 6933.000
815.4570, 6976.000
816.5960, 6850.000
817.7360, 6977.000
818.8750, 6979.000
820.0140, 6907.000
821.1530, 6935.000
822.2920, 6833.000
823.4310, 6959.000
824.5690, 6869.000
825.7070, 6876.547
826.8460, 6899.000
827.9840, 6885.000
829.1220, 6731.000
830.2590, 6790.000
831.3970, 6756.000
832.5340, 6781.000
833.6710, 6756.000
834.8080, 6762.000
835.9450, 6728.000
837.0820, 6770.000
838.2190, 6749.836
839.3550, 6876.000
840.4910, 6751.000
841.6270, 6788.000
842.7630, 6810.000
843.8990, 6725.000
845.0350, 6638.000
846.1700, 6762.000
847.3060, 6677.591
848.4410, 6843.000
849.5760, 6662.000
850.7100, 6817.000
851.8450, 6818.000
852.9800, 6858.000
854.1140, 6742.000
855.2480, 6775.000
856.3820, 6839.000
857.5160, 6738.000
858.6500, 6814.000
859.7830, 6766.992
860.9170, 6728.000
862.0500, 6716.000
863.1830, 6658.000
864.3160, 6648.000
865.4480, 6665.000
866.5810, 6756.000
867.7130, 6700.000
868.8460, 6640.000
869.9780, 6815.000
871.1100, 6726.000
872.2410, 6794.000
873.3730, 6610.000
874.5050, 6577.000
875.6360, 6642.000
876.7670, 6757.000
877.8980, 6632.000
879.0290, 6714.000
880.1590, 6729.000
881.2900, 6719.000
882.4200, 6650.000
883.5500, 6765.000
884.6800, 6679.000
885.8100, 6608.000
886.9400, 6699.000
888.0690, 6706.000
889.1990, 6566.000
890.3280, 6667.000
891.4570, 6514.000
892.5860, 6616.000
893.7140, 6690.000
894.8430, 6625.000
895.9710, 6574.000
897.1000, 6622.000
898.2280, 6633.000
899.3560, 6726.000
900.4830, 6647.000
901.6110, 6533.000
902.7380, 6554.000
903.8660, 6771.000
904.9930, 6634.000
906.1200, 6630.000
907.2460, 6725.000
908.3730, 6641.000
909.5000, 6579.000
910.6260, 6731.000
911.7520, 6599.000
912.8780, 6661.000
914.0040, 6586.000
915.1290, 6688.000
916.2550, 6690.000
917.3800, 6580.000
918.5050, 6570.000
919.6300, 6580.000
920.7550, 6543.000
921.8800, 6496.000
923.0040, 6632.000
924.1290, 6650.000
925.2530, 6619.000
926.3770, 6554.000
927.5010, 6548.000
928.6250, 6516.472
929.7480, 6498.000
930.8720, 6498.000
931.9950, 6551.000
933.1180, 6580.000
934.2410, 6542.000
935.3640, 6555.000
936.4860, 6545.000
937.6090, 6570.000
938.7310, 6466.000
939.8530, 6567.000
940.9750, 6507.000
942.0970, 6363.000
943.2180, 6506.000
944.3400, 6516.000
945.4610, 6540.000
946.5820, 6456.000
947.7030, 6421.000
948.8240, 6447.000
949.9450, 6316.000
951.0650, 6384.000
952.1860, 6261.000
953.3060, 6378.000
954.4260, 6406.000
955.5460, 6410.000
956.6650, 6303.000
957.7850, 6485.000
958.9040, 6406.000
960.0230, 6313.000
961.1420, 6405.000
962.2610, 6278.000
963.3800, 6402.000
964.4990, 6280.000
965.6170, 6328.000
966.7350, 6415.000
967.8530, 6368.000
968.9710, 6317.000
970.0890, 6373.000
971.2070, 6382.000
972.3240, 6367.000
973.4410, 6357.000
974.5580, 6317.000
975.6750, 6464.000
976.7920, 6387.000
977.9090, 6353.000
979.0250, 6330.000
980.1410, 6297.968
981.2580, 6307.000
982.3740, 6283.000
983.4890, 6269.000
984.6050, 6286.699
985.7200, 6369.000
986.8360, 6311.000
987.9510, 6347.000
989.0660, 6436.000
990.1810, 6328.000
991.2950, 6368.000
992.4100, 6247.000
993.5240, 6225.000
994.6390, 6273.000
995.7530, 6294.000
996.8660, 6389.000
997.9800, 6362.000
999.0940, 6248.000
1000.207, 6417.000
1001.320, 6341.000
1002.433, 6396.000
1003.546, 6240.000
1004.659, 6369.000
1005.772, 6285.000
1006.884, 6289.000
1007.996, 6336.000
1009.108, 6218.000
1010.220, 6294.000
1011.332, 6346.000
1012.444, 6273.000
1013.555, 6167.000
1014.666, 6242.000
1015.777, 6276.000
1016.888, 6287.000
1017.999, 6260.000
1019.110, 6253.000
1020.220, 6311.000
1021.331, 6200.000
1022.441, 6276.000
1023.551, 6157.000
1024.661, 6123.000
1025.770, 6242.000
1026.880, 6290.000
1027.989, 6192.000
1029.098, 6208.000
1030.207, 6195.000
1031.316, 6209.000
1032.425, 6204.000
1033.533, 6175.000
1034.642, 6165.000
1035.750, 6211.000
1036.858, 6191.000
1037.966, 6122.000
1039.073, 6179.000
1040.181, 6153.000
1041.288, 6110.000
1042.396, 6125.000
1043.503, 6151.000
1044.610, 6142.000
1045.716, 6171.000
1046.823, 6155.166
1047.929, 6069.000
1049.036, 6093.000
1050.142, 6090.000
1051.248, 5988.000
1052.353, 6131.000
1053.459, 6054.000
1054.564, 6137.000
1055.670, 6079.000
1056.775, 6106.000
1057.880, 5930.000
1058.985, 6027.000
1060.089, 5967.000
1061.194, 5974.000
1062.298, 5973.000
1063.402, 6032.000
1064.506, 6053.000
1065.610, 5994.000
1066.713, 6026.000
1067.817, 5970.000
1068.920, 6050.000
1070.023, 6064.000
1071.126, 6015.000
1072.229, 6123.000
1073.332, 5959.000
1074.435, 5912.000
1075.537, 5997.000
1076.639, 5981.000
1077.741, 5976.000
1078.843, 5929.000
1079.945, 5993.000
1081.046, 5947.000
1082.148, 5919.000
1083.249, 5973.000
1084.350, 6064.000
1085.451, 5980.000
1086.551, 5958.000
1087.652, 5899.000
1088.752, 5867.000
1089.853, 5867.000
1090.953, 5884.000
1092.053, 5848.000
1093.152, 5882.192
1094.252, 5868.573
1095.351, 5938.000
1096.451, 5885.000
1097.550, 5930.000
1098.649, 5988.000
1099.748, 5912.000
1100.846, 5893.000
1101.945, 5809.000
1103.043, 5882.000
1104.141, 5865.000
1105.239, 5718.000
1106.337, 5872.000
1107.434, 5776.000
1108.532, 5917.000
1109.629, 5897.000
1110.726, 5939.000
1111.823, 5872.000
1112.920, 5910.000
1114.017, 5866.000
1115.113, 5784.000
1116.210, 5902.000
1117.306, 5844.000
1118.402, 5966.000
1119.498, 5951.000
1120.593, 5969.000
1121.689, 5822.000
1122.784, 5914.000
1123.879, 5875.000
1124.974, 5909.000
1126.069, 5935.000
1127.164, 5896.000
1128.259, 5905.000
1129.353, 5871.000
1130.447, 5977.000
1131.541, 5883.000
1132.635, 5951.000
1133.729, 5892.000
1134.822, 5845.000
1135.916, 6000.000
1137.009, 5913.000
1138.102, 6017.000
1139.195, 5855.000
1140.288, 5961.000
1141.380, 5905.000
1142.473, 5867.000
1143.565, 5994.000
1144.657, 5965.000
1145.749, 6016.000
1146.841, 6008.000
1147.932, 5912.000
1149.024, 5891.000
1150.115, 5898.000
1151.206, 5889.000
1152.297, 5940.000
1153.388, 5895.000
1154.479, 5917.805
1155.569, 5806.000
1156.659, 5899.000
1157.750, 5874.000
1158.839, 5806.000
1159.929, 5868.000
1161.019, 5854.000
1162.108, 5865.000
1163.198, 5918.000
1164.287, 5898.000
1165.376, 5901.000
1166.465, 5861.000
1167.553, 5858.000
1168.642, 5836.099
1169.730, 5759.000
1170.818, 5802.000
1171.906, 5762.000
1172.994, 5756.984
1174.082, 5803.883
1175.170, 5777.000
1176.257, 5856.000
1177.344, 5855.000
1178.431, 5804.000
1179.518, 5804.550
1180.605, 5824.000
1181.691, 5756.000
1182.778, 5759.000
1183.864, 5825.000
1184.950, 5817.000
1186.036, 5812.000
1187.122, 5784.000
1188.207, 5808.000
1189.292, 5792.000
1190.378, 5852.000
1191.463, 5759.000
1192.548, 5784.000
1193.632, 5802.000
1194.717, 5877.000
1195.801, 5866.000
1196.886, 5844.000
1197.970, 5872.000
1199.054, 5847.000
1200.137, 5741.000
1201.221, 5777.000
1202.305, 5694.000
1203.388, 5805.000
1204.471, 5769.000
1205.554, 5802.000
1206.637, 5821.000
1207.719, 5784.000
1208.802, 5733.000
1209.884, 5794.000
1210.966, 5796.000
1212.048, 5879.000
1213.130, 5889.353
1214.212, 5953.000
1215.293, 5946.000
1216.374, 5925.000
1217.456, 5978.000
1218.536, 5910.000
1219.617, 6046.000
1220.698, 5996.000
1221.778, 6027.000
1222.859, 5994.000
1223.939, 5905.000
1225.019, 5880.000
1226.099, 5946.000
1227.178, 5880.000
1228.258, 5827.000
1229.337, 5750.000
1230.417, 5806.000
1231.496, 5824.000
1232.574, 5707.000
1233.653, 5820.000
1234.732, 5697.000
1235.810, 5754.000
1236.888, 5783.000
1237.966, 5908.000
1239.044, 5725.000
1240.122, 5772.000
1241.199, 5750.000
