##NAMES=Baddeleyite
##RRUFFID=R060016
##IDEAL CHEMISTRY=Zr^4+^O_2_
##LOCALITY=Wet Loo, Myanmar
##OWNER=RRUFF
##SOURCE=American Museum of Natural History
##DESCRIPTION=Brown crystal fragment
##STATUS=The identification of this mineral has been confirmed by X-ray diffraction and chemical analysis
##URL=rruff.info/R060016
##MEASURED CHEMISTRY=(Zr_0.99_Ti_0.01_)_Î£=1_O_2_
##PIN_ID=M00083
##ORIENTATION=Laser parallel to (1 0 -1). Fiducial mark perpendicular to laser is parallel to b [0 1 0]
40.39300, 365.0000
41.63700, 372.0000
42.88100, 355.0000
44.12400, 362.0000
45.36700, 367.0000
46.61100, 356.0000
47.85400, 381.0000
49.09700, 357.0000
50.33900, 364.0000
51.58200, 366.0000
52.82400, 357.0000
54.06700, 359.0000
55.30900, 365.0000
56.55100, 365.0000
57.79200, 359.0000
59.03400, 374.0000
60.27600, 362.0000
61.51700, 356.0000
62.75800, 357.0000
63.99900, 360.0000
65.24000, 370.0000
66.48100, 353.0000
67.72100, 367.0000
68.96100, 356.0000
70.20200, 369.0000
71.44200, 354.0000
72.68200, 368.0000
73.92100, 354.0000
75.16100, 358.0000
76.40000, 371.0000
77.64000, 362.0000
78.87900, 361.0000
80.11800, 379.0000
81.35600, 383.0000
82.59500, 394.0000
83.83400, 384.0000
85.07200, 406.0000
86.31000, 424.0000
87.54800, 460.0000
88.78600, 495.0000
90.02400, 552.0000
91.26100, 671.0000
92.49800, 825.0000
93.73600, 970.0000
94.97300, 1190.000
96.21000, 1355.000
97.44600, 1556.000
98.68300, 1800.000
99.91900, 2027.000
101.1560, 2182.000
102.3920, 2276.000
103.6280, 2184.000
104.8630, 2004.000
106.0990, 1773.000
107.3350, 1558.000
108.5700, 1355.000
109.8050, 1093.000
111.0400, 978.0000
112.2750, 935.0000
113.5100, 923.0000
114.7440, 915.0000
115.9780, 880.0000
117.2130, 874.0000
118.4470, 875.0000
119.6810, 859.0000
120.9140, 867.0000
122.1480, 891.0000
123.3810, 886.0000
124.6150, 886.0000
125.8480, 871.0000
127.0810, 856.0000
128.3130, 911.0000
129.5460, 874.0000
130.7790, 913.0000
132.0110, 907.0000
133.2430, 904.0000
134.4750, 934.0000
135.7070, 919.0000
136.9380, 933.0000
138.1700, 946.9010
139.4010, 987.0000
140.6330, 963.0000
141.8640, 981.0000
143.0950, 967.0000
144.3250, 1003.000
145.5560, 1000.000
146.7860, 1018.000
148.0160, 1025.938
149.2470, 1004.000
150.4760, 1032.000
151.7060, 1066.000
152.9360, 1067.000
154.1650, 1119.000
155.3950, 1143.000
156.6240, 1181.000
157.8530, 1212.000
159.0820, 1301.000
160.3100, 1375.000
161.5390, 1521.000
162.7670, 1726.000
163.9950, 2030.000
165.2230, 2496.000
166.4510, 3245.000
167.6790, 3990.000
168.9060, 4739.000
170.1340, 4961.000
171.3610, 4998.000
172.5880, 5413.000
173.8150, 6152.000
175.0420, 6946.000
176.2690, 7499.000
177.4950, 8184.000
178.7210, 8521.000
179.9470, 8605.000
181.1730, 8406.000
182.3990, 7913.000
183.6250, 6896.000
184.8500, 6574.000
186.0760, 7063.000
187.3010, 7823.000
188.5260, 8470.000
189.7510, 8920.000
190.9750, 8606.000
192.2000, 7720.000
193.4240, 6103.000
194.6490, 4298.000
195.8730, 3027.000
197.0970, 2270.000
198.3200, 1775.000
199.5440, 1551.000
200.7670, 1376.000
201.9910, 1290.000
203.2140, 1195.000
204.4370, 1119.000
205.6590, 1043.000
206.8820, 1042.000
208.1050, 1061.000
209.3270, 1066.000
210.5490, 1133.000
211.7710, 1184.000
212.9930, 1252.000
214.2150, 1274.000
215.4360, 1282.000
216.6570, 1286.000
217.8790, 1359.000
219.1000, 1383.000
220.3210, 1353.000
221.5410, 1357.000
222.7620, 1327.000
223.9820, 1216.000
225.2030, 1108.000
226.4230, 1014.000
227.6430, 939.0000
228.8620, 892.0000
230.0820, 880.0000
231.3010, 846.0000
232.5210, 861.0000
233.7400, 834.0000
234.9590, 806.0000
236.1780, 821.0000
237.3960, 819.0000
238.6150, 826.0000
239.8330, 809.0000
241.0510, 826.0000
242.2690, 839.0000
243.4870, 841.0000
244.7050, 823.0000
245.9230, 795.0000
247.1400, 828.0000
248.3570, 823.0000
249.5740, 830.0000
250.7910, 846.0000
252.0080, 802.0000
253.2240, 843.0000
254.4410, 817.0000
255.6570, 837.0000
256.8730, 844.0000
258.0890, 867.0000
259.3050, 864.8848
260.5210, 887.0000
261.7360, 863.0000
262.9510, 835.0000
264.1670, 835.0000
265.3820, 862.0000
266.5960, 843.0000
267.8110, 848.0000
269.0260, 871.0000
270.2400, 855.0000
271.4540, 889.0000
272.6680, 860.0000
273.8820, 847.0000
275.0960, 893.0000
276.3090, 936.0000
277.5230, 903.0000
278.7360, 923.0000
279.9490, 955.0000
281.1620, 960.0000
282.3750, 969.0000
283.5880, 1033.000
284.8000, 1011.000
286.0120, 1001.000
287.2240, 1045.000
288.4360, 1092.000
289.6480, 1124.000
290.8600, 1173.000
292.0710, 1240.000
293.2830, 1268.000
294.4940, 1355.000
295.7050, 1442.000
296.9160, 1534.000
298.1260, 1604.000
299.3370, 1701.000
300.5470, 1813.000
301.7580, 1881.000
302.9680, 1887.000
304.1770, 2015.000
305.3870, 1975.000
306.5970, 2003.000
307.8060, 1931.751
309.0150, 1857.650
310.2250, 1757.000
311.4340, 1668.000
312.6420, 1662.000
313.8510, 1602.000
315.0590, 1602.000
316.2680, 1612.000
317.4760, 1719.000
318.6840, 1844.000
319.8920, 1997.000
321.0990, 2278.000
322.3070, 2590.000
323.5140, 2854.000
324.7210, 3181.000
325.9280, 3311.000
327.1350, 3450.000
328.3420, 3708.000
329.5490, 3925.000
330.7550, 4110.000
331.9610, 4163.000
333.1670, 4110.000
334.3730, 3994.000
335.5790, 3851.000
336.7840, 3781.000
337.9900, 3688.000
339.1950, 3780.000
340.4000, 3814.000
341.6050, 3844.000
342.8100, 3959.000
344.0150, 4222.000
345.2190, 4310.000
346.4230, 4288.000
347.6280, 4147.000
348.8320, 3775.000
350.0350, 3297.000
351.2390, 2844.000
352.4430, 2488.000
353.6460, 2065.000
354.8490, 1829.000
356.0520, 1591.000
357.2550, 1532.000
358.4580, 1385.000
359.6600, 1341.000
360.8630, 1306.000
362.0650, 1221.000
363.2670, 1220.000
364.4690, 1231.000
365.6710, 1259.000
366.8720, 1277.528
368.0740, 1276.000
369.2750, 1364.000
370.4760, 1395.000
371.6770, 1496.000
372.8780, 1597.000
374.0780, 1646.000
375.2790, 1738.000
376.4790, 1855.000
377.6790, 1842.000
378.8790, 1944.000
380.0790, 1898.000
381.2790, 1920.000
382.4780, 1897.000
383.6780, 1818.000
384.8770, 1741.000
386.0760, 1602.000
387.2750, 1475.000
388.4730, 1412.000
389.6720, 1262.000
390.8700, 1188.000
392.0690, 1127.000
393.2670, 1102.000
394.4650, 1053.000
395.6620, 1035.000
396.8600, 1004.000
398.0570, 998.0000
399.2550, 1003.000
400.4520, 965.0000
401.6490, 979.0000
402.8450, 960.0000
404.0420, 955.0000
405.2390, 969.0000
406.4350, 949.0000
407.6310, 959.0000
408.8270, 950.0000
410.0230, 951.0000
411.2190, 951.2299
412.4140, 944.0000
413.6090, 952.0000
414.8050, 947.2146
416.0000, 954.2348
417.1940, 958.0000
418.3890, 958.0000
419.5840, 978.0000
420.7780, 986.0000
421.9720, 979.0000
423.1660, 965.0000
424.3600, 967.0000
425.5540, 1046.000
426.7480, 987.0000
427.9410, 1062.000
429.1340, 1032.000
430.3270, 1086.000
431.5200, 1096.000
432.7130, 1143.000
433.9060, 1135.000
435.0980, 1180.000
436.2900, 1205.000
437.4830, 1244.000
438.6750, 1316.000
439.8660, 1328.000
441.0580, 1396.665
442.2500, 1403.000
443.4410, 1520.000
444.6320, 1595.000
445.8230, 1678.000
447.0140, 1710.000
448.2050, 1916.000
449.3950, 1989.000
450.5860, 2164.000
451.7760, 2347.000
452.9660, 2607.000
454.1560, 2888.000
455.3450, 3237.000
456.5350, 3688.000
457.7240, 4288.000
458.9140, 4905.000
460.1030, 5719.000
461.2920, 6944.000
462.4810, 8322.000
463.6690, 10254.00
464.8580, 12093.00
466.0460, 14161.00
467.2340, 16048.00
468.4220, 17870.00
469.6100, 19266.00
470.7970, 20461.00
471.9850, 21475.00
473.1720, 21840.00
474.3590, 21376.00
475.5460, 19831.00
476.7330, 17653.00
477.9200, 15030.00
479.1060, 12267.00
480.2930, 9989.000
481.4790, 7934.000
482.6650, 6616.000
483.8510, 5582.000
485.0370, 4741.000
486.2220, 4255.000
487.4080, 3811.000
488.5930, 3472.000
489.7780, 3241.000
490.9630, 3173.000
492.1480, 3019.000
493.3320, 3047.000
494.5170, 2986.000
495.7010, 2886.000
496.8850, 2897.000
498.0690, 2826.000
499.2530, 2841.000
500.4360, 2721.000
501.6200, 2658.000
502.8030, 2467.000
503.9860, 2322.000
505.1690, 2063.000
506.3520, 1961.000
507.5350, 1815.000
508.7170, 1726.000
509.9000, 1576.000
511.0820, 1506.000
512.2640, 1542.000
513.4460, 1447.000
514.6270, 1474.000
515.8090, 1453.000
516.9900, 1373.000
518.1710, 1387.000
519.3530, 1385.000
520.5330, 1385.000
521.7140, 1394.000
522.8950, 1375.000
524.0750, 1455.000
525.2550, 1439.000
526.4350, 1567.000
527.6150, 1637.000
528.7950, 1768.000
529.9750, 1851.000
531.1540, 1961.000
532.3340, 2008.000
533.5130, 2061.000
534.6920, 2260.000
535.8700, 2229.000
537.0490, 2306.000
538.2280, 2265.000
539.4060, 2224.000
540.5840, 2194.000
541.7620, 2158.000
542.9400, 2211.000
544.1180, 2266.034
545.2950, 2382.000
546.4720, 2505.000
547.6500, 2725.000
548.8270, 2949.000
550.0040, 3242.000
551.1800, 3468.000
552.3570, 3671.000
553.5330, 3803.000
554.7090, 3911.000
555.8850, 3919.000
557.0610, 3882.000
558.2370, 3710.000
559.4130, 3376.000
560.5880, 3007.000
561.7630, 2666.000
562.9380, 2365.000
564.1130, 2074.000
565.2880, 1888.000
566.4630, 1741.000
567.6370, 1584.000
568.8120, 1549.000
569.9860, 1455.000
571.1600, 1375.000
572.3330, 1300.000
573.5070, 1280.000
574.6810, 1252.000
575.8540, 1217.000
577.0270, 1196.000
578.2000, 1155.000
579.3730, 1185.000
580.5460, 1199.000
581.7180, 1152.000
582.8910, 1120.000
584.0630, 1147.000
585.2350, 1178.000
586.4070, 1127.000
587.5780, 1166.000
588.7500, 1166.000
589.9210, 1168.000
591.0930, 1230.000
592.2640, 1238.000
593.4350, 1241.000
594.6050, 1266.000
595.7760, 1314.545
596.9460, 1331.000
598.1170, 1446.000
599.2870, 1508.000
600.4570, 1595.000
601.6260, 1757.000
602.7960, 1893.000
603.9650, 2048.000
605.1350, 2281.000
606.3040, 2560.000
607.4730, 2723.000
608.6420, 2980.000
609.8100, 3192.000
610.9790, 3391.000
612.1470, 3599.000
613.3150, 3640.000
614.4830, 3729.000
615.6510, 3592.000
616.8190, 3477.000
617.9860, 3238.000
619.1540, 2958.000
620.3210, 2771.000
621.4880, 2570.000
622.6550, 2386.000
623.8220, 2288.000
624.9880, 2207.000
626.1550, 2183.000
627.3210, 2174.000
628.4870, 2124.000
629.6530, 2211.000
630.8190, 2218.000
631.9840, 2289.000
633.1500, 2344.000
634.3150, 2346.000
635.4800, 2325.000
636.6450, 2266.000
637.8100, 2176.000
638.9740, 2090.000
640.1390, 1943.000
641.3030, 1886.000
642.4670, 1730.000
643.6310, 1645.000
644.7950, 1518.000
645.9590, 1451.000
647.1220, 1407.000
648.2850, 1357.000
649.4490, 1314.000
650.6120, 1259.000
651.7740, 1212.000
652.9370, 1191.747
654.1000, 1182.000
655.2620, 1161.000
656.4240, 1178.000
657.5860, 1172.000
658.7480, 1138.000
659.9100, 1115.000
661.0710, 1088.000
662.2330, 1091.000
663.3940, 1079.000
664.5550, 1099.000
665.7160, 1083.000
666.8770, 1079.000
668.0370, 1076.000
669.1980, 1081.000
670.3580, 1063.000
671.5180, 1092.000
672.6780, 1083.000
673.8380, 1074.000
674.9970, 1048.000
676.1570, 1067.000
677.3160, 1075.000
678.4750, 1034.000
679.6340, 1082.000
680.7930, 1060.000
681.9520, 1046.000
683.1100, 1086.000
684.2680, 1081.000
685.4270, 1064.000
686.5850, 1049.000
687.7420, 1046.000
688.9000, 1055.000
690.0580, 1035.000
691.2150, 1075.000
692.3720, 1056.000
693.5290, 1064.000
694.6860, 1104.000
695.8430, 1112.000
696.9990, 1082.000
698.1560, 1102.000
699.3120, 1091.000
700.4680, 1073.000
701.6240, 1081.000
702.7800, 1080.445
703.9350, 1068.000
705.0900, 1095.000
706.2460, 1114.000
707.4010, 1115.000
708.5560, 1115.000
709.7110, 1090.000
710.8650, 1097.000
712.0200, 1060.000
713.1740, 1089.000
714.3280, 1098.000
715.4820, 1063.000
716.6360, 1063.000
717.7890, 1056.000
718.9430, 1080.000
720.0960, 1050.000
721.2490, 1090.000
722.4020, 1014.000
723.5550, 1021.000
724.7080, 1079.000
725.8600, 1048.000
727.0130, 1060.000
728.1650, 1057.000
729.3170, 1065.000
730.4690, 1046.000
731.6200, 1028.000
732.7720, 1047.860
733.9230, 1082.000
735.0740, 1085.000
736.2250, 1090.000
737.3760, 1118.000
738.5270, 1095.000
739.6780, 1099.000
740.8280, 1153.000
741.9780, 1140.000
743.1280, 1127.000
744.2780, 1166.000
745.4280, 1190.000
746.5770, 1226.000
747.7270, 1216.000
748.8760, 1248.000
750.0250, 1231.000
751.1740, 1254.000
752.3230, 1247.680
753.4720, 1233.000
754.6200, 1227.000
755.7680, 1218.000
756.9160, 1191.000
758.0640, 1197.000
759.2120, 1154.000
760.3600, 1191.000
761.5070, 1149.000
762.6550, 1109.000
763.8020, 1120.000
764.9490, 1077.000
766.0960, 1049.000
767.2420, 1061.000
768.3890, 1029.000
769.5350, 979.0000
770.6810, 1025.000
771.8270, 987.0000
772.9730, 984.0000
774.1190, 980.0000
775.2640, 925.0000
776.4100, 976.0000
777.5550, 966.0000
778.7000, 948.0000
779.8450, 917.0000
780.9900, 889.0000
782.1340, 927.0000
783.2790, 908.0000
784.4230, 924.0000
785.5670, 886.0000
786.7110, 902.0000
787.8550, 913.0000
788.9980, 894.0000
790.1420, 885.0000
791.2850, 888.0000
792.4280, 873.8608
793.5710, 871.7036
794.7140, 864.0000
795.8560, 857.0000
796.9990, 861.0000
798.1410, 845.0000
799.2830, 863.0000
800.4250, 869.0000
801.5670, 862.0000
802.7090, 845.0000
803.8500, 831.0000
804.9920, 834.0000
806.1330, 859.0000
807.2740, 823.0000
808.4150, 839.0000
809.5550, 839.0000
810.6960, 800.0000
811.8360, 843.0000
812.9760, 803.0000
814.1160, 767.0000
815.2560, 817.0000
816.3960, 797.0000
817.5350, 773.0000
818.6750, 806.0000
819.8140, 805.0000
820.9530, 776.0000
822.0920, 777.0000
823.2310, 791.0000
824.3690, 796.0000
825.5080, 776.0000
826.6460, 759.0000
827.7840, 758.0000
828.9220, 780.0000
830.0600, 783.0000
831.1970, 777.0000
832.3350, 775.0000
833.4720, 786.0000
834.6090, 769.0000
835.7460, 782.0000
836.8830, 777.0000
838.0190, 768.0000
839.1560, 778.0000
840.2920, 742.0000
841.4280, 746.0000
842.5640, 772.0000
843.7000, 747.0000
844.8360, 743.0000
845.9710, 758.0000
847.1070, 761.0000
848.2420, 748.0000
849.3770, 770.0000
850.5120, 745.0000
851.6460, 741.0000
852.7810, 741.0000
853.9150, 735.4278
855.0490, 738.0164
856.1830, 743.0000
857.3170, 741.0000
858.4510, 749.0000
859.5840, 748.0000
860.7180, 754.0000
861.8510, 737.0000
862.9840, 759.0000
864.1170, 741.0000
865.2500, 748.0000
866.3820, 759.0000
867.5150, 757.0000
868.6470, 752.5283
869.7790, 718.0000
870.9110, 730.0000
872.0430, 721.0000
873.1740, 704.0000
874.3060, 741.0000
875.4370, 748.0000
876.5680, 713.0000
877.6990, 725.0000
878.8300, 723.0000
879.9600, 692.0000
881.0910, 727.0000
882.2210, 747.0000
883.3510, 739.0000
884.4810, 701.0000
885.6110, 693.0000
886.7410, 718.0000
887.8700, 719.0000
888.9990, 713.0000
890.1290, 729.0000
891.2580, 673.0000
892.3860, 749.0000
893.5150, 697.0000
894.6440, 721.0000
895.7720, 738.0000
896.9000, 720.0000
898.0280, 736.0000
899.1560, 705.0000
900.2840, 709.0000
901.4110, 700.0000
902.5390, 733.0000
903.6660, 715.0000
904.7930, 712.0000
905.9200, 703.0000
907.0470, 700.5651
908.1730, 708.0000
909.3000, 708.0000
910.4260, 722.0000
911.5520, 741.0000
912.6780, 728.0000
913.8030, 728.0000
914.9290, 700.0000
916.0540, 694.0000
917.1800, 722.0000
918.3050, 740.0000
919.4300, 730.0000
920.5550, 709.0000
921.6790, 706.0000
922.8040, 697.0000
923.9280, 725.0000
925.0520, 694.0000
926.1760, 707.0000
927.3000, 722.0000
928.4230, 695.0000
929.5470, 704.0000
930.6700, 724.0000
931.7930, 721.0000
932.9160, 704.0000
934.0390, 702.0000
935.1620, 718.0000
936.2840, 726.0000
937.4070, 729.8397
938.5290, 718.0000
939.6510, 724.0000
940.7730, 721.0000
941.8940, 682.0000
943.0160, 688.0000
944.1370, 714.0000
945.2580, 680.0000
946.3800, 693.0000
947.5000, 697.0000
948.6210, 683.0000
949.7420, 699.0000
950.8620, 680.0000
951.9820, 676.0000
953.1020, 709.0000
954.2220, 677.0000
955.3420, 656.0000
956.4620, 673.0000
957.5810, 659.7944
958.7000, 690.0000
959.8190, 682.0000
960.9380, 675.0000
962.0570, 709.0000
963.1760, 685.0000
964.2940, 675.0000
965.4120, 674.0000
966.5300, 688.0000
967.6480, 712.0000
968.7660, 681.0000
969.8840, 700.0000
971.0010, 702.0000
972.1190, 686.0000
973.2360, 656.0000
974.3530, 703.0000
975.4690, 717.0000
976.5860, 663.0000
977.7030, 700.0000
978.8190, 711.0000
979.9350, 677.0000
981.0510, 695.0000
982.1670, 711.0000
983.2830, 705.0000
984.3980, 679.0000
985.5130, 722.0000
986.6290, 695.0000
987.7440, 666.0000
988.8590, 687.0000
989.9730, 701.0000
991.0880, 695.0000
992.2020, 695.0000
993.3160, 698.0000
994.4300, 695.0000
995.5440, 700.0000
996.6580, 693.0000
997.7720, 698.5411
998.8850, 695.4472
999.9980, 707.0000
1001.111, 700.0000
1002.224, 705.0000
1003.337, 726.0000
1004.450, 705.0000
1005.562, 696.0000
1006.674, 705.0000
1007.786, 687.0000
1008.898, 677.0000
1010.010, 695.0000
1011.122, 693.0000
1012.233, 675.0000
1013.344, 685.0000
1014.455, 663.0000
1015.566, 685.0000
1016.677, 714.0000
1017.788, 719.0000
1018.898, 681.0000
1020.009, 709.0000
1021.119, 690.0000
1022.229, 666.0000
1023.339, 696.0000
1024.448, 688.0000
1025.558, 662.0000
1026.667, 725.0000
1027.776, 720.0000
1028.885, 692.0000
1029.994, 683.0000
1031.103, 704.0000
1032.211, 694.0000
1033.320, 698.0000
1034.428, 679.0000
1035.536, 687.0000
1036.644, 679.0000
1037.751, 681.0000
1038.859, 704.0000
1039.966, 688.0000
1041.074, 677.0000
1042.181, 712.0000
1043.288, 684.0000
1044.394, 694.0000
1045.501, 702.0000
1046.607, 708.0000
1047.713, 696.0000
1048.820, 698.0000
1049.925, 699.0000
1051.031, 672.0000
1052.137, 697.0000
1053.242, 700.0000
1054.348, 701.0000
1055.453, 685.0000
1056.558, 693.0000
1057.662, 695.0000
1058.767, 698.0000
1059.871, 709.0000
1060.976, 697.0000
1062.080, 691.0000
1063.184, 697.0000
1064.288, 712.0000
1065.391, 700.0000
1066.495, 679.0000
1067.598, 698.0000
1068.701, 690.0000
1069.804, 689.0000
1070.907, 696.0000
1072.010, 692.8118
1073.112, 697.6523
1074.214, 700.0000
1075.317, 700.0000
1076.419, 711.0000
1077.521, 703.0000
1078.622, 698.0000
1079.724, 725.0000
1080.825, 704.0000
1081.926, 692.0000
1083.027, 698.0000
1084.128, 723.0000
1085.229, 720.0000
1086.329, 701.0000
1087.430, 680.0000
1088.530, 714.0000
1089.630, 695.0000
1090.730, 717.0000
1091.830, 712.0000
1092.929, 718.0000
1094.029, 706.0000
1095.128, 708.0000
1096.227, 731.0000
1097.326, 718.5104
1098.425, 696.0000
1099.523, 716.0000
1100.622, 697.0000
1101.720, 697.0000
1102.818, 711.0000
1103.916, 705.0000
1105.014, 680.0000
1106.111, 686.0000
1107.209, 704.0000
1108.306, 682.0000
1109.403, 708.0000
1110.500, 695.0000
1111.597, 693.0000
1112.694, 682.0000
1113.790, 720.0000
1114.887, 711.0000
1115.983, 716.0000
1117.079, 715.0000
1118.174, 727.0000
1119.270, 718.0000
1120.366, 699.0000
1121.461, 700.0000
1122.556, 710.0000
1123.651, 713.0000
1124.746, 717.4658
1125.841, 729.0000
1126.935, 719.0000
1128.030, 733.0000
1129.124, 720.0000
1130.218, 696.0000
1131.312, 764.0000
1132.405, 735.0000
1133.499, 733.0000
1134.592, 700.0000
1135.686, 735.0000
1136.779, 751.0000
1137.871, 728.0000
1138.964, 731.0000
1140.057, 764.0000
1141.149, 753.0000
1142.241, 742.0000
1143.334, 766.0000
1144.425, 762.0000
1145.517, 742.0000
1146.609, 721.0000
1147.700, 789.0000
1148.791, 737.0000
1149.883, 742.0000
1150.974, 758.0000
1152.064, 735.0000
1153.155, 717.0000
1154.245, 728.0000
1155.336, 730.0000
1156.426, 705.0000
1157.516, 720.0000
1158.606, 744.0000
1159.695, 725.0000
1160.785, 734.0000
1161.874, 723.0000
1162.963, 738.0000
1164.052, 723.0000
1165.141, 729.0000
1166.230, 733.0000
1167.318, 724.0000
1168.406, 732.0000
1169.495, 748.0000
1170.583, 724.0000
1171.670, 737.0000
1172.758, 760.0000
1173.846, 749.0000
1174.933, 725.0000
1176.020, 700.0000
1177.107, 707.0000
1178.194, 707.0000
1179.281, 721.0000
1180.367, 725.0000
1181.454, 735.0000
1182.540, 719.0000
1183.626, 749.0000
1184.712, 715.0000
1185.798, 698.0000
1186.883, 733.0000
1187.969, 741.0000
1189.054, 722.0000
1190.139, 727.0000
1191.224, 710.0000
1192.309, 723.0000
1193.393, 724.0000
1194.478, 718.0000
1195.562, 724.0000
1196.646, 746.0000
1197.730, 714.0000
1198.814, 747.0000
1199.897, 731.0000
1200.981, 718.0000
1202.064, 723.0000
1203.147, 716.0000
1204.230, 710.0000
1205.313, 711.0000
1206.396, 724.0000
1207.478, 730.0000
1208.560, 721.0000
1209.642, 715.0000
1210.724, 718.7180
1211.806, 714.0000
1212.888, 721.0000
1213.969, 724.0000
1215.051, 724.0000
1216.132, 728.1801
1217.213, 724.6077
1218.294, 729.0000
1219.374, 718.0000
1220.455, 711.0000
1221.535, 708.1421
1222.616, 750.0000
1223.696, 706.0000
1224.775, 738.0000
1225.855, 722.0000
1226.935, 728.0000
1228.014, 741.0000
1229.093, 711.0000
1230.172, 724.0000
1231.251, 746.0000
