##NAMES=Baddeleyite
##RRUFFID=R060016
##IDEAL CHEMISTRY=Zr^4+^O_2_
##LOCALITY=Wet Loo, Myanmar
##OWNER=RRUFF
##SOURCE=American Museum of Natural History
##DESCRIPTION=Brown crystal fragment
##STATUS=The identification of this mineral has been confirmed by X-ray diffraction and chemical analysis
##URL=rruff.info/R060016
##MEASURED CHEMISTRY=(Zr_0.99_Ti_0.01_)_Î£=1_O_2_
##PIN_ID=M01376
##ORIENTATION=Laser parallel to c* (0 0 1). Fiducial mark perpendicular to laser is parallel to -a [-1 0 0]
135.7070, 12428.00
136.9380, 12437.00
138.1700, 12585.00
139.4010, 12708.00
140.6330, 12727.00
141.8640, 12893.00
143.0950, 12998.00
144.3250, 12922.00
145.5560, 13006.00
146.7860, 12941.00
148.0160, 13184.00
149.2470, 13223.00
150.4760, 13288.00
151.7060, 13390.00
152.9360, 13451.00
154.1650, 13291.00
155.3950, 13588.00
156.6240, 13443.00
157.8530, 13609.00
159.0820, 13898.00
160.3100, 13963.00
161.5390, 14152.00
162.7670, 14361.00
163.9950, 14458.00
165.2230, 14782.00
166.4510, 15331.00
167.6790, 15966.00
168.9060, 16318.00
170.1340, 16575.00
171.3610, 16668.00
172.5880, 17387.00
173.8150, 17816.00
175.0420, 18616.00
176.2690, 19135.00
177.4950, 19761.00
178.7210, 19818.00
179.9470, 19951.00
181.1730, 19625.00
182.3990, 19273.00
183.6250, 18556.00
184.8500, 18477.00
186.0760, 18690.00
187.3010, 19391.00
188.5260, 20094.00
189.7510, 20253.00
190.9750, 20340.00
192.2000, 19780.00
193.4240, 18916.00
194.6490, 17669.00
195.8730, 16543.00
197.0970, 15962.00
198.3200, 15760.00
199.5440, 15655.00
200.7670, 15301.00
201.9910, 15425.00
203.2140, 15346.00
204.4370, 15282.00
205.6590, 15306.00
206.8820, 15275.00
208.1050, 15502.00
209.3270, 15329.00
210.5490, 15602.00
211.7710, 15727.00
212.9930, 15795.00
214.2150, 16013.00
215.4360, 16033.00
216.6570, 16185.00
217.8790, 16447.00
219.1000, 16905.00
220.3210, 16949.00
221.5410, 17031.00
222.7620, 16999.00
223.9820, 16598.00
225.2030, 16312.00
226.4230, 15936.00
227.6430, 15646.00
228.8620, 15302.00
230.0820, 15298.00
231.3010, 15138.00
232.5210, 15165.00
233.7400, 15025.00
234.9590, 14934.00
236.1780, 15239.00
237.3960, 15123.00
238.6150, 15212.00
239.8330, 15228.00
241.0510, 15264.00
242.2690, 15376.00
243.4870, 15410.00
244.7050, 15467.00
245.9230, 15511.85
247.1400, 15579.00
248.3570, 15571.00
249.5740, 15622.00
250.7910, 15657.00
252.0080, 15780.00
253.2240, 15642.00
254.4410, 15630.00
255.6570, 15721.00
256.8730, 15659.00
258.0890, 15795.00
259.3050, 15783.00
260.5210, 15788.00
261.7360, 15742.00
262.9510, 15635.00
264.1670, 15539.00
265.3820, 15620.93
266.5960, 15762.00
267.8110, 15755.00
269.0260, 15863.00
270.2400, 15835.00
271.4540, 15787.00
272.6680, 15876.00
273.8820, 15894.00
275.0960, 15806.00
276.3090, 15824.00
277.5230, 16077.00
278.7360, 16163.00
279.9490, 16375.00
281.1620, 16412.00
282.3750, 16505.00
283.5880, 16371.00
284.8000, 16749.00
286.0120, 16677.00
287.2240, 16681.00
288.4360, 16853.00
289.6480, 16954.00
290.8600, 17105.00
292.0710, 17210.39
293.2830, 17290.00
294.4940, 17396.00
295.7050, 17442.00
296.9160, 17496.00
298.1260, 17507.00
299.3370, 17625.00
300.5470, 17668.44
301.7580, 17758.00
302.9680, 17796.00
304.1770, 18057.00
305.3870, 18098.00
306.5970, 18122.57
307.8060, 18285.00
309.0150, 18106.00
310.2250, 17946.00
311.4340, 17943.00
312.6420, 18031.00
313.8510, 17762.00
315.0590, 17991.00
316.2680, 18144.00
317.4760, 18095.00
318.6840, 18402.00
319.8920, 18980.00
321.0990, 19410.00
322.3070, 20063.00
323.5140, 20887.00
324.7210, 21642.00
325.9280, 22010.00
327.1350, 22717.00
328.3420, 23327.00
329.5490, 24164.00
330.7550, 24377.00
331.9610, 24726.00
333.1670, 24703.00
334.3730, 23980.00
335.5790, 23064.00
336.7840, 22050.00
337.9900, 20889.00
339.1950, 19937.00
340.4000, 19506.00
341.6050, 18981.00
342.8100, 18894.00
344.0150, 18704.00
345.2190, 18810.00
346.4230, 18611.00
347.6280, 18593.00
348.8320, 18373.00
350.0350, 17966.00
351.2390, 17546.00
352.4430, 17086.00
353.6460, 16770.00
354.8490, 16623.00
356.0520, 16438.00
357.2550, 16293.00
358.4580, 16346.00
359.6600, 16338.00
360.8630, 16085.00
362.0650, 16148.00
363.2670, 16071.00
364.4690, 16359.00
365.6710, 16390.00
366.8720, 16527.00
368.0740, 16797.00
369.2750, 17049.00
370.4760, 17327.00
371.6770, 17568.00
372.8780, 17947.00
374.0780, 18251.00
375.2790, 18551.00
376.4790, 18814.00
377.6790, 19041.00
378.8790, 19285.00
380.0790, 19277.00
381.2790, 19109.00
382.4780, 19001.00
383.6780, 18612.00
384.8770, 18365.00
386.0760, 17945.00
387.2750, 17557.00
388.4730, 17154.00
389.6720, 16931.00
390.8700, 16864.00
392.0690, 16364.00
393.2670, 16228.00
394.4650, 16368.00
395.6620, 16133.00
396.8600, 16055.00
398.0570, 16055.00
399.2550, 16034.00
400.4520, 15952.00
401.6490, 15951.00
402.8450, 15925.00
404.0420, 15722.00
405.2390, 15793.00
406.4350, 15841.00
407.6310, 15897.00
408.8270, 15710.00
410.0230, 15958.00
411.2190, 15926.00
412.4140, 15699.00
413.6090, 15982.00
414.8050, 15958.00
416.0000, 15851.00
417.1940, 15860.00
418.3890, 15833.00
419.5840, 16004.00
420.7780, 15926.00
421.9720, 15966.00
423.1660, 15924.00
424.3600, 16085.00
425.5540, 16296.00
426.7480, 16159.00
427.9410, 16251.00
429.1340, 16193.00
430.3270, 16222.00
431.5200, 16272.00
432.7130, 16347.00
433.9060, 16415.00
435.0980, 16445.37
436.2900, 16596.00
437.4830, 16506.00
438.6750, 16517.00
439.8660, 16545.00
441.0580, 16716.00
442.2500, 16773.00
443.4410, 16770.00
444.6320, 16979.00
445.8230, 16939.00
447.0140, 17196.00
448.2050, 17053.00
449.3950, 17261.00
450.5860, 17429.00
451.7760, 17594.00
452.9660, 17663.00
454.1560, 17910.00
455.3450, 18467.00
456.5350, 18523.00
457.7240, 19207.00
458.9140, 19534.00
460.1030, 20201.00
461.2920, 20856.00
462.4810, 21995.00
463.6690, 23336.00
464.8580, 24856.00
466.0460, 26555.00
467.2340, 28546.00
468.4220, 30235.00
469.6100, 31856.00
470.7970, 33503.00
471.9850, 34662.00
473.1720, 35778.00
474.3590, 35838.00
475.5460, 35192.00
476.7330, 33666.00
477.9200, 31137.00
479.1060, 28453.00
480.2930, 26315.00
481.4790, 24168.00
482.6650, 22826.00
483.8510, 21642.00
485.0370, 20676.00
486.2220, 20094.00
487.4080, 19679.00
488.5930, 19390.00
489.7780, 19074.68
490.9630, 18910.00
492.1480, 18793.00
493.3320, 18744.00
494.5170, 18871.00
495.7010, 18827.00
496.8850, 18766.00
498.0690, 18946.00
499.2530, 18795.00
500.4360, 18628.00
501.6200, 18778.00
502.8030, 18672.00
503.9860, 18468.00
505.1690, 18383.00
506.3520, 18224.17
507.5350, 17933.00
508.7170, 17917.00
509.9000, 17803.00
511.0820, 17601.00
512.2640, 17627.00
513.4460, 17597.00
514.6270, 17526.00
515.8090, 17639.00
516.9900, 17589.00
518.1710, 17528.00
519.3530, 17722.00
520.5330, 17701.00
521.7140, 17804.00
522.8950, 17885.00
524.0750, 17913.00
525.2550, 18137.00
526.4350, 18426.00
527.6150, 18538.00
528.7950, 18952.00
529.9750, 19264.00
531.1540, 19316.00
532.3340, 19823.00
533.5130, 20136.00
534.6920, 20201.00
535.8700, 20643.00
537.0490, 20639.00
538.2280, 20836.00
539.4060, 20391.00
540.5840, 20218.00
541.7620, 20014.00
542.9400, 19823.00
544.1180, 19646.00
545.2950, 19782.00
546.4720, 19902.00
547.6500, 20219.00
548.8270, 20505.00
550.0040, 20867.00
551.1800, 21031.00
552.3570, 21602.00
553.5330, 21808.00
554.7090, 21921.00
555.8850, 22162.00
557.0610, 22028.00
558.2370, 22133.00
559.4130, 21844.00
560.5880, 21131.00
561.7630, 20758.00
562.9380, 20336.00
564.1130, 19776.00
565.2880, 19500.00
566.4630, 19164.00
567.6370, 18974.00
568.8120, 18768.00
569.9860, 18727.00
571.1600, 18461.00
572.3330, 18555.00
573.5070, 18391.00
574.6810, 18155.00
575.8540, 18100.00
577.0270, 18146.00
578.2000, 18010.00
579.3730, 17922.00
580.5460, 17967.76
581.7180, 17927.01
582.8910, 17990.00
584.0630, 18040.00
585.2350, 17990.00
586.4070, 18150.00
587.5780, 18126.00
588.7500, 18163.00
589.9210, 18291.00
591.0930, 18380.00
592.2640, 18402.00
593.4350, 18369.00
594.6050, 18414.00
595.7760, 18547.00
596.9460, 18652.63
598.1170, 18921.00
599.2870, 19086.00
600.4570, 19168.00
601.6260, 19569.00
602.7960, 19526.00
603.9650, 20011.00
605.1350, 20179.00
606.3040, 20405.00
607.4730, 20787.00
608.6420, 21255.00
609.8100, 21273.00
610.9790, 21313.00
612.1470, 21419.00
613.3150, 21333.00
614.4830, 21330.00
615.6510, 21312.00
616.8190, 21074.00
617.9860, 20799.00
619.1540, 20574.00
620.3210, 20464.00
621.4880, 20141.00
622.6550, 19818.00
623.8220, 19740.00
624.9880, 19667.00
626.1550, 19659.00
627.3210, 19657.75
628.4870, 19723.00
629.6530, 19737.00
630.8190, 19846.00
631.9840, 19918.00
633.1500, 20041.00
634.3150, 20055.00
635.4800, 20130.00
636.6450, 20068.57
637.8100, 20052.00
638.9740, 19879.00
640.1390, 19674.00
641.3030, 19526.00
642.4670, 19646.00
643.6310, 19411.00
644.7950, 18830.00
645.9590, 18832.00
647.1220, 18908.00
648.2850, 18755.00
649.4490, 18773.00
650.6120, 18937.00
651.7740, 18715.00
652.9370, 18746.00
654.1000, 18695.00
655.2620, 18809.00
656.4240, 18670.00
657.5860, 18653.00
658.7480, 18574.00
659.9100, 18856.00
661.0710, 18798.00
662.2330, 18834.00
663.3940, 18800.00
664.5550, 18788.54
665.7160, 18843.00
666.8770, 18739.00
668.0370, 18743.00
669.1980, 18665.00
670.3580, 18809.00
671.5180, 18622.00
672.6780, 18848.00
673.8380, 18881.00
674.9970, 19048.00
676.1570, 18946.00
677.3160, 18898.00
678.4750, 19033.00
679.6340, 18969.00
680.7930, 19012.00
681.9520, 18975.00
683.1100, 19047.00
684.2680, 19089.00
685.4270, 19194.00
686.5850, 19227.00
687.7420, 19248.00
688.9000, 19254.00
690.0580, 19336.00
691.2150, 19461.00
692.3720, 19526.00
693.5290, 19581.00
694.6860, 19625.00
695.8430, 19766.00
696.9990, 19527.00
698.1560, 19738.00
699.3120, 19850.00
700.4680, 20121.00
701.6240, 20117.00
702.7800, 20092.00
703.9350, 20124.00
705.0900, 20119.00
706.2460, 20335.00
707.4010, 20196.00
708.5560, 20207.00
709.7110, 19965.00
710.8650, 19901.00
712.0200, 19913.00
713.1740, 19735.00
714.3280, 19830.00
715.4820, 19911.00
716.6360, 19882.00
717.7890, 19670.00
718.9430, 19724.00
720.0960, 19546.00
721.2490, 19589.00
722.4020, 19375.00
723.5550, 19394.00
724.7080, 19519.00
725.8600, 19349.00
727.0130, 19368.00
728.1650, 19343.00
729.3170, 19242.00
730.4690, 19166.00
731.6200, 19248.00
732.7720, 19262.00
733.9230, 19378.00
735.0740, 19280.00
736.2250, 19149.00
737.3760, 19358.00
738.5270, 19093.00
739.6780, 19396.00
740.8280, 19300.00
741.9780, 19392.00
743.1280, 19295.00
744.2780, 19272.00
745.4280, 19512.00
746.5770, 19408.00
747.7270, 19457.00
748.8760, 19549.00
750.0250, 19490.40
751.1740, 19545.00
752.3230, 19488.00
753.4720, 19573.00
754.6200, 19597.00
755.7680, 19666.00
756.9160, 19539.00
758.0640, 19496.00
759.2120, 19457.00
760.3600, 19450.80
761.5070, 19557.00
762.6550, 19540.00
763.8020, 19522.00
764.9490, 19634.00
766.0960, 19494.00
767.2420, 19533.00
768.3890, 19301.00
769.5350, 19510.00
770.6810, 19473.00
771.8270, 19519.00
772.9730, 19353.00
774.1190, 19499.00
775.2640, 19548.00
776.4100, 19255.00
777.5550, 19387.00
778.7000, 19196.00
779.8450, 19504.00
780.9900, 19487.00
782.1340, 19269.00
783.2790, 19609.00
784.4230, 19470.00
785.5670, 19429.00
786.7110, 19501.00
787.8550, 19325.00
788.9980, 19418.00
790.1420, 19431.00
791.2850, 19434.00
792.4280, 19054.00
793.5710, 19343.00
794.7140, 19296.00
795.8560, 19348.00
796.9990, 19502.00
798.1410, 19411.00
799.2830, 19572.00
800.4250, 19275.00
801.5670, 19281.00
802.7090, 19376.00
803.8500, 19350.00
804.9920, 19486.00
806.1330, 19461.00
807.2740, 19414.00
808.4150, 19417.00
809.5550, 19568.00
810.6960, 19657.00
811.8360, 19354.00
812.9760, 19530.00
814.1160, 19489.00
815.2560, 19517.00
816.3960, 19617.00
817.5350, 19731.00
818.6750, 19741.00
819.8140, 19487.00
820.9530, 19586.00
822.0920, 19660.00
823.2310, 19440.00
824.3690, 19673.00
825.5080, 19580.00
826.6460, 19564.00
827.7840, 19577.00
828.9220, 19597.00
830.0600, 19470.00
831.1970, 19607.00
832.3350, 19503.00
833.4720, 19544.00
834.6090, 19550.00
835.7460, 19795.00
836.8830, 19639.00
838.0190, 19594.00
839.1560, 19735.00
840.2920, 19436.00
841.4280, 19727.00
842.5640, 19648.00
843.7000, 19812.00
844.8360, 19774.00
845.9710, 19727.00
847.1070, 19867.00
848.2420, 19870.00
849.3770, 19740.00
850.5120, 19959.00
851.6460, 20057.00
852.7810, 19968.00
853.9150, 19854.00
855.0490, 19911.00
856.1830, 20007.00
857.3170, 20135.00
858.4510, 19828.00
859.5840, 19939.00
860.7180, 19963.00
861.8510, 20163.00
862.9840, 20023.00
864.1170, 19968.00
865.2500, 20095.00
866.3820, 20243.00
867.5150, 20114.00
868.6470, 20064.00
869.7790, 20211.00
870.9110, 19958.00
872.0430, 20187.00
873.1740, 20115.00
874.3060, 20268.00
875.4370, 20160.00
876.5680, 19990.00
877.6990, 20275.00
878.8300, 20076.00
879.9600, 20035.00
881.0910, 19921.00
882.2210, 20024.00
883.3510, 20098.00
884.4810, 20159.00
885.6110, 20221.00
886.7410, 20113.00
887.8700, 20127.00
888.9990, 20240.00
890.1290, 20089.00
891.2580, 20232.00
892.3860, 20277.00
893.5150, 20208.00
894.6440, 20358.00
895.7720, 20326.00
896.9000, 20290.96
898.0280, 20286.00
899.1560, 20180.00
900.2840, 20162.00
901.4110, 20098.00
902.5390, 20344.00
903.6660, 20270.00
904.7930, 20456.00
905.9200, 20342.00
907.0470, 20358.00
908.1730, 20400.00
909.3000, 20379.00
910.4260, 20419.33
911.5520, 20620.00
912.6780, 20497.00
913.8030, 20593.00
914.9290, 20695.00
916.0540, 20488.00
917.1800, 20469.00
918.3050, 20714.00
919.4300, 20523.00
920.5550, 20576.00
921.6790, 20625.00
922.8040, 20635.00
923.9280, 20698.00
925.0520, 20696.50
926.1760, 20624.00
927.3000, 20726.00
928.4230, 20715.00
929.5470, 20776.00
930.6700, 20790.00
931.7930, 20851.00
932.9160, 20874.44
934.0390, 20774.00
935.1620, 20908.00
936.2840, 20713.00
937.4070, 20670.00
938.5290, 20877.00
939.6510, 20830.00
940.7730, 20649.00
941.8940, 20835.00
943.0160, 20784.00
944.1370, 20768.00
945.2580, 20854.00
946.3800, 20772.00
947.5000, 20949.00
948.6210, 20788.00
949.7420, 20940.00
950.8620, 20914.00
951.9820, 20952.00
953.1020, 20975.00
954.2220, 20986.00
955.3420, 21101.00
956.4620, 20999.00
957.5810, 20858.00
958.7000, 21138.00
959.8190, 21070.00
960.9380, 20928.00
962.0570, 20952.00
963.1760, 21058.00
964.2940, 21193.00
965.4120, 21251.00
966.5300, 21177.00
967.6480, 21098.00
968.7660, 21072.00
969.8840, 21006.00
971.0010, 20984.00
972.1190, 21039.48
973.2360, 21015.12
974.3530, 21215.00
975.4690, 21082.00
976.5860, 21212.00
977.7030, 21318.00
978.8190, 21297.00
979.9350, 21387.50
981.0510, 21326.00
982.1670, 21397.00
983.2830, 21461.00
984.3980, 21345.00
985.5130, 21268.00
986.6290, 21238.00
987.7440, 21183.00
988.8590, 21213.00
989.9730, 21255.67
991.0880, 21378.00
992.2020, 21397.00
993.3160, 21445.00
994.4300, 21481.00
995.5440, 21464.00
996.6580, 21343.00
997.7720, 21491.00
998.8850, 21295.00
999.9980, 21382.00
1001.111, 21397.00
1002.224, 21612.00
1003.337, 21693.00
1004.450, 21658.00
1005.562, 21666.00
1006.674, 21654.62
1007.786, 21654.00
1008.898, 21566.00
1010.010, 21520.00
1011.122, 21418.00
1012.233, 21488.99
1013.344, 21609.00
1014.455, 21604.00
1015.566, 21848.00
1016.677, 21827.00
1017.788, 21775.00
1018.898, 21570.00
1020.009, 21738.00
1021.119, 21829.00
1022.229, 21710.00
1023.339, 21845.00
1024.448, 21912.00
1025.558, 21850.00
1026.667, 21659.00
1027.776, 21820.00
1028.885, 21896.00
1029.994, 21696.00
1031.103, 21793.00
1032.211, 21897.00
1033.320, 21665.00
1034.428, 21880.00
1035.536, 21756.00
1036.644, 21866.00
1037.751, 21907.00
1038.859, 22113.00
1039.966, 22101.04
1041.074, 22073.00
1042.181, 22084.00
1043.288, 22069.00
1044.394, 21938.00
1045.501, 22130.00
1046.607, 22235.00
1047.713, 22099.00
1048.820, 22107.00
1049.925, 21984.00
1051.031, 22033.00
1052.137, 22227.00
1053.242, 22082.00
1054.348, 22359.00
1055.453, 22149.00
1056.558, 22063.00
1057.662, 22048.00
1058.767, 22048.00
1059.871, 22225.00
1060.976, 22255.00
1062.080, 22164.00
1063.184, 22187.00
1064.288, 22169.00
1065.391, 22270.00
1066.495, 22102.00
1067.598, 22164.72
1068.701, 22326.00
1069.804, 22250.00
1070.907, 22203.00
1072.010, 22433.00
1073.112, 22387.00
1074.214, 22325.00
1075.317, 22281.00
1076.419, 22280.62
1077.521, 22371.00
1078.622, 22369.00
1079.724, 22355.00
1080.825, 22549.00
1081.926, 22444.00
1083.027, 22648.00
1084.128, 22587.00
1085.229, 22597.00
1086.329, 22527.00
1087.430, 22474.00
1088.530, 22601.00
1089.630, 22555.00
1090.730, 22457.00
1091.830, 22584.00
1092.929, 22758.00
1094.029, 22532.00
1095.128, 22537.00
1096.227, 22425.00
1097.326, 22690.00
1098.425, 22510.00
1099.523, 22759.00
1100.622, 22702.00
1101.720, 22684.00
1102.818, 22603.00
1103.916, 22803.00
1105.014, 22870.00
1106.111, 22651.00
1107.209, 22802.00
1108.306, 22624.00
1109.403, 22778.00
1110.500, 22698.00
1111.597, 22600.00
1112.694, 22410.00
1113.790, 22497.00
1114.887, 22858.00
1115.983, 22899.00
1117.079, 22884.00
1118.174, 22761.00
1119.270, 22892.00
1120.366, 22775.00
1121.461, 22803.00
1122.556, 22848.00
1123.651, 22961.00
1124.746, 23033.00
1125.841, 22907.00
1126.935, 23142.00
1128.030, 23087.00
1129.124, 23237.00
1130.218, 22999.00
1131.312, 23054.00
1132.405, 23041.00
1133.499, 23195.00
1134.592, 23046.00
1135.686, 23165.00
1136.779, 23039.00
1137.871, 23056.00
1138.964, 23240.00
1140.057, 23166.00
1141.149, 23003.00
1142.241, 23312.00
1143.334, 23273.00
1144.425, 23470.00
1145.517, 23291.00
1146.609, 23365.00
1147.700, 23471.00
1148.791, 23281.00
1149.883, 23331.00
1150.974, 23262.00
1152.064, 23218.00
1153.155, 23415.00
1154.245, 23311.00
1155.336, 23400.00
1156.426, 23255.00
1157.516, 23397.00
1158.606, 23300.00
1159.695, 23344.00
1160.785, 23339.64
1161.874, 23206.00
1162.963, 23320.00
1164.052, 23486.00
1165.141, 23536.00
1166.230, 23473.00
1167.318, 23614.00
1168.406, 23487.00
1169.495, 23566.00
1170.583, 23507.00
1171.670, 23626.00
1172.758, 23527.00
1173.846, 23757.00
1174.933, 23550.00
1176.020, 23493.00
1177.107, 23607.00
1178.194, 23676.00
1179.281, 23719.00
1180.367, 23549.00
1181.454, 23773.00
1182.540, 23633.00
1183.626, 23756.00
1184.712, 23843.00
1185.798, 23776.00
1186.883, 23826.00
1187.969, 23663.00
1189.054, 23757.00
1190.139, 23578.00
1191.224, 23710.00
1192.309, 23867.00
1193.393, 23828.00
1194.478, 23787.00
1195.562, 24032.00
1196.646, 23670.00
1197.730, 23751.00
1198.814, 23844.00
1199.897, 23872.00
1200.981, 23923.00
1202.064, 23757.00
1203.147, 24036.00
1204.230, 23641.00
1205.313, 23913.00
1206.396, 24116.00
1207.478, 24015.00
1208.560, 24305.00
1209.642, 24179.00
1210.724, 24066.00
1211.806, 24202.00
1212.888, 24320.00
1213.969, 24050.00
1215.051, 24271.00
1216.132, 23989.00
1217.213, 24298.00
1218.294, 24167.00
1219.374, 24114.00
1220.455, 23970.00
1221.535, 24133.00
1222.616, 24076.64
1223.696, 24081.00
1224.775, 24119.00
1225.855, 24151.38
1226.935, 24362.00
1228.014, 24305.00
1229.093, 24304.00
1230.172, 24410.00
1231.251, 24228.00
1232.330, 24335.00
1233.408, 24311.00
1234.487, 24270.00
1235.565, 24454.00
1236.643, 24566.00
1237.721, 24640.00
1238.799, 24658.62
1239.876, 24563.00
1240.954, 24504.00
1242.031, 24562.00
1243.108, 24469.50
1244.185, 24461.00
1245.262, 24398.00
1246.338, 24360.00
1247.415, 24348.00
1248.491, 24303.70
1249.567, 24330.21
1250.643, 24259.00
1251.719, 24396.00
1252.795, 24408.00
1253.870, 24460.00
1254.945, 24671.00
1256.021, 24744.00
1257.096, 24668.00
1258.170, 24663.00
1259.245, 24470.00
1260.320, 24653.00
1261.394, 24520.00
1262.468, 24548.00
1263.542, 24651.00
1264.616, 24719.00
1265.690, 24700.00
1266.763, 24773.00
1267.836, 24812.00
1268.910, 24920.00
1269.983, 24742.00
1271.055, 24676.00
1272.128, 24763.00
1273.201, 24770.00
1274.273, 24742.00
1275.345, 24772.00
1276.417, 24736.54
1277.489, 24816.00
1278.561, 24700.00
1279.632, 24764.00
1280.704, 24789.00
1281.775, 25082.00
1282.846, 24922.00
1283.917, 25040.00
1284.988, 24994.00
1286.058, 24978.00
1287.129, 25010.00
1288.199, 25018.00
1289.269, 24993.00
1290.339, 25050.00
1291.409, 25115.00
1292.478, 25119.00
1293.548, 24986.00
1294.617, 24828.00
1295.686, 24895.00
1296.755, 24931.37
1297.824, 25180.00
1298.893, 25168.00
1299.961, 25304.00
1301.029, 25347.00
1302.097, 25502.00
1303.165, 25338.00
1304.233, 25340.00
1305.301, 25266.00
1306.368, 25279.00
1307.436, 25263.00
1308.503, 25430.00
1309.570, 25343.00
1310.637, 25429.69
1311.703, 25476.00
1312.770, 25516.00
1313.836, 25423.00
