##NAMES=Baddeleyite
##RRUFFID=R060078
##IDEAL CHEMISTRY=Zr^4+^O_2_
##LOCALITY=Wetloo mine, Mogok, Burma
##OWNER=RRUFF
##SOURCE=Marcus Origlieri
##DESCRIPTION=Dark brown fragment
##STATUS=The identification of this mineral has been confirmed by X-ray diffraction and chemical analysis
##URL=rruff.info/R060078
##MEASURED CHEMISTRY=(Zr_0.99_Hf_0.01_)_Î£=1_O_2_
##PIN_ID=L00612
##ORIENTATION=Laser parallel to (1 0 1). Fiducial mark perpendicular to laser is parallel to b [0 1 0]
51.43100, 543.0000
52.67100, 544.0000
53.91000, 548.0000
55.14900, 545.0000
56.38700, 545.0000
57.62600, 584.0000
58.86400, 600.0000
60.10300, 605.0000
61.34100, 621.0000
62.57900, 642.0000
63.81700, 682.0000
65.05400, 740.0000
66.29200, 796.0000
67.52900, 912.0000
68.76700, 1049.000
70.00400, 1318.000
71.24100, 1376.544
72.47700, 1609.000
73.71400, 1565.000
74.95100, 1718.000
76.18700, 1772.495
77.42300, 1997.000
78.65900, 2088.000
79.89500, 2330.000
81.13100, 2589.000
82.36700, 2959.000
83.60200, 3393.000
84.83700, 3376.000
86.07200, 3368.000
87.30800, 3558.000
88.54200, 3955.000
89.77700, 4409.000
91.01200, 5117.000
92.24600, 5856.000
93.48000, 6453.000
94.71400, 7298.000
95.94800, 8152.000
97.18200, 8865.000
98.41600, 9672.000
99.64900, 10940.00
100.8830, 12303.00
102.1160, 14165.00
103.3490, 16566.00
104.5820, 19597.00
105.8150, 22217.00
107.0470, 22168.00
108.2800, 20055.00
109.5120, 16786.00
110.7440, 13006.00
111.9760, 10141.00
113.2080, 8712.000
114.4400, 8408.000
115.6710, 8390.000
116.9030, 8724.000
118.1340, 7948.000
119.3650, 7684.000
120.5960, 7549.000
121.8270, 7613.000
123.0580, 7737.000
124.2880, 7756.000
125.5190, 7491.000
126.7490, 7170.000
127.9790, 7232.000
129.2090, 7277.000
130.4390, 7329.000
131.6680, 7194.000
132.8980, 7032.000
134.1270, 7092.000
135.3560, 7098.000
136.5850, 7181.969
137.8140, 7216.000
139.0430, 7380.000
140.2710, 7342.000
141.5000, 7246.000
142.7280, 7063.000
143.9560, 7171.000
145.1840, 7075.000
146.4120, 7253.000
147.6390, 7125.000
148.8670, 7141.000
150.0940, 7253.000
151.3210, 7523.000
152.5490, 7537.000
153.7750, 7546.000
155.0020, 7601.000
156.2290, 7561.000
157.4550, 7596.000
158.6810, 7679.000
159.9080, 7935.000
161.1340, 8163.000
162.3590, 8421.403
163.5850, 8757.000
164.8110, 9025.000
166.0360, 9429.000
167.2610, 9721.000
168.4860, 10128.00
169.7110, 10802.00
170.9360, 11197.00
172.1610, 11597.00
173.3850, 12041.00
174.6100, 12499.00
175.8340, 13531.00
177.0580, 14628.00
178.2820, 15826.00
179.5050, 17453.00
180.7290, 18093.00
181.9520, 17783.00
183.1760, 16432.00
184.3990, 14788.00
185.6220, 13463.00
186.8450, 13121.00
188.0670, 13442.00
189.2900, 14094.00
190.5120, 15202.00
191.7340, 16593.00
192.9560, 17868.00
194.1780, 18177.00
195.4000, 17073.00
196.6220, 15168.00
197.8430, 13325.00
199.0640, 12427.00
200.2860, 12095.00
201.5070, 12001.00
202.7270, 12046.00
203.9480, 11993.00
205.1690, 11459.00
206.3890, 11111.00
207.6090, 11093.00
208.8290, 11020.00
210.0490, 10865.00
211.2690, 11085.00
212.4890, 11205.00
213.7080, 11268.00
214.9280, 11571.00
216.1470, 11651.00
217.3660, 11963.00
218.5850, 12328.00
219.8030, 12795.00
221.0220, 13494.00
222.2400, 14441.00
223.4590, 15229.00
224.6770, 15517.00
225.8950, 15260.00
227.1120, 13968.00
228.3300, 12825.00
229.5480, 11663.00
230.7650, 11071.00
231.9820, 10576.00
233.1990, 10445.00
234.4160, 10326.00
235.6330, 10034.00
236.8490, 10030.00
238.0660, 9934.000
239.2820, 9959.000
240.4980, 9994.000
241.7140, 10076.00
242.9300, 10127.12
244.1460, 10119.00
245.3610, 10307.00
246.5770, 10397.00
247.7920, 10557.00
249.0070, 10591.00
250.2220, 10512.00
251.4370, 10640.00
252.6510, 10647.00
253.8660, 10551.00
255.0800, 10819.00
256.2940, 10861.00
257.5080, 11019.00
258.7220, 11187.00
259.9360, 11177.73
261.1490, 11198.06
262.3630, 11174.00
263.5760, 11043.00
264.7890, 10970.00
266.0020, 10819.00
267.2150, 10654.00
268.4270, 10543.00
269.6400, 10499.00
270.8520, 10587.00
272.0640, 10459.00
273.2760, 10578.00
274.4880, 10727.00
275.7000, 10641.00
276.9120, 10763.00
278.1230, 10881.00
279.3340, 11096.00
280.5450, 11102.00
281.7560, 11292.00
282.9670, 11568.00
284.1780, 11830.00
285.3880, 12199.00
286.5980, 12421.00
287.8090, 12739.00
289.0190, 12933.00
290.2290, 13001.00
291.4380, 13455.00
292.6480, 13469.00
293.8570, 13789.00
295.0670, 13989.00
296.2760, 14216.00
297.4850, 14432.00
298.6930, 14648.79
299.9020, 14867.00
301.1110, 15081.00
302.3190, 15354.00
303.5270, 15556.00
304.7350, 15911.00
305.9430, 16227.00
307.1510, 16699.00
308.3580, 16665.00
309.5660, 16859.00
310.7730, 16784.00
311.9800, 16317.00
313.1870, 15893.00
314.3940, 15591.00
315.6010, 15087.00
316.8070, 15262.00
318.0130, 15034.00
319.2200, 15418.00
320.4260, 15569.00
321.6310, 16032.00
322.8370, 16601.00
324.0430, 17602.00
325.2480, 18699.00
326.4540, 19880.00
327.6590, 21034.00
328.8640, 22750.00
330.0680, 24445.00
331.2730, 26426.00
332.4780, 28786.00
333.6820, 30964.00
334.8860, 32253.00
336.0900, 31742.00
337.2940, 29045.00
338.4980, 25513.00
339.7010, 21708.00
340.9050, 18518.00
342.1080, 16563.00
343.3110, 15201.00
344.5140, 14299.00
345.7170, 13883.00
346.9200, 13586.00
348.1220, 13646.00
349.3240, 13203.00
350.5270, 12802.00
351.7290, 11997.00
352.9310, 11391.00
354.1320, 10773.00
355.3340, 10411.00
356.5350, 9950.000
357.7370, 9678.000
358.9380, 9513.000
360.1390, 9509.000
361.3400, 9368.000
362.5400, 9473.000
363.7410, 9595.000
364.9410, 9735.000
366.1410, 9910.000
367.3410, 10361.00
368.5410, 10912.00
369.7410, 11432.00
370.9400, 12269.00
372.1400, 12973.00
373.3390, 14070.00
374.5380, 15366.00
375.7370, 16814.00
376.9360, 18608.00
378.1350, 20782.00
379.3330, 22478.00
380.5310, 23934.00
381.7300, 24288.00
382.9280, 23215.00
384.1260, 21406.00
385.3230, 19934.00
386.5210, 18091.00
387.7180, 16512.00
388.9160, 14868.00
390.1130, 13319.00
391.3100, 12288.00
392.5060, 11297.00
393.7030, 10450.00
394.9000, 9877.000
396.0960, 9552.000
397.2920, 8990.000
398.4880, 8772.000
399.6840, 8549.000
400.8800, 8435.000
402.0750, 8229.275
403.2710, 7988.000
404.4660, 7942.000
405.6610, 7845.000
406.8560, 7798.000
408.0510, 7675.000
409.2450, 7532.000
410.4400, 7615.000
411.6340, 7466.000
412.8280, 7432.000
414.0220, 7430.000
415.2160, 7401.104
416.4100, 7422.690
417.6030, 7460.000
418.7970, 7486.000
419.9900, 7548.000
421.1830, 7610.000
422.3760, 7603.000
423.5690, 7680.605
424.7610, 7719.000
425.9540, 7793.000
427.1460, 7897.660
428.3380, 7967.330
429.5300, 8100.000
430.7220, 8150.000
431.9140, 8275.000
433.1050, 8352.617
434.2970, 8399.070
435.4880, 8482.000
436.6790, 8510.000
437.8700, 8499.000
439.0610, 8599.000
440.2510, 8593.000
441.4420, 8742.000
442.6320, 8866.000
443.8220, 9055.000
445.0120, 8984.000
446.2020, 9243.000
447.3910, 9346.000
448.5810, 9420.000
449.7700, 9616.000
450.9600, 9837.000
452.1490, 10010.00
453.3370, 10424.00
454.5260, 10581.00
455.7150, 11013.00
456.9030, 11628.00
458.0910, 12102.00
459.2800, 12799.00
460.4670, 13535.00
461.6550, 14674.00
462.8430, 15953.00
464.0300, 17435.00
465.2180, 19413.00
466.4050, 21677.00
467.5920, 24622.00
468.7790, 27845.00
469.9650, 31811.00
471.1520, 35728.00
472.3380, 41080.00
473.5250, 46292.00
474.7110, 51310.00
475.8970, 55260.00
477.0820, 57087.00
478.2680, 54783.00
479.4540, 50392.00
480.6390, 43367.00
481.8240, 36666.00
483.0090, 30252.00
484.1940, 25429.00
485.3780, 21907.00
486.5630, 19700.00
487.7470, 17796.00
488.9320, 16010.00
490.1160, 15081.00
491.3000, 14246.00
492.4830, 13788.00
493.6670, 13471.00
494.8500, 13089.00
496.0340, 12984.00
497.2170, 12950.00
498.4000, 13006.00
499.5820, 12866.00
500.7650, 12855.00
501.9480, 12786.00
503.1300, 12820.00
504.3120, 12437.00
505.4940, 12288.00
506.6760, 11732.00
507.8580, 11349.00
509.0390, 10865.00
510.2210, 10672.00
511.4020, 10409.00
512.5830, 10233.00
513.7640, 10139.00
514.9450, 9912.000
516.1250, 9958.000
517.3060, 9919.000
518.4860, 9824.000
519.6660, 9938.000
520.8460, 9996.000
522.0260, 9851.000
523.2060, 10082.00
524.3850, 10198.00
525.5650, 10410.00
526.7440, 10604.00
527.9230, 11003.00
529.1020, 11197.00
530.2810, 11802.00
531.4590, 12323.00
532.6380, 12994.00
533.8160, 13742.38
534.9940, 14458.00
536.1720, 15400.00
537.3500, 16404.00
538.5270, 17353.00
539.7050, 17614.00
540.8820, 17658.00
542.0590, 16956.00
543.2360, 16495.00
544.4130, 15830.00
545.5900, 15534.00
546.7660, 15616.00
547.9430, 15801.00
549.1190, 16409.00
550.2950, 17327.00
551.4710, 18576.00
552.6470, 19849.00
553.8220, 21488.00
554.9980, 23272.00
556.1730, 25290.00
557.3480, 26627.00
558.5230, 27682.00
559.6980, 28019.00
560.8730, 27245.00
562.0470, 25527.00
563.2220, 23278.00
564.3960, 21026.00
565.5700, 18966.00
566.7440, 17483.45
567.9170, 15966.66
569.0910, 15048.00
570.2640, 13871.00
571.4380, 13082.00
572.6110, 12591.00
573.7840, 12118.00
574.9570, 11802.00
576.1290, 11375.00
577.3020, 10972.00
578.4740, 10856.00
579.6460, 10663.00
580.8180, 10481.00
581.9900, 10308.00
583.1620, 10212.00
584.3330, 10245.00
585.5040, 10148.00
586.6760, 10036.00
587.8470, 10142.00
589.0180, 9986.000
590.1880, 10021.00
591.3590, 10032.00
592.5290, 10123.00
593.7000, 10198.00
594.8700, 10390.00
596.0400, 10576.00
597.2090, 10745.00
598.3790, 11037.75
599.5490, 11362.00
600.7180, 11703.00
601.8870, 12131.00
603.0560, 12623.00
604.2250, 13213.00
605.3940, 13952.00
606.5620, 14365.00
607.7300, 14916.00
608.8990, 15703.00
610.0670, 16204.00
611.2350, 16672.00
612.4020, 16958.00
613.5700, 17239.00
614.7370, 17209.00
615.9050, 17101.00
617.0720, 16878.00
618.2390, 16233.00
619.4060, 15630.00
620.5720, 15021.00
621.7390, 14634.00
622.9050, 14004.00
624.0710, 13482.00
625.2370, 13423.00
626.4030, 13221.00
627.5690, 13061.00
628.7340, 13228.00
629.9000, 13514.00
631.0650, 13909.00
632.2300, 14295.00
633.3950, 14705.00
634.5600, 15166.00
635.7240, 15523.00
636.8890, 15618.00
638.0530, 15739.00
639.2170, 15467.00
640.3810, 15084.00
641.5450, 14304.00
642.7080, 13782.00
643.8720, 12755.00
645.0350, 12312.00
646.1980, 11513.00
647.3610, 11147.00
648.5240, 10803.00
649.6870, 10461.00
650.8490, 10253.00
652.0120, 10003.00
653.1740, 9778.000
654.3360, 9730.000
655.4980, 9592.000
656.6600, 9532.000
657.8210, 9456.258
658.9830, 9414.000
660.1440, 9318.000
661.3050, 9127.000
662.4660, 9047.000
663.6270, 9059.000
664.7870, 9169.000
665.9480, 9014.000
667.1080, 9012.000
668.2680, 9014.000
669.4280, 9019.000
670.5880, 8960.000
671.7480, 9061.000
672.9070, 9100.000
674.0670, 9104.000
675.2260, 9071.000
676.3850, 9162.000
677.5440, 9089.000
678.7030, 9110.000
679.8610, 9169.000
681.0200, 9264.000
682.1780, 9274.000
683.3360, 9395.000
684.4940, 9565.000
685.6520, 9525.000
686.8090, 9687.000
687.9670, 9647.000
689.1240, 9829.000
690.2810, 10049.00
691.4380, 9994.000
692.5950, 10131.00
693.7520, 10320.00
694.9080, 10368.00
696.0650, 10621.00
697.2210, 10785.00
698.3770, 10892.00
699.5330, 11249.00
700.6880, 11318.00
701.8440, 11564.00
702.9990, 11724.00
704.1550, 11699.00
705.3100, 11884.00
706.4650, 11991.00
707.6190, 12037.00
708.7740, 12039.69
709.9290, 12037.00
711.0830, 11834.00
712.2370, 11719.00
713.3910, 11424.00
714.5450, 11204.00
715.6980, 11035.00
716.8520, 10780.29
718.0050, 10423.00
719.1580, 10359.00
720.3110, 10026.00
721.4640, 9825.000
722.6170, 9701.000
723.7700, 9337.000
724.9220, 9288.000
726.0740, 9065.000
727.2260, 8980.000
728.3780, 8913.000
729.5300, 8766.000
730.6810, 8727.000
731.8330, 8735.000
732.9840, 8711.000
734.1350, 8569.000
735.2860, 8527.000
736.4370, 8482.000
737.5880, 8447.000
738.7380, 8410.243
739.8880, 8500.000
741.0390, 8344.000
742.1890, 8330.000
743.3380, 8298.000
744.4880, 8432.000
745.6380, 8307.000
746.7870, 8448.000
747.9360, 8407.000
749.0850, 8335.000
750.2340, 8357.000
751.3830, 8421.000
752.5310, 8317.000
753.6800, 8438.000
754.8280, 8426.000
755.9760, 8432.000
757.1240, 8350.000
758.2720, 8342.942
759.4190, 8329.000
760.5670, 8269.000
761.7140, 8213.000
762.8610, 8167.000
764.0080, 8191.000
765.1550, 8104.000
766.3020, 7999.000
767.4480, 8064.000
768.5950, 7917.000
769.7410, 7812.000
770.8870, 7812.000
772.0330, 7738.000
773.1780, 7755.000
774.3240, 7860.000
775.4690, 7706.000
776.6140, 7638.000
777.7590, 7732.000
778.9040, 7555.000
780.0490, 7506.000
781.1940, 7551.000
782.3380, 7526.000
783.4820, 7417.000
784.6260, 7414.000
785.7700, 7389.000
786.9140, 7310.000
788.0580, 7309.000
789.2010, 7253.000
790.3450, 7201.000
791.4880, 7193.000
792.6310, 7238.000
793.7730, 7156.000
794.9160, 7097.000
796.0590, 7155.000
797.2010, 7016.000
798.3430, 7054.000
799.4850, 6971.000
800.6270, 7013.000
801.7690, 7094.000
802.9100, 7564.000
804.0520, 7628.000
805.1930, 7220.000
806.3340, 6933.000
807.4750, 6795.000
808.6160, 6848.000
809.7560, 6873.000
810.8970, 6730.000
812.0370, 6771.000
813.1770, 6792.000
814.3170, 6604.000
815.4570, 6669.000
816.5960, 6736.000
817.7360, 6727.000
818.8750, 6787.000
820.0140, 6673.000
821.1530, 6614.000
822.2920, 6682.000
823.4310, 6674.000
824.5690, 6665.000
825.7070, 6573.000
826.8460, 6661.000
827.9840, 6586.000
829.1220, 6587.000
830.2590, 6599.000
831.3970, 6494.000
832.5340, 6557.000
833.6710, 6577.000
834.8080, 6596.000
835.9450, 6581.546
837.0820, 6600.000
838.2190, 6515.000
839.3550, 6508.000
840.4910, 6478.000
841.6270, 6506.000
842.7630, 6417.000
843.8990, 6466.000
845.0350, 6520.000
846.1700, 6474.000
847.3060, 6557.000
848.4410, 6494.000
849.5760, 6442.000
850.7100, 6491.000
851.8450, 6552.000
852.9800, 6539.000
854.1140, 6501.000
855.2480, 6498.000
856.3820, 6434.000
857.5160, 6483.000
858.6500, 6480.000
859.7830, 6529.000
860.9170, 6431.000
862.0500, 6602.000
863.1830, 6548.000
864.3160, 6500.000
865.4480, 6573.000
866.5810, 6602.000
867.7130, 6577.000
868.8460, 6609.000
869.9780, 6598.000
871.1100, 6572.000
872.2410, 6556.000
873.3730, 6516.000
874.5050, 6458.000
875.6360, 6625.000
876.7670, 6543.000
877.8980, 6488.000
879.0290, 6498.000
880.1590, 6409.000
881.2900, 6465.000
882.4200, 6522.000
883.5500, 6587.000
884.6800, 6497.000
885.8100, 6436.000
886.9400, 6509.000
888.0690, 6555.000
889.1990, 6380.000
890.3280, 6459.000
891.4570, 6567.000
892.5860, 6422.000
893.7140, 6465.000
894.8430, 6510.000
895.9710, 6438.000
897.1000, 6387.000
898.2280, 6504.000
899.3560, 6417.000
900.4830, 6430.000
901.6110, 6403.000
902.7380, 6390.143
903.8660, 6432.000
904.9930, 6389.000
906.1200, 6407.000
907.2460, 6395.000
908.3730, 6410.504
909.5000, 6402.000
910.6260, 6446.000
911.7520, 6433.000
912.8780, 6419.000
914.0040, 6480.000
915.1290, 6440.000
916.2550, 6495.000
917.3800, 6520.000
918.5050, 6445.000
919.6300, 6402.000
920.7550, 6489.000
921.8800, 6366.000
923.0040, 6394.000
924.1290, 6387.000
925.2530, 6398.000
926.3770, 6459.000
927.5010, 6435.000
928.6250, 6352.000
929.7480, 6411.000
930.8720, 6449.000
931.9950, 6328.000
933.1180, 6426.000
934.2410, 6382.000
935.3640, 6378.000
936.4860, 6461.000
937.6090, 6405.000
938.7310, 6317.000
939.8530, 6364.000
940.9750, 6334.000
942.0970, 6399.000
943.2180, 6337.000
944.3400, 6337.000
945.4610, 6328.964
946.5820, 6237.000
947.7030, 6296.000
948.8240, 6345.000
949.9450, 6352.000
951.0650, 6294.000
952.1860, 6311.000
953.3060, 6309.894
954.4260, 6310.000
955.5460, 6329.000
956.6650, 6326.000
957.7850, 6323.000
958.9040, 6240.000
960.0230, 6185.000
961.1420, 6238.000
962.2610, 6246.000
963.3800, 6306.000
964.4990, 6190.000
965.6170, 6270.000
966.7350, 6251.000
967.8530, 6082.000
968.9710, 6215.000
970.0890, 6188.000
971.2070, 6207.000
972.3240, 6173.000
973.4410, 6184.000
974.5580, 6230.000
975.6750, 6261.000
976.7920, 6212.000
977.9090, 6214.000
979.0250, 6204.762
980.1410, 6195.000
981.2580, 6186.000
982.3740, 6188.000
983.4890, 6191.000
984.6050, 6211.181
985.7200, 6216.598
986.8360, 6264.000
987.9510, 6244.000
989.0660, 6266.000
990.1810, 6286.000
991.2950, 6249.917
992.4100, 6212.000
993.5240, 6201.000
994.6390, 6230.000
995.7530, 6235.000
996.8660, 6254.000
997.9800, 6152.000
999.0940, 6244.000
1000.207, 6227.000
1001.320, 6296.000
1002.433, 6175.000
1003.546, 6195.000
1004.659, 6248.000
1005.772, 6496.000
1006.884, 6723.000
1007.996, 6347.000
1009.108, 6190.000
1010.220, 6491.000
1011.332, 6928.000
1012.444, 6864.000
1013.555, 7307.000
1014.666, 7091.000
1015.777, 6219.000
1016.888, 6223.000
1017.999, 6189.000
1019.110, 6228.000
1020.220, 6111.000
1021.331, 6154.000
1022.441, 6151.000
1023.551, 6232.000
1024.661, 6191.000
1025.770, 6104.000
1026.880, 6084.000
1027.989, 6095.000
1029.098, 6083.000
1030.207, 6161.000
1031.316, 6097.650
1032.425, 6131.002
1033.533, 6032.000
1034.642, 6119.000
1035.750, 6146.000
1036.858, 6093.000
1037.966, 6057.000
1039.073, 6072.000
1040.181, 6129.000
1041.288, 6084.000
1042.396, 6015.000
1043.503, 6087.000
1044.610, 6030.000
1045.716, 6012.000
1046.823, 6033.000
1047.929, 5994.000
1049.036, 5979.000
1050.142, 6005.000
1051.248, 5967.996
1052.353, 6045.000
1053.459, 5953.000
1054.564, 6001.000
1055.670, 6038.000
1056.775, 6012.000
1057.880, 6080.000
1058.985, 5914.000
1060.089, 5926.000
1061.194, 5917.000
1062.298, 6033.000
1063.402, 5977.000
1064.506, 5916.000
1065.610, 5812.000
1066.713, 6016.000
1067.817, 5951.000
1068.920, 5942.000
1070.023, 5899.000
1071.126, 5950.000
1072.229, 5988.000
1073.332, 5907.000
1074.435, 5851.000
1075.537, 5927.000
1076.639, 5971.000
1077.741, 5922.000
1078.843, 5945.000
1079.945, 5902.000
1081.046, 5930.000
1082.148, 5947.000
1083.249, 6042.000
1084.350, 5827.000
1085.451, 5837.000
1086.551, 5895.000
1087.652, 5892.000
1088.752, 5887.000
1089.853, 5854.000
1090.953, 5830.000
1092.053, 5899.000
1093.152, 5934.000
1094.252, 5911.000
1095.351, 5992.000
1096.451, 5889.000
1097.550, 5941.000
1098.649, 5842.000
1099.748, 5860.000
1100.846, 5851.000
1101.945, 5858.000
1103.043, 5864.740
1104.141, 5945.000
1105.239, 5867.000
1106.337, 5769.000
1107.434, 5742.000
1108.532, 5792.000
1109.629, 5813.000
1110.726, 5812.000
1111.823, 5860.000
1112.920, 5785.000
1114.017, 5815.000
1115.113, 5779.000
1116.210, 5874.000
1117.306, 5762.000
1118.402, 5736.000
1119.498, 5902.000
1120.593, 5792.000
1121.689, 5829.000
1122.784, 5780.000
1123.879, 5802.000
1124.974, 5809.832
1126.069, 5763.000
1127.164, 5814.000
1128.259, 5816.000
1129.353, 5772.000
1130.447, 5759.000
1131.541, 5763.000
1132.635, 5831.000
1133.729, 5825.000
1134.822, 5780.000
1135.916, 5790.000
1137.009, 5707.000
1138.102, 5819.000
1139.195, 5815.000
1140.288, 5754.000
1141.380, 5817.000
1142.473, 5868.000
1143.565, 5853.000
1144.657, 5874.768
1145.749, 5824.000
1146.841, 5851.000
1147.932, 5834.000
1149.024, 5815.000
1150.115, 5838.000
1151.206, 5783.000
1152.297, 5806.000
1153.388, 5860.000
1154.479, 5825.000
1155.569, 5860.000
1156.659, 5751.000
1157.750, 5803.000
1158.839, 5800.000
1159.929, 5871.000
1161.019, 5859.000
1162.108, 5776.000
1163.198, 5806.000
1164.287, 5761.000
1165.376, 5808.000
1166.465, 5811.000
1167.553, 5802.000
1168.642, 5778.000
1169.730, 5795.000
1170.818, 5788.000
1171.906, 5750.000
1172.994, 5811.000
1174.082, 5676.000
1175.170, 5838.000
1176.257, 5753.529
1177.344, 5750.000
1178.431, 5694.000
1179.518, 5705.000
1180.605, 5695.000
1181.691, 5737.000
1182.778, 5717.802
1183.864, 5746.000
1184.950, 5697.000
1186.036, 5774.000
1187.122, 5761.000
1188.207, 5686.000
1189.292, 5687.000
1190.378, 5745.000
1191.463, 5717.000
1192.548, 5756.000
1193.632, 5761.000
1194.717, 5741.000
1195.801, 5710.000
1196.886, 5745.000
1197.970, 5863.000
1199.054, 5793.000
1200.137, 5875.000
1201.221, 5783.000
1202.305, 5785.000
1203.388, 5762.000
1204.471, 5754.000
1205.554, 5742.984
1206.637, 5748.000
1207.719, 5755.000
1208.802, 5727.000
1209.884, 5720.480
1210.966, 5718.726
1212.048, 5676.000
1213.130, 5722.000
1214.212, 5698.000
1215.293, 5714.000
1216.374, 5821.000
1217.456, 5831.000
1218.536, 5824.000
1219.617, 5937.000
1220.698, 5840.000
1221.778, 5871.000
1222.859, 5871.000
1223.939, 6000.000
1225.019, 5964.000
1226.099, 5935.000
1227.178, 5859.000
1228.258, 5820.000
1229.337, 5790.000
1230.417, 5798.000
1231.496, 5772.000
1232.574, 5712.000
1233.653, 5754.000
1234.732, 5724.000
1235.810, 5717.000
1236.888, 5771.000
1237.966, 5749.000
1239.044, 5758.000
1240.122, 5748.000
1241.199, 5664.000
