##NAMES=Baryte
##RRUFFID=R050342
##IDEAL CHEMISTRY=BaS^6+^O_4_
##LOCALITY=Palos Verdes, Los Angeles County, California, USA
##OWNER=RRUFF
##SOURCE=California Institute of Technology
##DESCRIPTION=Light brown fragment
##STATUS=The identification of this mineral has been confirmed by X-ray diffraction and chemical analysis
##URL=rruff.info/R050342
##MEASURED CHEMISTRY=Ba_1.00_S_1.00_O_4_
##PIN_ID=L00807
##ORIENTATION=Laser parallel to b* (0 1 0). Fiducial mark perpendicular to laser is parallel to c [0 0 1]
93.48000, 7547.000
94.71400, 7547.000
95.94800, 7704.000
97.18200, 7748.000
98.41600, 7980.000
99.64900, 8110.000
100.8830, 8032.000
102.1160, 8184.000
103.3490, 8007.000
104.5820, 8088.000
105.8150, 8251.000
107.0470, 8190.000
108.2800, 8344.000
109.5120, 8309.000
110.7440, 8447.000
111.9760, 8355.000
113.2080, 8547.000
114.4400, 8465.000
115.6710, 8628.000
116.9030, 8532.000
118.1340, 8615.000
119.3650, 8765.000
120.5960, 8824.000
121.8270, 8831.000
123.0580, 8825.000
124.2880, 8904.000
125.5190, 8857.000
126.7490, 8940.000
127.9790, 8983.000
129.2090, 8957.000
130.4390, 9022.212
131.6680, 9044.881
132.8980, 9060.000
134.1270, 9173.000
135.3560, 9155.000
136.5850, 9319.000
137.8140, 9288.000
139.0430, 9270.000
140.2710, 9321.000
141.5000, 9415.000
142.7280, 9401.000
143.9560, 9331.000
145.1840, 9404.000
146.4120, 9534.000
147.6390, 9523.000
148.8670, 9697.000
150.0940, 9653.000
151.3210, 9725.000
152.5490, 9731.000
153.7750, 9664.000
155.0020, 9802.000
156.2290, 9844.000
157.4550, 9787.000
158.6810, 9758.000
159.9080, 9882.000
161.1340, 9729.000
162.3590, 9841.000
163.5850, 9815.000
164.8110, 9796.000
166.0360, 9774.000
167.2610, 9792.000
168.4860, 9818.000
169.7110, 9912.000
170.9360, 9980.000
172.1610, 10060.00
173.3850, 9984.000
174.6100, 9899.000
175.8340, 10077.00
177.0580, 10036.00
178.2820, 10101.00
179.5050, 10219.00
180.7290, 10183.00
181.9520, 10368.00
183.1760, 10278.00
184.3990, 10334.00
185.6220, 10510.00
186.8450, 10613.00
188.0670, 10549.00
189.2900, 10651.00
190.5120, 10578.00
191.7340, 10570.00
192.9560, 10621.00
194.1780, 10588.00
195.4000, 10551.00
196.6220, 10563.00
197.8430, 10490.97
199.0640, 10485.00
200.2860, 10416.00
201.5070, 10457.00
202.7270, 10523.00
203.9480, 10411.00
205.1690, 10308.00
206.3890, 10460.00
207.6090, 10433.00
208.8290, 10380.00
210.0490, 10525.00
211.2690, 10488.00
212.4890, 10411.00
213.7080, 10473.00
214.9280, 10592.00
216.1470, 10576.00
217.3660, 10505.00
218.5850, 10580.00
219.8030, 10526.00
221.0220, 10531.00
222.2400, 10667.00
223.4590, 10637.00
224.6770, 10536.00
225.8950, 10597.00
227.1120, 10627.00
228.3300, 10702.00
229.5480, 10780.00
230.7650, 10803.00
231.9820, 10715.00
233.1990, 10714.00
234.4160, 10744.88
235.6330, 10701.00
236.8490, 10799.00
238.0660, 10854.00
239.2820, 10822.00
240.4980, 10935.00
241.7140, 10781.00
242.9300, 10850.00
244.1460, 10860.00
245.3610, 10897.00
246.5770, 10924.00
247.7920, 10973.00
249.0070, 10943.00
250.2220, 11025.00
251.4370, 11011.00
252.6510, 10966.00
253.8660, 10968.00
255.0800, 11087.00
256.2940, 11117.00
257.5080, 11123.00
258.7220, 11051.00
259.9360, 11190.00
261.1490, 11210.00
262.3630, 11135.00
263.5760, 11172.00
264.7890, 11176.00
266.0020, 11308.00
267.2150, 11248.00
268.4270, 11287.00
269.6400, 11245.00
270.8520, 11284.03
272.0640, 11322.00
273.2760, 11351.00
274.4880, 11384.00
275.7000, 11380.00
276.9120, 11403.00
278.1230, 11216.00
279.3340, 11427.00
280.5450, 11360.00
281.7560, 11491.00
282.9670, 11530.00
284.1780, 11402.00
285.3880, 11437.00
286.5980, 11530.00
287.8090, 11546.00
289.0190, 11577.00
290.2290, 11562.00
291.4380, 11612.00
292.6480, 11627.00
293.8570, 11589.00
295.0670, 11657.00
296.2760, 11694.00
297.4850, 11659.00
298.6930, 11655.00
299.9020, 11734.00
301.1110, 11688.00
302.3190, 11650.00
303.5270, 11704.00
304.7350, 11598.00
305.9430, 11686.00
307.1510, 11656.00
308.3580, 11811.00
309.5660, 11901.00
310.7730, 11756.00
311.9800, 11789.00
313.1870, 11808.00
314.3940, 11907.00
315.6010, 11946.00
316.8070, 11905.00
318.0130, 11985.00
319.2200, 11800.00
320.4260, 11899.00
321.6310, 11971.00
322.8370, 11833.00
324.0430, 11989.00
325.2480, 12111.00
326.4540, 12138.00
327.6590, 11948.00
328.8640, 12164.00
330.0680, 12000.00
331.2730, 12177.00
332.4780, 12210.00
333.6820, 12114.00
334.8860, 12171.00
336.0900, 12248.00
337.2940, 12063.00
338.4980, 12271.00
339.7010, 12136.00
340.9050, 12354.00
342.1080, 12171.00
343.3110, 12359.00
344.5140, 12241.00
345.7170, 12338.00
346.9200, 12393.00
348.1220, 12263.00
349.3240, 12290.00
350.5270, 12509.00
351.7290, 12494.00
352.9310, 12413.00
354.1320, 12398.00
355.3340, 12413.00
356.5350, 12382.00
357.7370, 12389.00
358.9380, 12562.00
360.1390, 12397.00
361.3400, 12569.00
362.5400, 12489.00
363.7410, 12412.00
364.9410, 12640.00
366.1410, 12608.00
367.3410, 12466.00
368.5410, 12622.00
369.7410, 12703.00
370.9400, 12685.00
372.1400, 12687.00
373.3390, 12755.00
374.5380, 12693.00
375.7370, 12729.00
376.9360, 12829.00
378.1350, 12775.00
379.3330, 12772.00
380.5310, 12852.00
381.7300, 12901.00
382.9280, 12898.00
384.1260, 12785.00
385.3230, 12891.00
386.5210, 12838.00
387.7180, 12981.00
388.9160, 12958.00
390.1130, 12903.00
391.3100, 12950.00
392.5060, 12990.00
393.7030, 12965.00
394.9000, 13015.00
396.0960, 13044.00
397.2920, 12954.00
398.4880, 12901.00
399.6840, 13124.00
400.8800, 13228.00
402.0750, 13120.00
403.2710, 13143.00
404.4660, 13076.00
405.6610, 13303.00
406.8560, 13094.00
408.0510, 13191.00
409.2450, 13324.00
410.4400, 13158.00
411.6340, 13323.00
412.8280, 13118.00
414.0220, 13186.00
415.2160, 13305.00
416.4100, 13356.00
417.6030, 13378.00
418.7970, 13315.00
419.9900, 13383.00
421.1830, 13472.00
422.3760, 13424.00
423.5690, 13578.00
424.7610, 13434.00
425.9540, 13494.00
427.1460, 13645.00
428.3380, 13617.00
429.5300, 13712.00
430.7220, 13827.00
431.9140, 13843.00
433.1050, 13844.00
434.2970, 13954.00
435.4880, 13883.00
436.6790, 14118.00
437.8700, 14200.00
439.0610, 14542.00
440.2510, 14611.00
441.4420, 15121.00
442.6320, 15529.00
443.8220, 15977.00
445.0120, 16596.00
446.2020, 16889.00
447.3910, 17575.00
448.5810, 18403.00
449.7700, 18917.00
450.9600, 19353.00
452.1490, 19543.52
453.3370, 19733.00
454.5260, 19340.00
455.7150, 18767.00
456.9030, 18111.00
458.0910, 17536.00
459.2800, 17201.00
460.4670, 16859.00
461.6550, 16624.00
462.8430, 16256.87
464.0300, 16151.00
465.2180, 15575.00
466.4050, 15120.00
467.5920, 14735.00
468.7790, 14625.00
469.9650, 14467.00
471.1520, 14470.00
472.3380, 14303.00
473.5250, 14265.00
474.7110, 14348.00
475.8970, 14245.00
477.0820, 14249.00
478.2680, 14339.00
479.4540, 14282.00
480.6390, 14331.00
481.8240, 14392.00
483.0090, 14339.00
484.1940, 14269.00
485.3780, 14394.00
486.5630, 14382.00
487.7470, 14334.00
488.9320, 14412.00
490.1160, 14371.00
491.3000, 14354.00
492.4830, 14136.00
493.6670, 14407.00
494.8500, 14312.00
496.0340, 14449.00
497.2170, 14525.00
498.4000, 14601.00
499.5820, 14425.00
500.7650, 14388.00
501.9480, 14481.00
503.1300, 14690.00
504.3120, 14620.00
505.4940, 14632.00
506.6760, 14691.00
507.8580, 14586.00
509.0390, 14624.00
510.2210, 14732.00
511.4020, 14784.00
512.5830, 14687.00
513.7640, 14694.00
514.9450, 14742.00
516.1250, 14702.81
517.3060, 14734.00
518.4860, 14701.00
519.6660, 14805.00
520.8460, 14788.00
522.0260, 14795.00
523.2060, 14836.62
524.3850, 14894.00
525.5650, 14857.00
526.7440, 14881.00
527.9230, 14860.00
529.1020, 14885.83
530.2810, 14919.00
531.4590, 14952.00
532.6380, 15025.00
533.8160, 15076.00
534.9940, 14910.00
536.1720, 15170.00
537.3500, 14950.00
538.5270, 15076.00
539.7050, 15090.00
540.8820, 15173.00
542.0590, 14975.00
543.2360, 15096.00
544.4130, 15107.00
545.5900, 15260.00
546.7660, 15312.00
547.9430, 15197.00
549.1190, 15241.00
550.2950, 15242.00
551.4710, 15205.00
552.6470, 15207.00
553.8220, 15328.00
554.9980, 15197.00
556.1730, 15195.00
557.3480, 15491.00
558.5230, 15353.00
559.6980, 15628.00
560.8730, 15326.00
562.0470, 15569.00
563.2220, 15606.00
564.3960, 15564.00
565.5700, 15582.00
566.7440, 15656.00
567.9170, 15518.00
569.0910, 15680.00
570.2640, 15441.00
571.4380, 15531.00
572.6110, 15613.00
573.7840, 15639.00
574.9570, 15617.00
576.1290, 15613.00
577.3020, 15557.00
578.4740, 15627.00
579.6460, 15675.00
580.8180, 15738.00
581.9900, 15668.00
583.1620, 15665.00
584.3330, 15658.00
585.5040, 15838.00
586.6760, 15921.00
587.8470, 15904.00
589.0180, 15854.00
590.1880, 15871.00
591.3590, 15799.00
592.5290, 15912.00
593.7000, 15839.00
594.8700, 15720.00
596.0400, 16013.00
597.2090, 16057.00
598.3790, 15917.00
599.5490, 16063.00
600.7180, 16072.00
601.8870, 16035.00
603.0560, 16225.00
604.2250, 16131.00
605.3940, 16137.00
606.5620, 16309.00
607.7300, 16414.00
608.8990, 16356.00
610.0670, 16624.00
611.2350, 16566.00
612.4020, 16795.00
613.5700, 16819.00
614.7370, 17121.00
615.9050, 17201.00
617.0720, 17181.00
618.2390, 17267.00
619.4060, 17164.00
620.5720, 17164.00
621.7390, 17102.00
622.9050, 16995.00
624.0710, 17016.00
625.2370, 16848.00
626.4030, 17119.00
627.5690, 16939.00
628.7340, 17078.00
629.9000, 17019.00
631.0650, 17150.00
632.2300, 17282.00
633.3950, 17166.00
634.5600, 17226.00
635.7240, 17116.00
636.8890, 17307.00
638.0530, 17328.00
639.2170, 17575.00
640.3810, 17628.00
641.5450, 17867.00
642.7080, 17915.00
643.8720, 18134.00
645.0350, 18252.00
646.1980, 18296.00
647.3610, 18530.00
648.5240, 18299.00
649.6870, 18235.00
650.8490, 18056.00
652.0120, 17505.00
653.1740, 17443.00
654.3360, 17282.00
655.4980, 17178.00
656.6600, 17058.00
657.8210, 17065.00
658.9830, 17079.00
660.1440, 16931.00
661.3050, 17017.00
662.4660, 17079.00
663.6270, 17097.00
664.7870, 16946.00
665.9480, 17060.00
667.1080, 17053.00
668.2680, 17153.00
669.4280, 17126.00
670.5880, 17169.18
671.7480, 17107.00
672.9070, 17220.00
674.0670, 17202.00
675.2260, 17227.00
676.3850, 17334.00
677.5440, 17208.00
678.7030, 17293.00
679.8610, 17380.00
681.0200, 17208.00
682.1780, 17233.00
683.3360, 17312.00
684.4940, 17420.00
685.6520, 17348.00
686.8090, 17355.00
687.9670, 17455.00
689.1240, 17316.00
690.2810, 17430.32
691.4380, 17554.00
692.5950, 17523.00
693.7520, 17565.00
694.9080, 17557.00
696.0650, 17485.00
697.2210, 17647.00
698.3770, 17442.00
699.5330, 17605.00
700.6880, 17616.00
701.8440, 17434.00
702.9990, 17616.00
704.1550, 17409.00
705.3100, 17698.00
706.4650, 17664.00
707.6190, 17701.00
708.7740, 17603.00
709.9290, 17655.00
711.0830, 17680.00
712.2370, 17979.00
713.3910, 17841.00
714.5450, 17905.00
715.6980, 17867.00
716.8520, 17709.00
718.0050, 17846.00
719.1580, 17907.00
720.3110, 17882.00
721.4640, 17969.00
722.6170, 17905.00
723.7700, 17935.00
724.9220, 17900.00
726.0740, 18036.00
727.2260, 17938.00
728.3780, 17875.00
729.5300, 18197.00
730.6810, 17995.00
731.8330, 18130.00
732.9840, 18038.00
734.1350, 18136.00
735.2860, 18048.00
736.4370, 18043.00
737.5880, 18042.00
738.7380, 18035.00
739.8880, 18229.00
741.0390, 18245.00
742.1890, 18321.00
743.3380, 18338.00
744.4880, 18415.00
745.6380, 18359.00
746.7870, 18413.00
747.9360, 18334.00
749.0850, 18321.00
750.2340, 18268.00
751.3830, 18308.00
752.5310, 18292.82
753.6800, 18378.00
754.8280, 18361.00
755.9760, 18309.00
757.1240, 18438.00
758.2720, 18449.00
759.4190, 18546.00
760.5670, 18462.00
761.7140, 18562.00
762.8610, 18603.00
764.0080, 18685.00
765.1550, 18622.00
766.3020, 18732.00
767.4480, 18547.00
768.5950, 18630.00
769.7410, 18702.00
770.8870, 18841.00
772.0330, 18714.00
773.1780, 18754.00
774.3240, 18927.00
775.4690, 18679.00
776.6140, 18753.00
777.7590, 18813.00
778.9040, 18983.00
780.0490, 19014.00
781.1940, 18930.00
782.3380, 18810.00
783.4820, 18944.00
784.6260, 18952.00
785.7700, 18928.00
786.9140, 18838.00
788.0580, 19005.00
789.2010, 18978.00
790.3450, 19090.00
791.4880, 18989.00
792.6310, 19069.00
793.7730, 19111.00
794.9160, 19287.00
796.0590, 19097.00
797.2010, 19074.00
798.3430, 19190.00
799.4850, 19196.00
800.6270, 19382.00
801.7690, 19343.71
802.9100, 19319.00
804.0520, 19349.00
805.1930, 19303.00
806.3340, 19374.00
807.4750, 19309.00
808.6160, 19296.00
809.7560, 19348.00
810.8970, 19384.00
812.0370, 19393.00
813.1770, 19460.00
814.3170, 19591.00
815.4570, 19527.00
816.5960, 19599.00
817.7360, 19702.00
818.8750, 19539.00
820.0140, 19697.00
821.1530, 19547.00
822.2920, 19571.00
823.4310, 19666.00
824.5690, 19686.00
825.7070, 19723.00
826.8460, 19559.00
827.9840, 19766.00
829.1220, 19583.00
830.2590, 19799.00
831.3970, 19837.00
832.5340, 19797.00
833.6710, 19693.00
834.8080, 19695.00
835.9450, 19797.00
837.0820, 19815.00
838.2190, 19923.00
839.3550, 19833.00
840.4910, 19959.00
841.6270, 19850.00
842.7630, 19919.00
843.8990, 20017.00
845.0350, 20217.00
846.1700, 20179.00
847.3060, 20072.00
848.4410, 20161.00
849.5760, 20149.00
850.7100, 20095.00
851.8450, 20148.00
852.9800, 20133.00
854.1140, 20236.00
855.2480, 20257.54
856.3820, 20391.00
857.5160, 20313.00
858.6500, 20343.00
859.7830, 20286.00
860.9170, 20329.00
862.0500, 20322.00
863.1830, 20334.49
864.3160, 20337.32
865.4480, 20383.00
866.5810, 20379.00
867.7130, 20404.29
868.8460, 20540.00
869.9780, 20453.00
871.1100, 20478.00
872.2410, 20499.00
873.3730, 20419.00
874.5050, 20542.00
875.6360, 20653.00
876.7670, 20529.00
877.8980, 20584.00
879.0290, 20786.00
880.1590, 20466.00
881.2900, 20736.00
882.4200, 20824.00
883.5500, 20727.00
884.6800, 20929.00
885.8100, 20811.00
886.9400, 20658.00
888.0690, 20787.00
889.1990, 20935.00
890.3280, 20921.00
891.4570, 21006.92
892.5860, 20960.00
893.7140, 20980.00
894.8430, 21026.00
895.9710, 20852.00
897.1000, 20984.00
898.2280, 21167.00
899.3560, 21098.00
900.4830, 21048.00
901.6110, 21005.00
902.7380, 20929.00
903.8660, 21089.00
904.9930, 21211.00
906.1200, 21175.00
907.2460, 21121.00
908.3730, 21332.00
909.5000, 21285.00
910.6260, 21240.00
911.7520, 21307.00
912.8780, 21283.00
914.0040, 21273.02
915.1290, 21376.00
916.2550, 21248.00
917.3800, 21366.00
918.5050, 21380.00
919.6300, 21358.00
920.7550, 21504.00
921.8800, 21471.00
923.0040, 21509.00
924.1290, 21719.00
925.2530, 21503.00
926.3770, 21379.00
927.5010, 21610.00
928.6250, 21647.00
929.7480, 21710.00
930.8720, 21565.00
931.9950, 21809.00
933.1180, 21623.00
934.2410, 21773.00
935.3640, 21836.00
936.4860, 21749.00
937.6090, 21667.00
938.7310, 21873.00
939.8530, 21873.00
940.9750, 22055.00
942.0970, 21803.00
943.2180, 21793.00
944.3400, 22004.00
945.4610, 22191.00
946.5820, 21969.00
947.7030, 22006.00
948.8240, 22186.00
949.9450, 22128.00
951.0650, 22263.00
952.1860, 22053.00
953.3060, 22258.00
954.4260, 22039.00
955.5460, 22225.00
956.6650, 22238.00
957.7850, 22119.00
958.9040, 22284.00
960.0230, 22229.00
961.1420, 22444.00
962.2610, 22393.00
963.3800, 22515.00
964.4990, 22683.00
965.6170, 22609.00
966.7350, 22723.00
967.8530, 22623.00
968.9710, 22682.00
970.0890, 22766.84
971.2070, 22822.00
972.3240, 22977.00
973.4410, 23037.00
974.5580, 23179.00
975.6750, 23234.00
976.7920, 23566.00
977.9090, 24125.00
979.0250, 24641.00
980.1410, 26048.00
981.2580, 28780.00
982.3740, 32744.00
983.4890, 37035.00
984.6050, 40708.00
985.7200, 47112.00
986.8360, 54520.00
987.9510, 60022.00
989.0660, 59663.00
990.1810, 52334.00
991.2950, 41726.00
992.4100, 33506.00
993.5240, 28367.00
994.6390, 26083.00
995.7530, 25135.00
996.8660, 24518.00
997.9800, 24046.00
999.0940, 23927.00
1000.207, 23610.00
1001.320, 23742.00
1002.433, 23624.00
1003.546, 23611.00
1004.659, 23489.00
1005.772, 23637.00
1006.884, 23402.00
1007.996, 23372.00
1009.108, 23601.00
1010.220, 23469.00
1011.332, 23522.00
1012.444, 23669.00
1013.555, 23495.00
1014.666, 23398.00
1015.777, 23347.00
1016.888, 23516.00
1017.999, 23377.00
1019.110, 23646.00
1020.220, 23543.00
1021.331, 23461.00
1022.441, 23645.00
1023.551, 23466.00
1024.661, 23469.00
1025.770, 23838.00
1026.880, 23556.00
1027.989, 23709.00
1029.098, 23568.00
1030.207, 23638.00
1031.316, 23647.00
1032.425, 23702.00
1033.533, 23738.00
1034.642, 23842.00
1035.750, 23738.00
1036.858, 23899.00
1037.966, 23795.00
1039.073, 23761.00
1040.181, 23787.00
1041.288, 23856.00
1042.396, 23895.32
1043.503, 23956.00
1044.610, 24027.00
1045.716, 24005.00
1046.823, 24015.00
1047.929, 23982.00
1049.036, 24129.00
1050.142, 24122.00
1051.248, 24196.00
1052.353, 24237.00
1053.459, 24125.00
1054.564, 24141.00
1055.670, 24235.00
1056.775, 24253.00
1057.880, 24360.00
1058.985, 24270.00
1060.089, 24312.00
1061.194, 24453.00
1062.298, 24440.00
1063.402, 24510.18
1064.506, 24471.00
1065.610, 24577.00
1066.713, 24590.00
1067.817, 24605.00
1068.920, 24713.00
1070.023, 24644.00
1071.126, 24518.00
1072.229, 24695.00
1073.332, 24644.00
1074.435, 24636.08
1075.537, 24741.00
1076.639, 24608.00
1077.741, 24786.00
1078.843, 24791.00
1079.945, 24837.00
1081.046, 24798.00
1082.148, 24897.00
1083.249, 24905.00
1084.350, 24922.78
1085.451, 24974.00
1086.551, 24944.00
1087.652, 25022.00
1088.752, 24998.00
1089.853, 24885.00
1090.953, 25011.00
1092.053, 25123.00
1093.152, 24941.00
1094.252, 25028.00
1095.351, 25178.00
1096.451, 25345.00
1097.550, 25366.00
1098.649, 25580.00
1099.748, 25762.00
1100.846, 25747.00
1101.945, 25766.00
1103.043, 26055.00
1104.141, 25860.00
1105.239, 25939.00
1106.337, 26058.00
1107.434, 25680.00
1108.532, 25969.00
1109.629, 25610.00
1110.726, 25785.00
1111.823, 25548.00
1112.920, 25661.00
1114.017, 25461.00
1115.113, 25538.00
1116.210, 25734.00
1117.306, 25532.00
1118.402, 25550.00
1119.498, 25664.00
1120.593, 25718.00
1121.689, 25794.00
1122.784, 25871.00
1123.879, 25928.00
1124.974, 25898.00
1126.069, 26128.00
1127.164, 26070.00
1128.259, 26221.00
1129.353, 26216.00
1130.447, 26308.00
1131.541, 26634.00
1132.635, 26786.00
1133.729, 27283.00
1134.822, 27593.00
1135.916, 28062.00
1137.009, 28537.00
1138.102, 28782.00
1139.195, 29081.00
1140.288, 28855.00
1141.380, 28785.00
1142.473, 28591.00
1143.565, 28453.00
1144.657, 28241.00
1145.749, 28172.00
1146.841, 27928.00
1147.932, 27732.12
1149.024, 27229.00
1150.115, 27237.00
1151.206, 27114.00
1152.297, 26796.00
1153.388, 27223.00
1154.479, 26701.00
1155.569, 26853.00
1156.659, 27072.00
1157.750, 27073.00
1158.839, 26942.00
1159.929, 27215.00
1161.019, 27193.00
1162.108, 27630.00
1163.198, 27885.00
1164.287, 28019.00
1165.376, 28186.00
1166.465, 28485.00
1167.553, 28110.00
1168.642, 27822.00
1169.730, 27918.00
1170.818, 27625.00
1171.906, 27543.00
1172.994, 27418.00
1174.082, 27299.94
1175.170, 27205.00
1176.257, 27201.00
1177.344, 27160.00
1178.431, 27193.00
1179.518, 27146.69
1180.605, 27088.00
1181.691, 27097.00
1182.778, 26999.00
1183.864, 26998.82
1184.950, 27096.00
1186.036, 27090.00
1187.122, 27182.00
1188.207, 27324.00
1189.292, 27366.00
1190.378, 27383.00
1191.463, 27484.00
1192.548, 27271.00
1193.632, 27390.00
1194.717, 27201.00
1195.801, 27505.00
1196.886, 27321.00
1197.970, 27394.00
1199.054, 27512.00
1200.137, 27167.00
1201.221, 27290.00
1202.305, 27508.00
1203.388, 27630.00
1204.471, 27750.00
1205.554, 27682.00
1206.637, 27781.00
1207.719, 27514.00
1208.802, 27742.00
1209.884, 28014.00
1210.966, 27834.00
1212.048, 27781.00
1213.130, 27769.00
1214.212, 27706.00
1215.293, 27937.00
1216.374, 27872.00
1217.456, 28025.00
1218.536, 27930.00
1219.617, 27932.00
1220.698, 27993.00
1221.778, 27927.00
1222.859, 27877.00
1223.939, 27952.00
1225.019, 28186.00
1226.099, 28234.00
1227.178, 28268.00
1228.258, 28091.00
1229.337, 28233.00
1230.417, 28112.00
1231.496, 28279.00
1232.574, 28344.00
1233.653, 28411.00
1234.732, 28480.00
1235.810, 28287.00
1236.888, 28261.00
1237.966, 28417.00
1239.044, 28615.00
1240.122, 28443.00
1241.199, 28307.00
1242.277, 28431.00
1243.354, 28589.00
1244.431, 28733.00
1245.508, 28642.00
1246.585, 28560.00
1247.661, 28576.00
1248.738, 28535.00
1249.814, 28583.00
1250.890, 28564.00
1251.966, 28593.00
1253.042, 28767.00
1254.117, 28751.00
1255.193, 28910.00
1256.268, 28760.00
1257.343, 28844.00
1258.418, 28900.00
1259.493, 29031.00
1260.567, 29072.05
1261.642, 29081.00
1262.716, 29141.00
1263.790, 28980.00
1264.864, 28897.00
1265.938, 28934.00
1267.011, 29129.00
1268.085, 28954.00
1269.158, 28888.00
1270.231, 29205.00
1271.304, 29158.00
1272.377, 29129.00
1273.450, 29338.00
1274.522, 29320.00
1275.594, 29105.00
