##NAMES=Baryte
##RRUFFID=R050342
##IDEAL CHEMISTRY=BaS^6+^O_4_
##LOCALITY=Palos Verdes, Los Angeles County, California, USA
##OWNER=RRUFF
##SOURCE=California Institute of Technology
##DESCRIPTION=Light brown fragment
##STATUS=The identification of this mineral has been confirmed by X-ray diffraction and chemical analysis
##URL=rruff.info/R050342
##MEASURED CHEMISTRY=Ba_1.00_S_1.00_O_4_
##PIN_ID=L01107
##ORIENTATION=Laser parallel to -a* (-1 0 0). Fiducial mark perpendicular to laser is parallel to b [0 1 0]
140.2710, 10149.00
141.5000, 10153.00
142.7280, 10160.00
143.9560, 10364.00
145.1840, 10454.00
146.4120, 10411.00
147.6390, 10479.00
148.8670, 10509.00
150.0940, 10617.00
151.3210, 10751.00
152.5490, 10746.00
153.7750, 10738.00
155.0020, 10844.00
156.2290, 10781.00
157.4550, 10933.00
158.6810, 10863.00
159.9080, 10860.00
161.1340, 10871.00
162.3590, 10765.00
163.5850, 10869.00
164.8110, 10862.00
166.0360, 10885.00
167.2610, 10973.00
168.4860, 10886.00
169.7110, 11131.00
170.9360, 11225.00
172.1610, 11051.00
173.3850, 11101.00
174.6100, 11089.00
175.8340, 11227.00
177.0580, 11299.00
178.2820, 11259.00
179.5050, 11281.00
180.7290, 11279.00
181.9520, 11296.38
183.1760, 11349.00
184.3990, 11315.00
185.6220, 11394.00
186.8450, 11325.00
188.0670, 11428.00
189.2900, 11633.00
190.5120, 11563.00
191.7340, 11551.00
192.9560, 11506.00
194.1780, 11475.00
195.4000, 11670.00
196.6220, 11554.00
197.8430, 11673.00
199.0640, 11651.00
200.2860, 11656.00
201.5070, 11750.00
202.7270, 11649.00
203.9480, 11868.00
205.1690, 11690.00
206.3890, 11596.00
207.6090, 11695.00
208.8290, 11806.00
210.0490, 11869.00
211.2690, 11852.00
212.4890, 11949.00
213.7080, 11672.00
214.9280, 11778.00
216.1470, 12002.00
217.3660, 11747.00
218.5850, 12080.00
219.8030, 12088.00
221.0220, 11950.00
222.2400, 12176.00
223.4590, 11871.00
224.6770, 11995.00
225.8950, 12101.00
227.1120, 12130.00
228.3300, 12200.00
229.5480, 12156.00
230.7650, 12247.00
231.9820, 12198.00
233.1990, 12250.00
234.4160, 12192.00
235.6330, 12173.00
236.8490, 12194.00
238.0660, 12300.00
239.2820, 12414.00
240.4980, 12353.00
241.7140, 12213.00
242.9300, 12370.00
244.1460, 12342.00
245.3610, 12303.00
246.5770, 12442.00
247.7920, 12473.00
249.0070, 12429.00
250.2220, 12445.00
251.4370, 12591.00
252.6510, 12515.00
253.8660, 12562.00
255.0800, 12500.00
256.2940, 12541.00
257.5080, 12598.00
258.7220, 12592.00
259.9360, 12696.00
261.1490, 12750.00
262.3630, 12783.00
263.5760, 12720.00
264.7890, 12705.00
266.0020, 12877.00
267.2150, 12848.00
268.4270, 12713.00
269.6400, 12918.00
270.8520, 12957.00
272.0640, 12876.00
273.2760, 12832.00
274.4880, 12782.00
275.7000, 12971.00
276.9120, 12889.00
278.1230, 13065.00
279.3340, 13067.00
280.5450, 12900.00
281.7560, 13058.00
282.9670, 13074.00
284.1780, 13096.00
285.3880, 13113.00
286.5980, 13121.00
287.8090, 13141.10
289.0190, 13170.04
290.2290, 13163.00
291.4380, 13209.00
292.6480, 13203.00
293.8570, 13240.72
295.0670, 13219.00
296.2760, 13292.00
297.4850, 13315.00
298.6930, 13299.00
299.9020, 13298.00
301.1110, 13303.00
302.3190, 13351.00
303.5270, 13227.00
304.7350, 13400.00
305.9430, 13468.00
307.1510, 13414.00
308.3580, 13229.00
309.5660, 13460.00
310.7730, 13418.00
311.9800, 13502.00
313.1870, 13546.00
314.3940, 13449.00
315.6010, 13681.00
316.8070, 13569.00
318.0130, 13782.00
319.2200, 13532.00
320.4260, 13678.00
321.6310, 13498.00
322.8370, 13619.00
324.0430, 13816.00
325.2480, 13777.00
326.4540, 13859.00
327.6590, 13851.00
328.8640, 13815.00
330.0680, 13846.55
331.2730, 13810.00
332.4780, 13826.00
333.6820, 13858.00
334.8860, 13823.00
336.0900, 13929.00
337.2940, 13735.00
338.4980, 13884.00
339.7010, 13825.00
340.9050, 14004.00
342.1080, 13901.00
343.3110, 13863.00
344.5140, 14165.00
345.7170, 13974.00
346.9200, 14045.00
348.1220, 14032.00
349.3240, 14139.00
350.5270, 14060.00
351.7290, 14102.00
352.9310, 14110.00
354.1320, 14190.00
355.3340, 14251.00
356.5350, 14284.27
357.7370, 14309.00
358.9380, 14365.00
360.1390, 14369.00
361.3400, 14389.00
362.5400, 14198.00
363.7410, 14347.00
364.9410, 14061.00
366.1410, 14317.00
367.3410, 14537.00
368.5410, 14342.00
369.7410, 14496.00
370.9400, 14290.00
372.1400, 14438.00
373.3390, 14324.00
374.5380, 14424.00
375.7370, 14482.00
376.9360, 14552.00
378.1350, 14449.00
379.3330, 14517.00
380.5310, 14631.00
381.7300, 14390.00
382.9280, 14601.00
384.1260, 14591.00
385.3230, 14655.00
386.5210, 14715.00
387.7180, 14700.00
388.9160, 14610.00
390.1130, 14794.00
391.3100, 14791.00
392.5060, 14753.00
393.7030, 14848.00
394.9000, 14712.00
396.0960, 14847.00
397.2920, 14784.00
398.4880, 14822.00
399.6840, 14905.00
400.8800, 14738.00
402.0750, 14976.00
403.2710, 14927.00
404.4660, 14960.00
405.6610, 14883.00
406.8560, 14970.00
408.0510, 14897.00
409.2450, 15068.00
410.4400, 15024.00
411.6340, 15068.00
412.8280, 15138.00
414.0220, 15044.00
415.2160, 15083.00
416.4100, 15132.00
417.6030, 15148.00
418.7970, 15141.00
419.9900, 15197.00
421.1830, 15089.00
422.3760, 15167.00
423.5690, 15149.00
424.7610, 15319.00
425.9540, 15255.00
427.1460, 15387.00
428.3380, 15245.00
429.5300, 15280.00
430.7220, 15133.00
431.9140, 15418.00
433.1050, 15551.00
434.2970, 15419.00
435.4880, 15481.00
436.6790, 15420.00
437.8700, 15624.00
439.0610, 15636.00
440.2510, 15674.00
441.4420, 15803.00
442.6320, 15774.00
443.8220, 15946.00
445.0120, 16131.00
446.2020, 16179.00
447.3910, 16377.00
448.5810, 16903.00
449.7700, 17039.00
450.9600, 17450.00
452.1490, 17887.00
453.3370, 18101.00
454.5260, 18035.00
455.7150, 17900.00
456.9030, 17492.00
458.0910, 17359.00
459.2800, 17012.00
460.4670, 16871.00
461.6550, 17042.00
462.8430, 16773.00
464.0300, 16791.00
465.2180, 16626.00
466.4050, 16330.00
467.5920, 16065.00
468.7790, 16186.00
469.9650, 16165.00
471.1520, 16215.00
472.3380, 16115.00
473.5250, 16076.00
474.7110, 16045.00
475.8970, 16092.00
477.0820, 16153.00
478.2680, 16113.00
479.4540, 16090.00
480.6390, 16147.00
481.8240, 16139.00
483.0090, 16205.00
484.1940, 16340.00
485.3780, 16190.00
486.5630, 16299.00
487.7470, 16181.00
488.9320, 16098.00
490.1160, 16212.00
491.3000, 16175.00
492.4830, 16271.00
493.6670, 16436.00
494.8500, 16244.00
496.0340, 16172.00
497.2170, 16096.00
498.4000, 16309.00
499.5820, 16400.00
500.7650, 16562.00
501.9480, 16276.00
503.1300, 16541.00
504.3120, 16361.00
505.4940, 16469.00
506.6760, 16685.00
507.8580, 16489.00
509.0390, 16451.00
510.2210, 16535.00
511.4020, 16524.00
512.5830, 16653.00
513.7640, 16686.00
514.9450, 16609.00
516.1250, 16772.00
517.3060, 16708.00
518.4860, 16569.00
519.6660, 16764.00
520.8460, 16726.00
522.0260, 16799.00
523.2060, 16570.00
524.3850, 16947.00
525.5650, 16767.00
526.7440, 16912.00
527.9230, 16736.00
529.1020, 16984.00
530.2810, 16960.00
531.4590, 16793.00
532.6380, 16892.00
533.8160, 16838.41
534.9940, 16789.00
536.1720, 16915.00
537.3500, 16928.00
538.5270, 17081.00
539.7050, 16853.00
540.8820, 16976.00
542.0590, 16929.00
543.2360, 17165.00
544.4130, 16989.00
545.5900, 17116.00
546.7660, 17301.00
547.9430, 17050.00
549.1190, 17149.00
550.2950, 16941.00
551.4710, 17126.00
552.6470, 17170.00
553.8220, 17242.00
554.9980, 17321.00
556.1730, 17385.00
557.3480, 17312.00
558.5230, 17279.00
559.6980, 17290.00
560.8730, 17284.00
562.0470, 17403.00
563.2220, 17367.00
564.3960, 17476.00
565.5700, 17342.00
566.7440, 17293.00
567.9170, 17348.00
569.0910, 17465.00
570.2640, 17523.00
571.4380, 17512.00
572.6110, 17499.00
573.7840, 17411.00
574.9570, 17468.82
576.1290, 17717.00
577.3020, 17548.00
578.4740, 17589.00
579.6460, 17634.00
580.8180, 17573.00
581.9900, 17654.53
583.1620, 17673.00
584.3330, 17749.00
585.5040, 17776.00
586.6760, 17817.00
587.8470, 17859.97
589.0180, 17909.16
590.1880, 17897.00
591.3590, 17956.00
592.5290, 17911.00
593.7000, 17788.00
594.8700, 17788.00
596.0400, 17812.00
597.2090, 17883.00
598.3790, 17984.00
599.5490, 18002.00
600.7180, 18097.00
601.8870, 18156.00
603.0560, 18109.00
604.2250, 18305.00
605.3940, 18181.00
606.5620, 18089.00
607.7300, 18258.00
608.8990, 18291.07
610.0670, 18427.60
611.2350, 18658.00
612.4020, 18892.00
613.5700, 19199.00
614.7370, 19713.00
615.9050, 20020.00
617.0720, 20264.00
618.2390, 20244.95
619.4060, 20189.00
620.5720, 19908.00
621.7390, 19369.00
622.9050, 19100.00
624.0710, 19031.00
625.2370, 18920.00
626.4030, 18944.00
627.5690, 18997.00
628.7340, 18945.00
629.9000, 19043.00
631.0650, 18825.00
632.2300, 18992.00
633.3950, 18758.00
634.5600, 18798.00
635.7240, 18535.00
636.8890, 18622.00
638.0530, 18769.00
639.2170, 18577.00
640.3810, 18620.00
641.5450, 18615.00
642.7080, 18642.00
643.8720, 18661.00
645.0350, 18700.32
646.1980, 18717.00
647.3610, 18771.00
648.5240, 18801.00
649.6870, 18778.00
650.8490, 18654.00
652.0120, 18647.00
653.1740, 18730.00
654.3360, 18672.00
655.4980, 18763.00
656.6600, 18740.00
657.8210, 18839.00
658.9830, 18797.00
660.1440, 18806.00
661.3050, 18954.00
662.4660, 18892.00
663.6270, 18940.00
664.7870, 19050.00
665.9480, 19009.00
667.1080, 18826.00
668.2680, 19013.00
669.4280, 18871.00
670.5880, 18936.00
671.7480, 18969.00
672.9070, 18981.00
674.0670, 18952.00
675.2260, 19125.00
676.3850, 19152.00
677.5440, 19183.00
678.7030, 19112.00
679.8610, 19276.00
681.0200, 19304.00
682.1780, 18939.00
683.3360, 19274.00
684.4940, 19081.00
685.6520, 19278.00
686.8090, 19183.00
687.9670, 19251.00
689.1240, 19151.00
690.2810, 19305.00
691.4380, 19325.00
692.5950, 19391.00
693.7520, 19472.57
694.9080, 19410.00
696.0650, 19525.00
697.2210, 19526.00
698.3770, 19395.00
699.5330, 19385.00
700.6880, 19291.00
701.8440, 19435.00
702.9990, 19420.00
704.1550, 19473.00
705.3100, 19467.00
706.4650, 19496.00
707.6190, 19459.00
708.7740, 19457.00
709.9290, 19555.00
711.0830, 19654.00
712.2370, 19721.00
713.3910, 19716.00
714.5450, 19615.00
715.6980, 19701.00
716.8520, 19642.00
718.0050, 19799.00
719.1580, 19832.00
720.3110, 19795.00
721.4640, 19675.00
722.6170, 19706.00
723.7700, 19653.00
724.9220, 19774.00
726.0740, 19700.00
727.2260, 19934.00
728.3780, 19873.00
729.5300, 19830.00
730.6810, 20004.00
731.8330, 19901.00
732.9840, 20000.00
734.1350, 19945.00
735.2860, 20123.00
736.4370, 19987.00
737.5880, 19938.00
738.7380, 20046.00
739.8880, 19953.00
741.0390, 20078.00
742.1890, 20318.00
743.3380, 20082.00
744.4880, 20223.00
745.6380, 20057.00
746.7870, 20166.00
747.9360, 20155.00
749.0850, 20107.00
750.2340, 20112.00
751.3830, 20132.38
752.5310, 20091.00
753.6800, 20216.00
754.8280, 20260.00
755.9760, 20326.00
757.1240, 20282.00
758.2720, 20276.00
759.4190, 20220.00
760.5670, 20424.00
761.7140, 20383.00
762.8610, 20354.00
764.0080, 20471.00
765.1550, 20432.49
766.3020, 20473.00
767.4480, 20489.00
768.5950, 20474.00
769.7410, 20542.00
770.8870, 20602.00
772.0330, 20489.00
773.1780, 20432.00
774.3240, 20586.00
775.4690, 20634.00
776.6140, 20658.00
777.7590, 20647.00
778.9040, 20452.00
780.0490, 20555.00
781.1940, 20668.00
782.3380, 20660.00
783.4820, 20837.00
784.6260, 20608.00
785.7700, 20799.00
786.9140, 20698.00
788.0580, 20862.00
789.2010, 20796.00
790.3450, 20968.00
791.4880, 20748.00
792.6310, 20857.00
793.7730, 20857.00
794.9160, 20935.00
796.0590, 20797.00
797.2010, 20851.00
798.3430, 20897.00
799.4850, 21060.00
800.6270, 20950.00
801.7690, 21074.00
802.9100, 21085.00
804.0520, 21000.00
805.1930, 21173.00
806.3340, 21129.00
807.4750, 21273.00
808.6160, 21200.00
809.7560, 21157.00
810.8970, 20994.00
812.0370, 21243.00
813.1770, 21232.00
814.3170, 21202.00
815.4570, 21364.00
816.5960, 21194.00
817.7360, 21220.00
818.8750, 21282.00
820.0140, 21456.00
821.1530, 21295.00
822.2920, 21494.00
823.4310, 21397.00
824.5690, 21239.00
825.7070, 21310.00
826.8460, 21348.00
827.9840, 21439.00
829.1220, 21472.00
830.2590, 21442.00
831.3970, 21564.00
832.5340, 21356.00
833.6710, 21564.00
834.8080, 21404.00
835.9450, 21620.00
837.0820, 21611.00
838.2190, 21542.00
839.3550, 21718.00
840.4910, 21704.00
841.6270, 21725.00
842.7630, 21631.00
843.8990, 21647.00
845.0350, 21553.00
846.1700, 21743.00
847.3060, 21623.00
848.4410, 21697.00
849.5760, 21895.00
850.7100, 21934.00
851.8450, 21830.00
852.9800, 21840.00
854.1140, 21925.00
855.2480, 21824.00
856.3820, 21773.00
857.5160, 21993.00
858.6500, 22197.00
859.7830, 22102.00
860.9170, 22051.00
862.0500, 21969.00
863.1830, 21960.00
864.3160, 21925.60
865.4480, 21966.59
866.5810, 21949.00
867.7130, 22046.00
868.8460, 22167.00
869.9780, 22115.00
871.1100, 22303.00
872.2410, 22080.00
873.3730, 22104.00
874.5050, 22207.00
875.6360, 22385.00
876.7670, 22335.00
877.8980, 22359.00
879.0290, 22375.51
880.1590, 22342.00
881.2900, 22305.00
882.4200, 22398.00
883.5500, 22323.00
884.6800, 22475.00
885.8100, 22371.00
886.9400, 22423.00
888.0690, 22369.00
889.1990, 22431.00
890.3280, 22426.00
891.4570, 22429.26
892.5860, 22455.00
893.7140, 22466.00
894.8430, 22518.00
895.9710, 22577.00
897.1000, 22437.00
898.2280, 22603.00
899.3560, 22755.00
900.4830, 22619.00
901.6110, 22680.00
902.7380, 22709.00
903.8660, 22621.00
904.9930, 22712.00
906.1200, 22553.00
907.2460, 22673.00
908.3730, 22732.00
909.5000, 22929.00
910.6260, 22839.00
911.7520, 22732.00
912.8780, 22838.00
914.0040, 22883.00
915.1290, 22858.00
916.2550, 22995.00
917.3800, 22978.00
918.5050, 23084.00
919.6300, 22898.00
920.7550, 23053.00
921.8800, 23064.00
923.0040, 23155.00
924.1290, 22868.00
925.2530, 23059.00
926.3770, 22896.00
927.5010, 23101.00
928.6250, 23052.00
929.7480, 23035.00
930.8720, 23234.00
931.9950, 23391.00
933.1180, 23151.00
934.2410, 23401.00
935.3640, 23308.00
936.4860, 23307.00
937.6090, 23334.00
938.7310, 23341.85
939.8530, 23246.00
940.9750, 23488.00
942.0970, 23433.00
943.2180, 23596.00
944.3400, 23377.00
945.4610, 23603.00
946.5820, 23463.00
947.7030, 23532.00
948.8240, 23599.00
949.9450, 23577.00
951.0650, 23783.00
952.1860, 23566.00
953.3060, 23804.00
954.4260, 23478.00
955.5460, 23674.00
956.6650, 23842.00
957.7850, 23768.00
958.9040, 23805.00
960.0230, 23915.00
961.1420, 23813.00
962.2610, 23853.00
963.3800, 23796.00
964.4990, 23744.00
965.6170, 23795.00
966.7350, 23997.00
967.8530, 24070.00
968.9710, 24131.00
970.0890, 24213.00
971.2070, 24233.43
972.3240, 24201.00
973.4410, 24314.00
974.5580, 24355.00
975.6750, 24488.00
976.7920, 24609.00
977.9090, 24828.00
979.0250, 25350.00
980.1410, 25633.00
981.2580, 26737.00
982.3740, 28280.00
983.4890, 30346.00
984.6050, 32639.00
985.7200, 37391.00
986.8360, 44422.00
987.9510, 52767.00
989.0660, 58364.00
990.1810, 54227.00
991.2950, 43863.00
992.4100, 34507.00
993.5240, 29691.00
994.6390, 27198.00
995.7530, 26332.00
996.8660, 25806.00
997.9800, 25260.00
999.0940, 24997.00
1000.207, 24879.00
1001.320, 24968.00
1002.433, 24764.00
1003.546, 24707.00
1004.659, 24644.00
1005.772, 24834.00
1006.884, 24714.00
1007.996, 24859.00
1009.108, 24778.00
1010.220, 24691.00
1011.332, 25042.00
1012.444, 24725.00
1013.555, 24541.00
1014.666, 24777.00
1015.777, 24671.00
1016.888, 24495.00
1017.999, 24949.00
1019.110, 24873.00
1020.220, 24818.00
1021.331, 24858.00
1022.441, 24904.00
1023.551, 25089.00
1024.661, 24845.00
1025.770, 24814.00
1026.880, 25052.00
1027.989, 24978.00
1029.098, 24954.00
1030.207, 24946.00
1031.316, 24936.09
1032.425, 24969.00
1033.533, 25001.00
1034.642, 25069.00
1035.750, 25183.00
1036.858, 25209.00
1037.966, 25183.00
1039.073, 25279.00
1040.181, 25115.00
1041.288, 25236.00
1042.396, 25356.00
1043.503, 25270.00
1044.610, 25347.00
1045.716, 25085.00
1046.823, 25238.00
1047.929, 25242.00
1049.036, 25334.00
1050.142, 25397.00
1051.248, 25373.00
1052.353, 25392.00
1053.459, 25346.00
1054.564, 25594.00
1055.670, 25509.00
1056.775, 25605.00
1057.880, 25588.00
1058.985, 25307.00
1060.089, 25595.00
1061.194, 25466.00
1062.298, 25708.00
1063.402, 25654.00
1064.506, 25518.00
1065.610, 25516.00
1066.713, 25517.80
1067.817, 25551.38
1068.920, 25630.00
1070.023, 25712.00
1071.126, 25834.00
1072.229, 25901.00
1073.332, 25896.00
1074.435, 25859.00
1075.537, 25800.00
1076.639, 25898.00
1077.741, 25906.00
1078.843, 25995.00
1079.945, 25989.00
1081.046, 26084.00
1082.148, 26193.00
1083.249, 26268.00
1084.350, 26338.94
1085.451, 26303.00
1086.551, 26420.00
1087.652, 26362.00
1088.752, 26317.00
1089.853, 26124.00
1090.953, 26027.00
1092.053, 26123.00
1093.152, 26093.00
1094.252, 26136.00
1095.351, 26345.00
1096.451, 26165.00
1097.550, 26155.00
1098.649, 26302.00
1099.748, 26518.00
1100.846, 26457.00
1101.945, 26585.79
1103.043, 26543.00
1104.141, 26641.00
1105.239, 26502.00
1106.337, 26469.00
1107.434, 26590.00
1108.532, 26588.00
1109.629, 26655.00
1110.726, 26529.00
1111.823, 26495.00
1112.920, 26425.00
1114.017, 26540.00
1115.113, 26511.00
1116.210, 26540.26
1117.306, 26490.00
1118.402, 26594.00
1119.498, 26654.00
1120.593, 26684.00
1121.689, 26451.00
1122.784, 26766.00
1123.879, 26699.00
1124.974, 26646.00
1126.069, 26800.00
1127.164, 26677.00
1128.259, 26810.00
1129.353, 26840.00
1130.447, 26810.00
1131.541, 26783.00
1132.635, 26838.00
1133.729, 26901.00
1134.822, 27089.00
1135.916, 26907.00
1137.009, 27241.00
1138.102, 27196.00
1139.195, 27137.00
1140.288, 26976.00
1141.380, 27311.00
1142.473, 27161.00
1143.565, 27284.00
1144.657, 27313.93
1145.749, 27488.00
1146.841, 27273.00
1147.932, 27362.00
1149.024, 27296.00
1150.115, 27457.00
1151.206, 27414.00
1152.297, 27380.00
1153.388, 27355.00
1154.479, 27376.67
1155.569, 27531.00
1156.659, 27416.00
1157.750, 27454.00
1158.839, 27408.00
1159.929, 27371.00
1161.019, 27463.00
1162.108, 27510.00
1163.198, 27463.00
1164.287, 27619.00
1165.376, 27469.00
1166.465, 27581.00
1167.553, 27579.00
1168.642, 27681.00
1169.730, 27778.00
1170.818, 27858.00
1171.906, 27681.00
1172.994, 27567.00
1174.082, 27565.00
1175.170, 27807.00
1176.257, 27744.00
1177.344, 27720.00
1178.431, 27645.00
1179.518, 27701.00
1180.605, 27712.00
1181.691, 27805.00
1182.778, 27934.00
1183.864, 27835.00
1184.950, 27922.00
1186.036, 27835.00
1187.122, 28003.00
1188.207, 28056.00
1189.292, 28162.00
1190.378, 28092.00
1191.463, 28138.00
1192.548, 28113.00
1193.632, 28388.00
1194.717, 28038.00
1195.801, 28198.00
1196.886, 28186.00
1197.970, 27961.00
1199.054, 28183.00
1200.137, 28279.00
1201.221, 28390.00
1202.305, 28340.00
1203.388, 28231.00
1204.471, 28200.00
1205.554, 28501.00
1206.637, 28479.00
1207.719, 28750.00
1208.802, 28355.00
1209.884, 28439.00
1210.966, 28452.00
1212.048, 28425.00
1213.130, 28406.10
1214.212, 28597.00
1215.293, 28380.00
1216.374, 28390.00
1217.456, 28590.00
1218.536, 28509.00
1219.617, 28738.00
1220.698, 28721.00
1221.778, 28910.00
1222.859, 28894.00
1223.939, 28888.00
1225.019, 28833.00
1226.099, 28731.00
1227.178, 28745.00
1228.258, 28874.00
1229.337, 28806.00
1230.417, 28944.00
1231.496, 28861.00
1232.574, 28863.00
1233.653, 29161.00
1234.732, 28836.00
1235.810, 28909.00
1236.888, 29159.00
1237.966, 29189.00
1239.044, 28966.00
1240.122, 29096.00
1241.199, 29069.00
1242.277, 29208.00
1243.354, 29220.00
1244.431, 29059.00
1245.508, 29127.00
1246.585, 29345.00
1247.661, 29203.00
1248.738, 29279.00
1249.814, 29489.00
1250.890, 29263.00
1251.966, 29307.00
1253.042, 29272.00
1254.117, 29095.00
1255.193, 29293.00
1256.268, 29510.00
1257.343, 29296.00
1258.418, 29335.00
1259.493, 29437.00
1260.567, 29391.00
1261.642, 29483.00
1262.716, 29620.00
1263.790, 29407.00
1264.864, 29456.00
1265.938, 29552.00
1267.011, 29388.00
1268.085, 29709.00
1269.158, 29788.00
1270.231, 29530.00
1271.304, 29905.00
1272.377, 29846.00
1273.450, 29879.00
1274.522, 29904.00
1275.594, 29839.72
1276.666, 29791.00
1277.738, 29769.00
1278.810, 29809.00
1279.882, 29839.00
1280.953, 29821.56
1282.025, 30063.00
1283.096, 29838.00
1284.167, 29931.00
1285.238, 30016.00
1286.308, 29843.00
1287.379, 29775.00
1288.449, 29958.00
1289.519, 30020.00
1290.589, 30036.00
1291.659, 30095.00
1292.729, 30191.00
1293.798, 30225.00
1294.868, 30112.00
1295.937, 30125.00
1297.006, 30207.00
1298.075, 30113.00
1299.143, 30166.58
1300.212, 30182.00
1301.280, 30176.00
1302.348, 30324.00
1303.416, 30327.00
1304.484, 30184.00
1305.552, 30435.00
1306.620, 30531.00
1307.687, 30320.00
1308.754, 30519.00
1309.821, 30326.00
1310.888, 30402.00
1311.955, 30360.00
1313.021, 30706.00
1314.088, 30578.00
1315.154, 30655.00
1316.220, 30545.00
