##NAMES=Bertrandite
##RRUFFID=R060800
##IDEAL CHEMISTRY=Be_4_Si_2_O_7_(OH)_2_
##LOCALITY=Golconda mine, Governador Valadares, Minas Gerais, Brazil
##OWNER=RRUFF
##SOURCE=Bob Jenkins
##DESCRIPTION=Colorless pseudohexagonal prisms
##STATUS=The identification of this mineral is confirmed by single-crystal X-ray diffraction and chemical analysis.
##URL=rruff.info/R060800
##MEASURED CHEMISTRY=Be_4.00_Si_2.00_O_7_(OH)_2_
##PIN_ID=M00212
##ORIENTATION=Laser parallel to c* (0 0 1). Fiducial mark perpendicular to laser is parallel to a [1 0 0]
123.0580, 17816.00
124.2880, 17835.00
125.5190, 17975.00
126.7490, 18043.00
127.9790, 17922.00
129.2090, 17931.00
130.4390, 18001.00
131.6680, 18166.00
132.8980, 18258.00
134.1270, 18223.00
135.3560, 18381.00
136.5850, 18163.00
137.8140, 18455.00
139.0430, 18593.00
140.2710, 18455.00
141.5000, 18349.00
142.7280, 18590.00
143.9560, 18589.00
145.1840, 18702.00
146.4120, 18655.00
147.6390, 18765.00
148.8670, 18619.00
150.0940, 18764.00
151.3210, 19029.00
152.5490, 18897.00
153.7750, 18890.00
155.0020, 19011.00
156.2290, 18722.00
157.4550, 18866.00
158.6810, 19061.00
159.9080, 18888.00
161.1340, 19043.00
162.3590, 19010.00
163.5850, 19127.00
164.8110, 19068.00
166.0360, 19022.00
167.2610, 19377.00
168.4860, 19420.00
169.7110, 19402.00
170.9360, 19421.00
172.1610, 19543.00
173.3850, 19846.00
174.6100, 19972.00
175.8340, 20112.00
177.0580, 20410.00
178.2820, 20473.00
179.5050, 21163.00
180.7290, 22052.00
181.9520, 23281.00
183.1760, 23097.50
184.3990, 24177.00
185.6220, 22754.00
186.8450, 21596.00
188.0670, 21146.00
189.2900, 20814.00
190.5120, 20789.00
191.7340, 20941.00
192.9560, 20991.00
194.1780, 21637.00
195.4000, 22030.00
196.6220, 22844.00
197.8430, 23574.00
199.0640, 24619.00
200.2860, 25595.00
201.5070, 27234.00
202.7270, 29532.00
203.9480, 32666.00
205.1690, 36280.00
206.3890, 38382.00
207.6090, 35169.00
208.8290, 29248.00
210.0490, 25344.00
211.2690, 23101.00
212.4890, 22154.00
213.7080, 21679.00
214.9280, 21014.00
216.1470, 20953.00
217.3660, 20914.00
218.5850, 20973.00
219.8030, 21128.00
221.0220, 21085.00
222.2400, 21263.00
223.4590, 21689.00
224.6770, 22443.00
225.8950, 23791.00
227.1120, 25490.00
228.3300, 26574.00
229.5480, 25627.00
230.7650, 24183.00
231.9820, 22986.00
233.1990, 22401.00
234.4160, 22230.00
235.6330, 22033.00
236.8490, 22393.00
238.0660, 23094.00
239.2820, 23860.00
240.4980, 24108.00
241.7140, 23614.00
242.9300, 23142.00
244.1460, 22380.00
245.3610, 21869.00
246.5770, 21488.00
247.7920, 21378.00
249.0070, 21192.00
250.2220, 21143.00
251.4370, 21260.00
252.6510, 20950.00
253.8660, 21093.00
255.0800, 21235.00
256.2940, 20868.00
257.5080, 21279.00
258.7220, 21181.00
259.9360, 21073.00
261.1490, 20988.00
262.3630, 21030.00
263.5760, 21128.00
264.7890, 21009.00
266.0020, 21132.00
267.2150, 20979.00
268.4270, 21190.00
269.6400, 21331.00
270.8520, 21295.00
272.0640, 21134.00
273.2760, 21014.00
274.4880, 21323.00
275.7000, 21080.00
276.9120, 21261.00
278.1230, 21227.00
279.3340, 21235.00
280.5450, 21293.00
281.7560, 21197.00
282.9670, 21461.00
284.1780, 21333.00
285.3880, 21291.00
286.5980, 21424.00
287.8090, 21223.00
289.0190, 21314.00
290.2290, 21611.00
291.4380, 21580.00
292.6480, 21710.00
293.8570, 21787.00
295.0670, 22049.00
296.2760, 22366.00
297.4850, 22504.00
298.6930, 22820.00
299.9020, 23089.00
301.1110, 22950.00
302.3190, 22281.00
303.5270, 22007.00
304.7350, 21986.00
305.9430, 21786.00
307.1510, 21826.00
308.3580, 22027.00
309.5660, 22021.00
310.7730, 21851.00
311.9800, 21744.00
313.1870, 21912.00
314.3940, 21695.00
315.6010, 21820.00
316.8070, 21762.00
318.0130, 21901.00
319.2200, 21954.00
320.4260, 21840.00
321.6310, 22133.00
322.8370, 22033.00
324.0430, 22145.00
325.2480, 22279.00
326.4540, 22535.00
327.6590, 22309.00
328.8640, 22718.00
330.0680, 22864.00
331.2730, 22711.00
332.4780, 22552.00
333.6820, 22543.97
334.8860, 22256.00
336.0900, 22365.00
337.2940, 22233.00
338.4980, 22149.00
339.7010, 22421.00
340.9050, 22211.00
342.1080, 22455.00
343.3110, 22445.00
344.5140, 22515.00
345.7170, 22607.00
346.9200, 22599.00
348.1220, 22840.00
349.3240, 22850.00
350.5270, 23093.00
351.7290, 23087.00
352.9310, 23059.00
354.1320, 23164.00
355.3340, 23644.00
356.5350, 24138.00
357.7370, 24606.00
358.9380, 24990.00
360.1390, 24427.00
361.3400, 24229.00
362.5400, 24187.00
363.7410, 23916.66
364.9410, 23702.36
366.1410, 23646.00
367.3410, 23241.00
368.5410, 22929.00
369.7410, 22857.00
370.9400, 22914.00
372.1400, 22844.00
373.3390, 22797.00
374.5380, 22785.00
375.7370, 22916.00
376.9360, 22991.00
378.1350, 23078.00
379.3330, 22868.00
380.5310, 22882.00
381.7300, 23188.00
382.9280, 22942.00
384.1260, 23325.00
385.3230, 23387.00
386.5210, 23348.00
387.7180, 23583.00
388.9160, 23481.00
390.1130, 23402.00
391.3100, 23325.00
392.5060, 23294.00
393.7030, 23406.00
394.9000, 23268.00
396.0960, 23313.00
397.2920, 23433.00
398.4880, 23298.00
399.6840, 23243.00
400.8800, 23216.00
402.0750, 23224.00
403.2710, 23389.00
404.4660, 23273.00
405.6610, 23346.00
406.8560, 23206.00
408.0510, 23388.00
409.2450, 23148.00
410.4400, 23579.00
411.6340, 23292.00
412.8280, 23459.00
414.0220, 23822.00
415.2160, 23687.00
416.4100, 23521.00
417.6030, 23516.00
418.7970, 23520.00
419.9900, 23362.00
421.1830, 23422.59
422.3760, 23418.00
423.5690, 23468.00
424.7610, 23614.00
425.9540, 23699.00
427.1460, 23777.00
428.3380, 23735.00
429.5300, 23822.00
430.7220, 23612.00
431.9140, 23654.00
433.1050, 23743.00
434.2970, 23886.00
435.4880, 23598.00
436.6790, 23916.00
437.8700, 23733.00
439.0610, 23999.00
440.2510, 23654.00
441.4420, 23867.00
442.6320, 23918.00
443.8220, 23882.00
445.0120, 23850.00
446.2020, 24084.00
447.3910, 24123.00
448.5810, 24418.00
449.7700, 24343.00
450.9600, 24143.00
452.1490, 24096.00
453.3370, 23866.00
454.5260, 24077.00
455.7150, 24238.00
456.9030, 24083.00
458.0910, 24027.00
459.2800, 24045.00
460.4670, 24153.00
461.6550, 23996.00
462.8430, 23882.00
464.0300, 23888.00
465.2180, 24315.00
466.4050, 24124.00
467.5920, 24303.00
468.7790, 24250.00
469.9650, 24292.00
471.1520, 24287.00
472.3380, 24214.00
473.5250, 24321.00
474.7110, 24188.00
475.8970, 24350.00
477.0820, 24160.00
478.2680, 24444.00
479.4540, 24590.00
480.6390, 24301.00
481.8240, 24492.00
483.0090, 24519.00
484.1940, 24436.00
485.3780, 24574.00
486.5630, 24631.00
487.7470, 24770.00
488.9320, 24857.00
490.1160, 24810.00
491.3000, 25023.00
492.4830, 25019.00
493.6670, 24913.00
494.8500, 25131.00
496.0340, 25163.00
497.2170, 25355.00
498.4000, 25336.00
499.5820, 25309.00
500.7650, 25171.00
501.9480, 25075.00
503.1300, 25195.00
504.3120, 25011.00
505.4940, 25015.00
506.6760, 25069.00
507.8580, 24905.00
509.0390, 25083.00
510.2210, 24938.00
511.4020, 24931.00
512.5830, 24976.00
513.7640, 25001.00
514.9450, 25064.00
516.1250, 24982.00
517.3060, 25102.00
518.4860, 24967.00
519.6660, 25080.00
520.8460, 25296.00
522.0260, 25230.00
523.2060, 25235.00
524.3850, 25369.00
525.5650, 25416.00
526.7440, 25064.00
527.9230, 25338.00
529.1020, 25244.00
530.2810, 25462.00
531.4590, 25373.00
532.6380, 25681.00
533.8160, 25835.00
534.9940, 25827.00
536.1720, 26106.00
537.3500, 26075.00
538.5270, 25977.00
539.7050, 26278.00
540.8820, 26255.00
542.0590, 25878.00
543.2360, 25826.00
544.4130, 25478.00
545.5900, 25544.00
546.7660, 25784.00
547.9430, 25685.00
549.1190, 25691.00
550.2950, 25614.00
551.4710, 25716.00
552.6470, 25527.00
553.8220, 25618.00
554.9980, 25580.00
556.1730, 25648.00
557.3480, 25743.00
558.5230, 25691.00
559.6980, 25688.00
560.8730, 25769.00
562.0470, 25910.00
563.2220, 26033.00
564.3960, 26035.00
565.5700, 26090.94
566.7440, 26265.00
567.9170, 26040.00
569.0910, 26100.00
570.2640, 25985.00
571.4380, 26174.00
572.6110, 26710.00
573.7840, 26711.00
574.9570, 27041.00
576.1290, 26995.00
577.3020, 27669.00
578.4740, 27390.00
579.6460, 27342.00
580.8180, 26674.00
581.9900, 26957.00
583.1620, 26768.00
584.3330, 26550.00
585.5040, 26349.00
586.6760, 26609.00
587.8470, 26474.00
589.0180, 26529.00
590.1880, 26459.00
591.3590, 26365.00
592.5290, 26458.00
593.7000, 26439.28
594.8700, 26332.00
596.0400, 26492.00
597.2090, 26467.00
598.3790, 26377.00
599.5490, 26560.00
600.7180, 26607.00
601.8870, 26600.00
603.0560, 26940.00
604.2250, 26756.00
605.3940, 26761.00
606.5620, 26764.00
607.7300, 26545.00
608.8990, 26695.00
610.0670, 26799.00
611.2350, 26759.00
612.4020, 26822.00
613.5700, 26928.00
614.7370, 26994.00
615.9050, 27066.00
617.0720, 27131.00
618.2390, 27176.15
619.4060, 27209.00
620.5720, 27280.00
621.7390, 27333.00
622.9050, 27432.00
624.0710, 27338.00
625.2370, 27231.00
626.4030, 27532.00
627.5690, 27225.00
628.7340, 27440.00
629.9000, 27173.00
631.0650, 27146.00
632.2300, 27370.00
633.3950, 27200.00
634.5600, 27256.00
635.7240, 27349.00
636.8890, 27192.00
638.0530, 27317.00
639.2170, 27542.00
640.3810, 27468.00
641.5450, 27801.00
642.7080, 27509.00
643.8720, 27479.00
645.0350, 27681.00
646.1980, 27473.00
647.3610, 27587.00
648.5240, 27668.00
649.6870, 27512.00
650.8490, 27747.00
652.0120, 27638.00
653.1740, 27636.00
654.3360, 27663.00
655.4980, 27488.00
656.6600, 27667.00
657.8210, 27593.02
658.9830, 27426.00
660.1440, 27661.00
661.3050, 27747.00
662.4660, 27923.00
663.6270, 27895.00
664.7870, 27776.00
665.9480, 28096.00
667.1080, 28115.00
668.2680, 28068.00
669.4280, 27887.00
670.5880, 28174.00
671.7480, 28050.00
672.9070, 27937.00
674.0670, 28095.00
675.2260, 28328.00
676.3850, 28549.00
677.5440, 28473.00
678.7030, 28684.00
679.8610, 28741.00
681.0200, 28722.00
682.1780, 28934.52
683.3360, 29027.00
684.4940, 29250.00
685.6520, 29449.00
686.8090, 29632.00
687.9670, 29654.00
689.1240, 29970.00
690.2810, 30396.00
691.4380, 30371.00
692.5950, 30624.00
693.7520, 30877.00
694.9080, 30750.00
696.0650, 30622.00
697.2210, 30506.00
698.3770, 30257.00
699.5330, 30409.00
700.6880, 30098.00
701.8440, 29897.00
702.9990, 30241.00
704.1550, 30283.00
705.3100, 29867.00
706.4650, 30161.00
707.6190, 30256.00
708.7740, 30061.00
709.9290, 29997.00
711.0830, 30179.00
712.2370, 30037.00
713.3910, 29969.00
714.5450, 30003.00
715.6980, 29745.00
716.8520, 29725.00
718.0050, 29665.00
719.1580, 29832.00
720.3110, 29958.00
721.4640, 29776.00
722.6170, 30086.00
723.7700, 30132.00
724.9220, 30192.00
726.0740, 29867.00
727.2260, 30090.00
728.3780, 29807.00
729.5300, 29811.00
730.6810, 29826.00
731.8330, 29664.00
732.9840, 29605.00
734.1350, 29650.00
735.2860, 29529.00
736.4370, 29547.10
737.5880, 29475.00
738.7380, 29536.00
739.8880, 29615.00
741.0390, 29645.00
742.1890, 29651.00
743.3380, 29683.00
744.4880, 29767.12
745.6380, 29977.00
746.7870, 29994.00
747.9360, 30142.00
749.0850, 30336.12
750.2340, 30363.00
751.3830, 30643.00
752.5310, 30615.42
753.6800, 30895.00
754.8280, 30676.00
755.9760, 30594.00
757.1240, 30732.00
758.2720, 30848.00
759.4190, 31225.00
760.5670, 31087.00
761.7140, 31155.00
762.8610, 31221.00
764.0080, 31026.00
765.1550, 31234.00
766.3020, 31098.00
767.4480, 31021.00
768.5950, 31108.00
769.7410, 31109.00
770.8870, 31118.00
772.0330, 31193.00
773.1780, 31222.00
774.3240, 31017.00
775.4690, 30841.00
776.6140, 30916.00
777.7590, 30600.00
778.9040, 30638.00
780.0490, 30626.00
781.1940, 30577.00
782.3380, 30527.00
783.4820, 30545.00
784.6260, 30701.00
785.7700, 30705.00
786.9140, 30883.00
788.0580, 30663.00
789.2010, 30886.00
790.3450, 30573.00
791.4880, 30989.00
792.6310, 30832.00
793.7730, 30501.00
794.9160, 30768.00
796.0590, 30899.00
797.2010, 30922.00
798.3430, 31027.00
799.4850, 30964.00
800.6270, 31216.00
801.7690, 31153.00
802.9100, 31063.00
804.0520, 31198.00
805.1930, 31195.03
806.3340, 31195.02
807.4750, 31309.00
808.6160, 31338.00
809.7560, 31282.00
810.8970, 31625.00
812.0370, 31643.00
813.1770, 31388.00
814.3170, 31774.00
815.4570, 31551.00
816.5960, 31491.00
817.7360, 31741.00
818.8750, 31628.00
820.0140, 31582.00
821.1530, 31780.00
822.2920, 31598.00
823.4310, 31577.00
824.5690, 31503.00
825.7070, 31702.00
826.8460, 31764.00
827.9840, 31917.00
829.1220, 31901.00
830.2590, 31773.00
831.3970, 32025.00
832.5340, 31724.00
833.6710, 31827.00
834.8080, 31779.00
835.9450, 31722.00
837.0820, 31875.00
838.2190, 31873.00
839.3550, 32102.00
840.4910, 32104.00
841.6270, 32299.00
842.7630, 32232.00
843.8990, 32425.00
845.0350, 32162.00
846.1700, 32297.00
847.3060, 32641.00
848.4410, 32362.00
849.5760, 32609.00
850.7100, 32621.00
851.8450, 32517.00
852.9800, 32555.00
854.1140, 32762.00
855.2480, 33002.00
856.3820, 32821.00
857.5160, 32636.00
858.6500, 32626.00
859.7830, 32576.96
860.9170, 32682.00
862.0500, 32656.00
863.1830, 32778.00
864.3160, 32859.00
865.4480, 32742.00
866.5810, 32908.00
867.7130, 32807.00
868.8460, 33064.00
869.9780, 32915.00
871.1100, 33052.00
872.2410, 32878.00
873.3730, 33110.00
874.5050, 33019.00
875.6360, 32941.00
876.7670, 33171.00
877.8980, 32886.00
879.0290, 33062.00
880.1590, 33369.00
881.2900, 33345.00
882.4200, 33350.00
883.5500, 33278.00
884.6800, 33379.00
885.8100, 33257.00
886.9400, 33593.00
888.0690, 33162.00
889.1990, 33385.00
890.3280, 33206.00
891.4570, 33534.00
892.5860, 33389.00
893.7140, 33590.00
894.8430, 33465.00
895.9710, 33692.00
897.1000, 33652.00
898.2280, 33692.00
899.3560, 33807.00
900.4830, 33731.00
901.6110, 33681.00
902.7380, 33647.00
903.8660, 33607.00
904.9930, 33719.00
906.1200, 33910.00
907.2460, 33926.00
908.3730, 33808.00
909.5000, 34030.00
910.6260, 33985.00
911.7520, 34234.00
912.8780, 34032.00
914.0040, 33993.00
915.1290, 34313.00
916.2550, 34231.00
917.3800, 34069.00
918.5050, 34366.00
919.6300, 34293.00
920.7550, 34286.00
921.8800, 34653.00
923.0040, 34515.00
924.1290, 34470.00
925.2530, 34610.00
926.3770, 34575.00
927.5010, 34758.00
928.6250, 34686.00
929.7480, 34652.00
930.8720, 34722.00
931.9950, 34839.00
933.1180, 34919.00
934.2410, 34682.00
935.3640, 35103.00
936.4860, 34994.00
937.6090, 34782.00
938.7310, 35076.00
939.8530, 35106.00
940.9750, 35111.00
942.0970, 35377.00
943.2180, 35181.00
944.3400, 35180.00
945.4610, 35689.00
946.5820, 35760.00
947.7030, 35806.00
948.8240, 35820.00
949.9450, 35891.00
951.0650, 35721.00
952.1860, 35896.00
953.3060, 35736.00
954.4260, 35754.00
955.5460, 35609.00
956.6650, 35712.00
957.7850, 35806.00
958.9040, 35728.00
960.0230, 35740.00
961.1420, 35987.00
962.2610, 36086.00
963.3800, 35915.00
964.4990, 35791.00
965.6170, 36095.00
966.7350, 35967.00
967.8530, 35734.00
968.9710, 36084.00
970.0890, 36147.00
971.2070, 36272.00
972.3240, 36547.00
973.4410, 36379.00
974.5580, 36506.00
975.6750, 36716.00
976.7920, 36660.00
977.9090, 36971.00
979.0250, 37130.00
980.1410, 37547.00
981.2580, 37554.00
982.3740, 38023.00
983.4890, 38383.00
984.6050, 38956.00
985.7200, 38875.00
986.8360, 39462.00
987.9510, 39399.00
989.0660, 38939.00
990.1810, 38655.00
991.2950, 38501.00
992.4100, 38122.00
993.5240, 37985.00
994.6390, 37721.00
995.7530, 37536.00
996.8660, 37377.00
997.9800, 37514.00
999.0940, 37321.00
1000.207, 37484.00
1001.320, 37427.00
1002.433, 37372.00
1003.546, 37412.24
1004.659, 37355.27
1005.772, 37358.00
1006.884, 37353.00
1007.996, 37296.78
1009.108, 37379.00
1010.220, 37424.00
1011.332, 37332.00
1012.444, 37506.00
1013.555, 37463.00
1014.666, 37561.00
1015.777, 37677.00
1016.888, 37925.00
1017.999, 37854.00
1019.110, 37764.00
1020.220, 38046.00
1021.331, 38038.00
1022.441, 37846.00
1023.551, 37881.00
1024.661, 37894.00
1025.770, 37927.00
1026.880, 38141.00
1027.989, 37877.00
1029.098, 38166.00
1030.207, 38508.00
1031.316, 38176.00
1032.425, 38345.00
1033.533, 38212.00
1034.642, 38270.00
1035.750, 38044.00
1036.858, 38165.00
1037.966, 38101.00
1039.073, 38568.00
1040.181, 38497.00
1041.288, 38575.00
1042.396, 38702.00
1043.503, 38763.00
1044.610, 38822.00
1045.716, 38792.00
1046.823, 38960.00
1047.929, 38690.00
1049.036, 38778.00
1050.142, 38884.00
1051.248, 38891.00
1052.353, 38946.80
1053.459, 38807.00
1054.564, 39041.00
1055.670, 39141.00
1056.775, 39316.00
1057.880, 39515.00
1058.985, 39436.00
1060.089, 39283.00
1061.194, 39203.00
1062.298, 39410.00
1063.402, 39507.00
1064.506, 39431.00
1065.610, 39464.00
1066.713, 39619.00
1067.817, 40053.00
1068.920, 40067.00
1070.023, 40029.00
1071.126, 40333.00
1072.229, 40219.00
1073.332, 40184.00
1074.435, 40022.00
1075.537, 40239.00
1076.639, 40262.00
1077.741, 40588.00
1078.843, 40302.00
1079.945, 40267.00
1081.046, 40625.00
1082.148, 40663.00
1083.249, 40609.00
1084.350, 40870.00
1085.451, 40853.00
1086.551, 40694.00
1087.652, 40663.00
1088.752, 40596.00
1089.853, 40661.00
1090.953, 40682.84
1092.053, 40754.31
1093.152, 40831.00
1094.252, 40975.00
1095.351, 41073.00
1096.451, 41226.00
1097.550, 40962.00
1098.649, 40998.00
1099.748, 41169.00
1100.846, 41002.00
1101.945, 41052.00
1103.043, 40950.00
1104.141, 41052.00
1105.239, 41045.00
1106.337, 40924.00
1107.434, 41093.00
1108.532, 41380.00
1109.629, 41160.00
1110.726, 41396.00
1111.823, 41294.00
1112.920, 41195.00
1114.017, 41299.00
1115.113, 41175.00
1116.210, 41292.00
1117.306, 41547.00
1118.402, 41628.00
1119.498, 41495.00
1120.593, 41721.00
1121.689, 42004.00
1122.784, 42222.00
1123.879, 41951.00
1124.974, 42067.00
1126.069, 42024.00
1127.164, 41749.00
1128.259, 41945.00
1129.353, 41685.00
1130.447, 41848.00
1131.541, 42245.00
1132.635, 41823.00
1133.729, 42200.00
1134.822, 42295.00
1135.916, 42266.00
1137.009, 42260.00
1138.102, 42278.00
1139.195, 42135.00
1140.288, 41973.00
1141.380, 42333.00
1142.473, 42425.00
1143.565, 42190.00
1144.657, 42534.00
1145.749, 42295.00
1146.841, 42454.00
1147.932, 42656.00
1149.024, 42828.00
1150.115, 42835.00
1151.206, 42734.00
1152.297, 42765.00
1153.388, 42749.00
1154.479, 42820.00
1155.569, 42715.00
1156.659, 42806.00
1157.750, 43012.00
1158.839, 42813.00
1159.929, 43189.00
1161.019, 43277.00
1162.108, 42957.00
1163.198, 43500.00
1164.287, 42963.00
1165.376, 43382.00
1166.465, 43526.00
1167.553, 43551.00
1168.642, 43779.00
1169.730, 43648.00
1170.818, 43585.00
1171.906, 43638.00
1172.994, 43959.00
1174.082, 43879.00
1175.170, 43581.00
1176.257, 43935.00
1177.344, 43908.00
1178.431, 44053.00
1179.518, 44101.00
1180.605, 44015.00
1181.691, 44025.00
1182.778, 44060.00
1183.864, 44188.00
1184.950, 44078.00
1186.036, 44386.00
1187.122, 44431.00
1188.207, 44636.00
1189.292, 44644.30
1190.378, 44584.00
1191.463, 44586.00
1192.548, 44595.00
1193.632, 44550.00
1194.717, 44379.00
1195.801, 44733.00
1196.886, 44753.00
1197.970, 44576.00
1199.054, 44575.00
1200.137, 44600.00
1201.221, 44777.00
1202.305, 44842.15
1203.388, 45130.00
1204.471, 45088.00
1205.554, 45241.00
1206.637, 45313.00
1207.719, 45377.36
1208.802, 45321.00
1209.884, 45614.00
1210.966, 45342.00
1212.048, 45559.00
1213.130, 45590.00
1214.212, 45403.00
1215.293, 45865.00
1216.374, 45937.00
1217.456, 45862.00
1218.536, 45648.00
1219.617, 45669.00
1220.698, 45499.00
1221.778, 45683.00
1222.859, 45724.38
1223.939, 45825.00
1225.019, 45962.00
1226.099, 46081.00
1227.178, 46127.00
1228.258, 46201.09
1229.337, 46285.00
1230.417, 46255.00
1231.496, 46412.00
1232.574, 46413.00
1233.653, 46564.00
1234.732, 46468.00
1235.810, 46449.00
1236.888, 46599.00
1237.966, 46487.00
1239.044, 46610.00
1240.122, 46619.00
1241.199, 46774.00
1242.277, 46900.92
1243.354, 47048.00
1244.431, 47165.00
1245.508, 47307.00
1246.585, 47327.00
1247.661, 47178.00
1248.738, 47120.00
1249.814, 47393.00
1250.890, 46837.00
1251.966, 47263.00
1253.042, 46948.00
1254.117, 47457.00
1255.193, 47627.00
1256.268, 47619.00
1257.343, 47753.00
1258.418, 47799.00
1259.493, 47863.00
1260.567, 47740.00
1261.642, 47681.00
1262.716, 47702.00
1263.790, 47591.00
1264.864, 47842.00
1265.938, 48122.00
1267.011, 48090.00
1268.085, 48087.00
1269.158, 48080.00
1270.231, 47972.00
1271.304, 48501.00
1272.377, 48162.00
1273.450, 48411.00
1274.522, 48194.00
1275.594, 48138.00
1276.666, 48164.00
1277.738, 48283.00
1278.810, 48401.00
1279.882, 48498.70
1280.953, 48563.00
1282.025, 48681.00
1283.096, 48660.00
1284.167, 48722.88
1285.238, 48645.00
1286.308, 48780.00
1287.379, 48779.00
1288.449, 48832.00
1289.519, 48859.00
1290.589, 49173.00
1291.659, 48879.00
1292.729, 49114.00
1293.798, 49489.00
1294.868, 49457.00
1295.937, 49700.00
1297.006, 49570.00
1298.075, 49683.00
1299.143, 49635.00
1300.212, 49801.00
