##NAMES=Bertrandite
##RRUFFID=R060800
##IDEAL CHEMISTRY=Be_4_Si_2_O_7_(OH)_2_
##LOCALITY=Golconda mine, Governador Valadares, Minas Gerais, Brazil
##OWNER=RRUFF
##SOURCE=Bob Jenkins
##DESCRIPTION=Colorless pseudohexagonal prisms
##STATUS=The identification of this mineral is confirmed by single-crystal X-ray diffraction and chemical analysis.
##URL=rruff.info/R060800
##MEASURED CHEMISTRY=Be_4.00_Si_2.00_O_7_(OH)_2_
##PIN_ID=M00406
##ORIENTATION=Laser parallel to b* (0 1 0). Fiducial mark perpendicular to laser is parallel to c [0 0 1]
123.0580, 11244.00
124.2880, 11101.00
125.5190, 11049.00
126.7490, 11178.00
127.9790, 11137.00
129.2090, 11256.00
130.4390, 11183.00
131.6680, 11297.00
132.8980, 11328.00
134.1270, 11464.00
135.3560, 11405.00
136.5850, 11468.00
137.8140, 11671.00
139.0430, 11643.00
140.2710, 11644.00
141.5000, 11755.00
142.7280, 11674.00
143.9560, 11842.00
145.1840, 11746.00
146.4120, 11753.00
147.6390, 11878.00
148.8670, 11896.00
150.0940, 12092.00
151.3210, 12085.00
152.5490, 12192.00
153.7750, 12305.00
155.0020, 12174.00
156.2290, 12327.00
157.4550, 12415.00
158.6810, 12615.00
159.9080, 12792.00
161.1340, 12745.00
162.3590, 12774.00
163.5850, 12774.00
164.8110, 13047.00
166.0360, 13277.00
167.2610, 13330.00
168.4860, 13583.00
169.7110, 14307.00
170.9360, 15326.00
172.1610, 17145.00
173.3850, 19386.00
174.6100, 21196.00
175.8340, 22298.00
177.0580, 23774.00
178.2820, 27156.00
179.5050, 32384.00
180.7290, 37086.00
181.9520, 38596.00
183.1760, 35261.00
184.3990, 29742.00
185.6220, 25875.00
186.8450, 23110.00
188.0670, 21063.00
189.2900, 19932.00
190.5120, 19693.00
191.7340, 20617.00
192.9560, 23151.00
194.1780, 27813.00
195.4000, 32589.00
196.6220, 34827.00
197.8430, 36864.00
199.0640, 42915.00
200.2860, 51519.00
201.5070, 61506.00
202.7270, 65535.00
203.9480, 60658.00
205.1690, 49477.00
206.3890, 39448.00
207.6090, 32597.00
208.8290, 27288.00
210.0490, 22311.00
211.2690, 19159.00
212.4890, 17195.00
213.7080, 16602.00
214.9280, 16872.00
216.1470, 17812.00
217.3660, 20227.00
218.5850, 23932.00
219.8030, 27271.00
221.0220, 29172.00
222.2400, 31858.00
223.4590, 37882.00
224.6770, 46953.00
225.8950, 55133.00
227.1120, 58889.00
228.3300, 54850.00
229.5480, 46824.00
230.7650, 38991.00
231.9820, 33254.00
233.1990, 28386.00
234.4160, 23756.00
235.6330, 20810.00
236.8490, 18897.00
238.0660, 18091.00
239.2820, 17509.00
240.4980, 16760.00
241.7140, 16444.00
242.9300, 15758.00
244.1460, 15354.00
245.3610, 14924.00
246.5770, 14726.00
247.7920, 14582.00
249.0070, 14463.00
250.2220, 14375.00
251.4370, 14116.00
252.6510, 14184.00
253.8660, 14010.00
255.0800, 14122.00
256.2940, 14072.00
257.5080, 14261.00
258.7220, 14337.00
259.9360, 14101.00
261.1490, 13933.00
262.3630, 14152.00
263.5760, 14087.00
264.7890, 14087.00
266.0020, 14130.00
267.2150, 14043.00
268.4270, 14019.00
269.6400, 14028.00
270.8520, 14109.00
272.0640, 14055.00
273.2760, 14032.00
274.4880, 14101.00
275.7000, 14071.00
276.9120, 14119.00
278.1230, 14200.00
279.3340, 14045.00
280.5450, 14134.00
281.7560, 14292.00
282.9670, 14201.00
284.1780, 14426.00
285.3880, 14594.00
286.5980, 14875.00
287.8090, 15098.00
289.0190, 15434.00
290.2290, 15754.00
291.4380, 15765.00
292.6480, 16140.00
293.8570, 16877.00
295.0670, 17212.00
296.2760, 17938.00
297.4850, 17638.00
298.6930, 17114.00
299.9020, 16242.00
301.1110, 15630.00
302.3190, 15546.00
303.5270, 14992.00
304.7350, 14824.00
305.9430, 14819.00
307.1510, 14581.00
308.3580, 14610.00
309.5660, 14567.00
310.7730, 14329.00
311.9800, 14669.00
313.1870, 14547.00
314.3940, 14583.00
315.6010, 14610.00
316.8070, 14549.00
318.0130, 14523.00
319.2200, 14646.00
320.4260, 14533.00
321.6310, 14682.00
322.8370, 14789.00
324.0430, 14566.00
325.2480, 14565.00
326.4540, 14737.00
327.6590, 14692.00
328.8640, 14708.00
330.0680, 14763.00
331.2730, 14823.00
332.4780, 14848.00
333.6820, 14745.00
334.8860, 14877.00
336.0900, 14852.00
337.2940, 14924.00
338.4980, 14985.00
339.7010, 15057.00
340.9050, 15089.00
342.1080, 15139.00
343.3110, 15089.00
344.5140, 15370.00
345.7170, 15369.00
346.9200, 15678.00
348.1220, 16187.00
349.3240, 16608.00
350.5270, 16880.00
351.7290, 17106.00
352.9310, 17621.00
354.1320, 18444.00
355.3340, 19188.00
356.5350, 19265.00
357.7370, 18648.00
358.9380, 17765.00
360.1390, 16978.00
361.3400, 16449.00
362.5400, 16111.00
363.7410, 15675.00
364.9410, 15475.00
366.1410, 15463.00
367.3410, 15421.00
368.5410, 15269.00
369.7410, 15322.28
370.9400, 15313.00
372.1400, 15369.00
373.3390, 15375.00
374.5380, 15435.00
375.7370, 15510.00
376.9360, 15628.00
378.1350, 15743.71
379.3330, 15799.00
380.5310, 16062.00
381.7300, 16150.00
382.9280, 16379.00
384.1260, 16517.00
385.3230, 16443.00
386.5210, 16436.00
387.7180, 16223.00
388.9160, 16043.00
390.1130, 15890.00
391.3100, 15971.00
392.5060, 15623.00
393.7030, 15754.00
394.9000, 15552.00
396.0960, 15666.00
397.2920, 15566.00
398.4880, 15609.00
399.6840, 15634.00
400.8800, 15550.00
402.0750, 15518.00
403.2710, 15717.00
404.4660, 15885.00
405.6610, 15783.00
406.8560, 15802.00
408.0510, 15724.00
409.2450, 15779.28
410.4400, 15997.00
411.6340, 15955.00
412.8280, 16082.00
414.0220, 16276.00
415.2160, 16290.00
416.4100, 16287.00
417.6030, 16411.00
418.7970, 16341.00
419.9900, 16450.00
421.1830, 16221.00
422.3760, 16085.00
423.5690, 16267.00
424.7610, 16390.00
425.9540, 16221.00
427.1460, 16203.00
428.3380, 16281.00
429.5300, 16243.00
430.7220, 16284.00
431.9140, 16435.00
433.1050, 16510.00
434.2970, 16751.00
435.4880, 16555.00
436.6790, 16710.00
437.8700, 16789.00
439.0610, 16660.00
440.2510, 16626.00
441.4420, 16474.00
442.6320, 16403.00
443.8220, 16205.00
445.0120, 16324.00
446.2020, 16237.00
447.3910, 16266.00
448.5810, 16100.00
449.7700, 16189.00
450.9600, 16399.00
452.1490, 16168.00
453.3370, 16237.00
454.5260, 16329.00
455.7150, 16302.00
456.9030, 16367.00
458.0910, 16213.00
459.2800, 16381.00
460.4670, 16413.00
461.6550, 16234.00
462.8430, 16329.00
464.0300, 16316.00
465.2180, 16483.00
466.4050, 16420.00
467.5920, 16430.00
468.7790, 16355.00
469.9650, 16385.00
471.1520, 16505.00
472.3380, 16502.00
473.5250, 16536.00
474.7110, 16377.00
475.8970, 16445.00
477.0820, 16528.00
478.2680, 16690.00
479.4540, 16621.00
480.6390, 16653.00
481.8240, 16571.00
483.0090, 16527.00
484.1940, 16759.00
485.3780, 16583.00
486.5630, 16665.00
487.7470, 16760.00
488.9320, 16767.00
490.1160, 16834.00
491.3000, 16857.00
492.4830, 16917.00
493.6670, 17034.00
494.8500, 16799.00
496.0340, 16922.00
497.2170, 16892.00
498.4000, 17038.00
499.5820, 17040.00
500.7650, 16963.00
501.9480, 16958.00
503.1300, 16973.00
504.3120, 16997.00
505.4940, 17032.00
506.6760, 17102.00
507.8580, 16996.00
509.0390, 17121.00
510.2210, 16981.00
511.4020, 17067.00
512.5830, 17086.00
513.7640, 17061.00
514.9450, 17113.32
516.1250, 17311.00
517.3060, 17212.00
518.4860, 17220.00
519.6660, 17403.00
520.8460, 17288.00
522.0260, 17372.00
523.2060, 17519.00
524.3850, 17501.00
525.5650, 17685.00
526.7440, 17728.00
527.9230, 18104.00
529.1020, 18294.00
530.2810, 18683.00
531.4590, 18981.00
532.6380, 19677.00
533.8160, 19955.00
534.9940, 20402.00
536.1720, 20252.00
537.3500, 19797.00
538.5270, 19260.00
539.7050, 18830.00
540.8820, 18440.00
542.0590, 18108.00
543.2360, 18017.00
544.4130, 17876.00
545.5900, 17900.00
546.7660, 17940.00
547.9430, 17778.00
549.1190, 17739.00
550.2950, 17766.00
551.4710, 17874.00
552.6470, 17760.00
553.8220, 17807.00
554.9980, 17716.00
556.1730, 17690.00
557.3480, 17731.00
558.5230, 17901.00
559.6980, 17765.00
560.8730, 17959.00
562.0470, 17945.00
563.2220, 17834.00
564.3960, 17907.00
565.5700, 17929.00
566.7440, 18142.00
567.9170, 18152.00
569.0910, 18097.00
570.2640, 18141.00
571.4380, 18134.00
572.6110, 18326.00
573.7840, 18269.00
574.9570, 18292.00
576.1290, 18235.00
577.3020, 18342.00
578.4740, 18418.00
579.6460, 18324.00
580.8180, 18214.00
581.9900, 18262.00
583.1620, 18175.00
584.3330, 18298.00
585.5040, 18328.00
586.6760, 18377.00
587.8470, 18383.00
589.0180, 18363.00
590.1880, 18512.00
591.3590, 18559.00
592.5290, 18386.00
593.7000, 18598.00
594.8700, 18630.00
596.0400, 18691.00
597.2090, 18544.00
598.3790, 18679.00
599.5490, 18622.00
600.7180, 18851.00
601.8870, 18770.00
603.0560, 18728.00
604.2250, 18514.00
605.3940, 18775.00
606.5620, 18781.00
607.7300, 18888.00
608.8990, 18672.00
610.0670, 18627.00
611.2350, 18653.00
612.4020, 18965.00
613.5700, 18826.00
614.7370, 18789.00
615.9050, 18805.00
617.0720, 18711.00
618.2390, 18870.00
619.4060, 18892.00
620.5720, 18768.00
621.7390, 18999.00
622.9050, 18963.00
624.0710, 18969.00
625.2370, 18917.00
626.4030, 18865.00
627.5690, 19021.00
628.7340, 18996.00
629.9000, 19075.00
631.0650, 18992.00
632.2300, 18918.00
633.3950, 19113.00
634.5600, 19005.00
635.7240, 18934.00
636.8890, 19224.00
638.0530, 19185.00
639.2170, 19202.00
640.3810, 19197.00
641.5450, 19224.00
642.7080, 19245.72
643.8720, 19286.00
645.0350, 19324.00
646.1980, 19224.00
647.3610, 19293.00
648.5240, 19216.00
649.6870, 19191.00
650.8490, 19199.61
652.0120, 19175.74
653.1740, 19220.00
654.3360, 19239.00
655.4980, 19338.00
656.6600, 19487.00
657.8210, 19493.00
658.9830, 19485.00
660.1440, 19461.00
661.3050, 19540.00
662.4660, 19684.00
663.6270, 19442.00
664.7870, 19613.00
665.9480, 19682.00
667.1080, 19622.00
668.2680, 19643.00
669.4280, 19702.00
670.5880, 19800.00
671.7480, 19945.00
672.9070, 20037.84
674.0670, 20204.00
675.2260, 20320.00
676.3850, 20629.00
677.5440, 20865.00
678.7030, 21120.00
679.8610, 21498.00
681.0200, 22052.00
682.1780, 22415.00
683.3360, 23058.00
684.4940, 23775.00
685.6520, 24293.00
686.8090, 24939.00
687.9670, 25267.00
689.1240, 25439.00
690.2810, 25304.00
691.4380, 24951.00
692.5950, 24660.00
693.7520, 24312.00
694.9080, 24151.00
696.0650, 24203.00
697.2210, 24298.00
698.3770, 24603.00
699.5330, 25344.00
700.6880, 26143.00
701.8440, 27403.00
702.9990, 29225.00
704.1550, 31074.00
705.3100, 32958.00
706.4650, 35152.00
707.6190, 37159.00
708.7740, 38837.00
709.9290, 39491.00
711.0830, 38991.00
712.2370, 37435.00
713.3910, 35228.00
714.5450, 32549.00
715.6980, 30542.00
716.8520, 28415.00
718.0050, 26707.00
719.1580, 25555.00
720.3110, 24617.00
721.4640, 23779.00
722.6170, 23141.00
723.7700, 22843.00
724.9220, 22387.00
726.0740, 22271.00
727.2260, 21881.00
728.3780, 21693.00
729.5300, 21680.00
730.6810, 21469.00
731.8330, 21471.00
732.9840, 21393.00
734.1350, 21510.00
735.2860, 21405.00
736.4370, 21479.00
737.5880, 21297.00
738.7380, 21160.00
739.8880, 21337.00
741.0390, 21341.00
742.1890, 21512.00
743.3380, 21639.00
744.4880, 21667.00
745.6380, 21880.00
746.7870, 21978.00
747.9360, 22188.00
749.0850, 22725.00
750.2340, 22764.00
751.3830, 23180.00
752.5310, 23453.00
753.6800, 23294.00
754.8280, 23140.00
755.9760, 22975.00
757.1240, 22637.00
758.2720, 22436.00
759.4190, 22206.00
760.5670, 22038.00
761.7140, 21919.00
762.8610, 21906.00
764.0080, 21843.00
765.1550, 21919.00
766.3020, 22007.00
767.4480, 22057.00
768.5950, 22204.00
769.7410, 22203.00
770.8870, 22164.00
772.0330, 22240.00
773.1780, 22029.00
774.3240, 21865.00
775.4690, 21818.00
776.6140, 21682.00
777.7590, 21756.00
778.9040, 21678.00
780.0490, 21397.00
781.1940, 21698.00
782.3380, 21452.00
783.4820, 21436.00
784.6260, 21504.00
785.7700, 21624.00
786.9140, 21477.00
788.0580, 21484.00
789.2010, 21503.00
790.3450, 21591.00
791.4880, 21608.11
792.6310, 21633.00
793.7730, 21665.00
794.9160, 21682.00
796.0590, 21631.00
797.2010, 21621.00
798.3430, 21792.00
799.4850, 21711.00
800.6270, 21860.00
801.7690, 21895.00
802.9100, 21785.00
804.0520, 21970.00
805.1930, 22027.00
806.3340, 22249.00
807.4750, 22542.00
808.6160, 22507.00
809.7560, 22848.00
810.8970, 23177.00
812.0370, 23769.00
813.1770, 24373.00
814.3170, 25005.00
815.4570, 25736.00
816.5960, 26410.00
817.7360, 27229.00
818.8750, 27469.00
820.0140, 27486.00
821.1530, 27158.00
822.2920, 26315.00
823.4310, 25489.00
824.5690, 24982.00
825.7070, 24325.00
826.8460, 23582.00
827.9840, 23292.00
829.1220, 23002.00
830.2590, 22742.00
831.3970, 22763.00
832.5340, 22579.00
833.6710, 22560.00
834.8080, 22520.00
835.9450, 22421.00
837.0820, 22270.00
838.2190, 22288.00
839.3550, 22240.00
840.4910, 22403.00
841.6270, 22326.00
842.7630, 22346.00
843.8990, 22433.00
845.0350, 22312.00
846.1700, 22299.00
847.3060, 22218.00
848.4410, 22484.00
849.5760, 22246.00
850.7100, 22490.00
851.8450, 22186.00
852.9800, 22276.00
854.1140, 22391.00
855.2480, 22549.00
856.3820, 22540.00
857.5160, 22466.00
858.6500, 22391.00
859.7830, 22309.00
860.9170, 22607.00
862.0500, 22451.00
863.1830, 22752.00
864.3160, 22491.00
865.4480, 22489.00
866.5810, 22622.00
867.7130, 22558.00
868.8460, 22728.00
869.9780, 22733.00
871.1100, 22577.00
872.2410, 22600.00
873.3730, 22512.00
874.5050, 22757.00
875.6360, 22693.00
876.7670, 22750.00
877.8980, 22892.00
879.0290, 22838.00
880.1590, 22910.93
881.2900, 23006.00
882.4200, 22890.00
883.5500, 23087.00
884.6800, 22961.00
885.8100, 23113.00
886.9400, 22900.00
888.0690, 22939.00
889.1990, 22969.00
890.3280, 23215.00
891.4570, 22922.00
892.5860, 23076.00
893.7140, 23277.00
894.8430, 23114.00
895.9710, 23246.00
897.1000, 23279.00
898.2280, 23428.00
899.3560, 23410.00
900.4830, 23572.00
901.6110, 23788.00
902.7380, 23772.00
903.8660, 23687.00
904.9930, 23809.00
906.1200, 23905.00
907.2460, 24024.00
908.3730, 24370.00
909.5000, 24507.00
910.6260, 24709.00
911.7520, 25081.00
912.8780, 25608.00
914.0040, 26059.00
915.1290, 27308.00
916.2550, 28350.00
917.3800, 30030.00
918.5050, 32884.00
919.6300, 36924.00
920.7550, 41111.00
921.8800, 46216.00
923.0040, 51524.00
924.1290, 55570.00
925.2530, 57724.00
926.3770, 55458.00
927.5010, 50167.00
928.6250, 44583.00
929.7480, 39412.00
930.8720, 35091.00
931.9950, 32084.00
933.1180, 29637.00
934.2410, 28132.00
935.3640, 27046.00
936.4860, 26332.00
937.6090, 26075.00
938.7310, 25731.00
939.8530, 25151.00
940.9750, 25010.00
942.0970, 24959.00
943.2180, 24550.00
944.3400, 24579.00
945.4610, 24635.00
946.5820, 24430.00
947.7030, 24403.00
948.8240, 24502.00
949.9450, 24423.00
951.0650, 24425.00
952.1860, 24657.00
953.3060, 24307.00
954.4260, 24462.00
955.5460, 24283.00
956.6650, 24248.00
957.7850, 24491.00
958.9040, 24554.00
960.0230, 24834.00
961.1420, 24492.00
962.2610, 24724.00
963.3800, 24795.00
964.4990, 24834.00
965.6170, 24866.00
966.7350, 24781.00
967.8530, 25127.00
968.9710, 25107.00
970.0890, 25443.00
971.2070, 25652.00
972.3240, 25983.00
973.4410, 26367.00
974.5580, 26814.00
975.6750, 27066.00
976.7920, 28065.00
977.9090, 28822.00
979.0250, 29892.00
980.1410, 31229.00
981.2580, 33191.00
982.3740, 35213.00
983.4890, 37084.00
984.6050, 39006.00
985.7200, 40407.00
986.8360, 40801.00
987.9510, 40558.00
989.0660, 39018.00
990.1810, 37252.00
991.2950, 35138.00
992.4100, 33129.00
993.5240, 31438.00
994.6390, 30160.00
995.7530, 28975.00
996.8660, 28445.00
997.9800, 27542.00
999.0940, 26980.00
1000.207, 26723.00
1001.320, 26411.00
1002.433, 26170.00
1003.546, 25833.00
1004.659, 25728.00
1005.772, 25408.00
1006.884, 25291.00
1007.996, 25227.00
1009.108, 25160.00
1010.220, 25242.00
1011.332, 25289.00
1012.444, 25113.00
1013.555, 25046.00
1014.666, 25162.00
1015.777, 25061.00
1016.888, 25025.00
1017.999, 24888.00
1019.110, 24919.54
1020.220, 25014.00
1021.331, 25048.00
1022.441, 25015.00
1023.551, 25043.73
1024.661, 25110.00
1025.770, 25034.00
1026.880, 24904.00
1027.989, 24941.00
1029.098, 24997.00
1030.207, 24939.00
1031.316, 24762.00
1032.425, 24811.00
1033.533, 24955.00
1034.642, 24999.00
1035.750, 24792.00
1036.858, 25036.00
1037.966, 24822.00
1039.073, 24753.00
1040.181, 24873.00
1041.288, 24932.00
1042.396, 24913.87
1043.503, 24986.00
1044.610, 24865.00
1045.716, 24855.00
1046.823, 24704.00
1047.929, 24855.00
1049.036, 25044.00
1050.142, 24989.00
1051.248, 24841.00
1052.353, 24988.00
1053.459, 24981.00
1054.564, 25080.00
1055.670, 24796.00
1056.775, 24916.00
1057.880, 24911.00
1058.985, 24800.00
1060.089, 24989.00
1061.194, 25080.00
1062.298, 25100.00
1063.402, 25080.00
1064.506, 25121.00
1065.610, 25206.00
1066.713, 25269.00
1067.817, 25135.00
1068.920, 24995.00
1070.023, 25075.00
1071.126, 24993.00
1072.229, 25240.00
1073.332, 25198.00
1074.435, 25022.00
1075.537, 25172.00
1076.639, 25115.00
1077.741, 25068.00
1078.843, 25199.00
1079.945, 25193.35
1081.046, 25342.00
1082.148, 25295.00
1083.249, 25354.00
1084.350, 25327.00
1085.451, 25354.00
1086.551, 25218.00
1087.652, 25187.00
1088.752, 25421.00
1089.853, 25479.00
1090.953, 25295.00
1092.053, 25174.00
1093.152, 25179.00
1094.252, 25207.00
1095.351, 25526.00
1096.451, 25528.00
1097.550, 25565.00
1098.649, 25495.00
1099.748, 25440.00
1100.846, 25436.00
1101.945, 25416.00
1103.043, 25510.00
1104.141, 25652.00
1105.239, 25379.00
1106.337, 25507.00
1107.434, 25652.00
1108.532, 25494.00
1109.629, 25615.00
1110.726, 25508.00
1111.823, 25619.00
1112.920, 25573.00
1114.017, 25653.00
1115.113, 25768.00
1116.210, 25809.00
1117.306, 25751.00
1118.402, 25771.00
1119.498, 25665.00
1120.593, 25722.00
1121.689, 26006.00
1122.784, 26189.00
1123.879, 26219.00
1124.974, 25963.00
1126.069, 25862.00
1127.164, 25850.00
1128.259, 25904.00
1129.353, 25879.00
1130.447, 25632.00
1131.541, 25775.00
1132.635, 25927.00
1133.729, 25728.00
1134.822, 25845.00
1135.916, 25890.00
1137.009, 26015.00
1138.102, 25975.00
1139.195, 26025.08
1140.288, 25812.00
1141.380, 26000.00
1142.473, 26005.00
1143.565, 25912.00
1144.657, 26138.00
1145.749, 26191.00
1146.841, 25949.00
1147.932, 25712.00
1149.024, 25864.00
1150.115, 26091.00
1151.206, 26033.00
1152.297, 26328.00
1153.388, 26140.00
1154.479, 26218.00
1155.569, 26018.00
1156.659, 26113.00
1157.750, 26197.00
1158.839, 26323.00
1159.929, 26285.00
1161.019, 26341.00
1162.108, 26332.00
1163.198, 26393.00
1164.287, 26344.00
1165.376, 26483.00
1166.465, 26371.00
1167.553, 26611.00
1168.642, 26292.00
1169.730, 26423.00
1170.818, 26489.00
1171.906, 26170.00
1172.994, 26257.00
1174.082, 26425.00
1175.170, 26434.00
1176.257, 26540.00
1177.344, 26571.13
1178.431, 26433.00
1179.518, 26543.00
1180.605, 26553.00
1181.691, 26406.00
1182.778, 26316.00
1183.864, 26400.00
1184.950, 26530.00
1186.036, 26547.00
1187.122, 26594.00
1188.207, 26622.19
1189.292, 26651.00
1190.378, 26635.00
1191.463, 26558.00
1192.548, 26572.00
1193.632, 26915.00
1194.717, 26501.00
1195.801, 26839.00
1196.886, 26558.00
1197.970, 26701.00
1199.054, 26718.00
1200.137, 26746.00
1201.221, 26873.00
1202.305, 26885.00
1203.388, 26650.00
1204.471, 26812.00
1205.554, 26485.00
1206.637, 26658.00
1207.719, 26668.00
1208.802, 26799.00
1209.884, 26882.00
1210.966, 26910.00
1212.048, 26708.00
1213.130, 26984.00
1214.212, 26865.00
1215.293, 26745.00
1216.374, 26896.00
1217.456, 26936.00
1218.536, 26900.00
1219.617, 26929.00
1220.698, 26805.00
1221.778, 27123.00
1222.859, 27000.00
1223.939, 26970.00
1225.019, 26858.00
1226.099, 26967.00
1227.178, 26938.38
1228.258, 26964.61
1229.337, 27016.00
1230.417, 27003.00
1231.496, 27048.00
1232.574, 26985.00
1233.653, 27056.52
1234.732, 26982.00
1235.810, 27109.00
1236.888, 27208.00
1237.966, 27118.00
1239.044, 27234.00
1240.122, 27185.00
1241.199, 27210.00
1242.277, 27185.00
1243.354, 27154.00
1244.431, 27254.00
1245.508, 27101.00
1246.585, 27267.00
1247.661, 27346.00
1248.738, 27307.00
1249.814, 27222.00
1250.890, 27354.00
1251.966, 27207.00
1253.042, 27050.00
1254.117, 27444.00
1255.193, 27324.00
1256.268, 27285.00
1257.343, 27195.00
1258.418, 27355.00
1259.493, 27437.00
1260.567, 27407.00
1261.642, 27316.00
1262.716, 27507.00
1263.790, 27429.00
1264.864, 27472.00
1265.938, 27402.00
1267.011, 27687.00
1268.085, 27606.00
1269.158, 27487.00
1270.231, 27666.00
1271.304, 27501.00
1272.377, 27212.00
1273.450, 27644.00
1274.522, 27457.00
1275.594, 27492.00
1276.666, 27656.00
1277.738, 27598.00
1278.810, 27578.00
1279.882, 27770.00
1280.953, 27771.00
1282.025, 27601.00
1283.096, 27687.00
1284.167, 27678.00
1285.238, 27666.00
1286.308, 27451.00
1287.379, 27453.00
1288.449, 27439.00
1289.519, 27676.00
1290.589, 27716.00
1291.659, 27723.00
1292.729, 27776.00
1293.798, 27781.00
1294.868, 27713.00
1295.937, 27750.00
1297.006, 27839.00
1298.075, 27708.00
1299.143, 27748.00
1300.212, 27898.00
