##NAMES=Bertrandite
##RRUFFID=R060800
##IDEAL CHEMISTRY=Be_4_Si_2_O_7_(OH)_2_
##LOCALITY=Golconda mine, Governador Valadares, Minas Gerais, Brazil
##OWNER=RRUFF
##SOURCE=Bob Jenkins
##DESCRIPTION=Colorless pseudohexagonal prisms
##STATUS=The identification of this mineral is confirmed by single-crystal X-ray diffraction and chemical analysis.
##URL=rruff.info/R060800
##MEASURED CHEMISTRY=Be_4.00_Si_2.00_O_7_(OH)_2_
##PIN_ID=M00454
##ORIENTATION=Laser parallel to a* (1 0 0). Fiducial mark perpendicular to laser is parallel to b [0 1 0]
123.0580, 5771.000
124.2880, 5827.000
125.5190, 5922.000
126.7490, 5816.000
127.9790, 6048.000
129.2090, 5960.000
130.4390, 6136.000
131.6680, 6049.000
132.8980, 6085.000
134.1270, 6149.000
135.3560, 6169.000
136.5850, 6276.000
137.8140, 6352.000
139.0430, 6336.000
140.2710, 6508.000
141.5000, 6511.000
142.7280, 6440.000
143.9560, 6486.000
145.1840, 6528.000
146.4120, 6566.000
147.6390, 6585.885
148.8670, 6622.363
150.0940, 6581.000
151.3210, 6655.000
152.5490, 6586.000
153.7750, 6543.000
155.0020, 6709.000
156.2290, 6641.000
157.4550, 6730.000
158.6810, 6732.000
159.9080, 6841.000
161.1340, 6891.000
162.3590, 6959.000
163.5850, 7043.000
164.8110, 7196.000
166.0360, 7246.000
167.2610, 7508.000
168.4860, 7832.000
169.7110, 8351.000
170.9360, 9271.000
172.1610, 10801.00
173.3850, 13041.00
174.6100, 14743.00
175.8340, 15724.00
177.0580, 18196.00
178.2820, 23279.00
179.5050, 29039.00
180.7290, 33801.00
181.9520, 33973.00
183.1760, 30771.00
184.3990, 27044.00
185.6220, 24517.00
186.8450, 21253.00
188.0670, 18049.00
189.2900, 14927.00
190.5120, 13324.00
191.7340, 13259.00
192.9560, 15165.00
194.1780, 18779.00
195.4000, 23573.00
196.6220, 26025.00
197.8430, 28580.00
199.0640, 36521.00
200.2860, 48487.00
201.5070, 59634.00
202.7270, 64735.00
203.9480, 59545.00
205.1690, 51023.00
206.3890, 44702.00
207.6090, 37859.00
208.8290, 29932.00
210.0490, 22067.00
211.2690, 15956.00
212.4890, 12458.00
213.7080, 11050.00
214.9280, 10684.00
216.1470, 11436.00
217.3660, 13062.00
218.5850, 16573.00
219.8030, 20305.00
221.0220, 22716.00
222.2400, 25061.00
223.4590, 32048.00
224.6770, 43550.00
225.8950, 54318.00
227.1120, 59038.00
228.3300, 54542.00
229.5480, 47423.00
230.7650, 41998.00
231.9820, 36150.00
233.1990, 29001.00
234.4160, 22242.00
235.6330, 16708.00
236.8490, 13991.00
238.0660, 12662.00
239.2820, 11779.00
240.4980, 10967.00
241.7140, 10573.00
242.9300, 9963.000
244.1460, 9548.000
245.3610, 9359.000
246.5770, 9124.000
247.7920, 8708.000
249.0070, 8463.000
250.2220, 8214.000
251.4370, 8143.000
252.6510, 8103.000
253.8660, 8023.000
255.0800, 7959.000
256.2940, 7984.000
257.5080, 8132.000
258.7220, 8149.000
259.9360, 8067.000
261.1490, 8011.000
262.3630, 7866.000
263.5760, 7833.000
264.7890, 7803.000
266.0020, 7836.000
267.2150, 7799.000
268.4270, 7784.314
269.6400, 7793.775
270.8520, 7758.000
272.0640, 7789.000
273.2760, 7834.000
274.4880, 7824.000
275.7000, 7827.306
276.9120, 7848.000
278.1230, 7797.000
279.3340, 7832.000
280.5450, 7832.000
281.7560, 7851.000
282.9670, 7943.000
284.1780, 7934.000
285.3880, 7928.000
286.5980, 8158.000
287.8090, 8341.000
289.0190, 8795.000
290.2290, 9073.000
291.4380, 9384.000
292.6480, 9679.000
293.8570, 10559.00
295.0670, 11526.00
296.2760, 12149.00
297.4850, 12080.00
298.6930, 11328.00
299.9020, 10767.00
301.1110, 10359.00
302.3190, 9707.000
303.5270, 9204.000
304.7350, 8573.000
305.9430, 8337.000
307.1510, 8244.000
308.3580, 8162.000
309.5660, 8194.000
310.7730, 8068.000
311.9800, 8135.000
313.1870, 8093.000
314.3940, 8057.000
315.6010, 8108.000
316.8070, 8030.000
318.0130, 8081.000
319.2200, 8151.000
320.4260, 8055.000
321.6310, 8185.000
322.8370, 8179.000
324.0430, 8056.000
325.2480, 8213.000
326.4540, 8291.000
327.6590, 8078.000
328.8640, 8280.000
330.0680, 8161.000
331.2730, 8324.000
332.4780, 8318.000
333.6820, 8403.000
334.8860, 8324.000
336.0900, 8339.000
337.2940, 8373.000
338.4980, 8497.000
339.7010, 8495.000
340.9050, 8439.000
342.1080, 8564.000
343.3110, 8572.000
344.5140, 8627.000
345.7170, 8904.000
346.9200, 9007.000
348.1220, 9513.000
349.3240, 9993.000
350.5270, 10240.00
351.7290, 10646.00
352.9310, 11160.00
354.1320, 12106.00
355.3340, 13069.00
356.5350, 13037.00
357.7370, 12428.00
358.9380, 11724.00
360.1390, 11221.00
361.3400, 10566.00
362.5400, 9932.000
363.7410, 9296.000
364.9410, 8915.000
366.1410, 8762.000
367.3410, 8619.000
368.5410, 8585.000
369.7410, 8555.000
370.9400, 8494.000
372.1400, 8520.000
373.3390, 8587.000
374.5380, 8752.000
375.7370, 8686.000
376.9360, 8906.000
378.1350, 8984.000
379.3330, 9077.000
380.5310, 9325.000
381.7300, 9434.000
382.9280, 9525.000
384.1260, 9671.000
385.3230, 9681.995
386.5210, 9677.455
387.7180, 9626.000
388.9160, 9524.000
390.1130, 9301.000
391.3100, 9118.000
392.5060, 9022.000
393.7030, 8875.319
394.9000, 8753.000
396.0960, 8695.000
397.2920, 8667.000
398.4880, 8610.000
399.6840, 8619.632
400.8800, 8604.000
402.0750, 8691.000
403.2710, 8622.000
404.4660, 8745.000
405.6610, 8833.000
406.8560, 8805.000
408.0510, 8913.000
409.2450, 8879.000
410.4400, 8966.000
411.6340, 9184.000
412.8280, 9169.000
414.0220, 9209.000
415.2160, 9316.000
416.4100, 9263.000
417.6030, 9399.000
418.7970, 9437.000
419.9900, 9370.000
421.1830, 9290.000
422.3760, 9259.000
423.5690, 9269.000
424.7610, 9204.000
425.9540, 9219.000
427.1460, 9147.000
428.3380, 9279.000
429.5300, 9217.000
430.7220, 9364.000
431.9140, 9340.000
433.1050, 9496.000
434.2970, 9468.000
435.4880, 9648.000
436.6790, 9750.000
437.8700, 9895.000
439.0610, 9778.000
440.2510, 9761.040
441.4420, 9527.000
442.6320, 9510.000
443.8220, 9317.000
445.0120, 9162.000
446.2020, 9109.000
447.3910, 9079.000
448.5810, 9035.000
449.7700, 8997.000
450.9600, 9043.000
452.1490, 9021.000
453.3370, 8925.000
454.5260, 9015.000
455.7150, 9011.000
456.9030, 9054.000
458.0910, 8996.000
459.2800, 9007.000
460.4670, 9020.000
461.6550, 9087.000
462.8430, 9110.000
464.0300, 9128.000
465.2180, 9158.978
466.4050, 9149.000
467.5920, 9175.000
468.7790, 9024.000
469.9650, 8986.000
471.1520, 9081.000
472.3380, 9029.000
473.5250, 9156.000
474.7110, 9065.000
475.8970, 8991.000
477.0820, 9229.000
478.2680, 9185.000
479.4540, 9188.000
480.6390, 9191.000
481.8240, 9241.000
483.0090, 9162.000
484.1940, 9163.000
485.3780, 9224.000
486.5630, 9355.000
487.7470, 9449.000
488.9320, 9416.000
490.1160, 9272.000
491.3000, 9397.000
492.4830, 9370.000
493.6670, 9391.000
494.8500, 9477.000
496.0340, 9388.000
497.2170, 9432.000
498.4000, 9461.000
499.5820, 9558.000
500.7650, 9446.000
501.9480, 9428.000
503.1300, 9543.000
504.3120, 9492.000
505.4940, 9520.000
506.6760, 9385.000
507.8580, 9393.000
509.0390, 9374.000
510.2210, 9352.287
511.4020, 9408.054
512.5830, 9399.000
513.7640, 9481.000
514.9450, 9558.000
516.1250, 9516.000
517.3060, 9514.000
518.4860, 9613.000
519.6660, 9558.000
520.8460, 9624.000
522.0260, 9681.000
523.2060, 9718.361
524.3850, 9718.000
525.5650, 9899.000
526.7440, 10039.00
527.9230, 10219.00
529.1020, 10603.00
530.2810, 10775.00
531.4590, 11210.00
532.6380, 11666.00
533.8160, 12445.00
534.9940, 12861.00
536.1720, 13016.00
537.3500, 12551.00
538.5270, 12051.00
539.7050, 11656.00
540.8820, 11138.00
542.0590, 10740.00
543.2360, 10331.00
544.4130, 10214.00
545.5900, 10060.00
546.7660, 10067.00
547.9430, 9928.000
549.1190, 9895.000
550.2950, 10016.00
551.4710, 9915.000
552.6470, 9856.000
553.8220, 9824.000
554.9980, 9924.000
556.1730, 10053.00
557.3480, 9881.000
558.5230, 9960.000
559.6980, 9871.000
560.8730, 9966.000
562.0470, 9974.000
563.2220, 10082.00
564.3960, 10105.00
565.5700, 10131.00
566.7440, 10206.00
567.9170, 10195.80
569.0910, 10157.00
570.2640, 10220.00
571.4380, 10389.00
572.6110, 10448.18
573.7840, 10422.00
574.9570, 10543.00
576.1290, 10470.00
577.3020, 10438.00
578.4740, 10361.00
579.6460, 10312.00
580.8180, 10370.00
581.9900, 10279.00
583.1620, 10166.00
584.3330, 10320.00
585.5040, 10278.00
586.6760, 10221.00
587.8470, 10335.00
589.0180, 10491.00
590.1880, 10449.00
591.3590, 10527.66
592.5290, 10560.00
593.7000, 10554.00
594.8700, 10547.00
596.0400, 10574.00
597.2090, 10650.00
598.3790, 10626.00
599.5490, 10585.00
600.7180, 10689.00
601.8870, 10637.83
603.0560, 10640.17
604.2250, 10678.00
605.3940, 10576.00
606.5620, 10693.00
607.7300, 10619.00
608.8990, 10677.00
610.0670, 10595.00
611.2350, 10671.00
612.4020, 10566.00
613.5700, 10719.00
614.7370, 10580.00
615.9050, 10472.00
617.0720, 10679.00
618.2390, 10616.00
619.4060, 10605.00
620.5720, 10628.00
621.7390, 10685.00
622.9050, 10728.00
624.0710, 10617.00
625.2370, 10586.00
626.4030, 10580.00
627.5690, 10578.00
628.7340, 10650.00
629.9000, 10598.00
631.0650, 10763.00
632.2300, 10661.00
633.3950, 10872.00
634.5600, 10750.00
635.7240, 10688.00
636.8890, 10821.00
638.0530, 10819.00
639.2170, 10728.00
640.3810, 10850.00
641.5450, 10796.00
642.7080, 10820.00
643.8720, 10784.00
645.0350, 10675.00
646.1980, 10791.00
647.3610, 10720.00
648.5240, 10848.00
649.6870, 10842.00
650.8490, 10908.00
652.0120, 10913.00
653.1740, 10808.00
654.3360, 10818.00
655.4980, 10805.00
656.6600, 10946.00
657.8210, 10972.00
658.9830, 10851.00
660.1440, 11091.00
661.3050, 10998.00
662.4660, 10921.00
663.6270, 11035.00
664.7870, 11009.00
665.9480, 11119.00
667.1080, 11108.00
668.2680, 11174.00
669.4280, 11130.00
670.5880, 11183.00
671.7480, 11259.00
672.9070, 11353.00
674.0670, 11589.00
675.2260, 11525.00
676.3850, 11712.00
677.5440, 11856.00
678.7030, 12191.00
679.8610, 12508.00
681.0200, 12961.11
682.1780, 13497.00
683.3360, 14124.00
684.4940, 14793.00
685.6520, 15628.00
686.8090, 16586.00
687.9670, 17018.00
689.1240, 17589.00
690.2810, 17770.00
691.4380, 17448.00
692.5950, 16872.00
693.7520, 16504.00
694.9080, 16180.00
696.0650, 15822.00
697.2210, 15693.00
698.3770, 15950.00
699.5330, 16442.00
700.6880, 17305.00
701.8440, 18485.00
702.9990, 20011.00
704.1550, 21940.00
705.3100, 24421.00
706.4650, 26930.00
707.6190, 29670.00
708.7740, 31947.00
709.9290, 33395.00
711.0830, 33582.00
712.2370, 32727.00
713.3910, 30682.00
714.5450, 27899.00
715.6980, 25323.00
716.8520, 22488.00
718.0050, 20305.00
719.1580, 18415.00
720.3110, 16839.00
721.4640, 15884.00
722.6170, 15225.00
723.7700, 14606.00
724.9220, 13910.00
726.0740, 13903.00
727.2260, 13559.00
728.3780, 13105.00
729.5300, 13059.00
730.6810, 12826.00
731.8330, 12655.00
732.9840, 12775.00
734.1350, 12645.00
735.2860, 12434.00
736.4370, 12469.00
737.5880, 12460.00
738.7380, 12288.00
739.8880, 12376.00
741.0390, 12354.00
742.1890, 12565.00
743.3380, 12452.00
744.4880, 12663.00
745.6380, 12758.00
746.7870, 13061.00
747.9360, 13339.00
749.0850, 13755.00
750.2340, 13935.00
751.3830, 14337.00
752.5310, 14546.00
753.6800, 14645.00
754.8280, 14481.00
755.9760, 14192.00
757.1240, 13989.00
758.2720, 13495.00
759.4190, 13209.00
760.5670, 13033.00
761.7140, 12967.00
762.8610, 12960.00
764.0080, 12824.00
765.1550, 12953.00
766.3020, 12918.00
767.4480, 13072.00
768.5950, 13115.00
769.7410, 13350.00
770.8870, 13276.00
772.0330, 13239.00
773.1780, 13117.00
774.3240, 12942.00
775.4690, 12876.00
776.6140, 12600.00
777.7590, 12586.00
778.9040, 12355.00
780.0490, 12348.00
781.1940, 12260.00
782.3380, 12274.00
783.4820, 12219.00
784.6260, 12350.00
785.7700, 12277.00
786.9140, 12269.00
788.0580, 12154.00
789.2010, 12101.00
790.3450, 12239.00
791.4880, 12275.00
792.6310, 12248.00
793.7730, 12288.00
794.9160, 12373.00
796.0590, 12314.00
797.2010, 12349.00
798.3430, 12465.00
799.4850, 12458.00
800.6270, 12562.00
801.7690, 12478.00
802.9100, 12533.00
804.0520, 12520.00
805.1930, 12707.00
806.3340, 12794.00
807.4750, 13051.00
808.6160, 13156.00
809.7560, 13389.00
810.8970, 13705.00
812.0370, 14050.00
813.1770, 14773.00
814.3170, 15295.00
815.4570, 16171.00
816.5960, 16953.00
817.7360, 17785.00
818.8750, 18572.00
820.0140, 18757.00
821.1530, 18635.00
822.2920, 17991.00
823.4310, 17190.00
824.5690, 16322.00
825.7070, 15431.00
826.8460, 14849.00
827.9840, 14399.00
829.1220, 14054.00
830.2590, 13613.00
831.3970, 13337.00
832.5340, 13173.00
833.6710, 13079.00
834.8080, 13019.00
835.9450, 12954.00
837.0820, 12877.00
838.2190, 12758.00
839.3550, 12604.00
840.4910, 12728.00
841.6270, 12857.00
842.7630, 12638.00
843.8990, 12673.00
845.0350, 12718.00
846.1700, 12660.00
847.3060, 12875.00
848.4410, 12535.00
849.5760, 12522.00
850.7100, 12568.00
851.8450, 12747.00
852.9800, 12644.00
854.1140, 12722.00
855.2480, 12633.00
856.3820, 12637.00
857.5160, 12703.00
858.6500, 12668.00
859.7830, 12683.00
860.9170, 12810.00
862.0500, 12739.00
863.1830, 12679.00
864.3160, 12748.00
865.4480, 12618.00
866.5810, 12730.00
867.7130, 12807.00
868.8460, 12818.00
869.9780, 12792.00
871.1100, 12776.00
872.2410, 12818.00
873.3730, 12783.00
874.5050, 12849.00
875.6360, 12780.00
876.7670, 12960.00
877.8980, 12851.00
879.0290, 12947.00
880.1590, 13102.00
881.2900, 12954.00
882.4200, 12954.00
883.5500, 13002.00
884.6800, 13111.00
885.8100, 13158.00
886.9400, 13117.00
888.0690, 13071.00
889.1990, 13159.00
890.3280, 13051.00
891.4570, 13107.67
892.5860, 13248.00
893.7140, 13154.00
894.8430, 13184.00
895.9710, 13200.41
897.1000, 13364.00
898.2280, 13311.00
899.3560, 13454.00
900.4830, 13476.00
901.6110, 13556.00
902.7380, 13784.00
903.8660, 13879.00
904.9930, 13789.00
906.1200, 13841.00
907.2460, 14087.00
908.3730, 14227.00
909.5000, 14339.00
910.6260, 14545.00
911.7520, 14897.00
912.8780, 15316.00
914.0040, 15810.00
915.1290, 16507.00
916.2550, 17785.00
917.3800, 19263.00
918.5050, 21641.00
919.6300, 25564.00
920.7550, 29554.00
921.8800, 34432.00
923.0040, 40732.00
924.1290, 46857.00
925.2530, 50697.00
926.3770, 50536.00
927.5010, 46645.00
928.6250, 41040.00
929.7480, 35318.00
930.8720, 29753.00
931.9950, 25110.00
933.1180, 21799.00
934.2410, 19736.00
935.3640, 18076.00
936.4860, 16843.00
937.6090, 16321.00
938.7310, 15936.00
939.8530, 15551.00
940.9750, 14972.00
942.0970, 14782.00
943.2180, 14798.00
944.3400, 14470.00
945.4610, 14497.00
946.5820, 14294.00
947.7030, 14389.00
948.8240, 14043.00
949.9450, 14238.00
951.0650, 14198.00
952.1860, 14082.00
953.3060, 14027.00
954.4260, 14044.00
955.5460, 14230.00
956.6650, 13954.00
957.7850, 14075.00
958.9040, 14294.00
960.0230, 14277.00
961.1420, 14333.00
962.2610, 14326.00
963.3800, 14475.00
964.4990, 14550.00
965.6170, 14629.00
966.7350, 14745.00
967.8530, 14748.00
968.9710, 14763.00
970.0890, 15120.00
971.2070, 15341.00
972.3240, 15678.00
973.4410, 15749.00
974.5580, 16095.00
975.6750, 16739.00
976.7920, 17283.00
977.9090, 18266.00
979.0250, 19458.00
980.1410, 20869.00
981.2580, 22752.00
982.3740, 24724.00
983.4890, 27171.00
984.6050, 29666.00
985.7200, 31787.00
986.8360, 33092.00
987.9510, 33417.00
989.0660, 32502.00
990.1810, 30786.00
991.2950, 28234.00
992.4100, 25730.00
993.5240, 23548.00
994.6390, 21540.00
995.7530, 19953.00
996.8660, 18994.00
997.9800, 17949.00
999.0940, 17282.00
1000.207, 16706.00
1001.320, 16531.00
1002.433, 16268.00
1003.546, 15876.00
1004.659, 15639.00
1005.772, 15424.00
1006.884, 15328.00
1007.996, 15017.00
1009.108, 15020.00
1010.220, 14830.00
1011.332, 14857.00
1012.444, 14784.00
1013.555, 14672.00
1014.666, 14608.00
1015.777, 14581.01
1016.888, 14488.00
1017.999, 14555.00
1019.110, 14634.00
1020.220, 14622.00
1021.331, 14512.00
1022.441, 14545.00
1023.551, 14498.67
1024.661, 14495.62
1025.770, 14494.00
1026.880, 14490.00
1027.989, 14455.02
1029.098, 14416.05
1030.207, 14389.00
1031.316, 14300.00
1032.425, 14291.00
1033.533, 14226.78
1034.642, 14160.00
1035.750, 14232.00
1036.858, 14206.00
1037.966, 14323.00
1039.073, 14248.00
1040.181, 14211.00
1041.288, 14206.00
1042.396, 14186.21
1043.503, 14195.05
1044.610, 14211.35
1045.716, 14220.00
1046.823, 14257.00
1047.929, 14257.00
1049.036, 14227.00
1050.142, 14158.00
1051.248, 14307.00
1052.353, 14186.00
1053.459, 14274.00
1054.564, 14212.00
1055.670, 14425.00
1056.775, 14241.00
1057.880, 14120.00
1058.985, 14258.00
1060.089, 14210.00
1061.194, 14358.00
1062.298, 14436.00
1063.402, 14218.00
1064.506, 14316.00
1065.610, 14198.00
1066.713, 14450.00
1067.817, 14288.00
1068.920, 14376.00
1070.023, 14462.00
1071.126, 14117.00
1072.229, 14460.00
1073.332, 14498.00
1074.435, 14240.00
1075.537, 14354.00
1076.639, 14349.00
1077.741, 14397.00
1078.843, 14318.00
1079.945, 14428.00
1081.046, 14341.00
1082.148, 14450.00
1083.249, 14404.00
1084.350, 14521.00
1085.451, 14308.00
1086.551, 14488.00
1087.652, 14356.00
1088.752, 14423.00
1089.853, 14263.00
1090.953, 14414.00
1092.053, 14393.00
1093.152, 14426.00
1094.252, 14474.00
1095.351, 14448.81
1096.451, 14470.00
1097.550, 14487.00
1098.649, 14390.00
1099.748, 14522.00
1100.846, 14505.00
1101.945, 14441.00
1103.043, 14563.00
1104.141, 14428.00
1105.239, 14436.00
1106.337, 14455.00
1107.434, 14420.68
1108.532, 14433.94
1109.629, 14448.00
1110.726, 14454.00
1111.823, 14474.00
1112.920, 14544.00
1114.017, 14565.00
1115.113, 14634.00
1116.210, 14625.00
1117.306, 14972.00
1118.402, 14916.00
1119.498, 14985.00
1120.593, 15189.00
1121.689, 15191.00
1122.784, 15106.00
1123.879, 15205.00
1124.974, 14935.00
1126.069, 14786.00
1127.164, 15009.00
1128.259, 14727.00
1129.353, 14840.00
1130.447, 14590.00
1131.541, 14556.00
1132.635, 14652.00
1133.729, 14646.00
1134.822, 14671.38
1135.916, 14730.00
1137.009, 14677.00
1138.102, 14717.00
1139.195, 14639.00
1140.288, 14704.00
1141.380, 14571.00
1142.473, 14612.00
1143.565, 14651.00
1144.657, 14720.00
1145.749, 14776.00
1146.841, 14840.00
1147.932, 14695.00
1149.024, 14811.00
1150.115, 14769.00
1151.206, 14835.00
1152.297, 14953.00
1153.388, 14892.00
1154.479, 14868.00
1155.569, 14928.00
1156.659, 14867.00
1157.750, 14922.00
1158.839, 14976.00
1159.929, 15174.00
1161.019, 15131.06
1162.108, 15088.00
1163.198, 15130.00
1164.287, 14928.00
1165.376, 14918.00
1166.465, 15169.00
1167.553, 15070.00
1168.642, 14914.00
1169.730, 15269.00
1170.818, 14967.00
1171.906, 15097.00
1172.994, 15143.00
1174.082, 14819.00
1175.170, 15286.00
1176.257, 15001.00
1177.344, 15112.00
1178.431, 14926.00
1179.518, 15076.00
1180.605, 15063.00
1181.691, 14897.00
1182.778, 14976.00
1183.864, 15062.00
1184.950, 15054.00
1186.036, 15104.00
1187.122, 15092.16
1188.207, 15051.00
1189.292, 15023.00
1190.378, 14937.00
1191.463, 14844.00
1192.548, 14929.00
1193.632, 15056.00
1194.717, 15095.00
1195.801, 15080.00
1196.886, 14981.00
1197.970, 15021.00
1199.054, 15144.00
1200.137, 14978.00
1201.221, 15053.00
1202.305, 15054.00
1203.388, 15025.00
1204.471, 15116.00
1205.554, 15029.00
1206.637, 14910.00
1207.719, 15076.00
1208.802, 15096.00
1209.884, 15041.00
1210.966, 15190.00
1212.048, 15288.00
1213.130, 15327.00
1214.212, 15179.00
1215.293, 15260.00
1216.374, 15259.00
1217.456, 15173.00
1218.536, 15277.00
1219.617, 15285.00
1220.698, 15221.00
1221.778, 15267.00
1222.859, 15477.00
1223.939, 15118.00
1225.019, 15192.00
1226.099, 15313.00
1227.178, 15150.00
1228.258, 15297.00
1229.337, 15275.00
1230.417, 15315.00
1231.496, 15347.00
1232.574, 15442.00
1233.653, 15277.00
1234.732, 15400.00
1235.810, 15445.00
1236.888, 15321.00
1237.966, 15334.00
1239.044, 15344.00
1240.122, 15389.00
1241.199, 15410.00
1242.277, 15391.00
1243.354, 15389.06
1244.431, 15491.00
1245.508, 15355.00
1246.585, 15465.00
1247.661, 15505.00
1248.738, 15365.00
1249.814, 15549.00
1250.890, 15652.00
1251.966, 15401.00
1253.042, 15427.00
1254.117, 15508.00
1255.193, 15541.00
1256.268, 15571.00
1257.343, 15472.00
1258.418, 15394.00
1259.493, 15478.00
1260.567, 15428.00
1261.642, 15685.00
1262.716, 15358.00
1263.790, 15524.00
1264.864, 15555.00
1265.938, 15463.00
1267.011, 15467.00
1268.085, 15559.00
1269.158, 15569.00
1270.231, 15485.00
1271.304, 15485.00
1272.377, 15491.72
1273.450, 15487.00
1274.522, 15505.00
1275.594, 15628.00
1276.666, 15595.00
1277.738, 15627.00
1278.810, 15585.00
1279.882, 15619.00
1280.953, 15654.00
1282.025, 15646.00
1283.096, 15557.00
1284.167, 15598.00
1285.238, 15696.00
1286.308, 15633.00
1287.379, 15820.00
1288.449, 15625.00
1289.519, 15637.00
1290.589, 15708.00
1291.659, 15601.00
1292.729, 15598.00
1293.798, 15659.00
1294.868, 15790.00
1295.937, 15729.00
1297.006, 15826.00
1298.075, 15684.00
1299.143, 15759.00
1300.212, 15679.00
