##NAMES=Bertrandite
##RRUFFID=R060800
##IDEAL CHEMISTRY=Be_4_Si_2_O_7_(OH)_2_
##LOCALITY=Golconda mine, Governador Valadares, Minas Gerais, Brazil
##OWNER=RRUFF
##SOURCE=Bob Jenkins
##DESCRIPTION=Colorless pseudohexagonal prisms
##STATUS=The identification of this mineral is confirmed by single-crystal X-ray diffraction and chemical analysis.
##URL=rruff.info/R060800
##MEASURED CHEMISTRY=Be_4.00_Si_2.00_O_7_(OH)_2_
##PIN_ID=M00454
##ORIENTATION=Laser parallel to a* (1 0 0). Fiducial mark perpendicular to laser is parallel to b [0 1 0]
123.0580, 9462.000
124.2880, 9437.000
125.5190, 9559.000
126.7490, 9651.000
127.9790, 9681.000
129.2090, 9604.000
130.4390, 9985.000
131.6680, 10004.00
132.8980, 10089.00
134.1270, 10333.00
135.3560, 10493.00
136.5850, 10752.00
137.8140, 11417.00
139.0430, 11699.00
140.2710, 12107.00
141.5000, 12136.00
142.7280, 12022.00
143.9560, 11718.00
145.1840, 11364.00
146.4120, 11091.00
147.6390, 10778.00
148.8670, 10702.00
150.0940, 10592.00
151.3210, 10684.00
152.5490, 10528.00
153.7750, 10550.00
155.0020, 10657.00
156.2290, 10561.00
157.4550, 10576.00
158.6810, 10575.00
159.9080, 10664.00
161.1340, 10849.00
162.3590, 10850.00
163.5850, 11001.00
164.8110, 11079.00
166.0360, 11102.00
167.2610, 11158.00
168.4860, 11389.00
169.7110, 11761.00
170.9360, 12600.00
172.1610, 13824.00
173.3850, 15219.00
174.6100, 16273.00
175.8340, 17363.00
177.0580, 19741.00
178.2820, 23947.00
179.5050, 28835.00
180.7290, 32198.00
181.9520, 32444.00
183.1760, 30015.00
184.3990, 27185.00
185.6220, 24094.00
186.8450, 21319.00
188.0670, 18825.00
189.2900, 17156.00
190.5120, 16383.00
191.7340, 16787.00
192.9560, 18952.00
194.1780, 22324.00
195.4000, 26263.00
196.6220, 28583.00
197.8430, 31442.00
199.0640, 39266.00
200.2860, 50625.00
201.5070, 60764.00
202.7270, 65419.00
203.9480, 61670.00
205.1690, 54097.00
206.3890, 45735.00
207.6090, 38631.00
208.8290, 31128.00
210.0490, 24362.00
211.2690, 19273.00
212.4890, 16171.00
213.7080, 15199.00
214.9280, 14554.00
216.1470, 14651.00
217.3660, 15361.00
218.5850, 17060.00
219.8030, 18486.00
221.0220, 19499.00
222.2400, 21075.00
223.4590, 26039.00
224.6770, 31103.00
225.8950, 36912.00
227.1120, 39594.00
228.3300, 37983.00
229.5480, 33940.00
230.7650, 30355.00
231.9820, 26612.00
233.1990, 22733.00
234.4160, 19884.00
235.6330, 17901.00
236.8490, 17113.00
238.0660, 17019.00
239.2820, 16889.00
240.4980, 16196.00
241.7140, 15719.00
242.9300, 15118.00
244.1460, 14441.00
245.3610, 13877.00
246.5770, 13219.00
247.7920, 12777.00
249.0070, 12537.00
250.2220, 12356.00
251.4370, 12195.15
252.6510, 12138.07
253.8660, 12145.00
255.0800, 12171.00
256.2940, 12310.00
257.5080, 12471.00
258.7220, 12540.00
259.9360, 12382.00
261.1490, 12292.00
262.3630, 12202.00
263.5760, 12288.00
264.7890, 12021.00
266.0020, 12289.00
267.2150, 12288.00
268.4270, 12361.00
269.6400, 12295.00
270.8520, 12215.00
272.0640, 12206.00
273.2760, 12115.00
274.4880, 12188.00
275.7000, 12207.00
276.9120, 12220.00
278.1230, 12232.00
279.3340, 12342.00
280.5450, 12404.00
281.7560, 12388.00
282.9670, 12381.00
284.1780, 12423.00
285.3880, 12582.00
286.5980, 12642.00
287.8090, 12692.00
289.0190, 13043.00
290.2290, 13082.00
291.4380, 13387.00
292.6480, 13622.00
293.8570, 14243.00
295.0670, 14956.00
296.2760, 15648.00
297.4850, 15680.00
298.6930, 15112.00
299.9020, 14690.00
301.1110, 14100.00
302.3190, 13635.00
303.5270, 13300.00
304.7350, 13143.00
305.9430, 12911.00
307.1510, 12845.00
308.3580, 12858.00
309.5660, 12730.51
310.7730, 12919.00
311.9800, 12631.00
313.1870, 12790.00
314.3940, 12762.00
315.6010, 12768.88
316.8070, 12891.00
318.0130, 12876.00
319.2200, 13001.00
320.4260, 13000.00
321.6310, 13051.00
322.8370, 13125.78
324.0430, 13033.00
325.2480, 13243.00
326.4540, 13249.00
327.6590, 13290.00
328.8640, 13465.00
330.0680, 13443.00
331.2730, 13565.00
332.4780, 13531.00
333.6820, 13568.04
334.8860, 13684.00
336.0900, 13620.00
337.2940, 13586.00
338.4980, 13648.00
339.7010, 13522.00
340.9050, 13741.00
342.1080, 13663.00
343.3110, 14087.00
344.5140, 14134.00
345.7170, 14416.00
346.9200, 15038.00
348.1220, 15730.00
349.3240, 16085.09
350.5270, 16547.07
351.7290, 17045.00
352.9310, 17149.00
354.1320, 17682.00
355.3340, 17869.00
356.5350, 17883.00
357.7370, 17463.00
358.9380, 17167.00
360.1390, 17010.00
361.3400, 16701.00
362.5400, 16593.00
363.7410, 15790.00
364.9410, 15321.00
366.1410, 14837.00
367.3410, 14660.00
368.5410, 14408.00
369.7410, 13965.00
370.9400, 13783.00
372.1400, 13761.00
373.3390, 13826.00
374.5380, 13713.00
375.7370, 13802.00
376.9360, 13828.00
378.1350, 13969.00
379.3330, 14025.00
380.5310, 14158.00
381.7300, 14310.00
382.9280, 14458.00
384.1260, 14475.00
385.3230, 14511.00
386.5210, 14590.00
387.7180, 14552.96
388.9160, 14432.00
390.1130, 14436.00
391.3100, 14353.00
392.5060, 14142.00
393.7030, 14294.00
394.9000, 14183.00
396.0960, 14197.00
397.2920, 14254.00
398.4880, 14215.00
399.6840, 14305.00
400.8800, 14353.00
402.0750, 14259.00
403.2710, 14391.00
404.4660, 14402.00
405.6610, 14560.00
406.8560, 14669.00
408.0510, 14679.00
409.2450, 14727.00
410.4400, 14992.00
411.6340, 15149.00
412.8280, 15129.00
414.0220, 15281.00
415.2160, 15352.00
416.4100, 15312.00
417.6030, 15234.00
418.7970, 15362.00
419.9900, 15279.00
421.1830, 15176.00
422.3760, 14948.00
423.5690, 14869.00
424.7610, 14892.00
425.9540, 14851.00
427.1460, 14874.53
428.3380, 14743.00
429.5300, 14918.00
430.7220, 14934.00
431.9140, 14902.00
433.1050, 15059.00
434.2970, 15101.00
435.4880, 15148.00
436.6790, 15222.00
437.8700, 15334.00
439.0610, 15156.00
440.2510, 15139.00
441.4420, 15125.00
442.6320, 15167.00
443.8220, 15203.00
445.0120, 15249.00
446.2020, 15331.00
447.3910, 15281.69
448.5810, 15330.00
449.7700, 15136.00
450.9600, 15166.00
452.1490, 14979.00
453.3370, 15049.00
454.5260, 15115.00
455.7150, 14985.00
456.9030, 15178.00
458.0910, 15126.00
459.2800, 15155.00
460.4670, 15092.00
461.6550, 14941.00
462.8430, 15118.00
464.0300, 14895.00
465.2180, 14942.00
466.4050, 14624.00
467.5920, 14950.00
468.7790, 15027.00
469.9650, 14836.00
471.1520, 14812.00
472.3380, 14980.00
473.5250, 14824.00
474.7110, 14873.00
475.8970, 14885.00
477.0820, 14891.00
478.2680, 15032.00
479.4540, 14939.00
480.6390, 15145.00
481.8240, 15166.00
483.0090, 15374.00
484.1940, 15554.00
485.3780, 15770.00
486.5630, 15868.00
487.7470, 15943.00
488.9320, 15951.00
490.1160, 16068.00
491.3000, 15903.00
492.4830, 15807.00
493.6670, 15809.00
494.8500, 15827.00
496.0340, 15828.00
497.2170, 15781.00
498.4000, 15661.00
499.5820, 15764.00
500.7650, 15570.00
501.9480, 15502.00
503.1300, 15611.00
504.3120, 15431.00
505.4940, 15593.00
506.6760, 15378.00
507.8580, 15680.00
509.0390, 15486.00
510.2210, 15499.00
511.4020, 15665.00
512.5830, 15493.00
513.7640, 15491.00
514.9450, 15573.00
516.1250, 15597.61
517.3060, 15753.00
518.4860, 15837.00
519.6660, 15992.00
520.8460, 16132.00
522.0260, 16093.00
523.2060, 16012.00
524.3850, 16041.00
525.5650, 16088.00
526.7440, 16176.00
527.9230, 16199.00
529.1020, 16496.00
530.2810, 16693.00
531.4590, 16919.00
532.6380, 17403.00
533.8160, 18085.00
534.9940, 18135.00
536.1720, 18279.00
537.3500, 18049.00
538.5270, 17664.00
539.7050, 17266.00
540.8820, 16911.00
542.0590, 16636.00
543.2360, 16365.00
544.4130, 16424.00
545.5900, 16412.00
546.7660, 16317.00
547.9430, 16168.00
549.1190, 16259.00
550.2950, 16272.00
551.4710, 16207.00
552.6470, 16322.00
553.8220, 16295.00
554.9980, 16355.00
556.1730, 16219.00
557.3480, 16276.00
558.5230, 16295.00
559.6980, 16350.00
560.8730, 16514.00
562.0470, 16206.00
563.2220, 16341.00
564.3960, 16694.00
565.5700, 16540.00
566.7440, 16852.00
567.9170, 16969.00
569.0910, 17232.00
570.2640, 17585.00
571.4380, 17870.00
572.6110, 18222.00
573.7840, 18575.00
574.9570, 18929.00
576.1290, 19437.00
577.3020, 19475.00
578.4740, 19625.00
579.6460, 19031.00
580.8180, 18656.00
581.9900, 18324.00
583.1620, 17744.00
584.3330, 17464.00
585.5040, 17077.00
586.6760, 17148.00
587.8470, 17140.00
589.0180, 16832.00
590.1880, 17085.00
591.3590, 17100.00
592.5290, 16906.00
593.7000, 17031.00
594.8700, 17074.00
596.0400, 16939.00
597.2090, 17135.00
598.3790, 17062.00
599.5490, 17125.73
600.7180, 17189.00
601.8870, 17278.00
603.0560, 17268.00
604.2250, 17417.00
605.3940, 17149.00
606.5620, 17299.00
607.7300, 17120.00
608.8990, 17283.00
610.0670, 17249.00
611.2350, 17285.00
612.4020, 17352.00
613.5700, 17316.00
614.7370, 17379.00
615.9050, 17494.00
617.0720, 17437.00
618.2390, 17610.00
619.4060, 17758.00
620.5720, 17737.00
621.7390, 17574.00
622.9050, 17708.00
624.0710, 17767.00
625.2370, 17653.00
626.4030, 17687.00
627.5690, 17528.00
628.7340, 17732.00
629.9000, 17625.00
631.0650, 17700.00
632.2300, 17753.00
633.3950, 17759.00
634.5600, 17831.00
635.7240, 17860.07
636.8890, 17980.00
638.0530, 17944.00
639.2170, 17983.00
640.3810, 18030.00
641.5450, 17926.00
642.7080, 17732.00
643.8720, 17841.00
645.0350, 17924.00
646.1980, 17734.00
647.3610, 18008.00
648.5240, 17804.00
649.6870, 17703.00
650.8490, 17868.00
652.0120, 17756.00
653.1740, 17694.00
654.3360, 17828.00
655.4980, 17870.00
656.6600, 17929.00
657.8210, 17846.00
658.9830, 17900.06
660.1440, 17981.00
661.3050, 17945.00
662.4660, 18016.00
663.6270, 18112.00
664.7870, 18003.00
665.9480, 18145.00
667.1080, 18160.00
668.2680, 18263.00
669.4280, 18368.00
670.5880, 18574.00
671.7480, 18665.00
672.9070, 18878.00
674.0670, 19025.00
675.2260, 19283.36
676.3850, 19548.00
677.5440, 19882.00
678.7030, 20191.00
679.8610, 20574.00
681.0200, 20982.00
682.1780, 21383.00
683.3360, 22101.00
684.4940, 22784.00
685.6520, 23647.00
686.8090, 24954.00
687.9670, 25663.00
689.1240, 26012.00
690.2810, 26159.00
691.4380, 25905.00
692.5950, 25363.00
693.7520, 24544.00
694.9080, 23840.00
696.0650, 23075.00
697.2210, 22776.00
698.3770, 22547.00
699.5330, 22688.00
700.6880, 23210.00
701.8440, 23719.00
702.9990, 24483.00
704.1550, 25914.00
705.3100, 27283.00
706.4650, 28845.00
707.6190, 30963.00
708.7740, 32111.00
709.9290, 33171.00
711.0830, 33307.00
712.2370, 32670.00
713.3910, 31190.00
714.5450, 29282.00
715.6980, 27626.00
716.8520, 26031.00
718.0050, 24307.00
719.1580, 23492.00
720.3110, 22400.00
721.4640, 21829.00
722.6170, 21531.00
723.7700, 21056.00
724.9220, 20794.00
726.0740, 20627.00
727.2260, 20556.00
728.3780, 20419.43
729.5300, 20369.54
730.6810, 20303.00
731.8330, 20302.68
732.9840, 20281.23
734.1350, 20275.13
735.2860, 20216.00
736.4370, 20235.00
737.5880, 20226.00
738.7380, 20220.00
739.8880, 20392.00
741.0390, 20137.00
742.1890, 20189.00
743.3380, 20341.00
744.4880, 20492.00
745.6380, 20707.82
746.7870, 20820.00
747.9360, 21199.00
749.0850, 21524.00
750.2340, 21727.00
751.3830, 22180.00
752.5310, 22509.00
753.6800, 22623.00
754.8280, 22514.00
755.9760, 22341.00
757.1240, 22058.00
758.2720, 21754.00
759.4190, 21483.00
760.5670, 21487.00
761.7140, 21341.00
762.8610, 21450.00
764.0080, 21592.00
765.1550, 22197.00
766.3020, 22430.00
767.4480, 22790.00
768.5950, 23304.00
769.7410, 23689.00
770.8870, 23948.00
772.0330, 23814.00
773.1780, 23271.00
774.3240, 22796.00
775.4690, 22070.00
776.6140, 21642.00
777.7590, 21102.00
778.9040, 21083.00
780.0490, 20711.00
781.1940, 20591.00
782.3380, 20408.00
783.4820, 20310.00
784.6260, 20386.00
785.7700, 20412.00
786.9140, 20448.00
788.0580, 20359.00
789.2010, 20318.00
790.3450, 20319.25
791.4880, 20492.00
792.6310, 20304.00
793.7730, 20402.00
794.9160, 20419.00
796.0590, 20386.00
797.2010, 20445.00
798.3430, 20421.00
799.4850, 20463.69
800.6270, 20545.00
801.7690, 20559.00
802.9100, 20506.00
804.0520, 20576.00
805.1930, 20567.00
806.3340, 20630.06
807.4750, 20785.00
808.6160, 20827.00
809.7560, 20896.00
810.8970, 21099.00
812.0370, 21387.00
813.1770, 21655.00
814.3170, 21959.00
815.4570, 22176.00
816.5960, 22652.00
817.7360, 23066.00
818.8750, 23390.00
820.0140, 23481.00
821.1530, 23436.43
822.2920, 23414.00
823.4310, 22950.00
824.5690, 22464.00
825.7070, 22044.00
826.8460, 21958.00
827.9840, 21671.00
829.1220, 21451.00
830.2590, 21014.00
831.3970, 21262.00
832.5340, 20996.00
833.6710, 20966.00
834.8080, 20978.00
835.9450, 20755.00
837.0820, 20914.00
838.2190, 21016.00
839.3550, 21077.00
840.4910, 21069.00
841.6270, 21029.82
842.7630, 21215.00
843.8990, 21023.00
845.0350, 20862.00
846.1700, 21228.00
847.3060, 20824.00
848.4410, 21128.00
849.5760, 21110.00
850.7100, 20965.00
851.8450, 20991.00
852.9800, 20935.00
854.1140, 20976.00
855.2480, 21042.00
856.3820, 20926.00
857.5160, 21079.00
858.6500, 20848.00
859.7830, 20980.00
860.9170, 21051.00
862.0500, 21301.00
863.1830, 21118.00
864.3160, 21041.00
865.4480, 21297.00
866.5810, 21117.00
867.7130, 21194.00
868.8460, 21253.00
869.9780, 21258.00
871.1100, 21315.38
872.2410, 21353.00
873.3730, 21400.00
874.5050, 21433.00
875.6360, 21523.00
876.7670, 21773.00
877.8980, 21684.00
879.0290, 21797.00
880.1590, 21796.00
881.2900, 21761.00
882.4200, 22029.00
883.5500, 22049.00
884.6800, 22083.00
885.8100, 21997.00
886.9400, 22118.00
888.0690, 22056.00
889.1990, 21945.00
890.3280, 22052.00
891.4570, 21975.00
892.5860, 21987.00
893.7140, 22168.00
894.8430, 22083.00
895.9710, 22075.00
897.1000, 22229.00
898.2280, 22270.00
899.3560, 22255.00
900.4830, 22127.00
901.6110, 22286.00
902.7380, 22220.00
903.8660, 22378.00
904.9930, 22242.00
906.1200, 22341.00
907.2460, 22345.00
908.3730, 22608.00
909.5000, 22633.00
910.6260, 22718.00
911.7520, 22891.00
912.8780, 23266.00
914.0040, 23267.00
915.1290, 23817.00
916.2550, 24379.00
917.3800, 25095.00
918.5050, 26312.00
919.6300, 27909.00
920.7550, 30009.00
921.8800, 32686.00
923.0040, 35714.00
924.1290, 38959.00
925.2530, 41189.00
926.3770, 41133.00
927.5010, 39353.00
928.6250, 36598.00
929.7480, 33789.00
930.8720, 31423.00
931.9950, 29610.00
933.1180, 27972.00
934.2410, 27116.00
935.3640, 26385.00
936.4860, 25973.00
937.6090, 25127.00
938.7310, 24962.00
939.8530, 24625.00
940.9750, 24338.00
942.0970, 24469.00
943.2180, 24607.00
944.3400, 24558.00
945.4610, 24730.00
946.5820, 24859.00
947.7030, 25123.00
948.8240, 24861.00
949.9450, 24832.00
951.0650, 24452.00
952.1860, 24365.00
953.3060, 24270.00
954.4260, 24177.00
955.5460, 24097.00
956.6650, 24058.65
957.7850, 24137.00
958.9040, 24002.00
960.0230, 24089.00
961.1420, 24060.00
962.2610, 24177.00
963.3800, 24137.00
964.4990, 24112.00
965.6170, 23981.00
966.7350, 24399.00
967.8530, 24117.00
968.9710, 24514.00
970.0890, 24238.00
971.2070, 24594.00
972.3240, 24710.00
973.4410, 24917.00
974.5580, 25205.00
975.6750, 25644.00
976.7920, 26202.00
977.9090, 27052.00
979.0250, 27732.00
980.1410, 29123.00
981.2580, 30491.00
982.3740, 32201.00
983.4890, 34294.00
984.6050, 36213.00
985.7200, 38271.00
986.8360, 39402.00
987.9510, 39750.00
989.0660, 38859.00
990.1810, 37281.00
991.2950, 35324.00
992.4100, 33314.00
993.5240, 31233.00
994.6390, 29799.00
995.7530, 28474.00
996.8660, 27698.00
997.9800, 27199.00
999.0940, 26455.00
1000.207, 25845.00
1001.320, 25693.00
1002.433, 25489.00
1003.546, 25339.00
1004.659, 25061.00
1005.772, 24820.00
1006.884, 24672.00
1007.996, 24684.00
1009.108, 24666.00
1010.220, 24579.00
1011.332, 24419.00
1012.444, 24315.00
1013.555, 24512.00
1014.666, 24486.00
1015.777, 24267.00
1016.888, 24443.00
1017.999, 24412.00
1019.110, 24307.00
1020.220, 24555.00
1021.331, 24468.00
1022.441, 24550.00
1023.551, 24623.00
1024.661, 24613.00
1025.770, 24493.00
1026.880, 24477.00
1027.989, 24244.00
1029.098, 24436.00
1030.207, 24322.00
1031.316, 24417.00
1032.425, 24267.00
1033.533, 24205.00
1034.642, 24316.00
1035.750, 24266.00
1036.858, 24269.00
1037.966, 24152.00
1039.073, 24363.00
1040.181, 24199.00
1041.288, 24193.00
1042.396, 24359.00
1043.503, 24429.00
1044.610, 24506.00
1045.716, 24507.99
1046.823, 24578.00
1047.929, 24417.00
1049.036, 24441.00
1050.142, 24360.00
1051.248, 24368.49
1052.353, 24358.00
1053.459, 24476.00
1054.564, 24502.00
1055.670, 24660.00
1056.775, 24799.00
1057.880, 24770.00
1058.985, 24760.00
1060.089, 24784.00
1061.194, 24843.00
1062.298, 25148.00
1063.402, 25128.00
1064.506, 25373.00
1065.610, 25328.00
1066.713, 25560.00
1067.817, 25664.00
1068.920, 25673.00
1070.023, 25774.91
1071.126, 25723.34
1072.229, 25802.00
1073.332, 25595.00
1074.435, 25545.00
1075.537, 25448.54
1076.639, 25402.85
1077.741, 25370.00
1078.843, 25358.00
1079.945, 25368.00
1081.046, 25294.00
1082.148, 25326.00
1083.249, 25375.00
1084.350, 25359.00
1085.451, 25419.00
1086.551, 25342.00
1087.652, 25103.00
1088.752, 25223.00
1089.853, 25155.00
1090.953, 24983.00
1092.053, 25220.00
1093.152, 25036.00
1094.252, 25025.00
1095.351, 24988.00
1096.451, 25027.00
1097.550, 24863.00
1098.649, 24825.00
1099.748, 24956.00
1100.846, 24953.00
1101.945, 25121.00
1103.043, 25173.00
1104.141, 25251.00
1105.239, 25219.00
1106.337, 25050.00
1107.434, 25152.00
1108.532, 24981.00
1109.629, 25103.00
1110.726, 25163.00
1111.823, 25124.00
1112.920, 25418.00
1114.017, 25167.00
1115.113, 25401.00
1116.210, 25564.60
1117.306, 25750.00
1118.402, 25916.00
1119.498, 26105.00
1120.593, 26115.00
1121.689, 26298.00
1122.784, 26299.00
1123.879, 26208.00
1124.974, 26079.00
1126.069, 26012.00
1127.164, 25906.00
1128.259, 25624.00
1129.353, 25493.00
1130.447, 25367.00
1131.541, 25438.00
1132.635, 25428.00
1133.729, 25381.00
1134.822, 25345.00
1135.916, 25394.00
1137.009, 25276.00
1138.102, 25522.00
1139.195, 25472.00
1140.288, 25505.00
1141.380, 25718.00
1142.473, 25683.00
1143.565, 25545.00
1144.657, 25713.00
1145.749, 25747.00
1146.841, 25534.00
1147.932, 25927.00
1149.024, 25790.00
1150.115, 25732.00
1151.206, 25745.00
1152.297, 25969.00
1153.388, 26006.00
1154.479, 26061.00
1155.569, 26111.00
1156.659, 26130.00
1157.750, 26226.00
1158.839, 26459.00
1159.929, 26320.00
1161.019, 26502.00
1162.108, 26613.00
1163.198, 26576.00
1164.287, 26534.00
1165.376, 26580.00
1166.465, 26537.00
1167.553, 26560.00
1168.642, 26511.00
1169.730, 26567.00
1170.818, 26400.00
1171.906, 26372.00
1172.994, 26257.00
1174.082, 26330.00
1175.170, 26285.00
1176.257, 26352.00
1177.344, 26090.00
1178.431, 26232.00
1179.518, 26150.00
1180.605, 26287.00
1181.691, 26156.00
1182.778, 26465.00
1183.864, 26160.00
1184.950, 26402.00
1186.036, 26243.00
1187.122, 26370.00
1188.207, 26257.00
1189.292, 26228.00
1190.378, 26295.00
1191.463, 26197.00
1192.548, 26238.00
1193.632, 26223.00
1194.717, 26296.00
1195.801, 26521.00
1196.886, 26393.00
1197.970, 26334.00
1199.054, 26129.00
1200.137, 26225.00
1201.221, 26289.00
1202.305, 26511.00
1203.388, 26315.00
1204.471, 26401.00
1205.554, 26357.00
1206.637, 26520.00
1207.719, 26413.00
1208.802, 26458.00
1209.884, 26489.00
1210.966, 26490.27
1212.048, 26528.89
1213.130, 26562.00
1214.212, 26540.00
1215.293, 26547.49
1216.374, 26556.17
1217.456, 26600.00
1218.536, 26563.00
1219.617, 26614.00
1220.698, 26614.00
1221.778, 26597.00
1222.859, 26757.00
1223.939, 26723.00
1225.019, 26823.00
1226.099, 26788.00
1227.178, 26859.00
1228.258, 26743.00
1229.337, 27027.00
1230.417, 26907.00
1231.496, 26893.00
1232.574, 27059.00
1233.653, 26941.00
1234.732, 26900.00
1235.810, 26830.00
1236.888, 26971.00
1237.966, 26922.00
1239.044, 26852.00
1240.122, 26742.00
1241.199, 27077.00
1242.277, 27281.00
1243.354, 27057.00
1244.431, 26947.00
1245.508, 26978.00
1246.585, 26961.00
1247.661, 26959.95
1248.738, 26903.00
1249.814, 27007.00
1250.890, 27021.00
1251.966, 27041.00
1253.042, 26924.00
1254.117, 26948.00
1255.193, 27030.00
1256.268, 27197.00
1257.343, 27080.00
1258.418, 27067.00
1259.493, 27051.00
1260.567, 27188.00
1261.642, 27081.00
1262.716, 27201.00
1263.790, 27306.00
1264.864, 27258.00
1265.938, 27220.00
1267.011, 27279.00
1268.085, 27318.00
1269.158, 27373.00
1270.231, 27328.00
1271.304, 27245.00
1272.377, 27468.00
1273.450, 27441.00
1274.522, 27238.00
1275.594, 27367.00
1276.666, 27322.00
1277.738, 27299.00
1278.810, 27415.00
1279.882, 27428.00
1280.953, 27520.00
1282.025, 27568.00
1283.096, 27435.00
1284.167, 27485.00
1285.238, 27615.00
1286.308, 27519.00
1287.379, 27607.94
1288.449, 27606.00
1289.519, 27626.00
1290.589, 27570.00
1291.659, 27495.97
1292.729, 27680.00
1293.798, 27425.00
1294.868, 27675.00
1295.937, 27650.00
1297.006, 27727.00
1298.075, 27941.00
1299.143, 27468.00
1300.212, 27932.00
