##NAMES=Bertrandite
##RRUFFID=R060800
##IDEAL CHEMISTRY=Be_4_Si_2_O_7_(OH)_2_
##LOCALITY=Golconda mine, Governador Valadares, Minas Gerais, Brazil
##OWNER=RRUFF
##SOURCE=Bob Jenkins
##DESCRIPTION=Colorless pseudohexagonal prisms
##STATUS=The identification of this mineral is confirmed by single-crystal X-ray diffraction and chemical analysis.
##URL=rruff.info/R060800
##MEASURED CHEMISTRY=Be_4.00_Si_2.00_O_7_(OH)_2_
##PIN_ID=M00212
##ORIENTATION=Laser parallel to c* (0 0 1). Fiducial mark perpendicular to laser is parallel to a [1 0 0]
123.0580, 22346.00
124.2880, 22444.00
125.5190, 22474.00
126.7490, 22348.00
127.9790, 22656.00
129.2090, 22895.00
130.4390, 22612.00
131.6680, 22755.00
132.8980, 23045.00
134.1270, 22913.00
135.3560, 22931.00
136.5850, 22918.00
137.8140, 23169.00
139.0430, 23063.00
140.2710, 23326.00
141.5000, 23388.00
142.7280, 23411.00
143.9560, 23580.00
145.1840, 23635.00
146.4120, 23496.00
147.6390, 23765.00
148.8670, 23596.00
150.0940, 23688.00
151.3210, 23818.00
152.5490, 23674.00
153.7750, 23767.00
155.0020, 23881.00
156.2290, 23863.00
157.4550, 23993.00
158.6810, 23979.22
159.9080, 23909.00
161.1340, 24004.00
162.3590, 23918.00
163.5850, 23987.00
164.8110, 23930.00
166.0360, 24267.00
167.2610, 24183.00
168.4860, 24398.00
169.7110, 24373.00
170.9360, 24487.00
172.1610, 24667.00
173.3850, 24706.00
174.6100, 24660.00
175.8340, 24827.00
177.0580, 25280.00
178.2820, 25447.00
179.5050, 26396.00
180.7290, 27272.00
181.9520, 28648.00
183.1760, 29690.00
184.3990, 29251.00
185.6220, 27740.00
186.8450, 26506.00
188.0670, 26068.00
189.2900, 25915.00
190.5120, 25580.00
191.7340, 25758.00
192.9560, 26126.00
194.1780, 26328.00
195.4000, 27115.00
196.6220, 27870.00
197.8430, 28660.00
199.0640, 29962.00
200.2860, 31223.00
201.5070, 33003.00
202.7270, 36247.00
203.9480, 39900.00
205.1690, 42660.00
206.3890, 43294.00
207.6090, 39939.00
208.8290, 34412.00
210.0490, 30562.00
211.2690, 28453.00
212.4890, 27508.00
213.7080, 26480.00
214.9280, 26484.00
216.1470, 26101.00
217.3660, 26350.00
218.5850, 26281.00
219.8030, 26322.00
221.0220, 26849.00
222.2400, 27115.00
223.4590, 27753.00
224.6770, 29217.00
225.8950, 30650.00
227.1120, 32991.00
228.3300, 33332.00
229.5480, 32364.00
230.7650, 30432.00
231.9820, 29034.00
233.1990, 28420.00
234.4160, 28056.00
235.6330, 28307.00
236.8490, 29084.00
238.0660, 30101.00
239.2820, 30632.00
240.4980, 31199.00
241.7140, 30635.00
242.9300, 29567.00
244.1460, 28662.00
245.3610, 27862.00
246.5770, 27479.00
247.7920, 27097.00
249.0070, 26732.00
250.2220, 26680.00
251.4370, 26623.00
252.6510, 26728.00
253.8660, 26590.00
255.0800, 26456.00
256.2940, 26509.00
257.5080, 26561.00
258.7220, 26466.00
259.9360, 26762.00
261.1490, 26558.00
262.3630, 26627.00
263.5760, 26737.00
264.7890, 26713.00
266.0020, 26650.00
267.2150, 26677.00
268.4270, 26797.00
269.6400, 26698.00
270.8520, 26562.00
272.0640, 26745.00
273.2760, 26783.00
274.4880, 26925.00
275.7000, 26843.00
276.9120, 26803.00
278.1230, 26897.00
279.3340, 26854.00
280.5450, 26880.00
281.7560, 27003.00
282.9670, 27036.00
284.1780, 26980.00
285.3880, 26917.00
286.5980, 27043.00
287.8090, 26905.00
289.0190, 27344.00
290.2290, 27192.00
291.4380, 27300.00
292.6480, 27662.00
293.8570, 27671.00
295.0670, 27810.00
296.2760, 28254.00
297.4850, 28644.00
298.6930, 29137.00
299.9020, 29394.00
301.1110, 29059.00
302.3190, 28526.00
303.5270, 28042.00
304.7350, 27827.00
305.9430, 27609.00
307.1510, 27897.00
308.3580, 27806.00
309.5660, 27791.00
310.7730, 27762.00
311.9800, 27704.69
313.1870, 27650.00
314.3940, 27652.00
315.6010, 27706.00
316.8070, 27757.00
318.0130, 27666.00
319.2200, 27769.00
320.4260, 27864.00
321.6310, 27873.00
322.8370, 28136.00
324.0430, 28039.00
325.2480, 28312.00
326.4540, 28231.00
327.6590, 28585.00
328.8640, 28926.00
330.0680, 28921.00
331.2730, 28695.00
332.4780, 28281.00
333.6820, 28256.00
334.8860, 28197.00
336.0900, 28319.00
337.2940, 28287.00
338.4980, 28159.00
339.7010, 28192.00
340.9050, 28243.00
342.1080, 28552.00
343.3110, 28229.00
344.5140, 28769.00
345.7170, 28720.00
346.9200, 28830.00
348.1220, 29102.00
349.3240, 29078.44
350.5270, 29213.00
351.7290, 29228.00
352.9310, 29341.00
354.1320, 29429.00
355.3340, 30249.00
356.5350, 31270.00
357.7370, 31657.00
358.9380, 31493.00
360.1390, 30977.00
361.3400, 29925.00
362.5400, 29664.00
363.7410, 29431.00
364.9410, 29454.00
366.1410, 29163.00
367.3410, 29002.00
368.5410, 29025.00
369.7410, 29097.00
370.9400, 28880.00
372.1400, 29154.00
373.3390, 28720.00
374.5380, 29096.00
375.7370, 28935.00
376.9360, 28915.00
378.1350, 29381.00
379.3330, 29093.00
380.5310, 29151.00
381.7300, 29174.00
382.9280, 29495.00
384.1260, 29609.00
385.3230, 29644.00
386.5210, 29564.00
387.7180, 29818.00
388.9160, 29620.00
390.1130, 29626.00
391.3100, 29732.00
392.5060, 29628.00
393.7030, 29663.00
394.9000, 29461.00
396.0960, 29528.00
397.2920, 29590.00
398.4880, 29705.00
399.6840, 29552.00
400.8800, 29410.00
402.0750, 29659.00
403.2710, 29485.00
404.4660, 29441.00
405.6610, 29609.00
406.8560, 29792.00
408.0510, 29812.00
409.2450, 29802.00
410.4400, 29854.00
411.6340, 29819.00
412.8280, 29849.00
414.0220, 29820.00
415.2160, 29875.13
416.4100, 29967.00
417.6030, 30042.00
418.7970, 29962.00
419.9900, 30142.00
421.1830, 30093.00
422.3760, 29997.00
423.5690, 30010.00
424.7610, 30288.00
425.9540, 29735.00
427.1460, 30076.00
428.3380, 29911.00
429.5300, 30137.00
430.7220, 30211.00
431.9140, 30036.00
433.1050, 30204.00
434.2970, 30059.00
435.4880, 30245.00
436.6790, 30407.00
437.8700, 30141.00
439.0610, 30232.00
440.2510, 30086.00
441.4420, 30256.00
442.6320, 30468.00
443.8220, 30216.00
445.0120, 30546.00
446.2020, 30542.00
447.3910, 30427.00
448.5810, 30688.00
449.7700, 30825.00
450.9600, 30767.00
452.1490, 30786.00
453.3370, 30629.00
454.5260, 30576.00
455.7150, 30801.00
456.9030, 30590.00
458.0910, 30738.00
459.2800, 30741.00
460.4670, 30684.00
461.6550, 30812.00
462.8430, 31005.00
464.0300, 31067.00
465.2180, 30993.00
466.4050, 30927.00
467.5920, 31001.00
468.7790, 30818.00
469.9650, 30873.00
471.1520, 30906.00
472.3380, 31097.00
473.5250, 31133.00
474.7110, 30925.00
475.8970, 31320.00
477.0820, 31047.00
478.2680, 31354.00
479.4540, 31306.00
480.6390, 31040.00
481.8240, 31137.00
483.0090, 31360.00
484.1940, 31455.00
485.3780, 31438.00
486.5630, 31811.00
487.7470, 31631.00
488.9320, 31690.00
490.1160, 31853.00
491.3000, 31967.00
492.4830, 32009.00
493.6670, 32277.00
494.8500, 32660.00
496.0340, 32518.00
497.2170, 32772.00
498.4000, 32588.00
499.5820, 32666.00
500.7650, 32494.00
501.9480, 32296.00
503.1300, 32218.00
504.3120, 32201.00
505.4940, 32086.00
506.6760, 31845.00
507.8580, 31992.00
509.0390, 31877.00
510.2210, 31992.00
511.4020, 31995.00
512.5830, 32152.00
513.7640, 31995.00
514.9450, 32154.00
516.1250, 32096.00
517.3060, 32313.00
518.4860, 32237.00
519.6660, 32127.00
520.8460, 32322.00
522.0260, 32146.00
523.2060, 32403.00
524.3850, 32301.00
525.5650, 32610.00
526.7440, 32623.00
527.9230, 32652.00
529.1020, 32659.00
530.2810, 32617.00
531.4590, 33046.00
532.6380, 32845.00
533.8160, 33569.00
534.9940, 33456.00
536.1720, 33678.00
537.3500, 33812.00
538.5270, 33792.00
539.7050, 33941.00
540.8820, 33781.00
542.0590, 33663.00
543.2360, 33480.00
544.4130, 33307.37
545.5900, 33068.00
546.7660, 33018.00
547.9430, 33023.00
549.1190, 33087.00
550.2950, 33099.00
551.4710, 33004.00
552.6470, 33031.00
553.8220, 33097.00
554.9980, 33264.00
556.1730, 33247.00
557.3480, 33332.00
558.5230, 33085.00
559.6980, 33305.00
560.8730, 33450.00
562.0470, 33117.00
563.2220, 33419.00
564.3960, 33309.00
565.5700, 33466.00
566.7440, 33685.00
567.9170, 33572.00
569.0910, 33656.00
570.2640, 33755.00
571.4380, 33922.00
572.6110, 34335.00
573.7840, 34531.00
574.9570, 34656.00
576.1290, 34959.00
577.3020, 35124.00
578.4740, 35338.00
579.6460, 35044.00
580.8180, 34692.00
581.9900, 34536.00
583.1620, 34355.83
584.3330, 34281.00
585.5040, 34188.00
586.6760, 34222.00
587.8470, 34241.00
589.0180, 34237.00
590.1880, 34150.00
591.3590, 34348.00
592.5290, 34177.00
593.7000, 34317.00
594.8700, 34329.00
596.0400, 34520.00
597.2090, 34482.00
598.3790, 34492.00
599.5490, 34343.00
600.7180, 34403.00
601.8870, 34323.00
603.0560, 34522.00
604.2250, 34519.00
605.3940, 34680.00
606.5620, 34555.00
607.7300, 34524.00
608.8990, 34876.00
610.0670, 34670.00
611.2350, 34836.00
612.4020, 34843.00
613.5700, 34796.00
614.7370, 34726.00
615.9050, 35106.00
617.0720, 35297.00
618.2390, 35203.00
619.4060, 35171.00
620.5720, 35495.00
621.7390, 35208.00
622.9050, 35494.00
624.0710, 35418.00
625.2370, 35350.00
626.4030, 35245.00
627.5690, 35495.00
628.7340, 35283.00
629.9000, 35159.00
631.0650, 35304.00
632.2300, 35157.00
633.3950, 35252.00
634.5600, 35378.00
635.7240, 35668.00
636.8890, 35563.00
638.0530, 35646.00
639.2170, 35603.00
640.3810, 35548.00
641.5450, 35767.00
642.7080, 35679.00
643.8720, 35755.00
645.0350, 35867.00
646.1980, 36052.00
647.3610, 35958.00
648.5240, 36007.00
649.6870, 35935.00
650.8490, 36037.00
652.0120, 35890.00
653.1740, 35991.00
654.3360, 35947.00
655.4980, 35973.00
656.6600, 35812.00
657.8210, 35934.00
658.9830, 35870.31
660.1440, 35827.00
661.3050, 35847.00
662.4660, 35923.00
663.6270, 35907.00
664.7870, 36090.00
665.9480, 36033.00
667.1080, 35927.00
668.2680, 35703.00
669.4280, 35961.00
670.5880, 36330.00
671.7480, 36160.00
672.9070, 36357.00
674.0670, 36581.00
675.2260, 36517.00
676.3850, 36793.00
677.5440, 36726.00
678.7030, 36704.00
679.8610, 36827.00
681.0200, 36945.00
682.1780, 36878.00
683.3360, 37218.00
684.4940, 37338.00
685.6520, 37565.00
686.8090, 38060.00
687.9670, 37955.00
689.1240, 38338.00
690.2810, 38878.00
691.4380, 39253.00
692.5950, 38980.00
693.7520, 39215.00
694.9080, 39317.00
696.0650, 39199.00
697.2210, 39254.00
698.3770, 38949.00
699.5330, 39087.00
700.6880, 39029.00
701.8440, 39167.00
702.9990, 39189.00
704.1550, 38955.00
705.3100, 38713.00
706.4650, 38905.00
707.6190, 38665.00
708.7740, 38834.00
709.9290, 38777.00
711.0830, 38885.00
712.2370, 38937.00
713.3910, 38779.00
714.5450, 38762.00
715.6980, 38742.00
716.8520, 38430.00
718.0050, 38315.00
719.1580, 38495.00
720.3110, 38585.00
721.4640, 38435.00
722.6170, 38755.00
723.7700, 38849.00
724.9220, 38793.00
726.0740, 39106.00
727.2260, 39018.00
728.3780, 38822.00
729.5300, 38452.00
730.6810, 38446.00
731.8330, 38333.00
732.9840, 38532.00
734.1350, 37980.00
735.2860, 37955.00
736.4370, 38246.00
737.5880, 38047.00
738.7380, 38319.00
739.8880, 38102.00
741.0390, 38383.00
742.1890, 38386.00
743.3380, 38607.00
744.4880, 38642.00
745.6380, 38640.00
746.7870, 38638.00
747.9360, 38754.00
749.0850, 39059.00
750.2340, 39284.00
751.3830, 39531.00
752.5310, 39448.00
753.6800, 39667.00
754.8280, 39544.00
755.9760, 39929.00
757.1240, 39712.00
758.2720, 39821.00
759.4190, 40217.00
760.5670, 39963.00
761.7140, 40133.00
762.8610, 40422.00
764.0080, 39953.00
765.1550, 40221.00
766.3020, 40415.00
767.4480, 40225.00
768.5950, 40309.00
769.7410, 40247.00
770.8870, 40125.00
772.0330, 40133.00
773.1780, 39983.00
774.3240, 39701.00
775.4690, 39987.00
776.6140, 39500.00
777.7590, 39658.00
778.9040, 39406.00
780.0490, 39650.00
781.1940, 39512.00
782.3380, 39547.00
783.4820, 39555.00
784.6260, 39592.00
785.7700, 39535.00
786.9140, 39583.00
788.0580, 39312.00
789.2010, 39592.00
790.3450, 39475.00
791.4880, 39711.00
792.6310, 39598.00
793.7730, 39568.00
794.9160, 39854.00
796.0590, 39868.00
797.2010, 39889.00
798.3430, 40002.00
799.4850, 39924.00
800.6270, 39963.36
801.7690, 40252.00
802.9100, 39959.00
804.0520, 40007.00
805.1930, 40043.00
806.3340, 39827.00
807.4750, 40284.00
808.6160, 40323.00
809.7560, 40160.00
810.8970, 40314.00
812.0370, 40329.00
813.1770, 40419.00
814.3170, 40132.00
815.4570, 40454.00
816.5960, 40415.00
817.7360, 40763.00
818.8750, 40734.84
820.0140, 40594.00
821.1530, 40714.00
822.2920, 40703.00
823.4310, 40664.00
824.5690, 40772.00
825.7070, 40479.00
826.8460, 40588.00
827.9840, 40556.00
829.1220, 40517.66
830.2590, 40869.00
831.3970, 40638.00
832.5340, 40812.00
833.6710, 41036.00
834.8080, 41105.00
835.9450, 41048.00
837.0820, 40913.00
838.2190, 41094.00
839.3550, 40960.00
840.4910, 41050.00
841.6270, 41153.00
842.7630, 41168.95
843.8990, 41263.77
845.0350, 41371.00
846.1700, 41421.00
847.3060, 41583.00
848.4410, 41724.00
849.5760, 41861.00
850.7100, 41863.00
851.8450, 41915.00
852.9800, 41833.00
854.1140, 41616.00
855.2480, 41704.00
856.3820, 41783.00
857.5160, 42002.00
858.6500, 41824.00
859.7830, 42015.00
860.9170, 42058.00
862.0500, 41970.00
863.1830, 42055.00
864.3160, 41925.00
865.4480, 41861.00
866.5810, 42275.00
867.7130, 41738.00
868.8460, 41639.00
869.9780, 41976.00
871.1100, 41777.00
872.2410, 41889.00
873.3730, 42157.00
874.5050, 42300.00
875.6360, 42249.00
876.7670, 41917.00
877.8980, 42203.00
879.0290, 42384.00
880.1590, 42012.00
881.2900, 42095.00
882.4200, 42147.00
883.5500, 42273.00
884.6800, 42310.00
885.8100, 42431.00
886.9400, 42382.00
888.0690, 42516.00
889.1990, 42531.00
890.3280, 42442.00
891.4570, 42802.00
892.5860, 42742.00
893.7140, 42600.00
894.8430, 42613.00
895.9710, 42435.00
897.1000, 42565.00
898.2280, 42573.53
899.3560, 42504.00
900.4830, 42780.00
901.6110, 42979.00
902.7380, 43181.00
903.8660, 42660.00
904.9930, 42994.00
906.1200, 42955.00
907.2460, 42977.00
908.3730, 43032.00
909.5000, 43117.00
910.6260, 43029.00
911.7520, 43088.35
912.8780, 42990.00
914.0040, 43084.00
915.1290, 43317.00
916.2550, 43316.00
917.3800, 43362.00
918.5050, 43406.00
919.6300, 43249.00
920.7550, 43027.00
921.8800, 43292.00
923.0040, 43091.00
924.1290, 43106.00
925.2530, 43493.00
926.3770, 43390.00
927.5010, 43455.00
928.6250, 43763.00
929.7480, 43517.00
930.8720, 43570.00
931.9950, 43705.00
933.1180, 43561.00
934.2410, 43683.00
935.3640, 43568.00
936.4860, 43635.00
937.6090, 43991.00
938.7310, 44013.00
939.8530, 43961.00
940.9750, 44174.00
942.0970, 43975.00
943.2180, 44025.00
944.3400, 44246.00
945.4610, 44357.00
946.5820, 44485.96
947.7030, 44518.00
948.8240, 44639.00
949.9450, 44595.07
951.0650, 44628.16
952.1860, 44589.00
953.3060, 44630.00
954.4260, 44596.00
955.5460, 44639.00
956.6650, 44648.00
957.7850, 44610.00
958.9040, 44682.00
960.0230, 44493.00
961.1420, 44743.00
962.2610, 44507.00
963.3800, 44515.00
964.4990, 44783.00
965.6170, 44572.00
966.7350, 44996.00
967.8530, 44947.00
968.9710, 44836.00
970.0890, 44872.00
971.2070, 44904.00
972.3240, 44921.00
973.4410, 44992.00
974.5580, 45216.00
975.6750, 45186.00
976.7920, 45402.00
977.9090, 45744.00
979.0250, 45834.00
980.1410, 45957.00
981.2580, 46200.00
982.3740, 46880.00
983.4890, 47158.00
984.6050, 47376.00
985.7200, 47629.00
986.8360, 47588.00
987.9510, 47666.00
989.0660, 47255.00
990.1810, 47306.00
991.2950, 46927.00
992.4100, 46771.00
993.5240, 46866.00
994.6390, 46510.00
995.7530, 46216.00
996.8660, 46527.00
997.9800, 46602.00
999.0940, 46326.00
1000.207, 46239.00
1001.320, 46227.00
1002.433, 46067.00
1003.546, 46053.00
1004.659, 46223.00
1005.772, 45684.00
1006.884, 46050.00
1007.996, 46285.00
1009.108, 46043.00
1010.220, 46407.00
1011.332, 46283.00
1012.444, 46137.00
1013.555, 46317.00
1014.666, 46081.00
1015.777, 46408.00
1016.888, 46448.00
1017.999, 46303.00
1019.110, 46391.00
1020.220, 46593.00
1021.331, 46494.00
1022.441, 46777.00
1023.551, 46854.00
1024.661, 46482.00
1025.770, 46700.00
1026.880, 46471.00
1027.989, 46507.00
1029.098, 46619.00
1030.207, 47037.00
1031.316, 46732.00
1032.425, 46822.00
1033.533, 46782.00
1034.642, 46741.00
1035.750, 46894.00
1036.858, 47006.00
1037.966, 47133.00
1039.073, 47084.00
1040.181, 47040.00
1041.288, 47114.79
1042.396, 46813.00
1043.503, 47133.00
1044.610, 47049.00
1045.716, 46943.00
1046.823, 47265.00
1047.929, 47302.00
1049.036, 47065.00
1050.142, 47242.00
1051.248, 47177.00
1052.353, 47264.00
1053.459, 47306.36
1054.564, 47440.00
1055.670, 47373.00
1056.775, 47489.00
1057.880, 47537.00
1058.985, 47543.00
1060.089, 47543.00
1061.194, 47711.00
1062.298, 48069.00
1063.402, 47661.00
1064.506, 47857.00
1065.610, 47667.00
1066.713, 48192.00
1067.817, 48218.00
1068.920, 48148.00
1070.023, 48112.00
1071.126, 48032.00
1072.229, 48443.00
1073.332, 48442.00
1074.435, 48608.00
1075.537, 48448.00
1076.639, 48479.00
1077.741, 48480.00
1078.843, 48502.00
1079.945, 48530.77
1081.046, 48465.00
1082.148, 48571.00
1083.249, 48726.00
1084.350, 48714.00
1085.451, 48842.00
1086.551, 48827.00
1087.652, 48908.00
1088.752, 48932.00
1089.853, 48820.00
1090.953, 48987.00
1092.053, 49101.00
1093.152, 49092.00
1094.252, 48842.00
1095.351, 48966.00
1096.451, 48872.00
1097.550, 49023.00
1098.649, 49070.00
1099.748, 48968.00
1100.846, 49366.00
1101.945, 49140.00
1103.043, 49205.00
1104.141, 49227.00
1105.239, 49223.00
1106.337, 49116.00
1107.434, 49280.00
1108.532, 49266.00
1109.629, 49212.00
1110.726, 49337.00
1111.823, 49380.92
1112.920, 49469.86
1114.017, 49593.00
1115.113, 49639.00
1116.210, 49726.00
1117.306, 49682.00
1118.402, 49728.75
1119.498, 49791.93
1120.593, 49711.00
1121.689, 49852.00
1122.784, 49787.00
1123.879, 49649.00
1124.974, 50107.00
1126.069, 50048.00
1127.164, 49824.00
1128.259, 50047.00
1129.353, 49836.00
1130.447, 49971.00
1131.541, 49866.00
1132.635, 49846.00
1133.729, 50019.00
1134.822, 50073.00
1135.916, 50193.00
1137.009, 49929.00
1138.102, 50191.00
1139.195, 49803.00
1140.288, 50284.00
1141.380, 50507.00
1142.473, 50324.00
1143.565, 50588.00
1144.657, 50389.00
1145.749, 50394.00
1146.841, 50323.00
1147.932, 50404.00
1149.024, 50376.00
1150.115, 50411.00
1151.206, 50487.00
1152.297, 50504.00
1153.388, 50676.00
1154.479, 50503.00
1155.569, 50716.00
1156.659, 50908.00
1157.750, 50940.00
1158.839, 50830.00
1159.929, 50972.00
1161.019, 50766.00
1162.108, 50693.00
1163.198, 50964.00
1164.287, 51146.00
1165.376, 51007.00
1166.465, 51184.00
1167.553, 51366.00
1168.642, 50929.00
1169.730, 51524.00
1170.818, 51646.00
1171.906, 51253.00
1172.994, 51776.00
1174.082, 51358.00
1175.170, 51335.00
1176.257, 51591.00
1177.344, 51631.00
1178.431, 51669.68
1179.518, 51640.00
1180.605, 51785.00
1181.691, 51706.00
1182.778, 51898.00
1183.864, 51748.00
1184.950, 51452.00
1186.036, 52084.00
1187.122, 51775.00
1188.207, 51619.00
1189.292, 51749.00
1190.378, 51738.00
1191.463, 51854.00
1192.548, 52000.00
1193.632, 52007.00
1194.717, 51935.00
1195.801, 52089.00
1196.886, 52224.00
1197.970, 52209.00
1199.054, 52405.00
1200.137, 52211.00
1201.221, 52321.00
1202.305, 52310.00
1203.388, 52205.00
1204.471, 52347.00
1205.554, 52394.00
1206.637, 52623.00
1207.719, 52606.00
1208.802, 52703.00
1209.884, 52853.00
1210.966, 52454.00
1212.048, 52949.00
1213.130, 52756.00
1214.212, 52557.00
1215.293, 52933.00
1216.374, 52627.00
1217.456, 52608.00
1218.536, 52984.00
1219.617, 53145.00
1220.698, 53271.49
1221.778, 53050.00
1222.859, 53432.00
1223.939, 53256.00
1225.019, 53023.00
1226.099, 53213.00
1227.178, 53146.00
1228.258, 53102.00
1229.337, 53008.00
1230.417, 53066.00
1231.496, 53108.00
1232.574, 53362.00
1233.653, 53337.00
1234.732, 53635.00
1235.810, 53547.00
1236.888, 53546.00
1237.966, 53926.00
1239.044, 53774.00
1240.122, 53646.00
1241.199, 53607.00
1242.277, 53599.84
1243.354, 53803.00
1244.431, 53636.00
1245.508, 54109.00
1246.585, 54030.00
1247.661, 53617.00
1248.738, 53950.00
1249.814, 54300.00
1250.890, 54050.00
1251.966, 54349.00
1253.042, 54072.00
1254.117, 54268.00
1255.193, 54190.00
1256.268, 53711.00
1257.343, 54347.00
1258.418, 54210.00
1259.493, 53994.00
1260.567, 54308.00
1261.642, 54389.00
1262.716, 54419.00
1263.790, 54755.00
1264.864, 54992.00
1265.938, 54534.00
1267.011, 54673.00
1268.085, 54502.00
1269.158, 54255.00
1270.231, 54336.00
1271.304, 53961.00
1272.377, 54172.00
1273.450, 54378.00
1274.522, 54150.00
1275.594, 54064.00
1276.666, 54404.00
1277.738, 54777.00
1278.810, 54920.00
1279.882, 54810.00
1280.953, 54949.00
1282.025, 55035.00
1283.096, 54709.00
1284.167, 55101.00
1285.238, 55125.00
1286.308, 54740.00
1287.379, 55492.00
1288.449, 55303.00
1289.519, 55518.00
1290.589, 55685.00
1291.659, 55773.00
1292.729, 55622.00
1293.798, 55837.00
1294.868, 55853.00
1295.937, 55532.00
1297.006, 55675.00
1298.075, 55632.00
1299.143, 55545.00
1300.212, 55684.43
