##NAMES=Beryl
##RRUFFID=R060942
##IDEAL CHEMISTRY=Be_3_Al_2_Si_6_O_18_
##LOCALITY=Mingore mine, Swat Valley, Pakistan
##OWNER=RRUFF
##SOURCE=Lawrence W. Snee
##DESCRIPTION=Green hexagonal prisms, variety emerald
##STATUS=The identification of this mineral has been confirmed by X-ray diffraction and chemical analysis
##URL=rruff.info/R060942
##MEASURED CHEMISTRY=(Be_2.94_Li_0.06_)_Σ=3_(Al_1.55_Mg_0.37_Fe^3+^_0.06_Cr^3+^_0.02_)_Σ=2_Si_6.00_O_18_·Na_0.42_; Be and Li not measured but estimated by stoichiometry
##PIN_ID=L01655
##ORIENTATION=Laser parallel to c* (0 0 1). Fiducial mark perpendicular to laser is parallel to [-1 -1 0]
130.4390, 11009.77
131.6680, 11082.61
132.8980, 11213.00
134.1270, 11234.00
135.3560, 11299.00
136.5850, 11321.00
137.8140, 11367.00
139.0430, 11638.00
140.2710, 11708.00
141.5000, 11710.00
142.7280, 11773.00
143.9560, 11615.00
145.1840, 11487.00
146.4120, 11504.00
147.6390, 11596.00
148.8670, 11444.00
150.0940, 11468.00
151.3210, 11623.00
152.5490, 11626.00
153.7750, 11203.00
155.0020, 11333.00
156.2290, 11186.00
157.4550, 11068.00
158.6810, 11013.00
159.9080, 11013.00
161.1340, 11042.00
162.3590, 11120.00
163.5850, 11162.00
164.8110, 11184.66
166.0360, 11358.00
167.2610, 11267.00
168.4860, 11268.00
169.7110, 11404.00
170.9360, 11553.00
172.1610, 11379.00
173.3850, 11212.00
174.6100, 11312.00
175.8340, 11317.00
177.0580, 11382.00
178.2820, 11161.00
179.5050, 11247.00
180.7290, 11289.00
181.9520, 11154.00
183.1760, 11289.00
184.3990, 11216.00
185.6220, 11271.00
186.8450, 11258.00
188.0670, 11247.48
189.2900, 11315.00
190.5120, 11253.00
191.7340, 11309.00
192.9560, 11334.00
194.1780, 11463.00
195.4000, 11532.00
196.6220, 11657.00
197.8430, 11619.00
199.0640, 11680.00
200.2860, 11850.00
201.5070, 12005.00
202.7270, 11920.00
203.9480, 11568.00
205.1690, 10878.00
206.3890, 10575.00
207.6090, 10351.00
208.8290, 10373.00
210.0490, 10226.00
211.2690, 10256.00
212.4890, 10278.00
213.7080, 10380.00
214.9280, 10209.00
216.1470, 10129.00
217.3660, 10257.00
218.5850, 10263.00
219.8030, 10166.00
221.0220, 10145.00
222.2400, 10165.00
223.4590, 10180.00
224.6770, 10262.00
225.8950, 10279.00
227.1120, 10231.00
228.3300, 10295.71
229.5480, 10285.00
230.7650, 10267.00
231.9820, 10364.00
233.1990, 10187.00
234.4160, 10394.00
235.6330, 10181.00
236.8490, 10365.00
238.0660, 10371.00
239.2820, 10199.00
240.4980, 10349.00
241.7140, 10178.00
242.9300, 10239.00
244.1460, 10369.00
245.3610, 10128.00
246.5770, 10202.00
247.7920, 10136.00
249.0070, 10267.00
250.2220, 10076.00
251.4370, 10024.00
252.6510, 10024.00
253.8660, 10050.00
255.0800, 10204.00
256.2940, 10880.00
257.5080, 10572.00
258.7220, 10815.02
259.9360, 10761.04
261.1490, 10809.00
262.3630, 10662.00
263.5760, 10642.00
264.7890, 11016.00
266.0020, 11290.00
267.2150, 11595.00
268.4270, 11530.00
269.6400, 11244.00
270.8520, 10992.00
272.0640, 10724.00
273.2760, 10500.00
274.4880, 10383.00
275.7000, 10538.00
276.9120, 10343.00
278.1230, 10349.00
279.3340, 10195.00
280.5450, 10359.00
281.7560, 10319.00
282.9670, 10418.00
284.1780, 10434.00
285.3880, 10430.00
286.5980, 10589.00
287.8090, 10665.00
289.0190, 10578.00
290.2290, 10733.00
291.4380, 10546.00
292.6480, 10624.00
293.8570, 10479.00
295.0670, 10393.00
296.2760, 10279.00
297.4850, 9938.000
298.6930, 9820.000
299.9020, 9709.000
301.1110, 9667.000
302.3190, 9484.000
303.5270, 9593.000
304.7350, 9591.000
305.9430, 9425.000
307.1510, 9520.000
308.3580, 9553.000
309.5660, 9568.000
310.7730, 9627.000
311.9800, 9680.024
313.1870, 9774.000
314.3940, 9858.000
315.6010, 10005.00
316.8070, 10190.00
318.0130, 10254.00
319.2200, 10455.00
320.4260, 10725.00
321.6310, 10960.00
322.8370, 10986.00
324.0430, 11011.54
325.2480, 10997.00
326.4540, 10793.00
327.6590, 10519.00
328.8640, 10311.58
330.0680, 10071.71
331.2730, 9869.000
332.4780, 9643.000
333.6820, 9352.000
334.8860, 9218.000
336.0900, 9165.000
337.2940, 8897.000
338.4980, 9042.000
339.7010, 8971.000
340.9050, 8903.000
342.1080, 8860.000
343.3110, 8885.000
344.5140, 8982.000
345.7170, 8861.000
346.9200, 8872.000
348.1220, 8799.000
349.3240, 8926.000
350.5270, 8863.000
351.7290, 8885.000
352.9310, 8913.000
354.1320, 8873.000
355.3340, 8842.000
356.5350, 8853.000
357.7370, 8930.000
358.9380, 8885.000
360.1390, 8919.752
361.3400, 8775.000
362.5400, 8888.000
363.7410, 8938.000
364.9410, 8831.000
366.1410, 9034.000
367.3410, 9001.000
368.5410, 8995.000
369.7410, 9115.000
370.9400, 9130.000
372.1400, 9164.000
373.3390, 9174.000
374.5380, 9210.000
375.7370, 9249.000
376.9360, 9417.000
378.1350, 9425.000
379.3330, 9481.000
380.5310, 9730.000
381.7300, 10024.00
382.9280, 10193.00
384.1260, 10516.00
385.3230, 10807.00
386.5210, 11390.00
387.7180, 12218.00
388.9160, 13020.00
390.1130, 13983.00
391.3100, 15089.00
392.5060, 16815.00
393.7030, 18405.00
394.9000, 20241.00
396.0960, 22417.00
397.2920, 24158.00
398.4880, 25271.00
399.6840, 25313.00
400.8800, 24673.00
402.0750, 23028.00
403.2710, 21317.00
404.4660, 19614.00
405.6610, 18129.00
406.8560, 17031.00
408.0510, 16153.00
409.2450, 15347.00
410.4400, 14864.00
411.6340, 14276.00
412.8280, 13768.00
414.0220, 13418.00
415.2160, 12905.00
416.4100, 12563.00
417.6030, 12290.00
418.7970, 12000.00
419.9900, 11660.00
421.1830, 11402.00
422.3760, 11278.00
423.5690, 10892.00
424.7610, 10955.00
425.9540, 10744.00
427.1460, 10721.00
428.3380, 10672.00
429.5300, 10531.00
430.7220, 10578.31
431.9140, 10650.00
433.1050, 10666.00
434.2970, 10746.00
435.4880, 10911.00
436.6790, 10767.00
437.8700, 10932.00
439.0610, 11135.00
440.2510, 10855.00
441.4420, 10826.00
442.6320, 10609.00
443.8220, 10471.00
445.0120, 10185.00
446.2020, 9926.000
447.3910, 9718.000
448.5810, 9536.518
449.7700, 9409.000
450.9600, 9333.000
452.1490, 9269.000
453.3370, 9189.316
454.5260, 9226.000
455.7150, 9091.000
456.9030, 9080.000
458.0910, 9075.000
459.2800, 8953.000
460.4670, 8973.691
461.6550, 8956.126
462.8430, 8930.000
464.0300, 8985.000
465.2180, 8950.000
466.4050, 8982.000
467.5920, 8997.743
468.7790, 8847.000
469.9650, 9026.000
471.1520, 8972.000
472.3380, 8968.000
473.5250, 9050.000
474.7110, 8981.000
475.8970, 9030.000
477.0820, 9129.000
478.2680, 9133.000
479.4540, 9185.000
480.6390, 9270.000
481.8240, 9095.000
483.0090, 9012.000
484.1940, 8992.000
485.3780, 9065.000
486.5630, 9031.000
487.7470, 9072.000
488.9320, 8974.000
490.1160, 9053.000
491.3000, 9046.000
492.4830, 9121.000
493.6670, 9085.000
494.8500, 9160.000
496.0340, 9127.000
497.2170, 9195.000
498.4000, 9195.718
499.5820, 9313.164
500.7650, 9253.000
501.9480, 9542.000
503.1300, 9689.896
504.3120, 9728.276
505.4940, 9620.136
506.6760, 9696.000
507.8580, 9232.000
509.0390, 9209.000
510.2210, 9178.000
511.4020, 9084.000
512.5830, 9214.000
513.7640, 9170.197
514.9450, 9182.144
516.1250, 9223.000
517.3060, 9179.000
518.4860, 9208.000
519.6660, 9170.000
520.8460, 9228.000
522.0260, 9174.299
523.2060, 9075.000
524.3850, 9108.000
525.5650, 8996.000
526.7440, 8997.000
527.9230, 8879.000
529.1020, 8935.000
530.2810, 8844.000
531.4590, 8766.000
532.6380, 8701.000
533.8160, 8790.000
534.9940, 8645.000
536.1720, 8712.000
537.3500, 8661.000
538.5270, 8803.000
539.7050, 8751.000
540.8820, 8771.000
542.0590, 8674.000
543.2360, 8755.000
544.4130, 8777.000
545.5900, 8879.000
546.7660, 8936.000
547.9430, 8947.000
549.1190, 9081.000
550.2950, 9103.000
551.4710, 9251.000
552.6470, 9484.000
553.8220, 9680.000
554.9980, 9948.000
556.1730, 10158.00
557.3480, 10408.00
558.5230, 10734.00
559.6980, 11009.00
560.8730, 11210.00
562.0470, 11347.00
563.2220, 11163.00
564.3960, 11271.00
565.5700, 11156.00
566.7440, 11170.00
567.9170, 11218.00
569.0910, 11154.00
570.2640, 11141.00
571.4380, 10969.00
572.6110, 10925.00
573.7840, 10926.00
574.9570, 10687.00
576.1290, 10834.00
577.3020, 11085.00
578.4740, 10566.00
579.6460, 10687.00
580.8180, 10558.00
581.9900, 10430.00
583.1620, 10441.00
584.3330, 10331.00
585.5040, 10341.00
586.6760, 10254.00
587.8470, 10196.00
589.0180, 10122.00
590.1880, 10102.00
591.3590, 10216.00
592.5290, 10188.00
593.7000, 10064.00
594.8700, 9946.000
596.0400, 9985.000
597.2090, 9951.000
598.3790, 9898.000
599.5490, 9832.000
600.7180, 9704.000
601.8870, 9653.000
603.0560, 9558.000
604.2250, 9540.000
605.3940, 9471.203
606.5620, 9414.669
607.7300, 9365.000
608.8990, 9329.000
610.0670, 9271.000
611.2350, 9278.000
612.4020, 9262.000
613.5700, 9217.000
614.7370, 9183.000
615.9050, 9043.000
617.0720, 8932.000
618.2390, 8958.000
619.4060, 8893.000
620.5720, 8889.000
621.7390, 8795.000
622.9050, 8783.000
624.0710, 8735.000
625.2370, 8629.000
626.4030, 8774.000
627.5690, 8605.000
628.7340, 8686.000
629.9000, 8624.000
631.0650, 8715.000
632.2300, 8765.000
633.3950, 8597.000
634.5600, 8726.000
635.7240, 8695.000
636.8890, 8705.000
638.0530, 8716.000
639.2170, 8789.000
640.3810, 8653.000
641.5450, 8745.000
642.7080, 8836.000
643.8720, 8994.000
645.0350, 8920.230
646.1980, 8874.000
647.3610, 8825.000
648.5240, 8803.000
649.6870, 8856.000
650.8490, 8817.000
652.0120, 8925.000
653.1740, 8950.000
654.3360, 8983.000
655.4980, 9007.000
656.6600, 9032.000
657.8210, 9097.000
658.9830, 9233.000
660.1440, 9516.000
661.3050, 9562.000
662.4660, 9744.000
663.6270, 9780.000
664.7870, 10072.00
665.9480, 10309.00
667.1080, 10547.00
668.2680, 10987.00
669.4280, 11358.00
670.5880, 11937.00
671.7480, 12729.00
672.9070, 13498.00
674.0670, 14489.00
675.2260, 16047.00
676.3850, 17979.00
677.5440, 20439.00
678.7030, 23637.00
679.8610, 27828.00
681.0200, 32503.00
682.1780, 38279.00
683.3360, 44893.00
684.4940, 51455.00
685.6520, 57883.00
686.8090, 60501.00
687.9670, 60491.00
689.1240, 56658.00
690.2810, 50518.00
691.4380, 43097.00
692.5950, 36461.00
693.7520, 30971.00
694.9080, 26575.00
696.0650, 23239.00
697.2210, 20642.00
698.3770, 18621.00
699.5330, 17015.00
700.6880, 15609.00
701.8440, 14837.00
702.9990, 13891.00
704.1550, 13315.00
705.3100, 12796.00
706.4650, 12239.00
707.6190, 11916.00
708.7740, 11504.00
709.9290, 11230.00
711.0830, 11063.00
712.2370, 10863.00
713.3910, 10680.68
714.5450, 10441.00
715.6980, 10353.00
716.8520, 10155.00
718.0050, 9975.000
719.1580, 9949.000
720.3110, 9846.000
721.4640, 9762.000
722.6170, 9724.184
723.7700, 9596.000
724.9220, 9601.000
726.0740, 9493.000
727.2260, 9369.000
728.3780, 9396.000
729.5300, 9262.000
730.6810, 9310.000
731.8330, 9376.000
732.9840, 9277.000
734.1350, 9311.000
735.2860, 9247.000
736.4370, 9284.000
737.5880, 9281.000
738.7380, 9279.000
739.8880, 9188.000
741.0390, 9165.000
742.1890, 9326.000
743.3380, 9227.000
744.4880, 9326.000
745.6380, 9287.000
746.7870, 9172.000
747.9360, 9213.000
749.0850, 9210.000
750.2340, 9145.000
751.3830, 9250.000
752.5310, 9257.000
753.6800, 9343.000
754.8280, 9256.965
755.9760, 9229.175
757.1240, 9094.000
758.2720, 9086.000
759.4190, 9097.000
760.5670, 9067.000
761.7140, 8987.000
762.8610, 8977.000
764.0080, 9008.000
765.1550, 8932.000
766.3020, 8914.286
767.4480, 8890.000
768.5950, 8815.000
769.7410, 8800.000
770.8870, 8753.980
772.0330, 8898.000
773.1780, 8753.000
774.3240, 8813.000
775.4690, 8803.000
776.6140, 8707.000
777.7590, 8738.000
778.9040, 8622.000
780.0490, 8771.000
781.1940, 8776.000
782.3380, 8602.000
783.4820, 8516.000
784.6260, 8647.000
785.7700, 8626.000
786.9140, 8737.000
788.0580, 8579.000
789.2010, 8726.000
790.3450, 8551.000
791.4880, 8544.000
792.6310, 8609.000
793.7730, 8592.000
794.9160, 8587.000
796.0590, 8567.413
797.2010, 8587.000
798.3430, 8480.000
799.4850, 8444.000
800.6270, 8397.000
801.7690, 8457.000
802.9100, 8413.000
804.0520, 8489.000
805.1930, 8470.000
806.3340, 8559.000
807.4750, 8378.000
808.6160, 8353.000
809.7560, 8402.000
810.8970, 8338.000
812.0370, 8359.000
813.1770, 8374.000
814.3170, 8296.000
815.4570, 8296.000
816.5960, 8284.898
817.7360, 8280.000
818.8750, 8293.000
820.0140, 8326.000
821.1530, 8371.000
822.2920, 8281.000
823.4310, 8321.000
824.5690, 8278.000
825.7070, 8388.000
826.8460, 8379.000
827.9840, 8412.000
829.1220, 8401.166
830.2590, 8315.000
831.3970, 8354.000
832.5340, 8353.000
833.6710, 8382.000
834.8080, 8217.000
835.9450, 8343.000
837.0820, 8359.000
838.2190, 8526.000
839.3550, 8445.000
840.4910, 8502.364
841.6270, 8327.000
842.7630, 8481.000
843.8990, 8379.000
845.0350, 8305.000
846.1700, 8325.000
847.3060, 8353.000
848.4410, 8225.000
849.5760, 8416.000
850.7100, 8316.000
851.8450, 8343.000
852.9800, 8406.000
854.1140, 8433.000
855.2480, 8452.000
856.3820, 8297.000
857.5160, 8382.000
858.6500, 8325.000
859.7830, 8412.000
860.9170, 8285.000
862.0500, 8427.000
863.1830, 8331.000
864.3160, 8417.000
865.4480, 8297.000
866.5810, 8375.000
867.7130, 8391.000
868.8460, 8442.000
869.9780, 8414.124
871.1100, 8428.000
872.2410, 8422.873
873.3730, 8455.000
874.5050, 8400.000
875.6360, 8415.000
876.7670, 8413.000
877.8980, 8367.000
879.0290, 8394.000
880.1590, 8435.000
881.2900, 8439.000
882.4200, 8534.000
883.5500, 8442.000
884.6800, 8431.000
885.8100, 8544.000
886.9400, 8489.000
888.0690, 8404.000
889.1990, 8575.000
890.3280, 8629.000
891.4570, 8449.000
892.5860, 8624.000
893.7140, 8648.000
894.8430, 8718.000
895.9710, 8835.000
897.1000, 8807.000
898.2280, 8891.000
899.3560, 9020.000
900.4830, 8922.000
901.6110, 9013.000
902.7380, 8974.000
903.8660, 9086.000
904.9930, 9177.000
906.1200, 9133.000
907.2460, 9135.000
908.3730, 9172.354
909.5000, 9182.979
910.6260, 9192.000
911.7520, 9228.000
912.8780, 9197.000
914.0040, 9138.000
915.1290, 9082.000
916.2550, 9226.000
917.3800, 9042.000
918.5050, 9219.000
919.6300, 9135.000
920.7550, 8978.000
921.8800, 9211.000
923.0040, 9075.000
924.1290, 9008.000
925.2530, 8927.000
926.3770, 8991.000
927.5010, 8929.000
928.6250, 8924.000
929.7480, 9021.000
930.8720, 8925.000
931.9950, 8947.000
933.1180, 8886.000
934.2410, 8890.000
935.3640, 8800.000
936.4860, 8900.000
937.6090, 8836.000
938.7310, 8761.000
939.8530, 8703.000
940.9750, 8641.000
942.0970, 8647.000
943.2180, 8749.000
944.3400, 8729.000
945.4610, 8767.424
946.5820, 8778.000
947.7030, 8798.000
948.8240, 8721.000
949.9450, 8720.000
951.0650, 8638.000
952.1860, 8643.000
953.3060, 8776.000
954.4260, 8712.000
955.5460, 8593.000
956.6650, 8730.000
957.7850, 8688.000
958.9040, 8642.000
960.0230, 8677.000
961.1420, 8726.000
962.2610, 8690.000
963.3800, 8831.000
964.4990, 8678.000
965.6170, 8700.000
966.7350, 8797.000
967.8530, 8836.000
968.9710, 8767.000
970.0890, 8894.000
971.2070, 8733.000
972.3240, 8983.000
973.4410, 8915.000
974.5580, 8901.000
975.6750, 8925.000
976.7920, 9065.000
977.9090, 8981.000
979.0250, 9103.000
980.1410, 9202.000
981.2580, 9459.000
982.3740, 9393.000
983.4890, 9565.387
984.6050, 9730.000
985.7200, 9724.000
986.8360, 10022.00
987.9510, 10052.00
989.0660, 10155.00
990.1810, 10655.00
991.2950, 10762.00
992.4100, 11011.00
993.5240, 11190.00
994.6390, 11416.00
995.7530, 11680.00
996.8660, 11727.00
997.9800, 11795.00
999.0940, 11851.00
1000.207, 11791.40
1001.320, 11845.00
1002.433, 11593.00
1003.546, 11515.00
1004.659, 11304.00
1005.772, 11270.00
1006.884, 11085.00
1007.996, 10834.00
1009.108, 10770.00
1010.220, 10743.00
1011.332, 10523.00
1012.444, 10380.00
1013.555, 10495.00
1014.666, 10190.00
1015.777, 10218.00
1016.888, 10140.00
1017.999, 10068.00
1019.110, 9948.000
1020.220, 9835.000
1021.331, 9866.000
1022.441, 9745.000
1023.551, 9788.000
1024.661, 9714.000
1025.770, 9760.000
1026.880, 9696.000
1027.989, 9654.000
1029.098, 9561.000
1030.207, 9646.000
1031.316, 9639.000
1032.425, 9462.000
1033.533, 9551.000
1034.642, 9586.000
1035.750, 9423.000
1036.858, 9548.000
1037.966, 9510.000
1039.073, 9541.000
1040.181, 9549.000
1041.288, 9545.000
1042.396, 9619.000
1043.503, 9525.000
1044.610, 9626.729
1045.716, 9647.661
1046.823, 9831.000
1047.929, 9773.000
1049.036, 10006.00
1050.142, 10130.00
1051.248, 10344.00
1052.353, 10515.68
1053.459, 10599.00
1054.564, 10911.00
1055.670, 11133.00
1056.775, 11433.00
1057.880, 11745.00
1058.985, 12161.39
1060.089, 12672.00
1061.194, 13147.00
1062.298, 13712.65
1063.402, 14348.00
1064.506, 14769.00
1065.610, 15167.00
1066.713, 15480.00
1067.817, 15935.00
1068.920, 16086.00
1070.023, 16318.00
1071.126, 16078.00
1072.229, 16023.00
1073.332, 15874.00
1074.435, 15488.00
1075.537, 15138.00
1076.639, 14918.00
1077.741, 14370.00
1078.843, 14055.00
1079.945, 13768.00
1081.046, 13453.00
1082.148, 13208.00
1083.249, 13007.00
1084.350, 12715.00
1085.451, 12595.00
1086.551, 12328.00
1087.652, 12335.00
1088.752, 12154.00
1089.853, 12074.00
1090.953, 11898.00
1092.053, 11765.00
1093.152, 11618.00
1094.252, 11542.00
1095.351, 11462.00
1096.451, 11205.00
1097.550, 11410.00
1098.649, 11410.00
1099.748, 11117.00
1100.846, 11018.00
1101.945, 11009.00
1103.043, 11012.00
1104.141, 10787.00
1105.239, 10793.00
1106.337, 10737.00
1107.434, 10670.00
1108.532, 10650.00
1109.629, 10690.00
1110.726, 10627.00
1111.823, 10709.00
1112.920, 10729.00
1114.017, 10705.00
1115.113, 10788.00
1116.210, 10865.00
1117.306, 10987.00
1118.402, 10994.00
1119.498, 11198.00
1120.593, 11179.00
1121.689, 11312.00
1122.784, 11431.00
1123.879, 11267.00
1124.974, 11317.00
1126.069, 11157.00
1127.164, 11041.00
1128.259, 10944.00
1129.353, 10615.00
1130.447, 10522.00
1131.541, 10393.00
1132.635, 10289.00
1133.729, 10222.00
1134.822, 10131.18
1135.916, 10098.93
1137.009, 10015.00
1138.102, 9965.000
1139.195, 9947.000
1140.288, 9698.000
1141.380, 9740.000
1142.473, 9626.000
1143.565, 9660.000
1144.657, 9535.000
1145.749, 9578.000
1146.841, 9459.000
1147.932, 9436.000
1149.024, 9434.000
1150.115, 9416.000
1151.206, 9378.000
1152.297, 9286.000
1153.388, 9299.000
1154.479, 9382.000
1155.569, 9057.000
1156.659, 9124.000
1157.750, 9298.000
1158.839, 9008.000
1159.929, 9126.000
1161.019, 9072.000
1162.108, 8976.000
1163.198, 9069.000
1164.287, 9022.000
1165.376, 9018.000
1166.465, 8983.000
1167.553, 9093.000
1168.642, 9123.000
1169.730, 9146.000
1170.818, 9155.000
1171.906, 9226.000
1172.994, 9353.000
1174.082, 9279.000
1175.170, 9297.000
1176.257, 9492.000
1177.344, 9525.000
1178.431, 9582.000
1179.518, 9706.000
1180.605, 9681.000
1181.691, 9706.000
1182.778, 9790.092
1183.864, 9931.000
1184.950, 9912.000
1186.036, 9953.000
1187.122, 9987.000
1188.207, 9890.000
1189.292, 9937.000
1190.378, 9870.000
1191.463, 9988.000
1192.548, 10068.00
1193.632, 10072.00
1194.717, 10015.00
1195.801, 10191.00
1196.886, 10081.00
1197.970, 10203.00
1199.054, 10176.00
1200.137, 10348.00
1201.221, 10263.00
1202.305, 10391.00
1203.388, 10566.00
1204.471, 10539.65
1205.554, 10526.00
1206.637, 10604.00
1207.719, 10614.27
1208.802, 10777.00
1209.884, 10704.00
1210.966, 10843.00
1212.048, 10867.00
1213.130, 10671.00
1214.212, 10644.00
1215.293, 10581.00
1216.374, 10559.00
1217.456, 10425.00
1218.536, 10204.00
1219.617, 10114.00
1220.698, 9955.000
1221.778, 9907.000
1222.859, 9652.000
1223.939, 9558.000
1225.019, 9367.000
1226.099, 9412.000
1227.178, 9332.000
1228.258, 9044.000
1229.337, 9074.000
1230.417, 8947.000
1231.496, 8901.000
1232.574, 8869.000
1233.653, 8674.000
1234.732, 8690.000
1235.810, 8737.000
1236.888, 8642.000
1237.966, 8570.000
1239.044, 8576.000
1240.122, 8515.581
1241.199, 8497.157
1242.277, 8491.000
1243.354, 8432.000
1244.431, 8460.000
1245.508, 8378.000
1246.585, 8409.000
1247.661, 8317.000
1248.738, 8273.000
1249.814, 8179.000
1250.890, 8173.000
1251.966, 8274.000
1253.042, 8249.000
1254.117, 8288.000
1255.193, 8198.000
1256.268, 8204.000
1257.343, 8183.000
1258.418, 8159.000
1259.493, 8086.000
1260.567, 8068.000
1261.642, 8057.828
1262.716, 8025.343
1263.790, 8057.000
1264.864, 8034.000
1265.938, 8022.000
1267.011, 8101.000
1268.085, 8157.000
1269.158, 8121.000
1270.231, 7999.000
1271.304, 8148.000
1272.377, 8075.000
1273.450, 8017.000
1274.522, 8052.000
1275.594, 8155.000
1276.666, 8025.000
1277.738, 8129.000
1278.810, 8124.000
1279.882, 8115.000
1280.953, 8011.000
1282.025, 7898.000
1283.096, 8010.000
1284.167, 7985.000
1285.238, 7994.000
1286.308, 8049.000
1287.379, 8082.000
1288.449, 8071.000
1289.519, 7979.000
1290.589, 8040.000
1291.659, 8059.000
1292.729, 8009.000
1293.798, 8055.000
1294.868, 7951.000
1295.937, 8117.000
1297.006, 8092.000
1298.075, 8160.000
1299.143, 8108.168
1300.212, 8156.000
1301.280, 7983.000
