##NAMES=Beryl
##RRUFFID=R060943
##IDEAL CHEMISTRY=Be_3_Al_2_Si_6_O_18_
##LOCALITY=Xinjiang, China
##OWNER=RRUFF
##SOURCE=Lawrence W. Snee
##DESCRIPTION=Green hexagonal prisms, variety emerald
##STATUS=The identification of this mineral has been confirmed by X-ray diffraction and chemical analysis
##URL=rruff.info/R060943
##MEASURED CHEMISTRY=(Be_2.96_Li_0.04_)_Σ=3_(Al_1.64_Mg_0.21_V^3+^_0.06_Fe^3+^_0.04_Sc^3+^_0.03_Cr^3+^_0.02_)_Σ=2_Si_6.00_O_18_·Na_0.25_
##PIN_ID=L00265
##ORIENTATION=Laser parallel to a* (1 0 0). Fiducial mark perpendicular to laser is parallel to -c [0 0 -1]
167.3340, 10303.00
168.5670, 10269.00
169.8000, 10214.00
171.0320, 10323.00
172.2650, 10356.00
173.4970, 10281.00
174.7290, 10419.00
175.9610, 10489.00
177.1930, 10242.00
178.4240, 10341.00
179.6550, 10239.00
180.8870, 10515.00
182.1170, 10252.00
183.3480, 10440.00
184.5790, 10475.00
185.8090, 10338.00
187.0390, 10489.00
188.2690, 10517.00
189.4990, 10591.00
190.7290, 10496.00
191.9580, 10520.00
193.1870, 10459.00
194.4160, 10512.00
195.6450, 10519.44
196.8740, 10636.00
198.1020, 10576.00
199.3310, 10676.00
200.5590, 10703.00
201.7870, 10606.00
203.0140, 10616.00
204.2420, 10423.00
205.4690, 10388.00
206.6960, 10124.00
207.9230, 10146.00
209.1500, 10000.00
210.3760, 10114.00
211.6030, 10020.00
212.8290, 10011.00
214.0550, 9923.000
215.2810, 10004.00
216.5060, 10032.00
217.7320, 9958.000
218.9570, 10101.00
220.1820, 10092.00
221.4070, 10122.00
222.6320, 10193.00
223.8560, 10133.00
225.0800, 10145.00
226.3040, 10035.00
227.5280, 10223.00
228.7520, 10184.00
229.9760, 10297.00
231.1990, 10189.00
232.4220, 10323.00
233.6450, 10319.00
234.8680, 10236.00
236.0910, 10394.00
237.3130, 10450.00
238.5350, 10291.00
239.7570, 10307.00
240.9790, 10345.00
242.2010, 10329.00
243.4220, 10363.00
244.6430, 10309.00
245.8640, 10289.00
247.0850, 10278.84
248.3060, 10308.00
249.5270, 10220.00
250.7470, 10222.00
251.9670, 10160.00
253.1870, 10333.00
254.4070, 10218.00
255.6260, 10098.00
256.8460, 10072.00
258.0650, 10600.00
259.2840, 10854.00
260.5030, 10625.00
261.7220, 10238.00
262.9400, 10201.00
264.1580, 10264.00
265.3760, 10427.00
266.5940, 10446.00
267.8120, 10565.00
269.0290, 10668.00
270.2470, 10751.00
271.4640, 10751.00
272.6810, 10602.00
273.8980, 10611.00
275.1140, 10499.00
276.3310, 10585.00
277.5470, 10528.00
278.7630, 10599.00
279.9790, 10645.00
281.1940, 10701.00
282.4100, 10903.00
283.6250, 10897.00
284.8400, 11054.00
286.0550, 11142.00
287.2700, 11162.00
288.4850, 11578.00
289.6990, 11424.91
290.9130, 11878.00
292.1270, 11279.00
293.3410, 11198.00
294.5540, 11029.00
295.7680, 10897.00
296.9810, 10647.00
298.1940, 10702.00
299.4070, 10550.00
300.6200, 10593.00
301.8320, 10595.00
303.0450, 10660.00
304.2570, 10709.45
305.4690, 10778.00
306.6800, 10862.13
307.8920, 10993.00
309.1030, 11123.00
310.3150, 11291.00
311.5260, 11426.00
312.7360, 11547.00
313.9470, 11901.00
315.1580, 12124.00
316.3680, 12217.00
317.5780, 12595.00
318.7880, 12966.00
319.9980, 13127.00
321.2070, 13558.00
322.4170, 13724.00
323.6260, 13904.00
324.8350, 13541.00
326.0430, 13031.00
327.2520, 12282.00
328.4610, 11592.00
329.6690, 10917.00
330.8770, 10591.00
332.0850, 10156.00
333.2920, 10297.00
334.5000, 10054.00
335.7070, 9956.000
336.9140, 10018.00
338.1210, 9857.000
339.3280, 9952.000
340.5350, 9942.000
341.7410, 10059.00
342.9470, 9863.000
344.1540, 9852.000
345.3590, 9959.000
346.5650, 10000.00
347.7710, 9878.000
348.9760, 9903.000
350.1810, 9951.000
351.3860, 9941.000
352.5910, 9948.000
353.7950, 9868.000
355.0000, 9908.000
356.2040, 9890.000
357.4080, 9965.000
358.6120, 9966.000
359.8150, 10024.00
361.0190, 10049.14
362.2220, 10100.00
363.4250, 10063.00
364.6280, 10086.00
365.8310, 10017.00
367.0340, 10064.00
368.2360, 10083.00
369.4380, 10098.00
370.6400, 10072.00
371.8420, 10213.00
373.0440, 10340.00
374.2450, 10236.00
375.4470, 10442.00
376.6480, 10535.00
377.8490, 10700.00
379.0490, 10731.00
380.2500, 11019.00
381.4500, 11177.00
382.6510, 11419.00
383.8510, 11785.00
385.0500, 12439.00
386.2500, 12941.00
387.4500, 13701.00
388.6490, 14625.00
389.8480, 15784.00
391.0470, 16865.00
392.2460, 18482.00
393.4440, 19898.00
394.6430, 21612.00
395.8410, 23135.00
397.0390, 24155.00
398.2370, 24450.00
399.4340, 23911.00
400.6320, 22572.00
401.8290, 20854.00
403.0260, 19157.00
404.2230, 17630.00
405.4200, 16359.00
406.6170, 15432.00
407.8130, 14811.00
409.0090, 14374.00
410.2050, 14153.00
411.4010, 13962.00
412.5970, 13769.92
413.7920, 13759.00
414.9880, 13614.00
416.1830, 13388.00
417.3780, 13417.00
418.5730, 12979.00
419.7670, 12918.00
420.9620, 12505.00
422.1560, 12097.00
423.3500, 11935.00
424.5440, 11743.00
425.7380, 11537.00
426.9310, 11525.00
428.1240, 11341.00
429.3180, 11315.00
430.5110, 11328.00
431.7030, 11342.00
432.8960, 11453.00
434.0890, 11443.00
435.2810, 11541.00
436.4730, 11576.00
437.6650, 11772.00
438.8570, 12019.00
440.0480, 12295.00
441.2390, 12356.00
442.4310, 12361.00
443.6220, 12155.00
444.8120, 11891.00
446.0030, 11540.00
447.1940, 11316.00
448.3840, 10982.00
449.5740, 10832.00
450.7640, 10703.00
451.9540, 10606.00
453.1430, 10431.00
454.3330, 10572.00
455.5220, 10419.00
456.7110, 10544.00
457.9000, 10318.00
459.0890, 10281.00
460.2770, 10495.00
461.4650, 10392.00
462.6540, 10400.00
463.8420, 10325.00
465.0290, 10261.00
466.2170, 10236.00
467.4050, 10315.00
468.5920, 10403.00
469.7790, 10231.00
470.9660, 10391.00
472.1530, 10238.00
473.3390, 10367.00
474.5250, 10284.00
475.7120, 10396.00
476.8980, 10412.00
478.0840, 10466.00
479.2690, 10561.00
480.4550, 10423.00
481.6400, 10434.00
482.8250, 10493.00
484.0100, 10627.00
485.1950, 10392.00
486.3800, 10479.00
487.5640, 10485.00
488.7480, 10453.00
489.9320, 10308.00
491.1160, 10500.00
492.3000, 10331.00
493.4840, 10385.00
494.6670, 10467.00
495.8500, 10386.00
497.0330, 10317.00
498.2160, 10498.00
499.3990, 10482.00
500.5810, 10358.00
501.7630, 10535.00
502.9460, 10380.00
504.1280, 10445.00
505.3090, 10576.00
506.4910, 10420.00
507.6720, 10374.00
508.8540, 10458.00
510.0350, 10456.00
511.2160, 10551.00
512.3960, 10516.00
513.5770, 10537.00
514.7570, 10508.00
515.9380, 10628.00
517.1180, 10608.00
518.2970, 10739.00
519.4770, 10550.00
520.6570, 10704.00
521.8360, 10637.00
523.0150, 10814.00
524.1940, 10657.00
525.3730, 10701.00
526.5510, 10676.00
527.7300, 10544.00
528.9080, 10595.00
530.0860, 10607.00
531.2640, 10429.00
532.4420, 10393.00
533.6200, 10386.00
534.7970, 10325.69
535.9740, 10458.00
537.1510, 10297.00
538.3280, 10244.00
539.5050, 10187.00
540.6810, 10301.00
541.8580, 10097.00
543.0340, 10192.00
544.2100, 10234.00
545.3860, 10120.00
546.5610, 10237.00
547.7370, 10258.00
548.9120, 10261.00
550.0870, 10280.00
551.2620, 10280.00
552.4370, 10445.00
553.6120, 10534.00
554.7860, 10706.00
555.9600, 10736.00
557.1340, 10833.00
558.3080, 10993.00
559.4820, 11251.00
560.6560, 11513.00
561.8290, 11404.00
563.0020, 11465.00
564.1750, 11555.00
565.3480, 11463.00
566.5210, 11467.00
567.6930, 11460.00
568.8660, 11403.00
570.0380, 11544.00
571.2100, 11681.00
572.3820, 11790.00
573.5530, 11814.00
574.7250, 11820.00
575.8960, 11973.00
577.0670, 11913.00
578.2380, 11886.00
579.4090, 11871.00
580.5800, 11747.00
581.7500, 11818.00
582.9210, 11746.00
584.0910, 11730.00
585.2610, 11481.00
586.4300, 11711.00
587.6000, 11553.00
588.7690, 11638.00
589.9390, 11539.00
591.1080, 11586.00
592.2770, 11569.00
593.4450, 11650.00
594.6140, 11662.00
595.7820, 11613.56
596.9500, 11533.00
598.1190, 11500.00
599.2860, 11394.00
600.4540, 11337.00
601.6220, 11331.00
602.7890, 11185.00
603.9560, 11272.00
605.1230, 11366.00
606.2900, 11158.00
607.4570, 11141.00
608.6230, 10971.00
609.7890, 10985.00
610.9560, 11065.00
612.1220, 11063.00
613.2870, 11082.00
614.4530, 11079.26
615.6180, 10974.00
616.7840, 11063.00
617.9490, 10958.00
619.1140, 11004.00
620.2790, 10895.00
621.4430, 10828.00
622.6080, 10859.00
623.7720, 10958.00
624.9360, 10872.00
626.1000, 10855.00
627.2640, 10813.00
628.4270, 10801.00
629.5910, 10767.00
630.7540, 10701.00
631.9170, 10713.92
633.0800, 10727.00
634.2430, 10714.00
635.4050, 10814.00
636.5680, 10824.00
637.7300, 10794.00
638.8920, 10946.00
640.0540, 10934.00
641.2150, 10970.00
642.3770, 11007.16
643.5380, 10867.00
644.7000, 11030.00
645.8610, 11018.00
647.0210, 11049.00
648.1820, 10923.00
649.3430, 10964.00
650.5030, 11145.00
651.6630, 11015.00
652.8230, 11043.00
653.9830, 11198.00
655.1430, 11236.00
656.3020, 11167.00
657.4620, 11213.00
658.6210, 11161.00
659.7800, 11420.00
660.9390, 11519.00
662.0970, 11634.00
663.2560, 11936.00
664.4140, 12200.00
665.5720, 12461.00
666.7300, 12652.00
667.8880, 13029.00
669.0460, 13583.00
670.2030, 14080.00
671.3600, 14836.00
672.5180, 15695.00
673.6740, 16815.00
674.8310, 18649.00
675.9880, 20640.00
677.1440, 23466.00
678.3010, 26666.00
679.4570, 30472.00
680.6130, 35354.00
681.7690, 40349.00
682.9240, 45524.00
684.0800, 50890.00
685.2350, 54431.00
686.3900, 54890.00
687.5450, 52073.00
688.7000, 46515.00
689.8540, 40028.00
691.0090, 33621.00
692.1630, 28815.00
693.3170, 24817.00
694.4710, 22067.00
695.6250, 20031.00
696.7780, 18540.00
697.9320, 17248.00
699.0850, 16550.00
700.2380, 15565.00
701.3910, 15280.00
702.5440, 14692.00
703.6970, 14141.00
704.8490, 13963.00
706.0010, 13625.00
707.1530, 13394.00
708.3050, 13214.00
709.4570, 12877.00
710.6090, 12868.00
711.7600, 12504.00
712.9110, 12293.00
714.0620, 12414.00
715.2130, 12063.00
716.3640, 12075.00
717.5150, 11958.00
718.6650, 11842.00
719.8150, 11772.00
720.9650, 11776.00
722.1150, 11613.00
723.2650, 11643.00
724.4150, 11547.00
725.5640, 11513.00
726.7130, 11500.00
727.8630, 11347.00
729.0110, 11444.00
730.1600, 11279.00
731.3090, 11313.00
732.4570, 11240.00
733.6060, 11389.00
734.7540, 11349.00
735.9020, 11353.00
737.0490, 11273.00
738.1970, 11238.00
739.3440, 11361.00
740.4920, 11251.00
741.6390, 11343.00
742.7860, 11140.00
743.9320, 11284.00
745.0790, 11319.00
746.2250, 11425.00
747.3720, 11442.00
748.5180, 11430.00
749.6640, 11354.00
750.8100, 11320.00
751.9550, 11423.00
753.1010, 11474.00
754.2460, 11443.00
755.3910, 11537.00
756.5360, 11601.00
757.6810, 11602.00
758.8250, 11680.00
759.9700, 11832.00
761.1140, 11811.00
762.2580, 11953.00
763.4020, 11909.00
764.5460, 11895.00
765.6900, 11954.00
766.8330, 11824.00
767.9760, 11863.00
769.1200, 11740.00
770.2620, 11589.00
771.4050, 11551.00
772.5480, 11525.00
773.6900, 11557.00
774.8330, 11407.00
775.9750, 11435.00
777.1170, 11240.00
778.2590, 11286.00
779.4000, 11305.00
780.5420, 11314.00
781.6830, 11329.00
782.8240, 11185.00
783.9650, 11253.00
785.1060, 11134.00
786.2470, 11120.00
787.3870, 11217.00
788.5280, 11133.00
789.6680, 11249.00
790.8080, 11131.00
791.9480, 11217.00
793.0870, 11107.00
794.2270, 11080.00
795.3660, 10998.00
796.5060, 11148.00
797.6450, 10954.00
798.7830, 11185.00
799.9220, 11161.00
801.0610, 11291.00
802.1990, 11073.00
803.3370, 11033.00
804.4750, 11125.00
805.6130, 11106.00
806.7510, 11144.00
807.8890, 11001.00
809.0260, 11002.00
810.1630, 10961.00
811.3000, 11103.00
812.4370, 11081.00
813.5740, 11087.00
814.7110, 11159.00
815.8470, 11116.67
816.9830, 11098.00
818.1190, 11070.00
819.2550, 11043.37
820.3910, 11049.15
821.5270, 11072.00
822.6620, 11067.00
823.7970, 11096.00
824.9330, 11113.00
826.0670, 11075.00
827.2020, 11098.00
828.3370, 11068.00
829.4710, 11084.00
830.6060, 11103.54
831.7400, 11070.00
832.8740, 11151.00
834.0080, 11098.00
835.1410, 11109.00
836.2750, 11040.00
837.4080, 11024.00
838.5410, 11119.00
839.6740, 11182.00
840.8070, 11240.00
841.9400, 11224.00
843.0730, 11230.00
844.2050, 11334.00
845.3370, 11206.00
846.4690, 11398.00
847.6010, 11209.00
848.7330, 11208.00
849.8640, 11337.00
850.9960, 11157.00
852.1270, 11413.00
853.2580, 11251.00
854.3890, 11411.00
855.5200, 11252.00
856.6500, 11343.00
857.7810, 11432.00
858.9110, 11253.00
860.0410, 11266.00
861.1710, 11274.00
862.3010, 11255.00
863.4310, 11352.00
864.5600, 11280.00
865.6900, 11212.00
866.8190, 11273.00
867.9480, 11356.00
869.0770, 11210.00
870.2050, 11223.00
871.3340, 11303.00
872.4620, 11242.00
873.5900, 11303.00
874.7180, 11254.00
875.8460, 11304.00
876.9740, 11278.00
878.1010, 11189.00
879.2290, 11381.00
880.3560, 11314.00
881.4830, 11284.00
882.6100, 11346.00
883.7370, 11282.00
884.8630, 11383.00
885.9900, 11418.00
887.1160, 11317.00
888.2420, 11334.00
889.3680, 11446.00
890.4940, 11476.00
891.6200, 11493.00
892.7450, 11550.00
893.8700, 11525.22
894.9960, 11551.00
896.1210, 11520.00
897.2460, 11546.00
898.3700, 11620.00
899.4950, 11792.00
900.6190, 11733.00
901.7430, 11813.00
902.8670, 11931.00
903.9910, 11939.00
905.1150, 11917.00
906.2390, 12008.00
907.3620, 11989.00
908.4850, 12059.00
909.6080, 12103.00
910.7310, 12106.00
911.8540, 12127.00
912.9770, 12015.00
914.0990, 11988.00
915.2210, 12009.00
916.3440, 11982.00
917.4660, 12122.00
918.5870, 12043.00
919.7090, 12128.00
920.8310, 12144.00
921.9520, 11965.00
923.0730, 11935.00
924.1940, 11891.00
925.3150, 11800.00
926.4360, 11800.00
927.5560, 11752.00
928.6770, 11810.00
929.7970, 11795.00
930.9170, 11793.00
932.0370, 11822.00
933.1570, 11715.00
934.2760, 11814.00
935.3960, 11529.00
936.5150, 11569.00
937.6340, 11633.00
938.7530, 11568.00
939.8720, 11633.00
940.9910, 11653.00
942.1090, 11642.00
943.2280, 11434.00
944.3460, 11486.00
945.4640, 11491.00
946.5820, 11517.00
947.6990, 11530.00
948.8170, 11508.00
949.9340, 11435.00
951.0520, 11476.00
952.1690, 11392.00
953.2860, 11526.00
954.4030, 11539.00
955.5190, 11489.00
956.6360, 11468.00
957.7520, 11434.00
958.8680, 11576.00
959.9840, 11466.00
961.1000, 11402.00
962.2160, 11552.00
963.3310, 11495.00
964.4470, 11503.00
965.5620, 11545.00
966.6770, 11645.00
967.7920, 11586.00
968.9060, 11659.00
970.0210, 11517.00
971.1360, 11577.00
972.2500, 11758.00
973.3640, 11653.00
974.4780, 11639.00
975.5920, 11661.00
976.7050, 11639.00
977.8190, 11667.00
978.9320, 11790.00
980.0450, 11916.00
981.1580, 12025.00
982.2710, 11887.00
983.3840, 12040.00
984.4970, 11995.00
985.6090, 12000.00
986.7210, 12251.00
987.8330, 12327.00
988.9450, 12576.00
990.0570, 12558.00
991.1690, 12921.00
992.2800, 12972.00
993.3920, 13119.00
994.5030, 13396.00
995.6140, 13697.00
996.7250, 13933.00
997.8350, 13984.00
998.9460, 14151.00
1000.056, 14227.00
1001.167, 14414.00
1002.277, 14289.00
1003.387, 14409.00
1004.496, 14165.00
1005.606, 14249.00
1006.715, 13992.00
1007.825, 13926.00
1008.934, 13904.00
1010.043, 13737.00
1011.152, 13622.00
1012.260, 13481.00
1013.369, 13433.00
1014.477, 13308.00
1015.586, 13187.64
1016.694, 13164.00
1017.802, 12967.00
1018.909, 12909.00
1020.017, 12876.00
1021.124, 12626.00
1022.232, 12723.00
1023.339, 12662.00
1024.446, 12556.00
1025.553, 12473.00
1026.659, 12460.00
1027.766, 12409.00
1028.872, 12245.00
1029.979, 12379.00
1031.085, 12265.00
1032.191, 12328.00
1033.296, 12201.00
1034.402, 12126.00
1035.507, 12173.00
1036.613, 12168.00
1037.718, 12102.00
1038.823, 12103.00
1039.928, 12050.00
1041.032, 12066.55
1042.137, 12115.00
1043.241, 12122.00
1044.346, 12178.00
1045.450, 12238.00
1046.554, 12305.00
1047.657, 12456.00
1048.761, 12557.00
1049.864, 12515.00
1050.968, 12523.00
1052.071, 12750.00
1053.174, 13007.00
1054.277, 13135.00
1055.379, 13598.00
1056.482, 13711.00
1057.584, 14111.00
1058.687, 14384.00
1059.789, 14953.00
1060.891, 15519.00
1061.992, 15958.00
1063.094, 16496.00
1064.196, 16842.00
1065.297, 17092.00
1066.398, 17343.00
1067.499, 17429.00
1068.600, 17554.00
1069.701, 17248.00
1070.801, 17065.00
1071.902, 16914.00
1073.002, 16599.00
1074.102, 16703.00
1075.202, 16049.00
1076.302, 15528.00
1077.402, 15380.00
1078.501, 15150.00
1079.600, 14847.00
1080.700, 14419.00
1081.799, 14177.00
1082.898, 14203.00
1083.996, 13897.00
1085.095, 13823.00
1086.193, 13638.00
1087.292, 13495.00
1088.390, 13405.00
1089.488, 13352.00
1090.586, 13171.00
1091.683, 13295.00
1092.781, 13049.00
1093.878, 12990.00
1094.975, 12915.00
1096.073, 12620.00
1097.169, 12664.00
1098.266, 12797.00
1099.363, 12721.00
1100.459, 12621.00
1101.556, 12492.00
1102.652, 12470.92
1103.748, 12410.46
1104.844, 12420.00
1105.940, 12392.00
1107.035, 12385.39
1108.131, 12430.00
1109.226, 12439.00
1110.321, 12386.00
1111.416, 12419.00
1112.511, 12406.04
1113.605, 12302.00
1114.700, 12342.00
1115.794, 12395.00
1116.889, 12216.00
1117.983, 12387.00
1119.077, 12307.00
1120.170, 12329.00
1121.264, 12402.00
1122.357, 12485.00
1123.451, 12522.00
1124.544, 12599.00
1125.637, 12435.00
1126.730, 12480.00
1127.823, 12489.00
1128.915, 12632.00
1130.008, 12641.00
1131.100, 12640.54
1132.192, 12580.00
1133.284, 12538.00
1134.376, 12492.00
1135.467, 12320.00
1136.559, 12194.00
1137.650, 12210.00
1138.742, 12105.00
1139.833, 12070.01
1140.924, 11958.00
1142.014, 11998.00
1143.105, 11944.00
1144.195, 11919.00
1145.286, 11890.00
1146.376, 11763.00
1147.466, 11948.00
1148.556, 11722.00
1149.646, 11815.00
1150.735, 11750.00
1151.825, 11575.00
1152.914, 11516.00
1154.003, 11574.00
1155.092, 11538.00
1156.181, 11543.28
1157.270, 11605.00
1158.358, 11551.00
1159.447, 11586.00
1160.535, 11597.00
1161.623, 11576.99
1162.711, 11649.00
1163.799, 11592.00
1164.886, 11561.00
1165.974, 11625.00
1167.061, 11659.00
1168.148, 11642.00
1169.235, 11625.00
1170.322, 11606.00
1171.409, 11758.00
1172.496, 11889.00
1173.582, 11795.00
1174.669, 11819.00
1175.755, 11737.00
1176.841, 11929.00
1177.927, 11964.00
1179.012, 11986.00
1180.098, 11815.00
1181.183, 11924.00
1182.269, 11889.00
1183.354, 11982.00
1184.439, 12010.00
1185.524, 11843.00
1186.608, 11946.00
1187.693, 12080.00
1188.777, 11917.00
1189.862, 11981.00
1190.946, 11841.00
1192.030, 11985.00
1193.113, 11897.00
1194.197, 11922.00
1195.281, 11839.00
1196.364, 12008.00
1197.447, 11951.00
1198.530, 12111.00
1199.613, 11917.00
1200.696, 11948.00
1201.779, 12016.00
1202.861, 12111.00
1203.944, 12058.00
1205.026, 12100.00
1206.108, 12078.00
1207.190, 12273.00
1208.271, 12300.00
1209.353, 12272.00
1210.435, 12407.35
1211.516, 12320.00
1212.597, 12518.00
1213.678, 12557.00
1214.759, 12535.00
1215.840, 12449.00
1216.920, 12708.00
1218.001, 12859.00
1219.081, 12788.00
1220.161, 12860.00
1221.241, 12924.00
1222.321, 13132.00
1223.401, 13003.00
1224.480, 13020.00
1225.560, 12929.00
1226.639, 12950.00
1227.718, 12892.66
1228.797, 12931.00
1229.876, 12772.00
1230.955, 12721.00
1232.033, 12606.00
1233.112, 12460.00
1234.190, 12500.00
1235.268, 12304.00
1236.346, 12236.00
1237.424, 12111.00
1238.501, 12094.00
1239.579, 12232.00
1240.656, 11944.00
1241.733, 12091.00
1242.811, 11783.00
1243.888, 11824.00
1244.964, 11860.00
1246.041, 11812.00
1247.117, 11769.00
1248.194, 11740.00
1249.270, 11759.00
1250.346, 11676.00
1251.422, 11696.00
1252.498, 11705.00
1253.573, 11639.87
1254.649, 11631.00
1255.724, 11564.00
1256.800, 11553.00
1257.875, 11551.00
1258.950, 11568.00
1260.024, 11653.00
1261.099, 11653.00
1262.173, 11472.00
1263.248, 11576.00
1264.322, 11547.00
1265.396, 11454.00
1266.470, 11552.00
1267.544, 11666.00
1268.617, 11559.00
1269.691, 11568.00
1270.764, 11749.00
1271.837, 11661.00
1272.910, 11561.00
1273.983, 11531.00
1275.056, 11571.00
1276.129, 11493.00
1277.201, 11478.00
1278.273, 11529.00
1279.346, 11410.00
1280.418, 11358.00
1281.489, 11370.00
1282.561, 11322.45
1283.633, 11457.00
1284.704, 11326.00
1285.776, 11366.00
1286.847, 11383.00
1287.918, 11277.00
1288.989, 11262.00
1290.059, 11298.00
1291.130, 11322.00
1292.200, 11318.00
1293.271, 11308.00
1294.341, 11217.00
1295.411, 11313.00
1296.481, 11324.00
1297.551, 11169.00
1298.620, 11236.00
1299.690, 11246.00
1300.759, 11299.00
1301.828, 11372.00
1302.897, 11359.00
1303.966, 11334.00
1305.035, 11243.00
1306.103, 11143.00
1307.172, 11212.00
1308.240, 11203.00
1309.308, 11353.00
1310.376, 11297.00
1311.444, 11342.00
1312.512, 11195.00
1313.580, 11258.00
1314.647, 11329.00
1315.714, 11162.00
1316.781, 11266.00
1317.848, 11291.00
1318.915, 11181.00
1319.982, 11307.00
1321.049, 11212.00
1322.115, 11215.00
1323.181, 11280.00
1324.248, 11216.00
1325.314, 11143.00
1326.380, 11197.00
1327.445, 11291.00
1328.511, 11304.00
1329.576, 11223.00
1330.642, 11506.00
1331.707, 11205.00
1332.772, 11371.00
1333.837, 11279.00
1334.902, 11141.00
