##NAMES=Beryl
##RRUFFID=R050347
##IDEAL CHEMISTRY=Be_3_Al_2_Si_6_O_18_
##LOCALITY=North Keystone, South Dakota, USA
##OWNER=RRUFF
##SOURCE=California Institute of Technology
##DESCRIPTION=Colorless fragment
##STATUS=The identification of this mineral has been confirmed by X-ray diffraction and chemical analysis
##URL=rruff.info/R050347
##MEASURED CHEMISTRY=(Be_0.96_Li_0.04_)_3_Al_2.00_(Si_0.99_Al_0.01_)_6_O_18_ Î‡0.17Na
##PIN_ID=L00581
##ORIENTATION=Laser parallel to c* (0 0 1). Fiducial mark perpendicular to laser is parallel to b [0 1 0]
211.2690, 11441.00
212.4890, 11586.00
213.7080, 11422.00
214.9280, 11486.00
216.1470, 11505.00
217.3660, 11462.00
218.5850, 11551.00
219.8030, 11587.00
221.0220, 11586.00
222.2400, 11647.62
223.4590, 11689.00
224.6770, 11733.00
225.8950, 11707.00
227.1120, 11784.00
228.3300, 11777.00
229.5480, 11737.00
230.7650, 11920.00
231.9820, 11838.00
233.1990, 12051.00
234.4160, 11872.00
235.6330, 11920.00
236.8490, 11897.00
238.0660, 11868.67
239.2820, 11895.79
240.4980, 11915.00
241.7140, 11897.00
242.9300, 11968.00
244.1460, 11943.00
245.3610, 11974.18
246.5770, 11999.00
247.7920, 12020.00
249.0070, 12020.19
250.2220, 12021.00
251.4370, 11996.97
252.6510, 11987.00
253.8660, 11953.00
255.0800, 11983.00
256.2940, 11949.00
257.5080, 11985.00
258.7220, 12058.00
259.9360, 12018.35
261.1490, 12039.49
262.3630, 11977.00
263.5760, 12036.00
264.7890, 11985.00
266.0020, 12036.00
267.2150, 11970.00
268.4270, 12073.00
269.6400, 12157.00
270.8520, 12097.00
272.0640, 12228.00
273.2760, 12181.00
274.4880, 12293.00
275.7000, 12271.00
276.9120, 12310.00
278.1230, 12283.00
279.3340, 12461.00
280.5450, 12345.00
281.7560, 12478.00
282.9670, 12645.00
284.1780, 12911.00
285.3880, 13147.00
286.5980, 13286.77
287.8090, 13507.75
289.0190, 13580.00
290.2290, 13850.00
291.4380, 14011.00
292.6480, 14171.00
293.8570, 13847.00
295.0670, 13855.00
296.2760, 13566.00
297.4850, 13406.00
298.6930, 13257.00
299.9020, 13119.61
301.1110, 12921.00
302.3190, 12943.00
303.5270, 12974.00
304.7350, 12892.00
305.9430, 12985.89
307.1510, 13147.00
308.3580, 13162.00
309.5660, 13282.00
310.7730, 13482.00
311.9800, 13715.00
313.1870, 13880.00
314.3940, 14115.00
315.6010, 14402.00
316.8070, 14673.00
318.0130, 15177.00
319.2200, 15608.00
320.4260, 15932.00
321.6310, 16198.00
322.8370, 16352.00
324.0430, 16288.00
325.2480, 15975.00
326.4540, 15223.00
327.6590, 14593.00
328.8640, 14111.00
330.0680, 13552.00
331.2730, 13232.00
332.4780, 12988.00
333.6820, 12766.00
334.8860, 12821.00
336.0900, 12589.00
337.2940, 12624.00
338.4980, 12605.00
339.7010, 12591.00
340.9050, 12590.61
342.1080, 12569.22
343.3110, 12546.00
344.5140, 12557.00
345.7170, 12502.00
346.9200, 12533.32
348.1220, 12517.00
349.3240, 12662.00
350.5270, 12677.00
351.7290, 12805.00
352.9310, 12811.00
354.1320, 12813.00
355.3340, 12890.20
356.5350, 12822.00
357.7370, 12970.00
358.9380, 12800.00
360.1390, 12804.00
361.3400, 12744.00
362.5400, 12797.00
363.7410, 12849.00
364.9410, 12961.00
366.1410, 12823.00
367.3410, 12913.00
368.5410, 12892.00
369.7410, 13061.00
370.9400, 12962.00
372.1400, 13108.00
373.3390, 13202.00
374.5380, 13204.00
375.7370, 13235.00
376.9360, 13296.00
378.1350, 13510.00
379.3330, 13703.00
380.5310, 13728.00
381.7300, 13858.00
382.9280, 14208.00
384.1260, 14560.00
385.3230, 14942.00
386.5210, 15253.00
387.7180, 16027.00
388.9160, 16943.00
390.1130, 17850.00
391.3100, 19176.00
392.5060, 20841.00
393.7030, 22657.00
394.9000, 24797.00
396.0960, 26781.00
397.2920, 28075.00
398.4880, 28705.00
399.6840, 28150.00
400.8800, 26557.00
402.0750, 24796.00
403.2710, 22868.00
404.4660, 20830.00
405.6610, 19303.00
406.8560, 18164.00
408.0510, 17237.00
409.2450, 16761.00
410.4400, 16261.00
411.6340, 16162.00
412.8280, 16024.00
414.0220, 15990.00
415.2160, 16091.00
416.4100, 16287.00
417.6030, 16814.00
418.7970, 16799.00
419.9900, 17107.00
421.1830, 17331.00
422.3760, 17194.00
423.5690, 17216.00
424.7610, 16808.00
425.9540, 16658.00
427.1460, 15978.00
428.3380, 15363.00
429.5300, 15073.00
430.7220, 14888.00
431.9140, 14717.00
433.1050, 14717.00
434.2970, 14529.00
435.4880, 14740.00
436.6790, 14763.00
437.8700, 14779.00
439.0610, 14891.00
440.2510, 14853.90
441.4420, 14805.62
442.6320, 14807.00
443.8220, 14647.00
445.0120, 14556.00
446.2020, 14530.00
447.3910, 14515.00
448.5810, 14223.00
449.7700, 14231.00
450.9600, 14136.00
452.1490, 14150.00
453.3370, 14097.00
454.5260, 13931.00
455.7150, 14022.00
456.9030, 13817.00
458.0910, 13925.00
459.2800, 13778.00
460.4670, 13822.00
461.6550, 13774.00
462.8430, 13805.00
464.0300, 13690.00
465.2180, 13920.00
466.4050, 13829.00
467.5920, 13931.00
468.7790, 13765.00
469.9650, 13758.00
471.1520, 13774.00
472.3380, 13885.00
473.5250, 13841.00
474.7110, 13857.00
475.8970, 13917.00
477.0820, 13840.00
478.2680, 13897.00
479.4540, 14016.00
480.6390, 13962.00
481.8240, 13871.00
483.0090, 13996.00
484.1940, 14041.00
485.3780, 13968.00
486.5630, 14027.00
487.7470, 13910.00
488.9320, 13960.00
490.1160, 13980.00
491.3000, 13991.00
492.4830, 14017.00
493.6670, 14021.10
494.8500, 13985.00
496.0340, 14044.00
497.2170, 13994.00
498.4000, 14025.00
499.5820, 14070.00
500.7650, 14091.00
501.9480, 14140.00
503.1300, 14069.00
504.3120, 14082.00
505.4940, 13947.00
506.6760, 13895.00
507.8580, 14043.00
509.0390, 14055.00
510.2210, 14118.00
511.4020, 13939.00
512.5830, 14126.00
513.7640, 13929.00
514.9450, 14140.00
516.1250, 14153.00
517.3060, 14215.00
518.4860, 14103.00
519.6660, 14186.00
520.8460, 14215.00
522.0260, 14201.78
523.2060, 14251.00
524.3850, 14279.00
525.5650, 14347.00
526.7440, 14471.00
527.9230, 14377.00
529.1020, 14563.00
530.2810, 14554.00
531.4590, 14485.00
532.6380, 14693.00
533.8160, 14581.00
534.9940, 14606.00
536.1720, 14536.00
537.3500, 14509.00
538.5270, 14592.00
539.7050, 14661.00
540.8820, 14639.00
542.0590, 14670.00
543.2360, 14588.00
544.4130, 14662.11
545.5900, 14657.00
546.7660, 14774.00
547.9430, 14697.00
549.1190, 14744.00
550.2950, 14872.00
551.4710, 15005.00
552.6470, 15143.00
553.8220, 15200.40
554.9980, 15191.00
556.1730, 15315.00
557.3480, 15322.00
558.5230, 15401.00
559.6980, 15570.00
560.8730, 15784.00
562.0470, 15675.00
563.2220, 15887.00
564.3960, 15762.00
565.5700, 15900.00
566.7440, 15816.00
567.9170, 15964.00
569.0910, 16016.00
570.2640, 16354.00
571.4380, 16280.00
572.6110, 16549.00
573.7840, 16644.00
574.9570, 16650.00
576.1290, 16549.00
577.3020, 16733.00
578.4740, 16826.00
579.6460, 16631.00
580.8180, 16543.00
581.9900, 16397.00
583.1620, 16178.00
584.3330, 15956.00
585.5040, 15833.00
586.6760, 15539.00
587.8470, 15471.00
589.0180, 15324.00
590.1880, 15261.00
591.3590, 15134.00
592.5290, 15017.00
593.7000, 15018.00
594.8700, 14820.00
596.0400, 14757.00
597.2090, 14923.00
598.3790, 15002.00
599.5490, 14734.00
600.7180, 14926.00
601.8870, 14715.00
603.0560, 14708.00
604.2250, 14771.00
605.3940, 14657.00
606.5620, 14766.00
607.7300, 14893.00
608.8990, 14737.00
610.0670, 14735.00
611.2350, 14735.00
612.4020, 14851.00
613.5700, 14860.00
614.7370, 14778.00
615.9050, 14958.00
617.0720, 15062.00
618.2390, 15003.00
619.4060, 15093.00
620.5720, 14966.00
621.7390, 15008.00
622.9050, 15118.00
624.0710, 15266.00
625.2370, 15063.00
626.4030, 14890.00
627.5690, 14916.00
628.7340, 15119.00
629.9000, 15016.00
631.0650, 15044.00
632.2300, 15117.00
633.3950, 14917.00
634.5600, 15046.00
635.7240, 15068.00
636.8890, 15116.00
638.0530, 15075.00
639.2170, 15107.00
640.3810, 15247.00
641.5450, 15090.00
642.7080, 15151.00
643.8720, 15270.00
645.0350, 15228.00
646.1980, 15236.00
647.3610, 15299.00
648.5240, 15280.00
649.6870, 15371.00
650.8490, 15337.00
652.0120, 15386.00
653.1740, 15302.00
654.3360, 15472.00
655.4980, 15533.00
656.6600, 15455.00
657.8210, 15583.00
658.9830, 15591.00
660.1440, 15620.00
661.3050, 15743.00
662.4660, 15938.00
663.6270, 16029.97
664.7870, 16231.00
665.9480, 16334.00
667.1080, 16508.00
668.2680, 16688.00
669.4280, 17223.00
670.5880, 17689.00
671.7480, 18081.00
672.9070, 18657.00
674.0670, 19662.00
675.2260, 20652.00
676.3850, 22332.00
677.5440, 23970.00
678.7030, 26728.00
679.8610, 30294.00
681.0200, 34744.00
682.1780, 40611.00
683.3360, 46788.00
684.4940, 52362.00
685.6520, 56149.00
686.8090, 56174.00
687.9670, 52844.00
689.1240, 47224.00
690.2810, 41103.00
691.4380, 35640.00
692.5950, 31056.00
693.7520, 27617.00
694.9080, 25370.00
696.0650, 23466.00
697.2210, 21903.00
698.3770, 21186.00
699.5330, 20337.00
700.6880, 19561.00
701.8440, 19198.00
702.9990, 18831.00
704.1550, 18545.00
705.3100, 18201.00
706.4650, 17903.00
707.6190, 17747.00
708.7740, 17682.00
709.9290, 17381.00
711.0830, 17228.00
712.2370, 17240.00
713.3910, 17072.00
714.5450, 16937.00
715.6980, 16847.00
716.8520, 16788.00
718.0050, 16679.00
719.1580, 16801.00
720.3110, 16631.00
721.4640, 16477.00
722.6170, 16666.00
723.7700, 16607.00
724.9220, 16400.00
726.0740, 16347.00
727.2260, 16328.02
728.3780, 16567.00
729.5300, 16337.00
730.6810, 16453.00
731.8330, 16432.00
732.9840, 16461.00
734.1350, 16428.00
735.2860, 16406.00
736.4370, 16489.00
737.5880, 16460.00
738.7380, 16633.00
739.8880, 16602.55
741.0390, 16471.00
742.1890, 16582.00
743.3380, 16558.00
744.4880, 16472.00
745.6380, 16437.00
746.7870, 16401.00
747.9360, 16413.00
749.0850, 16468.00
750.2340, 16338.00
751.3830, 16391.00
752.5310, 16370.00
753.6800, 16580.00
754.8280, 16523.00
755.9760, 16538.00
757.1240, 16492.00
758.2720, 16650.00
759.4190, 16780.00
760.5670, 16969.00
761.7140, 16955.00
762.8610, 16968.00
764.0080, 17036.00
765.1550, 17156.00
766.3020, 17316.00
767.4480, 17212.00
768.5950, 17089.00
769.7410, 16933.00
770.8870, 16952.00
772.0330, 16906.00
773.1780, 16859.00
774.3240, 16830.48
775.4690, 16651.00
776.6140, 16699.00
777.7590, 16666.00
778.9040, 16527.00
780.0490, 16592.00
781.1940, 16684.00
782.3380, 16508.00
783.4820, 16484.00
784.6260, 16484.00
785.7700, 16348.00
786.9140, 16624.00
788.0580, 16410.00
789.2010, 16617.00
790.3450, 16440.00
791.4880, 16438.00
792.6310, 16341.00
793.7730, 16352.24
794.9160, 16399.00
796.0590, 16387.00
797.2010, 16504.00
798.3430, 16448.00
799.4850, 16565.00
800.6270, 16400.00
801.7690, 16488.00
802.9100, 16446.00
804.0520, 16537.00
805.1930, 16563.00
806.3340, 16420.00
807.4750, 16435.00
808.6160, 16453.00
809.7560, 16529.00
810.8970, 16455.00
812.0370, 16478.00
813.1770, 16489.00
814.3170, 16513.00
815.4570, 16491.00
816.5960, 16511.41
817.7360, 16502.00
818.8750, 16517.00
820.0140, 16529.00
821.1530, 16513.00
822.2920, 16581.00
823.4310, 16594.00
824.5690, 16638.39
825.7070, 16608.00
826.8460, 16702.00
827.9840, 16705.00
829.1220, 16659.00
830.2590, 16578.00
831.3970, 16719.00
832.5340, 16658.74
833.6710, 16728.00
834.8080, 16667.00
835.9450, 16778.00
837.0820, 16753.00
838.2190, 16789.00
839.3550, 16756.00
840.4910, 16692.00
841.6270, 16737.00
842.7630, 16821.00
843.8990, 16739.00
845.0350, 16539.00
846.1700, 16742.00
847.3060, 16666.00
848.4410, 16904.00
849.5760, 16750.00
850.7100, 16947.00
851.8450, 16879.00
852.9800, 16740.00
854.1140, 16992.00
855.2480, 17064.00
856.3820, 16932.00
857.5160, 16969.00
858.6500, 16962.00
859.7830, 16940.00
860.9170, 16946.00
862.0500, 16975.00
863.1830, 17003.00
864.3160, 17010.00
865.4480, 17051.00
866.5810, 17050.06
867.7130, 17067.00
868.8460, 17060.00
869.9780, 17056.00
871.1100, 17066.00
872.2410, 17132.00
873.3730, 16985.00
874.5050, 17131.00
875.6360, 17051.00
876.7670, 17292.00
877.8980, 17114.00
879.0290, 17262.00
880.1590, 17188.00
881.2900, 17489.00
882.4200, 17205.00
883.5500, 17252.00
884.6800, 17345.00
885.8100, 17229.00
886.9400, 17151.00
888.0690, 17280.00
889.1990, 17354.00
890.3280, 17386.00
891.4570, 17535.00
892.5860, 17506.00
893.7140, 17571.00
894.8430, 17646.00
895.9710, 17471.00
897.1000, 17488.00
898.2280, 17716.00
899.3560, 17796.00
900.4830, 17837.91
901.6110, 17824.00
902.7380, 17919.00
903.8660, 17979.00
904.9930, 18050.07
906.1200, 17870.00
907.2460, 18122.00
908.3730, 18006.00
909.5000, 18113.00
910.6260, 18156.00
911.7520, 18087.00
912.8780, 17963.00
914.0040, 18072.00
915.1290, 18032.00
916.2550, 18191.00
917.3800, 18104.00
918.5050, 17930.00
919.6300, 18058.00
920.7550, 17894.00
921.8800, 18055.00
923.0040, 17867.00
924.1290, 17912.67
925.2530, 17944.00
926.3770, 17993.00
927.5010, 18016.59
928.6250, 18002.00
929.7480, 18017.00
930.8720, 18033.00
931.9950, 17929.00
933.1180, 17845.00
934.2410, 17944.00
935.3640, 17952.00
936.4860, 17927.00
937.6090, 17842.00
938.7310, 17946.00
939.8530, 17837.00
940.9750, 17953.00
942.0970, 18075.00
943.2180, 18035.39
944.3400, 18080.95
945.4610, 18054.00
946.5820, 18020.00
947.7030, 17988.00
948.8240, 17920.00
949.9450, 17966.00
951.0650, 18141.00
952.1860, 18054.00
953.3060, 18033.00
954.4260, 17873.00
955.5460, 18123.00
956.6650, 18140.00
957.7850, 18186.00
958.9040, 18219.00
960.0230, 18177.00
961.1420, 18143.00
962.2610, 18085.00
963.3800, 18324.00
964.4990, 18199.00
965.6170, 18209.00
966.7350, 18354.00
967.8530, 18241.00
968.9710, 18275.00
970.0890, 18238.00
971.2070, 18201.00
972.3240, 18351.00
973.4410, 18365.00
974.5580, 18314.00
975.6750, 18373.00
976.7920, 18577.00
977.9090, 18551.00
979.0250, 18513.00
980.1410, 18776.00
981.2580, 18757.00
982.3740, 18766.00
983.4890, 18979.00
984.6050, 19014.78
985.7200, 19462.00
986.8360, 19126.00
987.9510, 19313.00
989.0660, 19081.00
990.1810, 19336.00
991.2950, 19590.00
992.4100, 19820.00
993.5240, 19897.00
994.6390, 20197.00
995.7530, 20316.00
996.8660, 20827.00
997.9800, 20968.00
999.0940, 21133.00
1000.207, 21160.00
1001.320, 21342.00
1002.433, 21686.00
1003.546, 21381.00
1004.659, 21407.00
1005.772, 21431.00
1006.884, 21094.00
1007.996, 21020.00
1009.108, 20826.00
1010.220, 20831.00
1011.332, 20718.00
1012.444, 20370.00
1013.555, 20383.00
1014.666, 20213.00
1015.777, 19925.00
1016.888, 19937.00
1017.999, 19868.00
1019.110, 19659.00
1020.220, 19596.00
1021.331, 19527.00
1022.441, 19717.00
1023.551, 19333.00
1024.661, 19481.00
1025.770, 19240.00
1026.880, 19388.00
1027.989, 19242.00
1029.098, 19337.00
1030.207, 19349.00
1031.316, 19306.00
1032.425, 19231.00
1033.533, 19378.00
1034.642, 19274.00
1035.750, 19413.00
1036.858, 19365.00
1037.966, 19424.00
1039.073, 19346.00
1040.181, 19409.00
1041.288, 19437.00
1042.396, 19591.00
1043.503, 19595.25
1044.610, 19641.00
1045.716, 19664.00
1046.823, 19694.00
1047.929, 19720.00
1049.036, 19922.00
1050.142, 20117.00
1051.248, 20100.00
1052.353, 20374.00
1053.459, 20421.00
1054.564, 20794.00
1055.670, 20895.00
1056.775, 21268.00
1057.880, 21424.00
1058.985, 21772.00
1060.089, 22280.00
1061.194, 22551.00
1062.298, 23214.00
1063.402, 23538.00
1064.506, 23962.00
1065.610, 24313.74
1066.713, 24868.00
1067.817, 24805.00
1068.920, 25054.00
1070.023, 25153.00
1071.126, 24814.00
1072.229, 24769.00
1073.332, 24394.00
1074.435, 24178.00
1075.537, 24018.00
1076.639, 23640.00
1077.741, 23285.00
1078.843, 22930.00
1079.945, 22937.00
1081.046, 22721.00
1082.148, 22362.00
1083.249, 22257.00
1084.350, 21703.00
1085.451, 21656.00
1086.551, 21429.00
1087.652, 21404.00
1088.752, 21277.00
1089.853, 20962.00
1090.953, 21139.00
1092.053, 20831.00
1093.152, 20707.00
1094.252, 20774.00
1095.351, 20865.00
1096.451, 20605.00
1097.550, 20728.00
1098.649, 20518.00
1099.748, 20635.00
1100.846, 20493.00
1101.945, 20336.00
1103.043, 20459.00
1104.141, 20446.00
1105.239, 20345.00
1106.337, 20260.00
1107.434, 20340.00
1108.532, 20351.00
1109.629, 20196.00
1110.726, 20396.00
1111.823, 20303.00
1112.920, 20448.00
1114.017, 20335.00
1115.113, 20394.00
1116.210, 20564.00
1117.306, 20312.00
1118.402, 20369.00
1119.498, 20467.00
1120.593, 20268.00
1121.689, 20369.00
1122.784, 20278.00
1123.879, 20137.00
1124.974, 20404.00
1126.069, 20397.00
1127.164, 20463.00
1128.259, 20251.00
1129.353, 20466.00
1130.447, 20487.00
1131.541, 20531.00
1132.635, 20582.00
1133.729, 20516.00
1134.822, 20575.00
1135.916, 20626.00
1137.009, 20597.00
1138.102, 20788.00
1139.195, 20667.00
1140.288, 20796.00
1141.380, 20821.00
1142.473, 21033.00
1143.565, 20935.00
1144.657, 20973.00
1145.749, 20894.00
1146.841, 20843.00
1147.932, 20891.00
1149.024, 20696.00
1150.115, 20843.00
1151.206, 20676.00
1152.297, 20848.00
1153.388, 20742.42
1154.479, 20583.00
1155.569, 20602.00
1156.659, 20490.00
1157.750, 20446.00
1158.839, 20489.00
1159.929, 20483.00
1161.019, 20195.00
1162.108, 20438.00
1163.198, 20221.00
1164.287, 20498.00
1165.376, 20550.00
1166.465, 20388.00
1167.553, 20344.00
1168.642, 20308.00
1169.730, 20430.00
1170.818, 20483.00
1171.906, 20585.00
1172.994, 20632.00
1174.082, 20563.00
1175.170, 20523.00
1176.257, 20710.00
1177.344, 20698.00
1178.431, 20511.00
1179.518, 20628.57
1180.605, 20834.00
1181.691, 20659.00
1182.778, 20567.00
1183.864, 20627.00
1184.950, 20921.00
1186.036, 20821.00
1187.122, 20936.00
1188.207, 21138.00
1189.292, 20942.00
1190.378, 20989.00
1191.463, 21134.00
1192.548, 20966.00
1193.632, 21066.00
1194.717, 20896.00
1195.801, 20935.00
1196.886, 21064.00
1197.970, 21065.00
1199.054, 21056.00
1200.137, 21043.00
1201.221, 21133.00
1202.305, 21106.00
1203.388, 21075.00
1204.471, 21193.00
1205.554, 21147.00
1206.637, 20940.00
1207.719, 21106.00
1208.802, 21083.00
1209.884, 21016.00
1210.966, 21111.00
1212.048, 21124.00
1213.130, 21277.00
1214.212, 21346.00
1215.293, 21408.00
1216.374, 21492.00
1217.456, 21510.04
1218.536, 21468.00
1219.617, 21583.00
1220.698, 21609.00
1221.778, 21724.00
1222.859, 21675.00
1223.939, 21820.00
1225.019, 21866.00
1226.099, 22016.00
1227.178, 22127.00
1228.258, 22147.00
1229.337, 22372.00
1230.417, 22428.00
1231.496, 22621.00
1232.574, 22811.00
1233.653, 22771.00
1234.732, 22824.00
1235.810, 22803.00
1236.888, 23073.00
1237.966, 22808.00
1239.044, 22743.00
1240.122, 22441.00
1241.199, 22720.00
1242.277, 22404.00
1243.354, 22323.00
1244.431, 22049.00
1245.508, 21921.00
1246.585, 21890.00
1247.661, 21729.00
1248.738, 21624.00
1249.814, 21633.00
1250.890, 21586.00
1251.966, 21479.00
1253.042, 21450.00
1254.117, 21346.00
1255.193, 21218.00
1256.268, 21152.00
1257.343, 20998.00
1258.418, 21391.00
1259.493, 21214.00
1260.567, 21370.00
1261.642, 21234.00
1262.716, 21184.00
1263.790, 21130.00
1264.864, 21152.00
1265.938, 21113.13
1267.011, 21340.00
1268.085, 21084.00
1269.158, 21091.00
1270.231, 21059.00
1271.304, 21289.00
1272.377, 21146.00
1273.450, 21095.00
1274.522, 21066.00
1275.594, 21025.87
1276.666, 21016.23
1277.738, 21106.00
1278.810, 21030.00
1279.882, 21235.00
1280.953, 21306.00
1282.025, 21469.00
1283.096, 21303.00
1284.167, 21134.00
1285.238, 21413.00
1286.308, 21180.00
1287.379, 21334.00
1288.449, 21234.00
1289.519, 21243.00
1290.589, 21179.00
1291.659, 21064.00
1292.729, 21294.00
1293.798, 21159.00
1294.868, 21403.00
1295.937, 21316.00
1297.006, 21475.00
1298.075, 21370.00
1299.143, 21361.00
1300.212, 21397.00
1301.280, 21379.00
1302.348, 21385.00
1303.416, 21248.00
1304.484, 21439.00
1305.552, 21414.00
1306.620, 21567.00
1307.687, 21562.00
1308.754, 21568.00
1309.821, 21486.00
1310.888, 21434.00
1311.955, 21487.00
1313.021, 21416.00
1314.088, 21501.00
1315.154, 21346.00
1316.220, 21556.00
1317.286, 21658.00
1318.352, 21518.00
1319.417, 21470.00
1320.483, 21351.00
1321.548, 21435.00
1322.613, 21533.00
1323.678, 21581.00
1324.743, 21654.00
1325.807, 21458.00
1326.872, 21873.00
1327.936, 21680.00
1329.000, 21496.00
1330.064, 21589.00
1331.128, 21423.00
1332.191, 21661.00
1333.255, 21677.00
1334.318, 21702.00
1335.381, 21613.00
1336.444, 21839.00
1337.507, 21762.00
1338.569, 21606.00
1339.632, 21838.00
1340.694, 21636.00
1341.756, 21717.00
1342.818, 21871.00
1343.880, 21740.00
1344.941, 21855.00
1346.003, 21733.00
1347.064, 21725.00
1348.125, 21846.00
1349.186, 22040.00
1350.247, 21878.00
1351.308, 22101.00
1352.368, 21738.00
1353.428, 21974.00
1354.489, 21892.00
1355.549, 21951.00
1356.608, 21885.00
1357.668, 21923.00
1358.727, 21979.00
1359.787, 21784.00
1360.846, 22129.00
1361.905, 22044.00
1362.964, 21994.00
1364.022, 22237.00
1365.081, 21986.00
1366.139, 22056.00
1367.197, 22081.00
1368.255, 22082.00
1369.313, 22030.00
1370.371, 21889.00
1371.428, 22241.00
1372.486, 22078.00
1373.543, 21870.00
1374.600, 22136.00
1375.657, 22087.00
