##NAMES=Beryl
##RRUFFID=R050305
##IDEAL CHEMISTRY=Be_3_Al_2_Si_6_O_18_
##LOCALITY=Conselheiro Pena, Minas Gerais, Brazil
##OWNER=RRUFF
##SOURCE=Eugene Schlepp
##DESCRIPTION=Light blue fragment, variety aquamarine
##STATUS=The identification of this mineral has been confirmed by X-ray diffraction and chemical analysis
##URL=rruff.info/R050305
##MEASURED CHEMISTRY=(Be_0.91_Li_0.09_)_3_(Al_0.99_Fe^3+^_0.01_)_2_Si_6.00_O_18_Î‡Na_0.27_
##PIN_ID=L00797
##ORIENTATION=Laser parallel to c* (0 0 1). Fiducial mark perpendicular to laser is parallel to [-1 -1 0]
95.94800, 8741.000
97.18200, 8897.000
98.41600, 9066.000
99.64900, 9192.000
100.8830, 9326.000
102.1160, 9423.000
103.3490, 9576.000
104.5820, 9676.000
105.8150, 9997.000
107.0470, 10457.00
108.2800, 11346.00
109.5120, 11846.00
110.7440, 11600.00
111.9760, 11595.00
113.2080, 11821.00
114.4400, 12288.00
115.6710, 12624.00
116.9030, 12820.00
118.1340, 13074.00
119.3650, 13058.00
120.5960, 13185.00
121.8270, 13246.00
123.0580, 13274.00
124.2880, 13340.57
125.5190, 13401.00
126.7490, 13377.00
127.9790, 13379.00
129.2090, 13331.00
130.4390, 13501.00
131.6680, 13413.00
132.8980, 13573.00
134.1270, 13422.00
135.3560, 13450.00
136.5850, 13427.00
137.8140, 13315.00
139.0430, 13361.00
140.2710, 13185.00
141.5000, 13074.00
142.7280, 12795.00
143.9560, 12522.00
145.1840, 12349.00
146.4120, 12154.00
147.6390, 12070.00
148.8670, 11973.41
150.0940, 11922.05
151.3210, 11894.00
152.5490, 11914.00
153.7750, 11926.00
155.0020, 11970.71
156.2290, 11924.00
157.4550, 11998.00
158.6810, 12121.00
159.9080, 12073.00
161.1340, 11960.00
162.3590, 12026.00
163.5850, 12158.00
164.8110, 12254.00
166.0360, 12258.00
167.2610, 12272.00
168.4860, 12299.00
169.7110, 12283.00
170.9360, 12257.00
172.1610, 12223.00
173.3850, 12199.00
174.6100, 12143.00
175.8340, 12198.00
177.0580, 12194.00
178.2820, 11943.00
179.5050, 11995.00
180.7290, 11877.00
181.9520, 11903.00
183.1760, 11751.00
184.3990, 11630.00
185.6220, 11492.00
186.8450, 11431.00
188.0670, 11453.00
189.2900, 11385.00
190.5120, 11290.00
191.7340, 11291.00
192.9560, 11203.00
194.1780, 10998.00
195.4000, 11161.00
196.6220, 11003.00
197.8430, 11136.00
199.0640, 10968.00
200.2860, 11153.00
201.5070, 11114.00
202.7270, 11081.00
203.9480, 10893.00
205.1690, 10633.00
206.3890, 10355.00
207.6090, 10342.00
208.8290, 10296.00
210.0490, 10150.00
211.2690, 10222.00
212.4890, 10313.00
213.7080, 10159.00
214.9280, 10245.00
216.1470, 10355.00
217.3660, 10280.00
218.5850, 10269.00
219.8030, 10253.00
221.0220, 10279.00
222.2400, 10481.00
223.4590, 10453.00
224.6770, 10520.00
225.8950, 10572.00
227.1120, 10574.00
228.3300, 10702.00
229.5480, 10562.00
230.7650, 10669.00
231.9820, 10605.00
233.1990, 10789.00
234.4160, 10801.00
235.6330, 10728.00
236.8490, 10639.00
238.0660, 10735.00
239.2820, 10783.00
240.4980, 10719.00
241.7140, 10691.00
242.9300, 10563.00
244.1460, 10663.00
245.3610, 10523.00
246.5770, 10445.00
247.7920, 10538.00
249.0070, 10466.00
250.2220, 10410.00
251.4370, 10395.00
252.6510, 10211.00
253.8660, 10259.00
255.0800, 10127.00
256.2940, 10213.00
257.5080, 10247.00
258.7220, 10300.00
259.9360, 10259.87
261.1490, 10342.00
262.3630, 10158.00
263.5760, 10251.00
264.7890, 10251.00
266.0020, 10453.00
267.2150, 10454.00
268.4270, 10568.00
269.6400, 10592.00
270.8520, 10461.00
272.0640, 10485.00
273.2760, 10556.00
274.4880, 10414.00
275.7000, 10437.00
276.9120, 10482.00
278.1230, 10428.00
279.3340, 10639.00
280.5450, 10642.00
281.7560, 10695.00
282.9670, 10854.00
284.1780, 10975.00
285.3880, 11139.00
286.5980, 11417.00
287.8090, 11533.00
289.0190, 11681.00
290.2290, 11950.00
291.4380, 12086.00
292.6480, 12153.00
293.8570, 12208.00
295.0670, 12050.00
296.2760, 11991.00
297.4850, 11615.00
298.6930, 11359.00
299.9020, 11145.00
301.1110, 10941.00
302.3190, 10997.00
303.5270, 10579.00
304.7350, 10794.00
305.9430, 10731.00
307.1510, 10754.00
308.3580, 10612.00
309.5660, 10889.00
310.7730, 10929.00
311.9800, 11289.00
313.1870, 11262.00
314.3940, 11365.00
315.6010, 11598.00
316.8070, 11826.00
318.0130, 11989.00
319.2200, 12431.00
320.4260, 12507.00
321.6310, 12750.00
322.8370, 12885.00
324.0430, 12843.00
325.2480, 12782.00
326.4540, 12287.00
327.6590, 11939.00
328.8640, 11526.00
330.0680, 11278.00
331.2730, 10964.93
332.4780, 10678.00
333.6820, 10483.00
334.8860, 10377.00
336.0900, 10235.00
337.2940, 10126.00
338.4980, 10204.00
339.7010, 10101.00
340.9050, 10213.00
342.1080, 10211.00
343.3110, 10186.00
344.5140, 10327.00
345.7170, 10208.04
346.9200, 10217.00
348.1220, 10158.00
349.3240, 10081.00
350.5270, 10279.00
351.7290, 10265.00
352.9310, 10396.00
354.1320, 10411.00
355.3340, 10429.09
356.5350, 10473.00
357.7370, 10481.00
358.9380, 10435.00
360.1390, 10528.00
361.3400, 10476.00
362.5400, 10342.00
363.7410, 10480.00
364.9410, 10546.00
366.1410, 10576.00
367.3410, 10720.00
368.5410, 10537.00
369.7410, 10705.00
370.9400, 10693.00
372.1400, 10626.00
373.3390, 10842.00
374.5380, 11064.00
375.7370, 11228.00
376.9360, 12081.00
378.1350, 12618.00
379.3330, 12057.00
380.5310, 11718.00
381.7300, 11901.00
382.9280, 12243.00
384.1260, 12528.00
385.3230, 13019.00
386.5210, 13504.00
387.7180, 14358.00
388.9160, 15044.00
390.1130, 16293.00
391.3100, 17435.00
392.5060, 18879.00
393.7030, 20570.00
394.9000, 22077.00
396.0960, 24289.00
397.2920, 25669.00
398.4880, 27050.00
399.6840, 27777.00
400.8800, 26762.00
402.0750, 25609.00
403.2710, 23590.00
404.4660, 21374.00
405.6610, 19366.00
406.8560, 17629.00
408.0510, 16398.00
409.2450, 15713.00
410.4400, 14914.00
411.6340, 14737.00
412.8280, 14669.00
414.0220, 14429.00
415.2160, 14446.21
416.4100, 14538.00
417.6030, 14461.00
418.7970, 14377.00
419.9900, 14406.00
421.1830, 14602.00
422.3760, 14336.00
423.5690, 14015.00
424.7610, 13883.00
425.9540, 13473.00
427.1460, 13048.00
428.3380, 12842.31
429.5300, 12506.00
430.7220, 12347.00
431.9140, 12028.00
433.1050, 11907.00
434.2970, 11963.00
435.4880, 11825.00
436.6790, 11788.00
437.8700, 11720.00
439.0610, 11590.00
440.2510, 11492.00
441.4420, 11606.00
442.6320, 11511.00
443.8220, 11565.00
445.0120, 11386.00
446.2020, 11442.00
447.3910, 11213.00
448.5810, 11194.00
449.7700, 11167.00
450.9600, 11072.00
452.1490, 10961.00
453.3370, 10913.00
454.5260, 10950.00
455.7150, 10896.00
456.9030, 11033.00
458.0910, 10790.00
459.2800, 10772.00
460.4670, 10814.00
461.6550, 10676.00
462.8430, 10716.00
464.0300, 10688.00
465.2180, 10716.00
466.4050, 10624.00
467.5920, 10581.00
468.7790, 10756.00
469.9650, 10562.00
471.1520, 10635.00
472.3380, 10687.00
473.5250, 10463.00
474.7110, 10656.00
475.8970, 10619.00
477.0820, 10597.00
478.2680, 10472.00
479.4540, 10585.00
480.6390, 10538.67
481.8240, 10711.00
483.0090, 10548.00
484.1940, 10728.00
485.3780, 10692.00
486.5630, 10683.00
487.7470, 10724.00
488.9320, 10708.59
490.1160, 10762.00
491.3000, 10747.00
492.4830, 10769.00
493.6670, 10823.00
494.8500, 10801.98
496.0340, 10745.00
497.2170, 10807.00
498.4000, 10733.00
499.5820, 10750.00
500.7650, 10719.00
501.9480, 10699.00
503.1300, 10738.00
504.3120, 10718.00
505.4940, 10584.00
506.6760, 10618.00
507.8580, 10590.00
509.0390, 10695.00
510.2210, 10568.00
511.4020, 10593.00
512.5830, 10560.00
513.7640, 10575.00
514.9450, 10639.00
516.1250, 10738.00
517.3060, 10866.00
518.4860, 10898.00
519.6660, 10925.00
520.8460, 10834.00
522.0260, 10888.00
523.2060, 10853.00
524.3850, 10878.00
525.5650, 10984.00
526.7440, 10843.00
527.9230, 10943.00
529.1020, 11064.00
530.2810, 10953.00
531.4590, 11133.00
532.6380, 11085.00
533.8160, 11377.00
534.9940, 11200.00
536.1720, 11157.00
537.3500, 11192.00
538.5270, 11142.00
539.7050, 11240.00
540.8820, 11251.00
542.0590, 11197.00
543.2360, 11314.00
544.4130, 11329.00
545.5900, 11495.00
546.7660, 11516.00
547.9430, 11481.00
549.1190, 11552.00
550.2950, 11571.00
551.4710, 11633.00
552.6470, 11698.00
553.8220, 11855.00
554.9980, 11910.00
556.1730, 12152.00
557.3480, 12034.00
558.5230, 12000.00
559.6980, 12329.00
560.8730, 12377.00
562.0470, 12480.00
563.2220, 12420.00
564.3960, 12497.00
565.5700, 12605.00
566.7440, 12591.00
567.9170, 12767.00
569.0910, 12838.00
570.2640, 12897.00
571.4380, 12988.00
572.6110, 13147.00
573.7840, 13148.00
574.9570, 13179.00
576.1290, 13125.00
577.3020, 13132.00
578.4740, 13019.55
579.6460, 12974.00
580.8180, 12739.00
581.9900, 12698.00
583.1620, 12502.00
584.3330, 12319.00
585.5040, 12233.00
586.6760, 12167.00
587.8470, 12162.00
589.0180, 12086.00
590.1880, 11931.00
591.3590, 11831.00
592.5290, 11763.00
593.7000, 11646.00
594.8700, 11639.34
596.0400, 11568.00
597.2090, 11607.00
598.3790, 11615.00
599.5490, 11558.00
600.7180, 11642.00
601.8870, 11600.64
603.0560, 11689.00
604.2250, 11542.00
605.3940, 11532.00
606.5620, 11415.00
607.7300, 11558.00
608.8990, 11505.00
610.0670, 11586.00
611.2350, 11493.00
612.4020, 11391.00
613.5700, 11550.00
614.7370, 11405.00
615.9050, 11540.00
617.0720, 11606.00
618.2390, 11550.00
619.4060, 11526.00
620.5720, 11573.00
621.7390, 11602.00
622.9050, 11653.00
624.0710, 11614.00
625.2370, 11607.84
626.4030, 11552.00
627.5690, 11514.00
628.7340, 11549.00
629.9000, 11476.00
631.0650, 11584.00
632.2300, 11458.00
633.3950, 11547.00
634.5600, 11525.00
635.7240, 11802.00
636.8890, 11756.81
638.0530, 11754.17
639.2170, 11812.00
640.3810, 11690.00
641.5450, 11714.00
642.7080, 11798.00
643.8720, 11707.00
645.0350, 11891.00
646.1980, 11975.00
647.3610, 11861.00
648.5240, 12005.00
649.6870, 11945.00
650.8490, 12093.00
652.0120, 11912.00
653.1740, 12154.00
654.3360, 12120.26
655.4980, 12392.00
656.6600, 12226.00
657.8210, 12279.00
658.9830, 12424.00
660.1440, 12372.00
661.3050, 12643.00
662.4660, 12855.00
663.6270, 13009.00
664.7870, 13136.00
665.9480, 13542.00
667.1080, 13828.00
668.2680, 14189.00
669.4280, 14893.00
670.5880, 15405.00
671.7480, 16287.00
672.9070, 17154.00
674.0670, 18347.00
675.2260, 20209.00
676.3850, 22422.00
677.5440, 25468.37
678.7030, 29072.09
679.8610, 33269.00
681.0200, 38037.00
682.1780, 43544.00
683.3360, 49324.00
684.4940, 54716.00
685.6520, 57809.00
686.8090, 57852.00
687.9670, 54585.00
689.1240, 48937.00
690.2810, 42680.00
691.4380, 36451.00
692.5950, 31409.00
693.7520, 27358.00
694.9080, 24420.00
696.0650, 22312.00
697.2210, 20511.00
698.3770, 19271.00
699.5330, 18123.00
700.6880, 17249.00
701.8440, 16787.00
702.9990, 16033.00
704.1550, 15694.00
705.3100, 15351.00
706.4650, 14974.00
707.6190, 14638.00
708.7740, 14440.00
709.9290, 14317.00
711.0830, 14107.00
712.2370, 13984.17
713.3910, 13957.00
714.5450, 13706.00
715.6980, 13671.00
716.8520, 13501.00
718.0050, 13505.00
719.1580, 13659.00
720.3110, 13463.00
721.4640, 13429.00
722.6170, 13344.00
723.7700, 13216.00
724.9220, 13277.00
726.0740, 13326.00
727.2260, 13325.00
728.3780, 13366.00
729.5300, 13249.00
730.6810, 13124.00
731.8330, 13155.00
732.9840, 13099.00
734.1350, 13201.00
735.2860, 13008.00
736.4370, 13061.00
737.5880, 13130.00
738.7380, 12931.00
739.8880, 12849.00
741.0390, 12885.00
742.1890, 12849.00
743.3380, 12880.79
744.4880, 12913.22
745.6380, 12973.00
746.7870, 13013.00
747.9360, 13068.00
749.0850, 13152.00
750.2340, 13208.00
751.3830, 13158.00
752.5310, 13286.00
753.6800, 13325.00
754.8280, 13376.00
755.9760, 13305.00
757.1240, 13271.00
758.2720, 13323.00
759.4190, 13321.00
760.5670, 13325.00
761.7140, 13299.00
762.8610, 13294.00
764.0080, 13225.00
765.1550, 13026.00
766.3020, 13024.00
767.4480, 12978.00
768.5950, 12878.00
769.7410, 12931.00
770.8870, 12770.00
772.0330, 12759.00
773.1780, 12740.00
774.3240, 12704.00
775.4690, 12689.96
776.6140, 12672.00
777.7590, 12682.00
778.9040, 12674.00
780.0490, 12750.00
781.1940, 12665.00
782.3380, 12722.00
783.4820, 12697.66
784.6260, 12617.00
785.7700, 12695.00
786.9140, 12605.00
788.0580, 12668.00
789.2010, 12628.00
790.3450, 12565.00
791.4880, 12536.00
792.6310, 12557.00
793.7730, 12602.00
794.9160, 12649.00
796.0590, 12712.00
797.2010, 12704.00
798.3430, 12708.30
799.4850, 12579.00
800.6270, 12660.00
801.7690, 12595.00
802.9100, 12567.00
804.0520, 12766.00
805.1930, 12645.00
806.3340, 12745.00
807.4750, 12536.00
808.6160, 12790.00
809.7560, 12601.00
810.8970, 12548.00
812.0370, 12580.00
813.1770, 12707.00
814.3170, 12591.00
815.4570, 12559.00
816.5960, 12712.00
817.7360, 12603.00
818.8750, 12613.00
820.0140, 12719.00
821.1530, 12704.00
822.2920, 12727.00
823.4310, 12762.00
824.5690, 12654.00
825.7070, 12757.00
826.8460, 12698.00
827.9840, 12614.00
829.1220, 12691.00
830.2590, 12828.00
831.3970, 12759.77
832.5340, 12768.00
833.6710, 12782.00
834.8080, 12775.00
835.9450, 12880.00
837.0820, 12820.00
838.2190, 12651.00
839.3550, 12827.00
840.4910, 12881.00
841.6270, 12746.00
842.7630, 12913.00
843.8990, 12919.00
845.0350, 12998.00
846.1700, 12873.00
847.3060, 12846.00
848.4410, 12968.00
849.5760, 12917.00
850.7100, 12980.00
851.8450, 13024.00
852.9800, 12975.00
854.1140, 13089.00
855.2480, 13216.00
856.3820, 13066.00
857.5160, 13092.00
858.6500, 13189.00
859.7830, 13143.00
860.9170, 13233.00
862.0500, 13064.00
863.1830, 13107.00
864.3160, 13166.00
865.4480, 13132.00
866.5810, 13140.00
867.7130, 13241.00
868.8460, 13131.00
869.9780, 13224.00
871.1100, 13189.00
872.2410, 13133.00
873.3730, 13218.00
874.5050, 13157.62
875.6360, 13120.00
876.7670, 13161.00
877.8980, 13153.00
879.0290, 13230.00
880.1590, 13292.00
881.2900, 13428.00
882.4200, 13317.00
883.5500, 13233.00
884.6800, 13515.00
885.8100, 13259.00
886.9400, 13433.00
888.0690, 13478.00
889.1990, 13483.22
890.3280, 13529.53
891.4570, 13589.00
892.5860, 13596.00
893.7140, 13529.00
894.8430, 13748.00
895.9710, 13550.00
897.1000, 13687.00
898.2280, 13839.00
899.3560, 13901.00
900.4830, 13914.00
901.6110, 13852.00
902.7380, 14053.00
903.8660, 14068.00
904.9930, 14145.00
906.1200, 14076.00
907.2460, 14050.00
908.3730, 14124.00
909.5000, 14081.00
910.6260, 14046.00
911.7520, 14242.00
912.8780, 14077.00
914.0040, 14187.00
915.1290, 14155.92
916.2550, 14133.00
917.3800, 14103.00
918.5050, 14044.00
919.6300, 14042.00
920.7550, 14070.00
921.8800, 13954.00
923.0040, 13987.00
924.1290, 13897.00
925.2530, 13802.00
926.3770, 13895.00
927.5010, 13993.00
928.6250, 13935.00
929.7480, 14072.00
930.8720, 13895.00
931.9950, 13866.00
933.1180, 13863.00
934.2410, 13961.00
935.3640, 14045.00
936.4860, 14101.00
937.6090, 13925.00
938.7310, 14082.00
939.8530, 13937.00
940.9750, 13830.00
942.0970, 14000.00
943.2180, 13837.00
944.3400, 13974.00
945.4610, 13827.00
946.5820, 13939.00
947.7030, 13912.00
948.8240, 13891.00
949.9450, 14119.00
951.0650, 13947.00
952.1860, 14046.00
953.3060, 14019.00
954.4260, 13989.00
955.5460, 14108.00
956.6650, 14049.00
957.7850, 13979.00
958.9040, 14115.00
960.0230, 13944.00
961.1420, 14224.00
962.2610, 14111.00
963.3800, 14225.00
964.4990, 14047.00
965.6170, 14066.00
966.7350, 14317.00
967.8530, 14295.00
968.9710, 14364.00
970.0890, 14361.00
971.2070, 14520.00
972.3240, 14529.00
973.4410, 14531.00
974.5580, 14523.00
975.6750, 14540.00
976.7920, 14738.00
977.9090, 14635.00
979.0250, 14801.00
980.1410, 14748.00
981.2580, 14836.00
982.3740, 14923.00
983.4890, 15187.00
984.6050, 15249.00
985.7200, 15433.00
986.8360, 15348.00
987.9510, 15521.00
989.0660, 15926.00
990.1810, 16035.00
991.2950, 16340.00
992.4100, 16766.00
993.5240, 16886.00
994.6390, 17275.00
995.7530, 17595.00
996.8660, 17653.00
997.9800, 17879.00
999.0940, 18030.00
1000.207, 18127.00
1001.320, 18170.97
1002.433, 18120.00
1003.546, 18095.00
1004.659, 17966.00
1005.772, 17818.00
1006.884, 17708.40
1007.996, 17569.00
1009.108, 17405.00
1010.220, 17244.00
1011.332, 17079.00
1012.444, 17009.00
1013.555, 16618.00
1014.666, 16509.00
1015.777, 16400.00
1016.888, 16311.00
1017.999, 16221.00
1019.110, 16102.00
1020.220, 16034.00
1021.331, 15984.00
1022.441, 15963.00
1023.551, 15903.00
1024.661, 15889.92
1025.770, 15831.41
1026.880, 15834.00
1027.989, 15718.00
1029.098, 15634.00
1030.207, 15563.00
1031.316, 15570.00
1032.425, 15542.00
1033.533, 15587.00
1034.642, 15618.00
1035.750, 15560.00
1036.858, 15471.00
1037.966, 15649.00
1039.073, 15604.00
1040.181, 15636.00
1041.288, 15825.00
1042.396, 15677.00
1043.503, 15893.00
1044.610, 15947.00
1045.716, 15958.00
1046.823, 16172.00
1047.929, 16125.00
1049.036, 16321.00
1050.142, 16541.00
1051.248, 16613.03
1052.353, 16863.00
1053.459, 17005.00
1054.564, 17198.00
1055.670, 17611.00
1056.775, 17925.00
1057.880, 18472.00
1058.985, 18741.00
1060.089, 19249.00
1061.194, 19560.00
1062.298, 19908.00
1063.402, 20396.00
1064.506, 20575.00
1065.610, 20913.00
1066.713, 21256.00
1067.817, 21197.00
1068.920, 21450.00
1070.023, 21656.00
1071.126, 21557.00
1072.229, 21392.00
1073.332, 21158.00
1074.435, 21117.00
1075.537, 20805.00
1076.639, 20443.00
1077.741, 20296.00
1078.843, 19936.00
1079.945, 19575.00
1081.046, 19402.00
1082.148, 19165.00
1083.249, 18900.00
1084.350, 18659.00
1085.451, 18451.00
1086.551, 18263.63
1087.652, 18066.00
1088.752, 17937.00
1089.853, 17788.00
1090.953, 17613.00
1092.053, 17545.00
1093.152, 17413.00
1094.252, 17320.00
1095.351, 17254.00
1096.451, 17310.00
1097.550, 17041.00
1098.649, 16919.00
1099.748, 17000.00
1100.846, 17112.00
1101.945, 17004.00
1103.043, 17010.00
1104.141, 17087.00
1105.239, 17078.00
1106.337, 17107.00
1107.434, 16935.00
1108.532, 16948.00
1109.629, 17002.00
1110.726, 17015.00
1111.823, 17109.00
1112.920, 16918.00
1114.017, 17074.00
1115.113, 17065.00
1116.210, 17143.00
1117.306, 16983.00
1118.402, 16949.00
1119.498, 17017.00
1120.593, 17065.00
1121.689, 16948.00
1122.784, 17047.00
1123.879, 17211.00
1124.974, 17063.00
1126.069, 17124.00
1127.164, 17030.00
1128.259, 17097.00
1129.353, 17059.00
1130.447, 17085.64
1131.541, 17023.00
1132.635, 17145.00
1133.729, 17192.00
1134.822, 17194.00
1135.916, 17112.00
1137.009, 17161.00
1138.102, 17383.00
1139.195, 17202.00
1140.288, 17202.00
1141.380, 17402.00
1142.473, 17632.00
1143.565, 17353.00
1144.657, 17131.00
1145.749, 17243.00
1146.841, 17420.00
1147.932, 17107.00
1149.024, 17111.00
1150.115, 17191.00
1151.206, 17060.00
1152.297, 17203.00
1153.388, 17008.00
1154.479, 17028.00
1155.569, 16774.00
1156.659, 16729.00
1157.750, 16693.00
1158.839, 16461.00
1159.929, 16525.00
1161.019, 16556.00
1162.108, 16611.00
1163.198, 16453.00
1164.287, 16565.00
1165.376, 16606.00
1166.465, 16516.00
1167.553, 16785.00
1168.642, 16701.00
1169.730, 16747.00
1170.818, 16723.00
1171.906, 16772.00
1172.994, 16810.00
1174.082, 16799.00
1175.170, 16883.00
1176.257, 16828.00
1177.344, 16976.00
1178.431, 16936.00
1179.518, 17003.00
1180.605, 16960.00
1181.691, 17123.00
1182.778, 17137.00
1183.864, 17212.00
1184.950, 17123.00
1186.036, 17045.00
1187.122, 17117.00
1188.207, 17118.00
1189.292, 17274.00
1190.378, 17242.00
1191.463, 17279.00
1192.548, 17222.00
1193.632, 17285.00
1194.717, 17453.00
1195.801, 17403.00
1196.886, 17488.00
1197.970, 17489.00
1199.054, 17484.63
1200.137, 17495.00
1201.221, 17442.00
1202.305, 17394.00
1203.388, 17285.00
1204.471, 17443.00
1205.554, 17431.00
1206.637, 17317.00
1207.719, 17564.00
1208.802, 17462.00
1209.884, 17565.00
1210.966, 17556.00
1212.048, 17505.00
1213.130, 17697.00
1214.212, 17569.00
1215.293, 17571.00
1216.374, 17712.00
1217.456, 17596.00
1218.536, 17775.00
1219.617, 17794.00
1220.698, 17739.00
1221.778, 17782.00
1222.859, 17855.00
1223.939, 17809.09
1225.019, 17844.00
1226.099, 17769.00
1227.178, 17762.00
1228.258, 17714.00
1229.337, 17720.00
1230.417, 17780.00
1231.496, 17509.00
1232.574, 17516.00
1233.653, 17391.00
1234.732, 17191.00
1235.810, 17050.00
1236.888, 17142.00
1237.966, 17033.00
1239.044, 16943.00
1240.122, 16947.00
1241.199, 16906.00
1242.277, 16855.00
1243.354, 16827.03
1244.431, 16733.00
1245.508, 16707.00
1246.585, 16643.35
1247.661, 16592.00
1248.738, 16532.00
1249.814, 16498.70
1250.890, 16449.15
1251.966, 16443.00
1253.042, 16451.00
1254.117, 16415.64
1255.193, 16409.88
1256.268, 16383.00
1257.343, 16403.00
1258.418, 16403.00
1259.493, 16467.00
1260.567, 16362.00
1261.642, 16354.00
1262.716, 16380.00
1263.790, 16296.00
1264.864, 16268.00
1265.938, 16303.00
1267.011, 16279.31
1268.085, 16345.00
1269.158, 16338.00
1270.231, 16329.00
1271.304, 16401.00
1272.377, 16365.00
1273.450, 16412.00
1274.522, 16367.00
1275.594, 16399.00
