##NAMES=Beryl
##RRUFFID=R050305
##IDEAL CHEMISTRY=Be_3_Al_2_Si_6_O_18_
##LOCALITY=Conselheiro Pena, Minas Gerais, Brazil
##OWNER=RRUFF
##SOURCE=Eugene Schlepp
##DESCRIPTION=Light blue fragment, variety aquamarine
##STATUS=The identification of this mineral has been confirmed by X-ray diffraction and chemical analysis
##URL=rruff.info/R050305
##MEASURED CHEMISTRY=(Be_0.91_Li_0.09_)_3_(Al_0.99_Fe^3+^_0.01_)_2_Si_6.00_O_18_Î‡Na_0.27_
##PIN_ID=L01620
##ORIENTATION=Laser parallel to a* (1 0 0). Fiducial mark perpendicular to laser is parallel to -c [0 0 -1]
100.8830, 10446.00
102.1160, 10522.00
103.3490, 10615.00
104.5820, 10895.00
105.8150, 11192.00
107.0470, 11914.00
108.2800, 12675.00
109.5120, 13298.00
110.7440, 12921.00
111.9760, 12374.00
113.2080, 12497.00
114.4400, 12690.00
115.6710, 13166.00
116.9030, 13216.00
118.1340, 13338.00
119.3650, 13406.00
120.5960, 13389.00
121.8270, 13425.00
123.0580, 13708.00
124.2880, 13780.00
125.5190, 13484.00
126.7490, 13573.00
127.9790, 13403.00
129.2090, 13547.00
130.4390, 13743.00
131.6680, 13745.00
132.8980, 13580.00
134.1270, 13633.00
135.3560, 13615.00
136.5850, 13652.00
137.8140, 13754.00
139.0430, 13905.00
140.2710, 13848.00
141.5000, 13660.00
142.7280, 13502.00
143.9560, 13265.00
145.1840, 13477.00
146.4120, 13463.00
147.6390, 13401.00
148.8670, 13357.00
150.0940, 13417.64
151.3210, 13326.00
152.5490, 13496.00
153.7750, 13329.00
155.0020, 13230.00
156.2290, 13313.00
157.4550, 13319.00
158.6810, 13070.00
159.9080, 13242.00
161.1340, 13223.00
162.3590, 13345.00
163.5850, 13201.00
164.8110, 13586.00
166.0360, 13416.00
167.2610, 13492.00
168.4860, 13396.00
169.7110, 13710.00
170.9360, 13598.00
172.1610, 13526.00
173.3850, 13515.00
174.6100, 13392.00
175.8340, 13507.00
177.0580, 13441.00
178.2820, 13413.00
179.5050, 13575.00
180.7290, 13546.00
181.9520, 13590.00
183.1760, 13583.44
184.3990, 13552.40
185.6220, 13507.00
186.8450, 13491.00
188.0670, 13464.00
189.2900, 13452.00
190.5120, 13402.00
191.7340, 13501.00
192.9560, 13525.00
194.1780, 13456.00
195.4000, 13343.00
196.6220, 13480.00
197.8430, 13598.00
199.0640, 13483.00
200.2860, 13513.00
201.5070, 13721.00
202.7270, 13800.00
203.9480, 13644.00
205.1690, 13099.00
206.3890, 12772.00
207.6090, 12780.00
208.8290, 12686.00
210.0490, 12594.00
211.2690, 12721.00
212.4890, 12823.00
213.7080, 12919.00
214.9280, 12892.00
216.1470, 12783.00
217.3660, 12833.00
218.5850, 12890.00
219.8030, 12816.00
221.0220, 12929.00
222.2400, 12917.00
223.4590, 12934.00
224.6770, 13085.00
225.8950, 12912.00
227.1120, 13092.00
228.3300, 13097.00
229.5480, 13195.00
230.7650, 13103.00
231.9820, 13252.00
233.1990, 13316.00
234.4160, 13226.00
235.6330, 13147.00
236.8490, 13258.00
238.0660, 13520.00
239.2820, 13517.00
240.4980, 13445.00
241.7140, 13547.00
242.9300, 13553.00
244.1460, 13748.00
245.3610, 13747.00
246.5770, 13743.00
247.7920, 13708.00
249.0070, 13647.87
250.2220, 13671.00
251.4370, 13501.00
252.6510, 13440.00
253.8660, 13395.00
255.0800, 13345.00
256.2940, 13257.00
257.5080, 13322.00
258.7220, 13458.00
259.9360, 13647.00
261.1490, 13401.00
262.3630, 13112.00
263.5760, 13189.00
264.7890, 13159.00
266.0020, 13409.00
267.2150, 13337.00
268.4270, 13457.00
269.6400, 13307.00
270.8520, 13263.00
272.0640, 13322.00
273.2760, 13366.00
274.4880, 13468.00
275.7000, 13544.00
276.9120, 13422.00
278.1230, 13509.00
279.3340, 13362.00
280.5450, 13629.00
281.7560, 13618.00
282.9670, 13636.92
284.1780, 13869.00
285.3880, 13704.00
286.5980, 13867.00
287.8090, 13959.00
289.0190, 14044.00
290.2290, 14137.00
291.4380, 14134.00
292.6480, 14135.00
293.8570, 14320.00
295.0670, 14425.00
296.2760, 14420.51
297.4850, 14477.05
298.6930, 14411.00
299.9020, 14475.00
301.1110, 14441.00
302.3190, 14506.00
303.5270, 14461.00
304.7350, 14623.00
305.9430, 14657.00
307.1510, 14699.00
308.3580, 14737.00
309.5660, 15132.00
310.7730, 15240.00
311.9800, 15521.00
313.1870, 15853.00
314.3940, 16461.00
315.6010, 16923.00
316.8070, 17541.38
318.0130, 18135.00
319.2200, 18913.00
320.4260, 19567.00
321.6310, 20373.00
322.8370, 20690.00
324.0430, 20639.00
325.2480, 20400.00
326.4540, 19613.00
327.6590, 18639.00
328.8640, 17554.00
330.0680, 16840.00
331.2730, 16060.00
332.4780, 15472.00
333.6820, 14922.00
334.8860, 14706.00
336.0900, 14538.00
337.2940, 14397.00
338.4980, 14220.00
339.7010, 14352.00
340.9050, 14305.00
342.1080, 14139.00
343.3110, 14198.00
344.5140, 14140.00
345.7170, 14191.00
346.9200, 14196.00
348.1220, 14138.00
349.3240, 14080.00
350.5270, 14253.00
351.7290, 14026.00
352.9310, 14396.00
354.1320, 14219.00
355.3340, 14195.00
356.5350, 14323.00
357.7370, 14363.00
358.9380, 14379.00
360.1390, 14313.00
361.3400, 14356.00
362.5400, 14437.00
363.7410, 14453.00
364.9410, 14344.00
366.1410, 14483.00
367.3410, 14492.00
368.5410, 14640.00
369.7410, 14712.00
370.9400, 14784.00
372.1400, 14844.07
373.3390, 14749.00
374.5380, 14878.00
375.7370, 14943.00
376.9360, 14893.00
378.1350, 15173.00
379.3330, 15361.00
380.5310, 15432.00
381.7300, 15543.00
382.9280, 15786.00
384.1260, 16170.00
385.3230, 16484.00
386.5210, 16883.00
387.7180, 17529.00
388.9160, 18205.00
390.1130, 19079.97
391.3100, 20037.00
392.5060, 21203.00
393.7030, 22424.00
394.9000, 23779.00
396.0960, 24997.00
397.2920, 26280.00
398.4880, 27217.00
399.6840, 27355.00
400.8800, 26694.00
402.0750, 25315.00
403.2710, 23708.00
404.4660, 22059.00
405.6610, 20723.00
406.8560, 19510.00
408.0510, 18612.57
409.2450, 17922.00
410.4400, 17402.00
411.6340, 17038.00
412.8280, 16832.00
414.0220, 16509.00
415.2160, 16397.00
416.4100, 16402.00
417.6030, 16362.00
418.7970, 16354.00
419.9900, 16216.00
421.1830, 16269.00
422.3760, 16024.00
423.5690, 16165.00
424.7610, 15947.00
425.9540, 15896.00
427.1460, 15889.00
428.3380, 15712.00
429.5300, 15666.00
430.7220, 15603.00
431.9140, 15650.62
433.1050, 15667.00
434.2970, 15812.00
435.4880, 15951.00
436.6790, 15966.00
437.8700, 15946.00
439.0610, 16151.00
440.2510, 16055.00
441.4420, 16092.00
442.6320, 16439.00
443.8220, 16274.00
445.0120, 16405.00
446.2020, 16318.00
447.3910, 16091.00
448.5810, 16157.00
449.7700, 16073.00
450.9600, 16058.31
452.1490, 16170.00
453.3370, 16037.00
454.5260, 15974.00
455.7150, 15837.00
456.9030, 15911.00
458.0910, 15957.00
459.2800, 15705.00
460.4670, 15963.00
461.6550, 15952.00
462.8430, 15700.00
464.0300, 15738.00
465.2180, 15915.00
466.4050, 15783.00
467.5920, 15701.00
468.7790, 15776.00
469.9650, 15567.00
471.1520, 15713.00
472.3380, 15558.00
473.5250, 15664.00
474.7110, 15630.00
475.8970, 15661.00
477.0820, 15704.00
478.2680, 15733.00
479.4540, 15841.00
480.6390, 15747.00
481.8240, 15892.00
483.0090, 15881.00
484.1940, 15970.00
485.3780, 15981.00
486.5630, 15965.00
487.7470, 15854.00
488.9320, 16120.00
490.1160, 16082.00
491.3000, 16099.00
492.4830, 15974.00
493.6670, 15907.00
494.8500, 16176.00
496.0340, 16213.00
497.2170, 16131.00
498.4000, 16129.00
499.5820, 16193.00
500.7650, 16256.00
501.9480, 16114.00
503.1300, 16167.87
504.3120, 16218.00
505.4940, 16131.00
506.6760, 16201.00
507.8580, 16212.00
509.0390, 16265.22
510.2210, 16318.26
511.4020, 16399.00
512.5830, 16458.00
513.7640, 16460.00
514.9450, 16592.00
516.1250, 16474.00
517.3060, 16571.00
518.4860, 16652.00
519.6660, 16773.00
520.8460, 16723.00
522.0260, 16870.00
523.2060, 16849.00
524.3850, 16899.00
525.5650, 16945.00
526.7440, 17145.00
527.9230, 17065.00
529.1020, 17172.00
530.2810, 17151.00
531.4590, 16959.00
532.6380, 17075.00
533.8160, 17240.00
534.9940, 17207.00
536.1720, 17366.00
537.3500, 17120.00
538.5270, 17033.00
539.7050, 17027.00
540.8820, 16922.00
542.0590, 16909.00
543.2360, 16856.00
544.4130, 16803.00
545.5900, 16881.00
546.7660, 16771.00
547.9430, 16661.00
549.1190, 16794.00
550.2950, 16807.00
551.4710, 16822.00
552.6470, 16797.00
553.8220, 16780.00
554.9980, 16797.00
556.1730, 16977.00
557.3480, 16797.00
558.5230, 16920.00
559.6980, 16881.00
560.8730, 16762.00
562.0470, 16858.00
563.2220, 16900.00
564.3960, 17003.00
565.5700, 17014.00
566.7440, 17200.00
567.9170, 17182.92
569.0910, 17228.00
570.2640, 17214.00
571.4380, 17234.00
572.6110, 17259.00
573.7840, 17316.00
574.9570, 17467.00
576.1290, 17309.00
577.3020, 17352.00
578.4740, 17518.00
579.6460, 17306.00
580.8180, 17244.00
581.9900, 17259.00
583.1620, 17167.00
584.3330, 17199.00
585.5040, 17164.00
586.6760, 17219.00
587.8470, 17281.00
589.0180, 17298.00
590.1880, 17291.38
591.3590, 17210.00
592.5290, 17257.00
593.7000, 17168.00
594.8700, 17199.00
596.0400, 17122.00
597.2090, 17147.00
598.3790, 17112.00
599.5490, 17092.00
600.7180, 17086.00
601.8870, 17178.00
603.0560, 17029.00
604.2250, 17154.00
605.3940, 17183.00
606.5620, 17001.00
607.7300, 17271.00
608.8990, 17261.00
610.0670, 17248.00
611.2350, 17553.00
612.4020, 17515.00
613.5700, 17520.00
614.7370, 17617.00
615.9050, 17739.00
617.0720, 17818.00
618.2390, 17956.00
619.4060, 17800.00
620.5720, 17807.00
621.7390, 17766.00
622.9050, 17486.00
624.0710, 17595.00
625.2370, 17583.00
626.4030, 17583.00
627.5690, 17399.00
628.7340, 17638.00
629.9000, 17502.00
631.0650, 17612.00
632.2300, 17504.00
633.3950, 17602.00
634.5600, 17723.00
635.7240, 17648.00
636.8890, 17782.00
638.0530, 17796.00
639.2170, 17772.00
640.3810, 17837.00
641.5450, 17914.00
642.7080, 17902.47
643.8720, 18021.00
645.0350, 17963.00
646.1980, 17980.00
647.3610, 18085.00
648.5240, 18110.60
649.6870, 18099.00
650.8490, 18250.00
652.0120, 18318.00
653.1740, 18324.00
654.3360, 18500.00
655.4980, 18440.00
656.6600, 18402.00
657.8210, 18681.00
658.9830, 18673.00
660.1440, 18876.00
661.3050, 18840.00
662.4660, 19121.00
663.6270, 19410.00
664.7870, 19539.00
665.9480, 19920.00
667.1080, 20229.00
668.2680, 20501.00
669.4280, 21145.00
670.5880, 21828.00
671.7480, 22530.00
672.9070, 23658.00
674.0670, 24910.00
675.2260, 26498.00
676.3850, 28912.00
677.5440, 31754.00
678.7030, 35329.00
679.8610, 39316.00
681.0200, 44442.00
682.1780, 49152.00
683.3360, 54319.00
684.4940, 58532.00
685.6520, 60896.00
686.8090, 60080.00
687.9670, 56646.00
689.1240, 51215.00
690.2810, 45434.00
691.4380, 40085.00
692.5950, 35408.00
693.7520, 31980.00
694.9080, 29151.00
696.0650, 27020.00
697.2210, 25485.00
698.3770, 24512.00
699.5330, 23325.00
700.6880, 22725.00
701.8440, 22282.00
702.9990, 21517.00
704.1550, 21207.00
705.3100, 20736.00
706.4650, 20513.00
707.6190, 20223.00
708.7740, 20214.00
709.9290, 19898.00
711.0830, 20056.00
712.2370, 19698.00
713.3910, 19681.00
714.5450, 19409.00
715.6980, 19384.00
716.8520, 19394.00
718.0050, 19508.00
719.1580, 19290.00
720.3110, 19230.00
721.4640, 19118.00
722.6170, 19107.00
723.7700, 19108.00
724.9220, 19030.00
726.0740, 19065.00
727.2260, 19093.00
728.3780, 19038.00
729.5300, 19034.00
730.6810, 19060.33
731.8330, 19037.00
732.9840, 19092.00
734.1350, 18984.00
735.2860, 18937.00
736.4370, 18941.00
737.5880, 18930.00
738.7380, 18845.00
739.8880, 18873.00
741.0390, 18871.15
742.1890, 18805.00
743.3380, 18933.00
744.4880, 18926.00
745.6380, 18976.00
746.7870, 19201.00
747.9360, 18910.00
749.0850, 19189.00
750.2340, 18867.00
751.3830, 19061.00
752.5310, 18891.00
753.6800, 19026.00
754.8280, 19220.00
755.9760, 18990.00
757.1240, 19311.00
758.2720, 19188.00
759.4190, 19418.00
760.5670, 19129.00
761.7140, 19098.00
762.8610, 19034.00
764.0080, 18991.10
765.1550, 19150.00
766.3020, 19109.00
767.4480, 18990.00
768.5950, 19163.00
769.7410, 19105.00
770.8870, 19314.00
772.0330, 19208.00
773.1780, 19366.00
774.3240, 19308.00
775.4690, 19276.00
776.6140, 19341.00
777.7590, 19095.00
778.9040, 19123.00
780.0490, 19779.00
781.1940, 19855.00
782.3380, 19805.00
783.4820, 19258.00
784.6260, 19269.00
785.7700, 19194.00
786.9140, 19207.00
788.0580, 19182.00
789.2010, 19300.00
790.3450, 19279.00
791.4880, 19266.00
792.6310, 19166.00
793.7730, 19374.00
794.9160, 19512.00
796.0590, 19379.00
797.2010, 19376.00
798.3430, 19260.00
799.4850, 19299.00
800.6270, 19310.00
801.7690, 19381.00
802.9100, 19365.00
804.0520, 19411.00
805.1930, 19391.00
806.3340, 19484.00
807.4750, 19265.00
808.6160, 19520.00
809.7560, 19364.00
810.8970, 19532.00
812.0370, 19505.00
813.1770, 19540.00
814.3170, 19549.00
815.4570, 19483.00
816.5960, 19563.00
817.7360, 19594.00
818.8750, 19696.00
820.0140, 19730.00
821.1530, 19654.00
822.2920, 19609.00
823.4310, 19698.00
824.5690, 19676.00
825.7070, 19637.00
826.8460, 19555.00
827.9840, 19730.00
829.1220, 19674.00
830.2590, 19583.00
831.3970, 19811.00
832.5340, 19776.00
833.6710, 19659.00
834.8080, 19804.00
835.9450, 19884.00
837.0820, 19848.00
838.2190, 19971.00
839.3550, 19853.00
840.4910, 19892.00
841.6270, 19918.00
842.7630, 19965.00
843.8990, 20110.00
845.0350, 20107.00
846.1700, 20132.29
847.3060, 20128.00
848.4410, 20020.00
849.5760, 20048.00
850.7100, 19806.00
851.8450, 19819.00
852.9800, 20087.00
854.1140, 20004.00
855.2480, 20182.00
856.3820, 20224.00
857.5160, 20175.00
858.6500, 20126.00
859.7830, 20287.00
860.9170, 20221.00
862.0500, 20225.00
863.1830, 20238.00
864.3160, 20346.00
865.4480, 20256.00
866.5810, 20220.00
867.7130, 20414.00
868.8460, 20354.00
869.9780, 20404.00
871.1100, 20403.00
872.2410, 20385.00
873.3730, 20440.00
874.5050, 20462.08
875.6360, 20441.22
876.7670, 20526.00
877.8980, 20467.00
879.0290, 20419.00
880.1590, 20563.00
881.2900, 20602.00
882.4200, 20747.18
883.5500, 20730.76
884.6800, 21012.00
885.8100, 20681.00
886.9400, 20608.00
888.0690, 20554.00
889.1990, 20714.00
890.3280, 20713.00
891.4570, 20805.00
892.5860, 20741.00
893.7140, 20760.00
894.8430, 20899.00
895.9710, 20850.00
897.1000, 20867.00
898.2280, 20920.00
899.3560, 20995.00
900.4830, 21031.00
901.6110, 21063.00
902.7380, 21073.00
903.8660, 20973.00
904.9930, 21235.00
906.1200, 21325.00
907.2460, 21002.00
908.3730, 21192.00
909.5000, 21302.00
910.6260, 21280.00
911.7520, 21195.00
912.8780, 21385.00
914.0040, 21251.00
915.1290, 21289.00
916.2550, 21395.00
917.3800, 21462.00
918.5050, 21524.00
919.6300, 21339.00
920.7550, 21431.00
921.8800, 21349.00
923.0040, 21436.00
924.1290, 21518.00
925.2530, 21247.00
926.3770, 21560.00
927.5010, 21543.00
928.6250, 21615.00
929.7480, 21367.00
930.8720, 21403.00
931.9950, 21595.00
933.1180, 21530.00
934.2410, 21633.00
935.3640, 21363.00
936.4860, 21575.00
937.6090, 21497.00
938.7310, 21691.00
939.8530, 21439.00
940.9750, 21730.00
942.0970, 21516.00
943.2180, 21554.00
944.3400, 21680.00
945.4610, 21605.00
946.5820, 21729.00
947.7030, 21724.00
948.8240, 21800.00
949.9450, 21683.00
951.0650, 21798.00
952.1860, 21868.00
953.3060, 21779.00
954.4260, 21930.00
955.5460, 21722.00
956.6650, 22047.00
957.7850, 21881.00
958.9040, 21887.00
960.0230, 21747.00
961.1420, 21870.00
962.2610, 22011.00
963.3800, 22045.00
964.4990, 21961.00
965.6170, 22161.25
966.7350, 22143.00
967.8530, 22396.00
968.9710, 22194.00
970.0890, 22177.00
971.2070, 22066.00
972.3240, 22124.27
973.4410, 22138.01
974.5580, 22313.00
975.6750, 22278.00
976.7920, 22360.00
977.9090, 22471.00
979.0250, 22359.00
980.1410, 22655.00
981.2580, 22473.00
982.3740, 22601.00
983.4890, 22826.00
984.6050, 22833.00
985.7200, 22710.00
986.8360, 22674.00
987.9510, 23045.00
989.0660, 23159.00
990.1810, 23515.00
991.2950, 23408.00
992.4100, 23613.00
993.5240, 23801.00
994.6390, 24054.00
995.7530, 24115.00
996.8660, 24426.00
997.9800, 24699.00
999.0940, 24687.00
1000.207, 24842.00
1001.320, 25477.00
1002.433, 25732.00
1003.546, 25743.00
1004.659, 25949.00
1005.772, 26240.00
1006.884, 25988.00
1007.996, 26370.00
1009.108, 26543.00
1010.220, 26554.00
1011.332, 26282.00
1012.444, 26447.00
1013.555, 26311.00
1014.666, 26138.00
1015.777, 26200.00
1016.888, 26024.00
1017.999, 25857.00
1019.110, 25771.00
1020.220, 25637.00
1021.331, 25435.00
1022.441, 25449.00
1023.551, 25264.00
1024.661, 25365.00
1025.770, 25262.00
1026.880, 25232.00
1027.989, 25508.00
1029.098, 25055.00
1030.207, 25327.00
1031.316, 25508.00
1032.425, 25537.00
1033.533, 25603.00
1034.642, 25859.00
1035.750, 25820.00
1036.858, 26060.00
1037.966, 26061.00
1039.073, 26201.00
1040.181, 26612.00
1041.288, 26850.00
1042.396, 27111.00
1043.503, 27389.00
1044.610, 27820.00
1045.716, 28298.00
1046.823, 28592.00
1047.929, 29119.00
1049.036, 29694.00
1050.142, 30484.00
1051.248, 31551.00
1052.353, 32311.00
1053.459, 33320.00
1054.564, 34653.00
1055.670, 35606.00
1056.775, 37069.00
1057.880, 38544.00
1058.985, 40067.00
1060.089, 41586.00
1061.194, 43403.00
1062.298, 45027.00
1063.402, 46164.00
1064.506, 47364.00
1065.610, 48097.00
1066.713, 48567.00
1067.817, 49118.00
1068.920, 48871.00
1070.023, 48923.00
1071.126, 48002.00
1072.229, 46956.00
1073.332, 45935.00
1074.435, 44823.46
1075.537, 43843.00
1076.639, 42490.00
1077.741, 41170.00
1078.843, 39927.00
1079.945, 38774.00
1081.046, 37606.00
1082.148, 36642.00
1083.249, 35796.00
1084.350, 34751.00
1085.451, 33971.96
1086.551, 33000.00
1087.652, 32506.00
1088.752, 31845.00
1089.853, 31432.00
1090.953, 30826.00
1092.053, 30354.00
1093.152, 30205.00
1094.252, 29924.00
1095.351, 29501.00
1096.451, 29412.00
1097.550, 29198.00
1098.649, 29112.00
1099.748, 28981.00
1100.846, 28627.00
1101.945, 28716.00
1103.043, 28841.00
1104.141, 28412.00
1105.239, 28321.00
1106.337, 28282.00
1107.434, 28357.00
1108.532, 28104.00
1109.629, 27991.00
1110.726, 28263.00
1111.823, 27958.00
1112.920, 28012.00
1114.017, 28140.00
1115.113, 28140.00
1116.210, 28125.00
1117.306, 28027.00
1118.402, 27851.00
1119.498, 27919.00
1120.593, 27690.00
1121.689, 27624.00
1122.784, 27631.00
1123.879, 27644.00
1124.974, 27569.00
1126.069, 27696.00
1127.164, 27664.00
1128.259, 27785.00
1129.353, 27676.00
1130.447, 27468.00
1131.541, 27534.00
1132.635, 27712.00
1133.729, 27461.00
1134.822, 27678.00
1135.916, 27846.00
1137.009, 27606.00
1138.102, 27629.00
1139.195, 27775.00
1140.288, 27824.00
1141.380, 27634.00
1142.473, 27663.00
1143.565, 27981.00
1144.657, 27483.00
1145.749, 27625.00
1146.841, 27359.00
1147.932, 27457.00
1149.024, 27211.00
1150.115, 27214.00
1151.206, 27038.00
1152.297, 26836.00
1153.388, 26739.00
1154.479, 26596.62
1155.569, 26559.00
1156.659, 26434.00
1157.750, 26180.00
1158.839, 26186.00
1159.929, 26018.10
1161.019, 25805.00
1162.108, 25787.00
1163.198, 25766.00
1164.287, 25607.00
1165.376, 25331.00
1166.465, 25460.00
1167.553, 25296.00
1168.642, 25450.00
1169.730, 25441.00
1170.818, 25391.00
1171.906, 25326.00
1172.994, 25435.00
1174.082, 25427.00
1175.170, 25357.00
1176.257, 25429.00
1177.344, 25104.00
1178.431, 25456.00
1179.518, 25385.00
1180.605, 25229.00
1181.691, 25500.00
1182.778, 25403.00
1183.864, 25465.00
1184.950, 25231.00
1186.036, 25391.00
1187.122, 25422.00
1188.207, 25275.00
1189.292, 25430.00
1190.378, 25211.00
1191.463, 25417.00
1192.548, 25557.00
1193.632, 25573.00
1194.717, 25378.00
1195.801, 25467.00
1196.886, 25424.00
1197.970, 25349.00
1199.054, 25501.00
1200.137, 25085.00
1201.221, 25375.00
1202.305, 25312.00
1203.388, 25281.00
1204.471, 25459.00
1205.554, 25191.00
1206.637, 25640.00
1207.719, 25440.00
1208.802, 25384.00
1209.884, 25418.00
1210.966, 25525.00
1212.048, 25528.00
1213.130, 25451.00
1214.212, 25552.60
1215.293, 25498.60
1216.374, 25580.00
1217.456, 25559.00
1218.536, 25412.00
1219.617, 25610.00
1220.698, 25655.00
1221.778, 25596.00
1222.859, 25493.00
1223.939, 25676.00
1225.019, 25697.00
1226.099, 25638.00
1227.178, 25705.00
1228.258, 25641.00
1229.337, 25580.00
1230.417, 25704.00
1231.496, 25758.00
1232.574, 25673.00
1233.653, 25438.00
1234.732, 25724.00
1235.810, 25787.00
1236.888, 25620.00
1237.966, 25810.00
1239.044, 25723.00
1240.122, 25465.00
1241.199, 25684.00
1242.277, 25539.00
1243.354, 25520.00
1244.431, 25439.00
1245.508, 25654.00
1246.585, 25597.00
1247.661, 25644.00
1248.738, 25622.00
1249.814, 25761.00
1250.890, 25806.00
1251.966, 25778.00
1253.042, 25653.00
1254.117, 25558.00
1255.193, 25661.00
1256.268, 25693.00
1257.343, 25729.00
1258.418, 25719.00
1259.493, 25758.38
1260.567, 25760.00
1261.642, 25812.00
1262.716, 25868.00
1263.790, 25909.00
1264.864, 25944.47
1265.938, 25860.00
1267.011, 25965.00
1268.085, 25858.00
1269.158, 25778.00
1270.231, 25842.00
1271.304, 25780.00
1272.377, 25953.00
1273.450, 25945.00
1274.522, 26082.00
1275.594, 26052.00
1276.666, 25959.00
1277.738, 26225.00
1278.810, 26096.00
1279.882, 25958.00
