##NAMES=Beryl
##RRUFFID=R060944
##IDEAL CHEMISTRY=Be_3_Al_2_Si_6_O_18_
##LOCALITY=Habachtal, Salzburg, Austria
##OWNER=RRUFF
##SOURCE=Lawrence W. Snee
##DESCRIPTION=Green hexagonal prisms in a muscovite schist, variety emerald. Note that there are micro inclusions of actinolite. The Raman signal is a mixture of the two phases.
##STATUS=The identification of this mineral has been confirmed by X-ray diffraction and chemical analysis
##URL=rruff.info/R060944
##MEASURED CHEMISTRY=Be_3.00_(Al_1.59_Mg_0.33_Fe^3+^_0.04_Cr^3+^_0.04_)_Σ=2_Si_6.00_O_18_·Na_0.33_ ; bright inclusions are actinolite
##PIN_ID=L01278
##ORIENTATION=Laser parallel to a* (1 0 0). Fiducial mark perpendicular to laser is parallel to c [0 0 1]
130.4390, 22699.00
131.6680, 22713.00
132.8980, 22869.00
134.1270, 22688.00
135.3560, 22947.00
136.5850, 22856.00
137.8140, 22796.00
139.0430, 23266.00
140.2710, 23002.00
141.5000, 23070.00
142.7280, 22892.00
143.9560, 22995.00
145.1840, 23112.00
146.4120, 23203.00
147.6390, 22956.00
148.8670, 23177.00
150.0940, 23220.00
151.3210, 23465.00
152.5490, 23564.00
153.7750, 23764.00
155.0020, 23955.81
156.2290, 24055.00
157.4550, 24251.00
158.6810, 24346.00
159.9080, 24294.00
161.1340, 24033.00
162.3590, 24133.00
163.5850, 23824.00
164.8110, 24018.00
166.0360, 23960.00
167.2610, 23888.00
168.4860, 23997.00
169.7110, 24038.00
170.9360, 24376.00
172.1610, 24572.00
173.3850, 25056.00
174.6100, 24928.00
175.8340, 25145.00
177.0580, 25343.00
178.2820, 25319.00
179.5050, 25288.00
180.7290, 25027.00
181.9520, 24846.00
183.1760, 24829.00
184.3990, 24823.00
185.6220, 24662.29
186.8450, 24308.00
188.0670, 24445.00
189.2900, 24353.00
190.5120, 24296.00
191.7340, 24390.00
192.9560, 24381.00
194.1780, 24343.00
195.4000, 24395.00
196.6220, 24642.00
197.8430, 24422.00
199.0640, 24276.00
200.2860, 24495.00
201.5070, 24375.00
202.7270, 24580.00
203.9480, 24741.00
205.1690, 24544.00
206.3890, 24381.00
207.6090, 24257.00
208.8290, 24515.00
210.0490, 24447.00
211.2690, 24665.00
212.4890, 24689.00
213.7080, 25256.00
214.9280, 25222.00
216.1470, 25615.00
217.3660, 25905.00
218.5850, 26180.00
219.8030, 26353.00
221.0220, 26471.00
222.2400, 26630.00
223.4590, 26537.00
224.6770, 26606.00
225.8950, 26400.00
227.1120, 26334.00
228.3300, 26296.00
229.5480, 26160.00
230.7650, 26058.54
231.9820, 26039.00
233.1990, 25823.00
234.4160, 25781.00
235.6330, 25751.00
236.8490, 25572.00
238.0660, 25452.00
239.2820, 25232.00
240.4980, 25373.00
241.7140, 25367.00
242.9300, 25466.00
244.1460, 25626.00
245.3610, 25721.00
246.5770, 25850.00
247.7920, 25859.42
249.0070, 25758.00
250.2220, 25792.00
251.4370, 25558.00
252.6510, 25406.00
253.8660, 25021.00
255.0800, 24949.00
256.2940, 24805.00
257.5080, 24587.00
258.7220, 25064.00
259.9360, 25211.00
261.1490, 24811.00
262.3630, 24601.00
263.5760, 24665.00
264.7890, 24710.00
266.0020, 24674.00
267.2150, 24767.10
268.4270, 24979.00
269.6400, 24866.00
270.8520, 24887.00
272.0640, 24875.42
273.2760, 24583.00
274.4880, 24855.00
275.7000, 24760.00
276.9120, 24722.00
278.1230, 24888.00
279.3340, 24831.00
280.5450, 24782.00
281.7560, 24811.00
282.9670, 24981.00
284.1780, 24900.00
285.3880, 25139.00
286.5980, 25208.00
287.8090, 25165.00
289.0190, 25167.00
290.2290, 25347.00
291.4380, 25112.00
292.6480, 25293.00
293.8570, 25246.00
295.0670, 25387.00
296.2760, 25100.00
297.4850, 25205.00
298.6930, 25188.00
299.9020, 25240.00
301.1110, 25235.00
302.3190, 25288.00
303.5270, 25300.00
304.7350, 25436.00
305.9430, 25537.00
307.1510, 25535.00
308.3580, 25455.00
309.5660, 25702.00
310.7730, 25937.00
311.9800, 25903.00
313.1870, 26186.00
314.3940, 26386.00
315.6010, 26798.00
316.8070, 27138.00
318.0130, 27584.00
319.2200, 27914.00
320.4260, 28366.00
321.6310, 28991.00
322.8370, 29476.00
324.0430, 29769.00
325.2480, 29500.00
326.4540, 28978.00
327.6590, 28331.00
328.8640, 27699.00
330.0680, 27030.00
331.2730, 26505.00
332.4780, 25969.00
333.6820, 25932.00
334.8860, 25770.00
336.0900, 25408.00
337.2940, 25682.00
338.4980, 25798.00
339.7010, 25570.00
340.9050, 25615.00
342.1080, 25664.00
343.3110, 25829.00
344.5140, 25794.00
345.7170, 25830.00
346.9200, 25430.00
348.1220, 25830.00
349.3240, 25679.00
350.5270, 25852.00
351.7290, 26088.00
352.9310, 25756.00
354.1320, 25960.00
355.3340, 25904.00
356.5350, 25623.00
357.7370, 25906.00
358.9380, 25954.00
360.1390, 25935.00
361.3400, 25911.00
362.5400, 26045.00
363.7410, 26178.00
364.9410, 26162.00
366.1410, 26256.00
367.3410, 26240.00
368.5410, 26277.00
369.7410, 26305.97
370.9400, 26464.00
372.1400, 26397.00
373.3390, 26427.00
374.5380, 26593.00
375.7370, 26561.00
376.9360, 26781.00
378.1350, 26940.00
379.3330, 26648.00
380.5310, 26791.00
381.7300, 27044.00
382.9280, 27436.00
384.1260, 27332.00
385.3230, 27814.00
386.5210, 28071.00
387.7180, 28798.00
388.9160, 29248.00
390.1130, 29859.00
391.3100, 30682.00
392.5060, 31572.00
393.7030, 32211.00
394.9000, 33237.00
396.0960, 33923.00
397.2920, 34603.00
398.4880, 35261.00
399.6840, 33919.00
400.8800, 33238.00
402.0750, 31834.00
403.2710, 30894.00
404.4660, 30021.00
405.6610, 29308.00
406.8560, 28828.00
408.0510, 28154.00
409.2450, 28172.00
410.4400, 28066.00
411.6340, 27676.00
412.8280, 27673.00
414.0220, 27802.00
415.2160, 27561.00
416.4100, 27436.00
417.6030, 27205.00
418.7970, 27072.00
419.9900, 27078.00
421.1830, 26989.00
422.3760, 26970.00
423.5690, 26779.00
424.7610, 26807.00
425.9540, 26911.00
427.1460, 27105.00
428.3380, 26854.00
429.5300, 27042.00
430.7220, 26878.00
431.9140, 27127.00
433.1050, 27324.00
434.2970, 27345.00
435.4880, 27496.00
436.6790, 27305.00
437.8700, 27549.00
439.0610, 27595.00
440.2510, 27320.00
441.4420, 27572.00
442.6320, 27209.00
443.8220, 27164.00
445.0120, 26910.00
446.2020, 26856.00
447.3910, 26710.00
448.5810, 26692.00
449.7700, 26648.98
450.9600, 26554.72
452.1490, 26608.00
453.3370, 26481.00
454.5260, 26420.00
455.7150, 26528.00
456.9030, 26451.00
458.0910, 26478.00
459.2800, 26373.00
460.4670, 26337.00
461.6550, 26518.00
462.8430, 26417.00
464.0300, 26630.00
465.2180, 26594.00
466.4050, 26492.00
467.5920, 26588.00
468.7790, 26681.00
469.9650, 26440.00
471.1520, 26450.00
472.3380, 26692.00
473.5250, 26646.00
474.7110, 26694.00
475.8970, 26570.00
477.0820, 26580.00
478.2680, 26597.00
479.4540, 26730.00
480.6390, 26932.00
481.8240, 26906.00
483.0090, 26753.00
484.1940, 27014.00
485.3780, 26854.00
486.5630, 27100.00
487.7470, 26694.00
488.9320, 26860.00
490.1160, 26852.00
491.3000, 27218.00
492.4830, 26994.00
493.6670, 27114.00
494.8500, 27105.00
496.0340, 27126.00
497.2170, 27171.00
498.4000, 27359.00
499.5820, 27270.00
500.7650, 27286.00
501.9480, 27586.00
503.1300, 27662.00
504.3120, 27575.00
505.4940, 27583.00
506.6760, 27805.00
507.8580, 27862.00
509.0390, 28249.00
510.2210, 28154.00
511.4020, 28460.00
512.5830, 28566.00
513.7640, 28611.00
514.9450, 28999.00
516.1250, 29134.00
517.3060, 29442.00
518.4860, 29886.00
519.6660, 29875.00
520.8460, 29942.00
522.0260, 30045.00
523.2060, 29702.00
524.3850, 29785.00
525.5650, 29480.00
526.7440, 29154.00
527.9230, 29145.00
529.1020, 28530.00
530.2810, 28719.00
531.4590, 28223.00
532.6380, 28172.00
533.8160, 28086.00
534.9940, 27960.00
536.1720, 27717.00
537.3500, 27497.00
538.5270, 27629.00
539.7050, 27377.00
540.8820, 27622.00
542.0590, 27483.00
543.2360, 27309.00
544.4130, 27063.00
545.5900, 27272.00
546.7660, 27377.00
547.9430, 27083.00
549.1190, 27371.00
550.2950, 27443.00
551.4710, 27216.00
552.6470, 27356.00
553.8220, 27418.00
554.9980, 27504.00
556.1730, 27561.00
557.3480, 27626.28
558.5230, 27794.00
559.6980, 27800.00
560.8730, 27787.00
562.0470, 27983.00
563.2220, 27781.00
564.3960, 27841.00
565.5700, 27825.00
566.7440, 27693.00
567.9170, 28089.00
569.0910, 27974.00
570.2640, 27955.00
571.4380, 28060.00
572.6110, 28009.00
573.7840, 27958.00
574.9570, 28097.00
576.1290, 27947.00
577.3020, 28076.00
578.4740, 28113.00
579.6460, 27909.00
580.8180, 28108.00
581.9900, 27940.00
583.1620, 28324.00
584.3330, 27955.00
585.5040, 27874.00
586.6760, 27813.00
587.8470, 27991.00
589.0180, 28108.00
590.1880, 28054.00
591.3590, 27978.00
592.5290, 27753.00
593.7000, 27920.00
594.8700, 27929.00
596.0400, 28017.00
597.2090, 27855.00
598.3790, 27894.00
599.5490, 27889.00
600.7180, 27908.00
601.8870, 27863.00
603.0560, 28030.00
604.2250, 28133.00
605.3940, 28076.00
606.5620, 28070.00
607.7300, 28278.00
608.8990, 28110.00
610.0670, 28441.00
611.2350, 28560.00
612.4020, 28692.00
613.5700, 28904.00
614.7370, 28992.00
615.9050, 28688.00
617.0720, 28738.00
618.2390, 28636.00
619.4060, 28573.00
620.5720, 28573.00
621.7390, 28808.00
622.9050, 28482.11
624.0710, 28950.00
625.2370, 28131.00
626.4030, 28138.00
627.5690, 28343.00
628.7340, 28280.00
629.9000, 28018.00
631.0650, 28109.00
632.2300, 27998.00
633.3950, 28401.00
634.5600, 28298.00
635.7240, 28485.00
636.8890, 28360.00
638.0530, 28406.00
639.2170, 28656.00
640.3810, 28842.00
641.5450, 28722.00
642.7080, 28744.00
643.8720, 28714.00
645.0350, 28921.00
646.1980, 29010.00
647.3610, 28815.00
648.5240, 29127.00
649.6870, 29106.00
650.8490, 29193.00
652.0120, 29511.00
653.1740, 29350.00
654.3360, 29507.00
655.4980, 29673.00
656.6600, 29851.00
657.8210, 30123.63
658.9830, 30539.00
660.1440, 30764.00
661.3050, 31234.00
662.4660, 31683.00
663.6270, 32308.99
664.7870, 33096.00
665.9480, 33853.00
667.1080, 34949.00
668.2680, 35977.00
669.4280, 36948.00
670.5880, 37678.00
671.7480, 38379.35
672.9070, 39248.00
674.0670, 39330.00
675.2260, 39418.00
676.3850, 39495.00
677.5440, 40189.00
678.7030, 41357.00
679.8610, 43029.00
681.0200, 45325.00
682.1780, 48301.00
683.3360, 51549.00
684.4940, 55483.00
685.6520, 58657.00
686.8090, 59587.00
687.9670, 58343.00
689.1240, 55443.00
690.2810, 51607.00
691.4380, 47368.00
692.5950, 43431.00
693.7520, 40517.00
694.9080, 38177.00
696.0650, 36202.00
697.2210, 34841.00
698.3770, 33813.00
699.5330, 33042.00
700.6880, 32705.00
701.8440, 31983.00
702.9990, 31523.00
704.1550, 31242.00
705.3100, 30844.00
706.4650, 30670.00
707.6190, 30521.00
708.7740, 30325.00
709.9290, 30014.00
711.0830, 29846.00
712.2370, 29951.00
713.3910, 29634.00
714.5450, 29710.00
715.6980, 29652.00
716.8520, 29602.00
718.0050, 29606.00
719.1580, 29656.00
720.3110, 29593.00
721.4640, 29514.00
722.6170, 29565.00
723.7700, 29275.00
724.9220, 29376.00
726.0740, 29036.00
727.2260, 29210.00
728.3780, 29140.00
729.5300, 29361.00
730.6810, 29203.00
731.8330, 29408.00
732.9840, 29189.00
734.1350, 29312.00
735.2860, 29451.00
736.4370, 29602.00
737.5880, 29457.00
738.7380, 29741.00
739.8880, 29510.00
741.0390, 29409.00
742.1890, 29521.00
743.3380, 29572.00
744.4880, 29496.00
745.6380, 29553.00
746.7870, 29742.00
747.9360, 29722.00
749.0850, 29502.00
750.2340, 29551.00
751.3830, 29398.00
752.5310, 29436.00
753.6800, 29629.00
754.8280, 29590.00
755.9760, 29559.00
757.1240, 29549.00
758.2720, 29710.00
759.4190, 29673.00
760.5670, 29518.00
761.7140, 29705.00
762.8610, 29654.00
764.0080, 29686.00
765.1550, 29952.00
766.3020, 29645.00
767.4480, 29817.00
768.5950, 29629.00
769.7410, 29936.00
770.8870, 29814.00
772.0330, 29551.00
773.1780, 29693.00
774.3240, 29914.00
775.4690, 29841.00
776.6140, 29734.00
777.7590, 29658.00
778.9040, 29746.00
780.0490, 29674.75
781.1940, 29678.90
782.3380, 29632.00
783.4820, 29698.00
784.6260, 29589.00
785.7700, 29677.00
786.9140, 29678.00
788.0580, 29763.00
789.2010, 29789.00
790.3450, 29603.00
791.4880, 29747.00
792.6310, 29479.00
793.7730, 29627.00
794.9160, 29557.00
796.0590, 29564.00
797.2010, 29723.00
798.3430, 29638.38
799.4850, 29592.00
800.6270, 29695.00
801.7690, 29707.00
802.9100, 29920.00
804.0520, 29808.00
805.1930, 30169.00
806.3340, 29717.00
807.4750, 30153.00
808.6160, 29667.00
809.7560, 29648.00
810.8970, 29988.00
812.0370, 30051.00
813.1770, 29790.00
814.3170, 29797.00
815.4570, 29841.00
816.5960, 30074.00
817.7360, 29816.00
818.8750, 29973.00
820.0140, 29913.00
821.1530, 30075.00
822.2920, 30130.00
823.4310, 29857.00
824.5690, 30023.00
825.7070, 29938.00
826.8460, 30011.00
827.9840, 30018.00
829.1220, 30021.00
830.2590, 29933.00
831.3970, 29947.47
832.5340, 29989.00
833.6710, 29921.00
834.8080, 30047.00
835.9450, 30071.00
837.0820, 30348.00
838.2190, 30079.00
839.3550, 30169.00
840.4910, 30124.00
841.6270, 29925.00
842.7630, 30079.00
843.8990, 30186.00
845.0350, 30214.00
846.1700, 30078.00
847.3060, 30328.00
848.4410, 30340.00
849.5760, 30179.00
850.7100, 29966.00
851.8450, 30156.00
852.9800, 30401.00
854.1140, 30280.00
855.2480, 30251.00
856.3820, 30224.00
857.5160, 30346.00
858.6500, 30156.00
859.7830, 30338.00
860.9170, 30295.00
862.0500, 30340.00
863.1830, 30376.00
864.3160, 30412.00
865.4480, 30429.72
866.5810, 30441.29
867.7130, 30457.00
868.8460, 30447.00
869.9780, 30464.00
871.1100, 30473.00
872.2410, 30510.00
873.3730, 30657.00
874.5050, 30341.00
875.6360, 30306.00
876.7670, 30347.00
877.8980, 30486.00
879.0290, 30492.00
880.1590, 30483.43
881.2900, 30534.00
882.4200, 30451.00
883.5500, 30433.00
884.6800, 30537.00
885.8100, 30490.38
886.9400, 30587.00
888.0690, 30572.00
889.1990, 30700.00
890.3280, 30854.00
891.4570, 30788.00
892.5860, 30643.00
893.7140, 30682.00
894.8430, 30758.00
895.9710, 30855.00
897.1000, 30749.00
898.2280, 30932.00
899.3560, 30942.00
900.4830, 31137.00
901.6110, 30874.00
902.7380, 31075.00
903.8660, 30908.00
904.9930, 31126.00
906.1200, 31199.00
907.2460, 31168.00
908.3730, 31177.00
909.5000, 31198.00
910.6260, 31383.00
911.7520, 31252.00
912.8780, 31597.00
914.0040, 31397.00
915.1290, 31597.00
916.2550, 31602.00
917.3800, 31721.00
918.5050, 31794.00
919.6300, 31671.00
920.7550, 31960.00
921.8800, 31850.00
923.0040, 32006.00
924.1290, 31842.00
925.2530, 32021.00
926.3770, 31994.00
927.5010, 32281.00
928.6250, 32245.00
929.7480, 32153.00
930.8720, 31896.00
931.9950, 32121.00
933.1180, 31916.00
934.2410, 31672.00
935.3640, 31794.00
936.4860, 31690.00
937.6090, 31687.00
938.7310, 31551.00
939.8530, 31418.00
940.9750, 31683.00
942.0970, 31286.00
943.2180, 31727.00
944.3400, 31599.00
945.4610, 31573.00
946.5820, 31714.00
947.7030, 31475.00
948.8240, 31569.00
949.9450, 31718.00
951.0650, 31603.00
952.1860, 31550.00
953.3060, 31463.00
954.4260, 31621.00
955.5460, 31608.00
956.6650, 31397.00
957.7850, 31702.00
958.9040, 31284.00
960.0230, 31578.00
961.1420, 31563.00
962.2610, 31705.00
963.3800, 31835.00
964.4990, 31627.00
965.6170, 31841.00
966.7350, 31590.00
967.8530, 31837.00
968.9710, 31669.00
970.0890, 31504.00
971.2070, 31621.00
972.3240, 31903.00
973.4410, 31821.00
974.5580, 31925.00
975.6750, 31745.00
976.7920, 31761.00
977.9090, 31786.00
979.0250, 31844.36
980.1410, 31809.00
981.2580, 32128.00
982.3740, 32140.00
983.4890, 32312.00
984.6050, 32104.00
985.7200, 32338.00
986.8360, 32509.00
987.9510, 32794.00
989.0660, 32804.00
990.1810, 32830.00
991.2950, 32993.00
992.4100, 33125.00
993.5240, 33152.00
994.6390, 33515.00
995.7530, 33966.00
996.8660, 33792.00
997.9800, 34114.00
999.0940, 34240.00
1000.207, 34204.00
1001.320, 34737.00
1002.433, 35165.00
1003.546, 34848.00
1004.659, 35129.00
1005.772, 34943.00
1006.884, 35302.00
1007.996, 35250.00
1009.108, 35268.00
1010.220, 35416.00
1011.332, 35452.15
1012.444, 35622.00
1013.555, 35577.00
1014.666, 35532.00
1015.777, 35378.00
1016.888, 35381.00
1017.999, 35311.00
1019.110, 35450.00
1020.220, 35293.00
1021.331, 35298.52
1022.441, 35503.00
1023.551, 35227.00
1024.661, 35206.00
1025.770, 35239.00
1026.880, 35326.00
1027.989, 35091.00
1029.098, 35069.00
1030.207, 34977.00
1031.316, 35111.00
1032.425, 34830.00
1033.533, 34761.00
1034.642, 34611.00
1035.750, 34414.00
1036.858, 34471.00
1037.966, 34835.00
1039.073, 34899.00
1040.181, 34876.00
1041.288, 35035.00
1042.396, 35192.00
1043.503, 35445.00
1044.610, 35478.00
1045.716, 35921.00
1046.823, 36448.00
1047.929, 36795.00
1049.036, 37459.00
1050.142, 37983.77
1051.248, 38781.00
1052.353, 39205.00
1053.459, 40077.00
1054.564, 40736.00
1055.670, 41637.00
1056.775, 42510.00
1057.880, 43702.00
1058.985, 44718.00
1060.089, 45806.00
1061.194, 46994.00
1062.298, 48211.00
1063.402, 49662.00
1064.506, 50828.00
1065.610, 51653.00
1066.713, 52526.00
1067.817, 52824.00
1068.920, 52674.00
1070.023, 52454.00
1071.126, 52305.00
1072.229, 51603.00
1073.332, 50859.00
1074.435, 49632.00
1075.537, 48493.00
1076.639, 47168.00
1077.741, 46105.00
1078.843, 45149.00
1079.945, 44102.19
1081.046, 43102.11
1082.148, 42387.00
1083.249, 41217.00
1084.350, 40596.00
1085.451, 39947.00
1086.551, 39519.00
1087.652, 39189.00
1088.752, 38811.00
1089.853, 38405.00
1090.953, 38086.60
1092.053, 37878.00
1093.152, 37483.00
1094.252, 37207.00
1095.351, 37062.00
1096.451, 37052.00
1097.550, 36846.00
1098.649, 36764.00
1099.748, 36321.00
1100.846, 36403.00
1101.945, 36212.00
1103.043, 36204.00
1104.141, 36035.00
1105.239, 35815.00
1106.337, 35880.00
1107.434, 35790.00
1108.532, 35870.00
1109.629, 35639.00
1110.726, 35688.00
1111.823, 35804.00
1112.920, 35556.00
1114.017, 35698.00
1115.113, 35576.00
1116.210, 36000.00
1117.306, 35636.00
1118.402, 35745.00
1119.498, 35648.00
1120.593, 35591.00
1121.689, 35925.00
1122.784, 35885.00
1123.879, 35939.00
1124.974, 35907.00
1126.069, 35781.00
1127.164, 36060.00
1128.259, 35965.00
1129.353, 35876.00
1130.447, 36007.00
1131.541, 35787.00
1132.635, 35675.00
1133.729, 35501.00
1134.822, 35379.00
1135.916, 35365.00
1137.009, 35134.00
1138.102, 34879.00
1139.195, 35089.00
1140.288, 34876.00
1141.380, 34852.00
1142.473, 34539.00
1143.565, 34437.00
1144.657, 34289.00
1145.749, 34382.00
1146.841, 34513.00
1147.932, 34381.00
1149.024, 34120.00
1150.115, 34335.00
1151.206, 34118.00
1152.297, 34119.00
1153.388, 34061.00
1154.479, 33891.00
1155.569, 34010.00
1156.659, 33823.00
1157.750, 33783.00
1158.839, 33697.00
1159.929, 33663.00
1161.019, 33690.00
1162.108, 33606.00
1163.198, 33742.00
1164.287, 33763.00
1165.376, 33670.00
1166.465, 33747.00
1167.553, 33693.00
1168.642, 33746.00
1169.730, 33672.21
1170.818, 33662.43
1171.906, 33607.00
1172.994, 33505.00
1174.082, 33675.00
1175.170, 33400.00
1176.257, 33652.00
1177.344, 33687.00
1178.431, 33622.00
1179.518, 33713.00
1180.605, 33693.00
1181.691, 33584.00
1182.778, 33709.00
1183.864, 33849.00
1184.950, 33916.00
1186.036, 33690.00
1187.122, 33491.00
1188.207, 33709.00
1189.292, 33875.00
1190.378, 33673.00
1191.463, 33528.00
1192.548, 33804.00
1193.632, 33622.00
1194.717, 33663.00
1195.801, 33663.00
1196.886, 33818.00
1197.970, 33666.00
1199.054, 33532.00
1200.137, 33769.00
1201.221, 33979.00
1202.305, 33692.00
1203.388, 34020.00
1204.471, 33675.00
1205.554, 33953.00
1206.637, 34170.00
1207.719, 34035.00
1208.802, 33764.00
1209.884, 33799.00
1210.966, 33721.00
1212.048, 33858.00
1213.130, 33839.00
1214.212, 33897.00
1215.293, 34021.00
1216.374, 34081.00
1217.456, 34099.73
1218.536, 33855.00
1219.617, 34105.00
1220.698, 34062.00
1221.778, 34056.00
1222.859, 34189.00
1223.939, 33889.00
1225.019, 34035.00
1226.099, 33984.00
1227.178, 33833.00
1228.258, 33938.00
1229.337, 33907.00
1230.417, 33791.00
1231.496, 33728.00
1232.574, 33788.00
1233.653, 33737.54
1234.732, 33880.00
1235.810, 33736.00
1236.888, 33957.00
1237.966, 33909.00
1239.044, 33871.00
1240.122, 33885.00
1241.199, 33607.00
1242.277, 33839.00
1243.354, 33678.00
1244.431, 33924.00
1245.508, 33601.00
1246.585, 33718.00
1247.661, 33882.00
1248.738, 33848.00
1249.814, 33934.00
1250.890, 33791.00
1251.966, 33737.00
1253.042, 34006.00
1254.117, 33788.00
1255.193, 33608.00
1256.268, 33891.00
1257.343, 33767.00
1258.418, 33768.00
1259.493, 33823.00
1260.567, 33756.00
1261.642, 33797.00
1262.716, 33777.00
1263.790, 33902.00
1264.864, 33910.00
1265.938, 34063.00
1267.011, 33766.00
1268.085, 33947.00
1269.158, 33978.00
1270.231, 34205.00
1271.304, 33910.00
1272.377, 34081.00
1273.450, 33904.00
1274.522, 33982.00
1275.594, 33871.00
1276.666, 33939.00
1277.738, 33967.00
1278.810, 34158.00
1279.882, 33917.00
1280.953, 33980.00
1282.025, 33996.00
1283.096, 33920.00
1284.167, 34038.00
1285.238, 34039.00
1286.308, 34148.00
1287.379, 33629.00
1288.449, 33994.00
1289.519, 34014.00
1290.589, 34206.00
1291.659, 34389.00
1292.729, 34051.00
1293.798, 33847.00
1294.868, 34138.00
1295.937, 33980.00
