##NAMES=Beryl
##RRUFFID=R060943
##IDEAL CHEMISTRY=Be_3_Al_2_Si_6_O_18_
##LOCALITY=Xinjiang, China
##OWNER=RRUFF
##SOURCE=Lawrence W. Snee
##DESCRIPTION=Green hexagonal prisms, variety emerald
##STATUS=The identification of this mineral has been confirmed by X-ray diffraction and chemical analysis
##URL=rruff.info/R060943
##MEASURED CHEMISTRY=(Be_2.96_Li_0.04_)_Σ=3_(Al_1.64_Mg_0.21_V^3+^_0.06_Fe^3+^_0.04_Sc^3+^_0.03_Cr^3+^_0.02_)_Σ=2_Si_6.00_O_18_·Na_0.25_
##PIN_ID=L01186
##ORIENTATION=Laser parallel to -c* (0 0 -1). Fiducial mark perpendicular to laser is parallel to a [1 0 0]
169.8000, 11260.00
171.0320, 11252.00
172.2650, 11281.00
173.4970, 11231.00
174.7290, 11148.00
175.9610, 11225.00
177.1930, 11316.00
178.4240, 11443.00
179.6550, 11415.00
180.8870, 11386.00
182.1170, 11432.17
183.3480, 11354.00
184.5790, 11466.00
185.8090, 11609.00
187.0390, 11695.00
188.2690, 11674.00
189.4990, 11904.00
190.7290, 11903.00
191.9580, 12230.00
193.1870, 12078.00
194.4160, 12195.05
195.6450, 12344.00
196.8740, 12309.00
198.1020, 12173.00
199.3310, 12364.00
200.5590, 12172.00
201.7870, 12314.00
203.0140, 12071.00
204.2420, 11681.00
205.4690, 11425.00
206.6960, 11206.00
207.9230, 11188.00
209.1500, 11116.00
210.3760, 11177.00
211.6030, 11179.00
212.8290, 11212.00
214.0550, 11157.00
215.2810, 11085.00
216.5060, 11058.00
217.7320, 11011.00
218.9570, 11199.00
220.1820, 11254.00
221.4070, 11209.00
222.6320, 11125.00
223.8560, 11327.00
225.0800, 11202.00
226.3040, 11250.00
227.5280, 11228.00
228.7520, 11202.00
229.9760, 11197.00
231.1990, 11313.00
232.4220, 11318.00
233.6450, 11442.00
234.8680, 11360.00
236.0910, 11435.00
237.3130, 11436.00
238.5350, 11444.00
239.7570, 11549.00
240.9790, 11535.00
242.2010, 11461.00
243.4220, 11547.00
244.6430, 11673.00
245.8640, 11624.00
247.0850, 11787.00
248.3060, 11777.00
249.5270, 11713.00
250.7470, 11652.00
251.9670, 11557.00
253.1870, 11430.00
254.4070, 11133.00
255.6260, 10990.00
256.8460, 10922.00
258.0650, 11421.00
259.2840, 11064.04
260.5030, 11492.00
261.7220, 10842.00
262.9400, 10633.00
264.1580, 10722.00
265.3760, 10612.00
266.5940, 10775.00
267.8120, 10914.00
269.0290, 10957.00
270.2470, 10865.00
271.4640, 11008.00
272.6810, 10834.00
273.8980, 10919.00
275.1140, 10964.00
276.3310, 10868.00
277.5470, 11007.00
278.7630, 10884.00
279.9790, 11172.00
281.1940, 11039.00
282.4100, 11271.00
283.6250, 11158.00
284.8400, 11230.00
286.0550, 11251.00
287.2700, 11219.00
288.4850, 11271.00
289.6990, 11485.00
290.9130, 11363.00
292.1270, 11353.00
293.3410, 11324.00
294.5540, 11213.00
295.7680, 11258.00
296.9810, 11184.00
298.1940, 11171.16
299.4070, 11043.00
300.6200, 11171.00
301.8320, 11161.00
303.0450, 11213.00
304.2570, 11080.00
305.4690, 11315.00
306.6800, 11320.00
307.8920, 11633.00
309.1030, 11677.00
310.3150, 11761.00
311.5260, 12125.00
312.7360, 12438.00
313.9470, 12751.00
315.1580, 13257.00
316.3680, 13718.00
317.5780, 14314.00
318.7880, 14772.00
319.9980, 15589.00
321.2070, 16296.00
322.4170, 17205.00
323.6260, 17498.00
324.8350, 17145.00
326.0430, 16572.00
327.2520, 15533.00
328.4610, 14150.00
329.6690, 13150.00
330.8770, 12151.00
332.0850, 11584.00
333.2920, 11203.00
334.5000, 11013.00
335.7070, 10755.00
336.9140, 10735.00
338.1210, 10690.00
339.3280, 10483.00
340.5350, 10566.00
341.7410, 10522.00
342.9470, 10501.00
344.1540, 10489.00
345.3590, 10424.00
346.5650, 10487.00
347.7710, 10450.00
348.9760, 10464.00
350.1810, 10412.00
351.3860, 10426.95
352.5910, 10429.00
353.7950, 10459.00
355.0000, 10444.00
356.2040, 10494.00
357.4080, 10543.00
358.6120, 10491.00
359.8150, 10604.00
361.0190, 10490.00
362.2220, 10410.00
363.4250, 10489.00
364.6280, 10527.00
365.8310, 10582.00
367.0340, 10627.09
368.2360, 10668.54
369.4380, 10702.00
370.6400, 10735.00
371.8420, 10767.00
373.0440, 10763.00
374.2450, 10902.00
375.4470, 10944.00
376.6480, 10976.00
377.8490, 11200.00
379.0490, 11303.00
380.2500, 11311.00
381.4500, 11754.00
382.6510, 11899.00
383.8510, 11929.00
385.0500, 12323.00
386.2500, 12545.00
387.4500, 12922.00
388.6490, 13394.00
389.8480, 13895.00
391.0470, 14543.00
392.2460, 15172.00
393.4440, 15916.00
394.6430, 16503.00
395.8410, 17140.00
397.0390, 17718.00
398.2370, 17735.00
399.4340, 17439.00
400.6320, 16719.00
401.8290, 15791.00
403.0260, 15071.00
404.2230, 14389.00
405.4200, 13802.96
406.6170, 13323.33
407.8130, 12966.00
409.0090, 12630.00
410.2050, 12512.00
411.4010, 12443.00
412.5970, 12283.00
413.7920, 12400.00
414.9880, 12292.00
416.1830, 12245.00
417.3780, 12240.00
418.5730, 12124.00
419.7670, 11947.00
420.9620, 11926.00
422.1560, 11842.00
423.3500, 11823.00
424.5440, 11927.00
425.7380, 11728.00
426.9310, 11784.00
428.1240, 11647.00
429.3180, 11725.00
430.5110, 11784.00
431.7030, 11963.00
432.8960, 11984.00
434.0890, 12043.00
435.2810, 12225.00
436.4730, 12378.00
437.6650, 12434.00
438.8570, 12724.00
440.0480, 12800.00
441.2390, 12921.00
442.4310, 13018.00
443.6220, 12897.00
444.8120, 12728.00
446.0030, 12489.00
447.1940, 12327.00
448.3840, 12096.00
449.5740, 11929.00
450.7640, 11936.00
451.9540, 11754.00
453.1430, 11623.00
454.3330, 11696.00
455.5220, 11509.00
456.7110, 11549.00
457.9000, 11536.00
459.0890, 11494.00
460.2770, 11516.68
461.4650, 11472.92
462.6540, 11498.00
463.8420, 11405.00
465.0290, 11353.00
466.2170, 11299.00
467.4050, 11296.00
468.5920, 11388.00
469.7790, 11328.00
470.9660, 11232.00
472.1530, 11401.00
473.3390, 11216.00
474.5250, 11225.00
475.7120, 11204.00
476.8980, 11165.00
478.0840, 11196.49
479.2690, 11149.00
480.4550, 11221.00
481.6400, 11340.00
482.8250, 11321.00
484.0100, 11325.00
485.1950, 11340.00
486.3800, 11197.00
487.5640, 11184.00
488.7480, 11125.00
489.9320, 11251.00
491.1160, 11260.00
492.3000, 11367.00
493.4840, 11307.00
494.6670, 11299.00
495.8500, 11256.00
497.0330, 11412.00
498.2160, 11286.00
499.3990, 11347.00
500.5810, 11550.00
501.7630, 11544.00
502.9460, 11459.00
504.1280, 11611.00
505.3090, 11594.00
506.4910, 11692.00
507.6720, 11676.00
508.8540, 11691.00
510.0350, 11834.00
511.2160, 11888.00
512.3960, 12092.00
513.5770, 12243.00
514.7570, 12433.00
515.9380, 12466.00
517.1180, 12727.00
518.2970, 12752.00
519.4770, 13008.00
520.6570, 13404.00
521.8360, 13409.00
523.0150, 13531.00
524.1940, 13485.00
525.3730, 13342.00
526.5510, 13132.00
527.7300, 12969.00
528.9080, 12822.00
530.0860, 12389.00
531.2640, 12371.00
532.4420, 12084.00
533.6200, 11983.00
534.7970, 11710.00
535.9740, 11553.00
537.1510, 11515.00
538.3280, 11380.00
539.5050, 11390.00
540.6810, 11256.00
541.8580, 11186.00
543.0340, 11126.00
544.2100, 11198.00
545.3860, 11082.00
546.5610, 11080.52
547.7370, 11063.00
548.9120, 11046.00
550.0870, 11063.00
551.2620, 11132.00
552.4370, 11133.00
553.6120, 11256.00
554.7860, 11327.00
555.9600, 11305.00
557.1340, 11270.00
558.3080, 11503.00
559.4820, 11456.00
560.6560, 11481.00
561.8290, 11728.00
563.0020, 11737.00
564.1750, 11839.00
565.3480, 11742.00
566.5210, 11772.00
567.6930, 11859.00
568.8660, 11885.00
570.0380, 11824.00
571.2100, 11936.00
572.3820, 11820.00
573.5530, 11983.00
574.7250, 11956.00
575.8960, 12059.00
577.0670, 12052.00
578.2380, 12001.00
579.4090, 12149.00
580.5800, 11984.00
581.7500, 12000.00
582.9210, 11959.00
584.0910, 11955.00
585.2610, 12031.00
586.4300, 12115.00
587.6000, 12187.00
588.7690, 12067.00
589.9390, 12144.00
591.1080, 12015.00
592.2770, 12196.00
593.4450, 12108.00
594.6140, 12113.00
595.7820, 12120.00
596.9500, 12105.00
598.1190, 12105.00
599.2860, 12136.00
600.4540, 12130.78
601.6220, 12142.00
602.7890, 12129.00
603.9560, 12200.00
605.1230, 12155.00
606.2900, 12254.00
607.4570, 12230.00
608.6230, 12281.00
609.7890, 12415.00
610.9560, 12531.00
612.1220, 12438.00
613.2870, 12656.00
614.4530, 12695.00
615.6180, 12887.00
616.7840, 12827.00
617.9490, 12746.00
619.1140, 12959.00
620.2790, 12859.00
621.4430, 12639.00
622.6080, 13050.00
623.7720, 12861.86
624.9360, 12762.37
626.1000, 12691.00
627.2640, 12541.00
628.4270, 12386.56
629.5910, 12175.00
630.7540, 12061.00
631.9170, 11983.00
633.0800, 11923.00
634.2430, 12029.00
635.4050, 11970.00
636.5680, 12036.00
637.7300, 12022.00
638.8920, 11965.00
640.0540, 12017.00
641.2150, 12002.00
642.3770, 11944.00
643.5380, 12054.00
644.7000, 12007.00
645.8610, 12107.00
647.0210, 12159.00
648.1820, 12088.00
649.3430, 12003.00
650.5030, 12116.00
651.6630, 12154.00
652.8230, 12163.00
653.9830, 12240.00
655.1430, 12162.00
656.3020, 12310.00
657.4620, 12302.00
658.6210, 12368.00
659.7800, 12578.00
660.9390, 12571.00
662.0970, 12879.00
663.2560, 12858.00
664.4140, 13135.00
665.5720, 13349.00
666.7300, 13809.00
667.8880, 14181.00
669.0460, 14538.00
670.2030, 15283.00
671.3600, 15679.00
672.5180, 16560.00
673.6740, 17683.00
674.8310, 19439.00
675.9880, 21221.00
677.1440, 24023.00
678.3010, 26736.00
679.4570, 30454.00
680.6130, 34197.00
681.7690, 38777.00
682.9240, 43522.00
684.0800, 48320.00
685.2350, 51653.00
686.3900, 52850.00
687.5450, 50037.00
688.7000, 45129.00
689.8540, 39053.00
691.0090, 33438.00
692.1630, 28850.00
693.3170, 25032.00
694.4710, 22325.00
695.6250, 20186.00
696.7780, 18563.00
697.9320, 17555.00
699.0850, 16581.00
700.2380, 16036.00
701.3910, 15505.00
702.5440, 15104.00
703.6970, 14630.00
704.8490, 14258.00
706.0010, 14074.00
707.1530, 13745.42
708.3050, 13532.00
709.4570, 13406.00
710.6090, 13251.00
711.7600, 13300.00
712.9110, 13158.00
714.0620, 13008.00
715.2130, 13029.00
716.3640, 12814.00
717.5150, 12677.00
718.6650, 12720.00
719.8150, 12511.00
720.9650, 12393.00
722.1150, 12414.00
723.2650, 12380.00
724.4150, 12255.00
725.5640, 12297.00
726.7130, 12281.00
727.8630, 12163.00
729.0110, 12127.00
730.1600, 12134.00
731.3090, 12085.00
732.4570, 12046.00
733.6060, 12061.00
734.7540, 12100.00
735.9020, 12028.00
737.0490, 11993.00
738.1970, 12132.00
739.3440, 12025.00
740.4920, 12099.00
741.6390, 12070.00
742.7860, 12066.00
743.9320, 12074.00
745.0790, 12017.63
746.2250, 12054.00
747.3720, 11940.00
748.5180, 12079.00
749.6640, 12105.00
750.8100, 12183.00
751.9550, 12138.00
753.1010, 12200.00
754.2460, 12355.00
755.3910, 12333.00
756.5360, 12470.00
757.6810, 12376.00
758.8250, 12450.00
759.9700, 12418.00
761.1140, 12532.00
762.2580, 12633.00
763.4020, 12711.00
764.5460, 12720.79
765.6900, 12588.00
766.8330, 12673.00
767.9760, 12679.00
769.1200, 12617.00
770.2620, 12660.00
771.4050, 12648.00
772.5480, 12590.00
773.6900, 12502.00
774.8330, 12482.00
775.9750, 12370.00
777.1170, 12341.82
778.2590, 12389.00
779.4000, 12282.00
780.5420, 12350.00
781.6830, 12375.00
782.8240, 12235.00
783.9650, 12155.00
785.1060, 12269.00
786.2470, 12299.00
787.3870, 12349.00
788.5280, 12123.00
789.6680, 12145.00
790.8080, 12211.00
791.9480, 12066.00
793.0870, 12268.00
794.2270, 12100.00
795.3660, 12263.00
796.5060, 12135.00
797.6450, 12139.00
798.7830, 12123.00
799.9220, 12005.00
801.0610, 12264.00
802.1990, 12090.00
803.3370, 12160.00
804.4750, 12150.00
805.6130, 12187.00
806.7510, 12232.00
807.8890, 12215.63
809.0260, 12258.00
810.1630, 12186.00
811.3000, 12170.00
812.4370, 12110.00
813.5740, 12105.00
814.7110, 12140.00
815.8470, 12146.00
816.9830, 12160.00
818.1190, 12203.00
819.2550, 12245.00
820.3910, 12244.83
821.5270, 12186.00
822.6620, 12231.00
823.7970, 12249.00
824.9330, 12198.00
826.0670, 12255.00
827.2020, 12290.00
828.3370, 12285.00
829.4710, 12206.00
830.6060, 12279.00
831.7400, 12220.00
832.8740, 12248.00
834.0080, 12327.00
835.1410, 12163.00
836.2750, 12411.00
837.4080, 12344.00
838.5410, 12403.00
839.6740, 12527.00
840.8070, 12492.00
841.9400, 12516.19
843.0730, 12340.00
844.2050, 12469.00
845.3370, 12431.00
846.4690, 12415.00
847.6010, 12507.00
848.7330, 12400.00
849.8640, 12522.00
850.9960, 12592.00
852.1270, 12365.00
853.2580, 12513.00
854.3890, 12667.00
855.5200, 12553.00
856.6500, 12453.00
857.7810, 12560.00
858.9110, 12591.00
860.0410, 12561.00
861.1710, 12735.00
862.3010, 12527.00
863.4310, 12611.00
864.5600, 12486.00
865.6900, 12539.00
866.8190, 12531.00
867.9480, 12615.00
869.0770, 12525.00
870.2050, 12723.00
871.3340, 12568.00
872.4620, 12777.00
873.5900, 12625.00
874.7180, 12725.00
875.8460, 12606.00
876.9740, 12676.00
878.1010, 12632.00
879.2290, 12798.00
880.3560, 12791.00
881.4830, 12753.00
882.6100, 12754.00
883.7370, 12709.00
884.8630, 12750.00
885.9900, 12629.00
887.1160, 12740.00
888.2420, 12732.00
889.3680, 12857.00
890.4940, 12846.00
891.6200, 12804.00
892.7450, 12961.00
893.8700, 12906.00
894.9960, 12992.00
896.1210, 12901.00
897.2460, 13057.00
898.3700, 12997.00
899.4950, 13135.00
900.6190, 13190.00
901.7430, 13329.00
902.8670, 13263.00
903.9910, 13380.00
905.1150, 13311.00
906.2390, 13454.00
907.3620, 13520.00
908.4850, 13597.00
909.6080, 13663.00
910.7310, 13755.00
911.8540, 13753.00
912.9770, 13865.00
914.0990, 13913.00
915.2210, 13929.92
916.3440, 13861.00
917.4660, 13982.00
918.5870, 13915.00
919.7090, 13963.00
920.8310, 13886.00
921.9520, 13941.00
923.0730, 13709.00
924.1940, 13823.00
925.3150, 13755.00
926.4360, 13653.00
927.5560, 13779.00
928.6770, 13586.00
929.7970, 13519.00
930.9170, 13643.00
932.0370, 13606.00
933.1570, 13656.00
934.2760, 13503.00
935.3960, 13698.00
936.5150, 13564.00
937.6340, 13434.00
938.7530, 13443.00
939.8720, 13334.00
940.9910, 13450.00
942.1090, 13227.00
943.2280, 13488.00
944.3460, 13514.00
945.4640, 13329.00
946.5820, 13312.00
947.6990, 13103.00
948.8170, 13351.00
949.9340, 13362.00
951.0520, 13273.00
952.1690, 13408.00
953.2860, 13222.00
954.4030, 13392.00
955.5190, 13278.00
956.6360, 13349.00
957.7520, 13308.00
958.8680, 13341.00
959.9840, 13406.00
961.1000, 13409.00
962.2160, 13401.00
963.3310, 13413.00
964.4470, 13422.00
965.5620, 13518.00
966.6770, 13507.83
967.7920, 13670.00
968.9060, 13624.00
970.0210, 13510.00
971.1360, 13726.00
972.2500, 13570.00
973.3640, 13757.00
974.4780, 13595.00
975.5920, 13717.11
976.7050, 13764.00
977.8190, 13877.00
978.9320, 13977.00
980.0450, 13975.00
981.1580, 13954.00
982.2710, 14127.00
983.3840, 14077.00
984.4970, 14150.00
985.6090, 14425.00
986.7210, 14671.00
987.8330, 14648.00
988.9450, 14966.00
990.0570, 15083.00
991.1690, 15346.00
992.2800, 15572.00
993.3920, 15764.00
994.5030, 15959.00
995.6140, 16369.00
996.7250, 16375.00
997.8350, 16571.00
998.9460, 17010.00
1000.056, 17036.00
1001.167, 17302.00
1002.277, 17635.00
1003.387, 17673.00
1004.496, 17783.00
1005.606, 17822.00
1006.715, 17876.93
1007.825, 17907.94
1008.934, 17957.00
1010.043, 17875.00
1011.152, 17880.00
1012.260, 17740.00
1013.369, 17335.00
1014.477, 17355.00
1015.586, 17149.00
1016.694, 17100.00
1017.802, 16839.00
1018.909, 16686.00
1020.017, 16489.00
1021.124, 16445.00
1022.232, 16271.00
1023.339, 16282.00
1024.446, 16043.00
1025.553, 15930.00
1026.659, 16019.00
1027.766, 15853.00
1028.872, 15928.00
1029.979, 15789.00
1031.085, 15887.00
1032.191, 15934.00
1033.296, 15718.00
1034.402, 15878.00
1035.507, 16006.00
1036.613, 16064.00
1037.718, 16117.00
1038.823, 16245.97
1039.928, 16369.00
1041.032, 16477.00
1042.137, 16682.00
1043.241, 16817.00
1044.346, 17133.00
1045.450, 17268.00
1046.554, 17637.00
1047.657, 18111.00
1048.761, 18609.00
1049.864, 19100.00
1050.968, 19649.00
1052.071, 20412.00
1053.174, 21215.00
1054.277, 22181.00
1055.379, 23365.00
1056.482, 24545.00
1057.584, 26011.00
1058.687, 27878.00
1059.789, 29676.00
1060.891, 31531.00
1061.992, 33345.00
1063.094, 35400.00
1064.196, 36830.00
1065.297, 37988.00
1066.398, 38624.00
1067.499, 38498.00
1068.600, 38173.00
1069.701, 37432.00
1070.801, 36352.00
1071.902, 34895.00
1073.002, 33569.00
1074.102, 32187.00
1075.202, 30793.00
1076.302, 29294.00
1077.402, 27788.00
1078.501, 26997.00
1079.600, 25658.37
1080.700, 24599.00
1081.799, 23848.00
1082.898, 23039.00
1083.996, 22797.00
1085.095, 23180.00
1086.193, 22776.00
1087.292, 21793.00
1088.390, 20925.00
1089.488, 20084.00
1090.586, 19616.00
1091.683, 19095.00
1092.781, 18687.00
1093.878, 18296.00
1094.975, 18220.00
1096.073, 18041.00
1097.169, 17874.00
1098.266, 17564.00
1099.363, 17625.00
1100.459, 17325.00
1101.556, 17224.00
1102.652, 17241.00
1103.748, 16927.00
1104.844, 16908.00
1105.940, 16922.00
1107.035, 16749.00
1108.131, 16607.00
1109.226, 16751.00
1110.321, 16709.00
1111.416, 16513.00
1112.511, 16592.57
1113.605, 16623.00
1114.700, 16519.00
1115.794, 16571.00
1116.889, 16486.00
1117.983, 16764.00
1119.077, 16690.00
1120.170, 16820.00
1121.264, 16822.00
1122.357, 17053.00
1123.451, 17112.00
1124.544, 17072.00
1125.637, 17153.00
1126.730, 17146.00
1127.823, 17064.00
1128.915, 17119.00
1130.008, 17008.00
1131.100, 17274.00
1132.192, 16913.00
1133.284, 16964.00
1134.376, 16719.00
1135.467, 16743.00
1136.559, 16617.00
1137.650, 16427.00
1138.742, 16291.00
1139.833, 16068.00
1140.924, 16020.00
1142.014, 16003.00
1143.105, 15724.00
1144.195, 15651.00
1145.286, 15531.00
1146.376, 15358.00
1147.466, 15323.00
1148.556, 15393.00
1149.646, 15093.00
1150.735, 15143.00
1151.825, 15000.00
1152.914, 15018.00
1154.003, 14865.00
1155.092, 14956.00
1156.181, 14890.00
1157.270, 14836.00
1158.358, 14937.00
1159.447, 14872.00
1160.535, 14761.00
1161.623, 14800.00
1162.711, 14727.00
1163.799, 14620.00
1164.886, 14717.00
1165.974, 14753.00
1167.061, 14779.00
1168.148, 14737.00
1169.235, 14722.00
1170.322, 14755.00
1171.409, 14849.00
1172.496, 14862.00
1173.582, 14896.46
1174.669, 14914.00
1175.755, 14920.00
1176.841, 14900.00
1177.927, 14885.00
1179.012, 14786.00
1180.098, 15009.00
1181.183, 14893.02
1182.269, 15149.00
1183.354, 14862.00
1184.439, 14840.00
1185.524, 14874.00
1186.608, 14843.00
1187.693, 14889.00
1188.777, 15045.00
1189.862, 15014.00
1190.946, 15062.57
1192.030, 14803.00
1193.113, 15083.00
1194.197, 14949.00
1195.281, 14981.00
1196.364, 15039.00
1197.447, 14967.00
1198.530, 14802.00
1199.613, 15079.00
1200.696, 14917.00
1201.779, 14893.00
1202.861, 14963.00
1203.944, 15069.00
1205.026, 15052.00
1206.108, 15100.00
1207.190, 15102.00
1208.271, 15172.00
1209.353, 15096.00
1210.435, 15159.44
1211.516, 15140.00
1212.597, 15213.00
1213.678, 15249.00
1214.759, 15257.00
1215.840, 15405.00
1216.920, 15390.00
1218.001, 15357.00
1219.081, 15542.00
1220.161, 15406.00
1221.241, 15558.00
1222.321, 15537.00
1223.401, 15518.00
1224.480, 15606.00
1225.560, 15677.00
1226.639, 15603.39
1227.718, 15649.00
1228.797, 15482.00
1229.876, 15448.00
1230.955, 15407.00
1232.033, 15416.00
1233.112, 15284.00
1234.190, 15300.00
1235.268, 15166.00
1236.346, 15285.00
1237.424, 15203.00
1238.501, 15167.00
1239.579, 15094.00
1240.656, 15084.00
1241.733, 15158.00
1242.811, 15046.00
1243.888, 15101.00
1244.964, 15111.00
1246.041, 15017.00
1247.117, 15062.00
1248.194, 15000.00
1249.270, 15070.00
1250.346, 15011.00
1251.422, 14928.00
1252.498, 14989.00
1253.573, 14981.00
1254.649, 15084.00
1255.724, 15020.00
1256.800, 14947.00
1257.875, 14953.00
1258.950, 15106.00
1260.024, 14907.00
1261.099, 14827.00
1262.173, 14912.00
1263.248, 15143.00
1264.322, 14972.00
1265.396, 15057.00
1266.470, 15143.00
1267.544, 15076.00
1268.617, 15001.00
1269.691, 14977.00
1270.764, 15204.00
1271.837, 15187.00
1272.910, 15069.00
1273.983, 14996.00
1275.056, 14983.00
1276.129, 15084.00
1277.201, 14966.00
1278.273, 15137.00
1279.346, 14851.00
1280.418, 15032.00
1281.489, 15063.00
1282.561, 15140.00
1283.633, 15032.00
1284.704, 15070.00
1285.776, 15201.00
1286.847, 15137.05
1287.918, 15278.00
1288.989, 15142.00
1290.059, 15227.00
1291.130, 15220.00
1292.200, 15149.00
1293.271, 15438.00
1294.341, 15339.00
1295.411, 15364.00
1296.481, 15185.00
1297.551, 15391.00
1298.620, 15407.00
1299.690, 15444.00
1300.759, 15468.00
1301.828, 15343.00
1302.897, 15309.00
1303.966, 15324.00
1305.035, 15412.00
1306.103, 15336.00
1307.172, 15377.00
1308.240, 15321.00
1309.308, 15326.33
1310.376, 15398.00
1311.444, 15374.00
1312.512, 15329.00
1313.580, 15434.00
1314.647, 15403.00
1315.714, 15252.00
1316.781, 15315.00
1317.848, 15369.00
1318.915, 15179.00
1319.982, 15323.00
1321.049, 15365.00
1322.115, 15392.00
1323.181, 15356.00
1324.248, 15408.00
1325.314, 15412.00
1326.380, 15393.00
1327.445, 15345.00
1328.511, 15346.00
1329.576, 15384.00
1330.642, 15396.00
1331.707, 15523.00
1332.772, 15288.00
1333.837, 15535.00
1334.902, 15347.00
1335.966, 15525.00
1337.031, 15364.00
