##NAMES=Beryl
##RRUFFID=R060943
##IDEAL CHEMISTRY=Be_3_Al_2_Si_6_O_18_
##LOCALITY=Xinjiang, China
##OWNER=RRUFF
##SOURCE=Lawrence W. Snee
##DESCRIPTION=Green hexagonal prisms, variety emerald
##STATUS=The identification of this mineral has been confirmed by X-ray diffraction and chemical analysis
##URL=rruff.info/R060943
##MEASURED CHEMISTRY=(Be_2.96_Li_0.04_)_Σ=3_(Al_1.64_Mg_0.21_V^3+^_0.06_Fe^3+^_0.04_Sc^3+^_0.03_Cr^3+^_0.02_)_Σ=2_Si_6.00_O_18_·Na_0.25_
##PIN_ID=L01186
##ORIENTATION=Laser parallel to -c* (0 0 -1). Fiducial mark perpendicular to laser is parallel to a [1 0 0]
167.3340, 14533.00
168.5670, 14392.00
169.8000, 14317.00
171.0320, 14615.00
172.2650, 14466.00
173.4970, 14561.00
174.7290, 14387.00
175.9610, 14366.00
177.1930, 14274.00
178.4240, 14512.00
179.6550, 14430.00
180.8870, 14494.00
182.1170, 14608.00
183.3480, 14578.00
184.5790, 14673.00
185.8090, 14668.00
187.0390, 14704.00
188.2690, 14632.00
189.4990, 14712.79
190.7290, 14763.00
191.9580, 14829.00
193.1870, 14862.00
194.4160, 14909.00
195.6450, 14832.00
196.8740, 14709.00
198.1020, 14668.00
199.3310, 14789.00
200.5590, 14771.00
201.7870, 14807.00
203.0140, 14607.00
204.2420, 14273.00
205.4690, 14338.00
206.6960, 14179.00
207.9230, 14094.00
209.1500, 14048.00
210.3760, 14076.00
211.6030, 13996.00
212.8290, 14123.00
214.0550, 14001.00
215.2810, 13904.00
216.5060, 14243.00
217.7320, 14161.00
218.9570, 14219.00
220.1820, 14137.00
221.4070, 14196.00
222.6320, 14157.00
223.8560, 14155.00
225.0800, 14248.00
226.3040, 14292.00
227.5280, 14299.00
228.7520, 14359.00
229.9760, 14405.00
231.1990, 14261.00
232.4220, 14373.00
233.6450, 14373.00
234.8680, 14595.00
236.0910, 14723.00
237.3130, 14519.00
238.5350, 14695.00
239.7570, 14857.00
240.9790, 14855.00
242.2010, 14958.00
243.4220, 14949.00
244.6430, 15107.00
245.8640, 15336.00
247.0850, 15281.00
248.3060, 15362.00
249.5270, 15366.00
250.7470, 15143.00
251.9670, 15057.00
253.1870, 14688.00
254.4070, 14284.00
255.6260, 13782.00
256.8460, 13627.00
258.0650, 13908.00
259.2840, 14181.00
260.5030, 13945.00
261.7220, 13608.00
262.9400, 13453.00
264.1580, 13292.00
265.3760, 13440.00
266.5940, 13400.00
267.8120, 13368.00
269.0290, 13504.00
270.2470, 13547.00
271.4640, 13621.00
272.6810, 13596.00
273.8980, 13297.00
275.1140, 13443.00
276.3310, 13431.00
277.5470, 13492.00
278.7630, 13609.00
279.9790, 13521.00
281.1940, 13696.00
282.4100, 13732.00
283.6250, 13834.00
284.8400, 13817.00
286.0550, 14077.00
287.2700, 14158.00
288.4850, 14416.00
289.6990, 14573.00
290.9130, 14399.00
292.1270, 14318.00
293.3410, 14288.00
294.5540, 14262.00
295.7680, 14194.00
296.9810, 14082.00
298.1940, 14020.00
299.4070, 14173.00
300.6200, 13883.00
301.8320, 14134.00
303.0450, 14063.00
304.2570, 14143.00
305.4690, 14206.00
306.6800, 14267.00
307.8920, 14449.00
309.1030, 14520.00
310.3150, 14609.00
311.5260, 14776.00
312.7360, 14877.00
313.9470, 15222.00
315.1580, 15361.00
316.3680, 15762.44
317.5780, 16232.00
318.7880, 16628.00
319.9980, 17249.00
321.2070, 17781.00
322.4170, 18411.00
323.6260, 18860.00
324.8350, 18609.00
326.0430, 18169.00
327.2520, 17088.00
328.4610, 16092.00
329.6690, 15306.00
330.8770, 14787.00
332.0850, 14077.00
333.2920, 13862.00
334.5000, 13555.00
335.7070, 13649.00
336.9140, 13579.00
338.1210, 13228.00
339.3280, 13327.00
340.5350, 13300.00
341.7410, 13302.00
342.9470, 13296.00
344.1540, 13280.17
345.3590, 13327.00
346.5650, 13228.00
347.7710, 13182.00
348.9760, 13090.00
350.1810, 13176.00
351.3860, 13125.00
352.5910, 13269.00
353.7950, 13271.00
355.0000, 13189.00
356.2040, 13103.00
357.4080, 13195.00
358.6120, 13344.00
359.8150, 13267.00
361.0190, 13441.00
362.2220, 13414.00
363.4250, 13359.00
364.6280, 13309.00
365.8310, 13524.00
367.0340, 13508.00
368.2360, 13541.00
369.4380, 13544.00
370.6400, 13546.00
371.8420, 13708.00
373.0440, 13611.00
374.2450, 13668.00
375.4470, 13953.00
376.6480, 13987.00
377.8490, 14350.00
379.0490, 14573.00
380.2500, 14630.00
381.4500, 15037.00
382.6510, 15164.00
383.8510, 15411.00
385.0500, 15713.00
386.2500, 16023.00
387.4500, 16465.00
388.6490, 17225.00
389.8480, 17811.00
391.0470, 18686.00
392.2460, 19849.00
393.4440, 21004.00
394.6430, 22337.00
395.8410, 23475.00
397.0390, 24319.00
398.2370, 24645.00
399.4340, 23961.00
400.6320, 23208.00
401.8290, 21914.00
403.0260, 20533.00
404.2230, 19357.00
405.4200, 18303.00
406.6170, 17386.00
407.8130, 16804.00
409.0090, 16539.00
410.2050, 16308.00
411.4010, 15998.00
412.5970, 16033.00
413.7920, 15959.00
414.9880, 15803.00
416.1830, 15656.00
417.3780, 15718.00
418.5730, 15420.00
419.7670, 15347.00
420.9620, 15180.00
422.1560, 14968.00
423.3500, 14859.00
424.5440, 14796.00
425.7380, 14787.00
426.9310, 14721.67
428.1240, 14693.00
429.3180, 14693.00
430.5110, 14698.00
431.7030, 14755.00
432.8960, 14834.94
434.0890, 14941.67
435.2810, 15089.00
436.4730, 15276.00
437.6650, 15481.00
438.8570, 15775.00
440.0480, 16038.00
441.2390, 16315.00
442.4310, 16438.00
443.6220, 15962.00
444.8120, 15899.00
446.0030, 15355.00
447.1940, 15283.00
448.3840, 14831.00
449.5740, 14651.00
450.7640, 14628.00
451.9540, 14247.00
453.1430, 14141.00
454.3330, 14097.00
455.5220, 14138.00
456.7110, 14084.00
457.9000, 13855.00
459.0890, 13942.00
460.2770, 13920.00
461.4650, 13798.00
462.6540, 13999.00
463.8420, 14019.00
465.0290, 13784.00
466.2170, 13938.00
467.4050, 14055.00
468.5920, 13783.00
469.7790, 13866.00
470.9660, 13795.00
472.1530, 14014.00
473.3390, 13927.00
474.5250, 13895.00
475.7120, 13964.00
476.8980, 14065.00
478.0840, 13969.00
479.2690, 13967.00
480.4550, 14031.00
481.6400, 14005.00
482.8250, 14090.00
484.0100, 14022.00
485.1950, 14142.00
486.3800, 14084.96
487.5640, 14274.00
488.7480, 14036.00
489.9320, 14136.00
491.1160, 14177.00
492.3000, 14320.00
493.4840, 14278.00
494.6670, 14320.52
495.8500, 14202.00
497.0330, 14329.00
498.2160, 14344.00
499.3990, 14388.00
500.5810, 14303.00
501.7630, 14478.00
502.9460, 14749.00
504.1280, 14751.00
505.3090, 14624.00
506.4910, 14778.00
507.6720, 14765.00
508.8540, 14795.00
510.0350, 15014.00
511.2160, 15187.00
512.3960, 15516.00
513.5770, 15617.00
514.7570, 15837.00
515.9380, 16177.00
517.1180, 16471.00
518.2970, 16705.00
519.4770, 17225.00
520.6570, 17358.00
521.8360, 17744.00
523.0150, 17947.00
524.1940, 17716.00
525.3730, 17525.00
526.5510, 17516.00
527.7300, 16944.00
528.9080, 16441.00
530.0860, 16088.00
531.2640, 15736.00
532.4420, 15359.00
533.6200, 15165.00
534.7970, 14716.00
535.9740, 14675.00
537.1510, 14388.00
538.3280, 14495.00
539.5050, 14413.00
540.6810, 14251.00
541.8580, 14093.00
543.0340, 14056.00
544.2100, 13882.00
545.3860, 13897.00
546.5610, 13888.00
547.7370, 14087.00
548.9120, 13943.00
550.0870, 13962.00
551.2620, 13847.00
552.4370, 14080.00
553.6120, 13942.00
554.7860, 14032.00
555.9600, 14211.00
557.1340, 14052.00
558.3080, 14516.00
559.4820, 14534.00
560.6560, 14496.00
561.8290, 14622.00
563.0020, 14608.00
564.1750, 14621.81
565.3480, 14712.00
566.5210, 14616.00
567.6930, 14784.00
568.8660, 14772.00
570.0380, 14736.00
571.2100, 14922.00
572.3820, 14805.00
573.5530, 14899.00
574.7250, 14972.00
575.8960, 15243.00
577.0670, 15025.00
578.2380, 15012.00
579.4090, 14899.00
580.5800, 15247.00
581.7500, 15186.00
582.9210, 15239.00
584.0910, 15115.00
585.2610, 15003.00
586.4300, 15020.00
587.6000, 14943.00
588.7690, 14990.00
589.9390, 14962.00
591.1080, 14929.00
592.2770, 14880.00
593.4450, 14993.00
594.6140, 15103.00
595.7820, 14923.00
596.9500, 14911.00
598.1190, 14838.00
599.2860, 14873.00
600.4540, 14971.00
601.6220, 14966.00
602.7890, 14788.00
603.9560, 14907.00
605.1230, 14975.00
606.2900, 14714.00
607.4570, 14888.00
608.6230, 14844.00
609.7890, 15038.00
610.9560, 15045.00
612.1220, 15106.00
613.2870, 15075.00
614.4530, 15226.00
615.6180, 15409.00
616.7840, 15372.00
617.9490, 15376.00
619.1140, 15563.00
620.2790, 15398.00
621.4430, 15359.00
622.6080, 15197.00
623.7720, 15123.00
624.9360, 14863.00
626.1000, 14924.00
627.2640, 14913.00
628.4270, 14873.00
629.5910, 14956.00
630.7540, 14702.00
631.9170, 14922.00
633.0800, 14701.00
634.2430, 14817.00
635.4050, 15024.00
636.5680, 14959.00
637.7300, 14952.00
638.8920, 15088.00
640.0540, 14832.00
641.2150, 15033.00
642.3770, 15210.00
643.5380, 15060.00
644.7000, 15025.00
645.8610, 15005.00
647.0210, 15058.00
648.1820, 15093.00
649.3430, 15228.00
650.5030, 15205.00
651.6630, 15170.00
652.8230, 15293.00
653.9830, 15249.00
655.1430, 15307.00
656.3020, 15308.00
657.4620, 15506.00
658.6210, 15430.00
659.7800, 15779.00
660.9390, 15994.00
662.0970, 16098.00
663.2560, 16201.00
664.4140, 16440.00
665.5720, 16593.00
666.7300, 16981.00
667.8880, 17404.00
669.0460, 17761.00
670.2030, 18248.00
671.3600, 18969.00
672.5180, 19716.00
673.6740, 20707.00
674.8310, 22119.00
675.9880, 24241.00
677.1440, 26193.00
678.3010, 29232.00
679.4570, 32516.00
680.6130, 36630.00
681.7690, 41016.00
682.9240, 46650.00
684.0800, 51175.00
685.2350, 54717.00
686.3900, 55580.00
687.5450, 53076.00
688.7000, 48514.00
689.8540, 42954.00
691.0090, 37219.00
692.1630, 32313.00
693.3170, 28743.00
694.4710, 25806.00
695.6250, 23676.00
696.7780, 22299.00
697.9320, 21144.00
699.0850, 20295.00
700.2380, 19558.00
701.3910, 18977.00
702.5440, 18412.00
703.6970, 18061.00
704.8490, 17708.00
706.0010, 17439.00
707.1530, 17191.00
708.3050, 16990.34
709.4570, 16862.00
710.6090, 16708.00
711.7600, 16548.00
712.9110, 16471.00
714.0620, 16321.00
715.2130, 16050.00
716.3640, 15962.00
717.5150, 15865.00
718.6650, 15958.00
719.8150, 15970.00
720.9650, 15898.00
722.1150, 15806.00
723.2650, 15606.00
724.4150, 15689.00
725.5640, 15661.00
726.7130, 15578.00
727.8630, 15637.00
729.0110, 15529.00
730.1600, 15365.00
731.3090, 15333.00
732.4570, 15580.00
733.6060, 15572.00
734.7540, 15387.00
735.9020, 15615.00
737.0490, 15408.00
738.1970, 15528.00
739.3440, 15491.00
740.4920, 15456.00
741.6390, 15597.00
742.7860, 15453.00
743.9320, 15597.00
745.0790, 15660.00
746.2250, 15427.00
747.3720, 15636.00
748.5180, 15682.00
749.6640, 15564.00
750.8100, 15653.00
751.9550, 15693.00
753.1010, 15802.00
754.2460, 15714.00
755.3910, 15758.00
756.5360, 15837.00
757.6810, 16044.00
758.8250, 16011.00
759.9700, 16112.00
761.1140, 16326.00
762.2580, 16356.00
763.4020, 16361.00
764.5460, 16496.00
765.6900, 16377.00
766.8330, 16384.00
767.9760, 16339.00
769.1200, 16242.00
770.2620, 16375.00
771.4050, 16198.00
772.5480, 16196.00
773.6900, 16176.00
774.8330, 16067.00
775.9750, 16144.00
777.1170, 16084.00
778.2590, 15990.00
779.4000, 15903.00
780.5420, 15996.00
781.6830, 15917.00
782.8240, 15925.00
783.9650, 15849.00
785.1060, 15827.00
786.2470, 15815.00
787.3870, 15797.00
788.5280, 15740.00
789.6680, 15711.08
790.8080, 15686.00
791.9480, 15669.00
793.0870, 15599.00
794.2270, 15686.00
795.3660, 15714.00
796.5060, 15642.00
797.6450, 15774.00
798.7830, 15661.00
799.9220, 15739.27
801.0610, 15578.00
802.1990, 15800.00
803.3370, 15714.00
804.4750, 15654.00
805.6130, 15604.00
806.7510, 15730.00
807.8890, 15424.00
809.0260, 15697.00
810.1630, 15647.00
811.3000, 15553.00
812.4370, 15664.00
813.5740, 15814.00
814.7110, 15617.00
815.8470, 15596.00
816.9830, 15600.00
818.1190, 15443.00
819.2550, 15591.00
820.3910, 15479.00
821.5270, 15614.00
822.6620, 15697.00
823.7970, 15463.00
824.9330, 15579.00
826.0670, 15615.00
827.2020, 15661.00
828.3370, 15674.00
829.4710, 15624.00
830.6060, 15662.00
831.7400, 15618.00
832.8740, 15660.56
834.0080, 15659.24
835.1410, 15728.00
836.2750, 15679.00
837.4080, 15669.00
838.5410, 15682.00
839.6740, 15693.74
840.8070, 15787.00
841.9400, 15735.00
843.0730, 15786.00
844.2050, 15742.00
845.3370, 15793.00
846.4690, 15864.00
847.6010, 15979.00
848.7330, 15816.00
849.8640, 15825.00
850.9960, 15887.00
852.1270, 15768.00
853.2580, 15911.00
854.3890, 16017.00
855.5200, 15832.00
856.6500, 15934.00
857.7810, 15942.00
858.9110, 16100.00
860.0410, 15881.00
861.1710, 16015.00
862.3010, 15888.00
863.4310, 16122.00
864.5600, 15881.00
865.6900, 15835.00
866.8190, 15935.00
867.9480, 16026.00
869.0770, 15906.00
870.2050, 15973.00
871.3340, 15945.00
872.4620, 15910.75
873.5900, 16049.00
874.7180, 15896.00
875.8460, 15981.00
876.9740, 16036.00
878.1010, 16015.00
879.2290, 16231.00
880.3560, 16184.00
881.4830, 15964.00
882.6100, 15953.00
883.7370, 16065.00
884.8630, 16177.00
885.9900, 16162.00
887.1160, 16254.00
888.2420, 16240.00
889.3680, 16307.00
890.4940, 16352.00
891.6200, 16372.97
892.7450, 16402.29
893.8700, 16438.00
894.9960, 16423.00
896.1210, 16445.00
897.2460, 16453.00
898.3700, 16484.76
899.4950, 16519.00
900.6190, 16587.94
901.7430, 16693.00
902.8670, 16799.00
903.9910, 16972.00
905.1150, 17040.00
906.2390, 17052.00
907.3620, 17123.00
908.4850, 17410.00
909.6080, 17283.00
910.7310, 17190.00
911.8540, 17460.00
912.9770, 17335.00
914.0990, 17452.00
915.2210, 17448.00
916.3440, 17477.00
917.4660, 17522.62
918.5870, 17528.38
919.7090, 17529.00
920.8310, 17529.00
921.9520, 17442.00
923.0730, 17349.00
924.1940, 17385.00
925.3150, 17375.00
926.4360, 17203.00
927.5560, 17200.00
928.6770, 17226.00
929.7970, 17148.00
930.9170, 17069.00
932.0370, 16903.00
933.1570, 16971.00
934.2760, 16885.00
935.3960, 17021.00
936.5150, 16952.12
937.6340, 16726.00
938.7530, 16844.00
939.8720, 16937.00
940.9910, 16816.00
942.1090, 16564.00
943.2280, 16623.00
944.3460, 16587.00
945.4640, 16618.00
946.5820, 16625.00
947.6990, 16581.00
948.8170, 16694.00
949.9340, 16574.00
951.0520, 16497.00
952.1690, 16613.00
953.2860, 16539.00
954.4030, 16626.00
955.5190, 16735.00
956.6360, 16548.00
957.7520, 16614.00
958.8680, 16716.00
959.9840, 16625.00
961.1000, 16615.00
962.2160, 16613.00
963.3310, 16753.00
964.4470, 16735.00
965.5620, 16696.00
966.6770, 16846.00
967.7920, 16801.00
968.9060, 16627.00
970.0210, 16694.00
971.1360, 16869.00
972.2500, 16743.00
973.3640, 16877.00
974.4780, 16927.00
975.5920, 16942.00
976.7050, 17036.00
977.8190, 17014.00
978.9320, 17025.00
980.0450, 17293.00
981.1580, 17326.00
982.2710, 17481.00
983.3840, 17649.00
984.4970, 17579.00
985.6090, 17645.00
986.7210, 17906.00
987.8330, 18042.00
988.9450, 18328.00
990.0570, 18515.00
991.1690, 18689.00
992.2800, 19053.00
993.3920, 19275.00
994.5030, 19686.00
995.6140, 20029.00
996.7250, 20204.00
997.8350, 20650.00
998.9460, 20869.00
1000.056, 21072.00
1001.167, 21341.00
1002.277, 21674.00
1003.387, 21731.00
1004.496, 21715.00
1005.606, 21802.00
1006.715, 22064.00
1007.825, 22022.00
1008.934, 22146.00
1010.043, 22011.00
1011.152, 21826.00
1012.260, 21685.00
1013.369, 21542.00
1014.477, 21069.00
1015.586, 20731.00
1016.694, 20511.00
1017.802, 20455.00
1018.909, 20183.00
1020.017, 20074.00
1021.124, 19912.00
1022.232, 19827.00
1023.339, 19662.37
1024.446, 19213.00
1025.553, 19278.00
1026.659, 19185.00
1027.766, 18835.00
1028.872, 19023.00
1029.979, 18747.00
1031.085, 18783.00
1032.191, 18799.00
1033.296, 18662.00
1034.402, 18878.00
1035.507, 18883.00
1036.613, 18757.00
1037.718, 18859.00
1038.823, 18918.00
1039.928, 18862.00
1041.032, 19051.00
1042.137, 19128.00
1043.241, 19472.00
1044.346, 19513.00
1045.450, 19873.00
1046.554, 19996.00
1047.657, 20328.00
1048.761, 20715.00
1049.864, 21137.00
1050.968, 21568.00
1052.071, 22297.00
1053.174, 22756.00
1054.277, 23816.00
1055.379, 24636.00
1056.482, 25710.00
1057.584, 26857.00
1058.687, 28259.00
1059.789, 29850.00
1060.891, 31520.00
1061.992, 33330.00
1063.094, 34829.00
1064.196, 36211.00
1065.297, 37176.00
1066.398, 38020.00
1067.499, 37745.00
1068.600, 37726.00
1069.701, 37012.00
1070.801, 36275.00
1071.902, 35059.00
1073.002, 33736.00
1074.102, 32845.00
1075.202, 31325.00
1076.302, 29977.00
1077.402, 28886.00
1078.501, 27620.00
1079.600, 26821.00
1080.700, 25788.00
1081.799, 25232.00
1082.898, 24500.00
1083.996, 24011.00
1085.095, 23436.02
1086.193, 22753.00
1087.292, 22462.00
1088.390, 21930.00
1089.488, 21600.00
1090.586, 21354.00
1091.683, 21115.00
1092.781, 20764.00
1093.878, 20593.00
1094.975, 20271.00
1096.073, 20062.00
1097.169, 20219.00
1098.266, 19897.00
1099.363, 19813.00
1100.459, 19798.00
1101.556, 19631.00
1102.652, 19557.12
1103.748, 19416.00
1104.844, 19332.00
1105.940, 19217.00
1107.035, 19113.00
1108.131, 19055.00
1109.226, 19128.00
1110.321, 19011.00
1111.416, 18942.00
1112.511, 18920.00
1113.605, 18803.00
1114.700, 18763.00
1115.794, 18808.41
1116.889, 19037.00
1117.983, 18920.00
1119.077, 19021.00
1120.170, 19050.00
1121.264, 19079.00
1122.357, 19185.00
1123.451, 19172.00
1124.544, 19272.00
1125.637, 19489.00
1126.730, 19388.69
1127.823, 19183.00
1128.915, 19358.00
1130.008, 19333.00
1131.100, 19445.00
1132.192, 19259.00
1133.284, 19143.00
1134.376, 19086.00
1135.467, 19050.00
1136.559, 18828.00
1137.650, 18841.00
1138.742, 18691.00
1139.833, 18475.00
1140.924, 18421.00
1142.014, 18336.00
1143.105, 18326.00
1144.195, 18123.00
1145.286, 18007.00
1146.376, 17890.00
1147.466, 17761.00
1148.556, 17699.00
1149.646, 17731.00
1150.735, 17465.00
1151.825, 17422.00
1152.914, 17367.00
1154.003, 17198.00
1155.092, 17380.00
1156.181, 17184.00
1157.270, 17361.00
1158.358, 17249.00
1159.447, 17087.00
1160.535, 17157.00
1161.623, 17115.00
1162.711, 17259.00
1163.799, 17328.00
1164.886, 17102.00
1165.974, 16995.00
1167.061, 17157.00
1168.148, 17326.00
1169.235, 17134.00
1170.322, 17271.00
1171.409, 17333.00
1172.496, 17261.00
1173.582, 17356.00
1174.669, 17172.00
1175.755, 17273.00
1176.841, 17327.00
1177.927, 17333.00
1179.012, 17389.00
1180.098, 17410.00
1181.183, 17317.00
1182.269, 17454.00
1183.354, 17362.00
1184.439, 17292.00
1185.524, 17307.00
1186.608, 17275.39
1187.693, 17495.00
1188.777, 17333.00
1189.862, 17397.00
1190.946, 17502.00
1192.030, 17395.00
1193.113, 17308.00
1194.197, 17383.00
1195.281, 17496.00
1196.364, 17449.00
1197.447, 17494.00
1198.530, 17409.00
1199.613, 17485.00
1200.696, 17271.00
1201.779, 17405.00
1202.861, 17397.00
1203.944, 17460.00
1205.026, 17480.00
1206.108, 17504.35
1207.190, 17548.19
1208.271, 17587.00
1209.353, 17629.00
1210.435, 17732.00
1211.516, 17805.00
1212.597, 17951.00
1213.678, 17812.00
1214.759, 17905.00
1215.840, 17913.00
1216.920, 17764.00
1218.001, 18010.00
1219.081, 18168.00
1220.161, 17971.00
1221.241, 18069.00
1222.321, 18098.00
1223.401, 18034.00
1224.480, 18027.00
1225.560, 17962.00
1226.639, 18049.00
1227.718, 18039.00
1228.797, 17961.00
1229.876, 17846.00
1230.955, 17811.00
1232.033, 17749.00
1233.112, 17724.00
1234.190, 17665.09
1235.268, 17592.00
1236.346, 17539.00
1237.424, 17587.00
1238.501, 17493.00
1239.579, 17454.00
1240.656, 17481.00
1241.733, 17309.00
1242.811, 17194.00
1243.888, 17476.00
1244.964, 17223.00
1246.041, 17325.00
1247.117, 17289.00
1248.194, 17240.00
1249.270, 17389.00
1250.346, 17211.00
1251.422, 17337.00
1252.498, 17284.00
1253.573, 17233.00
1254.649, 17202.00
1255.724, 17240.00
1256.800, 17170.00
1257.875, 17178.00
1258.950, 17127.00
1260.024, 17111.35
1261.099, 17043.00
1262.173, 17085.00
1263.248, 17114.00
1264.322, 17110.00
1265.396, 17046.00
1266.470, 17147.00
1267.544, 17268.00
1268.617, 17132.00
1269.691, 17118.00
1270.764, 17301.00
1271.837, 17150.00
1272.910, 17265.00
1273.983, 17187.00
1275.056, 17211.00
1276.129, 17216.00
1277.201, 17230.00
1278.273, 17216.00
1279.346, 17114.00
1280.418, 17036.00
1281.489, 17090.00
1282.561, 17093.00
1283.633, 16981.00
1284.704, 17039.00
1285.776, 17131.00
1286.847, 16828.00
1287.918, 17095.00
1288.989, 16975.00
1290.059, 17041.00
1291.130, 16908.00
1292.200, 16931.00
1293.271, 16908.00
1294.341, 17055.00
1295.411, 16967.00
1296.481, 16936.00
1297.551, 17084.00
1298.620, 16966.00
1299.690, 17068.00
1300.759, 17002.00
1301.828, 16998.00
1302.897, 16899.00
1303.966, 17033.00
1305.035, 16954.00
1306.103, 17261.00
1307.172, 16984.00
1308.240, 17187.00
1309.308, 17142.00
1310.376, 17127.00
1311.444, 17211.00
1312.512, 17227.00
1313.580, 17115.00
1314.647, 17086.00
1315.714, 17226.00
1316.781, 17017.00
1317.848, 17324.00
1318.915, 17079.00
1319.982, 17043.00
1321.049, 16956.00
1322.115, 17227.00
1323.181, 17093.00
1324.248, 17096.00
1325.314, 17196.00
1326.380, 17123.00
1327.445, 17211.00
1328.511, 17305.00
1329.576, 17125.00
1330.642, 17029.00
1331.707, 17269.00
1332.772, 17327.00
1333.837, 17249.00
1334.902, 17217.00
