##NAMES=Beryl
##RRUFFID=R060944
##IDEAL CHEMISTRY=Be_3_Al_2_Si_6_O_18_
##LOCALITY=Habachtal, Salzburg, Austria
##OWNER=RRUFF
##SOURCE=Lawrence W. Snee
##DESCRIPTION=Green hexagonal prisms in a muscovite schist, variety emerald. Note that there are micro inclusions of actinolite. The Raman signal is a mixture of the two phases.
##STATUS=The identification of this mineral has been confirmed by X-ray diffraction and chemical analysis
##URL=rruff.info/R060944
##MEASURED CHEMISTRY=Be_3.00_(Al_1.59_Mg_0.33_Fe^3+^_0.04_Cr^3+^_0.04_)_Σ=2_Si_6.00_O_18_·Na_0.33_ ; bright inclusions are actinolite
##PIN_ID=L01278
##ORIENTATION=Laser parallel to a* (1 0 0). Fiducial mark perpendicular to laser is parallel to c [0 0 1]
130.4390, 18153.00
131.6680, 18073.00
132.8980, 18095.00
134.1270, 18045.00
135.3560, 18043.00
136.5850, 18289.00
137.8140, 18308.00
139.0430, 18291.00
140.2710, 18478.00
141.5000, 18289.00
142.7280, 18244.00
143.9560, 18471.00
145.1840, 18320.00
146.4120, 18258.00
147.6390, 18309.00
148.8670, 18484.00
150.0940, 18653.00
151.3210, 18858.00
152.5490, 18993.02
153.7750, 19191.55
155.0020, 19292.00
156.2290, 19525.00
157.4550, 19714.00
158.6810, 19808.00
159.9080, 19452.00
161.1340, 19347.00
162.3590, 19391.00
163.5850, 19172.00
164.8110, 19251.00
166.0360, 19133.00
167.2610, 19148.00
168.4860, 19152.00
169.7110, 19460.00
170.9360, 19560.00
172.1610, 19662.00
173.3850, 20221.00
174.6100, 20634.00
175.8340, 20844.00
177.0580, 21241.00
178.2820, 21185.00
179.5050, 21061.00
180.7290, 20736.00
181.9520, 20143.00
183.1760, 20020.00
184.3990, 19811.00
185.6220, 19522.00
186.8450, 19506.00
188.0670, 19410.00
189.2900, 19504.00
190.5120, 19302.00
191.7340, 19593.00
192.9560, 19557.00
194.1780, 19542.00
195.4000, 19511.00
196.6220, 19470.72
197.8430, 19372.00
199.0640, 19432.00
200.2860, 19386.00
201.5070, 19465.00
202.7270, 19439.00
203.9480, 19431.00
205.1690, 19464.00
206.3890, 19461.00
207.6090, 19446.00
208.8290, 19577.00
210.0490, 19632.00
211.2690, 19760.00
212.4890, 20196.00
213.7080, 20401.00
214.9280, 20461.00
216.1470, 20961.00
217.3660, 21310.00
218.5850, 21706.00
219.8030, 22019.00
221.0220, 22388.00
222.2400, 22134.00
223.4590, 22005.00
224.6770, 21951.00
225.8950, 21446.00
227.1120, 21173.00
228.3300, 21006.00
229.5480, 21033.00
230.7650, 21077.00
231.9820, 20798.00
233.1990, 20488.00
234.4160, 20448.00
235.6330, 20052.00
236.8490, 20164.00
238.0660, 19919.00
239.2820, 19925.00
240.4980, 19930.00
241.7140, 19869.00
242.9300, 19922.00
244.1460, 20139.00
245.3610, 20087.00
246.5770, 20044.00
247.7920, 20177.00
249.0070, 20034.00
250.2220, 19935.00
251.4370, 19764.00
252.6510, 19618.00
253.8660, 19489.00
255.0800, 19494.00
256.2940, 19629.00
257.5080, 19137.00
258.7220, 19641.00
259.9360, 19767.00
261.1490, 19370.00
262.3630, 19198.00
263.5760, 19243.00
264.7890, 19304.00
266.0020, 19388.00
267.2150, 19441.00
268.4270, 19405.00
269.6400, 19395.04
270.8520, 19385.00
272.0640, 19275.00
273.2760, 19190.00
274.4880, 19133.00
275.7000, 19162.00
276.9120, 18977.00
278.1230, 19243.00
279.3340, 19308.00
280.5450, 19250.00
281.7560, 19347.00
282.9670, 19342.00
284.1780, 19495.00
285.3880, 19465.00
286.5980, 19453.00
287.8090, 19758.00
289.0190, 19615.00
290.2290, 19750.00
291.4380, 19848.00
292.6480, 19708.00
293.8570, 19481.00
295.0670, 19750.00
296.2760, 19657.00
297.4850, 19784.00
298.6930, 19642.00
299.9020, 19730.00
301.1110, 19760.00
302.3190, 19639.00
303.5270, 19979.00
304.7350, 19845.00
305.9430, 19826.00
307.1510, 20205.00
308.3580, 20086.00
309.5660, 20196.00
310.7730, 20238.00
311.9800, 20605.00
313.1870, 20905.00
314.3940, 21239.00
315.6010, 21441.00
316.8070, 22034.00
318.0130, 22623.00
319.2200, 23435.00
320.4260, 24328.00
321.6310, 25134.00
322.8370, 25803.00
324.0430, 26015.00
325.2480, 25608.00
326.4540, 24431.00
327.6590, 23297.00
328.8640, 22169.00
330.0680, 21473.00
331.2730, 20923.00
332.4780, 20536.00
333.6820, 20240.00
334.8860, 19944.00
336.0900, 19949.00
337.2940, 19851.00
338.4980, 19851.00
339.7010, 19760.00
340.9050, 19777.00
342.1080, 19757.00
343.3110, 20060.00
344.5140, 19815.00
345.7170, 19808.00
346.9200, 20045.00
348.1220, 19901.00
349.3240, 19838.00
350.5270, 19887.00
351.7290, 19860.00
352.9310, 19950.00
354.1320, 19924.00
355.3340, 19925.00
356.5350, 20029.00
357.7370, 19946.00
358.9380, 20016.00
360.1390, 20062.48
361.3400, 20001.00
362.5400, 20149.00
363.7410, 20328.00
364.9410, 20322.00
366.1410, 20420.00
367.3410, 20484.00
368.5410, 20643.00
369.7410, 20591.00
370.9400, 20649.00
372.1400, 20432.00
373.3390, 20700.00
374.5380, 20470.00
375.7370, 20447.00
376.9360, 20605.00
378.1350, 20865.00
379.3330, 20740.00
380.5310, 20877.00
381.7300, 21019.00
382.9280, 21368.00
384.1260, 21717.00
385.3230, 21923.00
386.5210, 22662.00
387.7180, 23004.00
388.9160, 23701.00
390.1130, 24954.00
391.3100, 25776.00
392.5060, 26661.00
393.7030, 27742.00
394.9000, 28899.00
396.0960, 30132.00
397.2920, 30498.00
398.4880, 30108.00
399.6840, 29100.00
400.8800, 27985.00
402.0750, 26460.00
403.2710, 25059.00
404.4660, 24195.00
405.6610, 23270.00
406.8560, 22764.00
408.0510, 22150.00
409.2450, 21975.00
410.4400, 21772.00
411.6340, 21612.00
412.8280, 21707.00
414.0220, 21573.00
415.2160, 21324.00
416.4100, 21099.00
417.6030, 20961.00
418.7970, 20820.00
419.9900, 20789.00
421.1830, 20598.00
422.3760, 20574.00
423.5690, 20350.00
424.7610, 20474.00
425.9540, 20623.00
427.1460, 20538.00
428.3380, 20288.00
429.5300, 20652.00
430.7220, 20446.00
431.9140, 20513.00
433.1050, 20731.00
434.2970, 20711.00
435.4880, 20665.00
436.6790, 20797.00
437.8700, 20741.00
439.0610, 20816.00
440.2510, 20917.00
441.4420, 20713.00
442.6320, 20526.00
443.8220, 20480.00
445.0120, 20358.00
446.2020, 20243.00
447.3910, 20117.00
448.5810, 19957.00
449.7700, 20050.00
450.9600, 19842.00
452.1490, 19926.00
453.3370, 19978.00
454.5260, 19936.00
455.7150, 19833.00
456.9030, 19846.00
458.0910, 19753.00
459.2800, 19848.00
460.4670, 19901.00
461.6550, 20009.00
462.8430, 20012.70
464.0300, 20067.15
465.2180, 19952.00
466.4050, 20106.00
467.5920, 19942.00
468.7790, 19911.00
469.9650, 19990.00
471.1520, 19829.00
472.3380, 19649.00
473.5250, 19977.00
474.7110, 19722.00
475.8970, 20186.00
477.0820, 20170.00
478.2680, 19928.00
479.4540, 20224.00
480.6390, 20107.00
481.8240, 20226.00
483.0090, 20277.00
484.1940, 20196.00
485.3780, 20162.00
486.5630, 20280.00
487.7470, 20156.00
488.9320, 20163.00
490.1160, 20263.00
491.3000, 20218.00
492.4830, 20226.00
493.6670, 20281.00
494.8500, 20225.00
496.0340, 20372.00
497.2170, 20383.00
498.4000, 20406.00
499.5820, 20537.00
500.7650, 20458.00
501.9480, 20514.00
503.1300, 20743.00
504.3120, 20668.00
505.4940, 20646.00
506.6760, 20984.00
507.8580, 20883.00
509.0390, 21002.00
510.2210, 21141.00
511.4020, 21311.00
512.5830, 21560.00
513.7640, 21796.00
514.9450, 22144.00
516.1250, 21989.00
517.3060, 22109.00
518.4860, 22374.00
519.6660, 22718.00
520.8460, 22334.00
522.0260, 22645.00
523.2060, 22350.00
524.3850, 22374.00
525.5650, 22051.00
526.7440, 21748.00
527.9230, 21861.00
529.1020, 21351.00
530.2810, 21075.00
531.4590, 21161.00
532.6380, 20889.00
533.8160, 20788.00
534.9940, 20668.00
536.1720, 20553.00
537.3500, 20507.00
538.5270, 20408.52
539.7050, 20483.00
540.8820, 20278.00
542.0590, 20392.00
543.2360, 20359.00
544.4130, 20185.00
545.5900, 20327.00
546.7660, 20248.00
547.9430, 20325.00
549.1190, 20339.00
550.2950, 20219.00
551.4710, 20326.00
552.6470, 20478.00
553.8220, 20307.00
554.9980, 20434.00
556.1730, 20477.00
557.3480, 20615.00
558.5230, 20797.00
559.6980, 20618.00
560.8730, 20537.00
562.0470, 20631.00
563.2220, 20924.00
564.3960, 20718.00
565.5700, 20782.00
566.7440, 21017.00
567.9170, 20781.00
569.0910, 20880.00
570.2640, 20896.00
571.4380, 20997.00
572.6110, 20985.29
573.7840, 20884.00
574.9570, 20926.00
576.1290, 20911.00
577.3020, 20803.00
578.4740, 21039.00
579.6460, 20908.00
580.8180, 20991.00
581.9900, 20889.00
583.1620, 20826.00
584.3330, 20721.00
585.5040, 20737.62
586.6760, 20741.00
587.8470, 20800.00
589.0180, 20726.00
590.1880, 20779.00
591.3590, 20606.00
592.5290, 20859.00
593.7000, 20523.00
594.8700, 20838.00
596.0400, 20699.00
597.2090, 20740.00
598.3790, 20793.00
599.5490, 20865.00
600.7180, 20738.00
601.8870, 20830.00
603.0560, 20803.00
604.2250, 20935.00
605.3940, 20893.00
606.5620, 20986.00
607.7300, 21059.00
608.8990, 21217.00
610.0670, 21395.00
611.2350, 21639.00
612.4020, 21796.00
613.5700, 21803.00
614.7370, 21923.93
615.9050, 21904.00
617.0720, 21881.00
618.2390, 21757.00
619.4060, 21494.00
620.5720, 21217.00
621.7390, 21289.00
622.9050, 20928.00
624.0710, 20897.00
625.2370, 21059.00
626.4030, 20668.00
627.5690, 20825.00
628.7340, 20982.00
629.9000, 20892.00
631.0650, 21033.00
632.2300, 20851.00
633.3950, 20959.00
634.5600, 20961.00
635.7240, 21191.00
636.8890, 21032.00
638.0530, 21250.00
639.2170, 21210.00
640.3810, 21354.00
641.5450, 21186.00
642.7080, 21476.00
643.8720, 21671.00
645.0350, 21658.00
646.1980, 21892.00
647.3610, 21693.00
648.5240, 21604.00
649.6870, 22062.00
650.8490, 22245.00
652.0120, 22070.00
653.1740, 22377.00
654.3360, 22320.00
655.4980, 22714.00
656.6600, 22905.00
657.8210, 23077.00
658.9830, 23348.00
660.1440, 23806.00
661.3050, 24253.00
662.4660, 25135.00
663.6270, 25634.00
664.7870, 26602.00
665.9480, 27760.00
667.1080, 29074.00
668.2680, 30481.00
669.4280, 32017.00
670.5880, 33263.00
671.7480, 34371.00
672.9070, 34708.00
674.0670, 34681.00
675.2260, 34177.00
676.3850, 34589.00
677.5440, 35140.00
678.7030, 36540.00
679.8610, 38923.00
681.0200, 41824.00
682.1780, 45520.00
683.3360, 50202.00
684.4940, 54663.00
685.6520, 58045.00
686.8090, 58624.00
687.9670, 56578.00
689.1240, 51941.00
690.2810, 46760.00
691.4380, 41864.00
692.5950, 37435.00
693.7520, 33862.00
694.9080, 31242.00
696.0650, 29301.00
697.2210, 27873.00
698.3770, 26622.00
699.5330, 25635.00
700.6880, 25160.00
701.8440, 24713.00
702.9990, 24360.00
704.1550, 23692.00
705.3100, 23562.00
706.4650, 23282.00
707.6190, 22760.00
708.7740, 22722.00
709.9290, 22472.00
711.0830, 22454.00
712.2370, 22365.00
713.3910, 22157.00
714.5450, 21996.00
715.6980, 21913.49
716.8520, 21864.00
718.0050, 21750.00
719.1580, 21675.00
720.3110, 21625.00
721.4640, 21764.00
722.6170, 21801.00
723.7700, 21647.00
724.9220, 21574.00
726.0740, 21412.00
727.2260, 21440.00
728.3780, 21443.00
729.5300, 21477.00
730.6810, 21439.00
731.8330, 21517.00
732.9840, 21512.83
734.1350, 21487.37
735.2860, 21553.00
736.4370, 21495.00
737.5880, 21513.00
738.7380, 21667.00
739.8880, 21492.00
741.0390, 21579.00
742.1890, 21610.00
743.3380, 21487.00
744.4880, 21714.00
745.6380, 21605.00
746.7870, 21651.00
747.9360, 21576.00
749.0850, 21400.00
750.2340, 21479.00
751.3830, 21593.00
752.5310, 21445.00
753.6800, 21493.00
754.8280, 21521.00
755.9760, 21403.00
757.1240, 21416.00
758.2720, 21486.00
759.4190, 21586.00
760.5670, 21609.00
761.7140, 21583.00
762.8610, 21475.00
764.0080, 21592.00
765.1550, 21582.00
766.3020, 21524.00
767.4480, 21638.00
768.5950, 21340.00
769.7410, 21373.00
770.8870, 21487.00
772.0330, 21660.00
773.1780, 21447.00
774.3240, 21612.00
775.4690, 21597.00
776.6140, 21545.00
777.7590, 21645.00
778.9040, 21526.00
780.0490, 21409.00
781.1940, 21541.00
782.3380, 21569.00
783.4820, 21438.00
784.6260, 21468.00
785.7700, 21522.00
786.9140, 21323.00
788.0580, 21388.00
789.2010, 21334.00
790.3450, 21355.00
791.4880, 21371.00
792.6310, 21407.00
793.7730, 21422.39
794.9160, 21439.77
796.0590, 21493.00
797.2010, 21463.00
798.3430, 21555.00
799.4850, 21562.71
800.6270, 21450.00
801.7690, 21505.00
802.9100, 21483.00
804.0520, 21374.00
805.1930, 21424.17
806.3340, 21593.00
807.4750, 21434.00
808.6160, 21498.00
809.7560, 21523.00
810.8970, 21517.00
812.0370, 21575.00
813.1770, 21489.00
814.3170, 21473.00
815.4570, 21356.00
816.5960, 21365.00
817.7360, 21519.00
818.8750, 21442.00
820.0140, 21311.00
821.1530, 21220.00
822.2920, 21404.00
823.4310, 21501.00
824.5690, 21502.00
825.7070, 21601.00
826.8460, 21670.00
827.9840, 21347.00
829.1220, 21348.00
830.2590, 21551.00
831.3970, 21559.00
832.5340, 21812.00
833.6710, 21428.00
834.8080, 21777.00
835.9450, 21732.00
837.0820, 21391.00
838.2190, 21628.00
839.3550, 21639.00
840.4910, 21589.00
841.6270, 21751.00
842.7630, 21588.00
843.8990, 21639.00
845.0350, 21760.00
846.1700, 21644.00
847.3060, 21705.00
848.4410, 21572.00
849.5760, 21738.00
850.7100, 21684.00
851.8450, 21488.00
852.9800, 21718.00
854.1140, 21652.00
855.2480, 21581.00
856.3820, 21915.00
857.5160, 21796.00
858.6500, 21816.00
859.7830, 21837.00
860.9170, 21853.00
862.0500, 21771.00
863.1830, 21707.00
864.3160, 21855.00
865.4480, 21544.00
866.5810, 21690.00
867.7130, 21595.00
868.8460, 21828.00
869.9780, 21717.00
871.1100, 21873.00
872.2410, 21917.00
873.3730, 21910.00
874.5050, 21801.00
875.6360, 21868.00
876.7670, 21691.00
877.8980, 21778.00
879.0290, 21849.00
880.1590, 21863.00
881.2900, 21824.00
882.4200, 21875.00
883.5500, 21776.00
884.6800, 21896.00
885.8100, 22007.00
886.9400, 21892.00
888.0690, 21851.00
889.1990, 21813.00
890.3280, 22081.00
891.4570, 22046.00
892.5860, 22086.00
893.7140, 21999.00
894.8430, 22114.00
895.9710, 22145.00
897.1000, 21831.00
898.2280, 22261.00
899.3560, 22020.00
900.4830, 21996.00
901.6110, 22316.00
902.7380, 22490.00
903.8660, 22298.00
904.9930, 22397.00
906.1200, 22396.00
907.2460, 22486.00
908.3730, 22304.00
909.5000, 22541.00
910.6260, 22348.00
911.7520, 22646.00
912.8780, 22494.00
914.0040, 22623.00
915.1290, 22743.00
916.2550, 22753.00
917.3800, 22675.00
918.5050, 22695.00
919.6300, 22880.00
920.7550, 23021.00
921.8800, 23019.00
923.0040, 23142.00
924.1290, 23098.00
925.2530, 23113.00
926.3770, 23386.00
927.5010, 23480.00
928.6250, 23387.00
929.7480, 23101.00
930.8720, 23331.00
931.9950, 23287.00
933.1180, 22875.00
934.2410, 23040.00
935.3640, 23008.00
936.4860, 22860.00
937.6090, 22794.00
938.7310, 22670.00
939.8530, 22623.29
940.9750, 22678.00
942.0970, 22532.00
943.2180, 22668.00
944.3400, 22606.00
945.4610, 22844.00
946.5820, 22512.00
947.7030, 22801.00
948.8240, 22662.00
949.9450, 22758.00
951.0650, 22497.00
952.1860, 22447.00
953.3060, 22503.00
954.4260, 22471.00
955.5460, 22638.00
956.6650, 22480.00
957.7850, 22579.00
958.9040, 22579.00
960.0230, 22560.00
961.1420, 22568.52
962.2610, 22564.14
963.3800, 22559.60
964.4990, 22568.00
965.6170, 22564.00
966.7350, 22568.00
967.8530, 22587.75
968.9710, 22566.00
970.0890, 22609.00
971.2070, 22719.00
972.3240, 22755.00
973.4410, 22739.22
974.5580, 22765.00
975.6750, 22684.00
976.7920, 22653.00
977.9090, 22665.00
979.0250, 22811.00
980.1410, 22930.00
981.2580, 22756.00
982.3740, 22695.00
983.4890, 22983.00
984.6050, 22712.00
985.7200, 23132.00
986.8360, 23089.00
987.9510, 23424.00
989.0660, 23639.00
990.1810, 23415.00
991.2950, 23764.00
992.4100, 23963.00
993.5240, 24025.00
994.6390, 24247.00
995.7530, 24410.00
996.8660, 24584.00
997.9800, 24592.00
999.0940, 25028.00
1000.207, 24965.00
1001.320, 25255.00
1002.433, 25323.00
1003.546, 25546.00
1004.659, 25591.00
1005.772, 25433.00
1006.884, 25556.00
1007.996, 25669.00
1009.108, 25708.00
1010.220, 25857.00
1011.332, 25845.91
1012.444, 26045.00
1013.555, 25815.00
1014.666, 25917.00
1015.777, 25850.00
1016.888, 26006.00
1017.999, 25841.00
1019.110, 25835.00
1020.220, 25776.00
1021.331, 25696.00
1022.441, 25955.00
1023.551, 26462.00
1024.661, 26329.00
1025.770, 26413.48
1026.880, 26232.00
1027.989, 26197.00
1029.098, 26136.70
1030.207, 25777.00
1031.316, 25894.00
1032.425, 25862.00
1033.533, 25565.00
1034.642, 25657.00
1035.750, 25645.00
1036.858, 25646.00
1037.966, 25798.00
1039.073, 25798.00
1040.181, 25930.00
1041.288, 26302.00
1042.396, 26559.00
1043.503, 26654.00
1044.610, 26883.00
1045.716, 27533.00
1046.823, 27902.00
1047.929, 28487.00
1049.036, 28961.00
1050.142, 29684.00
1051.248, 30640.00
1052.353, 31633.00
1053.459, 32451.00
1054.564, 33565.00
1055.670, 34740.00
1056.775, 36020.00
1057.880, 37094.00
1058.985, 38909.00
1060.089, 39974.00
1061.194, 41707.00
1062.298, 43308.00
1063.402, 44834.00
1064.506, 46332.00
1065.610, 47332.00
1066.713, 48318.00
1067.817, 48432.00
1068.920, 48722.00
1070.023, 47972.00
1071.126, 47435.00
1072.229, 46793.00
1073.332, 45300.00
1074.435, 44014.00
1075.537, 42705.00
1076.639, 40816.00
1077.741, 39428.00
1078.843, 37986.00
1079.945, 36450.00
1081.046, 35230.00
1082.148, 34432.00
1083.249, 33514.00
1084.350, 32796.00
1085.451, 32018.00
1086.551, 31255.00
1087.652, 30771.00
1088.752, 30359.00
1089.853, 30068.00
1090.953, 29628.00
1092.053, 29196.00
1093.152, 29009.00
1094.252, 28738.00
1095.351, 28203.00
1096.451, 28245.00
1097.550, 28055.00
1098.649, 27879.00
1099.748, 27498.00
1100.846, 27261.00
1101.945, 27472.00
1103.043, 26948.00
1104.141, 26904.00
1105.239, 26984.00
1106.337, 26647.00
1107.434, 26814.00
1108.532, 26563.00
1109.629, 26534.00
1110.726, 26520.00
1111.823, 26559.00
1112.920, 26374.00
1114.017, 26481.00
1115.113, 26372.00
1116.210, 26489.00
1117.306, 26508.00
1118.402, 26441.00
1119.498, 26575.00
1120.593, 26681.00
1121.689, 26817.00
1122.784, 26679.00
1123.879, 26993.00
1124.974, 26949.00
1126.069, 26941.00
1127.164, 26730.00
1128.259, 26918.00
1129.353, 26554.00
1130.447, 26384.00
1131.541, 26468.00
1132.635, 26337.00
1133.729, 26175.00
1134.822, 26079.00
1135.916, 26054.00
1137.009, 25987.00
1138.102, 25857.00
1139.195, 25613.00
1140.288, 25347.00
1141.380, 25418.00
1142.473, 25020.00
1143.565, 25020.00
1144.657, 24877.00
1145.749, 24848.00
1146.841, 24735.00
1147.932, 24731.00
1149.024, 24440.00
1150.115, 24461.00
1151.206, 24135.00
1152.297, 24378.00
1153.388, 24161.00
1154.479, 24090.00
1155.569, 24312.00
1156.659, 24289.00
1157.750, 23921.00
1158.839, 23963.00
1159.929, 23962.00
1161.019, 23900.00
1162.108, 23772.00
1163.198, 23675.00
1164.287, 23664.60
1165.376, 23690.00
1166.465, 23676.00
1167.553, 23623.00
1168.642, 23675.00
1169.730, 23587.00
1170.818, 23625.26
1171.906, 23717.00
1172.994, 23647.00
1174.082, 23707.95
1175.170, 23687.48
1176.257, 23724.00
1177.344, 23668.00
1178.431, 23640.00
1179.518, 23672.00
1180.605, 23619.00
1181.691, 23583.00
1182.778, 23643.00
1183.864, 23426.00
1184.950, 23778.00
1186.036, 23598.00
1187.122, 23807.00
1188.207, 23775.00
1189.292, 23592.00
1190.378, 23765.00
1191.463, 23623.00
1192.548, 23662.00
1193.632, 23552.00
1194.717, 23635.00
1195.801, 23536.00
1196.886, 23545.00
1197.970, 23577.00
1199.054, 23638.00
1200.137, 23502.00
1201.221, 23626.00
1202.305, 23824.00
1203.388, 23396.00
1204.471, 23803.00
1205.554, 23597.00
1206.637, 23568.00
1207.719, 23550.00
1208.802, 23785.00
1209.884, 23874.00
1210.966, 23760.00
1212.048, 23878.00
1213.130, 23740.00
1214.212, 23845.00
1215.293, 23674.00
1216.374, 23901.00
1217.456, 23714.00
1218.536, 23723.00
1219.617, 23761.00
1220.698, 23749.00
1221.778, 23852.00
1222.859, 23817.00
1223.939, 23882.00
1225.019, 23653.00
1226.099, 23922.00
1227.178, 23636.00
1228.258, 23542.00
1229.337, 23881.00
1230.417, 23725.00
1231.496, 23766.00
1232.574, 23592.00
1233.653, 23624.00
1234.732, 23688.00
1235.810, 23673.00
1236.888, 23556.00
1237.966, 23572.91
1239.044, 23625.00
1240.122, 23435.00
1241.199, 23636.00
1242.277, 23477.00
1243.354, 23440.00
1244.431, 23636.00
1245.508, 23564.00
1246.585, 23465.00
1247.661, 23488.00
1248.738, 23464.00
1249.814, 23507.00
1250.890, 23599.00
1251.966, 23542.00
1253.042, 23586.84
1254.117, 23489.00
1255.193, 23565.00
1256.268, 23506.00
1257.343, 23443.00
1258.418, 23489.00
1259.493, 23546.00
1260.567, 23597.00
1261.642, 23583.00
1262.716, 23405.00
1263.790, 23544.00
1264.864, 23370.00
1265.938, 23436.00
1267.011, 23671.00
1268.085, 23652.00
1269.158, 23638.00
1270.231, 23527.00
1271.304, 23570.00
1272.377, 23508.00
1273.450, 23509.00
1274.522, 23535.98
1275.594, 23590.00
1276.666, 23606.00
1277.738, 23654.00
1278.810, 23727.00
1279.882, 23551.00
1280.953, 23382.00
1282.025, 23478.00
1283.096, 23501.00
1284.167, 23711.00
1285.238, 23554.00
1286.308, 23693.00
1287.379, 23639.00
1288.449, 23527.00
1289.519, 23553.00
1290.589, 23538.19
1291.659, 23589.00
1292.729, 23595.00
1293.798, 23614.00
1294.868, 23638.00
1295.937, 23578.00
