##NAMES=Beryl
##RRUFFID=R050305
##IDEAL CHEMISTRY=Be_3_Al_2_Si_6_O_18_
##LOCALITY=Conselheiro Pena, Minas Gerais, Brazil
##OWNER=RRUFF
##SOURCE=Eugene Schlepp
##DESCRIPTION=Light blue fragment, variety aquamarine
##STATUS=The identification of this mineral has been confirmed by X-ray diffraction and chemical analysis
##URL=rruff.info/R050305
##MEASURED CHEMISTRY=(Be_0.91_Li_0.09_)_3_(Al_0.99_Fe^3+^_0.01_)_2_Si_6.00_O_18_Î‡Na_0.27_
##PIN_ID=L01620
##ORIENTATION=Laser parallel to a* (1 0 0). Fiducial mark perpendicular to laser is parallel to -c [0 0 -1]
100.8830, 12326.00
102.1160, 12255.00
103.3490, 12459.00
104.5820, 12575.00
105.8150, 13191.00
107.0470, 13704.00
108.2800, 14394.00
109.5120, 15231.00
110.7440, 15044.00
111.9760, 14426.00
113.2080, 14581.00
114.4400, 14971.00
115.6710, 15407.00
116.9030, 15669.00
118.1340, 15749.00
119.3650, 15640.00
120.5960, 15535.00
121.8270, 15711.00
123.0580, 15926.00
124.2880, 15769.00
125.5190, 15927.00
126.7490, 15873.00
127.9790, 15832.00
129.2090, 15942.00
130.4390, 15889.00
131.6680, 15929.95
132.8980, 15914.00
134.1270, 15940.00
135.3560, 15923.00
136.5850, 15851.00
137.8140, 15837.00
139.0430, 16189.00
140.2710, 15993.00
141.5000, 15883.00
142.7280, 15661.00
143.9560, 15520.00
145.1840, 15555.00
146.4120, 15438.00
147.6390, 15308.00
148.8670, 15353.00
150.0940, 15344.00
151.3210, 15295.00
152.5490, 15363.00
153.7750, 15374.00
155.0020, 15490.00
156.2290, 15347.00
157.4550, 15357.00
158.6810, 15307.00
159.9080, 15416.00
161.1340, 15450.00
162.3590, 15439.00
163.5850, 15529.00
164.8110, 15784.00
166.0360, 15786.00
167.2610, 15796.00
168.4860, 15912.00
169.7110, 15748.00
170.9360, 15779.00
172.1610, 15762.00
173.3850, 15805.00
174.6100, 15646.00
175.8340, 15614.00
177.0580, 15664.00
178.2820, 15538.00
179.5050, 15671.00
180.7290, 15430.00
181.9520, 15624.00
183.1760, 15422.00
184.3990, 15417.00
185.6220, 15502.00
186.8450, 15326.00
188.0670, 15375.00
189.2900, 15383.00
190.5120, 15529.00
191.7340, 15401.00
192.9560, 15393.00
194.1780, 15387.00
195.4000, 15259.00
196.6220, 15259.00
197.8430, 15358.00
199.0640, 15263.00
200.2860, 15485.00
201.5070, 15572.00
202.7270, 15493.00
203.9480, 15158.00
205.1690, 14890.00
206.3890, 14551.00
207.6090, 14545.00
208.8290, 14407.00
210.0490, 14526.00
211.2690, 14445.00
212.4890, 14442.00
213.7080, 14570.00
214.9280, 14603.00
216.1470, 14520.00
217.3660, 14591.00
218.5850, 14677.00
219.8030, 14539.00
221.0220, 14588.00
222.2400, 14744.00
223.4590, 14711.00
224.6770, 15010.00
225.8950, 14868.00
227.1120, 14909.00
228.3300, 14750.00
229.5480, 14746.00
230.7650, 14987.00
231.9820, 15012.00
233.1990, 15096.00
234.4160, 15118.00
235.6330, 15107.00
236.8490, 15095.81
238.0660, 15068.53
239.2820, 15050.82
240.4980, 14997.00
241.7140, 15003.00
242.9300, 14991.00
244.1460, 14970.87
245.3610, 15011.00
246.5770, 14923.00
247.7920, 14873.00
249.0070, 14833.00
250.2220, 14907.00
251.4370, 14838.00
252.6510, 14874.00
253.8660, 14743.00
255.0800, 14969.00
256.2940, 14868.00
257.5080, 14911.00
258.7220, 15039.00
259.9360, 15040.37
261.1490, 15055.79
262.3630, 15149.00
263.5760, 15019.00
264.7890, 14965.00
266.0020, 14939.00
267.2150, 15060.00
268.4270, 15020.00
269.6400, 15183.00
270.8520, 15181.00
272.0640, 15070.00
273.2760, 15052.00
274.4880, 15028.00
275.7000, 15121.00
276.9120, 15141.96
278.1230, 15107.00
279.3340, 15255.00
280.5450, 15316.00
281.7560, 15323.00
282.9670, 15518.00
284.1780, 15574.00
285.3880, 15584.00
286.5980, 15598.00
287.8090, 15838.00
289.0190, 15826.00
290.2290, 15968.00
291.4380, 16175.00
292.6480, 16237.00
293.8570, 16295.00
295.0670, 16101.00
296.2760, 16155.00
297.4850, 16052.00
298.6930, 15941.00
299.9020, 15969.00
301.1110, 15756.00
302.3190, 15603.00
303.5270, 15685.00
304.7350, 15750.00
305.9430, 15616.00
307.1510, 15620.00
308.3580, 15595.00
309.5660, 15738.00
310.7730, 15801.00
311.9800, 16007.00
313.1870, 16111.00
314.3940, 16080.00
315.6010, 16359.00
316.8070, 16543.00
318.0130, 16575.00
319.2200, 16981.00
320.4260, 16938.00
321.6310, 17166.00
322.8370, 17217.00
324.0430, 17166.00
325.2480, 17135.00
326.4540, 16959.00
327.6590, 16573.00
328.8640, 16481.00
330.0680, 16119.00
331.2730, 15883.00
332.4780, 15882.00
333.6820, 15717.00
334.8860, 15527.00
336.0900, 15542.00
337.2940, 15533.00
338.4980, 15679.00
339.7010, 15443.00
340.9050, 15568.00
342.1080, 15788.00
343.3110, 15478.00
344.5140, 15617.00
345.7170, 15662.00
346.9200, 15605.00
348.1220, 15858.00
349.3240, 15859.00
350.5270, 15694.00
351.7290, 15613.00
352.9310, 15765.00
354.1320, 15863.00
355.3340, 15903.00
356.5350, 15962.19
357.7370, 15999.97
358.9380, 15971.00
360.1390, 16024.00
361.3400, 15987.00
362.5400, 15937.00
363.7410, 15971.00
364.9410, 16145.00
366.1410, 16060.00
367.3410, 16150.00
368.5410, 16051.00
369.7410, 16131.06
370.9400, 16075.00
372.1400, 16298.00
373.3390, 16447.00
374.5380, 16607.00
375.7370, 16502.00
376.9360, 16771.00
378.1350, 16775.00
379.3330, 17467.00
380.5310, 18068.00
381.7300, 18204.00
382.9280, 19038.00
384.1260, 18916.00
385.3230, 19160.00
386.5210, 19808.00
387.7180, 20550.00
388.9160, 20985.00
390.1130, 21341.00
391.3100, 22713.00
392.5060, 23967.00
393.7030, 25346.00
394.9000, 27005.00
396.0960, 28420.00
397.2920, 29998.00
398.4880, 31216.00
399.6840, 31421.00
400.8800, 31005.00
402.0750, 29672.00
403.2710, 27996.00
404.4660, 25925.00
405.6610, 24047.00
406.8560, 22580.00
408.0510, 21518.00
409.2450, 20554.00
410.4400, 19916.00
411.6340, 19594.00
412.8280, 19268.00
414.0220, 19066.00
415.2160, 18863.00
416.4100, 19024.00
417.6030, 18963.00
418.7970, 18937.00
419.9900, 19074.00
421.1830, 18871.00
422.3760, 18858.00
423.5690, 18511.00
424.7610, 18367.00
425.9540, 18192.00
427.1460, 18069.00
428.3380, 18004.00
429.5300, 17789.00
430.7220, 17762.27
431.9140, 17523.00
433.1050, 17648.00
434.2970, 17616.00
435.4880, 17565.00
436.6790, 17565.00
437.8700, 17506.84
439.0610, 17316.00
440.2510, 17397.00
441.4420, 17385.00
442.6320, 17297.00
443.8220, 17539.00
445.0120, 17398.00
446.2020, 17377.00
447.3910, 17232.00
448.5810, 17402.00
449.7700, 17313.00
450.9600, 17110.00
452.1490, 17347.00
453.3370, 17180.00
454.5260, 17078.00
455.7150, 17289.00
456.9030, 17065.00
458.0910, 16980.00
459.2800, 17095.00
460.4670, 17059.00
461.6550, 17014.00
462.8430, 16950.00
464.0300, 17014.00
465.2180, 17011.00
466.4050, 17086.00
467.5920, 17105.20
468.7790, 16982.00
469.9650, 17142.00
471.1520, 17076.00
472.3380, 17043.00
473.5250, 17105.00
474.7110, 17087.00
475.8970, 17235.00
477.0820, 17101.00
478.2680, 17067.00
479.4540, 17175.00
480.6390, 17198.00
481.8240, 17270.38
483.0090, 17271.00
484.1940, 17392.00
485.3780, 17363.00
486.5630, 17316.00
487.7470, 17417.00
488.9320, 17331.00
490.1160, 17471.00
491.3000, 17234.00
492.4830, 17401.00
493.6670, 17385.00
494.8500, 17325.00
496.0340, 17230.00
497.2170, 17407.00
498.4000, 17267.00
499.5820, 17397.00
500.7650, 17354.00
501.9480, 17316.00
503.1300, 17336.00
504.3120, 17580.00
505.4940, 17406.00
506.6760, 17473.00
507.8580, 17375.00
509.0390, 17273.00
510.2210, 17415.00
511.4020, 17454.00
512.5830, 17392.00
513.7640, 17255.00
514.9450, 17560.00
516.1250, 17418.00
517.3060, 17608.00
518.4860, 17593.00
519.6660, 17477.00
520.8460, 17652.00
522.0260, 17467.00
523.2060, 17691.00
524.3850, 17662.00
525.5650, 17716.00
526.7440, 17738.00
527.9230, 17667.00
529.1020, 17768.00
530.2810, 17829.00
531.4590, 17843.00
532.6380, 17783.00
533.8160, 18076.00
534.9940, 17806.00
536.1720, 17735.00
537.3500, 17924.00
538.5270, 17789.00
539.7050, 17904.00
540.8820, 18076.00
542.0590, 18030.00
543.2360, 18033.00
544.4130, 18122.00
545.5900, 18193.00
546.7660, 18154.00
547.9430, 18265.00
549.1190, 18206.00
550.2950, 18318.00
551.4710, 18276.00
552.6470, 18436.00
553.8220, 18540.00
554.9980, 18384.00
556.1730, 18589.00
557.3480, 18572.00
558.5230, 18724.00
559.6980, 18734.00
560.8730, 18837.00
562.0470, 18755.00
563.2220, 18873.00
564.3960, 18774.00
565.5700, 18976.00
566.7440, 19138.00
567.9170, 19234.00
569.0910, 19237.00
570.2640, 19263.00
571.4380, 19311.35
572.6110, 19298.00
573.7840, 19389.00
574.9570, 19400.00
576.1290, 19468.00
577.3020, 19396.00
578.4740, 19262.00
579.6460, 19193.00
580.8180, 19124.00
581.9900, 19163.00
583.1620, 19022.00
584.3330, 18935.00
585.5040, 19235.00
586.6760, 19049.00
587.8470, 19099.00
589.0180, 18967.00
590.1880, 18807.00
591.3590, 18691.00
592.5290, 18985.00
593.7000, 18850.00
594.8700, 18744.00
596.0400, 18914.00
597.2090, 18823.00
598.3790, 18805.00
599.5490, 18764.00
600.7180, 18687.00
601.8870, 18867.00
603.0560, 18691.00
604.2250, 18815.00
605.3940, 18607.00
606.5620, 18656.00
607.7300, 18786.00
608.8990, 18755.00
610.0670, 18758.00
611.2350, 18772.00
612.4020, 19054.00
613.5700, 18845.00
614.7370, 18941.00
615.9050, 18821.00
617.0720, 19107.00
618.2390, 19000.00
619.4060, 18912.00
620.5720, 19093.00
621.7390, 18949.00
622.9050, 19138.00
624.0710, 19016.00
625.2370, 19017.00
626.4030, 19192.00
627.5690, 19197.00
628.7340, 19099.00
629.9000, 19086.00
631.0650, 18803.00
632.2300, 18964.00
633.3950, 18889.00
634.5600, 19302.00
635.7240, 19156.00
636.8890, 19116.00
638.0530, 19130.00
639.2170, 19166.00
640.3810, 19225.00
641.5450, 19251.00
642.7080, 19336.00
643.8720, 19389.00
645.0350, 19400.65
646.1980, 19261.00
647.3610, 19434.00
648.5240, 19463.00
649.6870, 19509.00
650.8490, 19756.00
652.0120, 19643.00
653.1740, 19683.00
654.3360, 19549.00
655.4980, 19643.00
656.6600, 19748.00
657.8210, 19779.00
658.9830, 19924.00
660.1440, 19993.00
661.3050, 20158.00
662.4660, 20139.00
663.6270, 20409.00
664.7870, 20596.00
665.9480, 20916.00
667.1080, 21077.00
668.2680, 21524.00
669.4280, 22429.00
670.5880, 22623.00
671.7480, 23014.00
672.9070, 23712.00
674.0670, 24874.00
675.2260, 26244.00
676.3850, 28223.00
677.5440, 30716.35
678.7030, 33177.00
679.8610, 36922.00
681.0200, 40943.00
682.1780, 44877.00
683.3360, 49359.00
684.4940, 53026.00
685.6520, 55112.00
686.8090, 55549.00
687.9670, 53067.00
689.1240, 49036.00
690.2810, 44218.00
691.4380, 39286.00
692.5950, 35725.00
693.7520, 32449.00
694.9080, 30061.00
696.0650, 28157.00
697.2210, 26777.00
698.3770, 25783.00
699.5330, 24899.00
700.6880, 24284.00
701.8440, 23711.00
702.9990, 23311.00
704.1550, 22838.00
705.3100, 22554.00
706.4650, 22401.00
707.6190, 22192.00
708.7740, 22004.17
709.9290, 21815.00
711.0830, 21685.00
712.2370, 21611.00
713.3910, 21501.00
714.5450, 21437.23
715.6980, 21310.00
716.8520, 21280.00
718.0050, 21278.00
719.1580, 21112.00
720.3110, 21248.00
721.4640, 21060.00
722.6170, 21058.00
723.7700, 21153.00
724.9220, 20950.00
726.0740, 21130.00
727.2260, 20948.00
728.3780, 20988.00
729.5300, 21212.00
730.6810, 20882.00
731.8330, 20983.00
732.9840, 21060.00
734.1350, 20743.00
735.2860, 20984.00
736.4370, 20847.00
737.5880, 20677.00
738.7380, 20748.00
739.8880, 20919.00
741.0390, 20782.00
742.1890, 20850.00
743.3380, 20908.00
744.4880, 20909.00
745.6380, 21007.00
746.7870, 20925.00
747.9360, 21001.00
749.0850, 20895.00
750.2340, 20911.00
751.3830, 20999.00
752.5310, 21050.00
753.6800, 20918.00
754.8280, 21076.00
755.9760, 21053.00
757.1240, 21124.00
758.2720, 21260.00
759.4190, 21217.55
760.5670, 21322.00
761.7140, 21171.00
762.8610, 21133.00
764.0080, 21013.00
765.1550, 21006.00
766.3020, 21038.00
767.4480, 21096.00
768.5950, 20928.00
769.7410, 20924.00
770.8870, 20956.00
772.0330, 21044.00
773.1780, 21095.00
774.3240, 21086.07
775.4690, 21061.77
776.6140, 20998.00
777.7590, 20996.00
778.9040, 20834.00
780.0490, 20945.00
781.1940, 21014.00
782.3380, 21138.00
783.4820, 20960.00
784.6260, 21025.00
785.7700, 21114.00
786.9140, 20960.00
788.0580, 21012.00
789.2010, 21137.00
790.3450, 21032.00
791.4880, 21113.00
792.6310, 21061.00
793.7730, 21089.00
794.9160, 21132.08
796.0590, 21070.00
797.2010, 21201.00
798.3430, 21170.00
799.4850, 21173.00
800.6270, 21085.00
801.7690, 21056.00
802.9100, 21034.00
804.0520, 21114.00
805.1930, 21181.00
806.3340, 21173.00
807.4750, 21196.00
808.6160, 21269.00
809.7560, 21229.00
810.8970, 21285.80
812.0370, 21264.00
813.1770, 21254.00
814.3170, 21329.00
815.4570, 21122.00
816.5960, 21433.00
817.7360, 21203.00
818.8750, 21380.00
820.0140, 21412.00
821.1530, 21410.00
822.2920, 21453.00
823.4310, 21440.00
824.5690, 21286.00
825.7070, 21558.00
826.8460, 21498.00
827.9840, 21670.00
829.1220, 21448.00
830.2590, 21331.00
831.3970, 21356.00
832.5340, 21283.55
833.6710, 21353.00
834.8080, 21382.00
835.9450, 21507.00
837.0820, 21687.00
838.2190, 21567.00
839.3550, 21753.00
840.4910, 21717.00
841.6270, 21766.00
842.7630, 21879.00
843.8990, 21855.00
845.0350, 21874.99
846.1700, 21815.00
847.3060, 21821.00
848.4410, 21777.00
849.5760, 21723.00
850.7100, 21881.00
851.8450, 21816.38
852.9800, 21897.54
854.1140, 21865.00
855.2480, 21955.00
856.3820, 22051.00
857.5160, 21950.00
858.6500, 22325.00
859.7830, 22112.00
860.9170, 21972.00
862.0500, 22177.00
863.1830, 22290.00
864.3160, 22085.00
865.4480, 22058.00
866.5810, 22117.00
867.7130, 21871.00
868.8460, 22239.00
869.9780, 22315.00
871.1100, 22097.00
872.2410, 22126.00
873.3730, 22181.00
874.5050, 22148.00
875.6360, 22259.00
876.7670, 22235.00
877.8980, 22331.00
879.0290, 22298.00
880.1590, 22348.62
881.2900, 22316.00
882.4200, 22379.00
883.5500, 22320.00
884.6800, 22233.00
885.8100, 22307.11
886.9400, 22367.00
888.0690, 22360.00
889.1990, 22428.00
890.3280, 22399.00
891.4570, 22545.00
892.5860, 22589.00
893.7140, 22607.49
894.8430, 22635.53
895.9710, 22664.00
897.1000, 22557.00
898.2280, 22597.00
899.3560, 22469.00
900.4830, 22682.00
901.6110, 22605.00
902.7380, 22686.00
903.8660, 22787.00
904.9930, 22898.00
906.1200, 22884.00
907.2460, 22769.00
908.3730, 22745.00
909.5000, 22819.00
910.6260, 23003.00
911.7520, 22991.00
912.8780, 23002.00
914.0040, 23160.00
915.1290, 22978.00
916.2550, 22901.00
917.3800, 23202.00
918.5050, 22964.00
919.6300, 22964.00
920.7550, 22974.00
921.8800, 22993.00
923.0040, 22903.00
924.1290, 22974.00
925.2530, 22964.00
926.3770, 22946.00
927.5010, 23036.00
928.6250, 23053.00
929.7480, 23036.00
930.8720, 22960.00
931.9950, 23176.00
933.1180, 23102.00
934.2410, 23151.00
935.3640, 23012.00
936.4860, 23156.00
937.6090, 23116.00
938.7310, 23236.00
939.8530, 22983.00
940.9750, 23189.00
942.0970, 22992.00
943.2180, 23088.00
944.3400, 23280.00
945.4610, 23148.00
946.5820, 23132.00
947.7030, 23191.00
948.8240, 23016.00
949.9450, 23119.00
951.0650, 23278.00
952.1860, 23284.00
953.3060, 23351.58
954.4260, 23287.00
955.5460, 23307.00
956.6650, 23457.00
957.7850, 23273.00
958.9040, 23355.00
960.0230, 23338.00
961.1420, 23438.00
962.2610, 23305.00
963.3800, 23387.87
964.4990, 23428.00
965.6170, 23485.00
966.7350, 23446.00
967.8530, 23553.00
968.9710, 23555.00
970.0890, 23555.00
971.2070, 23597.00
972.3240, 23687.00
973.4410, 23544.00
974.5580, 23446.00
975.6750, 23613.00
976.7920, 23808.00
977.9090, 23645.00
979.0250, 23551.00
980.1410, 23680.00
981.2580, 23870.00
982.3740, 23999.00
983.4890, 24080.00
984.6050, 24188.00
985.7200, 24363.00
986.8360, 24345.00
987.9510, 24616.00
989.0660, 24665.00
990.1810, 24585.00
991.2950, 24741.00
992.4100, 24830.00
993.5240, 24990.00
994.6390, 25272.00
995.7530, 25630.00
996.8660, 25774.00
997.9800, 25967.14
999.0940, 26084.00
1000.207, 26244.00
1001.320, 26302.00
1002.433, 26368.34
1003.546, 26422.00
1004.659, 26359.00
1005.772, 26295.00
1006.884, 26129.00
1007.996, 26154.00
1009.108, 26056.00
1010.220, 26139.00
1011.332, 26120.00
1012.444, 26058.00
1013.555, 25928.00
1014.666, 25883.00
1015.777, 25773.00
1016.888, 25687.00
1017.999, 25526.00
1019.110, 25449.70
1020.220, 25464.00
1021.331, 25287.00
1022.441, 25248.00
1023.551, 25229.00
1024.661, 25127.00
1025.770, 25065.79
1026.880, 25024.00
1027.989, 24951.00
1029.098, 24934.00
1030.207, 25025.00
1031.316, 24999.00
1032.425, 25053.00
1033.533, 24994.00
1034.642, 24853.00
1035.750, 24906.00
1036.858, 24930.00
1037.966, 25037.00
1039.073, 25055.00
1040.181, 25105.00
1041.288, 25223.00
1042.396, 25267.11
1043.503, 25270.00
1044.610, 25418.00
1045.716, 25280.00
1046.823, 25321.00
1047.929, 25547.00
1049.036, 25765.00
1050.142, 25757.00
1051.248, 25924.00
1052.353, 25894.00
1053.459, 26165.00
1054.564, 26323.00
1055.670, 26507.00
1056.775, 26800.00
1057.880, 27054.00
1058.985, 27161.00
1060.089, 27715.00
1061.194, 27976.00
1062.298, 28092.00
1063.402, 28691.00
1064.506, 28880.00
1065.610, 29041.00
1066.713, 29218.00
1067.817, 29252.00
1068.920, 29374.00
1070.023, 29363.00
1071.126, 29336.00
1072.229, 29140.00
1073.332, 29268.00
1074.435, 28981.00
1075.537, 28898.00
1076.639, 28644.00
1077.741, 28762.00
1078.843, 28318.00
1079.945, 28192.00
1081.046, 28104.00
1082.148, 27824.00
1083.249, 27621.00
1084.350, 27617.00
1085.451, 27396.00
1086.551, 27170.00
1087.652, 27145.00
1088.752, 26843.00
1089.853, 26965.00
1090.953, 26884.00
1092.053, 26700.00
1093.152, 26722.00
1094.252, 26654.00
1095.351, 26542.00
1096.451, 26750.00
1097.550, 26530.00
1098.649, 26558.00
1099.748, 26293.00
1100.846, 26640.00
1101.945, 26386.00
1103.043, 26565.00
1104.141, 26542.00
1105.239, 26362.00
1106.337, 26480.00
1107.434, 26590.00
1108.532, 26499.00
1109.629, 26500.00
1110.726, 26311.00
1111.823, 26584.00
1112.920, 26365.00
1114.017, 26386.00
1115.113, 26654.00
1116.210, 26529.00
1117.306, 26644.00
1118.402, 26480.00
1119.498, 26532.00
1120.593, 26687.00
1121.689, 26641.00
1122.784, 26524.00
1123.879, 26452.00
1124.974, 26404.00
1126.069, 26401.72
1127.164, 26434.66
1128.259, 26486.00
1129.353, 26525.00
1130.447, 26618.00
1131.541, 26567.00
1132.635, 26660.00
1133.729, 26549.00
1134.822, 26890.00
1135.916, 26653.00
1137.009, 26466.00
1138.102, 26602.00
1139.195, 26823.00
1140.288, 26754.00
1141.380, 26744.00
1142.473, 26728.00
1143.565, 26832.00
1144.657, 26825.00
1145.749, 26866.00
1146.841, 26795.00
1147.932, 26596.00
1149.024, 26890.00
1150.115, 26667.00
1151.206, 26779.00
1152.297, 26575.00
1153.388, 26834.00
1154.479, 26512.00
1155.569, 26624.00
1156.659, 26444.00
1157.750, 26445.00
1158.839, 26325.00
1159.929, 26326.00
1161.019, 26210.00
1162.108, 26404.00
1163.198, 26211.00
1164.287, 26371.00
1165.376, 26188.00
1166.465, 26315.00
1167.553, 26147.00
1168.642, 26206.00
1169.730, 26552.00
1170.818, 26389.00
1171.906, 26223.00
1172.994, 26369.00
1174.082, 26260.00
1175.170, 26475.00
1176.257, 26424.00
1177.344, 26450.00
1178.431, 26542.00
1179.518, 26426.00
1180.605, 26479.00
1181.691, 26528.00
1182.778, 26651.00
1183.864, 26573.00
1184.950, 26612.00
1186.036, 26690.00
1187.122, 26651.00
1188.207, 26828.00
1189.292, 26570.00
1190.378, 26925.00
1191.463, 26792.00
1192.548, 26696.00
1193.632, 26681.00
1194.717, 26954.00
1195.801, 26856.00
1196.886, 27036.00
1197.970, 26952.45
1199.054, 26880.00
1200.137, 26821.00
1201.221, 26911.00
1202.305, 27019.00
1203.388, 26691.00
1204.471, 26974.00
1205.554, 26775.00
1206.637, 26975.00
1207.719, 27042.00
1208.802, 26936.00
1209.884, 26995.00
1210.966, 26963.00
1212.048, 27166.00
1213.130, 27194.00
1214.212, 27190.00
1215.293, 27114.00
1216.374, 27106.00
1217.456, 27139.00
1218.536, 26954.00
1219.617, 27178.00
1220.698, 27128.00
1221.778, 27304.00
1222.859, 27271.00
1223.939, 27309.00
1225.019, 27468.00
1226.099, 27497.00
1227.178, 27360.00
1228.258, 27504.00
1229.337, 27385.00
1230.417, 27176.00
1231.496, 27314.00
1232.574, 27139.00
1233.653, 27098.00
1234.732, 27256.00
1235.810, 27137.00
1236.888, 26832.00
1237.966, 27066.00
1239.044, 26955.00
1240.122, 27214.00
1241.199, 27248.00
1242.277, 26924.00
1243.354, 27058.00
1244.431, 26890.00
1245.508, 26868.00
1246.585, 26918.00
1247.661, 26970.00
1248.738, 26875.00
1249.814, 26866.00
1250.890, 26926.00
1251.966, 27068.00
1253.042, 26730.00
1254.117, 26996.00
1255.193, 26938.00
1256.268, 27065.00
1257.343, 27070.00
1258.418, 26952.00
1259.493, 26816.00
1260.567, 26791.00
1261.642, 27154.00
1262.716, 27151.00
1263.790, 26853.00
1264.864, 27313.00
1265.938, 27106.00
1267.011, 27115.00
1268.085, 27011.00
1269.158, 27201.00
1270.231, 27037.00
1271.304, 27094.00
1272.377, 27053.00
1273.450, 27094.00
1274.522, 27158.00
1275.594, 27107.84
1276.666, 26970.00
1277.738, 27147.00
1278.810, 27049.00
1279.882, 27257.00
