##NAMES=Beryl
##RRUFFID=R060944
##IDEAL CHEMISTRY=Be_3_Al_2_Si_6_O_18_
##LOCALITY=Habachtal, Salzburg, Austria
##OWNER=RRUFF
##SOURCE=Lawrence W. Snee
##DESCRIPTION=Green hexagonal prisms in a muscovite schist, variety emerald. Note that there are micro inclusions of actinolite. The Raman signal is a mixture of the two phases.
##STATUS=The identification of this mineral has been confirmed by X-ray diffraction and chemical analysis
##URL=rruff.info/R060944
##MEASURED CHEMISTRY=Be_3.00_(Al_1.59_Mg_0.33_Fe^3+^_0.04_Cr^3+^_0.04_)_Σ=2_Si_6.00_O_18_·Na_0.33_ ; bright inclusions are actinolite
##PIN_ID=L01278
##ORIENTATION=Laser parallel to a* (1 0 0). Fiducial mark perpendicular to laser is parallel to c [0 0 1]
130.4390, 20739.00
131.6680, 21012.00
132.8980, 20848.00
134.1270, 20829.00
135.3560, 20734.00
136.5850, 20853.00
137.8140, 21004.00
139.0430, 21205.00
140.2710, 21241.00
141.5000, 21230.00
142.7280, 21014.00
143.9560, 21089.00
145.1840, 21127.00
146.4120, 21330.00
147.6390, 21339.00
148.8670, 21555.50
150.0940, 21445.00
151.3210, 22026.00
152.5490, 22511.00
153.7750, 22915.00
155.0020, 23694.00
156.2290, 24403.00
157.4550, 24961.00
158.6810, 25228.00
159.9080, 24537.00
161.1340, 23983.00
162.3590, 23558.00
163.5850, 23121.00
164.8110, 23170.00
166.0360, 23101.00
167.2610, 23173.00
168.4860, 23192.00
169.7110, 23506.00
170.9360, 24004.00
172.1610, 24605.00
173.3850, 25182.00
174.6100, 26121.00
175.8340, 27043.00
177.0580, 27696.00
178.2820, 27700.00
179.5050, 27142.00
180.7290, 26070.00
181.9520, 25199.00
183.1760, 24473.00
184.3990, 23776.00
185.6220, 23680.00
186.8450, 23354.00
188.0670, 23171.00
189.2900, 23023.00
190.5120, 22819.00
191.7340, 23363.00
192.9560, 23381.00
194.1780, 23437.00
195.4000, 23226.00
196.6220, 23404.00
197.8430, 23451.00
199.0640, 23278.00
200.2860, 23258.00
201.5070, 23383.00
202.7270, 23289.00
203.9480, 23263.00
205.1690, 22896.00
206.3890, 23089.00
207.6090, 23156.00
208.8290, 23521.00
210.0490, 23732.00
211.2690, 24025.00
212.4890, 24553.00
213.7080, 25038.00
214.9280, 25677.00
216.1470, 26332.00
217.3660, 27175.00
218.5850, 28206.00
219.8030, 28981.00
221.0220, 29713.00
222.2400, 29596.00
223.4590, 29206.00
224.6770, 28347.00
225.8950, 27470.00
227.1120, 26733.00
228.3300, 26076.00
229.5480, 25719.00
230.7650, 25159.00
231.9820, 24573.00
233.1990, 24135.00
234.4160, 23614.00
235.6330, 23532.00
236.8490, 23294.00
238.0660, 23108.00
239.2820, 22924.00
240.4980, 22861.00
241.7140, 23041.00
242.9300, 23072.00
244.1460, 22986.00
245.3610, 23136.00
246.5770, 23127.00
247.7920, 23014.00
249.0070, 23172.00
250.2220, 22842.00
251.4370, 22712.00
252.6510, 22659.00
253.8660, 22271.00
255.0800, 22230.00
256.2940, 22274.00
257.5080, 22427.00
258.7220, 22377.23
259.9360, 22383.98
261.1490, 22400.00
262.3630, 22312.00
263.5760, 22334.00
264.7890, 22366.00
266.0020, 22553.00
267.2150, 22668.00
268.4270, 22460.00
269.6400, 22441.00
270.8520, 22196.00
272.0640, 22080.00
273.2760, 22039.00
274.4880, 21756.00
275.7000, 22112.00
276.9120, 21887.00
278.1230, 22180.00
279.3340, 22132.00
280.5450, 22273.00
281.7560, 22254.00
282.9670, 22226.00
284.1780, 22396.00
285.3880, 22405.00
286.5980, 22427.00
287.8090, 22630.00
289.0190, 22643.00
290.2290, 22743.00
291.4380, 22782.20
292.6480, 22758.00
293.8570, 22802.00
295.0670, 22736.00
296.2760, 22733.00
297.4850, 22653.00
298.6930, 22860.00
299.9020, 22895.00
301.1110, 22913.00
302.3190, 22956.00
303.5270, 22663.00
304.7350, 22995.00
305.9430, 22796.00
307.1510, 22697.00
308.3580, 22810.00
309.5660, 22854.00
310.7730, 23010.00
311.9800, 23101.03
313.1870, 23136.00
314.3940, 23385.00
315.6010, 23552.00
316.8070, 23812.00
318.0130, 23980.00
319.2200, 24216.00
320.4260, 24553.00
321.6310, 24567.00
322.8370, 25027.00
324.0430, 24900.00
325.2480, 24672.00
326.4540, 24194.00
327.6590, 23903.00
328.8640, 23834.00
330.0680, 23385.00
331.2730, 23045.00
332.4780, 23001.00
333.6820, 22832.00
334.8860, 22644.00
336.0900, 22795.00
337.2940, 22955.00
338.4980, 23073.00
339.7010, 23042.00
340.9050, 23004.00
342.1080, 23022.00
343.3110, 23040.00
344.5140, 23135.00
345.7170, 23207.00
346.9200, 23206.00
348.1220, 23261.00
349.3240, 23225.00
350.5270, 23294.00
351.7290, 23270.51
352.9310, 23247.00
354.1320, 23243.00
355.3340, 23187.00
356.5350, 23168.00
357.7370, 23359.00
358.9380, 23348.00
360.1390, 23478.00
361.3400, 23707.00
362.5400, 23655.00
363.7410, 23617.00
364.9410, 23865.00
366.1410, 23869.00
367.3410, 24110.00
368.5410, 24023.00
369.7410, 23924.00
370.9400, 24165.00
372.1400, 23805.00
373.3390, 23734.00
374.5380, 23840.00
375.7370, 23890.00
376.9360, 23964.00
378.1350, 23754.00
379.3330, 23927.00
380.5310, 23910.00
381.7300, 24251.00
382.9280, 24342.00
384.1260, 25002.00
385.3230, 25390.00
386.5210, 25480.00
387.7180, 26331.00
388.9160, 27009.00
390.1130, 27805.00
391.3100, 28902.00
392.5060, 29792.00
393.7030, 30620.00
394.9000, 31486.00
396.0960, 32277.00
397.2920, 32392.00
398.4880, 32140.00
399.6840, 31518.00
400.8800, 30183.00
402.0750, 29214.00
403.2710, 27969.00
404.4660, 27256.00
405.6610, 26625.00
406.8560, 26231.00
408.0510, 25876.00
409.2450, 25806.00
410.4400, 25627.00
411.6340, 25467.00
412.8280, 25265.00
414.0220, 25186.00
415.2160, 25190.00
416.4100, 24880.00
417.6030, 24850.00
418.7970, 24626.00
419.9900, 24456.00
421.1830, 24357.00
422.3760, 23803.00
423.5690, 23932.00
424.7610, 23743.00
425.9540, 23730.00
427.1460, 23868.00
428.3380, 23645.00
429.5300, 23948.00
430.7220, 23848.00
431.9140, 23923.00
433.1050, 24407.00
434.2970, 23989.00
435.4880, 24327.00
436.6790, 24219.00
437.8700, 24130.00
439.0610, 24115.00
440.2510, 24022.70
441.4420, 24071.00
442.6320, 23829.00
443.8220, 23794.00
445.0120, 23537.00
446.2020, 23385.00
447.3910, 23356.00
448.5810, 23062.00
449.7700, 23121.00
450.9600, 23219.00
452.1490, 22962.00
453.3370, 23216.00
454.5260, 22941.00
455.7150, 22906.00
456.9030, 23051.00
458.0910, 23042.00
459.2800, 23200.00
460.4670, 23067.00
461.6550, 23154.00
462.8430, 23193.00
464.0300, 22889.00
465.2180, 22948.00
466.4050, 22891.00
467.5920, 23031.00
468.7790, 22878.00
469.9650, 22870.00
471.1520, 22978.00
472.3380, 22906.75
473.5250, 23155.00
474.7110, 22919.00
475.8970, 23157.00
477.0820, 23157.00
478.2680, 23347.00
479.4540, 23305.00
480.6390, 23314.00
481.8240, 23306.00
483.0090, 23379.00
484.1940, 23349.00
485.3780, 23273.00
486.5630, 23611.00
487.7470, 23412.00
488.9320, 23557.00
490.1160, 23397.00
491.3000, 23611.00
492.4830, 23615.00
493.6670, 23371.00
494.8500, 23515.00
496.0340, 23557.00
497.2170, 23561.00
498.4000, 23635.00
499.5820, 23674.00
500.7650, 23709.80
501.9480, 23757.38
503.1300, 23777.00
504.3120, 23848.00
505.4940, 23850.88
506.6760, 23934.00
507.8580, 24002.00
509.0390, 24094.00
510.2210, 24256.00
511.4020, 24264.00
512.5830, 24516.00
513.7640, 24500.00
514.9450, 24941.00
516.1250, 25057.00
517.3060, 25210.00
518.4860, 25487.00
519.6660, 25518.00
520.8460, 25564.71
522.0260, 25405.00
523.2060, 25477.00
524.3850, 25339.00
525.5650, 25236.00
526.7440, 25124.00
527.9230, 25027.00
529.1020, 24751.00
530.2810, 24534.00
531.4590, 24735.00
532.6380, 24395.00
533.8160, 24283.00
534.9940, 24192.00
536.1720, 24035.23
537.3500, 24072.00
538.5270, 23860.00
539.7050, 23864.00
540.8820, 23745.00
542.0590, 23588.00
543.2360, 23709.00
544.4130, 23680.00
545.5900, 23574.00
546.7660, 23688.00
547.9430, 23584.00
549.1190, 23686.00
550.2950, 23806.00
551.4710, 23681.00
552.6470, 23965.00
553.8220, 23890.00
554.9980, 23976.00
556.1730, 24030.00
557.3480, 24164.00
558.5230, 24273.00
559.6980, 24433.00
560.8730, 24503.00
562.0470, 24619.00
563.2220, 24609.00
564.3960, 24419.00
565.5700, 24410.00
566.7440, 24461.00
567.9170, 24408.00
569.0910, 24623.00
570.2640, 24539.00
571.4380, 24571.00
572.6110, 24821.00
573.7840, 24727.00
574.9570, 24805.00
576.1290, 24580.00
577.3020, 24509.00
578.4740, 24504.00
579.6460, 24390.34
580.8180, 24532.00
581.9900, 24285.00
583.1620, 24311.00
584.3330, 24224.00
585.5040, 24362.00
586.6760, 24595.00
587.8470, 24355.00
589.0180, 24361.00
590.1880, 24259.00
591.3590, 24144.00
592.5290, 24184.00
593.7000, 24283.00
594.8700, 24241.00
596.0400, 24163.00
597.2090, 24219.00
598.3790, 24103.00
599.5490, 24219.00
600.7180, 24161.00
601.8870, 24121.00
603.0560, 24142.00
604.2250, 24094.00
605.3940, 24038.00
606.5620, 24240.00
607.7300, 24393.00
608.8990, 24379.00
610.0670, 24564.00
611.2350, 24273.00
612.4020, 24481.00
613.5700, 24450.00
614.7370, 24663.00
615.9050, 24583.00
617.0720, 24508.00
618.2390, 24498.00
619.4060, 24352.00
620.5720, 24388.00
621.7390, 24505.00
622.9050, 24363.00
624.0710, 24475.00
625.2370, 24337.00
626.4030, 24617.00
627.5690, 24409.00
628.7340, 24290.00
629.9000, 24561.00
631.0650, 24676.00
632.2300, 24570.00
633.3950, 24626.00
634.5600, 24848.00
635.7240, 24724.00
636.8890, 24720.00
638.0530, 24906.00
639.2170, 25186.00
640.3810, 25252.00
641.5450, 25313.00
642.7080, 25630.00
643.8720, 25541.00
645.0350, 25616.00
646.1980, 25852.00
647.3610, 26198.00
648.5240, 26017.00
649.6870, 26402.00
650.8490, 26412.00
652.0120, 26842.00
653.1740, 26816.00
654.3360, 27474.00
655.4980, 27547.00
656.6600, 28124.00
657.8210, 28794.00
658.9830, 29313.00
660.1440, 30024.00
661.3050, 31130.00
662.4660, 32210.00
663.6270, 34078.00
664.7870, 35981.00
665.9480, 37935.00
667.1080, 40559.00
668.2680, 43076.00
669.4280, 45799.00
670.5880, 48116.00
671.7480, 49302.00
672.9070, 48962.00
674.0670, 48312.00
675.2260, 46388.00
676.3850, 44556.00
677.5440, 43461.00
678.7030, 43392.00
679.8610, 44168.00
681.0200, 45737.00
682.1780, 48009.00
683.3360, 50982.00
684.4940, 53754.00
685.6520, 56221.00
686.8090, 56037.00
687.9670, 53924.00
689.1240, 50449.00
690.2810, 45912.00
691.4380, 42081.00
692.5950, 38533.00
693.7520, 35885.00
694.9080, 33734.00
696.0650, 32473.00
697.2210, 31018.00
698.3770, 30133.00
699.5330, 29093.00
700.6880, 28591.00
701.8440, 28086.00
702.9990, 27853.00
704.1550, 27526.00
705.3100, 27320.00
706.4650, 26954.00
707.6190, 26874.00
708.7740, 26561.00
709.9290, 26499.00
711.0830, 26326.37
712.2370, 26087.00
713.3910, 26052.00
714.5450, 25897.00
715.6980, 25769.00
716.8520, 25562.00
718.0050, 25515.00
719.1580, 25437.60
720.3110, 25318.00
721.4640, 25415.00
722.6170, 25485.00
723.7700, 25554.00
724.9220, 25572.78
726.0740, 25368.00
727.2260, 25476.00
728.3780, 25458.00
729.5300, 25188.00
730.6810, 25260.00
731.8330, 25219.00
732.9840, 25212.00
734.1350, 25299.00
735.2860, 25293.00
736.4370, 25275.00
737.5880, 25222.00
738.7380, 25224.00
739.8880, 25218.92
741.0390, 25243.00
742.1890, 25286.00
743.3380, 25394.00
744.4880, 25538.00
745.6380, 25555.00
746.7870, 25508.00
747.9360, 25550.00
749.0850, 25447.00
750.2340, 25492.35
751.3830, 25608.00
752.5310, 25508.00
753.6800, 25482.00
754.8280, 25426.00
755.9760, 25269.00
757.1240, 25477.00
758.2720, 25303.00
759.4190, 25439.00
760.5670, 25370.00
761.7140, 25423.00
762.8610, 25402.00
764.0080, 25569.00
765.1550, 25475.00
766.3020, 25482.00
767.4480, 25520.00
768.5950, 25440.00
769.7410, 25549.00
770.8870, 25472.10
772.0330, 25585.00
773.1780, 25368.00
774.3240, 25422.00
775.4690, 25352.00
776.6140, 25493.00
777.7590, 25309.00
778.9040, 25316.00
780.0490, 25587.00
781.1940, 25331.00
782.3380, 25420.00
783.4820, 25457.00
784.6260, 25325.00
785.7700, 25369.47
786.9140, 25458.00
788.0580, 25320.00
789.2010, 25264.00
790.3450, 25279.00
791.4880, 25461.00
792.6310, 25364.00
793.7730, 25133.00
794.9160, 25296.00
796.0590, 25716.00
797.2010, 25163.00
798.3430, 25460.00
799.4850, 25269.00
800.6270, 25375.00
801.7690, 25188.00
802.9100, 25371.00
804.0520, 25424.00
805.1930, 25270.00
806.3340, 25505.00
807.4750, 25345.00
808.6160, 25291.00
809.7560, 25552.00
810.8970, 25314.00
812.0370, 25633.00
813.1770, 25363.00
814.3170, 25348.00
815.4570, 25322.00
816.5960, 25518.00
817.7360, 25464.00
818.8750, 25561.00
820.0140, 25432.00
821.1530, 25435.00
822.2920, 25593.00
823.4310, 25637.00
824.5690, 25660.00
825.7070, 25419.00
826.8460, 25562.00
827.9840, 25284.00
829.1220, 25573.00
830.2590, 25544.00
831.3970, 25774.00
832.5340, 25615.00
833.6710, 25531.00
834.8080, 25584.00
835.9450, 25684.00
837.0820, 25716.00
838.2190, 25724.00
839.3550, 25753.56
840.4910, 25750.71
841.6270, 25764.00
842.7630, 25753.49
843.8990, 25790.11
845.0350, 25819.00
846.1700, 25788.00
847.3060, 25776.00
848.4410, 25728.00
849.5760, 25696.00
850.7100, 25829.00
851.8450, 25970.00
852.9800, 25862.00
854.1140, 25681.00
855.2480, 25884.00
856.3820, 25738.00
857.5160, 25921.00
858.6500, 25675.00
859.7830, 25733.00
860.9170, 25901.00
862.0500, 25846.00
863.1830, 25650.00
864.3160, 25797.00
865.4480, 25689.00
866.5810, 25641.00
867.7130, 26008.00
868.8460, 26149.00
869.9780, 25992.00
871.1100, 26022.00
872.2410, 25878.00
873.3730, 25789.00
874.5050, 25975.00
875.6360, 25845.00
876.7670, 26224.00
877.8980, 25965.00
879.0290, 26185.00
880.1590, 25948.00
881.2900, 26146.00
882.4200, 26131.00
883.5500, 26019.00
884.6800, 25854.00
885.8100, 26126.00
886.9400, 26068.00
888.0690, 26162.00
889.1990, 26225.00
890.3280, 26381.00
891.4570, 26256.00
892.5860, 26350.00
893.7140, 26548.00
894.8430, 26475.00
895.9710, 26654.00
897.1000, 26499.00
898.2280, 26765.00
899.3560, 26779.00
900.4830, 26574.00
901.6110, 26884.00
902.7380, 26827.00
903.8660, 26769.00
904.9930, 26772.00
906.1200, 26883.00
907.2460, 26934.00
908.3730, 26836.00
909.5000, 27027.00
910.6260, 27061.00
911.7520, 27269.00
912.8780, 27322.00
914.0040, 27222.00
915.1290, 27636.00
916.2550, 27470.00
917.3800, 27760.00
918.5050, 27814.00
919.6300, 27856.00
920.7550, 27791.00
921.8800, 28276.00
923.0040, 28257.00
924.1290, 28529.00
925.2530, 29257.00
926.3770, 29102.96
927.5010, 28717.00
928.6250, 29129.00
929.7480, 29006.00
930.8720, 28812.00
931.9950, 28628.00
933.1180, 28562.00
934.2410, 28134.00
935.3640, 28086.00
936.4860, 27590.00
937.6090, 27662.00
938.7310, 27573.00
939.8530, 27314.00
940.9750, 27474.00
942.0970, 27385.00
943.2180, 27341.00
944.3400, 27304.00
945.4610, 27437.00
946.5820, 27494.00
947.7030, 27372.00
948.8240, 27313.00
949.9450, 27223.00
951.0650, 27320.00
952.1860, 27256.00
953.3060, 27291.47
954.4260, 27281.20
955.5460, 27300.00
956.6650, 27246.00
957.7850, 27131.00
958.9040, 27117.00
960.0230, 27017.00
961.1420, 27097.00
962.2610, 27132.00
963.3800, 27091.00
964.4990, 27142.00
965.6170, 27164.00
966.7350, 27147.09
967.8530, 27183.75
968.9710, 27119.00
970.0890, 27189.00
971.2070, 27145.00
972.3240, 27092.00
973.4410, 27358.00
974.5580, 27312.00
975.6750, 27175.00
976.7920, 27295.00
977.9090, 27167.00
979.0250, 27272.00
980.1410, 27333.00
981.2580, 27432.00
982.3740, 27544.00
983.4890, 27641.81
984.6050, 27722.48
985.7200, 27824.00
986.8360, 27950.00
987.9510, 27939.00
989.0660, 28208.00
990.1810, 28163.00
991.2950, 28284.00
992.4100, 28825.00
993.5240, 29535.00
994.6390, 29042.00
995.7530, 29163.00
996.8660, 29100.00
997.9800, 29699.00
999.0940, 29422.00
1000.207, 29796.00
1001.320, 29770.00
1002.433, 29920.00
1003.546, 29881.00
1004.659, 30085.00
1005.772, 30102.00
1006.884, 29916.00
1007.996, 29899.00
1009.108, 30014.00
1010.220, 30255.00
1011.332, 30518.00
1012.444, 30122.00
1013.555, 30371.00
1014.666, 30217.00
1015.777, 30242.00
1016.888, 30200.00
1017.999, 30292.00
1019.110, 30598.00
1020.220, 30382.00
1021.331, 30472.00
1022.441, 30537.00
1023.551, 30260.00
1024.661, 30592.00
1025.770, 30592.00
1026.880, 30720.00
1027.989, 30478.00
1029.098, 30599.00
1030.207, 30221.00
1031.316, 30438.00
1032.425, 30192.00
1033.533, 30089.00
1034.642, 30292.00
1035.750, 30129.00
1036.858, 30418.00
1037.966, 30228.00
1039.073, 30010.00
1040.181, 30573.00
1041.288, 30789.00
1042.396, 30782.00
1043.503, 30817.00
1044.610, 31373.00
1045.716, 31726.00
1046.823, 32160.00
1047.929, 32841.00
1049.036, 33386.00
1050.142, 34440.00
1051.248, 35369.00
1052.353, 35934.00
1053.459, 37011.00
1054.564, 37976.00
1055.670, 38501.00
1056.775, 39169.00
1057.880, 39011.00
1058.985, 39361.00
1060.089, 38961.00
1061.194, 39020.00
1062.298, 39138.00
1063.402, 38905.00
1064.506, 39355.00
1065.610, 39318.00
1066.713, 39388.00
1067.817, 39434.00
1068.920, 39164.00
1070.023, 38751.00
1071.126, 38382.00
1072.229, 37824.00
1073.332, 37336.00
1074.435, 36829.00
1075.537, 36104.00
1076.639, 35397.00
1077.741, 34760.00
1078.843, 34200.23
1079.945, 33649.00
1081.046, 33213.00
1082.148, 32879.00
1083.249, 32467.00
1084.350, 31969.00
1085.451, 31755.00
1086.551, 31533.00
1087.652, 31526.00
1088.752, 31364.00
1089.853, 30954.00
1090.953, 30573.00
1092.053, 30464.00
1093.152, 30674.00
1094.252, 30452.00
1095.351, 30401.00
1096.451, 30129.00
1097.550, 30246.00
1098.649, 30020.00
1099.748, 29852.00
1100.846, 29840.00
1101.945, 29860.00
1103.043, 29587.00
1104.141, 29628.00
1105.239, 29487.00
1106.337, 29464.00
1107.434, 29354.00
1108.532, 29612.00
1109.629, 29454.00
1110.726, 29535.00
1111.823, 29366.00
1112.920, 29302.00
1114.017, 29361.00
1115.113, 29550.00
1116.210, 29427.00
1117.306, 29392.00
1118.402, 29322.00
1119.498, 29592.00
1120.593, 29429.00
1121.689, 29568.00
1122.784, 29829.00
1123.879, 29528.00
1124.974, 29674.00
1126.069, 29798.00
1127.164, 29426.00
1128.259, 29818.00
1129.353, 29478.00
1130.447, 29378.00
1131.541, 29328.00
1132.635, 29280.00
1133.729, 29207.29
1134.822, 29261.00
1135.916, 29107.00
1137.009, 29082.00
1138.102, 29069.00
1139.195, 28907.00
1140.288, 28824.00
1141.380, 28800.00
1142.473, 28595.00
1143.565, 28461.00
1144.657, 28564.00
1145.749, 28721.00
1146.841, 28518.00
1147.932, 28563.00
1149.024, 28427.00
1150.115, 28478.00
1151.206, 28460.00
1152.297, 28374.00
1153.388, 28324.00
1154.479, 28281.00
1155.569, 28231.93
1156.659, 28197.59
1157.750, 28142.00
1158.839, 28172.00
1159.929, 28087.00
1161.019, 28157.00
1162.108, 28398.00
1163.198, 28169.00
1164.287, 28142.00
1165.376, 28354.00
1166.465, 28132.00
1167.553, 28185.00
1168.642, 28212.00
1169.730, 28287.00
1170.818, 28430.00
1171.906, 28240.00
1172.994, 28152.00
1174.082, 28300.00
1175.170, 28364.00
1176.257, 28457.00
1177.344, 28391.00
1178.431, 28540.00
1179.518, 28519.00
1180.605, 28527.00
1181.691, 28555.00
1182.778, 28438.00
1183.864, 28669.00
1184.950, 28643.00
1186.036, 28422.00
1187.122, 28505.00
1188.207, 28703.00
1189.292, 28508.00
1190.378, 28666.00
1191.463, 28382.00
1192.548, 28385.00
1193.632, 28376.00
1194.717, 28439.00
1195.801, 28527.00
1196.886, 28642.00
1197.970, 28506.00
1199.054, 28620.00
1200.137, 28494.00
1201.221, 28620.00
1202.305, 28381.00
1203.388, 28430.00
1204.471, 28569.00
1205.554, 28597.00
1206.637, 28639.00
1207.719, 28626.00
1208.802, 28678.42
1209.884, 28656.00
1210.966, 28776.00
1212.048, 28960.00
1213.130, 29067.00
1214.212, 29121.00
1215.293, 28986.00
1216.374, 28973.00
1217.456, 28945.00
1218.536, 28882.00
1219.617, 28976.00
1220.698, 29121.00
1221.778, 29069.00
1222.859, 29097.88
1223.939, 29024.00
1225.019, 28997.00
1226.099, 28847.00
1227.178, 28750.00
1228.258, 28729.00
1229.337, 29039.00
1230.417, 28837.00
1231.496, 28727.00
1232.574, 28828.00
1233.653, 28422.00
1234.732, 28713.00
1235.810, 28653.00
1236.888, 28692.00
1237.966, 28619.00
1239.044, 28797.00
1240.122, 28760.00
1241.199, 28653.00
1242.277, 28581.00
1243.354, 28730.00
1244.431, 28611.00
1245.508, 28707.00
1246.585, 28579.00
1247.661, 28578.00
1248.738, 28623.00
1249.814, 28570.00
1250.890, 28542.08
1251.966, 28544.00
1253.042, 28430.00
1254.117, 28530.00
1255.193, 28496.00
1256.268, 28480.03
1257.343, 28569.16
1258.418, 28437.00
1259.493, 28648.00
1260.567, 28591.00
1261.642, 28503.00
1262.716, 28613.00
1263.790, 28688.00
1264.864, 28641.00
1265.938, 28669.00
1267.011, 28351.00
1268.085, 28735.00
1269.158, 28789.00
1270.231, 28519.00
1271.304, 28687.00
1272.377, 28791.00
1273.450, 28615.00
1274.522, 28448.00
1275.594, 28739.00
1276.666, 28595.00
1277.738, 28714.00
1278.810, 28816.00
1279.882, 28734.00
1280.953, 28545.00
1282.025, 28573.00
1283.096, 28529.00
1284.167, 28586.00
1285.238, 28620.00
1286.308, 28744.00
1287.379, 28632.00
1288.449, 28568.00
1289.519, 28686.00
1290.589, 28755.00
1291.659, 28853.00
1292.729, 28711.00
1293.798, 28776.00
1294.868, 28701.00
1295.937, 28704.00
