##NAMES=Beryl
##RRUFFID=R050368
##IDEAL CHEMISTRY=Be_3_Al_2_Si_6_O_18_
##LOCALITY=Wah Wah Mountains, Utah, USA
##OWNER=RRUFF
##SOURCE=Eugene Schlepp
##DESCRIPTION=Red-violet hexagonal prism
##STATUS=The identification of this mineral has been confirmed by X-ray diffraction and chemical analysis
##URL=rruff.info/R050368
##MEASURED CHEMISTRY=(Be_0.99_Li_0.01_)_3_(Al_0.95_Fe^3+^_0.05_)_2_Si_6.00_O_18_Î‡K_0.02_Na_0.01_
##PIN_ID=L01133
##ORIENTATION=Laser parallel to -a* (-1 0 0). Fiducial mark perpendicular to laser is parallel to -c [0 0 -1]
82.36700, 10095.00
83.60200, 10559.00
84.83700, 10531.00
86.07200, 10373.00
87.30800, 10454.00
88.54200, 10832.00
89.77700, 11338.00
91.01200, 11755.00
92.24600, 12168.00
93.48000, 11998.00
94.71400, 11848.00
95.94800, 11778.00
97.18200, 11571.00
98.41600, 11651.00
99.64900, 11718.00
100.8830, 11564.00
102.1160, 11405.00
103.3490, 11469.00
104.5820, 11634.00
105.8150, 12269.00
107.0470, 12699.00
108.2800, 13464.00
109.5120, 14099.00
110.7440, 12413.00
111.9760, 11414.00
113.2080, 11325.00
114.4400, 11653.00
115.6710, 11888.00
116.9030, 11545.00
118.1340, 11548.00
119.3650, 11303.00
120.5960, 11059.00
121.8270, 11370.00
123.0580, 11577.00
124.2880, 11375.00
125.5190, 11195.00
126.7490, 11167.00
127.9790, 11272.00
129.2090, 11379.00
130.4390, 11430.09
131.6680, 11543.00
132.8980, 11561.00
134.1270, 11732.00
135.3560, 11702.00
136.5850, 11991.00
137.8140, 12226.00
139.0430, 12315.00
140.2710, 12337.00
141.5000, 12105.00
142.7280, 11916.00
143.9560, 11805.00
145.1840, 11516.00
146.4120, 11345.00
147.6390, 11270.00
148.8670, 11042.00
150.0940, 10850.00
151.3210, 10957.00
152.5490, 11041.00
153.7750, 10898.00
155.0020, 10674.00
156.2290, 10751.00
157.4550, 10600.00
158.6810, 10631.00
159.9080, 10690.00
161.1340, 10741.00
162.3590, 10758.00
163.5850, 11101.00
164.8110, 11229.00
166.0360, 11376.00
167.2610, 11343.00
168.4860, 11323.00
169.7110, 11618.00
170.9360, 11769.00
172.1610, 11892.00
173.3850, 11774.00
174.6100, 11834.00
175.8340, 12075.00
177.0580, 12259.00
178.2820, 12346.00
179.5050, 12612.00
180.7290, 12837.00
181.9520, 13043.00
183.1760, 13094.00
184.3990, 13210.00
185.6220, 13266.00
186.8450, 13322.00
188.0670, 13448.00
189.2900, 13584.00
190.5120, 13527.00
191.7340, 13691.00
192.9560, 13777.00
194.1780, 13669.00
195.4000, 13888.00
196.6220, 13965.00
197.8430, 13815.00
199.0640, 13821.00
200.2860, 14132.00
201.5070, 14239.00
202.7270, 14286.00
203.9480, 13666.00
205.1690, 13075.00
206.3890, 12546.00
207.6090, 12321.00
208.8290, 12392.00
210.0490, 12199.00
211.2690, 12176.00
212.4890, 12293.00
213.7080, 12332.00
214.9280, 12408.00
216.1470, 12371.00
217.3660, 12286.00
218.5850, 12260.00
219.8030, 12248.00
221.0220, 12400.00
222.2400, 12390.00
223.4590, 12489.00
224.6770, 12386.00
225.8950, 12425.00
227.1120, 12365.00
228.3300, 12297.00
229.5480, 12443.00
230.7650, 12464.00
231.9820, 12474.00
233.1990, 12530.00
234.4160, 12360.00
235.6330, 12339.00
236.8490, 12344.00
238.0660, 12264.00
239.2820, 12055.00
240.4980, 12039.00
241.7140, 12067.00
242.9300, 11857.00
244.1460, 11942.00
245.3610, 11819.00
246.5770, 12030.00
247.7920, 12203.00
249.0070, 12072.00
250.2220, 12316.00
251.4370, 12207.00
252.6510, 12097.00
253.8660, 12218.00
255.0800, 12236.00
256.2940, 12182.00
257.5080, 12290.00
258.7220, 12784.00
259.9360, 13086.00
261.1490, 12771.00
262.3630, 12467.00
263.5760, 12542.00
264.7890, 12612.00
266.0020, 12653.00
267.2150, 12958.00
268.4270, 13195.00
269.6400, 13355.00
270.8520, 13237.00
272.0640, 13092.00
273.2760, 13234.00
274.4880, 13103.00
275.7000, 13151.00
276.9120, 13161.00
278.1230, 13140.09
279.3340, 13176.00
280.5450, 13193.00
281.7560, 13110.00
282.9670, 13173.00
284.1780, 13023.00
285.3880, 13091.00
286.5980, 12819.00
287.8090, 12862.00
289.0190, 12738.00
290.2290, 12547.00
291.4380, 12648.00
292.6480, 12614.00
293.8570, 12742.00
295.0670, 12667.00
296.2760, 12901.00
297.4850, 13045.00
298.6930, 13006.00
299.9020, 13211.00
301.1110, 13492.00
302.3190, 13626.00
303.5270, 13881.00
304.7350, 14219.00
305.9430, 14801.00
307.1510, 15420.00
308.3580, 16167.25
309.5660, 16936.00
310.7730, 18020.00
311.9800, 19382.00
313.1870, 20621.00
314.3940, 21756.00
315.6010, 22729.00
316.8070, 23796.00
318.0130, 24981.00
319.2200, 24985.00
320.4260, 23583.00
321.6310, 21788.00
322.8370, 19534.00
324.0430, 17777.00
325.2480, 16054.00
326.4540, 14571.00
327.6590, 13541.00
328.8640, 12948.00
330.0680, 12445.00
331.2730, 12358.00
332.4780, 12219.00
333.6820, 12180.00
334.8860, 12097.00
336.0900, 11975.00
337.2940, 11929.00
338.4980, 11922.00
339.7010, 11844.00
340.9050, 11839.00
342.1080, 11850.00
343.3110, 11802.00
344.5140, 11821.00
345.7170, 11803.00
346.9200, 11657.00
348.1220, 11639.00
349.3240, 11658.00
350.5270, 11472.00
351.7290, 11454.00
352.9310, 11361.00
354.1320, 11301.05
355.3340, 11309.00
356.5350, 11240.00
357.7370, 11165.00
358.9380, 11159.00
360.1390, 11195.00
361.3400, 11088.00
362.5400, 11013.00
363.7410, 11229.00
364.9410, 11245.00
366.1410, 11024.00
367.3410, 11306.00
368.5410, 11123.00
369.7410, 11108.00
370.9400, 11176.00
372.1400, 11332.00
373.3390, 11365.00
374.5380, 11421.00
375.7370, 11478.00
376.9360, 11752.00
378.1350, 11998.00
379.3330, 12202.00
380.5310, 12754.00
381.7300, 13313.00
382.9280, 14332.91
384.1260, 15305.00
385.3230, 16957.00
386.5210, 18527.00
387.7180, 20360.00
388.9160, 22197.00
390.1130, 24540.00
391.3100, 26708.00
392.5060, 27799.00
393.7030, 28090.00
394.9000, 27072.00
396.0960, 25315.00
397.2920, 23318.00
398.4880, 21089.00
399.6840, 19255.00
400.8800, 18185.00
402.0750, 16799.25
403.2710, 15829.00
404.4660, 15255.00
405.6610, 15073.00
406.8560, 14973.00
408.0510, 15004.00
409.2450, 15063.00
410.4400, 15161.00
411.6340, 15450.00
412.8280, 15751.00
414.0220, 15840.00
415.2160, 15892.00
416.4100, 15951.00
417.6030, 15958.00
418.7970, 15664.02
419.9900, 15806.00
421.1830, 14943.00
422.3760, 14691.00
423.5690, 14318.00
424.7610, 14086.00
425.9540, 13853.00
427.1460, 13705.00
428.3380, 13652.00
429.5300, 13909.00
430.7220, 13996.00
431.9140, 14438.00
433.1050, 14952.00
434.2970, 15493.00
435.4880, 15997.00
436.6790, 16895.00
437.8700, 17573.00
439.0610, 18063.00
440.2510, 18159.00
441.4420, 17779.00
442.6320, 17091.00
443.8220, 16378.00
445.0120, 15483.00
446.2020, 14552.00
447.3910, 13948.00
448.5810, 13401.00
449.7700, 12893.00
450.9600, 12739.00
452.1490, 12451.00
453.3370, 12056.00
454.5260, 12131.00
455.7150, 11997.00
456.9030, 11982.00
458.0910, 11903.00
459.2800, 11824.00
460.4670, 11799.00
461.6550, 11778.00
462.8430, 11717.00
464.0300, 11599.00
465.2180, 11767.00
466.4050, 11414.00
467.5920, 11556.00
468.7790, 11622.00
469.9650, 11545.00
471.1520, 11684.00
472.3380, 11686.00
473.5250, 11664.00
474.7110, 11916.00
475.8970, 11922.00
477.0820, 12097.00
478.2680, 12204.00
479.4540, 12094.00
480.6390, 12152.00
481.8240, 12175.00
483.0090, 12302.00
484.1940, 12339.00
485.3780, 12428.00
486.5630, 12587.00
487.7470, 12453.00
488.9320, 12345.00
490.1160, 12434.00
491.3000, 12407.00
492.4830, 12314.00
493.6670, 12239.00
494.8500, 12199.00
496.0340, 12262.00
497.2170, 12402.00
498.4000, 12298.00
499.5820, 12467.00
500.7650, 12517.00
501.9480, 12513.00
503.1300, 12599.00
504.3120, 12607.00
505.4940, 12594.00
506.6760, 12495.00
507.8580, 12574.00
509.0390, 12734.00
510.2210, 12760.00
511.4020, 12905.00
512.5830, 12954.00
513.7640, 12883.00
514.9450, 12996.00
516.1250, 13145.00
517.3060, 13250.00
518.4860, 13544.00
519.6660, 13443.00
520.8460, 13650.00
522.0260, 13649.00
523.2060, 13900.00
524.3850, 13818.00
525.5650, 13818.00
526.7440, 13717.00
527.9230, 13708.00
529.1020, 13437.00
530.2810, 13147.00
531.4590, 13236.00
532.6380, 13056.00
533.8160, 12949.00
534.9940, 12773.00
536.1720, 12768.00
537.3500, 12644.00
538.5270, 12521.00
539.7050, 12421.00
540.8820, 12300.00
542.0590, 12378.00
543.2360, 12220.00
544.4130, 12235.00
545.5900, 12073.00
546.7660, 12109.00
547.9430, 12001.00
549.1190, 11984.00
550.2950, 11870.00
551.4710, 11980.00
552.6470, 12000.00
553.8220, 12162.00
554.9980, 12231.00
556.1730, 12202.00
557.3480, 12427.00
558.5230, 12364.00
559.6980, 12513.00
560.8730, 12443.00
562.0470, 12406.00
563.2220, 12520.00
564.3960, 12593.00
565.5700, 12759.00
566.7440, 12730.00
567.9170, 12998.00
569.0910, 13197.00
570.2640, 13249.00
571.4380, 13503.00
572.6110, 13697.00
573.7840, 14029.00
574.9570, 14245.00
576.1290, 14538.00
577.3020, 14893.00
578.4740, 15130.00
579.6460, 15444.00
580.8180, 15591.00
581.9900, 15911.00
583.1620, 16180.60
584.3330, 16408.30
585.5040, 16770.00
586.6760, 17017.00
587.8470, 17313.00
589.0180, 17832.00
590.1880, 18098.00
591.3590, 18295.00
592.5290, 18553.00
593.7000, 18600.00
594.8700, 18456.00
596.0400, 18200.00
597.2090, 18124.00
598.3790, 17966.00
599.5490, 17692.00
600.7180, 17596.00
601.8870, 17204.00
603.0560, 16801.00
604.2250, 16693.00
605.3940, 16181.00
606.5620, 16266.00
607.7300, 15979.00
608.8990, 15792.00
610.0670, 15714.00
611.2350, 15817.00
612.4020, 15674.00
613.5700, 15863.00
614.7370, 15932.00
615.9050, 16033.00
617.0720, 15956.00
618.2390, 15933.00
619.4060, 15655.00
620.5720, 15585.00
621.7390, 15211.00
622.9050, 14879.00
624.0710, 14483.00
625.2370, 14320.00
626.4030, 13731.00
627.5690, 13420.00
628.7340, 13325.00
629.9000, 13210.00
631.0650, 13048.00
632.2300, 13041.00
633.3950, 12945.00
634.5600, 13048.00
635.7240, 13202.00
636.8890, 13301.00
638.0530, 13344.00
639.2170, 13334.00
640.3810, 13499.00
641.5450, 13416.00
642.7080, 13685.00
643.8720, 13580.00
645.0350, 13615.00
646.1980, 13584.00
647.3610, 13489.00
648.5240, 13485.00
649.6870, 13492.00
650.8490, 13391.00
652.0120, 13414.00
653.1740, 13397.00
654.3360, 13425.56
655.4980, 13484.00
656.6600, 13572.00
657.8210, 13725.00
658.9830, 13881.00
660.1440, 14368.00
661.3050, 14545.00
662.4660, 15089.00
663.6270, 15484.00
664.7870, 16089.00
665.9480, 16707.00
667.1080, 17814.00
668.2680, 18874.00
669.4280, 20269.00
670.5880, 22253.00
671.7480, 24863.00
672.9070, 28365.00
674.0670, 32725.00
675.2260, 37899.00
676.3850, 43468.00
677.5440, 48987.00
678.7030, 54233.00
679.8610, 58487.00
681.0200, 59177.00
682.1780, 56941.00
683.3360, 52234.00
684.4940, 46348.00
685.6520, 40140.00
686.8090, 34218.00
687.9670, 29659.00
689.1240, 25828.00
690.2810, 23185.00
691.4380, 21347.00
692.5950, 19655.00
693.7520, 18579.00
694.9080, 17620.00
696.0650, 16754.00
697.2210, 16056.00
698.3770, 15560.00
699.5330, 15221.00
700.6880, 14617.00
701.8440, 14484.00
702.9990, 14065.00
704.1550, 13905.00
705.3100, 13730.00
706.4650, 13373.00
707.6190, 13156.00
708.7740, 13006.00
709.9290, 12867.00
711.0830, 12694.00
712.2370, 12673.00
713.3910, 12565.00
714.5450, 12355.00
715.6980, 12462.00
716.8520, 12232.00
718.0050, 12263.00
719.1580, 12021.00
720.3110, 12008.00
721.4640, 12139.00
722.6170, 11947.00
723.7700, 11701.00
724.9220, 11940.00
726.0740, 12155.00
727.2260, 12001.49
728.3780, 11942.00
729.5300, 11885.00
730.6810, 11975.00
731.8330, 11895.00
732.9840, 11971.00
734.1350, 12075.00
735.2860, 11965.00
736.4370, 12056.00
737.5880, 11977.00
738.7380, 12042.00
739.8880, 12034.00
741.0390, 12035.00
742.1890, 12042.00
743.3380, 12014.00
744.4880, 12067.49
745.6380, 12149.00
746.7870, 12141.00
747.9360, 12263.00
749.0850, 12256.00
750.2340, 12177.00
751.3830, 12258.00
752.5310, 12214.00
753.6800, 12397.00
754.8280, 12428.00
755.9760, 12606.00
757.1240, 12761.00
758.2720, 13124.00
759.4190, 13403.00
760.5670, 13905.00
761.7140, 14343.00
762.8610, 14699.00
764.0080, 15358.00
765.1550, 15816.00
766.3020, 16342.00
767.4480, 16479.00
768.5950, 16533.00
769.7410, 16056.00
770.8870, 15424.00
772.0330, 15025.00
773.1780, 14428.00
774.3240, 13957.00
775.4690, 13529.00
776.6140, 13190.00
777.7590, 13008.00
778.9040, 12770.00
780.0490, 12589.00
781.1940, 12601.00
782.3380, 12447.00
783.4820, 12324.00
784.6260, 12388.00
785.7700, 12260.00
786.9140, 12226.50
788.0580, 12125.00
789.2010, 12152.00
790.3450, 12028.00
791.4880, 12059.00
792.6310, 12046.00
793.7730, 12034.00
794.9160, 12033.00
796.0590, 12068.53
797.2010, 12085.98
798.3430, 12148.00
799.4850, 12157.00
800.6270, 12167.00
801.7690, 12194.00
802.9100, 12035.00
804.0520, 12157.00
805.1930, 12029.00
806.3340, 12125.00
807.4750, 12193.00
808.6160, 12132.00
809.7560, 12093.00
810.8970, 12259.00
812.0370, 12226.00
813.1770, 12174.00
814.3170, 12150.00
815.4570, 12153.00
816.5960, 12200.00
817.7360, 12187.00
818.8750, 12264.00
820.0140, 12211.00
821.1530, 12192.00
822.2920, 12389.00
823.4310, 12310.00
824.5690, 12310.00
825.7070, 12394.00
826.8460, 12302.00
827.9840, 12360.00
829.1220, 12356.00
830.2590, 12419.00
831.3970, 12416.71
832.5340, 12442.00
833.6710, 12389.00
834.8080, 12415.00
835.9450, 12335.00
837.0820, 12254.00
838.2190, 12546.00
839.3550, 12670.00
840.4910, 12481.00
841.6270, 12593.00
842.7630, 12623.00
843.8990, 12544.00
845.0350, 12760.00
846.1700, 12680.00
847.3060, 12847.00
848.4410, 12755.00
849.5760, 12614.00
850.7100, 12790.00
851.8450, 12652.00
852.9800, 12883.00
854.1140, 12701.00
855.2480, 12779.00
856.3820, 12861.00
857.5160, 12769.00
858.6500, 12941.00
859.7830, 12741.00
860.9170, 12758.00
862.0500, 12720.00
863.1830, 12586.00
864.3160, 12869.00
865.4480, 12815.00
866.5810, 12767.00
867.7130, 12661.00
868.8460, 12777.00
869.9780, 12757.00
871.1100, 12791.00
872.2410, 12826.00
873.3730, 12815.00
874.5050, 12860.00
875.6360, 12835.00
876.7670, 13020.00
877.8980, 12908.00
879.0290, 12938.00
880.1590, 13166.00
881.2900, 13147.94
882.4200, 13421.79
883.5500, 13077.00
884.6800, 13224.57
885.8100, 13286.00
886.9400, 13209.00
888.0690, 13268.00
889.1990, 13232.00
890.3280, 13261.00
891.4570, 13231.00
892.5860, 13288.00
893.7140, 13335.31
894.8430, 13378.00
895.9710, 13488.00
897.1000, 13592.00
898.2280, 13700.00
899.3560, 13649.00
900.4830, 13868.00
901.6110, 14004.88
902.7380, 14093.00
903.8660, 14445.00
904.9930, 14445.00
906.1200, 14701.00
907.2460, 14898.00
908.3730, 15113.00
909.5000, 15171.00
910.6260, 15362.00
911.7520, 15802.00
912.8780, 15710.00
914.0040, 15921.00
915.1290, 15946.00
916.2550, 16010.00
917.3800, 15927.93
918.5050, 15731.00
919.6300, 15573.00
920.7550, 15303.00
921.8800, 15133.64
923.0040, 14912.00
924.1290, 14721.00
925.2530, 14623.00
926.3770, 14395.00
927.5010, 14368.00
928.6250, 14298.00
929.7480, 14115.00
930.8720, 14057.00
931.9950, 14070.00
933.1180, 13866.00
934.2410, 13872.00
935.3640, 13765.00
936.4860, 13693.00
937.6090, 13805.00
938.7310, 13634.00
939.8530, 13604.00
940.9750, 13692.00
942.0970, 13466.00
943.2180, 13666.00
944.3400, 13479.00
945.4610, 13426.00
946.5820, 13390.00
947.7030, 13490.00
948.8240, 13263.00
949.9450, 13428.00
951.0650, 13404.00
952.1860, 13456.00
953.3060, 13450.00
954.4260, 13465.00
955.5460, 13684.00
956.6650, 13454.00
957.7850, 13622.00
958.9040, 13539.00
960.0230, 13709.00
961.1420, 13779.00
962.2610, 13695.00
963.3800, 13778.00
964.4990, 13842.00
965.6170, 13807.00
966.7350, 13824.00
967.8530, 13999.00
968.9710, 14151.00
970.0890, 14091.99
971.2070, 14206.24
972.3240, 14109.00
973.4410, 14202.00
974.5580, 14449.00
975.6750, 14355.00
976.7920, 14294.00
977.9090, 14381.00
979.0250, 14333.00
980.1410, 14635.00
981.2580, 14672.00
982.3740, 14632.00
983.4890, 14852.00
984.6050, 14923.00
985.7200, 14929.00
986.8360, 15200.00
987.9510, 15294.00
989.0660, 15485.00
990.1810, 15740.00
991.2950, 15926.00
992.4100, 16247.00
993.5240, 16345.00
994.6390, 16707.00
995.7530, 17092.00
996.8660, 17574.00
997.9800, 17802.00
999.0940, 18080.00
1000.207, 18323.00
1001.320, 18497.90
1002.433, 18924.00
1003.546, 18816.00
1004.659, 18862.00
1005.772, 18983.00
1006.884, 18792.00
1007.996, 18729.00
1009.108, 18713.00
1010.220, 18478.41
1011.332, 18235.21
1012.444, 18040.00
1013.555, 17566.00
1014.666, 17225.00
1015.777, 16901.00
1016.888, 16661.94
1017.999, 16587.00
1019.110, 16313.00
1020.220, 16208.00
1021.331, 16044.00
1022.441, 15945.00
1023.551, 15980.00
1024.661, 15878.00
1025.770, 15757.00
1026.880, 15650.00
1027.989, 15583.09
1029.098, 15409.00
1030.207, 15450.00
1031.316, 15417.00
1032.425, 15330.00
1033.533, 15500.00
1034.642, 15319.00
1035.750, 15291.00
1036.858, 15089.00
1037.966, 15131.00
1039.073, 15111.40
1040.181, 15174.00
1041.288, 15207.00
1042.396, 15216.00
1043.503, 15313.00
1044.610, 15267.71
1045.716, 15283.43
1046.823, 15245.00
1047.929, 15298.00
1049.036, 15363.00
1050.142, 15485.00
1051.248, 15658.00
1052.353, 15901.00
1053.459, 15955.00
1054.564, 16321.00
1055.670, 16520.00
1056.775, 16819.00
1057.880, 17294.00
1058.985, 17667.00
1060.089, 18129.00
1061.194, 18642.00
1062.298, 19162.00
1063.402, 19601.00
1064.506, 19884.00
1065.610, 20111.00
1066.713, 19860.00
1067.817, 19533.00
1068.920, 19339.00
1070.023, 18847.00
1071.126, 18378.00
1072.229, 18208.00
1073.332, 17912.00
1074.435, 17437.00
1075.537, 17287.04
1076.639, 17206.00
1077.741, 16901.00
1078.843, 16544.00
1079.945, 16541.00
1081.046, 16263.00
1082.148, 16042.00
1083.249, 16031.00
1084.350, 16151.00
1085.451, 16148.00
1086.551, 15763.00
1087.652, 15509.00
1088.752, 15416.00
1089.853, 15437.00
1090.953, 15298.00
1092.053, 15279.00
1093.152, 15231.00
1094.252, 15216.00
1095.351, 15113.00
1096.451, 15042.00
1097.550, 14846.00
1098.649, 14863.00
1099.748, 14773.00
1100.846, 14696.00
1101.945, 14784.00
1103.043, 14814.00
1104.141, 14736.00
1105.239, 14737.00
1106.337, 14710.00
1107.434, 14694.00
1108.532, 14659.00
1109.629, 14608.18
1110.726, 14732.00
1111.823, 14560.00
1112.920, 14494.00
1114.017, 14617.00
1115.113, 14620.00
1116.210, 14787.00
1117.306, 14721.00
1118.402, 14718.00
1119.498, 14654.00
1120.593, 14690.00
1121.689, 14926.00
1122.784, 14892.00
1123.879, 14850.00
1124.974, 14647.00
1126.069, 14524.00
1127.164, 14669.00
1128.259, 14827.00
1129.353, 14717.00
1130.447, 14639.00
1131.541, 14675.00
1132.635, 14437.00
1133.729, 14585.00
1134.822, 14569.00
1135.916, 14643.00
1137.009, 14385.00
1138.102, 14272.00
1139.195, 14439.00
1140.288, 14319.00
1141.380, 14368.00
1142.473, 14314.00
1143.565, 14373.00
1144.657, 14431.00
1145.749, 14463.00
1146.841, 14357.00
1147.932, 14251.00
1149.024, 14277.00
1150.115, 14304.00
1151.206, 14286.24
1152.297, 14247.00
1153.388, 14389.00
1154.479, 14302.00
1155.569, 14474.00
1156.659, 14403.00
1157.750, 14364.00
1158.839, 14417.00
1159.929, 14285.00
1161.019, 14539.00
1162.108, 14491.00
1163.198, 14560.00
1164.287, 14525.00
1165.376, 14536.00
1166.465, 14519.00
1167.553, 14492.00
1168.642, 14677.00
1169.730, 14624.00
1170.818, 14773.00
1171.906, 14678.00
1172.994, 14592.00
1174.082, 14722.00
1175.170, 14926.00
1176.257, 14755.00
1177.344, 14883.00
1178.431, 14992.00
1179.518, 15002.00
1180.605, 15145.00
1181.691, 15204.67
1182.778, 15142.00
1183.864, 15368.00
1184.950, 15243.00
1186.036, 15305.00
1187.122, 15433.00
1188.207, 15404.00
1189.292, 15563.00
1190.378, 15601.00
1191.463, 15486.00
1192.548, 15570.00
1193.632, 15601.00
1194.717, 15634.00
1195.801, 15672.00
1196.886, 15625.00
1197.970, 15765.00
1199.054, 15803.00
1200.137, 15697.00
1201.221, 15880.00
1202.305, 15777.00
1203.388, 15820.00
1204.471, 16042.00
1205.554, 15925.00
1206.637, 15958.00
1207.719, 16067.00
1208.802, 16068.00
1209.884, 16263.00
1210.966, 16337.00
1212.048, 16690.00
1213.130, 16743.00
1214.212, 17026.00
1215.293, 17095.00
1216.374, 17379.00
1217.456, 17844.00
1218.536, 18158.00
1219.617, 18321.00
1220.698, 18872.00
1221.778, 19145.00
1222.859, 19244.00
1223.939, 19348.00
1225.019, 19414.00
1226.099, 19346.00
1227.178, 19268.00
1228.258, 19070.00
1229.337, 18877.00
1230.417, 18892.00
1231.496, 18991.00
1232.574, 18829.00
1233.653, 18819.00
1234.732, 19055.00
1235.810, 19343.00
1236.888, 19403.00
1237.966, 19938.00
1239.044, 20166.00
1240.122, 20108.00
1241.199, 20167.00
1242.277, 20096.00
1243.354, 19830.00
1244.431, 19273.00
1245.508, 18483.00
1246.585, 18236.00
1247.661, 17878.00
1248.738, 17405.00
1249.814, 17205.00
1250.890, 17185.00
1251.966, 16859.00
1253.042, 16766.00
1254.117, 16695.00
1255.193, 16431.00
1256.268, 16433.00
1257.343, 16373.00
1258.418, 16189.00
1259.493, 16362.00
1260.567, 16226.00
1261.642, 16187.00
1262.716, 16145.00
1263.790, 16258.00
