##NAMES=Beryl
##RRUFFID=R060944
##IDEAL CHEMISTRY=Be_3_Al_2_Si_6_O_18_
##LOCALITY=Habachtal, Salzburg, Austria
##OWNER=RRUFF
##SOURCE=Lawrence W. Snee
##DESCRIPTION=Green hexagonal prisms in a muscovite schist, variety emerald. Note that there are micro inclusions of actinolite. The Raman signal is a mixture of the two phases.
##STATUS=The identification of this mineral has been confirmed by X-ray diffraction and chemical analysis
##URL=rruff.info/R060944
##MEASURED CHEMISTRY=Be_3.00_(Al_1.59_Mg_0.33_Fe^3+^_0.04_Cr^3+^_0.04_)_Σ=2_Si_6.00_O_18_·Na_0.33_ ; bright inclusions are actinolite
##PIN_ID=L01278
##ORIENTATION=Laser parallel to a* (1 0 0). Fiducial mark perpendicular to laser is parallel to c [0 0 1]
130.4390, 18077.00
131.6680, 18041.00
132.8980, 18109.00
134.1270, 18128.92
135.3560, 18214.00
136.5850, 18227.00
137.8140, 18321.00
139.0430, 18350.00
140.2710, 18485.00
141.5000, 18394.00
142.7280, 18435.00
143.9560, 18353.00
145.1840, 18423.00
146.4120, 18602.00
147.6390, 18613.00
148.8670, 18607.00
150.0940, 18745.00
151.3210, 18972.00
152.5490, 18978.00
153.7750, 19145.00
155.0020, 19241.49
156.2290, 19400.00
157.4550, 19417.00
158.6810, 19480.00
159.9080, 19539.00
161.1340, 19497.00
162.3590, 19391.00
163.5850, 19468.00
164.8110, 19446.85
166.0360, 19396.00
167.2610, 19560.00
168.4860, 19611.00
169.7110, 19757.00
170.9360, 19838.00
172.1610, 20017.20
173.3850, 20140.00
174.6100, 20416.00
175.8340, 20805.00
177.0580, 21057.00
178.2820, 21068.00
179.5050, 21078.00
180.7290, 20755.00
181.9520, 20525.00
183.1760, 20350.00
184.3990, 20094.00
185.6220, 19905.00
186.8450, 20018.00
188.0670, 19921.00
189.2900, 19998.00
190.5120, 20094.00
191.7340, 20027.00
192.9560, 20098.58
194.1780, 19936.00
195.4000, 20100.00
196.6220, 20060.00
197.8430, 19997.00
199.0640, 20043.00
200.2860, 20209.00
201.5070, 20294.00
202.7270, 20317.00
203.9480, 20126.00
205.1690, 20289.00
206.3890, 20076.00
207.6090, 20125.00
208.8290, 20187.00
210.0490, 20340.00
211.2690, 20341.00
212.4890, 20503.00
213.7080, 20650.00
214.9280, 21018.00
216.1470, 21141.00
217.3660, 21545.00
218.5850, 21546.00
219.8030, 21834.00
221.0220, 22134.00
222.2400, 22277.00
223.4590, 22281.00
224.6770, 22093.00
225.8950, 21784.00
227.1120, 21710.00
228.3300, 21686.00
229.5480, 21495.00
230.7650, 21610.00
231.9820, 21608.00
233.1990, 21265.00
234.4160, 21095.00
235.6330, 20892.00
236.8490, 20829.00
238.0660, 20840.00
239.2820, 20947.00
240.4980, 20514.00
241.7140, 20780.00
242.9300, 20803.00
244.1460, 20665.00
245.3610, 20865.00
246.5770, 20932.00
247.7920, 20775.00
249.0070, 20884.00
250.2220, 20819.00
251.4370, 20840.00
252.6510, 20719.00
253.8660, 20633.00
255.0800, 20477.00
256.2940, 20446.00
257.5080, 20453.00
258.7220, 20687.00
259.9360, 20740.00
261.1490, 20669.00
262.3630, 20368.00
263.5760, 20532.00
264.7890, 20283.00
266.0020, 20510.00
267.2150, 20640.00
268.4270, 20714.00
269.6400, 20571.00
270.8520, 20592.00
272.0640, 20388.00
273.2760, 20321.00
274.4880, 20559.00
275.7000, 20561.00
276.9120, 20471.00
278.1230, 20580.00
279.3340, 20459.00
280.5450, 20613.00
281.7560, 20631.00
282.9670, 20660.00
284.1780, 20670.00
285.3880, 20651.00
286.5980, 20789.00
287.8090, 20975.00
289.0190, 20908.00
290.2290, 20960.00
291.4380, 20717.00
292.6480, 20926.00
293.8570, 20979.00
295.0670, 20882.00
296.2760, 21005.00
297.4850, 21147.00
298.6930, 21175.00
299.9020, 21103.00
301.1110, 21266.00
302.3190, 21388.00
303.5270, 21361.00
304.7350, 21559.00
305.9430, 21566.00
307.1510, 21437.00
308.3580, 21643.00
309.5660, 21706.00
310.7730, 22165.00
311.9800, 22143.00
313.1870, 22641.00
314.3940, 23055.00
315.6010, 23587.00
316.8070, 24002.00
318.0130, 24773.00
319.2200, 25827.00
320.4260, 26964.00
321.6310, 28556.00
322.8370, 29748.00
324.0430, 30172.00
325.2480, 29840.00
326.4540, 28390.00
327.6590, 26604.00
328.8640, 25319.00
330.0680, 24077.00
331.2730, 23089.00
332.4780, 22471.00
333.6820, 22349.00
334.8860, 22060.00
336.0900, 21645.00
337.2940, 21710.00
338.4980, 21689.00
339.7010, 21771.00
340.9050, 21585.00
342.1080, 21885.00
343.3110, 21743.00
344.5140, 21591.00
345.7170, 21670.00
346.9200, 21906.00
348.1220, 21640.00
349.3240, 21673.00
350.5270, 21595.00
351.7290, 21583.00
352.9310, 21593.00
354.1320, 21627.80
355.3340, 21649.25
356.5350, 21795.00
357.7370, 21758.00
358.9380, 21887.00
360.1390, 22013.00
361.3400, 21965.00
362.5400, 22044.00
363.7410, 22275.00
364.9410, 22400.00
366.1410, 22431.00
367.3410, 22198.00
368.5410, 22548.00
369.7410, 22398.00
370.9400, 22450.00
372.1400, 22489.00
373.3390, 22429.00
374.5380, 22243.00
375.7370, 22260.00
376.9360, 22335.00
378.1350, 22707.00
379.3330, 22648.00
380.5310, 22799.00
381.7300, 23158.00
382.9280, 23082.00
384.1260, 23221.00
385.3230, 23941.00
386.5210, 24268.00
387.7180, 24794.00
388.9160, 25552.00
390.1130, 26346.00
391.3100, 27392.00
392.5060, 28251.00
393.7030, 29474.00
394.9000, 30580.00
396.0960, 31798.00
397.2920, 32063.00
398.4880, 32249.00
399.6840, 31004.00
400.8800, 29732.00
402.0750, 28291.00
403.2710, 26720.00
404.4660, 25909.00
405.6610, 25128.00
406.8560, 24491.00
408.0510, 24025.57
409.2450, 23843.00
410.4400, 23343.00
411.6340, 23120.00
412.8280, 22880.00
414.0220, 22633.00
415.2160, 22591.00
416.4100, 22539.00
417.6030, 22356.00
418.7970, 22298.00
419.9900, 22390.00
421.1830, 22308.00
422.3760, 22379.00
423.5690, 22131.00
424.7610, 22366.00
425.9540, 22237.00
427.1460, 22424.00
428.3380, 22197.00
429.5300, 22288.00
430.7220, 22388.00
431.9140, 22396.00
433.1050, 22507.00
434.2970, 22386.00
435.4880, 22513.00
436.6790, 22474.00
437.8700, 22415.00
439.0610, 22497.00
440.2510, 22236.00
441.4420, 22378.00
442.6320, 22467.00
443.8220, 22378.00
445.0120, 22238.00
446.2020, 22269.00
447.3910, 22161.00
448.5810, 22257.00
449.7700, 22266.00
450.9600, 22193.00
452.1490, 22179.00
453.3370, 22109.00
454.5260, 21973.00
455.7150, 22328.00
456.9030, 22112.00
458.0910, 22162.00
459.2800, 22054.00
460.4670, 22051.00
461.6550, 22187.00
462.8430, 22065.00
464.0300, 22229.00
465.2180, 22024.00
466.4050, 22273.00
467.5920, 22072.00
468.7790, 22209.00
469.9650, 22054.00
471.1520, 22323.00
472.3380, 22590.00
473.5250, 22388.00
474.7110, 22490.00
475.8970, 22485.00
477.0820, 22693.00
478.2680, 22460.00
479.4540, 22558.00
480.6390, 22446.00
481.8240, 22670.00
483.0090, 22612.00
484.1940, 22710.00
485.3780, 22541.00
486.5630, 22585.00
487.7470, 22673.00
488.9320, 22543.00
490.1160, 22464.00
491.3000, 22690.00
492.4830, 22872.00
493.6670, 22709.00
494.8500, 22680.00
496.0340, 22771.00
497.2170, 22570.00
498.4000, 22791.00
499.5820, 22742.00
500.7650, 22757.00
501.9480, 22787.00
503.1300, 23032.00
504.3120, 23049.00
505.4940, 23076.00
506.6760, 23036.00
507.8580, 23258.00
509.0390, 23112.00
510.2210, 23364.00
511.4020, 23493.00
512.5830, 23573.00
513.7640, 23749.19
514.9450, 23903.00
516.1250, 23983.00
517.3060, 24134.00
518.4860, 24227.00
519.6660, 24215.00
520.8460, 24218.00
522.0260, 24356.00
523.2060, 24239.79
524.3850, 24224.00
525.5650, 24113.00
526.7440, 23977.00
527.9230, 23964.00
529.1020, 23575.00
530.2810, 23407.00
531.4590, 23471.00
532.6380, 23313.00
533.8160, 23401.00
534.9940, 23263.00
536.1720, 23223.00
537.3500, 23091.00
538.5270, 23059.00
539.7050, 23016.60
540.8820, 23233.00
542.0590, 23005.00
543.2360, 23014.00
544.4130, 23092.00
545.5900, 22961.00
546.7660, 23006.00
547.9430, 22892.00
549.1190, 23049.00
550.2950, 22944.00
551.4710, 23033.00
552.6470, 23171.00
553.8220, 23171.00
554.9980, 23122.00
556.1730, 23270.00
557.3480, 23289.00
558.5230, 23302.00
559.6980, 23338.00
560.8730, 23267.00
562.0470, 23269.00
563.2220, 23282.00
564.3960, 23408.00
565.5700, 23365.00
566.7440, 23423.00
567.9170, 23323.00
569.0910, 23352.00
570.2640, 23311.00
571.4380, 23612.00
572.6110, 23671.00
573.7840, 23373.00
574.9570, 23687.00
576.1290, 23601.00
577.3020, 23618.00
578.4740, 23702.00
579.6460, 23668.00
580.8180, 23531.00
581.9900, 23724.00
583.1620, 23574.00
584.3330, 23895.00
585.5040, 23632.00
586.6760, 23619.00
587.8470, 23708.00
589.0180, 23668.00
590.1880, 23749.00
591.3590, 23741.00
592.5290, 23727.00
593.7000, 23784.00
594.8700, 23889.00
596.0400, 23853.00
597.2090, 23729.00
598.3790, 23837.00
599.5490, 23913.00
600.7180, 24020.00
601.8870, 24082.00
603.0560, 23891.00
604.2250, 24024.00
605.3940, 24075.00
606.5620, 24210.00
607.7300, 24500.00
608.8990, 24619.00
610.0670, 24973.00
611.2350, 24932.00
612.4020, 25418.00
613.5700, 25629.00
614.7370, 25651.00
615.9050, 25727.00
617.0720, 25565.00
618.2390, 25150.00
619.4060, 25165.00
620.5720, 24622.00
621.7390, 24519.00
622.9050, 24370.00
624.0710, 24184.00
625.2370, 24093.00
626.4030, 24313.00
627.5690, 24244.00
628.7340, 24013.00
629.9000, 24298.00
631.0650, 24214.00
632.2300, 24204.00
633.3950, 24399.00
634.5600, 24224.00
635.7240, 24387.00
636.8890, 24178.00
638.0530, 24418.00
639.2170, 24339.00
640.3810, 24580.00
641.5450, 24576.00
642.7080, 24785.00
643.8720, 24664.00
645.0350, 24791.00
646.1980, 24762.00
647.3610, 24944.00
648.5240, 24862.00
649.6870, 25128.00
650.8490, 25352.00
652.0120, 25338.00
653.1740, 25690.00
654.3360, 25852.00
655.4980, 25686.00
656.6600, 26027.00
657.8210, 26199.00
658.9830, 26276.00
660.1440, 26891.00
661.3050, 26945.00
662.4660, 27527.00
663.6270, 28251.00
664.7870, 28877.00
665.9480, 29640.00
667.1080, 30785.00
668.2680, 31771.00
669.4280, 32946.00
670.5880, 34519.00
671.7480, 35150.00
672.9070, 35827.00
674.0670, 36204.00
675.2260, 36379.00
676.3850, 36674.00
677.5440, 37274.00
678.7030, 38797.00
679.8610, 40983.00
681.0200, 43684.00
682.1780, 47700.00
683.3360, 52312.00
684.4940, 57259.00
685.6520, 61307.00
686.8090, 62262.00
687.9670, 60809.00
689.1240, 56608.00
690.2810, 50969.00
691.4380, 45727.00
692.5950, 41355.00
693.7520, 37348.00
694.9080, 34940.00
696.0650, 32998.00
697.2210, 31446.00
698.3770, 30178.00
699.5330, 29354.00
700.6880, 28700.00
701.8440, 27955.00
702.9990, 27755.00
704.1550, 27456.00
705.3100, 26911.00
706.4650, 26802.00
707.6190, 26589.00
708.7740, 26324.00
709.9290, 26185.00
711.0830, 25850.00
712.2370, 25867.00
713.3910, 25782.00
714.5450, 25476.00
715.6980, 25522.00
716.8520, 25335.00
718.0050, 25347.00
719.1580, 25284.00
720.3110, 25427.00
721.4640, 25352.00
722.6170, 25056.00
723.7700, 25361.00
724.9220, 25114.00
726.0740, 25180.00
727.2260, 25025.00
728.3780, 25200.00
729.5300, 25055.00
730.6810, 25149.00
731.8330, 25236.00
732.9840, 25152.00
734.1350, 25121.00
735.2860, 25296.00
736.4370, 25162.00
737.5880, 25223.00
738.7380, 25235.00
739.8880, 25197.00
741.0390, 25310.00
742.1890, 25361.00
743.3380, 25129.00
744.4880, 25243.00
745.6380, 25273.00
746.7870, 25400.00
747.9360, 25351.00
749.0850, 25360.04
750.2340, 25218.00
751.3830, 25202.00
752.5310, 25327.00
753.6800, 25089.00
754.8280, 25107.00
755.9760, 25348.00
757.1240, 25221.00
758.2720, 25314.00
759.4190, 25339.00
760.5670, 25345.00
761.7140, 25370.16
762.8610, 25352.00
764.0080, 25355.00
765.1550, 25276.00
766.3020, 25249.00
767.4480, 25364.00
768.5950, 25310.00
769.7410, 25438.00
770.8870, 25402.00
772.0330, 25338.00
773.1780, 25306.00
774.3240, 25385.00
775.4690, 25409.00
776.6140, 25427.55
777.7590, 25200.00
778.9040, 25486.00
780.0490, 25580.00
781.1940, 25622.00
782.3380, 25348.00
783.4820, 25338.00
784.6260, 25450.00
785.7700, 25223.00
786.9140, 25339.00
788.0580, 25619.00
789.2010, 25472.15
790.3450, 25422.00
791.4880, 25472.00
792.6310, 25403.00
793.7730, 25419.00
794.9160, 25418.00
796.0590, 25456.00
797.2010, 25371.00
798.3430, 25414.00
799.4850, 25525.00
800.6270, 25648.00
801.7690, 25615.00
802.9100, 25386.00
804.0520, 25503.00
805.1930, 25527.00
806.3340, 25726.00
807.4750, 25617.00
808.6160, 25391.00
809.7560, 25501.00
810.8970, 25442.00
812.0370, 25792.00
813.1770, 25616.00
814.3170, 25702.00
815.4570, 25336.00
816.5960, 25549.00
817.7360, 25782.00
818.8750, 25709.00
820.0140, 25517.00
821.1530, 25819.00
822.2920, 25827.00
823.4310, 25506.00
824.5690, 25704.00
825.7070, 25691.00
826.8460, 25639.00
827.9840, 25737.00
829.1220, 25830.00
830.2590, 25942.00
831.3970, 25807.00
832.5340, 25659.00
833.6710, 25771.00
834.8080, 25744.00
835.9450, 25789.00
837.0820, 25690.00
838.2190, 25897.00
839.3550, 25898.00
840.4910, 26056.00
841.6270, 25943.00
842.7630, 25829.00
843.8990, 25859.00
845.0350, 25992.00
846.1700, 25942.00
847.3060, 25973.00
848.4410, 26371.00
849.5760, 26046.00
850.7100, 25875.00
851.8450, 25932.00
852.9800, 26226.00
854.1140, 26037.00
855.2480, 25952.00
856.3820, 26199.00
857.5160, 26112.00
858.6500, 25989.00
859.7830, 26200.00
860.9170, 25918.00
862.0500, 26178.00
863.1830, 26128.00
864.3160, 26163.00
865.4480, 26287.00
866.5810, 26158.00
867.7130, 26320.00
868.8460, 26214.00
869.9780, 26426.00
871.1100, 26246.00
872.2410, 26096.00
873.3730, 26262.00
874.5050, 26249.00
875.6360, 26190.00
876.7670, 26313.00
877.8980, 26103.00
879.0290, 26392.00
880.1590, 26315.00
881.2900, 26269.00
882.4200, 26109.00
883.5500, 26252.00
884.6800, 26296.00
885.8100, 26438.00
886.9400, 26358.00
888.0690, 26221.00
889.1990, 26415.00
890.3280, 26356.00
891.4570, 26457.00
892.5860, 26488.00
893.7140, 26416.00
894.8430, 26438.00
895.9710, 26611.00
897.1000, 26618.00
898.2280, 26568.00
899.3560, 26423.00
900.4830, 26616.00
901.6110, 26616.00
902.7380, 26877.00
903.8660, 26792.00
904.9930, 26608.00
906.1200, 26738.00
907.2460, 26789.00
908.3730, 26897.00
909.5000, 27158.00
910.6260, 26788.00
911.7520, 26885.00
912.8780, 26721.00
914.0040, 26933.00
915.1290, 26988.00
916.2550, 27118.00
917.3800, 27086.00
918.5050, 27057.00
919.6300, 27066.00
920.7550, 27301.00
921.8800, 27196.00
923.0040, 27420.00
924.1290, 27548.00
925.2530, 27454.00
926.3770, 27762.00
927.5010, 27352.00
928.6250, 27573.00
929.7480, 27625.00
930.8720, 27560.00
931.9950, 27459.00
933.1180, 27388.00
934.2410, 27494.00
935.3640, 27271.00
936.4860, 27413.00
937.6090, 27204.00
938.7310, 27214.00
939.8530, 27321.00
940.9750, 27345.00
942.0970, 27409.00
943.2180, 27332.00
944.3400, 27214.00
945.4610, 27465.00
946.5820, 27383.00
947.7030, 27249.00
948.8240, 27439.00
949.9450, 27403.00
951.0650, 27519.00
952.1860, 27385.00
953.3060, 27224.00
954.4260, 27350.00
955.5460, 27309.00
956.6650, 27343.00
957.7850, 27281.00
958.9040, 27279.00
960.0230, 27227.00
961.1420, 27388.00
962.2610, 27595.00
963.3800, 27348.00
964.4990, 27366.00
965.6170, 27324.00
966.7350, 27528.00
967.8530, 27248.00
968.9710, 27510.00
970.0890, 27448.00
971.2070, 27496.00
972.3240, 27571.00
973.4410, 27649.00
974.5580, 27522.00
975.6750, 27535.00
976.7920, 27573.71
977.9090, 27665.00
979.0250, 27676.00
980.1410, 27751.00
981.2580, 27839.00
982.3740, 27735.00
983.4890, 27666.00
984.6050, 28073.00
985.7200, 27996.00
986.8360, 28030.00
987.9510, 28063.00
989.0660, 28201.00
990.1810, 28226.00
991.2950, 28485.00
992.4100, 28585.00
993.5240, 28535.00
994.6390, 28802.00
995.7530, 28770.00
996.8660, 28821.00
997.9800, 29076.00
999.0940, 28971.00
1000.207, 29264.00
1001.320, 29394.00
1002.433, 29443.00
1003.546, 29474.00
1004.659, 29658.00
1005.772, 29799.00
1006.884, 29817.00
1007.996, 29839.00
1009.108, 29901.00
1010.220, 30123.00
1011.332, 30080.00
1012.444, 30244.00
1013.555, 30270.00
1014.666, 30401.00
1015.777, 30341.00
1016.888, 30347.00
1017.999, 30412.00
1019.110, 30299.00
1020.220, 30646.00
1021.331, 30708.00
1022.441, 30662.00
1023.551, 30751.00
1024.661, 30937.00
1025.770, 30768.00
1026.880, 30873.00
1027.989, 31173.00
1029.098, 31018.00
1030.207, 30984.00
1031.316, 30920.00
1032.425, 30862.00
1033.533, 31029.00
1034.642, 30971.00
1035.750, 31224.00
1036.858, 31189.00
1037.966, 31216.00
1039.073, 31430.00
1040.181, 31585.00
1041.288, 31972.00
1042.396, 31874.00
1043.503, 32306.00
1044.610, 32893.00
1045.716, 32967.00
1046.823, 33472.00
1047.929, 34331.00
1049.036, 34786.00
1050.142, 35718.00
1051.248, 36599.00
1052.353, 37587.00
1053.459, 38605.00
1054.564, 39588.00
1055.670, 41196.00
1056.775, 42643.00
1057.880, 44280.00
1058.985, 46242.00
1060.089, 48132.00
1061.194, 50439.00
1062.298, 52522.00
1063.402, 54716.00
1064.506, 57075.00
1065.610, 58389.00
1066.713, 59500.00
1067.817, 60152.00
1068.920, 60061.00
1070.023, 60115.00
1071.126, 59191.00
1072.229, 58303.00
1073.332, 56899.00
1074.435, 55166.00
1075.537, 53442.00
1076.639, 51288.00
1077.741, 49202.00
1078.843, 47204.00
1079.945, 45567.00
1081.046, 44145.00
1082.148, 42862.00
1083.249, 41539.00
1084.350, 40677.00
1085.451, 39638.00
1086.551, 39209.00
1087.652, 37907.00
1088.752, 37635.00
1089.853, 36885.00
1090.953, 36317.00
1092.053, 36189.00
1093.152, 35768.00
1094.252, 35333.00
1095.351, 35033.00
1096.451, 34823.00
1097.550, 34438.00
1098.649, 34232.00
1099.748, 34042.00
1100.846, 33785.00
1101.945, 33723.00
1103.043, 33400.00
1104.141, 33553.00
1105.239, 33225.00
1106.337, 33107.00
1107.434, 32909.00
1108.532, 32807.00
1109.629, 32588.00
1110.726, 32946.00
1111.823, 32589.00
1112.920, 32880.00
1114.017, 32600.00
1115.113, 32615.00
1116.210, 32932.00
1117.306, 32790.00
1118.402, 33061.00
1119.498, 33281.00
1120.593, 33201.00
1121.689, 33292.00
1122.784, 33163.00
1123.879, 33410.00
1124.974, 33558.00
1126.069, 33235.00
1127.164, 33387.00
1128.259, 33189.00
1129.353, 33118.00
1130.447, 33119.00
1131.541, 32930.96
1132.635, 32782.00
1133.729, 32617.00
1134.822, 32483.00
1135.916, 32227.00
1137.009, 32067.91
1138.102, 32040.00
1139.195, 31759.00
1140.288, 31491.00
1141.380, 31513.00
1142.473, 31299.00
1143.565, 31249.00
1144.657, 31010.00
1145.749, 30851.00
1146.841, 30884.00
1147.932, 30614.00
1149.024, 30842.00
1150.115, 30578.00
1151.206, 30408.00
1152.297, 30410.00
1153.388, 30071.00
1154.479, 30143.00
1155.569, 30162.00
1156.659, 30037.00
1157.750, 30030.07
1158.839, 29848.00
1159.929, 29889.00
1161.019, 29856.00
1162.108, 29835.00
1163.198, 29651.00
1164.287, 29728.00
1165.376, 29557.00
1166.465, 29606.00
1167.553, 29700.00
1168.642, 29667.00
1169.730, 29562.00
1170.818, 29489.00
1171.906, 29504.50
1172.994, 29388.00
1174.082, 29554.00
1175.170, 29568.00
1176.257, 29618.67
1177.344, 29581.00
1178.431, 29595.00
1179.518, 29402.00
1180.605, 29353.00
1181.691, 29513.00
1182.778, 29625.00
1183.864, 29437.00
1184.950, 29330.00
1186.036, 29464.00
1187.122, 29513.00
1188.207, 29208.00
1189.292, 29657.00
1190.378, 29452.00
1191.463, 29210.00
1192.548, 29368.00
1193.632, 29499.00
1194.717, 29268.00
1195.801, 29534.00
1196.886, 29268.00
1197.970, 29362.00
1199.054, 29513.00
1200.137, 29031.00
1201.221, 29511.00
1202.305, 29606.00
1203.388, 29577.00
1204.471, 29409.00
1205.554, 29161.00
1206.637, 29320.00
1207.719, 29542.00
1208.802, 29520.00
1209.884, 29240.00
1210.966, 29448.00
1212.048, 29463.00
1213.130, 29393.00
1214.212, 29493.00
1215.293, 29442.00
1216.374, 29440.00
1217.456, 29581.00
1218.536, 29373.00
1219.617, 29485.00
1220.698, 29584.00
1221.778, 29444.00
1222.859, 29416.00
1223.939, 29488.00
1225.019, 29470.00
1226.099, 29564.00
1227.178, 29439.00
1228.258, 29569.00
1229.337, 29457.00
1230.417, 29516.00
1231.496, 29461.00
1232.574, 29516.00
1233.653, 29589.00
1234.732, 29349.00
1235.810, 29552.00
1236.888, 29635.00
1237.966, 29520.00
1239.044, 29640.00
1240.122, 29650.00
1241.199, 29639.00
1242.277, 29585.00
1243.354, 29564.29
1244.431, 29585.00
1245.508, 29488.00
1246.585, 29544.00
1247.661, 29543.00
1248.738, 29505.56
1249.814, 29613.00
1250.890, 29477.00
1251.966, 29548.00
1253.042, 29563.00
1254.117, 29536.00
1255.193, 29543.00
1256.268, 29694.00
1257.343, 29518.00
1258.418, 29578.00
1259.493, 29671.00
1260.567, 29577.00
1261.642, 29977.00
1262.716, 29811.00
1263.790, 29731.00
1264.864, 29598.00
1265.938, 29910.00
1267.011, 29798.00
1268.085, 29672.00
1269.158, 29839.00
1270.231, 29622.00
1271.304, 29789.00
1272.377, 29663.00
1273.450, 29638.00
1274.522, 29731.00
1275.594, 29572.00
1276.666, 30018.00
1277.738, 29699.00
1278.810, 29852.00
1279.882, 29771.00
1280.953, 29802.00
1282.025, 29852.78
1283.096, 29792.00
1284.167, 29867.00
1285.238, 29896.00
1286.308, 29801.00
1287.379, 29844.00
1288.449, 29944.00
1289.519, 30137.00
1290.589, 30076.00
1291.659, 29878.00
1292.729, 30026.00
1293.798, 29966.00
1294.868, 29840.00
1295.937, 29882.00
