##NAMES=Beryl
##RRUFFID=R050305
##IDEAL CHEMISTRY=Be_3_Al_2_Si_6_O_18_
##LOCALITY=Conselheiro Pena, Minas Gerais, Brazil
##OWNER=RRUFF
##SOURCE=Eugene Schlepp
##DESCRIPTION=Light blue fragment, variety aquamarine
##STATUS=The identification of this mineral has been confirmed by X-ray diffraction and chemical analysis
##URL=rruff.info/R050305
##MEASURED CHEMISTRY=(Be_0.91_Li_0.09_)_3_(Al_0.99_Fe^3+^_0.01_)_2_Si_6.00_O_18_Î‡Na_0.27_
##PIN_ID=L01620
##ORIENTATION=Laser parallel to a* (1 0 0). Fiducial mark perpendicular to laser is parallel to -c [0 0 -1]
100.8830, 10700.00
102.1160, 10957.00
103.3490, 11040.00
104.5820, 11366.00
105.8150, 11658.00
107.0470, 12242.00
108.2800, 13047.00
109.5120, 13691.00
110.7440, 13292.00
111.9760, 12766.00
113.2080, 12731.00
114.4400, 13188.00
115.6710, 13674.00
116.9030, 13652.00
118.1340, 13651.00
119.3650, 13721.00
120.5960, 13606.00
121.8270, 13707.00
123.0580, 13974.00
124.2880, 14068.00
125.5190, 13959.00
126.7490, 13820.00
127.9790, 13884.00
129.2090, 14029.00
130.4390, 14130.00
131.6680, 14199.38
132.8980, 14220.00
134.1270, 14330.00
135.3560, 14354.00
136.5850, 14393.00
137.8140, 14521.00
139.0430, 14462.19
140.2710, 14504.46
141.5000, 14401.00
142.7280, 14442.00
143.9560, 14429.00
145.1840, 14298.00
146.4120, 14347.00
147.6390, 14293.00
148.8670, 14162.00
150.0940, 14286.00
151.3210, 14345.00
152.5490, 14310.00
153.7750, 14336.00
155.0020, 14257.00
156.2290, 14210.00
157.4550, 13979.00
158.6810, 14025.00
159.9080, 14053.00
161.1340, 13951.00
162.3590, 14050.00
163.5850, 14031.00
164.8110, 14323.00
166.0360, 14239.00
167.2610, 14306.00
168.4860, 14245.00
169.7110, 14360.00
170.9360, 14314.00
172.1610, 14370.00
173.3850, 14308.00
174.6100, 14227.00
175.8340, 14394.00
177.0580, 14331.00
178.2820, 14349.00
179.5050, 14319.00
180.7290, 14553.00
181.9520, 14587.00
183.1760, 14459.00
184.3990, 14427.00
185.6220, 14364.00
186.8450, 14361.50
188.0670, 14416.00
189.2900, 14388.00
190.5120, 14377.00
191.7340, 14351.00
192.9560, 14347.00
194.1780, 14363.00
195.4000, 14380.00
196.6220, 14377.00
197.8430, 14419.00
199.0640, 14464.00
200.2860, 14507.00
201.5070, 14642.00
202.7270, 14623.00
203.9480, 14699.00
205.1690, 13947.00
206.3890, 13962.00
207.6090, 13808.00
208.8290, 13691.00
210.0490, 13724.00
211.2690, 13713.00
212.4890, 13691.00
213.7080, 13800.00
214.9280, 13746.00
216.1470, 13827.00
217.3660, 13771.00
218.5850, 14047.00
219.8030, 13895.00
221.0220, 13911.00
222.2400, 13975.00
223.4590, 13885.00
224.6770, 14048.00
225.8950, 14175.00
227.1120, 14208.00
228.3300, 14043.00
229.5480, 14198.00
230.7650, 14150.00
231.9820, 14269.00
233.1990, 14254.00
234.4160, 14381.00
235.6330, 14523.00
236.8490, 14472.00
238.0660, 14361.00
239.2820, 14635.00
240.4980, 14528.00
241.7140, 14734.00
242.9300, 14931.00
244.1460, 15081.00
245.3610, 15267.00
246.5770, 15284.00
247.7920, 15236.00
249.0070, 15158.00
250.2220, 15246.00
251.4370, 14965.00
252.6510, 15011.00
253.8660, 14600.00
255.0800, 14656.00
256.2940, 14494.00
257.5080, 14545.50
258.7220, 14539.84
259.9360, 14467.56
261.1490, 14539.00
262.3630, 14404.00
263.5760, 14301.00
264.7890, 14290.00
266.0020, 14345.00
267.2150, 14273.00
268.4270, 14407.00
269.6400, 14452.00
270.8520, 14385.00
272.0640, 14352.00
273.2760, 14326.00
274.4880, 14345.00
275.7000, 14505.00
276.9120, 14500.00
278.1230, 14637.00
279.3340, 14567.00
280.5450, 14601.00
281.7560, 14573.00
282.9670, 14606.00
284.1780, 14844.00
285.3880, 14735.00
286.5980, 14969.00
287.8090, 14923.00
289.0190, 15193.00
290.2290, 15182.00
291.4380, 15227.00
292.6480, 15346.00
293.8570, 15376.00
295.0670, 15389.00
296.2760, 15523.00
297.4850, 15566.00
298.6930, 15584.00
299.9020, 15641.00
301.1110, 15669.00
302.3190, 15540.00
303.5270, 15640.00
304.7350, 15758.00
305.9430, 15603.00
307.1510, 15832.00
308.3580, 15621.00
309.5660, 15991.00
310.7730, 15966.00
311.9800, 16362.00
313.1870, 16443.00
314.3940, 16838.00
315.6010, 17024.00
316.8070, 17618.00
318.0130, 17884.00
319.2200, 18631.00
320.4260, 19291.00
321.6310, 19684.00
322.8370, 20358.00
324.0430, 20596.00
325.2480, 20337.00
326.4540, 19430.00
327.6590, 18868.00
328.8640, 18202.00
330.0680, 17521.00
331.2730, 17053.00
332.4780, 16702.00
333.6820, 16374.97
334.8860, 16105.00
336.0900, 16014.00
337.2940, 15864.00
338.4980, 15749.00
339.7010, 15715.00
340.9050, 15555.00
342.1080, 15554.00
343.3110, 15603.00
344.5140, 15617.00
345.7170, 15640.32
346.9200, 15663.00
348.1220, 15691.00
349.3240, 15706.79
350.5270, 15738.08
351.7290, 15725.00
352.9310, 15764.00
354.1320, 15700.00
355.3340, 15720.00
356.5350, 15690.00
357.7370, 15623.00
358.9380, 15900.00
360.1390, 15734.00
361.3400, 15944.00
362.5400, 15908.00
363.7410, 15927.00
364.9410, 15932.00
366.1410, 15876.00
367.3410, 16163.00
368.5410, 15929.00
369.7410, 16268.00
370.9400, 16009.00
372.1400, 16253.00
373.3390, 16272.00
374.5380, 16458.00
375.7370, 16426.00
376.9360, 16310.00
378.1350, 16438.00
379.3330, 16632.00
380.5310, 16891.00
381.7300, 16815.00
382.9280, 17270.00
384.1260, 17355.93
385.3230, 17430.00
386.5210, 17829.00
387.7180, 18086.00
388.9160, 18522.00
390.1130, 19104.00
391.3100, 19652.00
392.5060, 20310.00
393.7030, 21222.00
394.9000, 22336.00
396.0960, 23523.00
397.2920, 24586.00
398.4880, 25116.00
399.6840, 25455.00
400.8800, 24872.00
402.0750, 24198.00
403.2710, 23153.00
404.4660, 21910.00
405.6610, 20836.00
406.8560, 20072.00
408.0510, 19345.00
409.2450, 18766.00
410.4400, 18344.00
411.6340, 17981.00
412.8280, 18124.00
414.0220, 17946.00
415.2160, 17805.00
416.4100, 17687.00
417.6030, 17622.00
418.7970, 17586.00
419.9900, 17591.00
421.1830, 17541.00
422.3760, 17451.00
423.5690, 17573.00
424.7610, 17375.00
425.9540, 17416.00
427.1460, 17283.00
428.3380, 17400.00
429.5300, 17388.40
430.7220, 17422.68
431.9140, 17480.00
433.1050, 17530.00
434.2970, 17609.00
435.4880, 17639.00
436.6790, 17814.00
437.8700, 17962.00
439.0610, 17912.00
440.2510, 18192.00
441.4420, 18328.00
442.6320, 18316.00
443.8220, 18362.00
445.0120, 18297.00
446.2020, 18415.00
447.3910, 18315.00
448.5810, 18363.00
449.7700, 17997.00
450.9600, 17978.00
452.1490, 17892.00
453.3370, 17892.00
454.5260, 17780.00
455.7150, 17869.00
456.9030, 17918.00
458.0910, 17820.00
459.2800, 17913.00
460.4670, 17849.00
461.6550, 17766.00
462.8430, 17798.00
464.0300, 17664.00
465.2180, 17684.00
466.4050, 17763.00
467.5920, 17644.00
468.7790, 17823.00
469.9650, 17600.00
471.1520, 17763.00
472.3380, 17768.00
473.5250, 17688.00
474.7110, 17694.00
475.8970, 17717.49
477.0820, 17844.00
478.2680, 17809.00
479.4540, 17813.00
480.6390, 17880.00
481.8240, 17765.00
483.0090, 17849.00
484.1940, 18045.00
485.3780, 17903.00
486.5630, 17838.00
487.7470, 18119.00
488.9320, 18052.00
490.1160, 18070.00
491.3000, 18131.00
492.4830, 18114.00
493.6670, 18249.00
494.8500, 18290.00
496.0340, 18251.00
497.2170, 18265.00
498.4000, 18381.00
499.5820, 18286.00
500.7650, 18300.00
501.9480, 18325.00
503.1300, 18470.00
504.3120, 18545.00
505.4940, 18597.00
506.6760, 18673.09
507.8580, 18710.00
509.0390, 18739.00
510.2210, 18819.00
511.4020, 18806.00
512.5830, 19028.00
513.7640, 19071.00
514.9450, 19006.00
516.1250, 19107.00
517.3060, 19481.00
518.4860, 19943.00
519.6660, 19496.00
520.8460, 19731.00
522.0260, 19561.00
523.2060, 19852.00
524.3850, 19666.00
525.5650, 19608.00
526.7440, 19963.00
527.9230, 19835.00
529.1020, 19956.00
530.2810, 19964.00
531.4590, 19901.00
532.6380, 20097.00
533.8160, 19983.00
534.9940, 20007.00
536.1720, 19915.00
537.3500, 19974.00
538.5270, 19781.00
539.7050, 19898.00
540.8820, 19847.00
542.0590, 19700.00
543.2360, 19630.00
544.4130, 19481.00
545.5900, 19406.00
546.7660, 19281.00
547.9430, 19267.00
549.1190, 19380.00
550.2950, 19172.00
551.4710, 19205.00
552.6470, 19029.00
553.8220, 19230.00
554.9980, 18932.00
556.1730, 18966.00
557.3480, 19214.00
558.5230, 18994.00
559.6980, 19154.00
560.8730, 19124.00
562.0470, 19170.00
563.2220, 19171.00
564.3960, 19350.00
565.5700, 19130.00
566.7440, 19199.00
567.9170, 19303.00
569.0910, 19184.00
570.2640, 19431.00
571.4380, 19519.00
572.6110, 19422.00
573.7840, 19405.00
574.9570, 19606.00
576.1290, 19472.00
577.3020, 19460.00
578.4740, 19704.00
579.6460, 19457.00
580.8180, 19374.00
581.9900, 19514.00
583.1620, 19254.00
584.3330, 19486.00
585.5040, 19545.00
586.6760, 19414.00
587.8470, 19456.00
589.0180, 19415.00
590.1880, 19464.00
591.3590, 19521.00
592.5290, 19489.20
593.7000, 19353.00
594.8700, 19459.00
596.0400, 19402.00
597.2090, 19357.00
598.3790, 19413.00
599.5490, 19629.00
600.7180, 19597.00
601.8870, 19669.00
603.0560, 19687.00
604.2250, 19718.00
605.3940, 19727.63
606.5620, 19572.00
607.7300, 19732.00
608.8990, 19665.00
610.0670, 19691.00
611.2350, 19765.00
612.4020, 19812.00
613.5700, 19882.07
614.7370, 20114.00
615.9050, 20045.00
617.0720, 20137.00
618.2390, 20245.00
619.4060, 20136.00
620.5720, 20381.00
621.7390, 20211.00
622.9050, 19972.00
624.0710, 20050.00
625.2370, 20294.00
626.4030, 20152.00
627.5690, 20054.00
628.7340, 19965.00
629.9000, 20048.00
631.0650, 20051.00
632.2300, 20148.00
633.3950, 20200.00
634.5600, 20051.00
635.7240, 20248.00
636.8890, 20221.00
638.0530, 20012.00
639.2170, 20288.00
640.3810, 20431.00
641.5450, 20442.00
642.7080, 20520.00
643.8720, 20487.00
645.0350, 20571.92
646.1980, 20656.00
647.3610, 20653.00
648.5240, 20744.00
649.6870, 20673.00
650.8490, 20689.00
652.0120, 20769.00
653.1740, 20647.00
654.3360, 20788.00
655.4980, 20872.00
656.6600, 20926.00
657.8210, 21137.00
658.9830, 21058.00
660.1440, 21211.00
661.3050, 21329.00
662.4660, 21478.00
663.6270, 21516.00
664.7870, 21840.00
665.9480, 21968.00
667.1080, 22057.00
668.2680, 22435.00
669.4280, 22841.00
670.5880, 23314.00
671.7480, 23710.00
672.9070, 24316.00
674.0670, 25155.00
675.2260, 26299.00
676.3850, 27587.00
677.5440, 29305.00
678.7030, 31483.00
679.8610, 34448.00
681.0200, 38100.00
682.1780, 41758.00
683.3360, 46139.00
684.4940, 49896.00
685.6520, 52064.00
686.8090, 52195.00
687.9670, 49632.00
689.1240, 46340.00
690.2810, 41802.00
691.4380, 37391.00
692.5950, 34169.00
693.7520, 31333.00
694.9080, 28852.00
696.0650, 27639.00
697.2210, 26520.00
698.3770, 25605.00
699.5330, 24871.00
700.6880, 24334.00
701.8440, 24067.00
702.9990, 23445.00
704.1550, 23235.00
705.3100, 22876.00
706.4650, 22940.00
707.6190, 22466.00
708.7740, 22535.00
709.9290, 22512.00
711.0830, 22282.00
712.2370, 22045.00
713.3910, 22038.00
714.5450, 21904.84
715.6980, 21936.00
716.8520, 21824.00
718.0050, 21918.00
719.1580, 21875.00
720.3110, 21834.00
721.4640, 21974.00
722.6170, 21850.00
723.7700, 21906.89
724.9220, 22081.00
726.0740, 21905.00
727.2260, 21839.00
728.3780, 21789.00
729.5300, 21799.00
730.6810, 21910.00
731.8330, 21891.00
732.9840, 21884.49
734.1350, 21861.14
735.2860, 21820.00
736.4370, 21796.00
737.5880, 21780.00
738.7380, 21880.00
739.8880, 21849.00
741.0390, 21872.00
742.1890, 21970.00
743.3380, 21728.00
744.4880, 21867.00
745.6380, 21823.00
746.7870, 21884.00
747.9360, 21835.00
749.0850, 22097.00
750.2340, 22122.00
751.3830, 22082.17
752.5310, 21943.00
753.6800, 22025.00
754.8280, 22084.00
755.9760, 22209.00
757.1240, 22214.00
758.2720, 22285.55
759.4190, 22201.00
760.5670, 22315.00
761.7140, 22319.00
762.8610, 22212.00
764.0080, 22264.00
765.1550, 22354.00
766.3020, 22418.00
767.4480, 22416.00
768.5950, 22483.00
769.7410, 22257.00
770.8870, 22391.00
772.0330, 22458.00
773.1780, 22273.00
774.3240, 22345.00
775.4690, 22514.00
776.6140, 22433.00
777.7590, 22391.00
778.9040, 22330.00
780.0490, 22343.80
781.1940, 22337.18
782.3380, 22401.00
783.4820, 22438.00
784.6260, 22475.00
785.7700, 22650.00
786.9140, 22485.00
788.0580, 22581.00
789.2010, 22427.00
790.3450, 22557.00
791.4880, 22524.00
792.6310, 22611.00
793.7730, 22595.00
794.9160, 22570.00
796.0590, 22593.00
797.2010, 22544.00
798.3430, 22530.00
799.4850, 22548.00
800.6270, 22654.00
801.7690, 22788.00
802.9100, 22781.91
804.0520, 22800.62
805.1930, 22820.00
806.3340, 22752.00
807.4750, 22762.00
808.6160, 22802.00
809.7560, 22824.00
810.8970, 22841.00
812.0370, 22782.00
813.1770, 22865.00
814.3170, 22896.00
815.4570, 22916.00
816.5960, 23048.00
817.7360, 23026.00
818.8750, 23053.50
820.0140, 22893.00
821.1530, 22997.00
822.2920, 22971.00
823.4310, 22843.00
824.5690, 22922.00
825.7070, 22953.00
826.8460, 22916.22
827.9840, 22980.71
829.1220, 22938.00
830.2590, 22993.00
831.3970, 23056.00
832.5340, 22973.00
833.6710, 23117.00
834.8080, 23117.00
835.9450, 23268.00
837.0820, 23392.00
838.2190, 23221.00
839.3550, 23226.00
840.4910, 23133.00
841.6270, 23239.00
842.7630, 23235.00
843.8990, 23403.00
845.0350, 23252.00
846.1700, 23450.00
847.3060, 23324.00
848.4410, 23571.00
849.5760, 23529.00
850.7100, 23481.00
851.8450, 23533.00
852.9800, 23612.00
854.1140, 23528.00
855.2480, 23438.00
856.3820, 23625.00
857.5160, 23642.00
858.6500, 23724.00
859.7830, 23633.00
860.9170, 23764.00
862.0500, 23693.00
863.1830, 23753.00
864.3160, 23803.00
865.4480, 23867.00
866.5810, 23853.00
867.7130, 23904.00
868.8460, 23916.81
869.9780, 23957.72
871.1100, 23938.00
872.2410, 24013.00
873.3730, 24013.00
874.5050, 23953.00
875.6360, 23981.00
876.7670, 23923.00
877.8980, 23916.32
879.0290, 24103.00
880.1590, 23943.00
881.2900, 24018.00
882.4200, 24154.00
883.5500, 23984.00
884.6800, 24110.00
885.8100, 24305.00
886.9400, 24395.00
888.0690, 24186.00
889.1990, 24364.00
890.3280, 24437.00
891.4570, 24237.00
892.5860, 24415.00
893.7140, 24294.00
894.8430, 24424.00
895.9710, 24439.00
897.1000, 24667.00
898.2280, 24392.00
899.3560, 24606.00
900.4830, 24513.00
901.6110, 24773.00
902.7380, 24685.00
903.8660, 24892.00
904.9930, 24815.00
906.1200, 24905.00
907.2460, 24938.00
908.3730, 25104.00
909.5000, 25122.37
910.6260, 25128.00
911.7520, 25193.00
912.8780, 25081.00
914.0040, 25054.00
915.1290, 25241.00
916.2550, 25110.00
917.3800, 25345.00
918.5050, 25391.00
919.6300, 25111.00
920.7550, 25259.00
921.8800, 25278.85
923.0040, 25466.00
924.1290, 25415.00
925.2530, 25509.00
926.3770, 25407.00
927.5010, 25301.00
928.6250, 25589.00
929.7480, 25474.00
930.8720, 25527.00
931.9950, 25160.00
933.1180, 25412.00
934.2410, 25392.00
935.3640, 25520.00
936.4860, 25527.00
937.6090, 25514.00
938.7310, 25704.00
939.8530, 25440.00
940.9750, 25541.00
942.0970, 25604.00
943.2180, 25616.00
944.3400, 25777.00
945.4610, 25660.00
946.5820, 25495.00
947.7030, 25576.00
948.8240, 25581.00
949.9450, 25737.00
951.0650, 25745.00
952.1860, 25798.00
953.3060, 25812.00
954.4260, 25839.65
955.5460, 25913.00
956.6650, 25872.00
957.7850, 25953.00
958.9040, 25936.00
960.0230, 25928.00
961.1420, 25887.00
962.2610, 26002.00
963.3800, 26105.00
964.4990, 26072.00
965.6170, 25903.00
966.7350, 26220.00
967.8530, 26082.00
968.9710, 26200.00
970.0890, 26153.00
971.2070, 26117.00
972.3240, 26359.00
973.4410, 26266.00
974.5580, 26340.00
975.6750, 26457.00
976.7920, 26445.00
977.9090, 26585.00
979.0250, 26611.00
980.1410, 26623.00
981.2580, 26988.00
982.3740, 26864.00
983.4890, 26922.00
984.6050, 26849.00
985.7200, 27060.00
986.8360, 27361.00
987.9510, 27140.00
989.0660, 27615.00
990.1810, 27475.00
991.2950, 27575.00
992.4100, 27706.00
993.5240, 28076.00
994.6390, 28146.00
995.7530, 28388.73
996.8660, 28608.00
997.9800, 28759.00
999.0940, 29243.00
1000.207, 29409.00
1001.320, 29865.00
1002.433, 30102.00
1003.546, 30328.00
1004.659, 30709.00
1005.772, 30858.00
1006.884, 31295.00
1007.996, 31377.00
1009.108, 31582.00
1010.220, 31733.00
1011.332, 31621.00
1012.444, 31740.00
1013.555, 31483.00
1014.666, 31525.00
1015.777, 31305.00
1016.888, 30963.00
1017.999, 30878.00
1019.110, 30789.00
1020.220, 30544.15
1021.331, 30369.00
1022.441, 30217.00
1023.551, 30088.23
1024.661, 29888.00
1025.770, 29928.00
1026.880, 29826.00
1027.989, 29792.00
1029.098, 29911.00
1030.207, 29921.00
1031.316, 29735.00
1032.425, 29717.00
1033.533, 29964.00
1034.642, 30074.00
1035.750, 30206.00
1036.858, 30073.00
1037.966, 30209.00
1039.073, 30366.00
1040.181, 30533.00
1041.288, 30776.00
1042.396, 31000.00
1043.503, 31233.00
1044.610, 31555.00
1045.716, 31794.00
1046.823, 32446.00
1047.929, 32792.00
1049.036, 32959.00
1050.142, 33395.00
1051.248, 34373.00
1052.353, 35037.00
1053.459, 35708.00
1054.564, 36755.00
1055.670, 37828.00
1056.775, 38630.00
1057.880, 39826.00
1058.985, 41293.00
1060.089, 42374.00
1061.194, 44053.00
1062.298, 45240.00
1063.402, 46587.00
1064.506, 47429.00
1065.610, 48239.00
1066.713, 48433.00
1067.817, 48948.00
1068.920, 48838.00
1070.023, 48674.00
1071.126, 48291.00
1072.229, 47797.00
1073.332, 46936.00
1074.435, 45973.00
1075.537, 45120.00
1076.639, 44040.67
1077.741, 42978.00
1078.843, 41938.00
1079.945, 40900.00
1081.046, 40007.00
1082.148, 38826.00
1083.249, 38226.00
1084.350, 37722.00
1085.451, 36881.00
1086.551, 36557.00
1087.652, 35636.00
1088.752, 35137.00
1089.853, 35125.00
1090.953, 34658.00
1092.053, 34283.00
1093.152, 34092.32
1094.252, 33679.00
1095.351, 33617.00
1096.451, 33343.00
1097.550, 33258.00
1098.649, 33033.00
1099.748, 33104.00
1100.846, 32680.00
1101.945, 32866.00
1103.043, 32747.00
1104.141, 32544.00
1105.239, 32691.00
1106.337, 32472.00
1107.434, 32460.00
1108.532, 32364.00
1109.629, 32404.00
1110.726, 32440.00
1111.823, 32219.00
1112.920, 32204.00
1114.017, 32378.00
1115.113, 32464.00
1116.210, 32357.00
1117.306, 32438.00
1118.402, 32250.00
1119.498, 32490.00
1120.593, 32629.00
1121.689, 32578.00
1122.784, 32263.00
1123.879, 32564.00
1124.974, 32491.00
1126.069, 32298.00
1127.164, 32495.00
1128.259, 32241.00
1129.353, 32286.00
1130.447, 32262.00
1131.541, 32204.00
1132.635, 32244.00
1133.729, 32312.00
1134.822, 32374.00
1135.916, 32299.00
1137.009, 32261.00
1138.102, 32293.99
1139.195, 32177.00
1140.288, 32363.00
1141.380, 32303.00
1142.473, 32416.00
1143.565, 32414.63
1144.657, 32316.54
1145.749, 32381.00
1146.841, 32165.00
1147.932, 32110.00
1149.024, 32183.00
1150.115, 32116.00
1151.206, 32001.00
1152.297, 32013.00
1153.388, 31580.00
1154.479, 31644.00
1155.569, 31396.00
1156.659, 31436.00
1157.750, 31205.00
1158.839, 31304.00
1159.929, 31045.00
1161.019, 31170.00
1162.108, 30779.00
1163.198, 30930.00
1164.287, 30756.00
1165.376, 30899.00
1166.465, 30473.00
1167.553, 30783.00
1168.642, 30710.00
1169.730, 31449.00
1170.818, 30694.00
1171.906, 30939.00
1172.994, 30684.00
1174.082, 30737.00
1175.170, 30740.00
1176.257, 30639.00
1177.344, 30680.00
1178.431, 30595.00
1179.518, 30745.00
1180.605, 30730.00
1181.691, 30942.00
1182.778, 30828.00
1183.864, 30960.00
1184.950, 31076.00
1186.036, 30941.00
1187.122, 30773.00
1188.207, 30943.00
1189.292, 30887.00
1190.378, 31013.00
1191.463, 31021.00
1192.548, 31078.00
1193.632, 30796.00
1194.717, 30885.00
1195.801, 30865.00
1196.886, 30961.00
1197.970, 30854.00
1199.054, 30985.00
1200.137, 31095.00
1201.221, 30995.00
1202.305, 31195.00
1203.388, 30965.00
1204.471, 31295.00
1205.554, 31359.00
1206.637, 31319.00
1207.719, 31306.00
1208.802, 31271.92
1209.884, 31285.00
1210.966, 31182.00
1212.048, 31244.00
1213.130, 31265.00
1214.212, 31366.00
1215.293, 31530.00
1216.374, 31261.00
1217.456, 31287.00
1218.536, 31197.00
1219.617, 31357.00
1220.698, 31528.00
1221.778, 31322.00
1222.859, 31704.00
1223.939, 31444.00
1225.019, 31358.00
1226.099, 31436.00
1227.178, 31665.00
1228.258, 31476.00
1229.337, 31586.00
1230.417, 31339.00
1231.496, 31417.00
1232.574, 31577.00
1233.653, 31638.00
1234.732, 31564.00
1235.810, 31791.00
1236.888, 31562.00
1237.966, 32023.00
1239.044, 31528.00
1240.122, 31607.00
1241.199, 31583.00
1242.277, 31873.00
1243.354, 31709.00
1244.431, 31682.00
1245.508, 31433.00
1246.585, 31731.00
1247.661, 31447.00
1248.738, 31916.00
1249.814, 31814.00
1250.890, 31953.00
1251.966, 31651.00
1253.042, 31733.00
1254.117, 31993.00
1255.193, 31863.00
1256.268, 31844.00
1257.343, 31931.00
1258.418, 31874.00
1259.493, 31883.00
1260.567, 31965.00
1261.642, 31995.94
1262.716, 31882.00
1263.790, 32103.00
1264.864, 32074.00
1265.938, 31993.00
1267.011, 32326.00
1268.085, 32050.00
1269.158, 32222.00
1270.231, 32066.00
1271.304, 32110.00
1272.377, 32163.00
1273.450, 32058.00
1274.522, 32347.00
1275.594, 32274.00
1276.666, 32136.00
1277.738, 32346.00
1278.810, 32176.00
1279.882, 32043.00
