##NAMES=Beryl
##RRUFFID=R050347
##IDEAL CHEMISTRY=Be_3_Al_2_Si_6_O_18_
##LOCALITY=North Keystone, South Dakota, USA
##OWNER=RRUFF
##SOURCE=California Institute of Technology
##DESCRIPTION=Colorless fragment
##STATUS=The identification of this mineral has been confirmed by X-ray diffraction and chemical analysis
##URL=rruff.info/R050347
##MEASURED CHEMISTRY=(Be_0.96_Li_0.04_)_3_Al_2.00_(Si_0.99_Al_0.01_)_6_O_18_ Î‡0.17Na
##PIN_ID=L00581
##ORIENTATION=Laser parallel to c* (0 0 1). Fiducial mark perpendicular to laser is parallel to b [0 1 0]
211.2690, 10626.00
212.4890, 10678.00
213.7080, 10637.00
214.9280, 10664.00
216.1470, 10638.00
217.3660, 10552.00
218.5850, 10743.00
219.8030, 10728.00
221.0220, 10710.00
222.2400, 10684.00
223.4590, 10789.00
224.6770, 10916.00
225.8950, 10892.00
227.1120, 10921.00
228.3300, 10932.00
229.5480, 10910.00
230.7650, 10952.00
231.9820, 11004.00
233.1990, 11127.00
234.4160, 11044.00
235.6330, 11156.00
236.8490, 11157.00
238.0660, 11248.00
239.2820, 11248.43
240.4980, 11195.00
241.7140, 11245.00
242.9300, 11168.00
244.1460, 11167.00
245.3610, 11082.00
246.5770, 11158.00
247.7920, 11243.00
249.0070, 11205.00
250.2220, 11310.00
251.4370, 11149.00
252.6510, 11028.00
253.8660, 11199.00
255.0800, 11018.00
256.2940, 11065.00
257.5080, 11139.00
258.7220, 11263.00
259.9360, 11200.86
261.1490, 11312.00
262.3630, 11099.00
263.5760, 11212.00
264.7890, 11179.00
266.0020, 11098.00
267.2150, 11155.00
268.4270, 11176.00
269.6400, 11206.00
270.8520, 11248.00
272.0640, 11317.00
273.2760, 11342.00
274.4880, 11196.00
275.7000, 11446.00
276.9120, 11364.00
278.1230, 11390.00
279.3340, 11586.00
280.5450, 11614.00
281.7560, 11633.00
282.9670, 11795.00
284.1780, 11849.00
285.3880, 11881.00
286.5980, 12220.00
287.8090, 12467.00
289.0190, 12550.00
290.2290, 12897.00
291.4380, 13120.00
292.6480, 13046.00
293.8570, 12978.00
295.0670, 12811.00
296.2760, 12526.00
297.4850, 12357.00
298.6930, 12206.00
299.9020, 12135.00
301.1110, 12000.00
302.3190, 11962.00
303.5270, 12195.00
304.7350, 12116.00
305.9430, 12202.00
307.1510, 12221.00
308.3580, 12409.00
309.5660, 12389.00
310.7730, 12629.00
311.9800, 12851.00
313.1870, 12992.00
314.3940, 13410.00
315.6010, 13583.00
316.8070, 13933.00
318.0130, 14423.00
319.2200, 14774.00
320.4260, 15047.00
321.6310, 15359.00
322.8370, 15527.00
324.0430, 15147.00
325.2480, 14564.00
326.4540, 13905.00
327.6590, 13329.00
328.8640, 12880.00
330.0680, 12454.00
331.2730, 12141.00
332.4780, 12119.00
333.6820, 11872.00
334.8860, 11809.00
336.0900, 11850.00
337.2940, 11759.00
338.4980, 11527.00
339.7010, 11516.00
340.9050, 11731.00
342.1080, 11590.00
343.3110, 11691.00
344.5140, 11713.00
345.7170, 11806.00
346.9200, 11915.00
348.1220, 11892.00
349.3240, 11772.00
350.5270, 11758.00
351.7290, 11836.00
352.9310, 11909.00
354.1320, 11830.00
355.3340, 11942.00
356.5350, 11993.00
357.7370, 12028.00
358.9380, 11889.00
360.1390, 11934.00
361.3400, 11847.00
362.5400, 11963.00
363.7410, 12040.00
364.9410, 12128.00
366.1410, 12166.48
367.3410, 12167.77
368.5410, 12216.00
369.7410, 12121.00
370.9400, 12136.00
372.1400, 12120.00
373.3390, 12380.00
374.5380, 12427.00
375.7370, 12509.00
376.9360, 12471.00
378.1350, 12630.00
379.3330, 12860.00
380.5310, 13061.00
381.7300, 13254.00
382.9280, 13275.00
384.1260, 13614.00
385.3230, 14001.00
386.5210, 14673.00
387.7180, 15293.00
388.9160, 16098.00
390.1130, 17059.00
391.3100, 18265.00
392.5060, 19600.00
393.7030, 21404.00
394.9000, 22859.00
396.0960, 24315.00
397.2920, 25195.00
398.4880, 25028.00
399.6840, 24467.00
400.8800, 22905.00
402.0750, 20828.00
403.2710, 19433.00
404.4660, 17966.00
405.6610, 16849.00
406.8560, 15968.00
408.0510, 15408.00
409.2450, 15018.00
410.4400, 14826.00
411.6340, 14719.00
412.8280, 14779.00
414.0220, 15022.00
415.2160, 15037.00
416.4100, 15449.00
417.6030, 15420.00
418.7970, 15959.00
419.9900, 16121.00
421.1830, 16161.00
422.3760, 15973.00
423.5690, 15814.00
424.7610, 15347.00
425.9540, 14963.00
427.1460, 14536.00
428.3380, 14278.00
429.5300, 13851.00
430.7220, 13788.00
431.9140, 13719.00
433.1050, 13784.00
434.2970, 13720.00
435.4880, 13883.00
436.6790, 13843.00
437.8700, 13989.00
439.0610, 14075.00
440.2510, 13831.00
441.4420, 13933.00
442.6320, 13827.00
443.8220, 13877.00
445.0120, 13825.00
446.2020, 13640.00
447.3910, 13554.00
448.5810, 13621.00
449.7700, 13428.00
450.9600, 13171.00
452.1490, 13380.00
453.3370, 13097.00
454.5260, 13208.00
455.7150, 13095.00
456.9030, 12946.00
458.0910, 12947.00
459.2800, 12957.00
460.4670, 13002.00
461.6550, 13036.00
462.8430, 13216.00
464.0300, 13097.00
465.2180, 13779.00
466.4050, 13592.00
467.5920, 13515.00
468.7790, 13038.00
469.9650, 12935.00
471.1520, 12905.00
472.3380, 12820.00
473.5250, 12985.00
474.7110, 12985.00
475.8970, 13046.00
477.0820, 12953.00
478.2680, 13020.00
479.4540, 13071.00
480.6390, 13017.00
481.8240, 12988.00
483.0090, 12920.00
484.1940, 12976.00
485.3780, 13144.00
486.5630, 13076.00
487.7470, 13193.00
488.9320, 12913.00
490.1160, 13065.00
491.3000, 12937.00
492.4830, 12973.00
493.6670, 13171.00
494.8500, 13043.00
496.0340, 13130.00
497.2170, 13128.00
498.4000, 13238.00
499.5820, 13206.44
500.7650, 13095.00
501.9480, 13151.00
503.1300, 13136.00
504.3120, 13091.00
505.4940, 13221.00
506.6760, 13043.00
507.8580, 13170.00
509.0390, 13133.00
510.2210, 13046.00
511.4020, 13234.00
512.5830, 13291.00
513.7640, 13233.00
514.9450, 13371.00
516.1250, 13230.00
517.3060, 13321.00
518.4860, 13276.00
519.6660, 13520.00
520.8460, 13364.00
522.0260, 13484.00
523.2060, 13649.00
524.3850, 13711.00
525.5650, 13673.00
526.7440, 13704.00
527.9230, 13682.00
529.1020, 13679.00
530.2810, 13817.00
531.4590, 13803.00
532.6380, 13667.00
533.8160, 13758.00
534.9940, 13698.00
536.1720, 13807.00
537.3500, 13682.00
538.5270, 13748.00
539.7050, 13713.00
540.8820, 14326.00
542.0590, 14034.70
543.2360, 14582.00
544.4130, 13879.00
545.5900, 13673.00
546.7660, 13758.00
547.9430, 13779.00
549.1190, 13795.00
550.2950, 13803.00
551.4710, 13852.52
552.6470, 13974.00
553.8220, 14011.00
554.9980, 14070.00
556.1730, 14279.00
557.3480, 14435.00
558.5230, 14470.00
559.6980, 14564.00
560.8730, 14653.00
562.0470, 14513.00
563.2220, 14712.00
564.3960, 14603.00
565.5700, 14727.00
566.7440, 14917.00
567.9170, 14732.00
569.0910, 15029.00
570.2640, 15121.00
571.4380, 15050.00
572.6110, 15415.00
573.7840, 15621.00
574.9570, 15766.00
576.1290, 15876.77
577.3020, 15629.00
578.4740, 15829.00
579.6460, 15619.00
580.8180, 15374.00
581.9900, 15433.00
583.1620, 15161.00
584.3330, 15064.00
585.5040, 15048.00
586.6760, 14862.00
587.8470, 14744.00
589.0180, 14599.00
590.1880, 14476.00
591.3590, 14440.00
592.5290, 14351.74
593.7000, 14193.00
594.8700, 14249.00
596.0400, 14211.00
597.2090, 14130.00
598.3790, 14242.00
599.5490, 14106.00
600.7180, 14164.00
601.8870, 13973.00
603.0560, 14174.00
604.2250, 14259.00
605.3940, 14145.00
606.5620, 14115.00
607.7300, 14158.00
608.8990, 14217.00
610.0670, 14100.00
611.2350, 14145.00
612.4020, 14166.13
613.5700, 14351.00
614.7370, 14268.00
615.9050, 14353.00
617.0720, 14455.00
618.2390, 14382.00
619.4060, 14543.00
620.5720, 14563.00
621.7390, 14606.00
622.9050, 14485.00
624.0710, 14622.00
625.2370, 14510.00
626.4030, 14486.00
627.5690, 14309.00
628.7340, 14397.00
629.9000, 14514.00
631.0650, 14513.00
632.2300, 14359.00
633.3950, 14362.00
634.5600, 14395.00
635.7240, 14562.00
636.8890, 14608.00
638.0530, 14540.00
639.2170, 14603.00
640.3810, 14517.00
641.5450, 14520.00
642.7080, 14576.00
643.8720, 14549.16
645.0350, 14736.00
646.1980, 14644.00
647.3610, 14680.00
648.5240, 14852.00
649.6870, 14869.00
650.8490, 14945.00
652.0120, 14846.00
653.1740, 14823.00
654.3360, 14966.00
655.4980, 14887.00
656.6600, 14969.00
657.8210, 15193.00
658.9830, 15099.00
660.1440, 15249.00
661.3050, 15254.00
662.4660, 15275.00
663.6270, 15575.00
664.7870, 15765.00
665.9480, 16025.00
667.1080, 16192.00
668.2680, 16319.00
669.4280, 16889.00
670.5880, 17310.00
671.7480, 17859.00
672.9070, 18491.00
674.0670, 19656.00
675.2260, 20694.00
676.3850, 22637.00
677.5440, 24818.00
678.7030, 28057.77
679.8610, 31425.00
681.0200, 36293.00
682.1780, 41366.00
683.3360, 46979.00
684.4940, 51692.00
685.6520, 53717.00
686.8090, 52001.00
687.9670, 46793.00
689.1240, 41261.00
690.2810, 35610.00
691.4380, 31116.00
692.5950, 27666.00
693.7520, 24940.00
694.9080, 23189.00
696.0650, 21608.00
697.2210, 20607.00
698.3770, 19491.00
699.5330, 19284.00
700.6880, 18423.00
701.8440, 18247.00
702.9990, 17754.00
704.1550, 17578.00
705.3100, 17282.00
706.4650, 17038.00
707.6190, 17033.00
708.7740, 16712.00
709.9290, 16656.00
711.0830, 16461.00
712.2370, 16496.00
713.3910, 16398.00
714.5450, 16350.00
715.6980, 16258.00
716.8520, 16144.00
718.0050, 16202.00
719.1580, 16184.00
720.3110, 16057.00
721.4640, 16162.00
722.6170, 15958.00
723.7700, 16004.00
724.9220, 16162.00
726.0740, 15917.00
727.2260, 15855.00
728.3780, 15955.00
729.5300, 15974.00
730.6810, 15929.00
731.8330, 15954.00
732.9840, 15912.00
734.1350, 15848.00
735.2860, 16093.00
736.4370, 15801.00
737.5880, 16100.00
738.7380, 15964.00
739.8880, 16008.00
741.0390, 16077.00
742.1890, 15908.00
743.3380, 16104.00
744.4880, 15870.00
745.6380, 16075.00
746.7870, 16149.00
747.9360, 16075.00
749.0850, 16065.00
750.2340, 16102.00
751.3830, 16082.20
752.5310, 16202.00
753.6800, 16123.00
754.8280, 16259.00
755.9760, 16301.00
757.1240, 16300.00
758.2720, 16383.00
759.4190, 16441.00
760.5670, 16525.07
761.7140, 16715.00
762.8610, 16753.00
764.0080, 16819.00
765.1550, 16977.00
766.3020, 16757.00
767.4480, 16909.00
768.5950, 16806.00
769.7410, 16928.00
770.8870, 16773.00
772.0330, 16562.00
773.1780, 16356.00
774.3240, 16336.00
775.4690, 16359.00
776.6140, 16331.00
777.7590, 16334.83
778.9040, 16299.00
780.0490, 16287.00
781.1940, 16200.00
782.3380, 16080.00
783.4820, 16182.00
784.6260, 16120.00
785.7700, 16239.00
786.9140, 16205.00
788.0580, 16186.00
789.2010, 16101.00
790.3450, 16057.00
791.4880, 16013.00
792.6310, 16017.00
793.7730, 16049.00
794.9160, 16258.00
796.0590, 16247.00
797.2010, 16138.00
798.3430, 16044.00
799.4850, 16213.00
800.6270, 16323.00
801.7690, 16258.00
802.9100, 16336.00
804.0520, 16275.00
805.1930, 16190.00
806.3340, 16232.00
807.4750, 16159.00
808.6160, 16148.00
809.7560, 16312.00
810.8970, 16345.00
812.0370, 16274.00
813.1770, 16391.00
814.3170, 16186.00
815.4570, 16283.00
816.5960, 16301.00
817.7360, 16249.00
818.8750, 16383.00
820.0140, 16365.00
821.1530, 16336.00
822.2920, 16369.00
823.4310, 16358.45
824.5690, 16373.00
825.7070, 16334.00
826.8460, 16368.92
827.9840, 16374.00
829.1220, 16438.00
830.2590, 16442.00
831.3970, 16511.00
832.5340, 16556.00
833.6710, 16568.00
834.8080, 16473.00
835.9450, 16521.00
837.0820, 16452.00
838.2190, 16426.00
839.3550, 16474.00
840.4910, 16493.00
841.6270, 16541.00
842.7630, 16744.00
843.8990, 16504.00
845.0350, 16708.00
846.1700, 16668.00
847.3060, 16636.00
848.4410, 16580.00
849.5760, 16648.00
850.7100, 16602.05
851.8450, 16792.00
852.9800, 16639.00
854.1140, 16696.00
855.2480, 16828.00
856.3820, 16797.00
857.5160, 16826.00
858.6500, 16745.00
859.7830, 16849.00
860.9170, 16968.00
862.0500, 16947.00
863.1830, 16872.00
864.3160, 16892.00
865.4480, 16942.00
866.5810, 16949.00
867.7130, 16986.00
868.8460, 17045.00
869.9780, 17059.00
871.1100, 17021.00
872.2410, 17103.00
873.3730, 16895.00
874.5050, 16964.00
875.6360, 16938.00
876.7670, 17051.00
877.8980, 17087.00
879.0290, 16960.00
880.1590, 17219.00
881.2900, 17155.00
882.4200, 17280.00
883.5500, 17294.00
884.6800, 17191.00
885.8100, 17382.00
886.9400, 17340.00
888.0690, 17383.00
889.1990, 17255.00
890.3280, 17265.00
891.4570, 17390.00
892.5860, 17322.00
893.7140, 17460.00
894.8430, 17468.66
895.9710, 17384.00
897.1000, 17535.00
898.2280, 17499.00
899.3560, 17539.00
900.4830, 17600.00
901.6110, 17701.00
902.7380, 17748.00
903.8660, 17760.00
904.9930, 17853.00
906.1200, 17941.00
907.2460, 17942.00
908.3730, 18062.00
909.5000, 18048.20
910.6260, 17976.00
911.7520, 18048.00
912.8780, 18045.00
914.0040, 18047.00
915.1290, 18097.00
916.2550, 17952.00
917.3800, 18068.00
918.5050, 18078.00
919.6300, 18132.00
920.7550, 17801.00
921.8800, 17857.00
923.0040, 17969.00
924.1290, 17830.00
925.2530, 17971.00
926.3770, 17738.00
927.5010, 17965.00
928.6250, 17926.00
929.7480, 17820.00
930.8720, 17773.00
931.9950, 17916.00
933.1180, 17996.00
934.2410, 17822.00
935.3640, 18089.00
936.4860, 17874.00
937.6090, 17895.00
938.7310, 17881.00
939.8530, 17775.00
940.9750, 17920.00
942.0970, 17936.00
943.2180, 17895.00
944.3400, 17873.00
945.4610, 18031.00
946.5820, 18016.00
947.7030, 18043.32
948.8240, 18088.00
949.9450, 18083.00
951.0650, 18056.00
952.1860, 18129.00
953.3060, 18106.00
954.4260, 18329.00
955.5460, 18164.00
956.6650, 18231.00
957.7850, 18088.00
958.9040, 18088.00
960.0230, 18263.00
961.1420, 18023.00
962.2610, 18236.00
963.3800, 18223.00
964.4990, 18374.00
965.6170, 18319.00
966.7350, 18274.00
967.8530, 18366.00
968.9710, 18281.00
970.0890, 18455.00
971.2070, 18376.00
972.3240, 18336.00
973.4410, 18490.00
974.5580, 18671.00
975.6750, 18700.00
976.7920, 18694.00
977.9090, 18686.00
979.0250, 18700.00
980.1410, 18661.00
981.2580, 18957.00
982.3740, 18770.00
983.4890, 19064.00
984.6050, 19089.00
985.7200, 19072.00
986.8360, 19209.00
987.9510, 19285.32
989.0660, 19482.00
990.1810, 19588.00
991.2950, 19673.00
992.4100, 19907.00
993.5240, 20148.00
994.6390, 20337.00
995.7530, 20590.71
996.8660, 20966.00
997.9800, 21066.00
999.0940, 21301.00
1000.207, 21535.00
1001.320, 21439.00
1002.433, 21614.79
1003.546, 21782.00
1004.659, 21678.00
1005.772, 21487.00
1006.884, 21437.00
1007.996, 21391.00
1009.108, 21177.00
1010.220, 21231.00
1011.332, 21173.00
1012.444, 20932.00
1013.555, 20806.00
1014.666, 20627.00
1015.777, 20522.00
1016.888, 20372.00
1017.999, 20257.00
1019.110, 20219.00
1020.220, 20162.00
1021.331, 20034.00
1022.441, 19862.00
1023.551, 19730.00
1024.661, 19614.00
1025.770, 19686.00
1026.880, 19813.00
1027.989, 19752.00
1029.098, 19762.00
1030.207, 19497.00
1031.316, 19667.00
1032.425, 19538.00
1033.533, 19489.00
1034.642, 19724.00
1035.750, 19640.00
1036.858, 19608.00
1037.966, 19919.00
1039.073, 19700.00
1040.181, 19688.00
1041.288, 19800.00
1042.396, 19721.00
1043.503, 19829.00
1044.610, 19955.00
1045.716, 19913.00
1046.823, 19999.00
1047.929, 20321.00
1049.036, 20160.00
1050.142, 20423.00
1051.248, 20464.00
1052.353, 20761.00
1053.459, 20864.00
1054.564, 21332.00
1055.670, 21430.00
1056.775, 21864.00
1057.880, 22318.00
1058.985, 22511.00
1060.089, 22854.00
1061.194, 23297.00
1062.298, 24004.00
1063.402, 24532.00
1064.506, 24844.00
1065.610, 25192.00
1066.713, 25517.00
1067.817, 25499.00
1068.920, 25430.00
1070.023, 25501.00
1071.126, 25336.00
1072.229, 25243.00
1073.332, 25013.47
1074.435, 24492.00
1075.537, 24315.00
1076.639, 24027.00
1077.741, 23423.00
1078.843, 23333.00
1079.945, 23018.00
1081.046, 22877.00
1082.148, 22558.00
1083.249, 22515.00
1084.350, 22008.00
1085.451, 21808.00
1086.551, 21877.00
1087.652, 21636.00
1088.752, 21557.00
1089.853, 21234.00
1090.953, 21337.00
1092.053, 21197.00
1093.152, 21140.00
1094.252, 21001.00
1095.351, 21050.00
1096.451, 21060.00
1097.550, 20862.00
1098.649, 20810.00
1099.748, 20899.00
1100.846, 20781.00
1101.945, 20684.00
1103.043, 20754.00
1104.141, 20987.00
1105.239, 20796.00
1106.337, 20790.00
1107.434, 20800.00
1108.532, 20537.00
1109.629, 20705.00
1110.726, 20617.00
1111.823, 20574.00
1112.920, 20684.00
1114.017, 20560.00
1115.113, 20679.00
1116.210, 20668.00
1117.306, 20719.00
1118.402, 20708.00
1119.498, 20683.00
1120.593, 20874.00
1121.689, 20925.00
1122.784, 20850.00
1123.879, 21529.00
1124.974, 21874.00
1126.069, 21763.00
1127.164, 21863.00
1128.259, 22465.00
1129.353, 21085.00
1130.447, 21166.00
1131.541, 21680.00
1132.635, 22389.00
1133.729, 22124.00
1134.822, 21935.00
1135.916, 21955.36
1137.009, 21576.26
1138.102, 21650.00
1139.195, 21072.00
1140.288, 21265.00
1141.380, 21261.00
1142.473, 21340.00
1143.565, 21322.00
1144.657, 21318.00
1145.749, 21373.00
1146.841, 21207.00
1147.932, 21290.00
1149.024, 21241.00
1150.115, 21256.00
1151.206, 21237.00
1152.297, 21160.00
1153.388, 20931.00
1154.479, 21122.00
1155.569, 21161.00
1156.659, 20788.00
1157.750, 20865.00
1158.839, 20834.00
1159.929, 21121.00
1161.019, 20830.00
1162.108, 20906.00
1163.198, 20937.00
1164.287, 20960.00
1165.376, 20862.00
1166.465, 20842.00
1167.553, 20755.00
1168.642, 20803.00
1169.730, 21081.00
1170.818, 20963.00
1171.906, 20825.00
1172.994, 21171.00
1174.082, 21048.00
1175.170, 21221.00
1176.257, 21266.00
1177.344, 21165.00
1178.431, 21301.00
1179.518, 21309.00
1180.605, 21049.00
1181.691, 21371.00
1182.778, 21125.00
1183.864, 21292.00
1184.950, 21397.00
1186.036, 21569.00
1187.122, 21448.00
1188.207, 21553.00
1189.292, 21554.00
1190.378, 21472.00
1191.463, 21473.00
1192.548, 21531.00
1193.632, 21638.00
1194.717, 21416.00
1195.801, 21493.00
1196.886, 21633.00
1197.970, 21447.00
1199.054, 21635.00
1200.137, 21670.00
1201.221, 21818.00
1202.305, 21533.00
1203.388, 21806.00
1204.471, 21611.00
1205.554, 21695.00
1206.637, 21725.00
1207.719, 21732.00
1208.802, 21785.72
1209.884, 21831.76
1210.966, 21931.00
1212.048, 21839.00
1213.130, 22083.00
1214.212, 21858.00
1215.293, 21976.00
1216.374, 22084.00
1217.456, 22096.00
1218.536, 22163.71
1219.617, 22105.00
1220.698, 22243.00
1221.778, 22211.00
1222.859, 22314.00
1223.939, 22341.00
1225.019, 22593.00
1226.099, 22808.00
1227.178, 22625.00
1228.258, 22973.00
1229.337, 23034.00
1230.417, 23144.00
1231.496, 23343.54
1232.574, 23502.00
1233.653, 23469.00
1234.732, 23624.00
1235.810, 23359.00
1236.888, 23428.00
1237.966, 23413.00
1239.044, 23300.00
1240.122, 23285.00
1241.199, 23172.00
1242.277, 22923.00
1243.354, 22781.00
1244.431, 22527.00
1245.508, 22346.00
1246.585, 22268.17
1247.661, 22133.08
1248.738, 22203.00
1249.814, 22032.00
1250.890, 22133.00
1251.966, 22166.00
1253.042, 22240.00
1254.117, 21973.00
1255.193, 22071.00
1256.268, 22092.00
1257.343, 21908.00
1258.418, 21924.00
1259.493, 21896.00
1260.567, 21842.00
1261.642, 21819.00
1262.716, 21951.00
1263.790, 21940.00
1264.864, 22026.00
1265.938, 21939.00
1267.011, 21800.00
1268.085, 22007.00
1269.158, 21684.00
1270.231, 21989.00
1271.304, 22058.00
1272.377, 21916.00
1273.450, 21721.00
1274.522, 21903.00
1275.594, 21850.00
1276.666, 21846.00
1277.738, 21948.00
1278.810, 22011.00
1279.882, 22105.00
1280.953, 22115.29
1282.025, 21994.00
1283.096, 22062.00
1284.167, 22132.00
1285.238, 21988.00
1286.308, 22191.00
1287.379, 22024.00
1288.449, 21931.00
1289.519, 22112.00
1290.589, 22122.00
1291.659, 22174.00
1292.729, 22134.00
1293.798, 22194.00
1294.868, 22207.00
1295.937, 22211.67
1297.006, 22238.00
1298.075, 22181.00
1299.143, 22258.00
1300.212, 22124.00
1301.280, 22255.00
1302.348, 22319.00
1303.416, 22226.00
1304.484, 22202.00
1305.552, 22146.00
1306.620, 22385.00
1307.687, 22293.00
1308.754, 22386.00
1309.821, 22338.00
1310.888, 22314.00
1311.955, 22318.00
1313.021, 22349.00
1314.088, 22373.00
1315.154, 22421.00
1316.220, 22391.00
1317.286, 22413.00
1318.352, 22397.00
1319.417, 22551.00
1320.483, 22478.00
1321.548, 22299.00
1322.613, 22535.00
1323.678, 22411.00
1324.743, 22519.00
1325.807, 22499.00
1326.872, 22497.00
1327.936, 22547.00
1329.000, 22591.00
1330.064, 22573.00
1331.128, 22644.00
1332.191, 22535.00
1333.255, 22491.00
1334.318, 22607.00
1335.381, 22700.00
1336.444, 22702.00
1337.507, 22718.15
1338.569, 22720.00
1339.632, 22742.00
1340.694, 22772.00
1341.756, 22990.00
1342.818, 22733.00
1343.880, 22843.00
1344.941, 22993.00
1346.003, 22844.00
1347.064, 22838.00
1348.125, 22971.00
1349.186, 22754.00
1350.247, 22687.00
1351.308, 22872.00
1352.368, 22981.00
1353.428, 23010.00
1354.489, 23013.00
1355.549, 23000.00
1356.608, 22981.00
1357.668, 22904.00
1358.727, 22998.00
1359.787, 22860.00
1360.846, 23022.00
1361.905, 23164.00
1362.964, 22950.00
1364.022, 23030.00
1365.081, 22984.00
1366.139, 22972.00
1367.197, 22966.07
1368.255, 23006.90
1369.313, 22920.00
1370.371, 23092.00
1371.428, 23117.00
1372.486, 23077.00
1373.543, 22944.00
1374.600, 22913.00
1375.657, 23130.00
