##NAMES=Beryl
##RRUFFID=R060942
##IDEAL CHEMISTRY=Be_3_Al_2_Si_6_O_18_
##LOCALITY=Mingore mine, Swat Valley, Pakistan
##OWNER=RRUFF
##SOURCE=Lawrence W. Snee
##DESCRIPTION=Green hexagonal prisms, variety emerald
##STATUS=The identification of this mineral has been confirmed by X-ray diffraction and chemical analysis
##URL=rruff.info/R060942
##MEASURED CHEMISTRY=(Be_2.94_Li_0.06_)_Σ=3_(Al_1.55_Mg_0.37_Fe^3+^_0.06_Cr^3+^_0.02_)_Σ=2_Si_6.00_O_18_·Na_0.42_; Be and Li not measured but estimated by stoichiometry
##PIN_ID=L01519
##ORIENTATION=Laser parallel to a* (1 0 0). Fiducial mark perpendicular to laser is parallel to -c [0 0 -1]
119.3650, 10588.00
120.5960, 10656.00
121.8270, 10658.00
123.0580, 10907.00
124.2880, 10815.00
125.5190, 10730.00
126.7490, 10799.00
127.9790, 10640.00
129.2090, 10873.00
130.4390, 10812.00
131.6680, 10570.00
132.8980, 10687.00
134.1270, 10536.00
135.3560, 10596.00
136.5850, 10534.00
137.8140, 10812.00
139.0430, 10678.00
140.2710, 10625.00
141.5000, 10452.00
142.7280, 10354.00
143.9560, 10231.00
145.1840, 10063.00
146.4120, 10148.00
147.6390, 10289.00
148.8670, 10228.00
150.0940, 10077.00
151.3210, 10325.00
152.5490, 10281.00
153.7750, 10118.00
155.0020, 10231.00
156.2290, 10144.00
157.4550, 10086.00
158.6810, 10134.00
159.9080, 10039.00
161.1340, 10013.00
162.3590, 10206.00
163.5850, 10213.00
164.8110, 10213.00
166.0360, 10321.00
167.2610, 10301.00
168.4860, 10329.00
169.7110, 10338.00
170.9360, 10411.00
172.1610, 10547.00
173.3850, 10390.00
174.6100, 10530.00
175.8340, 10500.00
177.0580, 10659.00
178.2820, 10645.00
179.5050, 10571.00
180.7290, 10533.00
181.9520, 10705.00
183.1760, 10699.00
184.3990, 10692.00
185.6220, 10727.00
186.8450, 10707.00
188.0670, 10714.00
189.2900, 10673.00
190.5120, 10652.00
191.7340, 10674.00
192.9560, 10754.00
194.1780, 10759.00
195.4000, 10727.00
196.6220, 10844.00
197.8430, 10817.00
199.0640, 10736.00
200.2860, 10823.00
201.5070, 10928.00
202.7270, 10912.00
203.9480, 10614.00
205.1690, 10532.00
206.3890, 10280.00
207.6090, 10194.00
208.8290, 10218.00
210.0490, 10350.00
211.2690, 10134.00
212.4890, 10173.00
213.7080, 10349.00
214.9280, 10379.00
216.1470, 10222.00
217.3660, 10348.00
218.5850, 10338.00
219.8030, 10476.00
221.0220, 10272.00
222.2400, 10380.00
223.4590, 10346.00
224.6770, 10538.00
225.8950, 10539.00
227.1120, 10660.00
228.3300, 10604.00
229.5480, 10605.00
230.7650, 10868.00
231.9820, 10743.00
233.1990, 10912.00
234.4160, 10974.00
235.6330, 11104.00
236.8490, 11197.00
238.0660, 11367.00
239.2820, 11442.00
240.4980, 11707.00
241.7140, 11856.00
242.9300, 11930.00
244.1460, 12068.00
245.3610, 12010.00
246.5770, 11839.00
247.7920, 11642.00
249.0070, 11169.00
250.2220, 10909.00
251.4370, 10614.00
252.6510, 10399.00
253.8660, 10226.00
255.0800, 10118.00
256.2940, 10009.00
257.5080, 10205.00
258.7220, 10120.56
259.9360, 10103.58
261.1490, 10165.00
262.3630, 10093.00
263.5760, 10068.00
264.7890, 10239.00
266.0020, 10336.00
267.2150, 10159.00
268.4270, 10153.00
269.6400, 10063.00
270.8520, 10034.00
272.0640, 10102.00
273.2760, 10101.00
274.4880, 10006.00
275.7000, 9962.000
276.9120, 9976.000
278.1230, 10054.00
279.3340, 10019.00
280.5450, 10075.00
281.7560, 10032.00
282.9670, 10029.00
284.1780, 10079.15
285.3880, 10034.00
286.5980, 10141.00
287.8090, 10102.00
289.0190, 10071.00
290.2290, 10261.00
291.4380, 10145.00
292.6480, 9981.000
293.8570, 10090.00
295.0670, 10108.00
296.2760, 10188.00
297.4850, 10152.00
298.6930, 10204.25
299.9020, 10170.00
301.1110, 10214.00
302.3190, 10343.00
303.5270, 10264.00
304.7350, 10345.00
305.9430, 10591.00
307.1510, 10632.00
308.3580, 10734.00
309.5660, 10922.00
310.7730, 11243.00
311.9800, 11592.00
313.1870, 12145.00
314.3940, 12625.00
315.6010, 13672.00
316.8070, 14552.00
318.0130, 15246.00
319.2200, 16341.00
320.4260, 17360.00
321.6310, 18366.00
322.8370, 18758.00
324.0430, 18867.00
325.2480, 18361.00
326.4540, 17320.00
327.6590, 16341.00
328.8640, 14872.00
330.0680, 13777.00
331.2730, 12552.00
332.4780, 11649.00
333.6820, 10871.00
334.8860, 10478.00
336.0900, 10162.00
337.2940, 9904.000
338.4980, 9747.000
339.7010, 9760.000
340.9050, 9691.000
342.1080, 9548.000
343.3110, 9545.000
344.5140, 9408.000
345.7170, 9366.000
346.9200, 9423.000
348.1220, 9396.000
349.3240, 9384.000
350.5270, 9314.000
351.7290, 9354.000
352.9310, 9546.000
354.1320, 9488.262
355.3340, 9482.262
356.5350, 9473.000
357.7370, 9401.000
358.9380, 9255.000
360.1390, 9346.000
361.3400, 9286.000
362.5400, 9371.000
363.7410, 9365.000
364.9410, 9456.000
366.1410, 9561.000
367.3410, 9577.000
368.5410, 9581.000
369.7410, 9548.000
370.9400, 9607.000
372.1400, 9610.000
373.3390, 9898.000
374.5380, 9864.000
375.7370, 10117.00
376.9360, 10143.00
378.1350, 10426.00
379.3330, 10613.00
380.5310, 10751.00
381.7300, 11075.00
382.9280, 11210.00
384.1260, 11680.00
385.3230, 12054.00
386.5210, 12655.00
387.7180, 13540.00
388.9160, 14353.00
390.1130, 15614.00
391.3100, 16992.00
392.5060, 18397.00
393.7030, 19787.00
394.9000, 21047.00
396.0960, 22099.00
397.2920, 22644.00
398.4880, 22437.00
399.6840, 21551.00
400.8800, 20365.00
402.0750, 19175.00
403.2710, 17425.00
404.4660, 16029.00
405.6610, 14559.00
406.8560, 13707.00
408.0510, 12798.00
409.2450, 12106.00
410.4400, 11659.00
411.6340, 11317.00
412.8280, 11035.00
414.0220, 10849.00
415.2160, 10575.00
416.4100, 10527.07
417.6030, 10370.92
418.7970, 10443.00
419.9900, 10237.00
421.1830, 10133.00
422.3760, 10150.00
423.5690, 10101.00
424.7610, 10076.00
425.9540, 10048.00
427.1460, 10225.00
428.3380, 10380.00
429.5300, 10282.00
430.7220, 10429.00
431.9140, 10510.00
433.1050, 10524.00
434.2970, 10616.00
435.4880, 10582.00
436.6790, 10505.00
437.8700, 10291.00
439.0610, 10293.00
440.2510, 10142.00
441.4420, 10131.00
442.6320, 9988.000
443.8220, 9797.000
445.0120, 9607.000
446.2020, 9763.000
447.3910, 9493.000
448.5810, 9386.000
449.7700, 9713.000
450.9600, 9473.322
452.1490, 9448.000
453.3370, 9409.000
454.5260, 9273.000
455.7150, 9273.000
456.9030, 9262.000
458.0910, 9231.000
459.2800, 9209.000
460.4670, 9171.000
461.6550, 9217.000
462.8430, 9247.000
464.0300, 9203.000
465.2180, 9216.000
466.4050, 9211.000
467.5920, 9228.000
468.7790, 9216.000
469.9650, 9310.000
471.1520, 9302.000
472.3380, 9322.000
473.5250, 9402.000
474.7110, 9290.000
475.8970, 9321.000
477.0820, 9379.000
478.2680, 9375.000
479.4540, 9423.000
480.6390, 9324.000
481.8240, 9416.000
483.0090, 9404.000
484.1940, 9498.000
485.3780, 9501.906
486.5630, 9433.000
487.7470, 9524.000
488.9320, 9446.000
490.1160, 9452.000
491.3000, 9545.000
492.4830, 9484.000
493.6670, 9598.000
494.8500, 9757.000
496.0340, 9871.000
497.2170, 9679.000
498.4000, 9844.000
499.5820, 9939.000
500.7650, 9983.000
501.9480, 10148.00
503.1300, 10094.00
504.3120, 10294.00
505.4940, 10518.00
506.6760, 10553.00
507.8580, 10852.00
509.0390, 11042.00
510.2210, 11320.00
511.4020, 11446.00
512.5830, 11919.00
513.7640, 12352.00
514.9450, 12578.00
516.1250, 12766.84
517.3060, 12826.00
518.4860, 12802.00
519.6660, 12780.00
520.8460, 12574.00
522.0260, 12353.00
523.2060, 11923.00
524.3850, 11570.00
525.5650, 11140.00
526.7440, 10912.00
527.9230, 10409.00
529.1020, 10241.00
530.2810, 10008.00
531.4590, 9657.000
532.6380, 9492.000
533.8160, 9520.000
534.9940, 9301.000
536.1720, 9273.000
537.3500, 9204.000
538.5270, 9176.000
539.7050, 9120.739
540.8820, 9045.000
542.0590, 9033.000
543.2360, 8898.000
544.4130, 8882.000
545.5900, 8844.044
546.7660, 8754.000
547.9430, 8795.000
549.1190, 8827.000
550.2950, 8799.000
551.4710, 8916.000
552.6470, 8939.000
553.8220, 9041.000
554.9980, 9090.000
556.1730, 9137.000
557.3480, 9139.000
558.5230, 9082.000
559.6980, 9326.000
560.8730, 9088.000
562.0470, 9171.000
563.2220, 9384.000
564.3960, 9218.000
565.5700, 9353.000
566.7440, 9308.000
567.9170, 9226.000
569.0910, 9333.000
570.2640, 9395.000
571.4380, 9361.000
572.6110, 9573.000
573.7840, 9444.000
574.9570, 9503.000
576.1290, 9461.000
577.3020, 9589.000
578.4740, 9433.000
579.6460, 9509.000
580.8180, 9495.000
581.9900, 9512.000
583.1620, 9538.000
584.3330, 9511.000
585.5040, 9386.000
586.6760, 9394.000
587.8470, 9340.000
589.0180, 9387.000
590.1880, 9417.000
591.3590, 9431.554
592.5290, 9453.195
593.7000, 9512.000
594.8700, 9390.000
596.0400, 9427.000
597.2090, 9437.705
598.3790, 9562.000
599.5490, 9533.000
600.7180, 9535.000
601.8870, 9673.000
603.0560, 9753.686
604.2250, 9897.000
605.3940, 10106.00
606.5620, 10369.00
607.7300, 10661.00
608.8990, 10897.00
610.0670, 11211.00
611.2350, 11335.00
612.4020, 11383.00
613.5700, 11176.00
614.7370, 10855.00
615.9050, 10747.00
617.0720, 10463.00
618.2390, 10088.00
619.4060, 9977.000
620.5720, 9705.000
621.7390, 9648.000
622.9050, 9400.000
624.0710, 9416.000
625.2370, 9252.000
626.4030, 9194.000
627.5690, 9175.000
628.7340, 9195.000
629.9000, 9150.000
631.0650, 9142.000
632.2300, 9176.000
633.3950, 9141.000
634.5600, 9179.872
635.7240, 9202.000
636.8890, 9187.000
638.0530, 9131.000
639.2170, 9023.000
640.3810, 9152.000
641.5450, 9244.000
642.7080, 9171.000
643.8720, 9174.000
645.0350, 9287.000
646.1980, 9165.000
647.3610, 9204.000
648.5240, 9247.000
649.6870, 9224.000
650.8490, 9329.000
652.0120, 9464.000
653.1740, 9593.000
654.3360, 9620.000
655.4980, 9513.000
656.6600, 9760.000
657.8210, 9778.000
658.9830, 9955.000
660.1440, 10087.00
661.3050, 10354.00
662.4660, 10475.00
663.6270, 10728.00
664.7870, 10959.00
665.9480, 11273.00
667.1080, 11573.00
668.2680, 11978.00
669.4280, 12641.00
670.5880, 13334.00
671.7480, 14139.00
672.9070, 15349.00
674.0670, 16681.00
675.2260, 18550.00
676.3850, 20953.00
677.5440, 24272.00
678.7030, 28603.00
679.8610, 33174.00
681.0200, 39108.00
682.1780, 45143.00
683.3360, 51263.00
684.4940, 56387.00
685.6520, 59558.00
686.8090, 59491.00
687.9670, 57614.00
689.1240, 53038.00
690.2810, 47495.00
691.4380, 41138.00
692.5950, 35174.00
693.7520, 29574.00
694.9080, 25314.00
696.0650, 21857.00
697.2210, 19646.00
698.3770, 17693.00
699.5330, 16133.00
700.6880, 14928.00
701.8440, 14048.00
702.9990, 13361.00
704.1550, 12854.00
705.3100, 12307.00
706.4650, 11880.27
707.6190, 11394.00
708.7740, 11174.00
709.9290, 10943.00
711.0830, 10679.77
712.2370, 10409.00
713.3910, 10208.00
714.5450, 9971.000
715.6980, 9752.000
716.8520, 9801.000
718.0050, 9731.000
719.1580, 9619.000
720.3110, 9541.000
721.4640, 9368.000
722.6170, 9237.000
723.7700, 9216.000
724.9220, 9133.000
726.0740, 9251.000
727.2260, 9027.000
728.3780, 9217.000
729.5300, 9086.000
730.6810, 9121.000
731.8330, 8994.000
732.9840, 8949.000
734.1350, 9034.000
735.2860, 8911.000
736.4370, 8863.000
737.5880, 8907.000
738.7380, 8881.000
739.8880, 8866.000
741.0390, 8824.000
742.1890, 8858.000
743.3380, 8807.000
744.4880, 8909.000
745.6380, 8858.000
746.7870, 8851.000
747.9360, 8853.000
749.0850, 8812.000
750.2340, 8749.000
751.3830, 8870.000
752.5310, 8938.000
753.6800, 8870.000
754.8280, 8868.000
755.9760, 8901.000
757.1240, 8942.000
758.2720, 8933.000
759.4190, 8968.000
760.5670, 8894.000
761.7140, 8914.000
762.8610, 8972.000
764.0080, 8935.000
765.1550, 9012.000
766.3020, 9144.000
767.4480, 9063.000
768.5950, 9110.000
769.7410, 9192.000
770.8870, 9182.000
772.0330, 9133.000
773.1780, 9197.000
774.3240, 9141.150
775.4690, 9049.000
776.6140, 9087.000
777.7590, 8959.000
778.9040, 8927.000
780.0490, 8971.000
781.1940, 8949.000
782.3380, 8868.000
783.4820, 8880.000
784.6260, 8900.000
785.7700, 8758.000
786.9140, 8810.000
788.0580, 8762.000
789.2010, 8767.000
790.3450, 8693.000
791.4880, 8817.000
792.6310, 8742.000
793.7730, 8735.668
794.9160, 8728.048
796.0590, 8667.000
797.2010, 8671.000
798.3430, 8623.000
799.4850, 8643.000
800.6270, 8608.004
801.7690, 8571.000
802.9100, 8571.000
804.0520, 8551.000
805.1930, 8563.000
806.3340, 8652.000
807.4750, 8522.000
808.6160, 8457.000
809.7560, 8554.000
810.8970, 8463.000
812.0370, 8547.000
813.1770, 8479.000
814.3170, 8517.000
815.4570, 8538.000
816.5960, 8425.000
817.7360, 8475.000
818.8750, 8434.000
820.0140, 8441.000
821.1530, 8450.000
822.2920, 8409.000
823.4310, 8424.841
824.5690, 8445.000
825.7070, 8442.000
826.8460, 8451.000
827.9840, 8502.000
829.1220, 8516.000
830.2590, 8493.628
831.3970, 8385.000
832.5340, 8422.000
833.6710, 8390.000
834.8080, 8335.000
835.9450, 8425.000
837.0820, 8424.000
838.2190, 8370.000
839.3550, 8470.000
840.4910, 8370.000
841.6270, 8546.000
842.7630, 8425.000
843.8990, 8440.000
845.0350, 8361.000
846.1700, 8415.000
847.3060, 8462.000
848.4410, 8528.000
849.5760, 8512.317
850.7100, 8501.000
851.8450, 8444.000
852.9800, 8537.000
854.1140, 8447.000
855.2480, 8404.000
856.3820, 8384.000
857.5160, 8483.000
858.6500, 8422.000
859.7830, 8511.000
860.9170, 8476.000
862.0500, 8490.000
863.1830, 8403.000
864.3160, 8391.000
865.4480, 8462.000
866.5810, 8375.000
867.7130, 8426.726
868.8460, 8434.905
869.9780, 8415.000
871.1100, 8459.000
872.2410, 8351.000
873.3730, 8323.000
874.5050, 8424.000
875.6360, 8478.000
876.7670, 8353.000
877.8980, 8404.000
879.0290, 8469.000
880.1590, 8502.000
881.2900, 8488.000
882.4200, 8377.000
883.5500, 8322.000
884.6800, 8397.000
885.8100, 8442.000
886.9400, 8465.000
888.0690, 8516.000
889.1990, 8574.000
890.3280, 8613.389
891.4570, 8634.308
892.5860, 8677.000
893.7140, 8673.000
894.8430, 8623.000
895.9710, 8670.000
897.1000, 8662.000
898.2280, 8734.000
899.3560, 8922.000
900.4830, 8835.000
901.6110, 8983.000
902.7380, 8887.000
903.8660, 8901.000
904.9930, 9020.000
906.1200, 9029.000
907.2460, 9035.000
908.3730, 9135.000
909.5000, 9097.000
910.6260, 9151.000
911.7520, 9201.000
912.8780, 9262.000
914.0040, 9194.000
915.1290, 9334.000
916.2550, 9364.000
917.3800, 9438.000
918.5050, 9329.000
919.6300, 9424.000
920.7550, 9394.000
921.8800, 9273.000
923.0040, 9351.000
924.1290, 9371.000
925.2530, 9220.000
926.3770, 9228.000
927.5010, 9269.000
928.6250, 9170.000
929.7480, 9131.000
930.8720, 9107.000
931.9950, 9064.773
933.1180, 9018.000
934.2410, 9014.000
935.3640, 9032.000
936.4860, 8974.000
937.6090, 8997.000
938.7310, 8947.000
939.8530, 8893.000
940.9750, 8897.000
942.0970, 8980.000
943.2180, 8799.000
944.3400, 8781.000
945.4610, 8900.000
946.5820, 8801.000
947.7030, 8844.000
948.8240, 8874.000
949.9450, 8810.000
951.0650, 8850.861
952.1860, 8811.000
953.3060, 8845.000
954.4260, 8799.000
955.5460, 8766.000
956.6650, 8830.000
957.7850, 8714.000
958.9040, 8846.000
960.0230, 8731.000
961.1420, 8956.000
962.2610, 8864.000
963.3800, 8877.000
964.4990, 8800.000
965.6170, 8946.000
966.7350, 8855.000
967.8530, 9010.000
968.9710, 8899.000
970.0890, 8890.000
971.2070, 8967.000
972.3240, 8936.000
973.4410, 9119.000
974.5580, 9026.000
975.6750, 9172.000
976.7920, 9254.000
977.9090, 9207.000
979.0250, 9324.000
980.1410, 9344.000
981.2580, 9554.000
982.3740, 9540.000
983.4890, 9691.000
984.6050, 9968.000
985.7200, 10114.00
986.8360, 10303.00
987.9510, 10500.00
989.0660, 10758.00
990.1810, 10851.00
991.2950, 11091.00
992.4100, 11423.00
993.5240, 11572.00
994.6390, 11827.00
995.7530, 11975.00
996.8660, 12181.00
997.9800, 12319.00
999.0940, 12595.00
1000.207, 12665.00
1001.320, 12877.00
1002.433, 12909.00
1003.546, 13196.00
1004.659, 13214.00
1005.772, 13444.00
1006.884, 13534.00
1007.996, 13670.00
1009.108, 13662.00
1010.220, 13623.00
1011.332, 13857.00
1012.444, 13798.00
1013.555, 13737.00
1014.666, 13580.00
1015.777, 13524.18
1016.888, 13363.00
1017.999, 13325.00
1019.110, 13256.00
1020.220, 13123.00
1021.331, 12914.00
1022.441, 12748.00
1023.551, 12705.00
1024.661, 12538.00
1025.770, 12531.00
1026.880, 12447.00
1027.989, 12294.00
1029.098, 12317.00
1030.207, 12273.00
1031.316, 12211.00
1032.425, 12339.00
1033.533, 12453.00
1034.642, 12532.00
1035.750, 12556.00
1036.858, 12662.00
1037.966, 12718.00
1039.073, 12975.00
1040.181, 13106.00
1041.288, 13559.00
1042.396, 13752.00
1043.503, 14054.00
1044.610, 14723.00
1045.716, 15076.00
1046.823, 15841.00
1047.929, 16283.00
1049.036, 17236.00
1050.142, 18100.00
1051.248, 18969.00
1052.353, 20331.00
1053.459, 21884.00
1054.564, 23780.00
1055.670, 25852.00
1056.775, 28021.00
1057.880, 30328.00
1058.985, 33258.00
1060.089, 35875.00
1061.194, 38890.00
1062.298, 41775.00
1063.402, 44394.00
1064.506, 46463.00
1065.610, 48465.00
1066.713, 49697.00
1067.817, 50348.00
1068.920, 50732.00
1070.023, 50410.00
1071.126, 49256.00
1072.229, 48036.00
1073.332, 46018.00
1074.435, 43625.00
1075.537, 40994.00
1076.639, 38631.00
1077.741, 36004.00
1078.843, 33749.00
1079.945, 31809.00
1081.046, 29605.00
1082.148, 28471.00
1083.249, 26988.00
1084.350, 26220.00
1085.451, 24789.00
1086.551, 23737.00
1087.652, 22841.00
1088.752, 22206.00
1089.853, 21583.00
1090.953, 20888.76
1092.053, 20428.00
1093.152, 19773.00
1094.252, 19405.00
1095.351, 19092.00
1096.451, 18339.00
1097.550, 18142.00
1098.649, 17690.00
1099.748, 17535.00
1100.846, 17074.00
1101.945, 16907.00
1103.043, 16563.00
1104.141, 16386.00
1105.239, 16245.00
1106.337, 15929.00
1107.434, 15796.00
1108.532, 15693.00
1109.629, 15635.00
1110.726, 15461.00
1111.823, 15501.00
1112.920, 15433.00
1114.017, 15253.00
1115.113, 15624.00
1116.210, 15649.00
1117.306, 15672.00
1118.402, 15733.00
1119.498, 15924.00
1120.593, 15908.00
1121.689, 16242.00
1122.784, 16142.00
1123.879, 16195.00
1124.974, 15991.00
1126.069, 15787.00
1127.164, 15678.00
1128.259, 15533.00
1129.353, 15128.00
1130.447, 14979.00
1131.541, 14776.00
1132.635, 14479.00
1133.729, 14355.00
1134.822, 14058.00
1135.916, 13825.00
1137.009, 13574.00
1138.102, 13296.00
1139.195, 13117.00
1140.288, 12833.00
1141.380, 12608.00
1142.473, 12453.00
1143.565, 12267.00
1144.657, 12075.00
1145.749, 11922.00
1146.841, 11678.00
1147.932, 11574.79
1149.024, 11565.00
1150.115, 11313.00
1151.206, 11254.00
1152.297, 11071.00
1153.388, 10897.00
1154.479, 10791.00
1155.569, 10494.00
1156.659, 10539.00
1157.750, 10357.00
1158.839, 10224.00
1159.929, 10206.00
1161.019, 10110.00
1162.108, 9935.000
1163.198, 9892.000
1164.287, 9740.000
1165.376, 9720.000
1166.465, 9664.000
1167.553, 9602.000
1168.642, 9539.000
1169.730, 9514.000
1170.818, 9507.000
1171.906, 9404.000
1172.994, 9439.000
1174.082, 9338.000
1175.170, 9407.000
1176.257, 9301.000
1177.344, 9305.000
1178.431, 9323.000
1179.518, 9284.000
1180.605, 9376.000
1181.691, 9396.000
1182.778, 9193.000
1183.864, 9338.000
1184.950, 9197.000
1186.036, 9220.000
1187.122, 9257.000
1188.207, 9194.000
1189.292, 9154.000
1190.378, 9125.000
1191.463, 9142.000
1192.548, 9171.000
1193.632, 9057.000
1194.717, 9035.000
1195.801, 8990.000
1196.886, 9065.000
1197.970, 9070.000
1199.054, 9135.000
1200.137, 9043.000
1201.221, 9037.000
1202.305, 9090.000
1203.388, 9112.000
1204.471, 9087.000
1205.554, 9069.000
1206.637, 9029.000
1207.719, 9204.000
1208.802, 9136.000
1209.884, 9145.000
1210.966, 9142.064
1212.048, 8977.000
1213.130, 9022.000
1214.212, 8939.000
1215.293, 8821.000
1216.374, 8920.000
1217.456, 8846.000
1218.536, 8720.000
1219.617, 8794.000
1220.698, 8570.000
1221.778, 8739.000
1222.859, 8607.000
1223.939, 8647.000
1225.019, 8702.000
1226.099, 8524.000
1227.178, 8552.000
1228.258, 8630.000
1229.337, 8572.000
1230.417, 8564.000
1231.496, 8552.000
1232.574, 8512.000
1233.653, 8451.000
1234.732, 8440.000
1235.810, 8361.000
1236.888, 8442.000
1237.966, 8474.000
1239.044, 8455.000
1240.122, 8390.000
1241.199, 8399.000
1242.277, 8356.000
1243.354, 8446.000
1244.431, 8401.000
1245.508, 8405.000
1246.585, 8334.000
1247.661, 8389.000
1248.738, 8372.000
1249.814, 8366.000
1250.890, 8255.000
1251.966, 8240.000
1253.042, 8272.000
1254.117, 8179.000
1255.193, 8270.000
1256.268, 8264.000
1257.343, 8220.000
1258.418, 8281.000
1259.493, 8234.000
1260.567, 8226.000
1261.642, 8294.000
1262.716, 8299.000
1263.790, 8275.000
1264.864, 8218.000
1265.938, 8241.000
1267.011, 8230.541
1268.085, 8377.000
1269.158, 8262.000
1270.231, 8312.000
1271.304, 8338.000
1272.377, 8251.000
1273.450, 8344.000
1274.522, 8296.000
1275.594, 8263.000
1276.666, 8283.000
1277.738, 8340.000
1278.810, 8265.000
1279.882, 8324.000
1280.953, 8348.890
1282.025, 8355.663
1283.096, 8347.000
1284.167, 8410.000
1285.238, 8222.000
1286.308, 8209.000
1287.379, 8397.000
1288.449, 8250.000
1289.519, 8167.000
1290.589, 8367.000
1291.659, 8339.000
