##NAMES=Beryl
##RRUFFID=R050368
##IDEAL CHEMISTRY=Be_3_Al_2_Si_6_O_18_
##LOCALITY=Wah Wah Mountains, Utah, USA
##OWNER=RRUFF
##SOURCE=Eugene Schlepp
##DESCRIPTION=Red-violet hexagonal prism
##STATUS=The identification of this mineral has been confirmed by X-ray diffraction and chemical analysis
##URL=rruff.info/R050368
##MEASURED CHEMISTRY=(Be_0.99_Li_0.01_)_3_(Al_0.95_Fe^3+^_0.05_)_2_Si_6.00_O_18_Î‡K_0.02_Na_0.01_
##PIN_ID=L01133
##ORIENTATION=Laser parallel to -a* (-1 0 0). Fiducial mark perpendicular to laser is parallel to -c [0 0 -1]
82.36700, 10016.00
83.60200, 10413.00
84.83700, 10467.00
86.07200, 10392.00
87.30800, 10515.00
88.54200, 10719.00
89.77700, 11176.00
91.01200, 11648.00
92.24600, 11768.00
93.48000, 11766.00
94.71400, 11820.00
95.94800, 11742.00
97.18200, 11708.05
98.41600, 11561.00
99.64900, 11497.00
100.8830, 11471.00
102.1160, 11240.00
103.3490, 11296.00
104.5820, 11646.00
105.8150, 12038.00
107.0470, 12361.00
108.2800, 12415.24
109.5120, 12138.56
110.7440, 12346.00
111.9760, 11501.00
113.2080, 11247.00
114.4400, 11616.00
115.6710, 11820.00
116.9030, 11800.00
118.1340, 11524.00
119.3650, 11134.00
120.5960, 11122.00
121.8270, 11308.00
123.0580, 11493.00
124.2880, 11309.00
125.5190, 11191.00
126.7490, 11065.00
127.9790, 11367.00
129.2090, 11610.00
130.4390, 11751.00
131.6680, 11541.00
132.8980, 11649.00
134.1270, 11646.00
135.3560, 11706.00
136.5850, 11864.00
137.8140, 11916.00
139.0430, 11962.00
140.2710, 11829.00
141.5000, 11387.00
142.7280, 11164.00
143.9560, 10873.00
145.1840, 10613.00
146.4120, 10561.00
147.6390, 10439.00
148.8670, 10322.00
150.0940, 10249.00
151.3210, 10187.00
152.5490, 10238.00
153.7750, 10191.00
155.0020, 10267.00
156.2290, 10037.00
157.4550, 9965.000
158.6810, 9874.000
159.9080, 10089.00
161.1340, 10064.00
162.3590, 10156.00
163.5850, 10271.00
164.8110, 10450.00
166.0360, 10624.00
167.2610, 10566.00
168.4860, 10709.00
169.7110, 10622.00
170.9360, 10798.00
172.1610, 10795.00
173.3850, 10688.00
174.6100, 10811.00
175.8340, 10948.00
177.0580, 10965.00
178.2820, 11012.00
179.5050, 11124.00
180.7290, 11189.74
181.9520, 11337.00
183.1760, 11415.00
184.3990, 11488.00
185.6220, 11643.00
186.8450, 11682.00
188.0670, 11696.00
189.2900, 11734.00
190.5120, 11878.00
191.7340, 11890.91
192.9560, 11959.00
194.1780, 12020.00
195.4000, 12065.00
196.6220, 12161.00
197.8430, 12231.00
199.0640, 12117.00
200.2860, 12246.00
201.5070, 12511.00
202.7270, 12583.00
203.9480, 12109.00
205.1690, 11545.00
206.3890, 11078.00
207.6090, 11001.00
208.8290, 10928.00
210.0490, 10800.00
211.2690, 10797.00
212.4890, 10855.00
213.7080, 10809.00
214.9280, 10856.00
216.1470, 10969.00
217.3660, 10852.00
218.5850, 10824.00
219.8030, 10838.00
221.0220, 10932.00
222.2400, 11006.00
223.4590, 11048.90
224.6770, 11096.00
225.8950, 11158.00
227.1120, 11135.00
228.3300, 11178.00
229.5480, 11266.00
230.7650, 11287.00
231.9820, 11397.00
233.1990, 11492.00
234.4160, 11509.00
235.6330, 11612.00
236.8490, 11559.00
238.0660, 11492.00
239.2820, 11506.00
240.4980, 11441.00
241.7140, 11360.00
242.9300, 11570.00
244.1460, 11594.00
245.3610, 11580.00
246.5770, 11905.00
247.7920, 11975.00
249.0070, 12121.00
250.2220, 12190.00
251.4370, 11888.00
252.6510, 11676.00
253.8660, 11458.00
255.0800, 11433.00
256.2940, 11182.00
257.5080, 11181.00
258.7220, 11360.00
259.9360, 11145.72
261.1490, 11322.00
262.3630, 10999.00
263.5760, 11043.00
264.7890, 11058.00
266.0020, 10987.00
267.2150, 11196.00
268.4270, 11282.00
269.6400, 11263.00
270.8520, 11256.00
272.0640, 11208.00
273.2760, 11254.00
274.4880, 11188.00
275.7000, 11440.00
276.9120, 11370.00
278.1230, 11273.00
279.3340, 11294.00
280.5450, 11195.00
281.7560, 11362.00
282.9670, 11455.00
284.1780, 11386.51
285.3880, 11431.00
286.5980, 11354.00
287.8090, 11227.00
289.0190, 11292.00
290.2290, 11367.00
291.4380, 11330.00
292.6480, 11455.00
293.8570, 11552.00
295.0670, 11574.00
296.2760, 11812.00
297.4850, 11840.00
298.6930, 11874.00
299.9020, 11995.00
301.1110, 12263.00
302.3190, 12419.00
303.5270, 12761.00
304.7350, 13033.00
305.9430, 13511.00
307.1510, 14072.00
308.3580, 14568.00
309.5660, 15737.00
310.7730, 17040.00
311.9800, 18807.00
313.1870, 20406.00
314.3940, 21933.00
315.6010, 23491.00
316.8070, 25280.00
318.0130, 26889.00
319.2200, 27335.00
320.4260, 25774.00
321.6310, 23363.00
322.8370, 20502.00
324.0430, 17990.00
325.2480, 15831.00
326.4540, 13974.00
327.6590, 12779.00
328.8640, 11870.00
330.0680, 11414.00
331.2730, 11161.00
332.4780, 10825.00
333.6820, 10811.00
334.8860, 10706.00
336.0900, 10629.00
337.2940, 10606.00
338.4980, 10581.00
339.7010, 10555.00
340.9050, 10455.00
342.1080, 10503.00
343.3110, 10366.00
344.5140, 10376.00
345.7170, 10384.00
346.9200, 10389.00
348.1220, 10323.00
349.3240, 10452.00
350.5270, 10277.00
351.7290, 10405.00
352.9310, 10204.00
354.1320, 10271.00
355.3340, 10317.00
356.5350, 10413.00
357.7370, 10261.00
358.9380, 10237.00
360.1390, 10239.00
361.3400, 10386.00
362.5400, 10496.00
363.7410, 10396.00
364.9410, 10383.00
366.1410, 10406.00
367.3410, 10509.00
368.5410, 10557.00
369.7410, 10755.00
370.9400, 10841.00
372.1400, 10962.00
373.3390, 11078.00
374.5380, 11321.00
375.7370, 11590.83
376.9360, 11910.00
378.1350, 12300.00
379.3330, 12765.00
380.5310, 13216.00
381.7300, 13635.00
382.9280, 14570.00
384.1260, 15545.00
385.3230, 17205.00
386.5210, 18792.00
387.7180, 20338.00
388.9160, 21994.00
390.1130, 23848.00
391.3100, 25326.00
392.5060, 25895.00
393.7030, 25393.00
394.9000, 24103.00
396.0960, 21913.00
397.2920, 19531.00
398.4880, 17608.00
399.6840, 16149.00
400.8800, 14716.00
402.0750, 13789.00
403.2710, 13063.00
404.4660, 12658.00
405.6610, 12477.00
406.8560, 12311.00
408.0510, 12105.00
409.2450, 12105.00
410.4400, 12159.00
411.6340, 12185.00
412.8280, 12273.00
414.0220, 12251.00
415.2160, 12257.00
416.4100, 12305.00
417.6030, 12154.00
418.7970, 12049.00
419.9900, 12041.00
421.1830, 11762.00
422.3760, 11943.00
423.5690, 11702.00
424.7610, 11622.00
425.9540, 11751.00
427.1460, 11579.00
428.3380, 11710.00
429.5300, 11546.00
430.7220, 11725.00
431.9140, 11931.00
433.1050, 12254.00
434.2970, 12404.00
435.4880, 12804.00
436.6790, 13208.00
437.8700, 13493.00
439.0610, 13855.00
440.2510, 14112.00
441.4420, 14125.00
442.6320, 13958.00
443.8220, 13694.00
445.0120, 13410.00
446.2020, 12988.00
447.3910, 12753.00
448.5810, 12358.00
449.7700, 12001.00
450.9600, 11857.00
452.1490, 11617.00
453.3370, 11386.00
454.5260, 11426.00
455.7150, 11146.00
456.9030, 11246.00
458.0910, 11170.00
459.2800, 11173.00
460.4670, 11097.00
461.6550, 11159.00
462.8430, 10998.00
464.0300, 11068.00
465.2180, 10897.00
466.4050, 10956.00
467.5920, 11008.00
468.7790, 11082.00
469.9650, 11061.00
471.1520, 10978.00
472.3380, 10979.00
473.5250, 11048.00
474.7110, 11144.00
475.8970, 11164.00
477.0820, 11290.00
478.2680, 11381.00
479.4540, 11435.15
480.6390, 11487.21
481.8240, 11531.00
483.0090, 11559.00
484.1940, 11608.98
485.3780, 11611.00
486.5630, 11700.00
487.7470, 11780.00
488.9320, 11843.00
490.1160, 11831.86
491.3000, 11711.00
492.4830, 11802.00
493.6670, 11758.00
494.8500, 11815.00
496.0340, 11827.00
497.2170, 11815.00
498.4000, 11862.00
499.5820, 11917.00
500.7650, 11955.20
501.9480, 12180.00
503.1300, 12068.00
504.3120, 12066.00
505.4940, 12103.00
506.6760, 11958.00
507.8580, 12185.00
509.0390, 12297.00
510.2210, 12091.00
511.4020, 12285.00
512.5830, 12572.00
513.7640, 12444.00
514.9450, 12782.00
516.1250, 13003.00
517.3060, 13264.00
518.4860, 13568.00
519.6660, 13909.00
520.8460, 14120.00
522.0260, 14271.00
523.2060, 14538.00
524.3850, 14462.00
525.5650, 14491.00
526.7440, 14214.00
527.9230, 13996.00
529.1020, 13639.00
530.2810, 13361.00
531.4590, 13104.00
532.6380, 12836.00
533.8160, 12714.00
534.9940, 12423.00
536.1720, 12290.00
537.3500, 12153.00
538.5270, 11860.00
539.7050, 11937.00
540.8820, 11855.00
542.0590, 11719.00
543.2360, 11634.00
544.4130, 11523.00
545.5900, 11578.00
546.7660, 11429.00
547.9430, 11398.00
549.1190, 11430.00
550.2950, 11347.00
551.4710, 11404.00
552.6470, 11342.00
553.8220, 11349.00
554.9980, 11432.00
556.1730, 11420.00
557.3480, 11463.00
558.5230, 11568.00
559.6980, 11586.00
560.8730, 11576.00
562.0470, 11739.00
563.2220, 11733.00
564.3960, 11839.00
565.5700, 11749.00
566.7440, 11951.00
567.9170, 11911.00
569.0910, 11973.00
570.2640, 12135.00
571.4380, 12252.00
572.6110, 12428.00
573.7840, 12548.00
574.9570, 12646.00
576.1290, 12796.00
577.3020, 12883.00
578.4740, 13162.00
579.6460, 13257.00
580.8180, 13426.00
581.9900, 13496.00
583.1620, 13663.00
584.3330, 13815.77
585.5040, 14061.00
586.6760, 14154.00
587.8470, 14334.00
589.0180, 14517.00
590.1880, 14691.00
591.3590, 14855.00
592.5290, 14877.00
593.7000, 14994.00
594.8700, 14982.00
596.0400, 14904.00
597.2090, 14817.00
598.3790, 14664.00
599.5490, 14487.00
600.7180, 14391.00
601.8870, 14479.00
603.0560, 14161.00
604.2250, 14256.00
605.3940, 14030.00
606.5620, 14012.00
607.7300, 14049.00
608.8990, 14142.00
610.0670, 13936.00
611.2350, 14018.00
612.4020, 13959.00
613.5700, 14199.00
614.7370, 14325.00
615.9050, 14369.00
617.0720, 14446.00
618.2390, 14291.00
619.4060, 14265.00
620.5720, 14126.00
621.7390, 14004.00
622.9050, 13675.00
624.0710, 13493.00
625.2370, 13288.00
626.4030, 13032.00
627.5690, 12975.00
628.7340, 12688.00
629.9000, 12887.00
631.0650, 12959.00
632.2300, 12906.00
633.3950, 12958.00
634.5600, 13017.00
635.7240, 13087.00
636.8890, 13168.00
638.0530, 13234.05
639.2170, 13285.00
640.3810, 13374.00
641.5450, 13403.00
642.7080, 13455.00
643.8720, 13478.00
645.0350, 13356.00
646.1980, 13602.00
647.3610, 13864.00
648.5240, 13536.00
649.6870, 13490.00
650.8490, 13557.00
652.0120, 13434.00
653.1740, 13661.00
654.3360, 13608.00
655.4980, 13775.00
656.6600, 14138.00
657.8210, 14465.00
658.9830, 14719.00
660.1440, 15048.00
661.3050, 15637.00
662.4660, 16202.00
663.6270, 16895.00
664.7870, 17449.00
665.9480, 18364.00
667.1080, 19477.00
668.2680, 20576.00
669.4280, 22207.00
670.5880, 24547.00
671.7480, 27755.02
672.9070, 31195.00
674.0670, 36230.00
675.2260, 41589.00
676.3850, 47625.00
677.5440, 53540.00
678.7030, 59313.00
679.8610, 62765.00
681.0200, 63375.00
682.1780, 60685.00
683.3360, 55511.00
684.4940, 48251.00
685.6520, 41426.00
686.8090, 35374.00
687.9670, 30479.00
689.1240, 26586.00
690.2810, 23867.00
691.4380, 21555.00
692.5950, 20153.00
693.7520, 18799.00
694.9080, 17781.00
696.0650, 16939.00
697.2210, 16231.00
698.3770, 15788.00
699.5330, 15376.00
700.6880, 14724.00
701.8440, 14574.00
702.9990, 14046.00
704.1550, 13824.00
705.3100, 13715.00
706.4650, 13268.00
707.6190, 13498.00
708.7740, 13044.00
709.9290, 12864.00
711.0830, 12770.00
712.2370, 12618.00
713.3910, 12648.00
714.5450, 12564.00
715.6980, 12471.00
716.8520, 12356.00
718.0050, 12205.00
719.1580, 12305.00
720.3110, 12230.00
721.4640, 12128.00
722.6170, 12023.00
723.7700, 11960.00
724.9220, 11940.09
726.0740, 12011.00
727.2260, 11946.00
728.3780, 11982.00
729.5300, 11977.00
730.6810, 11910.00
731.8330, 12039.00
732.9840, 12032.00
734.1350, 11982.00
735.2860, 11998.00
736.4370, 12081.00
737.5880, 12042.00
738.7380, 12076.00
739.8880, 12178.00
741.0390, 12116.00
742.1890, 12161.00
743.3380, 12489.00
744.4880, 12770.00
745.6380, 11966.00
746.7870, 12224.00
747.9360, 12209.00
749.0850, 12183.00
750.2340, 12176.00
751.3830, 12374.00
752.5310, 12425.54
753.6800, 12672.00
754.8280, 12643.00
755.9760, 12667.00
757.1240, 12627.00
758.2720, 12771.00
759.4190, 12836.00
760.5670, 13184.00
761.7140, 13472.00
762.8610, 13385.00
764.0080, 14026.00
765.1550, 14067.00
766.3020, 14099.00
767.4480, 14149.00
768.5950, 14168.00
769.7410, 14029.00
770.8870, 13877.00
772.0330, 13574.00
773.1780, 13445.00
774.3240, 13237.00
775.4690, 12978.00
776.6140, 12884.00
777.7590, 12719.00
778.9040, 12578.00
780.0490, 12578.00
781.1940, 12292.00
782.3380, 12348.00
783.4820, 12294.00
784.6260, 12305.00
785.7700, 12139.00
786.9140, 12306.00
788.0580, 12127.00
789.2010, 12131.00
790.3450, 12049.00
791.4880, 12074.00
792.6310, 12130.00
793.7730, 12063.00
794.9160, 11961.00
796.0590, 12158.00
797.2010, 12003.08
798.3430, 12318.00
799.4850, 11926.00
800.6270, 11950.00
801.7690, 12022.00
802.9100, 12004.00
804.0520, 12008.00
805.1930, 12073.00
806.3340, 12133.00
807.4750, 12169.02
808.6160, 12045.00
809.7560, 12207.00
810.8970, 12144.00
812.0370, 12017.00
813.1770, 12136.00
814.3170, 12157.00
815.4570, 12185.00
816.5960, 12142.00
817.7360, 12053.00
818.8750, 12063.00
820.0140, 12140.00
821.1530, 12066.00
822.2920, 12173.00
823.4310, 12130.00
824.5690, 12156.00
825.7070, 12308.00
826.8460, 12144.00
827.9840, 12032.00
829.1220, 12211.00
830.2590, 12242.00
831.3970, 12320.00
832.5340, 12226.00
833.6710, 12145.00
834.8080, 12181.00
835.9450, 12256.00
837.0820, 12307.00
838.2190, 12190.00
839.3550, 12370.00
840.4910, 12184.00
841.6270, 12282.00
842.7630, 12258.00
843.8990, 12387.00
845.0350, 12456.00
846.1700, 12381.00
847.3060, 12367.00
848.4410, 12494.00
849.5760, 12449.00
850.7100, 12429.00
851.8450, 12493.00
852.9800, 12620.00
854.1140, 12469.00
855.2480, 12567.00
856.3820, 12537.00
857.5160, 12499.00
858.6500, 12656.00
859.7830, 12525.00
860.9170, 12641.00
862.0500, 12655.00
863.1830, 12580.00
864.3160, 12742.00
865.4480, 12814.00
866.5810, 12914.00
867.7130, 12573.00
868.8460, 12806.00
869.9780, 12768.00
871.1100, 12892.00
872.2410, 13018.00
873.3730, 12824.00
874.5050, 13003.00
875.6360, 12995.00
876.7670, 13063.00
877.8980, 13131.00
879.0290, 13171.00
880.1590, 13159.00
881.2900, 13270.27
882.4200, 13478.00
883.5500, 13339.00
884.6800, 13647.00
885.8100, 13454.00
886.9400, 13719.00
888.0690, 13549.00
889.1990, 13651.00
890.3280, 13601.00
891.4570, 13602.00
892.5860, 13636.00
893.7140, 13787.00
894.8430, 13858.00
895.9710, 13921.00
897.1000, 13938.00
898.2280, 14019.00
899.3560, 14199.00
900.4830, 14263.00
901.6110, 14594.00
902.7380, 14789.00
903.8660, 14799.00
904.9930, 15190.00
906.1200, 15609.00
907.2460, 15780.00
908.3730, 16064.00
909.5000, 16361.00
910.6260, 16733.00
911.7520, 17011.00
912.8780, 17323.00
914.0040, 17317.00
915.1290, 17275.00
916.2550, 17270.00
917.3800, 16953.00
918.5050, 16841.00
919.6300, 16438.00
920.7550, 16037.00
921.8800, 15837.00
923.0040, 15342.00
924.1290, 15239.00
925.2530, 14999.00
926.3770, 14852.00
927.5010, 14539.00
928.6250, 14397.00
929.7480, 14289.00
930.8720, 14109.00
931.9950, 14183.00
933.1180, 14021.00
934.2410, 13956.00
935.3640, 13924.00
936.4860, 13679.00
937.6090, 13850.00
938.7310, 13737.00
939.8530, 13781.00
940.9750, 13542.00
942.0970, 13561.00
943.2180, 13530.00
944.3400, 13586.00
945.4610, 13496.00
946.5820, 13602.00
947.7030, 13432.00
948.8240, 13455.00
949.9450, 13446.00
951.0650, 13440.00
952.1860, 13473.00
953.3060, 13373.00
954.4260, 13330.00
955.5460, 13454.00
956.6650, 13611.00
957.7850, 13615.59
958.9040, 13657.33
960.0230, 13733.00
961.1420, 13655.00
962.2610, 13708.00
963.3800, 13786.00
964.4990, 13872.00
965.6170, 13839.00
966.7350, 13873.00
967.8530, 13990.00
968.9710, 13881.00
970.0890, 13940.00
971.2070, 14011.00
972.3240, 14151.00
973.4410, 14100.00
974.5580, 14211.00
975.6750, 14147.00
976.7920, 14199.00
977.9090, 14303.00
979.0250, 14295.00
980.1410, 14390.51
981.2580, 14430.00
982.3740, 14608.00
983.4890, 14699.00
984.6050, 14974.00
985.7200, 15026.00
986.8360, 15262.00
987.9510, 15385.00
989.0660, 15497.00
990.1810, 15845.00
991.2950, 15908.00
992.4100, 16336.00
993.5240, 16565.00
994.6390, 16894.00
995.7530, 17071.00
996.8660, 17655.00
997.9800, 18002.00
999.0940, 18364.00
1000.207, 18861.00
1001.320, 19081.00
1002.433, 19573.00
1003.546, 19838.00
1004.659, 20360.00
1005.772, 20467.00
1006.884, 20507.00
1007.996, 20500.00
1009.108, 20300.81
1010.220, 20066.97
1011.332, 19727.00
1012.444, 19337.00
1013.555, 18964.00
1014.666, 18530.00
1015.777, 18408.00
1016.888, 18038.00
1017.999, 17664.00
1019.110, 17430.00
1020.220, 17367.00
1021.331, 17256.00
1022.441, 17231.00
1023.551, 17112.33
1024.661, 17133.00
1025.770, 17085.83
1026.880, 16998.00
1027.989, 17065.00
1029.098, 17105.00
1030.207, 17131.00
1031.316, 17370.00
1032.425, 17396.00
1033.533, 17357.00
1034.642, 17611.00
1035.750, 17687.00
1036.858, 17968.00
1037.966, 18204.00
1039.073, 18409.00
1040.181, 19137.00
1041.288, 19220.88
1042.396, 19606.00
1043.503, 19800.00
1044.610, 20414.00
1045.716, 20896.00
1046.823, 21624.00
1047.929, 22638.00
1049.036, 23452.00
1050.142, 24322.00
1051.248, 25702.00
1052.353, 27265.10
1053.459, 29176.00
1054.564, 31364.00
1055.670, 34012.00
1056.775, 36947.00
1057.880, 40681.00
1058.985, 44595.00
1060.089, 49043.00
1061.194, 53282.00
1062.298, 57029.00
1063.402, 60225.00
1064.506, 62223.00
1065.610, 62877.00
1066.713, 61951.00
1067.817, 60049.00
1068.920, 56928.00
1070.023, 53142.00
1071.126, 48986.00
1072.229, 45020.00
1073.332, 41449.00
1074.435, 38396.00
1075.537, 35794.00
1076.639, 33407.00
1077.741, 31497.00
1078.843, 29824.00
1079.945, 28570.00
1081.046, 27190.00
1082.148, 26081.00
1083.249, 25135.00
1084.350, 24282.00
1085.451, 23285.00
1086.551, 22633.16
1087.652, 22180.00
1088.752, 21454.00
1089.853, 20990.00
1090.953, 20669.00
1092.053, 20191.00
1093.152, 19610.00
1094.252, 19401.00
1095.351, 19038.00
1096.451, 18780.00
1097.550, 18539.00
1098.649, 18329.00
1099.748, 18265.00
1100.846, 17959.75
1101.945, 17757.36
1103.043, 17581.00
1104.141, 17247.00
1105.239, 17323.00
1106.337, 17119.00
1107.434, 17163.00
1108.532, 17150.00
1109.629, 16872.00
1110.726, 16925.00
1111.823, 16749.00
1112.920, 16718.00
1114.017, 16819.00
1115.113, 16598.00
1116.210, 16635.00
1117.306, 16504.00
1118.402, 16562.00
1119.498, 16482.00
1120.593, 16621.00
1121.689, 16557.80
1122.784, 16527.00
1123.879, 16433.00
1124.974, 16421.00
1126.069, 16329.09
1127.164, 16271.00
1128.259, 16146.00
1129.353, 16122.00
1130.447, 15996.00
1131.541, 16060.00
1132.635, 15907.00
1133.729, 15745.00
1134.822, 15755.00
1135.916, 15767.00
1137.009, 15800.00
1138.102, 15657.00
1139.195, 15528.00
1140.288, 15421.00
1141.380, 15394.00
1142.473, 15323.00
1143.565, 15226.00
1144.657, 15178.00
1145.749, 14987.00
1146.841, 14989.00
1147.932, 15146.00
1149.024, 14923.00
1150.115, 15001.00
1151.206, 14895.00
1152.297, 14930.00
1153.388, 14797.00
1154.479, 14794.00
1155.569, 14841.00
1156.659, 14926.00
1157.750, 15001.00
1158.839, 14896.00
1159.929, 14793.00
1161.019, 14848.00
1162.108, 14906.00
1163.198, 14867.00
1164.287, 14848.00
1165.376, 14980.00
1166.465, 14998.00
1167.553, 15040.00
1168.642, 15064.00
1169.730, 15058.00
1170.818, 15100.00
1171.906, 15204.00
1172.994, 15116.00
1174.082, 15285.00
1175.170, 15340.00
1176.257, 15341.00
1177.344, 15351.00
1178.431, 15256.00
1179.518, 15374.00
1180.605, 15342.00
1181.691, 15534.00
1182.778, 15345.00
1183.864, 15556.00
1184.950, 15515.00
1186.036, 15692.00
1187.122, 15780.00
1188.207, 16062.00
1189.292, 16064.08
1190.378, 16085.71
1191.463, 16082.00
1192.548, 16026.00
1193.632, 15923.00
1194.717, 15976.00
1195.801, 15972.00
1196.886, 15874.00
1197.970, 15903.00
1199.054, 15998.00
1200.137, 16073.00
1201.221, 15916.00
1202.305, 16012.00
1203.388, 16096.00
1204.471, 15972.00
1205.554, 16163.00
1206.637, 15944.00
1207.719, 16002.00
1208.802, 16147.00
1209.884, 16184.00
1210.966, 16373.00
1212.048, 16341.00
1213.130, 16503.00
1214.212, 16661.00
1215.293, 16888.00
1216.374, 17014.06
1217.456, 17022.00
1218.536, 17251.00
1219.617, 17366.00
1220.698, 17363.00
1221.778, 17774.00
1222.859, 17603.00
1223.939, 17580.00
1225.019, 17883.00
1226.099, 17553.00
1227.178, 17531.00
1228.258, 17583.00
1229.337, 17396.00
1230.417, 17334.00
1231.496, 17198.00
1232.574, 17079.00
1233.653, 17159.00
1234.732, 17186.00
1235.810, 17342.00
1236.888, 17491.00
1237.966, 17559.00
1239.044, 17577.00
1240.122, 17606.53
1241.199, 17605.51
1242.277, 17565.00
1243.354, 17467.00
1244.431, 17440.00
1245.508, 17141.00
1246.585, 16843.00
1247.661, 16977.00
1248.738, 16531.00
1249.814, 16666.00
1250.890, 16646.00
1251.966, 16440.00
1253.042, 16417.00
1254.117, 16289.00
1255.193, 16442.00
1256.268, 16432.00
1257.343, 16398.00
1258.418, 16295.00
1259.493, 16248.00
1260.567, 16239.00
1261.642, 16214.73
1262.716, 16289.00
1263.790, 16257.00
