##NAMES=Beryl
##RRUFFID=R050347
##IDEAL CHEMISTRY=Be_3_Al_2_Si_6_O_18_
##LOCALITY=North Keystone, South Dakota, USA
##OWNER=RRUFF
##SOURCE=California Institute of Technology
##DESCRIPTION=Colorless fragment
##STATUS=The identification of this mineral has been confirmed by X-ray diffraction and chemical analysis
##URL=rruff.info/R050347
##MEASURED CHEMISTRY=(Be_0.96_Li_0.04_)_3_Al_2.00_(Si_0.99_Al_0.01_)_6_O_18_ Î‡0.17Na
##PIN_ID=L00581
##ORIENTATION=Laser parallel to c* (0 0 1). Fiducial mark perpendicular to laser is parallel to b [0 1 0]
211.2690, 13529.00
212.4890, 13618.00
213.7080, 13661.00
214.9280, 13704.00
216.1470, 13703.00
217.3660, 13717.00
218.5850, 13773.00
219.8030, 13898.00
221.0220, 13750.00
222.2400, 14036.00
223.4590, 13826.00
224.6770, 13962.00
225.8950, 13898.00
227.1120, 13971.00
228.3300, 14075.00
229.5480, 14033.00
230.7650, 14087.00
231.9820, 14048.00
233.1990, 14163.00
234.4160, 14081.00
235.6330, 14185.00
236.8490, 14213.00
238.0660, 14139.00
239.2820, 14327.00
240.4980, 14368.00
241.7140, 14272.00
242.9300, 14326.00
244.1460, 14149.00
245.3610, 14327.00
246.5770, 14173.00
247.7920, 14376.00
249.0070, 14220.00
250.2220, 14396.00
251.4370, 14505.00
252.6510, 14237.00
253.8660, 14359.00
255.0800, 14105.00
256.2940, 14219.00
257.5080, 14276.00
258.7220, 14503.00
259.9360, 14685.00
261.1490, 14355.00
262.3630, 14191.00
263.5760, 14034.00
264.7890, 14115.00
266.0020, 14174.00
267.2150, 14219.00
268.4270, 14298.00
269.6400, 14222.00
270.8520, 14410.00
272.0640, 14360.00
273.2760, 14210.00
274.4880, 14387.00
275.7000, 14426.00
276.9120, 14521.00
278.1230, 14545.00
279.3340, 14592.00
280.5450, 14787.00
281.7560, 14742.00
282.9670, 14912.00
284.1780, 15155.00
285.3880, 15327.00
286.5980, 15509.00
287.8090, 15724.00
289.0190, 16245.00
290.2290, 16593.00
291.4380, 16701.00
292.6480, 16661.00
293.8570, 16359.00
295.0670, 16191.00
296.2760, 15918.00
297.4850, 15646.00
298.6930, 15477.00
299.9020, 15316.30
301.1110, 15253.95
302.3190, 15175.00
303.5270, 15257.00
304.7350, 15363.00
305.9430, 15430.00
307.1510, 15705.00
308.3580, 15516.00
309.5660, 15823.00
310.7730, 16046.00
311.9800, 16360.00
313.1870, 16582.00
314.3940, 17065.00
315.6010, 17296.00
316.8070, 17835.00
318.0130, 18271.00
319.2200, 18763.00
320.4260, 19127.00
321.6310, 19455.00
322.8370, 19474.00
324.0430, 19019.00
325.2480, 18354.00
326.4540, 17346.00
327.6590, 16525.00
328.8640, 16166.00
330.0680, 15675.00
331.2730, 15442.00
332.4780, 15145.00
333.6820, 15127.00
334.8860, 14988.00
336.0900, 15016.00
337.2940, 14919.95
338.4980, 14910.39
339.7010, 14863.00
340.9050, 14833.00
342.1080, 14832.56
343.3110, 14810.00
344.5140, 14866.00
345.7170, 14970.00
346.9200, 15070.00
348.1220, 14981.00
349.3240, 14924.00
350.5270, 15098.00
351.7290, 15149.00
352.9310, 15153.00
354.1320, 15202.00
355.3340, 15110.00
356.5350, 15253.00
357.7370, 15268.00
358.9380, 15157.00
360.1390, 15112.00
361.3400, 15191.00
362.5400, 15220.00
363.7410, 15312.00
364.9410, 15182.00
366.1410, 15342.00
367.3410, 15335.00
368.5410, 15451.00
369.7410, 15456.00
370.9400, 15446.00
372.1400, 15662.00
373.3390, 15505.00
374.5380, 15595.00
375.7370, 15874.00
376.9360, 15822.00
378.1350, 15930.00
379.3330, 16261.00
380.5310, 16524.00
381.7300, 16653.00
382.9280, 16920.00
384.1260, 17209.00
385.3230, 17647.00
386.5210, 18208.00
387.7180, 18964.00
388.9160, 19753.00
390.1130, 21003.00
391.3100, 22302.00
392.5060, 23523.00
393.7030, 24744.00
394.9000, 26206.00
396.0960, 27640.00
397.2920, 27828.00
398.4880, 27600.00
399.6840, 26661.00
400.8800, 24918.00
402.0750, 23451.00
403.2710, 22107.00
404.4660, 20751.00
405.6610, 19620.00
406.8560, 18944.00
408.0510, 18669.00
409.2450, 18646.00
410.4400, 18217.00
411.6340, 18204.00
412.8280, 18313.00
414.0220, 18531.00
415.2160, 18779.00
416.4100, 19276.00
417.6030, 19590.00
418.7970, 20161.00
419.9900, 20232.00
421.1830, 20427.00
422.3760, 20593.00
423.5690, 20082.00
424.7610, 19380.00
425.9540, 19190.00
427.1460, 18590.00
428.3380, 18236.00
429.5300, 17687.00
430.7220, 17407.00
431.9140, 17527.00
433.1050, 17411.00
434.2970, 17553.00
435.4880, 17698.00
436.6790, 17697.00
437.8700, 17681.00
439.0610, 17868.00
440.2510, 18054.00
441.4420, 17755.00
442.6320, 17889.00
443.8220, 17671.00
445.0120, 17768.00
446.2020, 17726.00
447.3910, 17580.00
448.5810, 17518.00
449.7700, 17314.00
450.9600, 17114.00
452.1490, 16842.00
453.3370, 16917.00
454.5260, 16681.00
455.7150, 16746.00
456.9030, 16643.00
458.0910, 16720.00
459.2800, 16392.00
460.4670, 16522.00
461.6550, 16488.00
462.8430, 16372.00
464.0300, 16466.00
465.2180, 16494.00
466.4050, 16427.00
467.5920, 16543.00
468.7790, 16459.00
469.9650, 16444.00
471.1520, 16505.00
472.3380, 16419.00
473.5250, 16537.00
474.7110, 16460.00
475.8970, 16448.00
477.0820, 16585.00
478.2680, 16653.00
479.4540, 16644.00
480.6390, 16661.00
481.8240, 16599.00
483.0090, 16487.00
484.1940, 16556.80
485.3780, 16613.00
486.5630, 16671.00
487.7470, 16556.00
488.9320, 16666.00
490.1160, 16770.00
491.3000, 16709.00
492.4830, 16860.00
493.6670, 16605.00
494.8500, 16652.00
496.0340, 16586.00
497.2170, 16607.95
498.4000, 16659.00
499.5820, 16745.00
500.7650, 16876.00
501.9480, 16910.00
503.1300, 16832.00
504.3120, 16787.00
505.4940, 16764.00
506.6760, 16776.00
507.8580, 16969.00
509.0390, 16902.00
510.2210, 17036.00
511.4020, 16856.00
512.5830, 16990.00
513.7640, 16983.00
514.9450, 17061.00
516.1250, 17009.00
517.3060, 17307.00
518.4860, 17446.00
519.6660, 17430.00
520.8460, 17484.00
522.0260, 17572.05
523.2060, 17658.00
524.3850, 17697.00
525.5650, 17857.00
526.7440, 17871.00
527.9230, 17772.00
529.1020, 17928.00
530.2810, 17890.00
531.4590, 17968.00
532.6380, 17881.00
533.8160, 17785.00
534.9940, 17829.00
536.1720, 17825.00
537.3500, 17797.00
538.5270, 17876.00
539.7050, 17879.00
540.8820, 17683.00
542.0590, 17785.00
543.2360, 17700.00
544.4130, 17710.00
545.5900, 17844.00
546.7660, 17612.00
547.9430, 17769.00
549.1190, 17746.00
550.2950, 17711.00
551.4710, 17827.00
552.6470, 18045.00
553.8220, 18107.00
554.9980, 18215.00
556.1730, 18198.00
557.3480, 18346.69
558.5230, 18275.00
559.6980, 18582.00
560.8730, 18811.00
562.0470, 18915.00
563.2220, 18809.00
564.3960, 18738.00
565.5700, 18972.00
566.7440, 19023.00
567.9170, 19062.00
569.0910, 19041.00
570.2640, 19202.00
571.4380, 19351.00
572.6110, 19563.00
573.7840, 19903.00
574.9570, 19822.00
576.1290, 19972.00
577.3020, 20151.00
578.4740, 19880.00
579.6460, 19915.00
580.8180, 19794.00
581.9900, 19569.00
583.1620, 19312.00
584.3330, 19160.00
585.5040, 19045.00
586.6760, 18771.00
587.8470, 18508.00
589.0180, 18533.00
590.1880, 18212.00
591.3590, 18190.00
592.5290, 18215.00
593.7000, 18136.00
594.8700, 18206.00
596.0400, 18168.00
597.2090, 18110.72
598.3790, 18043.00
599.5490, 18018.00
600.7180, 17921.00
601.8870, 17946.00
603.0560, 17935.00
604.2250, 17877.00
605.3940, 17896.00
606.5620, 17938.00
607.7300, 18080.00
608.8990, 18055.00
610.0670, 18040.00
611.2350, 17978.00
612.4020, 18044.00
613.5700, 18047.02
614.7370, 18137.00
615.9050, 18165.00
617.0720, 18307.00
618.2390, 18443.00
619.4060, 18389.00
620.5720, 18525.00
621.7390, 18445.00
622.9050, 18434.00
624.0710, 18534.00
625.2370, 18424.00
626.4030, 18395.00
627.5690, 18382.00
628.7340, 18335.73
629.9000, 18188.00
631.0650, 18289.00
632.2300, 18379.00
633.3950, 18331.00
634.5600, 18537.00
635.7240, 18310.00
636.8890, 18332.00
638.0530, 18401.00
639.2170, 18473.00
640.3810, 18555.00
641.5450, 18555.24
642.7080, 18618.00
643.8720, 18517.00
645.0350, 18528.00
646.1980, 18446.00
647.3610, 18707.00
648.5240, 18764.00
649.6870, 18713.00
650.8490, 18772.00
652.0120, 18706.00
653.1740, 18761.55
654.3360, 18811.57
655.4980, 18817.00
656.6600, 18976.00
657.8210, 18937.00
658.9830, 19071.00
660.1440, 19063.00
661.3050, 19475.00
662.4660, 19483.00
663.6270, 19668.00
664.7870, 19970.00
665.9480, 19967.00
667.1080, 20471.00
668.2680, 20761.00
669.4280, 21202.00
670.5880, 21912.00
671.7480, 22573.00
672.9070, 23511.00
674.0670, 24637.00
675.2260, 26266.00
676.3850, 28566.00
677.5440, 31465.00
678.7030, 34916.00
679.8610, 39096.00
681.0200, 44477.00
682.1780, 50370.00
683.3360, 56682.00
684.4940, 60513.00
685.6520, 62145.00
686.8090, 59243.00
687.9670, 53346.00
689.1240, 47247.00
690.2810, 40943.00
691.4380, 36276.00
692.5950, 32270.00
693.7520, 29656.00
694.9080, 27588.00
696.0650, 26342.00
697.2210, 24909.00
698.3770, 24230.00
699.5330, 23388.00
700.6880, 22970.00
701.8440, 22506.00
702.9990, 22059.00
704.1550, 21729.00
705.3100, 21783.00
706.4650, 21382.00
707.6190, 21247.00
708.7740, 20995.00
709.9290, 20872.00
711.0830, 20726.00
712.2370, 20644.00
713.3910, 20590.00
714.5450, 20398.00
715.6980, 20385.00
716.8520, 20152.00
718.0050, 20285.00
719.1580, 20297.00
720.3110, 20325.00
721.4640, 20257.00
722.6170, 20225.00
723.7700, 20290.00
724.9220, 20342.00
726.0740, 20200.00
727.2260, 20172.00
728.3780, 19993.00
729.5300, 20108.00
730.6810, 20033.21
731.8330, 20134.00
732.9840, 20085.00
734.1350, 20056.00
735.2860, 20204.00
736.4370, 20135.00
737.5880, 19983.00
738.7380, 20069.00
739.8880, 20392.00
741.0390, 20143.00
742.1890, 20263.00
743.3380, 20375.00
744.4880, 20109.00
745.6380, 20285.00
746.7870, 20169.00
747.9360, 20352.00
749.0850, 20339.00
750.2340, 20232.00
751.3830, 20394.00
752.5310, 20427.00
753.6800, 20337.00
754.8280, 20434.00
755.9760, 20389.00
757.1240, 20741.00
758.2720, 20580.00
759.4190, 20995.00
760.5670, 20809.00
761.7140, 21115.00
762.8610, 21051.00
764.0080, 21227.00
765.1550, 21317.00
766.3020, 21450.00
767.4480, 21375.00
768.5950, 21209.00
769.7410, 21273.00
770.8870, 21115.00
772.0330, 20990.00
773.1780, 20815.00
774.3240, 20646.00
775.4690, 20768.00
776.6140, 20603.00
777.7590, 20493.00
778.9040, 20692.00
780.0490, 20570.00
781.1940, 20531.00
782.3380, 20531.00
783.4820, 20428.00
784.6260, 20600.00
785.7700, 20417.00
786.9140, 20285.00
788.0580, 20358.00
789.2010, 20447.00
790.3450, 20508.00
791.4880, 20568.00
792.6310, 20489.00
793.7730, 20339.00
794.9160, 20358.00
796.0590, 20423.00
797.2010, 20538.00
798.3430, 20524.00
799.4850, 20669.00
800.6270, 20523.00
801.7690, 20302.00
802.9100, 20513.00
804.0520, 20284.00
805.1930, 20515.00
806.3340, 20629.00
807.4750, 20677.00
808.6160, 20523.00
809.7560, 20468.00
810.8970, 20517.00
812.0370, 20552.00
813.1770, 20599.00
814.3170, 20715.00
815.4570, 20563.00
816.5960, 20662.00
817.7360, 20764.00
818.8750, 20418.00
820.0140, 20614.00
821.1530, 20670.00
822.2920, 20563.00
823.4310, 20776.00
824.5690, 20743.00
825.7070, 20715.00
826.8460, 20883.00
827.9840, 20839.00
829.1220, 20812.00
830.2590, 20827.00
831.3970, 20882.00
832.5340, 20827.00
833.6710, 20703.00
834.8080, 20783.00
835.9450, 20830.00
837.0820, 20905.00
838.2190, 20933.00
839.3550, 20907.00
840.4910, 20997.00
841.6270, 20985.00
842.7630, 21029.00
843.8990, 20946.00
845.0350, 21030.00
846.1700, 21190.00
847.3060, 20965.00
848.4410, 21022.00
849.5760, 21123.00
850.7100, 21000.00
851.8450, 20959.00
852.9800, 21259.00
854.1140, 21155.00
855.2480, 21103.00
856.3820, 21316.00
857.5160, 21292.00
858.6500, 21378.00
859.7830, 21257.00
860.9170, 21285.00
862.0500, 21357.00
863.1830, 21358.00
864.3160, 21416.15
865.4480, 21414.75
866.5810, 21499.00
867.7130, 21402.00
868.8460, 21417.00
869.9780, 21403.00
871.1100, 21552.00
872.2410, 21482.00
873.3730, 21554.00
874.5050, 21464.00
875.6360, 21628.00
876.7670, 21476.00
877.8980, 21593.00
879.0290, 21474.00
880.1590, 21548.00
881.2900, 21722.00
882.4200, 21783.00
883.5500, 21665.00
884.6800, 21769.00
885.8100, 21660.00
886.9400, 21782.00
888.0690, 21741.00
889.1990, 21804.00
890.3280, 21862.00
891.4570, 21694.00
892.5860, 21990.00
893.7140, 22080.00
894.8430, 21891.00
895.9710, 22067.00
897.1000, 22287.00
898.2280, 22101.00
899.3560, 22260.00
900.4830, 22444.00
901.6110, 22325.00
902.7380, 22554.00
903.8660, 22392.00
904.9930, 22532.00
906.1200, 22560.00
907.2460, 22549.00
908.3730, 22802.00
909.5000, 22709.00
910.6260, 23015.00
911.7520, 22623.00
912.8780, 22712.00
914.0040, 22678.00
915.1290, 22697.00
916.2550, 22801.00
917.3800, 22815.00
918.5050, 22819.00
919.6300, 22815.59
920.7550, 22709.00
921.8800, 22759.00
923.0040, 22627.00
924.1290, 22638.00
925.2530, 22651.00
926.3770, 22572.00
927.5010, 22674.00
928.6250, 22585.00
929.7480, 22674.00
930.8720, 22557.00
931.9950, 22519.00
933.1180, 22688.00
934.2410, 22489.00
935.3640, 22780.00
936.4860, 22599.00
937.6090, 22753.00
938.7310, 22933.00
939.8530, 22715.00
940.9750, 22445.00
942.0970, 22781.00
943.2180, 22747.00
944.3400, 22722.00
945.4610, 22708.00
946.5820, 22794.00
947.7030, 22717.00
948.8240, 22701.00
949.9450, 22872.00
951.0650, 22690.00
952.1860, 23035.00
953.3060, 22780.00
954.4260, 22953.00
955.5460, 22957.00
956.6650, 22900.00
957.7850, 23029.00
958.9040, 22960.00
960.0230, 22922.00
961.1420, 23095.00
962.2610, 23033.00
963.3800, 23048.00
964.4990, 23046.00
965.6170, 23120.00
966.7350, 23049.00
967.8530, 23186.00
968.9710, 23172.00
970.0890, 23118.00
971.2070, 23467.00
972.3240, 23318.00
973.4410, 23493.00
974.5580, 23478.00
975.6750, 23537.00
976.7920, 23526.00
977.9090, 23587.32
979.0250, 23647.00
980.1410, 23733.00
981.2580, 23791.00
982.3740, 23917.00
983.4890, 23713.00
984.6050, 24221.00
985.7200, 24103.00
986.8360, 24082.00
987.9510, 24419.00
989.0660, 24740.00
990.1810, 24829.00
991.2950, 25149.00
992.4100, 25395.09
993.5240, 25579.00
994.6390, 25875.00
995.7530, 26225.00
996.8660, 26325.00
997.9800, 26655.00
999.0940, 27127.00
1000.207, 27293.00
1001.320, 27316.00
1002.433, 27598.00
1003.546, 27599.00
1004.659, 27495.00
1005.772, 27617.00
1006.884, 27646.00
1007.996, 27510.00
1009.108, 27551.00
1010.220, 27464.00
1011.332, 27469.00
1012.444, 27389.00
1013.555, 27172.00
1014.666, 26884.00
1015.777, 26711.10
1016.888, 26416.00
1017.999, 26208.00
1019.110, 25889.00
1020.220, 25578.00
1021.331, 25540.00
1022.441, 25418.00
1023.551, 25477.00
1024.661, 25328.00
1025.770, 25171.00
1026.880, 24998.00
1027.989, 25001.00
1029.098, 25080.00
1030.207, 24814.00
1031.316, 24953.00
1032.425, 24906.00
1033.533, 24733.00
1034.642, 24907.00
1035.750, 24963.00
1036.858, 24828.00
1037.966, 25066.00
1039.073, 24854.00
1040.181, 25048.00
1041.288, 25299.00
1042.396, 25060.00
1043.503, 25157.00
1044.610, 25386.00
1045.716, 25325.00
1046.823, 25481.00
1047.929, 25811.00
1049.036, 25707.00
1050.142, 25946.00
1051.248, 26014.00
1052.353, 26413.00
1053.459, 26468.00
1054.564, 26878.00
1055.670, 27209.00
1056.775, 27616.00
1057.880, 28430.00
1058.985, 28611.00
1060.089, 29330.00
1061.194, 30062.00
1062.298, 30407.00
1063.402, 31018.00
1064.506, 31804.00
1065.610, 32092.00
1066.713, 32317.00
1067.817, 32700.00
1068.920, 32569.00
1070.023, 32517.00
1071.126, 32196.00
1072.229, 31969.00
1073.332, 31513.00
1074.435, 31223.00
1075.537, 30635.00
1076.639, 30146.00
1077.741, 29632.00
1078.843, 29361.00
1079.945, 29169.00
1081.046, 28800.00
1082.148, 28561.00
1083.249, 28187.00
1084.350, 28053.00
1085.451, 27759.00
1086.551, 27536.00
1087.652, 27327.00
1088.752, 27027.00
1089.853, 26789.00
1090.953, 26918.00
1092.053, 26749.00
1093.152, 26636.00
1094.252, 26562.00
1095.351, 26421.00
1096.451, 26333.00
1097.550, 26346.00
1098.649, 26455.00
1099.748, 26219.00
1100.846, 26331.00
1101.945, 26216.00
1103.043, 26378.00
1104.141, 26187.00
1105.239, 26250.00
1106.337, 26120.00
1107.434, 25999.00
1108.532, 26136.00
1109.629, 26021.00
1110.726, 26030.00
1111.823, 25961.00
1112.920, 26318.00
1114.017, 25898.00
1115.113, 26188.00
1116.210, 26117.00
1117.306, 25958.00
1118.402, 26207.00
1119.498, 26195.00
1120.593, 26284.00
1121.689, 26267.00
1122.784, 26204.00
1123.879, 26229.00
1124.974, 26165.00
1126.069, 26238.00
1127.164, 26270.00
1128.259, 26149.00
1129.353, 26230.00
1130.447, 26295.00
1131.541, 26360.00
1132.635, 26314.00
1133.729, 26349.00
1134.822, 26533.00
1135.916, 26639.00
1137.009, 26544.00
1138.102, 26524.00
1139.195, 26765.00
1140.288, 26642.00
1141.380, 26778.00
1142.473, 26875.00
1143.565, 26886.00
1144.657, 26770.00
1145.749, 26776.00
1146.841, 26839.00
1147.932, 26647.00
1149.024, 26861.00
1150.115, 26843.00
1151.206, 26547.00
1152.297, 26619.00
1153.388, 26858.00
1154.479, 26697.00
1155.569, 26556.00
1156.659, 26372.00
1157.750, 26300.00
1158.839, 26317.00
1159.929, 26134.00
1161.019, 26338.00
1162.108, 26406.00
1163.198, 26185.00
1164.287, 26373.00
1165.376, 26500.00
1166.465, 26378.00
1167.553, 26341.00
1168.642, 26458.00
1169.730, 26577.00
1170.818, 26448.00
1171.906, 26537.00
1172.994, 26724.00
1174.082, 26549.00
1175.170, 26709.00
1176.257, 26728.00
1177.344, 26800.00
1178.431, 26758.00
1179.518, 26666.00
1180.605, 26832.00
1181.691, 26754.00
1182.778, 26855.00
1183.864, 26809.00
1184.950, 27027.00
1186.036, 26840.00
1187.122, 26975.04
1188.207, 26947.00
1189.292, 27055.00
1190.378, 27061.00
1191.463, 26999.00
1192.548, 27188.00
1193.632, 27071.00
1194.717, 27226.00
1195.801, 27145.00
1196.886, 27266.00
1197.970, 27304.00
1199.054, 27218.00
1200.137, 27128.00
1201.221, 27213.00
1202.305, 27306.00
1203.388, 27280.00
1204.471, 27317.02
1205.554, 27333.00
1206.637, 27300.00
1207.719, 27277.00
1208.802, 27280.00
1209.884, 27214.00
1210.966, 27451.00
1212.048, 27505.00
1213.130, 27435.00
1214.212, 27491.00
1215.293, 27495.00
1216.374, 27524.00
1217.456, 27703.00
1218.536, 27914.00
1219.617, 27841.00
1220.698, 28005.00
1221.778, 27998.00
1222.859, 28192.00
1223.939, 28239.00
1225.019, 28367.00
1226.099, 28427.00
1227.178, 28570.58
1228.258, 28868.00
1229.337, 28900.00
1230.417, 29073.00
1231.496, 29314.00
1232.574, 29251.00
1233.653, 29398.00
1234.732, 29443.00
1235.810, 29353.00
1236.888, 29218.00
1237.966, 29404.00
1239.044, 29404.00
1240.122, 29389.00
1241.199, 28896.00
1242.277, 28638.00
1243.354, 28453.00
1244.431, 28547.00
1245.508, 28316.00
1246.585, 28218.00
1247.661, 28073.00
1248.738, 28028.26
1249.814, 28185.00
1250.890, 27951.00
1251.966, 27985.00
1253.042, 27832.00
1254.117, 27639.00
1255.193, 27756.00
1256.268, 27593.00
1257.343, 27684.00
1258.418, 27645.00
1259.493, 27387.00
1260.567, 27555.00
1261.642, 27538.00
1262.716, 27549.00
1263.790, 27702.00
1264.864, 27409.00
1265.938, 27570.00
1267.011, 27665.00
1268.085, 27482.00
1269.158, 27713.00
1270.231, 27628.00
1271.304, 27597.00
1272.377, 27621.00
1273.450, 27661.00
1274.522, 27619.04
1275.594, 27616.00
1276.666, 27610.00
1277.738, 27647.00
1278.810, 27740.00
1279.882, 27638.00
1280.953, 27599.00
1282.025, 27630.10
1283.096, 27762.00
1284.167, 27720.00
1285.238, 27707.00
1286.308, 27916.00
1287.379, 27867.00
1288.449, 27842.00
1289.519, 28144.00
1290.589, 27862.00
1291.659, 27842.00
1292.729, 27954.00
1293.798, 27939.00
1294.868, 27950.00
1295.937, 27984.00
1297.006, 27888.00
1298.075, 27844.00
1299.143, 28207.00
1300.212, 27992.00
1301.280, 28008.00
1302.348, 28130.00
1303.416, 28025.00
1304.484, 28030.00
1305.552, 28054.00
1306.620, 28029.00
1307.687, 27952.00
1308.754, 28155.00
1309.821, 28289.00
1310.888, 28145.00
1311.955, 28096.00
1313.021, 28259.00
1314.088, 28183.00
1315.154, 28135.00
1316.220, 28188.00
1317.286, 28407.00
1318.352, 28223.00
1319.417, 28290.00
1320.483, 28155.00
1321.548, 28299.00
1322.613, 28445.00
1323.678, 28157.00
1324.743, 28311.00
1325.807, 28299.00
1326.872, 28339.00
1327.936, 28293.00
1329.000, 28353.00
1330.064, 28383.00
1331.128, 28465.00
1332.191, 28656.00
1333.255, 28474.00
1334.318, 28350.00
1335.381, 28530.00
1336.444, 28552.00
1337.507, 28526.00
1338.569, 28622.00
1339.632, 28696.00
1340.694, 28637.00
1341.756, 28812.00
1342.818, 28618.00
1343.880, 28532.00
1344.941, 28600.00
1346.003, 28888.00
1347.064, 28853.00
1348.125, 29017.00
1349.186, 28934.00
1350.247, 28812.00
1351.308, 28764.00
1352.368, 28787.00
1353.428, 28889.00
1354.489, 28881.00
1355.549, 28835.00
1356.608, 29078.00
1357.668, 28988.00
1358.727, 28905.00
1359.787, 29033.00
1360.846, 28990.00
1361.905, 28967.00
1362.964, 28859.00
1364.022, 28886.06
1365.081, 29015.00
1366.139, 28893.00
1367.197, 28956.00
1368.255, 28942.00
1369.313, 29000.00
1370.371, 29176.00
1371.428, 29026.00
1372.486, 29025.00
1373.543, 28876.00
1374.600, 29217.00
1375.657, 29174.00
