##NAMES=Bikitaite
##RRUFFID=R050160
##IDEAL CHEMISTRY=LiAlSi_2_O_6_&#183;H_2_O
##LOCALITY=Foote mine, Kings Mountain, Cleveland County, North Carolina, USA
##OWNER=RRUFF
##SOURCE=Jim McGlasson
##DESCRIPTION=Colorless prismatic crystals
##STATUS=The identification of this mineral has been confirmed by X-ray diffraction and chemical analysis
##URL=rruff.info/R050160
##MEASURED CHEMISTRY=Li_1.00_Si_2.00_O_6_Â·1.25H_2_O ; Li not measured but estimated by stoichiometry
##PIN_ID=M00456
##ORIENTATION=Laser parallel to a* (1 0 0). Fiducial mark perpendicular to laser is parallel to b [0 1 0]
87.10100, 25210.00
88.49600, 25064.00
89.89000, 25200.00
91.28400, 25467.00
92.67800, 26190.00
94.07100, 26514.00
95.46500, 27131.00
96.85800, 27645.00
98.25100, 28383.00
99.64400, 28939.00
101.0360, 29026.00
102.4280, 29335.00
103.8200, 29526.00
105.2120, 29766.00
106.6040, 29843.00
107.9950, 30238.00
109.3870, 30593.00
110.7770, 30731.00
112.1680, 31155.00
113.5590, 30741.00
114.9490, 29876.00
116.3390, 28797.00
117.7290, 27723.00
119.1190, 26537.00
120.5080, 25325.00
121.8970, 24093.00
123.2860, 23512.00
124.6750, 22360.00
126.0630, 21739.00
127.4520, 21418.00
128.8400, 20984.00
130.2280, 20902.00
131.6150, 20554.00
133.0030, 21092.00
134.3900, 21028.00
135.7770, 21587.00
137.1640, 21926.00
138.5500, 22905.00
139.9370, 23324.00
141.3230, 24234.00
142.7090, 24558.00
144.0940, 25076.00
145.4800, 25363.00
146.8650, 25431.00
148.2500, 25221.00
149.6350, 25048.00
151.0190, 24546.00
152.4030, 23916.00
153.7880, 23728.00
155.1710, 23515.00
156.5550, 23413.00
157.9390, 23110.11
159.3220, 22813.00
160.7050, 22517.00
162.0880, 22193.87
163.4700, 21874.91
164.8530, 21547.00
166.2350, 21231.00
167.6170, 20911.00
168.9980, 20631.00
170.3800, 20368.00
171.7610, 20166.00
173.1420, 19902.49
174.5230, 19935.00
175.9040, 19502.00
177.2840, 19456.00
178.6640, 19422.00
180.0440, 19144.00
181.4240, 19144.00
182.8030, 19316.00
184.1830, 19230.00
185.5620, 19139.00
186.9400, 19422.00
188.3190, 19476.00
189.6980, 19668.00
191.0760, 19832.00
192.4540, 20163.00
193.8310, 20570.00
195.2090, 20972.00
196.5860, 21800.00
197.9630, 22389.00
199.3400, 23328.00
200.7170, 24053.00
202.0930, 24932.00
203.4700, 25478.00
204.8460, 25451.00
206.2210, 25050.00
207.5970, 24491.00
208.9720, 23781.00
210.3470, 22926.00
211.7220, 22781.00
213.0970, 23014.00
214.4720, 23049.00
215.8460, 23464.00
217.2200, 23712.00
218.5940, 24180.00
219.9670, 24349.00
221.3410, 24168.00
222.7140, 24020.00
224.0870, 23213.00
225.4600, 23066.00
226.8320, 22589.00
228.2040, 22253.00
229.5770, 21833.00
230.9480, 21551.00
232.3200, 21492.00
233.6920, 21458.00
235.0630, 21453.00
236.4340, 21381.00
237.8050, 21619.00
239.1750, 21652.00
240.5450, 21804.00
241.9160, 22298.00
243.2860, 22460.00
244.6550, 22835.00
246.0250, 23243.00
247.3940, 23536.00
248.7630, 24149.00
250.1320, 24246.00
251.5010, 25095.00
252.8690, 25092.00
254.2370, 25466.00
255.6050, 25432.00
256.9730, 25396.00
258.3400, 25118.00
259.7080, 24512.00
261.0750, 23931.00
262.4420, 23284.00
263.8080, 22739.00
265.1750, 22102.00
266.5410, 21786.00
267.9070, 21396.00
269.2730, 21307.00
270.6390, 21160.00
272.0040, 21001.30
273.3690, 20980.00
274.7340, 20856.00
276.0990, 20686.00
277.4630, 20675.00
278.8280, 21094.00
280.1920, 21034.00
281.5560, 21132.00
282.9190, 21505.00
284.2830, 21624.00
285.6460, 22393.00
287.0090, 22386.00
288.3720, 22810.00
289.7340, 23472.00
291.0970, 23528.00
292.4590, 23465.00
293.8210, 23789.00
295.1830, 23334.00
296.5440, 23319.00
297.9050, 22793.00
299.2660, 22809.00
300.6270, 22723.00
301.9880, 22445.00
303.3480, 22346.00
304.7090, 22159.00
306.0690, 22024.00
307.4280, 22298.00
308.7880, 22230.00
310.1470, 22224.00
311.5070, 22432.00
312.8650, 22469.00
314.2240, 22506.00
315.5830, 22193.00
316.9410, 22094.00
318.2990, 21940.00
319.6570, 21760.00
321.0150, 21998.00
322.3720, 21886.00
323.7290, 22068.00
325.0860, 22147.00
326.4430, 22047.00
327.8000, 21767.00
329.1560, 22038.00
330.5120, 21756.00
331.8680, 21889.00
333.2240, 21803.00
334.5790, 22179.00
335.9350, 21838.00
337.2900, 22609.00
338.6450, 22623.00
339.9990, 23134.00
341.3540, 23424.00
342.7080, 23732.00
344.0620, 24131.00
345.4160, 24204.00
346.7690, 24448.00
348.1230, 24436.00
349.4760, 24503.00
350.8290, 24771.00
352.1820, 24628.00
353.5340, 24817.00
354.8870, 24569.00
356.2390, 24433.00
357.5910, 24199.00
358.9420, 23977.00
360.2940, 24090.00
361.6450, 24140.00
362.9960, 24067.00
364.3470, 24549.00
365.6980, 24614.00
367.0480, 25195.00
368.3980, 25656.00
369.7480, 25972.00
371.0980, 27221.00
372.4480, 27934.00
373.7970, 29181.00
375.1460, 30043.00
376.4950, 31385.00
377.8440, 33332.00
379.1920, 34342.00
380.5400, 36168.00
381.8890, 36697.00
383.2360, 37473.00
384.5840, 38184.00
385.9320, 38176.00
387.2790, 37976.00
388.6260, 38123.00
389.9730, 38622.00
391.3190, 38440.00
392.6660, 39250.00
394.0120, 39033.00
395.3580, 39024.00
396.7040, 38752.00
398.0490, 37918.00
399.3940, 36720.00
400.7400, 34573.00
402.0840, 33467.00
403.4290, 31608.00
404.7740, 30432.00
406.1180, 29811.00
407.4620, 28887.00
408.8060, 27932.00
410.1500, 27649.00
411.4930, 27186.00
412.8360, 27174.00
414.1790, 26696.00
415.5220, 26492.00
416.8650, 26731.00
418.2070, 26540.00
419.5490, 26124.00
420.8910, 26208.00
422.2330, 26337.00
423.5750, 26168.00
424.9160, 25376.00
426.2570, 25518.00
427.5980, 25456.00
428.9390, 25091.00
430.2790, 25185.00
431.6190, 24754.00
432.9590, 24564.00
434.2990, 24730.00
435.6390, 24917.00
436.9780, 24648.00
438.3180, 24768.00
439.6570, 24633.00
440.9960, 24861.00
442.3340, 24742.00
443.6730, 24536.00
445.0110, 24809.00
446.3490, 24779.00
447.6870, 24804.00
449.0240, 24764.00
450.3610, 24931.00
451.6990, 24445.00
453.0360, 24725.00
454.3720, 24764.00
455.7090, 25169.00
457.0450, 24918.00
458.3810, 25594.00
459.7170, 25632.00
461.0530, 26348.00
462.3880, 26762.00
463.7240, 27169.00
465.0590, 27942.00
466.3940, 28179.00
467.7280, 28230.00
469.0630, 28867.00
470.3970, 29034.00
471.7310, 29380.00
473.0650, 30130.00
474.3980, 30378.00
475.7320, 31528.00
477.0650, 31435.00
478.3980, 32073.00
479.7310, 32251.00
481.0630, 32601.00
482.3960, 32617.00
483.7280, 32969.00
485.0600, 33561.07
486.3910, 34240.00
487.7230, 35088.00
489.0540, 35914.00
490.3850, 37056.00
491.7160, 38608.00
493.0470, 39532.00
494.3770, 41136.00
495.7080, 42572.00
497.0380, 43316.00
498.3680, 43188.00
499.6970, 42422.00
501.0270, 41616.00
502.3560, 40032.00
503.6850, 37798.00
505.0140, 36064.00
506.3420, 33959.00
507.6710, 32910.00
508.9990, 31308.00
510.3270, 30460.00
511.6550, 29592.00
512.9820, 28790.00
514.3100, 28384.00
515.6370, 27814.00
516.9640, 27702.00
518.2910, 27168.00
519.6170, 26984.00
520.9440, 26952.00
522.2700, 26404.00
523.5960, 26565.00
524.9210, 26412.00
526.2470, 26036.00
527.5720, 26176.00
528.8970, 26034.00
530.2220, 26588.00
531.5470, 26196.00
532.8710, 26639.00
534.1960, 26440.00
535.5200, 26411.00
536.8440, 26972.00
538.1670, 26930.00
539.4910, 27147.00
540.8140, 26876.00
542.1370, 26987.00
543.4600, 26593.00
544.7830, 26647.00
546.1050, 25902.00
547.4270, 26090.00
548.7490, 25874.00
550.0710, 25530.00
551.3930, 25637.00
552.7140, 25544.00
554.0350, 25432.00
555.3560, 25581.00
556.6770, 25301.00
557.9980, 25502.00
559.3180, 25672.00
560.6380, 25568.00
561.9580, 25472.00
563.2780, 25321.00
564.5970, 25624.00
565.9170, 25444.00
567.2360, 25462.00
568.5550, 25603.00
569.8740, 25392.00
571.1920, 25646.00
572.5110, 25612.00
573.8290, 25649.29
575.1470, 25486.00
576.4640, 25792.00
577.7820, 25551.00
579.0990, 25653.00
580.4160, 25656.00
581.7330, 25723.00
583.0500, 26031.00
584.3660, 25809.00
585.6830, 26449.00
586.9990, 26000.00
588.3150, 25984.00
589.6300, 26262.00
590.9460, 26146.00
592.2610, 26365.00
593.5760, 26222.00
594.8910, 25920.00
596.2060, 26312.00
597.5200, 26306.00
598.8340, 26394.00
600.1480, 26176.00
601.4620, 26345.00
602.7760, 26332.00
604.0890, 26292.00
605.4020, 26219.00
606.7150, 26233.00
608.0280, 26244.05
609.3410, 26534.00
610.6530, 26276.00
611.9650, 26666.00
613.2770, 26596.00
614.5890, 26836.00
615.9010, 26791.00
617.2120, 27208.00
618.5230, 27576.00
619.8340, 28042.00
621.1450, 28320.00
622.4560, 28577.00
623.7660, 28869.00
625.0760, 29466.00
626.3860, 28992.00
627.6960, 29144.00
629.0060, 28105.00
630.3150, 28294.00
631.6240, 27504.00
632.9330, 27465.00
634.2420, 27601.00
635.5510, 27217.00
636.8590, 27431.00
638.1670, 27337.00
639.4750, 27888.00
640.7830, 27625.00
642.0900, 28114.00
643.3980, 28553.00
644.7050, 28726.00
646.0120, 28938.42
647.3180, 29005.18
648.6250, 28933.00
649.9310, 28923.00
651.2370, 28608.00
652.5430, 28455.00
653.8490, 28295.00
655.1550, 28432.00
656.4600, 27755.00
657.7650, 28001.00
659.0700, 27204.00
660.3750, 27219.00
661.6790, 27659.00
662.9840, 27216.00
664.2880, 27166.00
665.5920, 27141.00
666.8950, 27316.00
668.1990, 27080.00
669.5020, 27253.00
670.8050, 27489.00
672.1080, 27823.00
673.4110, 27712.00
674.7130, 27495.00
676.0160, 28073.00
677.3180, 27547.00
678.6200, 27825.00
679.9210, 27788.00
681.2230, 27822.00
682.5240, 27907.00
683.8250, 27780.00
685.1260, 28214.00
686.4270, 28354.00
687.7270, 27919.00
689.0280, 28073.00
690.3280, 27645.00
691.6280, 27950.00
692.9270, 28121.00
694.2270, 28072.00
695.5260, 28240.43
696.8250, 28548.00
698.1240, 28417.00
699.4230, 28728.00
700.7210, 29037.00
702.0200, 29222.00
703.3180, 29272.00
704.6160, 29541.00
705.9130, 29154.00
707.2110, 29402.00
708.5080, 29932.00
709.8050, 29424.00
711.1020, 28720.00
712.3990, 29225.00
713.6950, 28778.00
714.9920, 29032.00
716.2880, 28707.00
717.5840, 28621.00
718.8790, 28707.00
720.1750, 28316.00
721.4700, 29280.00
722.7650, 28974.00
724.0600, 29059.00
725.3550, 29146.00
726.6490, 28952.00
727.9440, 28972.00
729.2380, 29448.00
730.5320, 28491.00
731.8250, 29381.00
733.1190, 29241.00
734.4120, 28857.00
735.7050, 28819.00
736.9980, 28836.00
738.2910, 28992.00
739.5840, 29095.00
740.8760, 29064.00
742.1680, 29232.00
743.4600, 29045.00
744.7520, 29131.00
746.0430, 29218.00
747.3340, 29189.53
748.6260, 29383.00
749.9160, 29197.00
751.2070, 29478.00
752.4980, 29310.00
753.7880, 30016.00
755.0780, 30024.00
756.3680, 29952.00
757.6580, 29804.00
758.9470, 29770.00
760.2370, 30406.00
761.5260, 29897.00
762.8150, 30424.00
764.1040, 30097.00
765.3920, 30460.00
766.6800, 30496.00
767.9690, 30185.00
769.2570, 30882.00
770.5440, 30221.00
771.8320, 30628.00
773.1190, 30389.00
774.4060, 30351.00
775.6930, 30548.00
776.9800, 30457.14
778.2670, 30690.00
779.5530, 30530.00
780.8390, 30624.00
782.1250, 30578.00
783.4110, 30999.00
784.6970, 30459.00
785.9820, 30777.00
787.2670, 31019.00
788.5520, 30924.00
789.8370, 30809.00
791.1220, 31128.00
792.4060, 30927.00
793.6900, 31155.00
794.9740, 31040.00
796.2580, 31066.00
797.5420, 31325.00
798.8250, 30787.00
800.1080, 31499.00
801.3910, 31113.00
802.6740, 31233.00
803.9570, 31191.00
805.2390, 31048.00
806.5220, 31497.00
807.8040, 30976.00
809.0850, 31450.00
810.3670, 31368.00
811.6490, 31076.00
812.9300, 31321.00
814.2110, 31480.00
815.4920, 31348.00
816.7720, 31367.00
818.0530, 31559.00
819.3330, 31708.00
820.6130, 31573.00
821.8930, 32053.00
823.1730, 31982.00
824.4520, 32080.00
825.7320, 32568.00
827.0110, 32038.00
828.2900, 32307.00
829.5680, 32179.00
830.8470, 32186.00
832.1250, 32721.00
833.4030, 32534.00
834.6810, 32620.00
835.9590, 32398.00
837.2360, 32569.00
838.5140, 32640.00
839.7910, 32898.00
841.0680, 33280.00
842.3450, 32986.00
843.6210, 33692.00
844.8980, 33260.00
846.1740, 33210.00
847.4500, 33704.00
848.7260, 33170.00
850.0010, 33589.00
851.2770, 33788.00
852.5520, 33544.00
853.8270, 34168.00
855.1020, 33921.00
856.3760, 34241.00
857.6510, 34854.00
858.9250, 35324.00
860.1990, 35174.00
861.4730, 34611.00
862.7460, 35010.00
864.0200, 35259.00
865.2930, 34019.00
866.5660, 34555.00
867.8390, 34308.00
869.1120, 34380.00
870.3840, 34099.00
871.6560, 34314.00
872.9280, 33874.00
874.2000, 34295.00
875.4720, 34057.00
876.7440, 34066.00
878.0150, 34120.00
879.2860, 33998.00
880.5570, 34277.00
881.8280, 34368.00
883.0980, 34295.00
884.3690, 34122.00
885.6390, 34512.00
886.9090, 34150.00
888.1780, 34314.00
889.4480, 33881.00
890.7170, 34976.00
891.9870, 34403.00
893.2560, 34632.00
894.5240, 34707.00
895.7930, 34400.00
897.0610, 34749.00
898.3300, 34702.00
899.5980, 34190.00
900.8650, 34940.00
902.1330, 34931.00
903.4010, 34427.00
904.6680, 34886.00
905.9350, 34737.00
907.2020, 34790.00
908.4680, 34896.00
909.7350, 35273.00
911.0010, 35193.00
912.2670, 35028.00
913.5330, 34758.00
914.7990, 34973.00
916.0640, 34684.00
917.3300, 35116.00
918.5950, 34754.00
919.8600, 34667.00
921.1240, 34806.00
922.3890, 34763.00
923.6530, 35016.00
924.9180, 35234.00
926.1820, 35204.50
927.4450, 35197.03
928.7090, 35265.00
929.9720, 35059.00
931.2360, 35112.00
932.4990, 35360.00
933.7610, 35550.00
935.0240, 35089.00
936.2860, 35244.00
937.5490, 35848.00
938.8110, 34977.00
940.0730, 36145.00
941.3340, 35467.00
942.5960, 35297.00
943.8570, 35950.00
945.1180, 35688.00
946.3790, 35372.00
947.6400, 35904.00
948.9000, 36592.00
950.1610, 36675.00
951.4210, 37019.00
952.6810, 37560.00
953.9400, 38561.00
955.2000, 39218.00
956.4590, 40308.00
957.7190, 42634.00
958.9780, 43509.00
960.2360, 44534.00
961.4950, 43864.00
962.7530, 42782.00
964.0120, 41464.00
965.2700, 40673.00
966.5270, 40730.00
967.7850, 40618.00
969.0430, 40412.00
970.3000, 39527.00
971.5570, 38812.00
972.8140, 38290.00
974.0710, 37688.00
975.3270, 37574.00
976.5830, 36995.00
977.8400, 36819.89
979.0950, 36667.00
980.3510, 36457.00
981.6070, 36576.00
982.8620, 36467.00
984.1170, 36235.00
985.3720, 36559.59
986.6270, 36169.00
987.8820, 36853.00
989.1360, 37085.00
990.3900, 36753.00
991.6440, 37339.00
992.8980, 37370.00
994.1520, 37453.00
995.4050, 38061.00
996.6590, 38396.00
997.9120, 39640.00
999.1650, 40747.00
1000.417, 42094.00
1001.670, 42520.00
1002.922, 43401.00
1004.174, 41750.00
1005.426, 40632.00
1006.678, 39424.00
1007.930, 38757.00
1009.181, 38570.00
1010.432, 38274.00
1011.683, 38394.00
1012.934, 38418.00
1014.185, 38774.00
1015.435, 39129.00
1016.685, 39264.00
1017.935, 39640.00
1019.185, 40061.93
1020.435, 41125.00
1021.684, 41027.00
1022.934, 41802.00
1024.183, 42346.00
1025.432, 41753.00
1026.680, 41656.00
1027.929, 40769.00
1029.177, 40233.00
1030.425, 39390.00
1031.673, 38921.25
1032.921, 38720.00
1034.169, 38240.00
1035.416, 38127.00
1036.663, 38313.00
1037.911, 37835.00
1039.157, 37809.00
1040.404, 37992.00
1041.650, 37882.00
1042.897, 38390.00
1044.143, 37837.00
1045.389, 37852.00
1046.634, 38485.00
1047.880, 37820.00
1049.125, 37968.00
1050.371, 37886.00
1051.615, 38770.00
1052.860, 38638.00
1054.105, 39483.00
1055.349, 38286.00
1056.593, 38021.00
1057.837, 38138.00
1059.081, 38438.00
1060.325, 37953.00
1061.568, 38274.00
1062.812, 38114.00
1064.055, 38216.00
1065.298, 38400.00
1066.540, 38256.00
1067.783, 38161.00
1069.025, 38240.00
1070.267, 38246.21
1071.509, 37988.00
1072.751, 38424.00
1073.993, 38733.00
1075.234, 38793.00
1076.475, 38764.00
1077.716, 39291.00
1078.957, 39156.00
1080.198, 39478.00
1081.438, 40072.00
1082.679, 39970.00
1083.919, 40083.00
1085.159, 39818.00
1086.398, 40008.00
1087.638, 39366.00
1088.877, 39698.00
1090.116, 39272.00
1091.355, 39722.00
1092.594, 39232.00
1093.833, 39401.00
1095.071, 38996.00
1096.309, 39189.00
1097.547, 39690.00
1098.785, 39088.00
1100.023, 39370.00
1101.260, 39472.00
1102.498, 39720.00
1103.735, 39522.00
1104.972, 39853.00
1106.208, 39973.00
1107.445, 40174.00
1108.681, 39584.00
1109.918, 40123.00
1111.154, 39708.00
1112.389, 39985.00
1113.625, 39977.00
1114.860, 39569.00
1116.096, 39804.00
1117.331, 39852.00
1118.566, 39808.00
1119.800, 39776.00
1121.035, 39864.00
1122.269, 39676.00
1123.503, 39958.00
1124.737, 40424.00
1125.971, 40277.00
1127.205, 40445.00
1128.438, 40109.00
1129.671, 40528.00
1130.904, 40153.00
1132.137, 40504.00
1133.370, 40512.00
1134.602, 40439.00
1135.834, 40037.00
1137.066, 40136.00
1138.298, 40810.00
1139.530, 39912.00
1140.762, 40724.00
1141.993, 39713.00
1143.224, 39936.00
1144.455, 39905.00
1145.686, 40058.00
1146.917, 40355.00
1148.147, 40451.00
1149.377, 40625.00
1150.607, 40918.00
1151.837, 40553.00
1153.067, 40502.00
1154.296, 40880.00
1155.526, 41345.00
1156.755, 40940.00
1157.984, 41645.00
1159.213, 41521.00
1160.441, 41738.00
1161.670, 41785.00
1162.898, 41961.00
1164.126, 42028.45
1165.354, 41936.00
1166.581, 42105.00
1167.809, 42224.00
1169.036, 42169.32
1170.263, 42021.00
1171.490, 41848.00
1172.717, 41897.00
1173.943, 41465.00
1175.170, 41852.00
1176.396, 41841.00
1177.622, 42048.00
1178.848, 41788.00
1180.073, 41204.00
1181.299, 42036.00
1182.524, 41817.00
1183.749, 41515.00
1184.974, 42000.00
1186.199, 41928.00
1187.423, 41948.00
1188.648, 41926.00
1189.872, 41946.17
1191.096, 41946.00
1192.320, 42092.00
1193.543, 41987.00
1194.767, 42209.00
1195.990, 41928.00
1197.213, 41882.00
1198.436, 42067.00
1199.659, 42063.92
1200.881, 42315.00
1202.104, 42395.00
1203.326, 42457.00
1204.548, 42611.00
1205.770, 42521.67
1206.991, 42592.00
1208.213, 42336.00
1209.434, 42362.00
1210.655, 42225.00
1211.876, 42340.00
1213.096, 42896.00
1214.317, 42733.00
1215.537, 42960.00
1216.757, 42772.00
1217.977, 43086.00
1219.197, 42736.00
1220.417, 43033.00
1221.636, 42931.00
1222.855, 43064.00
1224.074, 42750.00
1225.293, 42614.00
1226.512, 43256.00
1227.731, 43612.00
1228.949, 43285.00
1230.167, 42982.00
1231.385, 43472.00
1232.603, 43604.00
1233.820, 43721.00
1235.038, 43427.00
1236.255, 44138.00
1237.472, 43968.00
1238.689, 43958.00
1239.906, 44556.00
1241.122, 43994.00
1242.338, 44139.00
1243.555, 44320.00
1244.771, 44093.00
1245.986, 44435.00
1247.202, 44664.00
1248.417, 44636.00
1249.633, 44800.00
1250.848, 44738.80
1252.063, 44896.00
1253.277, 44650.00
1254.492, 44427.00
1255.706, 44523.00
1256.920, 44548.00
1258.134, 44581.00
1259.348, 44694.54
1260.562, 44793.00
1261.775, 44905.00
1262.988, 44840.00
1264.201, 44936.00
1265.414, 45344.00
1266.627, 45592.00
1267.839, 45512.00
1269.052, 45859.00
1270.264, 45712.00
1271.476, 46041.00
1272.688, 46043.59
1273.899, 46065.00
1275.111, 46121.00
1276.322, 45952.00
1277.533, 45998.00
1278.744, 46141.00
1279.955, 45798.00
1281.165, 46116.00
1282.376, 46105.00
1283.586, 45985.00
1284.796, 45752.00
1286.006, 45764.00
1287.215, 45974.00
1288.425, 46104.00
1289.634, 45896.00
1290.843, 46162.00
1292.052, 45901.00
1293.261, 46618.00
1294.469, 46396.00
1295.678, 46532.00
1296.886, 46552.00
1298.094, 46781.00
1299.302, 46714.79
1300.509, 46552.00
1301.717, 46713.00
1302.924, 46582.00
1304.131, 46734.00
1305.338, 46825.00
1306.545, 46845.00
1307.752, 46880.00
1308.958, 47235.00
1310.164, 47643.00
1311.370, 47424.00
1312.576, 47836.00
1313.782, 47595.00
1314.987, 47897.00
1316.193, 47441.00
1317.398, 48144.00
1318.603, 47924.00
1319.807, 47933.00
1321.012, 47758.00
1322.216, 47686.96
1323.421, 48044.00
1324.625, 47536.00
1325.829, 47777.00
1327.032, 47717.00
1328.236, 48090.00
1329.439, 47537.00
1330.642, 47296.00
1331.845, 47250.00
1333.048, 47547.00
1334.251, 47466.00
1335.453, 47284.00
1336.656, 47403.00
1337.858, 47248.00
1339.060, 47484.00
1340.261, 47573.00
1341.463, 47473.00
1342.664, 47909.00
1343.866, 48224.00
1345.067, 48152.00
1346.267, 47899.00
1347.468, 48082.00
1348.669, 47988.00
1349.869, 48211.00
1351.069, 48109.00
1352.269, 47960.00
1353.469, 48561.00
1354.668, 48456.00
1355.868, 48482.00
1357.067, 48705.00
1358.266, 47955.00
1359.465, 49178.00
1360.664, 49441.00
1361.862, 48478.00
1363.061, 48732.00
1364.259, 48626.00
1365.457, 48713.00
1366.655, 48850.00
1367.852, 48651.00
1369.050, 48944.00
1370.247, 49163.00
1371.444, 49190.00
1372.641, 48887.00
1373.838, 49412.00
1375.035, 49075.00
1376.231, 49465.00
1377.427, 49585.00
1378.623, 49512.00
1379.819, 49652.00
1381.015, 49328.00
1382.211, 49737.00
1383.406, 49835.00
1384.601, 49692.00
1385.796, 50077.00
1386.991, 50033.00
1388.185, 49856.00
1389.380, 49701.00
1390.574, 50208.00
1391.768, 50002.00
1392.962, 50127.25
1394.156, 50199.87
1395.350, 50073.00
1396.543, 50331.00
1397.736, 50062.00
1398.929, 50417.00
1400.122, 50208.00
1401.315, 50264.00
1402.507, 50139.00
