##NAMES=Bikitaite
##RRUFFID=R050160
##IDEAL CHEMISTRY=LiAlSi_2_O_6_&#183;H_2_O
##LOCALITY=Foote mine, Kings Mountain, Cleveland County, North Carolina, USA
##OWNER=RRUFF
##SOURCE=Jim McGlasson
##DESCRIPTION=Colorless prismatic crystals
##STATUS=The identification of this mineral has been confirmed by X-ray diffraction and chemical analysis
##URL=rruff.info/R050160
##MEASURED CHEMISTRY=Li_1.00_Si_2.00_O_6_Â·1.25H_2_O ; Li not measured but estimated by stoichiometry
##PIN_ID=M00294
##ORIENTATION=Laser parallel to (1 0 1). Fiducial mark perpendicular to laser is parallel to -b [0 -1 0]
86.07200, 23120.00
87.30800, 23603.00
88.54200, 24241.00
89.77700, 24863.00
91.01200, 25671.00
92.24600, 26894.00
93.48000, 27649.00
94.71400, 28660.00
95.94800, 29756.00
97.18200, 30751.00
98.41600, 32074.00
99.64900, 32949.00
100.8830, 33733.00
102.1160, 34447.00
103.3490, 35070.00
104.5820, 35850.00
105.8150, 36594.00
107.0470, 36423.00
108.2800, 37042.00
109.5120, 37315.00
110.7440, 36573.00
111.9760, 36145.00
113.2080, 35450.00
114.4400, 34819.00
115.6710, 33835.00
116.9030, 32393.00
118.1340, 30420.00
119.3650, 28554.00
120.5960, 26807.00
121.8270, 25145.00
123.0580, 23873.00
124.2880, 22601.00
125.5190, 21654.00
126.7490, 21351.00
127.9790, 21059.00
129.2090, 21183.00
130.4390, 21298.00
131.6680, 21719.00
132.8980, 22136.00
134.1270, 23066.00
135.3560, 23841.00
136.5850, 24874.00
137.8140, 26011.00
139.0430, 26835.00
140.2710, 27250.00
141.5000, 27838.00
142.7280, 27687.00
143.9560, 27891.00
145.1840, 27489.00
146.4120, 27459.00
147.6390, 27178.00
148.8670, 26415.00
150.0940, 25989.00
151.3210, 25446.00
152.5490, 24949.00
153.7750, 24436.00
155.0020, 23930.00
156.2290, 23499.00
157.4550, 23169.00
158.6810, 22860.00
159.9080, 22379.00
161.1340, 22062.00
162.3590, 21583.00
163.5850, 21050.00
164.8110, 20640.00
166.0360, 20361.00
167.2610, 19935.00
168.4860, 19712.00
169.7110, 19425.00
170.9360, 19141.00
172.1610, 18857.00
173.3850, 18644.00
174.6100, 18320.00
175.8340, 18087.00
177.0580, 18130.00
178.2820, 18091.00
179.5050, 18140.00
180.7290, 18067.00
181.9520, 18025.00
183.1760, 18231.00
184.3990, 18434.00
185.6220, 18491.00
186.8450, 18815.00
188.0670, 19279.00
189.2900, 19584.00
190.5120, 20081.00
191.7340, 20873.00
192.9560, 21838.00
194.1780, 22694.00
195.4000, 23654.00
196.6220, 24559.00
197.8430, 25179.00
199.0640, 25880.00
200.2860, 26331.00
201.5070, 27123.00
202.7270, 27318.00
203.9480, 27256.00
205.1690, 26598.00
206.3890, 25874.00
207.6090, 25528.00
208.8290, 24702.00
210.0490, 24466.00
211.2690, 24450.00
212.4890, 24376.00
213.7080, 24754.00
214.9280, 25304.00
216.1470, 25269.00
217.3660, 25493.00
218.5850, 25468.00
219.8030, 25170.00
221.0220, 24911.00
222.2400, 24349.00
223.4590, 23962.00
224.6770, 23405.00
225.8950, 22974.68
227.1120, 22252.00
228.3300, 22159.00
229.5480, 21974.00
230.7650, 21727.00
231.9820, 21821.00
233.1990, 21902.00
234.4160, 22208.00
235.6330, 22642.00
236.8490, 23366.00
238.0660, 23958.00
239.2820, 24472.00
240.4980, 25489.00
241.7140, 26216.00
242.9300, 27214.00
244.1460, 28142.00
245.3610, 29402.00
246.5770, 30296.00
247.7920, 31112.00
249.0070, 31682.00
250.2220, 31949.00
251.4370, 32284.00
252.6510, 32302.00
253.8660, 31721.00
255.0800, 31409.00
256.2940, 30559.00
257.5080, 29595.00
258.7220, 28353.00
259.9360, 27450.00
261.1490, 25719.00
262.3630, 24104.00
263.5760, 23217.00
264.7890, 22170.00
266.0020, 21509.00
267.2150, 20814.00
268.4270, 20357.00
269.6400, 19915.00
270.8520, 19812.00
272.0640, 19580.00
273.2760, 19557.00
274.4880, 19474.00
275.7000, 19554.00
276.9120, 19719.00
278.1230, 19816.00
279.3340, 20238.00
280.5450, 20458.00
281.7560, 20887.00
282.9670, 21388.00
284.1780, 21734.00
285.3880, 22336.00
286.5980, 22975.00
287.8090, 23271.00
289.0190, 23737.00
290.2290, 24127.00
291.4380, 24025.00
292.6480, 23870.00
293.8570, 23779.00
295.0670, 23383.00
296.2760, 22879.00
297.4850, 22688.00
298.6930, 22279.00
299.9020, 21989.00
301.1110, 21742.00
302.3190, 21857.00
303.5270, 21693.00
304.7350, 21546.00
305.9430, 21636.00
307.1510, 21562.00
308.3580, 21367.00
309.5660, 21339.00
310.7730, 21289.00
311.9800, 21146.00
313.1870, 21321.00
314.3940, 21127.00
315.6010, 21240.00
316.8070, 21107.00
318.0130, 21011.00
319.2200, 21127.00
320.4260, 21238.00
321.6310, 21463.00
322.8370, 21101.00
324.0430, 21089.00
325.2480, 20982.00
326.4540, 21095.00
327.6590, 20879.00
328.8640, 20724.00
330.0680, 20569.00
331.2730, 20396.00
332.4780, 20439.00
333.6820, 20600.00
334.8860, 20637.00
336.0900, 20957.00
337.2940, 21193.00
338.4980, 21685.00
339.7010, 21883.00
340.9050, 22506.00
342.1080, 22839.00
343.3110, 23282.00
344.5140, 23590.00
345.7170, 23742.00
346.9200, 23868.00
348.1220, 23984.00
349.3240, 24039.00
350.5270, 24015.00
351.7290, 23999.00
352.9310, 23744.00
354.1320, 23732.00
355.3340, 23697.00
356.5350, 23268.00
357.7370, 23327.00
358.9380, 23415.00
360.1390, 23420.00
361.3400, 23737.00
362.5400, 23796.00
363.7410, 24184.00
364.9410, 24688.00
366.1410, 25381.00
367.3410, 26248.00
368.5410, 27160.24
369.7410, 28172.00
370.9400, 29446.00
372.1400, 30701.00
373.3390, 32183.00
374.5380, 33759.00
375.7370, 35620.00
376.9360, 36779.00
378.1350, 38334.00
379.3330, 39672.00
380.5310, 40808.00
381.7300, 41902.00
382.9280, 42293.00
384.1260, 42888.00
385.3230, 43257.00
386.5210, 43563.00
387.7180, 43707.00
388.9160, 43623.00
390.1130, 43640.00
391.3100, 43881.00
392.5060, 43414.00
393.7030, 43760.00
394.9000, 43073.00
396.0960, 42111.00
397.2920, 40833.00
398.4880, 39260.00
399.6840, 37839.00
400.8800, 35998.00
402.0750, 34181.00
403.2710, 32792.00
404.4660, 31343.00
405.6610, 30336.00
406.8560, 29569.00
408.0510, 28730.00
409.2450, 28295.00
410.4400, 27843.00
411.6340, 27270.00
412.8280, 27460.00
414.0220, 27037.00
415.2160, 27141.00
416.4100, 26783.00
417.6030, 26569.00
418.7970, 26648.00
419.9900, 26550.00
421.1830, 26123.00
422.3760, 26123.00
423.5690, 25900.00
424.7610, 25438.00
425.9540, 25164.00
427.1460, 25087.00
428.3380, 24820.00
429.5300, 24712.73
430.7220, 24611.00
431.9140, 24453.00
433.1050, 24496.00
434.2970, 24319.00
435.4880, 24223.00
436.6790, 24434.00
437.8700, 24431.00
439.0610, 24430.00
440.2510, 24445.00
441.4420, 24494.00
442.6320, 24163.00
443.8220, 24059.00
445.0120, 24122.00
446.2020, 23875.00
447.3910, 23910.00
448.5810, 23795.00
449.7700, 23657.00
450.9600, 23945.00
452.1490, 23748.00
453.3370, 24036.00
454.5260, 24246.00
455.7150, 24392.00
456.9030, 24736.00
458.0910, 25185.00
459.2800, 25637.00
460.4670, 26224.00
461.6550, 26890.00
462.8430, 27289.00
464.0300, 28155.00
465.2180, 28826.00
466.4050, 28975.00
467.5920, 29940.00
468.7790, 30625.00
469.9650, 31140.00
471.1520, 31843.00
472.3380, 32532.00
473.5250, 33667.00
474.7110, 34136.00
475.8970, 34924.00
477.0820, 35465.00
478.2680, 35538.00
479.4540, 36175.00
480.6390, 36545.00
481.8240, 36661.00
483.0090, 37573.00
484.1940, 38464.00
485.3780, 39361.00
486.5630, 39566.00
487.7470, 40816.00
488.9320, 42043.00
490.1160, 43672.00
491.3000, 44906.00
492.4830, 46082.00
493.6670, 47556.00
494.8500, 48086.00
496.0340, 48186.00
497.2170, 47812.00
498.4000, 47028.00
499.5820, 45398.00
500.7650, 43859.00
501.9480, 41216.00
503.1300, 39053.00
504.3120, 36727.00
505.4940, 34544.00
506.6760, 33155.00
507.8580, 31675.00
509.0390, 30070.00
510.2210, 29050.00
511.4020, 28151.00
512.5830, 27392.00
513.7640, 26967.00
514.9450, 26414.00
516.1250, 25848.00
517.3060, 25370.00
518.4860, 25329.00
519.6660, 25130.00
520.8460, 24779.00
522.0260, 24540.00
523.2060, 24596.00
524.3850, 24571.00
525.5650, 24471.00
526.7440, 24237.00
527.9230, 24321.00
529.1020, 24257.00
530.2810, 24714.00
531.4590, 24679.00
532.6380, 24685.00
533.8160, 24732.00
534.9940, 24604.00
536.1720, 24725.00
537.3500, 25029.00
538.5270, 24925.00
539.7050, 24899.00
540.8820, 24825.00
542.0590, 24367.00
543.2360, 24305.00
544.4130, 24101.00
545.5900, 23733.00
546.7660, 23616.00
547.9430, 23200.00
549.1190, 23021.00
550.2950, 22935.00
551.4710, 22845.00
552.6470, 22653.00
553.8220, 22581.00
554.9980, 22735.00
556.1730, 22648.00
557.3480, 22546.00
558.5230, 22696.00
559.6980, 22691.00
560.8730, 22489.00
562.0470, 22505.00
563.2220, 22493.00
564.3960, 22362.00
565.5700, 22470.00
566.7440, 22501.00
567.9170, 22349.00
569.0910, 22513.00
570.2640, 22526.00
571.4380, 22297.00
572.6110, 22276.00
573.7840, 22265.00
574.9570, 22455.00
576.1290, 22342.00
577.3020, 22284.00
578.4740, 22445.00
579.6460, 22411.00
580.8180, 22420.00
581.9900, 22453.00
583.1620, 22422.00
584.3330, 22537.00
585.5040, 22701.00
586.6760, 22353.00
587.8470, 22647.00
589.0180, 22458.00
590.1880, 22506.00
591.3590, 22307.00
592.5290, 22492.00
593.7000, 22385.00
594.8700, 22531.00
596.0400, 22424.00
597.2090, 22417.00
598.3790, 22509.00
599.5490, 22542.00
600.7180, 22683.00
601.8870, 22605.00
603.0560, 22697.00
604.2250, 22633.00
605.3940, 22595.00
606.5620, 22682.00
607.7300, 22779.00
608.8990, 22695.00
610.0670, 22643.00
611.2350, 22805.00
612.4020, 22866.00
613.5700, 22900.00
614.7370, 23094.00
615.9050, 23338.00
617.0720, 23674.00
618.2390, 23889.69
619.4060, 24196.38
620.5720, 24406.00
621.7390, 24691.00
622.9050, 24931.00
624.0710, 24995.00
625.2370, 25290.00
626.4030, 25243.00
627.5690, 25097.00
628.7340, 24938.00
629.9000, 24499.00
631.0650, 24011.00
632.2300, 23977.00
633.3950, 23508.00
634.5600, 23455.00
635.7240, 23336.00
636.8890, 23387.00
638.0530, 23312.00
639.2170, 23453.00
640.3810, 23435.00
641.5450, 23585.00
642.7080, 23731.00
643.8720, 23854.00
645.0350, 24004.00
646.1980, 24159.00
647.3610, 24348.00
648.5240, 24402.00
649.6870, 24300.00
650.8490, 24166.00
652.0120, 23857.00
653.1740, 24294.00
654.3360, 24015.00
655.4980, 24083.00
656.6600, 23839.00
657.8210, 23739.00
658.9830, 23394.00
660.1440, 23486.00
661.3050, 23309.00
662.4660, 23331.00
663.6270, 23092.00
664.7870, 23161.55
665.9480, 23397.00
667.1080, 23359.00
668.2680, 23293.00
669.4280, 23611.00
670.5880, 23720.00
671.7480, 23691.00
672.9070, 23839.00
674.0670, 23966.00
675.2260, 24012.44
676.3850, 24065.00
677.5440, 24209.00
678.7030, 24282.00
679.8610, 24436.93
681.0200, 24553.00
682.1780, 24588.00
683.3360, 24471.00
684.4940, 24512.00
685.6520, 24473.00
686.8090, 24499.00
687.9670, 24283.00
689.1240, 24298.00
690.2810, 24279.62
691.4380, 24183.00
692.5950, 24326.00
693.7520, 24392.00
694.9080, 24470.00
696.0650, 24733.00
697.2210, 24975.00
698.3770, 25275.00
699.5330, 25491.00
700.6880, 25747.00
701.8440, 25891.06
702.9990, 25907.00
704.1550, 26100.00
705.3100, 26016.00
706.4650, 26029.00
707.6190, 25856.00
708.7740, 25759.00
709.9290, 25715.00
711.0830, 25320.00
712.2370, 25025.00
713.3910, 25159.00
714.5450, 24880.00
715.6980, 24875.00
716.8520, 24674.00
718.0050, 24839.00
719.1580, 24760.00
720.3110, 25024.00
721.4640, 24903.00
722.6170, 24821.00
723.7700, 24772.00
724.9220, 24728.28
726.0740, 24770.00
727.2260, 24750.00
728.3780, 24726.00
729.5300, 24841.00
730.6810, 24744.00
731.8330, 24700.00
732.9840, 24670.00
734.1350, 24499.00
735.2860, 24505.14
736.4370, 24676.00
737.5880, 24445.00
738.7380, 24542.00
739.8880, 24552.00
741.0390, 24435.00
742.1890, 24509.00
743.3380, 24506.00
744.4880, 24543.00
745.6380, 24632.00
746.7870, 24751.00
747.9360, 24929.00
749.0850, 25034.17
750.2340, 25055.00
751.3830, 25248.00
752.5310, 25271.00
753.6800, 25247.00
754.8280, 25253.00
755.9760, 25475.00
757.1240, 25572.00
758.2720, 25590.00
759.4190, 25697.00
760.5670, 25781.00
761.7140, 25983.00
762.8610, 25954.00
764.0080, 26108.00
765.1550, 26110.00
766.3020, 25745.00
767.4480, 25947.00
768.5950, 25837.00
769.7410, 25774.00
770.8870, 25833.00
772.0330, 25911.00
773.1780, 25747.00
774.3240, 25812.00
775.4690, 26070.00
776.6140, 25939.00
777.7590, 26121.00
778.9040, 26222.00
780.0490, 25932.00
781.1940, 26619.00
782.3380, 26391.00
783.4820, 26235.00
784.6260, 26605.00
785.7700, 26462.00
786.9140, 26483.00
788.0580, 26536.00
789.2010, 26543.00
790.3450, 26331.00
791.4880, 26332.00
792.6310, 26273.00
793.7730, 26310.00
794.9160, 26199.00
796.0590, 26018.00
797.2010, 26174.00
798.3430, 26251.00
799.4850, 26109.00
800.6270, 26090.00
801.7690, 26401.00
802.9100, 26260.00
804.0520, 25937.00
805.1930, 26282.00
806.3340, 26058.00
807.4750, 26081.00
808.6160, 26283.00
809.7560, 26340.00
810.8970, 26174.00
812.0370, 26277.00
813.1770, 26306.00
814.3170, 26187.00
815.4570, 26239.00
816.5960, 26256.64
817.7360, 26528.00
818.8750, 26399.00
820.0140, 26452.00
821.1530, 26619.00
822.2920, 26454.00
823.4310, 26719.00
824.5690, 26729.00
825.7070, 26650.00
826.8460, 26715.00
827.9840, 26670.00
829.1220, 26669.00
830.2590, 26701.00
831.3970, 26834.00
832.5340, 26743.00
833.6710, 27008.00
834.8080, 27092.00
835.9450, 27091.00
837.0820, 27147.00
838.2190, 27271.00
839.3550, 27244.61
840.4910, 27184.00
841.6270, 27298.00
842.7630, 27418.00
843.8990, 27537.00
845.0350, 27728.00
846.1700, 27875.00
847.3060, 27768.00
848.4410, 27713.00
849.5760, 27803.00
850.7100, 27827.00
851.8450, 27971.00
852.9800, 27938.00
854.1140, 28133.00
855.2480, 28199.00
856.3820, 28332.00
857.5160, 28564.00
858.6500, 28804.00
859.7830, 29107.00
860.9170, 29107.00
862.0500, 29082.00
863.1830, 29063.00
864.3160, 29005.00
865.4480, 28637.00
866.5810, 28390.00
867.7130, 28301.00
868.8460, 28459.00
869.9780, 27959.00
871.1100, 28233.00
872.2410, 28123.00
873.3730, 28245.00
874.5050, 28109.00
875.6360, 28274.00
876.7670, 28174.00
877.8980, 28424.00
879.0290, 28308.00
880.1590, 28296.00
881.2900, 28150.00
882.4200, 28268.00
883.5500, 28217.00
884.6800, 28345.00
885.8100, 28300.00
886.9400, 28285.00
888.0690, 28511.00
889.1990, 28431.00
890.3280, 28281.00
891.4570, 28420.00
892.5860, 28298.00
893.7140, 28295.00
894.8430, 28611.00
895.9710, 28414.00
897.1000, 28466.00
898.2280, 28542.00
899.3560, 28392.00
900.4830, 28694.00
901.6110, 28777.00
902.7380, 28648.00
903.8660, 28649.00
904.9930, 28867.00
906.1200, 28834.00
907.2460, 28932.52
908.3730, 28659.00
909.5000, 29012.00
910.6260, 28889.00
911.7520, 28814.00
912.8780, 29134.00
914.0040, 29139.00
915.1290, 28934.00
916.2550, 28929.00
917.3800, 28890.00
918.5050, 28768.00
919.6300, 28776.00
920.7550, 28709.15
921.8800, 28711.00
923.0040, 28687.00
924.1290, 28810.00
925.2530, 28934.00
926.3770, 29133.00
927.5010, 28998.00
928.6250, 29286.00
929.7480, 29087.00
930.8720, 29154.00
931.9950, 29112.00
933.1180, 29219.00
934.2410, 29297.00
935.3640, 29326.67
936.4860, 29425.00
937.6090, 29461.00
938.7310, 29581.00
939.8530, 29689.00
940.9750, 29811.00
942.0970, 29965.00
943.2180, 30031.00
944.3400, 30072.00
945.4610, 30385.00
946.5820, 30745.00
947.7030, 31237.00
948.8240, 32019.09
949.9450, 32827.00
951.0650, 33974.00
952.1860, 35230.00
953.3060, 36569.00
954.4260, 38562.00
955.5460, 40758.00
956.6650, 42298.00
957.7850, 43691.00
958.9040, 44104.00
960.0230, 43683.00
961.1420, 42916.00
962.2610, 41577.00
963.3800, 39995.00
964.4990, 38977.00
965.6170, 38062.00
966.7350, 37537.00
967.8530, 36807.00
968.9710, 36346.00
970.0890, 35940.00
971.2070, 34946.00
972.3240, 33886.00
973.4410, 33609.00
974.5580, 32849.00
975.6750, 32187.00
976.7920, 31885.00
977.9090, 31516.00
979.0250, 31316.00
980.1410, 31107.00
981.2580, 30865.00
982.3740, 30830.00
983.4890, 30805.52
984.6050, 30849.00
985.7200, 30968.00
986.8360, 31083.00
987.9510, 31222.00
989.0660, 31240.00
990.1810, 31642.00
991.2950, 31688.00
992.4100, 32427.00
993.5240, 33032.00
994.6390, 33658.00
995.7530, 34655.00
996.8660, 35460.00
997.9800, 36486.00
999.0940, 37274.00
1000.207, 37853.00
1001.320, 38178.00
1002.433, 37696.00
1003.546, 37073.00
1004.659, 35805.00
1005.772, 34713.00
1006.884, 33948.00
1007.996, 33832.00
1009.108, 33220.00
1010.220, 33328.00
1011.332, 33440.00
1012.444, 33583.00
1013.555, 34097.00
1014.666, 34289.00
1015.777, 34859.00
1016.888, 35451.00
1017.999, 35822.00
1019.110, 36335.00
1020.220, 37048.00
1021.331, 37438.00
1022.441, 37293.00
1023.551, 37238.00
1024.661, 36748.00
1025.770, 36430.00
1026.880, 35805.00
1027.989, 35360.00
1029.098, 34816.77
1030.207, 33968.00
1031.316, 33616.00
1032.425, 32947.00
1033.533, 32202.00
1034.642, 32125.00
1035.750, 32307.00
1036.858, 31665.00
1037.966, 31734.00
1039.073, 31743.00
1040.181, 31579.00
1041.288, 31605.00
1042.396, 31647.00
1043.503, 31323.00
1044.610, 31533.00
1045.716, 31489.00
1046.823, 31485.00
1047.929, 31371.00
1049.036, 31536.00
1050.142, 31668.00
1051.248, 31473.00
1052.353, 31412.00
1053.459, 31425.39
1054.564, 31407.37
1055.670, 31387.00
1056.775, 31525.00
1057.880, 31521.00
1058.985, 31571.00
1060.089, 31642.00
1061.194, 31595.00
1062.298, 31704.00
1063.402, 31707.00
1064.506, 31594.00
1065.610, 31772.00
1066.713, 31987.00
1067.817, 31735.00
1068.920, 31810.00
1070.023, 31659.00
1071.126, 32090.00
1072.229, 32292.00
1073.332, 32394.00
1074.435, 32501.00
1075.537, 32412.00
1076.639, 32614.00
1077.741, 32522.00
1078.843, 33011.00
1079.945, 32978.00
1081.046, 33036.00
1082.148, 33423.00
1083.249, 33289.00
1084.350, 33309.00
1085.451, 33381.00
1086.551, 33387.00
1087.652, 33289.00
1088.752, 33296.00
1089.853, 33122.00
1090.953, 33084.00
1092.053, 32854.00
1093.152, 32980.00
1094.252, 32763.00
1095.351, 33173.00
1096.451, 33179.00
1097.550, 33225.00
1098.649, 33244.00
1099.748, 33436.00
1100.846, 33687.00
1101.945, 33733.53
1103.043, 33415.00
1104.141, 33874.00
1105.239, 33708.00
1106.337, 33595.00
1107.434, 33788.00
1108.532, 33663.00
1109.629, 33517.00
1110.726, 33638.00
1111.823, 33576.00
1112.920, 33441.00
1114.017, 33346.00
1115.113, 33268.00
1116.210, 33322.00
1117.306, 33591.00
1118.402, 33505.00
1119.498, 33740.00
1120.593, 33740.00
1121.689, 33790.00
1122.784, 33920.00
1123.879, 34132.00
1124.974, 34123.00
1126.069, 34203.00
1127.164, 34362.00
1128.259, 34163.00
1129.353, 34179.00
1130.447, 34038.00
1131.541, 33832.00
1132.635, 33854.00
1133.729, 33685.00
1134.822, 33735.00
1135.916, 33607.00
1137.009, 33741.00
1138.102, 33689.00
1139.195, 33511.00
1140.288, 33829.00
1141.380, 33414.00
1142.473, 33673.00
1143.565, 33940.00
1144.657, 33728.00
1145.749, 33963.00
1146.841, 33788.00
1147.932, 34050.00
1149.024, 33938.00
1150.115, 34167.00
1151.206, 34316.00
1152.297, 34477.00
1153.388, 34533.00
1154.479, 34763.00
1155.569, 34856.00
1156.659, 34753.00
1157.750, 35111.00
1158.839, 34951.00
1159.929, 35047.00
1161.019, 35182.00
1162.108, 35326.00
1163.198, 35060.00
1164.287, 35199.00
1165.376, 34956.00
1166.465, 34993.00
1167.553, 34989.78
1168.642, 35080.00
1169.730, 34972.00
1170.818, 34971.00
1171.906, 34909.00
1172.994, 34650.00
1174.082, 34867.00
1175.170, 34886.00
1176.257, 34659.00
1177.344, 34826.00
1178.431, 34510.00
1179.518, 34448.00
1180.605, 34755.00
1181.691, 34463.00
1182.778, 34872.00
1183.864, 34475.00
1184.950, 34636.00
1186.036, 34360.00
1187.122, 34578.00
1188.207, 34693.00
1189.292, 34604.00
1190.378, 34496.00
1191.463, 34569.00
1192.548, 34413.00
1193.632, 34620.00
1194.717, 34362.00
1195.801, 34497.00
1196.886, 34594.00
1197.970, 34751.00
1199.054, 34613.00
1200.137, 34408.00
1201.221, 34419.00
1202.305, 34578.00
1203.388, 34889.00
1204.471, 34587.00
1205.554, 34645.00
1206.637, 34582.00
1207.719, 34498.00
1208.802, 34735.00
1209.884, 34528.00
1210.966, 34761.00
1212.048, 34835.00
1213.130, 35034.00
1214.212, 35031.00
1215.293, 34813.00
1216.374, 34860.00
1217.456, 35127.00
1218.536, 34898.00
1219.617, 35173.00
1220.698, 34810.00
1221.778, 35009.00
1222.859, 35075.00
1223.939, 35194.00
1225.019, 34808.00
1226.099, 35040.00
1227.178, 34998.00
1228.258, 35207.00
1229.337, 35123.00
1230.417, 35297.00
1231.496, 35121.00
1232.574, 35402.00
1233.653, 35731.00
1234.732, 35561.00
1235.810, 35524.00
1236.888, 35987.00
1237.966, 35965.00
1239.044, 35613.00
1240.122, 35818.00
1241.199, 35702.00
1242.277, 35769.00
1243.354, 35834.00
1244.431, 36014.00
1245.508, 35757.00
1246.585, 36032.00
1247.661, 36260.00
1248.738, 36349.00
1249.814, 36015.00
1250.890, 36102.00
1251.966, 36004.00
1253.042, 36309.00
1254.117, 36253.00
1255.193, 35840.00
1256.268, 36091.00
1257.343, 36147.00
1258.418, 35969.00
1259.493, 36491.00
1260.567, 36367.00
1261.642, 36426.00
1262.716, 36420.00
1263.790, 36388.00
1264.864, 36610.00
