##NAMES=Bikitaite
##RRUFFID=R050160
##IDEAL CHEMISTRY=LiAlSi_2_O_6_&#183;H_2_O
##LOCALITY=Foote mine, Kings Mountain, Cleveland County, North Carolina, USA
##OWNER=RRUFF
##SOURCE=Jim McGlasson
##DESCRIPTION=Colorless prismatic crystals
##STATUS=The identification of this mineral has been confirmed by X-ray diffraction and chemical analysis
##URL=rruff.info/R050160
##MEASURED CHEMISTRY=Li_1.00_Si_2.00_O_6_Â·1.25H_2_O ; Li not measured but estimated by stoichiometry
##PIN_ID=M00075
##ORIENTATION=Laser parallel to (0 1 1). Fiducial mark perpendicular to laser is parallel to a [1 0 0]
93.48000, 20941.00
94.71400, 21766.00
95.94800, 23097.00
97.18200, 24370.00
98.41600, 26346.00
99.64900, 27748.00
100.8830, 29364.00
102.1160, 31185.00
103.3490, 33009.00
104.5820, 34825.00
105.8150, 36715.00
107.0470, 37929.00
108.2800, 39710.00
109.5120, 41256.00
110.7440, 42246.00
111.9760, 42699.00
113.2080, 43119.00
114.4400, 43417.00
115.6710, 43738.00
116.9030, 42743.00
118.1340, 41850.00
119.3650, 39716.00
120.5960, 37950.00
121.8270, 35727.00
123.0580, 33330.00
124.2880, 30094.00
125.5190, 26954.00
126.7490, 24610.00
127.9790, 22372.00
129.2090, 20997.00
130.4390, 20127.00
131.6680, 19343.00
132.8980, 18955.00
134.1270, 18534.00
135.3560, 18660.00
136.5850, 19149.00
137.8140, 19481.00
139.0430, 19955.00
140.2710, 20246.00
141.5000, 20435.84
142.7280, 20924.00
143.9560, 20524.00
145.1840, 20324.00
146.4120, 19957.00
147.6390, 20030.00
148.8670, 20300.00
150.0940, 20498.00
151.3210, 21071.00
152.5490, 21665.00
153.7750, 22164.00
155.0020, 22800.00
156.2290, 23145.00
157.4550, 23810.00
158.6810, 23857.00
159.9080, 23677.00
161.1340, 23435.00
162.3590, 22688.00
163.5850, 22020.00
164.8110, 21452.00
166.0360, 20834.00
167.2610, 20473.00
168.4860, 20096.00
169.7110, 19634.00
170.9360, 19158.00
172.1610, 18374.00
173.3850, 17939.00
174.6100, 17168.00
175.8340, 16687.00
177.0580, 16088.00
178.2820, 15435.00
179.5050, 14938.00
180.7290, 14508.00
181.9520, 14234.00
183.1760, 14110.00
184.3990, 13850.00
185.6220, 13672.00
186.8450, 13886.00
188.0670, 13732.00
189.2900, 13873.00
190.5120, 14026.00
191.7340, 14171.00
192.9560, 14712.00
194.1780, 15008.00
195.4000, 15624.00
196.6220, 16110.00
197.8430, 16597.00
199.0640, 17154.00
200.2860, 18024.00
201.5070, 18671.00
202.7270, 19114.00
203.9480, 18975.00
205.1690, 18779.00
206.3890, 18338.00
207.6090, 17318.00
208.8290, 16563.00
210.0490, 15673.00
211.2690, 15193.00
212.4890, 14835.00
213.7080, 14767.00
214.9280, 14786.00
216.1470, 14526.00
217.3660, 14807.00
218.5850, 14801.00
219.8030, 15154.00
221.0220, 15303.00
222.2400, 15352.00
223.4590, 15341.00
224.6770, 15326.00
225.8950, 15093.00
227.1120, 14853.00
228.3300, 14720.00
229.5480, 14572.00
230.7650, 14311.00
231.9820, 14345.00
233.1990, 14228.00
234.4160, 14339.00
235.6330, 14532.00
236.8490, 14446.00
238.0660, 14669.00
239.2820, 15211.00
240.4980, 15513.00
241.7140, 15654.00
242.9300, 15976.00
244.1460, 16547.00
245.3610, 17001.00
246.5770, 17426.00
247.7920, 17996.00
249.0070, 18429.00
250.2220, 18732.00
251.4370, 18981.00
252.6510, 19120.60
253.8660, 19346.00
255.0800, 19117.00
256.2940, 18849.00
257.5080, 18574.00
258.7220, 17867.00
259.9360, 17340.00
261.1490, 16435.00
262.3630, 15593.00
263.5760, 15001.00
264.7890, 14312.00
266.0020, 13874.00
267.2150, 13638.00
268.4270, 13443.00
269.6400, 13279.00
270.8520, 13168.00
272.0640, 13050.87
273.2760, 13059.00
274.4880, 12912.00
275.7000, 12959.00
276.9120, 12951.00
278.1230, 13089.00
279.3340, 13132.00
280.5450, 13335.00
281.7560, 13390.00
282.9670, 13851.00
284.1780, 13850.00
285.3880, 14079.00
286.5980, 14453.00
287.8090, 14638.00
289.0190, 14918.00
290.2290, 15105.00
291.4380, 14962.00
292.6480, 14980.00
293.8570, 14860.00
295.0670, 14696.00
296.2760, 14762.00
297.4850, 14661.00
298.6930, 14557.00
299.9020, 14713.00
301.1110, 14648.00
302.3190, 14635.00
303.5270, 14752.00
304.7350, 14971.00
305.9430, 15160.00
307.1510, 15278.00
308.3580, 15422.00
309.5660, 15779.00
310.7730, 15976.00
311.9800, 16074.00
313.1870, 15864.00
314.3940, 15409.00
315.6010, 15290.00
316.8070, 14769.00
318.0130, 14428.00
319.2200, 14269.00
320.4260, 14124.00
321.6310, 13959.00
322.8370, 14204.00
324.0430, 14163.00
325.2480, 14130.00
326.4540, 14272.00
327.6590, 14131.00
328.8640, 14418.00
330.0680, 14567.00
331.2730, 14511.00
332.4780, 14586.00
333.6820, 14747.00
334.8860, 14968.00
336.0900, 15244.00
337.2940, 15558.00
338.4980, 15925.00
339.7010, 16209.00
340.9050, 16375.00
342.1080, 16733.00
343.3110, 16946.00
344.5140, 17230.08
345.7170, 17377.00
346.9200, 17682.00
348.1220, 17626.00
349.3240, 17570.00
350.5270, 17714.00
351.7290, 17955.00
352.9310, 17931.00
354.1320, 18244.00
355.3340, 18180.00
356.5350, 18215.00
357.7370, 18600.00
358.9380, 18811.00
360.1390, 19327.00
361.3400, 19745.00
362.5400, 20306.00
363.7410, 20962.00
364.9410, 21822.16
366.1410, 22795.05
367.3410, 23954.00
368.5410, 25276.00
369.7410, 26945.79
370.9400, 28519.00
372.1400, 30877.00
373.3390, 33154.00
374.5380, 35621.00
375.7370, 38084.00
376.9360, 40872.00
378.1350, 43663.00
379.3330, 45934.00
380.5310, 47848.00
381.7300, 49752.00
382.9280, 50649.00
384.1260, 51512.00
385.3230, 51482.00
386.5210, 51275.00
387.7180, 50729.00
388.9160, 49889.00
390.1130, 49339.00
391.3100, 49144.00
392.5060, 49279.00
393.7030, 49073.00
394.9000, 49013.00
396.0960, 48546.00
397.2920, 47256.00
398.4880, 44936.00
399.6840, 42630.00
400.8800, 39824.00
402.0750, 36820.00
403.2710, 34383.00
404.4660, 32239.00
405.6610, 30654.00
406.8560, 29448.00
408.0510, 28580.00
409.2450, 28102.00
410.4400, 27868.00
411.6340, 27567.00
412.8280, 27482.00
414.0220, 27743.00
415.2160, 28234.00
416.4100, 28445.00
417.6030, 28944.00
418.7970, 29641.00
419.9900, 30179.00
421.1830, 30456.00
422.3760, 30816.00
423.5690, 31109.00
424.7610, 30781.00
425.9540, 30373.00
427.1460, 29393.00
428.3380, 28647.00
429.5300, 27520.00
430.7220, 26086.00
431.9140, 25113.00
433.1050, 23757.00
434.2970, 22938.00
435.4880, 22179.00
436.6790, 21229.00
437.8700, 20867.00
439.0610, 20666.00
440.2510, 20430.00
441.4420, 20569.00
442.6320, 20633.00
443.8220, 20907.00
445.0120, 21198.00
446.2020, 21970.00
447.3910, 22352.00
448.5810, 22882.00
449.7700, 23158.00
450.9600, 23428.00
452.1490, 23595.00
453.3370, 23499.00
454.5260, 22931.00
455.7150, 22106.00
456.9030, 21636.00
458.0910, 20927.00
459.2800, 20494.00
460.4670, 20191.00
461.6550, 20069.00
462.8430, 19949.00
464.0300, 20031.00
465.2180, 20335.00
466.4050, 20495.00
467.5920, 20866.00
468.7790, 21620.00
469.9650, 22301.00
471.1520, 23025.00
472.3380, 23989.00
473.5250, 25100.00
474.7110, 26122.00
475.8970, 27758.00
477.0820, 29059.00
478.2680, 30929.00
479.4540, 32565.00
480.6390, 34774.00
481.8240, 37017.00
483.0090, 39851.00
484.1940, 42645.00
485.3780, 45695.00
486.5630, 49125.00
487.7470, 52004.00
488.9320, 54154.00
490.1160, 56232.00
491.3000, 56342.00
492.4830, 55894.00
493.6670, 54016.00
494.8500, 51930.00
496.0340, 48485.00
497.2170, 45629.00
498.4000, 42743.00
499.5820, 40140.00
500.7650, 38080.00
501.9480, 36539.00
503.1300, 35175.00
504.3120, 34238.00
505.4940, 33447.00
506.6760, 32777.00
507.8580, 32022.00
509.0390, 31486.00
510.2210, 30414.00
511.4020, 29814.00
512.5830, 28683.00
513.7640, 27772.00
514.9450, 26933.00
516.1250, 26104.00
517.3060, 25027.00
518.4860, 24287.00
519.6660, 23594.00
520.8460, 23100.00
522.0260, 22642.00
523.2060, 22072.00
524.3850, 21614.00
525.5650, 21278.79
526.7440, 21002.00
527.9230, 20760.00
529.1020, 20596.00
530.2810, 20528.00
531.4590, 20397.10
532.6380, 20352.00
533.8160, 20267.00
534.9940, 20220.00
536.1720, 20157.00
537.3500, 20030.47
538.5270, 19925.00
539.7050, 19802.00
540.8820, 19653.00
542.0590, 19604.00
543.2360, 19355.00
544.4130, 19003.00
545.5900, 18735.00
546.7660, 18302.00
547.9430, 18009.00
549.1190, 17582.00
550.2950, 17438.00
551.4710, 17165.00
552.6470, 17220.00
553.8220, 17131.00
554.9980, 16978.00
556.1730, 16871.00
557.3480, 16778.10
558.5230, 16604.00
559.6980, 16671.00
560.8730, 16595.00
562.0470, 16697.00
563.2220, 16635.00
564.3960, 16819.00
565.5700, 16742.00
566.7440, 16543.00
567.9170, 16590.00
569.0910, 16478.00
570.2640, 16560.00
571.4380, 16474.00
572.6110, 16645.00
573.7840, 16707.00
574.9570, 16480.00
576.1290, 16612.00
577.3020, 16457.00
578.4740, 16570.00
579.6460, 16569.00
580.8180, 16666.00
581.9900, 16568.00
583.1620, 16542.00
584.3330, 16721.00
585.5040, 16541.00
586.6760, 16714.00
587.8470, 16690.00
589.0180, 16724.00
590.1880, 16778.00
591.3590, 16772.00
592.5290, 16738.00
593.7000, 16748.00
594.8700, 16738.00
596.0400, 16876.00
597.2090, 16620.00
598.3790, 16815.00
599.5490, 16742.00
600.7180, 16887.00
601.8870, 16692.00
603.0560, 16916.00
604.2250, 16835.00
605.3940, 16946.00
606.5620, 16885.00
607.7300, 16743.00
608.8990, 16799.00
610.0670, 16819.00
611.2350, 16834.00
612.4020, 16825.96
613.5700, 16807.44
614.7370, 16773.00
615.9050, 16723.00
617.0720, 16690.00
618.2390, 16608.00
619.4060, 16625.00
620.5720, 16552.00
621.7390, 16553.34
622.9050, 16595.00
624.0710, 16539.00
625.2370, 16619.00
626.4030, 16592.00
627.5690, 16568.00
628.7340, 16597.00
629.9000, 16703.00
631.0650, 16626.00
632.2300, 16762.00
633.3950, 16568.00
634.5600, 16788.00
635.7240, 16707.00
636.8890, 16701.00
638.0530, 16704.00
639.2170, 16944.00
640.3810, 16887.00
641.5450, 16858.00
642.7080, 16741.00
643.8720, 16811.00
645.0350, 16799.00
646.1980, 16696.00
647.3610, 16928.00
648.5240, 16878.00
649.6870, 17077.00
650.8490, 17044.00
652.0120, 16963.00
653.1740, 16976.00
654.3360, 16928.00
655.4980, 16958.00
656.6600, 17047.00
657.8210, 17181.00
658.9830, 17084.00
660.1440, 17160.00
661.3050, 17197.00
662.4660, 17052.00
663.6270, 17308.00
664.7870, 17260.00
665.9480, 17272.00
667.1080, 17425.00
668.2680, 17322.00
669.4280, 17536.00
670.5880, 17808.00
671.7480, 17820.00
672.9070, 17927.00
674.0670, 18050.00
675.2260, 18127.00
676.3850, 18296.00
677.5440, 18289.00
678.7030, 18581.00
679.8610, 18427.00
681.0200, 18667.00
682.1780, 18496.00
683.3360, 18796.00
684.4940, 18891.00
685.6520, 18806.00
686.8090, 18833.00
687.9670, 18891.00
689.1240, 18807.00
690.2810, 18772.00
691.4380, 18574.00
692.5950, 18468.00
693.7520, 18475.00
694.9080, 18384.38
696.0650, 18524.00
697.2210, 18394.00
698.3770, 18393.00
699.5330, 18489.00
700.6880, 18447.00
701.8440, 18698.00
702.9990, 18600.00
704.1550, 18509.00
705.3100, 18549.00
706.4650, 18735.00
707.6190, 18747.00
708.7740, 18719.00
709.9290, 18741.00
711.0830, 18742.89
712.2370, 18770.00
713.3910, 18766.00
714.5450, 18711.00
715.6980, 18720.00
716.8520, 18664.71
718.0050, 18542.00
719.1580, 18543.00
720.3110, 18520.00
721.4640, 18409.00
722.6170, 18490.00
723.7700, 18306.00
724.9220, 18329.00
726.0740, 18310.00
727.2260, 18070.00
728.3780, 18204.00
729.5300, 18019.00
730.6810, 18180.00
731.8330, 18005.00
732.9840, 18223.00
734.1350, 18077.00
735.2860, 18219.00
736.4370, 18240.00
737.5880, 18100.00
738.7380, 18183.00
739.8880, 18272.00
741.0390, 18336.00
742.1890, 18420.00
743.3380, 18354.00
744.4880, 18294.00
745.6380, 18456.00
746.7870, 18612.00
747.9360, 18667.00
749.0850, 18804.00
750.2340, 18981.45
751.3830, 19157.35
752.5310, 19408.00
753.6800, 19686.00
754.8280, 20008.00
755.9760, 20457.00
757.1240, 20902.00
758.2720, 21307.00
759.4190, 21749.00
760.5670, 22029.00
761.7140, 22261.00
762.8610, 22558.00
764.0080, 22560.00
765.1550, 22755.00
766.3020, 22894.00
767.4480, 22589.00
768.5950, 22645.00
769.7410, 22165.00
770.8870, 21938.00
772.0330, 21711.00
773.1780, 21485.00
774.3240, 21237.49
775.4690, 21042.07
776.6140, 20788.00
777.7590, 20559.00
778.9040, 20443.00
780.0490, 20278.19
781.1940, 20304.00
782.3380, 20044.00
783.4820, 19991.00
784.6260, 19833.00
785.7700, 19742.00
786.9140, 19630.00
788.0580, 19393.00
789.2010, 19446.00
790.3450, 19477.00
791.4880, 19463.00
792.6310, 19298.00
793.7730, 19197.00
794.9160, 19307.00
796.0590, 19098.00
797.2010, 19189.00
798.3430, 19191.00
799.4850, 19097.00
800.6270, 19019.00
801.7690, 19076.00
802.9100, 19212.00
804.0520, 19116.00
805.1930, 19161.00
806.3340, 18873.00
807.4750, 19019.00
808.6160, 18933.00
809.7560, 19052.00
810.8970, 19036.00
812.0370, 19141.00
813.1770, 18947.00
814.3170, 18963.00
815.4570, 19106.00
816.5960, 18903.00
817.7360, 18923.00
818.8750, 19174.00
820.0140, 19061.00
821.1530, 19202.00
822.2920, 19219.00
823.4310, 19150.00
824.5690, 19248.00
825.7070, 19156.00
826.8460, 19126.00
827.9840, 19217.00
829.1220, 19306.00
830.2590, 19250.00
831.3970, 19135.00
832.5340, 19330.00
833.6710, 19206.00
834.8080, 19210.00
835.9450, 19359.00
837.0820, 19236.00
838.2190, 19180.00
839.3550, 19316.00
840.4910, 19284.00
841.6270, 19408.00
842.7630, 19353.00
843.8990, 19183.00
845.0350, 19299.00
846.1700, 19407.00
847.3060, 19521.00
848.4410, 19425.00
849.5760, 19377.00
850.7100, 19348.00
851.8450, 19190.00
852.9800, 19341.00
854.1140, 19392.00
855.2480, 19226.00
856.3820, 19395.00
857.5160, 19447.00
858.6500, 19592.00
859.7830, 19482.00
860.9170, 19360.00
862.0500, 19477.00
863.1830, 19439.00
864.3160, 19675.00
865.4480, 19556.00
866.5810, 19728.00
867.7130, 19496.00
868.8460, 19590.00
869.9780, 19498.00
871.1100, 19593.00
872.2410, 19719.00
873.3730, 19728.00
874.5050, 19627.00
875.6360, 19770.00
876.7670, 19663.00
877.8980, 19712.00
879.0290, 19851.00
880.1590, 19704.00
881.2900, 19713.00
882.4200, 19683.00
883.5500, 19796.00
884.6800, 19678.00
885.8100, 19812.00
886.9400, 19705.00
888.0690, 19924.00
889.1990, 19877.00
890.3280, 19970.00
891.4570, 19866.00
892.5860, 19912.00
893.7140, 19959.00
894.8430, 20013.00
895.9710, 19973.00
897.1000, 19929.00
898.2280, 20086.00
899.3560, 20027.00
900.4830, 20141.00
901.6110, 20012.00
902.7380, 19979.00
903.8660, 20033.00
904.9930, 20216.00
906.1200, 20242.00
907.2460, 20128.00
908.3730, 20221.00
909.5000, 20042.00
910.6260, 20269.00
911.7520, 20314.00
912.8780, 20204.00
914.0040, 20237.00
915.1290, 20270.00
916.2550, 20279.00
917.3800, 20256.00
918.5050, 20299.00
919.6300, 20408.00
920.7550, 20423.00
921.8800, 20371.00
923.0040, 20474.00
924.1290, 20353.00
925.2530, 20632.00
926.3770, 20480.00
927.5010, 20628.00
928.6250, 20546.00
929.7480, 20406.00
930.8720, 20511.00
931.9950, 20428.00
933.1180, 20618.00
934.2410, 20723.00
935.3640, 20630.00
936.4860, 20657.00
937.6090, 20639.00
938.7310, 20826.00
939.8530, 20937.00
940.9750, 21052.00
942.0970, 21082.00
943.2180, 21008.00
944.3400, 21035.00
945.4610, 21230.00
946.5820, 21403.00
947.7030, 21371.00
948.8240, 21574.00
949.9450, 21792.00
951.0650, 22057.00
952.1860, 22331.00
953.3060, 23008.00
954.4260, 23450.00
955.5460, 24367.00
956.6650, 25155.00
957.7850, 25983.00
958.9040, 26978.00
960.0230, 28018.00
961.1420, 29144.00
962.2610, 29957.00
963.3800, 30378.00
964.4990, 31275.00
965.6170, 31519.00
966.7350, 31651.00
967.8530, 31282.00
968.9710, 30408.00
970.0890, 28947.00
971.2070, 27536.00
972.3240, 26177.00
973.4410, 25411.00
974.5580, 24379.00
975.6750, 23524.00
976.7920, 23340.00
977.9090, 22751.00
979.0250, 22510.00
980.1410, 22470.00
981.2580, 22492.00
982.3740, 22414.96
983.4890, 22310.00
984.6050, 22413.00
985.7200, 22544.00
986.8360, 22514.00
987.9510, 22866.00
989.0660, 22996.00
990.1810, 23632.00
991.2950, 23780.00
992.4100, 24402.00
993.5240, 24710.00
994.6390, 24694.00
995.7530, 24673.00
996.8660, 24280.00
997.9800, 23737.00
999.0940, 23632.00
1000.207, 23066.00
1001.320, 22488.00
1002.433, 22643.00
1003.546, 22517.00
1004.659, 22372.00
1005.772, 22145.00
1006.884, 22296.00
1007.996, 22051.00
1009.108, 22235.00
1010.220, 22323.00
1011.332, 22257.00
1012.444, 22485.00
1013.555, 22318.00
1014.666, 22325.00
1015.777, 22420.00
1016.888, 22513.00
1017.999, 22368.00
1019.110, 22238.00
1020.220, 22218.00
1021.331, 22245.00
1022.441, 22197.00
1023.551, 22010.00
1024.661, 21921.00
1025.770, 22172.00
1026.880, 22065.00
1027.989, 22205.00
1029.098, 22062.00
1030.207, 22059.00
1031.316, 22156.00
1032.425, 22298.00
1033.533, 22249.00
1034.642, 22330.00
1035.750, 22269.00
1036.858, 22268.00
1037.966, 22516.00
1039.073, 22448.00
1040.181, 22751.00
1041.288, 22729.00
1042.396, 22727.00
1043.503, 23021.00
1044.610, 23206.00
1045.716, 23530.00
1046.823, 23459.00
1047.929, 23789.00
1049.036, 24091.00
1050.142, 24106.00
1051.248, 24534.00
1052.353, 24751.00
1053.459, 24694.00
1054.564, 24986.00
1055.670, 24737.00
1056.775, 24654.00
1057.880, 24741.00
1058.985, 24196.00
1060.089, 24131.00
1061.194, 24257.00
1062.298, 23973.00
1063.402, 23533.00
1064.506, 23668.00
1065.610, 23574.00
1066.713, 23427.00
1067.817, 23330.00
1068.920, 23353.00
1070.023, 23247.70
1071.126, 23048.00
1072.229, 23186.00
1073.332, 23035.00
1074.435, 23057.00
1075.537, 22976.00
1076.639, 23128.00
1077.741, 23103.00
1078.843, 23182.00
1079.945, 23216.00
1081.046, 23214.00
1082.148, 23220.00
1083.249, 23233.00
1084.350, 23269.00
1085.451, 23508.00
1086.551, 23340.00
1087.652, 23580.00
1088.752, 23421.00
1089.853, 23551.00
1090.953, 23319.00
1092.053, 23400.00
1093.152, 23487.00
1094.252, 23485.00
1095.351, 23641.00
1096.451, 23566.00
1097.550, 23779.00
1098.649, 24127.00
1099.748, 23944.00
1100.846, 24183.00
1101.945, 24060.00
1103.043, 24190.00
1104.141, 24342.00
1105.239, 24158.00
1106.337, 24492.00
1107.434, 24274.00
1108.532, 24357.00
1109.629, 24284.00
1110.726, 24345.00
1111.823, 24332.00
1112.920, 24302.00
1114.017, 24286.00
1115.113, 24365.00
1116.210, 24457.39
1117.306, 24781.00
1118.402, 24777.00
1119.498, 25099.00
1120.593, 25333.00
1121.689, 25398.00
1122.784, 25828.00
1123.879, 25762.00
1124.974, 26173.00
1126.069, 26319.00
1127.164, 26760.00
1128.259, 27187.00
1129.353, 27552.00
1130.447, 27617.00
1131.541, 28045.00
1132.635, 28420.00
1133.729, 28873.00
1134.822, 29418.00
1135.916, 30100.00
1137.009, 30713.00
1138.102, 31355.00
1139.195, 31331.00
1140.288, 31899.00
1141.380, 31764.00
1142.473, 31776.00
1143.565, 31513.00
1144.657, 31217.00
1145.749, 30122.00
1146.841, 29621.00
1147.932, 28948.00
1149.024, 28210.00
1150.115, 28087.00
1151.206, 27371.00
1152.297, 26662.00
1153.388, 26730.00
1154.479, 26359.00
1155.569, 25919.00
1156.659, 25640.00
1157.750, 25422.25
1158.839, 25288.00
1159.929, 25189.00
1161.019, 25080.00
1162.108, 25123.00
1163.198, 24853.00
1164.287, 24984.00
1165.376, 24611.00
1166.465, 24807.00
1167.553, 24717.00
1168.642, 24522.00
1169.730, 24760.00
1170.818, 24784.00
1171.906, 24542.00
1172.994, 24574.00
1174.082, 24738.00
1175.170, 24710.00
1176.257, 24465.00
1177.344, 24460.00
1178.431, 24288.00
1179.518, 24516.00
1180.605, 24596.00
1181.691, 24449.00
1182.778, 24427.00
1183.864, 24403.00
1184.950, 24388.00
1186.036, 24490.00
1187.122, 24464.00
1188.207, 24434.00
1189.292, 24357.00
1190.378, 24327.00
1191.463, 24222.00
1192.548, 24405.00
1193.632, 24464.00
1194.717, 24293.00
1195.801, 24544.00
1196.886, 24575.00
1197.970, 24594.00
1199.054, 24322.00
1200.137, 24426.00
1201.221, 24439.00
1202.305, 24443.00
1203.388, 24526.00
1204.471, 24531.00
1205.554, 24447.00
1206.637, 24358.00
1207.719, 24391.85
1208.802, 24412.00
1209.884, 24452.00
1210.966, 24505.00
1212.048, 24593.00
1213.130, 24439.00
1214.212, 24506.00
1215.293, 24464.00
1216.374, 24633.00
1217.456, 24505.00
1218.536, 24587.00
1219.617, 24620.00
1220.698, 24692.00
1221.778, 24757.00
1222.859, 24794.17
1223.939, 24676.00
1225.019, 24763.00
1226.099, 24726.00
1227.178, 24452.00
1228.258, 24670.00
1229.337, 24518.00
1230.417, 24592.00
1231.496, 24647.00
1232.574, 24635.00
1233.653, 24866.00
1234.732, 24615.00
1235.810, 24933.00
1236.888, 24648.00
1237.966, 24863.00
1239.044, 24710.00
1240.122, 24685.00
1241.199, 24822.00
1242.277, 24665.00
1243.354, 24727.00
1244.431, 24831.00
1245.508, 24818.00
1246.585, 24868.00
1247.661, 24864.00
1248.738, 24892.05
1249.814, 24906.00
1250.890, 24952.00
1251.966, 24991.55
1253.042, 25038.38
1254.117, 25072.00
1255.193, 25085.00
1256.268, 25038.00
1257.343, 24999.00
1258.418, 25114.00
1259.493, 24881.00
1260.567, 25106.00
1261.642, 25134.00
1262.716, 25068.00
1263.790, 25155.00
1264.864, 25017.00
1265.938, 25052.00
1267.011, 25116.00
1268.085, 25193.00
1269.158, 25105.00
1270.231, 25185.00
1271.304, 25139.00
