##NAMES=Bikitaite
##RRUFFID=R050160
##IDEAL CHEMISTRY=LiAlSi_2_O_6_&#183;H_2_O
##LOCALITY=Foote mine, Kings Mountain, Cleveland County, North Carolina, USA
##OWNER=RRUFF
##SOURCE=Jim McGlasson
##DESCRIPTION=Colorless prismatic crystals
##STATUS=The identification of this mineral has been confirmed by X-ray diffraction and chemical analysis
##URL=rruff.info/R050160
##MEASURED CHEMISTRY=Li_1.00_Si_2.00_O_6_Â·1.25H_2_O ; Li not measured but estimated by stoichiometry
##PIN_ID=M00075
##ORIENTATION=Laser parallel to (0 1 1). Fiducial mark perpendicular to laser is parallel to a [1 0 0]
93.48000, 22436.00
94.71400, 23400.00
95.94800, 24548.00
97.18200, 25774.00
98.41600, 27523.00
99.64900, 29361.00
100.8830, 31167.00
102.1160, 33021.00
103.3490, 34786.00
104.5820, 36745.00
105.8150, 38087.00
107.0470, 39867.00
108.2800, 41122.00
109.5120, 42649.00
110.7440, 43029.00
111.9760, 43191.00
113.2080, 43422.00
114.4400, 43760.00
115.6710, 43717.00
116.9030, 42747.00
118.1340, 41085.00
119.3650, 39286.00
120.5960, 37201.00
121.8270, 35238.00
123.0580, 32850.00
124.2880, 30140.00
125.5190, 27415.00
126.7490, 25433.00
127.9790, 23768.00
129.2090, 22924.00
130.4390, 22247.00
131.6680, 22138.00
132.8980, 21937.00
134.1270, 21893.00
135.3560, 22256.00
136.5850, 22648.00
137.8140, 23377.00
139.0430, 23998.00
140.2710, 24603.00
141.5000, 25188.00
142.7280, 24594.00
143.9560, 24500.00
145.1840, 24233.00
146.4120, 24118.00
147.6390, 24094.00
148.8670, 24160.00
150.0940, 24518.00
151.3210, 24807.00
152.5490, 25256.00
153.7750, 25645.00
155.0020, 26048.00
156.2290, 26242.00
157.4550, 26470.62
158.6810, 26709.00
159.9080, 26533.00
161.1340, 26354.00
162.3590, 25919.00
163.5850, 25326.00
164.8110, 24626.00
166.0360, 24310.00
167.2610, 23697.00
168.4860, 23228.00
169.7110, 22568.00
170.9360, 21978.00
172.1610, 21425.00
173.3850, 20758.00
174.6100, 19924.00
175.8340, 19295.00
177.0580, 18825.00
178.2820, 18041.00
179.5050, 17520.00
180.7290, 17088.00
181.9520, 16884.00
183.1760, 16755.00
184.3990, 16620.00
185.6220, 16568.00
186.8450, 16597.00
188.0670, 16720.00
189.2900, 16834.00
190.5120, 17124.00
191.7340, 17662.00
192.9560, 17948.00
194.1780, 18672.00
195.4000, 19427.00
196.6220, 20162.00
197.8430, 20542.00
199.0640, 21133.00
200.2860, 21926.00
201.5070, 22857.00
202.7270, 23349.00
203.9480, 23327.00
205.1690, 23017.00
206.3890, 22018.00
207.6090, 21135.00
208.8290, 20435.00
210.0490, 19370.00
211.2690, 18975.00
212.4890, 18942.00
213.7080, 18932.00
214.9280, 19142.00
216.1470, 19417.00
217.3660, 19845.00
218.5850, 20208.00
219.8030, 20355.00
221.0220, 20501.00
222.2400, 20340.00
223.4590, 19739.00
224.6770, 19461.00
225.8950, 19071.00
227.1120, 18576.00
228.3300, 18316.00
229.5480, 17807.00
230.7650, 17584.00
231.9820, 17463.00
233.1990, 17607.00
234.4160, 17471.00
235.6330, 17703.00
236.8490, 17939.00
238.0660, 18262.00
239.2820, 18763.00
240.4980, 19171.00
241.7140, 19829.00
242.9300, 20214.00
244.1460, 21105.00
245.3610, 21840.00
246.5770, 22605.00
247.7920, 23226.00
249.0070, 23526.00
250.2220, 23906.73
251.4370, 24200.00
252.6510, 24110.00
253.8660, 23910.00
255.0800, 23628.50
256.2940, 23365.00
257.5080, 22749.00
258.7220, 22196.00
259.9360, 21543.00
261.1490, 20035.00
262.3630, 19048.00
263.5760, 18314.00
264.7890, 17827.00
266.0020, 17297.00
267.2150, 16757.00
268.4270, 16516.00
269.6400, 16309.00
270.8520, 16213.00
272.0640, 15923.00
273.2760, 15850.00
274.4880, 15831.00
275.7000, 15906.00
276.9120, 16166.00
278.1230, 16300.00
279.3340, 16618.00
280.5450, 16740.00
281.7560, 17070.00
282.9670, 17470.00
284.1780, 17827.00
285.3880, 18259.00
286.5980, 18859.00
287.8090, 19482.00
289.0190, 19748.00
290.2290, 20305.00
291.4380, 20535.00
292.6480, 20425.00
293.8570, 20292.00
295.0670, 20098.00
296.2760, 19611.00
297.4850, 19175.00
298.6930, 18829.00
299.9020, 18768.00
301.1110, 18682.00
302.3190, 18434.00
303.5270, 18387.00
304.7350, 18410.00
305.9430, 18382.00
307.1510, 18867.00
308.3580, 18711.00
309.5660, 18957.00
310.7730, 18942.00
311.9800, 18984.00
313.1870, 18773.00
314.3940, 18487.00
315.6010, 18282.00
316.8070, 17771.00
318.0130, 17541.00
319.2200, 17325.00
320.4260, 17246.00
321.6310, 17015.00
322.8370, 17308.00
324.0430, 17261.00
325.2480, 17316.00
326.4540, 17736.00
327.6590, 17745.00
328.8640, 17631.00
330.0680, 17724.00
331.2730, 17700.00
332.4780, 17735.00
333.6820, 18132.00
334.8860, 18533.00
336.0900, 18562.00
337.2940, 18919.00
338.4980, 19308.00
339.7010, 19555.00
340.9050, 19953.00
342.1080, 20332.00
343.3110, 20355.00
344.5140, 20782.00
345.7170, 20978.00
346.9200, 21008.00
348.1220, 21299.00
349.3240, 21239.00
350.5270, 21532.00
351.7290, 21606.00
352.9310, 21774.00
354.1320, 21453.00
355.3340, 21735.00
356.5350, 21884.00
357.7370, 22139.00
358.9380, 22375.00
360.1390, 22866.00
361.3400, 23327.00
362.5400, 24005.00
363.7410, 24827.12
364.9410, 25669.00
366.1410, 26925.00
367.3410, 28000.00
368.5410, 29535.00
369.7410, 31390.00
370.9400, 33460.00
372.1400, 35996.00
373.3390, 38502.00
374.5380, 41296.00
375.7370, 43707.00
376.9360, 46732.00
378.1350, 49724.00
379.3330, 52211.00
380.5310, 53986.00
381.7300, 55861.00
382.9280, 57281.00
384.1260, 57873.00
385.3230, 57673.00
386.5210, 57599.00
387.7180, 57224.00
388.9160, 56538.00
390.1130, 56462.00
391.3100, 55922.00
392.5060, 55665.00
393.7030, 55380.00
394.9000, 54994.00
396.0960, 54029.00
397.2920, 52296.00
398.4880, 50272.00
399.6840, 47442.00
400.8800, 44255.00
402.0750, 41091.00
403.2710, 38501.00
404.4660, 36258.00
405.6610, 34589.00
406.8560, 33460.00
408.0510, 32683.00
409.2450, 31989.00
410.4400, 31605.90
411.6340, 31378.92
412.8280, 31401.00
414.0220, 31585.00
415.2160, 31868.00
416.4100, 32546.00
417.6030, 32782.00
418.7970, 33140.00
419.9900, 33729.00
421.1830, 33963.00
422.3760, 34295.00
423.5690, 34411.00
424.7610, 34101.00
425.9540, 33576.00
427.1460, 33019.00
428.3380, 32000.00
429.5300, 31121.00
430.7220, 29917.00
431.9140, 28499.00
433.1050, 27717.00
434.2970, 26982.00
435.4880, 26365.00
436.6790, 25704.00
437.8700, 25418.00
439.0610, 25074.00
440.2510, 25074.00
441.4420, 25365.00
442.6320, 25591.00
443.8220, 26181.00
445.0120, 26519.00
446.2020, 27209.00
447.3910, 27824.00
448.5810, 28479.00
449.7700, 29026.00
450.9600, 29288.00
452.1490, 29414.00
453.3370, 28788.00
454.5260, 28233.00
455.7150, 27371.00
456.9030, 26594.00
458.0910, 25946.00
459.2800, 25339.00
460.4670, 24996.83
461.6550, 24639.00
462.8430, 24606.00
464.0300, 24679.00
465.2180, 24724.00
466.4050, 25055.00
467.5920, 25349.00
468.7790, 26474.00
469.9650, 27055.00
471.1520, 27906.00
472.3380, 28755.00
473.5250, 29782.00
474.7110, 30984.00
475.8970, 32742.00
477.0820, 34157.00
478.2680, 36060.00
479.4540, 37876.00
480.6390, 40371.00
481.8240, 42673.00
483.0090, 45725.00
484.1940, 48633.00
485.3780, 51715.00
486.5630, 54718.00
487.7470, 57820.00
488.9320, 59932.00
490.1160, 61768.00
491.3000, 61889.00
492.4830, 61274.00
493.6670, 59576.00
494.8500, 56968.00
496.0340, 54266.00
497.2170, 51062.00
498.4000, 48076.00
499.5820, 45627.00
500.7650, 43994.00
501.9480, 42110.00
503.1300, 40989.00
504.3120, 39902.00
505.4940, 39170.00
506.6760, 38538.00
507.8580, 37744.00
509.0390, 37018.00
510.2210, 35836.00
511.4020, 34901.00
512.5830, 33739.00
513.7640, 32772.00
514.9450, 31495.00
516.1250, 30405.00
517.3060, 29387.00
518.4860, 28359.00
519.6660, 27609.00
520.8460, 27095.00
522.0260, 26272.00
523.2060, 25884.00
524.3850, 25132.00
525.5650, 25005.00
526.7440, 24531.00
527.9230, 24398.00
529.1020, 24078.00
530.2810, 23951.00
531.4590, 23924.00
532.6380, 23816.00
533.8160, 23713.00
534.9940, 23534.00
536.1720, 23485.24
537.3500, 23452.52
538.5270, 23303.00
539.7050, 23385.00
540.8820, 23209.00
542.0590, 22978.00
543.2360, 22789.00
544.4130, 22154.00
545.5900, 21843.00
546.7660, 21609.00
547.9430, 21312.00
549.1190, 21185.00
550.2950, 20762.00
551.4710, 20673.00
552.6470, 20353.00
553.8220, 20307.00
554.9980, 20340.00
556.1730, 20345.00
557.3480, 20249.00
558.5230, 20038.00
559.6980, 19969.00
560.8730, 19918.00
562.0470, 20140.00
563.2220, 19944.00
564.3960, 20093.00
565.5700, 20118.00
566.7440, 20002.00
567.9170, 19904.00
569.0910, 20097.00
570.2640, 20022.00
571.4380, 20022.00
572.6110, 19827.00
573.7840, 20123.00
574.9570, 19880.00
576.1290, 19968.00
577.3020, 20008.00
578.4740, 19992.00
579.6460, 20113.00
580.8180, 20066.00
581.9900, 20092.00
583.1620, 20050.00
584.3330, 20158.00
585.5040, 20270.00
586.6760, 20208.00
587.8470, 20197.00
589.0180, 20196.00
590.1880, 20416.00
591.3590, 20270.00
592.5290, 20495.00
593.7000, 20330.00
594.8700, 20424.00
596.0400, 20530.00
597.2090, 20488.00
598.3790, 20549.00
599.5490, 20566.00
600.7180, 20483.00
601.8870, 20651.00
603.0560, 20473.00
604.2250, 20599.00
605.3940, 20588.00
606.5620, 20622.00
607.7300, 20450.00
608.8990, 20526.00
610.0670, 20475.00
611.2350, 20468.00
612.4020, 20202.00
613.5700, 20299.00
614.7370, 20245.00
615.9050, 20263.00
617.0720, 20334.00
618.2390, 20305.00
619.4060, 20179.00
620.5720, 20320.00
621.7390, 20178.00
622.9050, 20301.00
624.0710, 20074.00
625.2370, 20249.00
626.4030, 20199.00
627.5690, 20132.00
628.7340, 20317.00
629.9000, 20193.00
631.0650, 20307.00
632.2300, 20082.00
633.3950, 20242.00
634.5600, 20281.00
635.7240, 20177.00
636.8890, 20330.00
638.0530, 20182.00
639.2170, 20262.00
640.3810, 20151.00
641.5450, 20309.00
642.7080, 20232.00
643.8720, 20323.00
645.0350, 20236.00
646.1980, 20520.00
647.3610, 20430.00
648.5240, 20379.00
649.6870, 20324.00
650.8490, 20264.00
652.0120, 20457.00
653.1740, 20275.00
654.3360, 20339.00
655.4980, 20271.00
656.6600, 20591.00
657.8210, 20504.00
658.9830, 20450.00
660.1440, 20650.00
661.3050, 20641.00
662.4660, 20671.00
663.6270, 20614.00
664.7870, 20674.00
665.9480, 20733.00
667.1080, 20904.00
668.2680, 21095.00
669.4280, 20936.00
670.5880, 21039.00
671.7480, 21373.00
672.9070, 21299.00
674.0670, 21483.00
675.2260, 21681.00
676.3850, 21914.00
677.5440, 21887.00
678.7030, 22064.00
679.8610, 22156.00
681.0200, 22424.00
682.1780, 22477.21
683.3360, 22479.00
684.4940, 22586.00
685.6520, 22448.00
686.8090, 22352.00
687.9670, 22444.00
689.1240, 22578.00
690.2810, 22572.00
691.4380, 22443.00
692.5950, 22388.00
693.7520, 22269.00
694.9080, 22338.00
696.0650, 22207.00
697.2210, 22388.00
698.3770, 22548.00
699.5330, 22397.00
700.6880, 22383.00
701.8440, 22519.00
702.9990, 22593.00
704.1550, 22691.00
705.3100, 22652.00
706.4650, 22942.00
707.6190, 22914.00
708.7740, 22706.00
709.9290, 23127.00
711.0830, 22892.00
712.2370, 23079.00
713.3910, 22890.00
714.5450, 22766.00
715.6980, 22789.00
716.8520, 22630.00
718.0050, 22662.00
719.1580, 22298.00
720.3110, 22460.00
721.4640, 22173.00
722.6170, 22400.00
723.7700, 22229.00
724.9220, 22170.00
726.0740, 22115.00
727.2260, 22344.00
728.3780, 22315.00
729.5300, 22274.00
730.6810, 22254.00
731.8330, 22266.00
732.9840, 22351.00
734.1350, 22229.00
735.2860, 22283.00
736.4370, 22098.00
737.5880, 22190.00
738.7380, 22115.00
739.8880, 22204.00
741.0390, 22232.00
742.1890, 22149.00
743.3380, 22117.00
744.4880, 22138.00
745.6380, 22286.00
746.7870, 22208.00
747.9360, 22581.00
749.0850, 22768.00
750.2340, 22787.00
751.3830, 23105.00
752.5310, 23292.00
753.6800, 23693.00
754.8280, 23967.00
755.9760, 24352.00
757.1240, 24542.00
758.2720, 25107.00
759.4190, 25501.00
760.5670, 25993.00
761.7140, 26203.00
762.8610, 26539.00
764.0080, 26750.00
765.1550, 26706.00
766.3020, 26848.00
767.4480, 26491.00
768.5950, 26391.00
769.7410, 26258.00
770.8870, 25636.00
772.0330, 25775.00
773.1780, 25266.00
774.3240, 25042.00
775.4690, 24943.00
776.6140, 24678.60
777.7590, 24548.00
778.9040, 24470.00
780.0490, 24268.00
781.1940, 24260.00
782.3380, 24113.00
783.4820, 23894.00
784.6260, 23844.00
785.7700, 23891.00
786.9140, 23453.00
788.0580, 23381.00
789.2010, 23470.00
790.3450, 23505.00
791.4880, 23223.00
792.6310, 23253.00
793.7730, 23231.00
794.9160, 23283.00
796.0590, 23115.00
797.2010, 23103.00
798.3430, 23067.00
799.4850, 23122.00
800.6270, 22976.00
801.7690, 23064.00
802.9100, 22921.00
804.0520, 22801.00
805.1930, 22967.00
806.3340, 23029.00
807.4750, 23086.00
808.6160, 23025.00
809.7560, 23139.00
810.8970, 23061.00
812.0370, 23145.00
813.1770, 23142.00
814.3170, 23145.00
815.4570, 22938.00
816.5960, 23175.00
817.7360, 23173.00
818.8750, 23094.00
820.0140, 23285.00
821.1530, 23014.00
822.2920, 23235.00
823.4310, 23284.00
824.5690, 23333.00
825.7070, 23226.00
826.8460, 23043.00
827.9840, 23122.00
829.1220, 23201.00
830.2590, 23386.00
831.3970, 23360.67
832.5340, 23327.00
833.6710, 23368.00
834.8080, 23270.00
835.9450, 23278.00
837.0820, 23229.00
838.2190, 23504.00
839.3550, 23444.00
840.4910, 23498.00
841.6270, 23246.00
842.7630, 23473.00
843.8990, 23623.00
845.0350, 23405.00
846.1700, 23428.00
847.3060, 23300.00
848.4410, 23528.00
849.5760, 23271.00
850.7100, 23537.00
851.8450, 23594.00
852.9800, 23805.00
854.1140, 23578.00
855.2480, 23469.00
856.3820, 23819.00
857.5160, 23632.00
858.6500, 23712.00
859.7830, 23568.00
860.9170, 23741.00
862.0500, 23775.00
863.1830, 23649.00
864.3160, 23756.00
865.4480, 23702.00
866.5810, 23838.00
867.7130, 23782.00
868.8460, 23774.00
869.9780, 23765.00
871.1100, 24030.00
872.2410, 24067.00
873.3730, 23894.00
874.5050, 23730.00
875.6360, 23924.00
876.7670, 23793.00
877.8980, 23964.00
879.0290, 23937.00
880.1590, 24036.00
881.2900, 23856.00
882.4200, 24046.00
883.5500, 24007.00
884.6800, 24099.00
885.8100, 23996.00
886.9400, 24215.00
888.0690, 24188.00
889.1990, 24103.00
890.3280, 24299.00
891.4570, 24153.00
892.5860, 24187.00
893.7140, 24242.00
894.8430, 24166.00
895.9710, 24127.00
897.1000, 24098.00
898.2280, 24270.00
899.3560, 24447.00
900.4830, 24275.00
901.6110, 24440.00
902.7380, 24411.00
903.8660, 24558.00
904.9930, 24560.38
906.1200, 24409.00
907.2460, 24597.00
908.3730, 24622.00
909.5000, 24691.00
910.6260, 24433.00
911.7520, 24721.00
912.8780, 24788.00
914.0040, 24489.00
915.1290, 24775.00
916.2550, 24953.00
917.3800, 24948.00
918.5050, 24684.00
919.6300, 24712.00
920.7550, 24767.00
921.8800, 24837.00
923.0040, 24873.00
924.1290, 24989.00
925.2530, 24931.00
926.3770, 24977.00
927.5010, 25120.00
928.6250, 25151.00
929.7480, 25087.00
930.8720, 25224.00
931.9950, 25041.00
933.1180, 25256.00
934.2410, 25369.00
935.3640, 25347.00
936.4860, 25282.00
937.6090, 25431.00
938.7310, 25350.00
939.8530, 25404.00
940.9750, 25459.00
942.0970, 25660.00
943.2180, 25872.00
944.3400, 25859.00
945.4610, 26007.00
946.5820, 26148.00
947.7030, 26532.00
948.8240, 26980.00
949.9450, 27383.00
951.0650, 27803.00
952.1860, 28545.00
953.3060, 29173.00
954.4260, 30631.00
955.5460, 31763.00
956.6650, 33622.00
957.7850, 35068.00
958.9040, 36829.00
960.0230, 38267.00
961.1420, 39881.00
962.2610, 40272.00
963.3800, 41110.00
964.4990, 41454.00
965.6170, 41761.00
966.7350, 41459.00
967.8530, 41042.00
968.9710, 39536.00
970.0890, 37421.00
971.2070, 35325.00
972.3240, 33287.00
973.4410, 31714.00
974.5580, 30534.00
975.6750, 29623.00
976.7920, 28882.00
977.9090, 28408.00
979.0250, 27832.00
980.1410, 27677.00
981.2580, 27390.00
982.3740, 27373.00
983.4890, 27426.00
984.6050, 27502.00
985.7200, 27446.00
986.8360, 27927.00
987.9510, 28174.00
989.0660, 28765.00
990.1810, 29300.00
991.2950, 30011.00
992.4100, 30381.00
993.5240, 30567.00
994.6390, 30708.00
995.7530, 30092.00
996.8660, 29757.00
997.9800, 29188.00
999.0940, 28601.00
1000.207, 28091.00
1001.320, 27875.00
1002.433, 27656.00
1003.546, 27363.00
1004.659, 27273.23
1005.772, 27215.00
1006.884, 27187.00
1007.996, 27119.00
1009.108, 27330.00
1010.220, 27337.00
1011.332, 27173.00
1012.444, 27429.00
1013.555, 27751.00
1014.666, 27563.00
1015.777, 27549.00
1016.888, 27639.00
1017.999, 27540.00
1019.110, 27374.00
1020.220, 27498.00
1021.331, 27221.00
1022.441, 27278.00
1023.551, 27188.00
1024.661, 26958.00
1025.770, 26953.00
1026.880, 26887.00
1027.989, 27145.00
1029.098, 26800.00
1030.207, 27090.00
1031.316, 27049.00
1032.425, 27193.00
1033.533, 27066.00
1034.642, 27353.00
1035.750, 27340.00
1036.858, 27384.00
1037.966, 27520.00
1039.073, 27553.00
1040.181, 27654.00
1041.288, 27943.00
1042.396, 28079.00
1043.503, 28249.00
1044.610, 28470.00
1045.716, 28673.21
1046.823, 29010.00
1047.929, 29201.00
1049.036, 29458.00
1050.142, 29836.00
1051.248, 29782.00
1052.353, 30157.00
1053.459, 30304.00
1054.564, 30269.00
1055.670, 30134.00
1056.775, 30277.00
1057.880, 30038.00
1058.985, 30044.00
1060.089, 30006.00
1061.194, 29816.00
1062.298, 29332.00
1063.402, 29192.00
1064.506, 29082.00
1065.610, 28926.00
1066.713, 28683.00
1067.817, 28594.00
1068.920, 28474.00
1070.023, 28420.00
1071.126, 28495.00
1072.229, 28420.82
1073.332, 28494.00
1074.435, 28377.00
1075.537, 28285.00
1076.639, 28192.00
1077.741, 28507.00
1078.843, 28362.00
1079.945, 28434.00
1081.046, 28470.00
1082.148, 28401.00
1083.249, 28411.00
1084.350, 28565.00
1085.451, 28476.00
1086.551, 28548.00
1087.652, 28697.00
1088.752, 28706.00
1089.853, 28787.00
1090.953, 28766.00
1092.053, 28753.00
1093.152, 28832.00
1094.252, 28847.00
1095.351, 28998.00
1096.451, 29217.00
1097.550, 29237.00
1098.649, 29591.00
1099.748, 29597.00
1100.846, 29873.00
1101.945, 29913.00
1103.043, 29917.00
1104.141, 30013.00
1105.239, 30092.00
1106.337, 30075.00
1107.434, 30103.00
1108.532, 29924.00
1109.629, 29969.00
1110.726, 29811.00
1111.823, 29656.00
1112.920, 30004.00
1114.017, 29875.00
1115.113, 29641.00
1116.210, 30107.00
1117.306, 30117.00
1118.402, 30543.00
1119.498, 30695.00
1120.593, 30708.00
1121.689, 31461.00
1122.784, 31476.00
1123.879, 31486.00
1124.974, 32143.00
1126.069, 32378.00
1127.164, 32719.00
1128.259, 33158.00
1129.353, 33569.00
1130.447, 34079.00
1131.541, 34445.00
1132.635, 35039.00
1133.729, 35397.00
1134.822, 35930.00
1135.916, 36482.00
1137.009, 37230.00
1138.102, 37753.00
1139.195, 38240.00
1140.288, 38290.95
1141.380, 38330.00
1142.473, 37855.00
1143.565, 37327.00
1144.657, 36555.00
1145.749, 35753.00
1146.841, 34960.00
1147.932, 34254.00
1149.024, 33564.00
1150.115, 33008.00
1151.206, 32340.00
1152.297, 32127.00
1153.388, 31908.00
1154.479, 31613.00
1155.569, 31215.00
1156.659, 31066.00
1157.750, 30917.13
1158.839, 30753.85
1159.929, 30871.00
1161.019, 30539.00
1162.108, 30649.00
1163.198, 30449.00
1164.287, 30333.00
1165.376, 30457.00
1166.465, 30254.00
1167.553, 30263.00
1168.642, 30461.00
1169.730, 30249.00
1170.818, 30344.00
1171.906, 30190.00
1172.994, 30454.00
1174.082, 30176.00
1175.170, 30281.00
1176.257, 30181.00
1177.344, 30164.00
1178.431, 29936.00
1179.518, 29992.00
1180.605, 29907.00
1181.691, 29840.00
1182.778, 29717.00
1183.864, 29699.00
1184.950, 29727.40
1186.036, 29638.00
1187.122, 29869.00
1188.207, 29856.00
1189.292, 29933.00
1190.378, 29986.00
1191.463, 29779.00
1192.548, 29800.00
1193.632, 29916.00
1194.717, 29934.00
1195.801, 29739.00
1196.886, 29833.00
1197.970, 29706.00
1199.054, 29809.00
1200.137, 29987.00
1201.221, 30016.00
1202.305, 29846.00
1203.388, 29798.00
1204.471, 29907.00
1205.554, 29983.00
1206.637, 29883.00
1207.719, 29937.00
1208.802, 30204.00
1209.884, 29854.00
1210.966, 30170.00
1212.048, 29961.00
1213.130, 29968.00
1214.212, 29841.00
1215.293, 30022.00
1216.374, 29943.00
1217.456, 30016.00
1218.536, 30069.00
1219.617, 30151.00
1220.698, 29974.00
1221.778, 30056.00
1222.859, 30189.00
1223.939, 30357.00
1225.019, 30216.00
1226.099, 30165.00
1227.178, 30082.00
1228.258, 30066.00
1229.337, 30182.00
1230.417, 30146.00
1231.496, 30299.00
1232.574, 30263.00
1233.653, 30296.00
1234.732, 30430.00
1235.810, 30152.00
1236.888, 30273.00
1237.966, 30357.00
1239.044, 30280.00
1240.122, 30294.00
1241.199, 30322.00
1242.277, 30313.29
1243.354, 30450.00
1244.431, 30322.00
1245.508, 30447.00
1246.585, 30376.00
1247.661, 30384.00
1248.738, 30600.00
1249.814, 30615.00
1250.890, 30542.00
1251.966, 30776.00
1253.042, 30441.00
1254.117, 30405.00
1255.193, 30728.00
1256.268, 30592.00
1257.343, 30634.00
1258.418, 30617.00
1259.493, 30503.00
1260.567, 30618.00
1261.642, 30732.00
1262.716, 30824.00
1263.790, 30835.76
1264.864, 30818.68
1265.938, 30774.00
1267.011, 30715.00
1268.085, 30589.00
1269.158, 30601.00
1270.231, 30666.00
1271.304, 30688.33
