##NAMES=Bikitaite
##RRUFFID=R050160
##IDEAL CHEMISTRY=LiAlSi_2_O_6_&#183;H_2_O
##LOCALITY=Foote mine, Kings Mountain, Cleveland County, North Carolina, USA
##OWNER=RRUFF
##SOURCE=Jim McGlasson
##DESCRIPTION=Colorless prismatic crystals
##STATUS=The identification of this mineral has been confirmed by X-ray diffraction and chemical analysis
##URL=rruff.info/R050160
##MEASURED CHEMISTRY=Li_1.00_Si_2.00_O_6_Â·1.25H_2_O ; Li not measured but estimated by stoichiometry
##PIN_ID=M00075
##ORIENTATION=Laser parallel to (0 1 1). Fiducial mark perpendicular to laser is parallel to a [1 0 0]
93.48000, 16742.00
94.71400, 17418.00
95.94800, 18121.00
97.18200, 19017.00
98.41600, 20218.00
99.64900, 21529.00
100.8830, 22650.00
102.1160, 23936.00
103.3490, 25041.00
104.5820, 26080.00
105.8150, 27230.00
107.0470, 27785.00
108.2800, 28472.00
109.5120, 29003.00
110.7440, 28990.00
111.9760, 28635.00
113.2080, 28374.00
114.4400, 28144.00
115.6710, 28282.00
116.9030, 27578.00
118.1340, 26928.00
119.3650, 25889.00
120.5960, 24753.00
121.8270, 23930.00
123.0580, 22591.00
124.2880, 21090.00
125.5190, 19930.00
126.7490, 18875.00
127.9790, 18311.00
129.2090, 17844.00
130.4390, 17781.00
131.6680, 17893.00
132.8980, 18014.00
134.1270, 18338.00
135.3560, 19164.00
136.5850, 19490.00
137.8140, 20612.00
139.0430, 21565.00
140.2710, 22394.00
141.5000, 23230.00
142.7280, 23894.00
143.9560, 24370.00
145.1840, 24470.00
146.4120, 24284.00
147.6390, 24028.00
148.8670, 23742.00
150.0940, 23482.00
151.3210, 23399.00
152.5490, 23436.00
153.7750, 23440.00
155.0020, 23688.00
156.2290, 23678.00
157.4550, 23782.00
158.6810, 23941.00
159.9080, 24041.00
161.1340, 23882.00
162.3590, 23830.00
163.5850, 23017.00
164.8110, 22714.00
166.0360, 21919.00
167.2610, 21586.00
168.4860, 21082.00
169.7110, 20361.00
170.9360, 19786.00
172.1610, 19136.91
173.3850, 18528.00
174.6100, 17796.00
175.8340, 17216.00
177.0580, 16500.00
178.2820, 16266.00
179.5050, 15881.00
180.7290, 15753.00
181.9520, 15365.00
183.1760, 15205.00
184.3990, 15311.00
185.6220, 15262.33
186.8450, 15452.00
188.0670, 15591.00
189.2900, 16049.00
190.5120, 16345.00
191.7340, 16882.00
192.9560, 17498.00
194.1780, 18377.00
195.4000, 19073.18
196.6220, 20009.00
197.8430, 20818.00
199.0640, 21600.00
200.2860, 22650.00
201.5070, 23446.00
202.7270, 24222.00
203.9480, 24251.00
205.1690, 24126.00
206.3890, 23232.00
207.6090, 22402.00
208.8290, 21806.00
210.0490, 21185.00
211.2690, 21074.18
212.4890, 20954.00
213.7080, 21311.00
214.9280, 21844.00
216.1470, 22430.00
217.3660, 22799.00
218.5850, 23233.00
219.8030, 23522.00
221.0220, 23331.00
222.2400, 22608.00
223.4590, 22100.00
224.6770, 21029.00
225.8950, 19961.00
227.1120, 19152.00
228.3300, 18330.00
229.5480, 17611.00
230.7650, 17078.00
231.9820, 16775.00
233.1990, 16442.00
234.4160, 16608.00
235.6330, 16425.00
236.8490, 16785.00
238.0660, 16774.00
239.2820, 17252.00
240.4980, 17572.00
241.7140, 17973.00
242.9300, 18276.00
244.1460, 18898.00
245.3610, 19380.00
246.5770, 19833.00
247.7920, 20252.00
249.0070, 20540.00
250.2220, 20911.00
251.4370, 20940.00
252.6510, 21059.00
253.8660, 20991.00
255.0800, 21013.00
256.2940, 20633.00
257.5080, 20324.00
258.7220, 19816.00
259.9360, 19213.00
261.1490, 18310.00
262.3630, 17486.00
263.5760, 16904.00
264.7890, 16498.00
266.0020, 16138.00
267.2150, 15783.00
268.4270, 15609.00
269.6400, 15456.00
270.8520, 15238.00
272.0640, 15365.00
273.2760, 15309.00
274.4880, 15273.00
275.7000, 15183.00
276.9120, 15531.00
278.1230, 15722.00
279.3340, 15871.00
280.5450, 16169.00
281.7560, 16585.00
282.9670, 16956.00
284.1780, 17484.00
285.3880, 18038.00
286.5980, 18474.00
287.8090, 18890.00
289.0190, 19389.00
290.2290, 19629.00
291.4380, 19902.00
292.6480, 19973.00
293.8570, 19808.00
295.0670, 19458.00
296.2760, 19284.00
297.4850, 19135.00
298.6930, 18828.00
299.9020, 18524.00
301.1110, 18124.00
302.3190, 18107.00
303.5270, 17965.00
304.7350, 17588.00
305.9430, 17446.00
307.1510, 17357.00
308.3580, 17498.00
309.5660, 17315.00
310.7730, 17524.00
311.9800, 17600.00
313.1870, 17475.00
314.3940, 17290.00
315.6010, 17100.00
316.8070, 16815.00
318.0130, 16372.00
319.2200, 16484.00
320.4260, 16323.00
321.6310, 16423.00
322.8370, 16392.00
324.0430, 16528.00
325.2480, 16641.00
326.4540, 16598.00
327.6590, 16802.00
328.8640, 16787.00
330.0680, 16954.00
331.2730, 16992.00
332.4780, 17238.00
333.6820, 17108.00
334.8860, 17348.00
336.0900, 17788.00
337.2940, 18172.00
338.4980, 18093.00
339.7010, 18802.00
340.9050, 18963.00
342.1080, 19454.00
343.3110, 19612.00
344.5140, 20135.00
345.7170, 20502.00
346.9200, 20751.00
348.1220, 20853.00
349.3240, 20926.00
350.5270, 21130.00
351.7290, 21086.00
352.9310, 21126.00
354.1320, 21131.00
355.3340, 20960.00
356.5350, 21307.00
357.7370, 21146.00
358.9380, 21540.00
360.1390, 21794.00
361.3400, 22328.00
362.5400, 22888.00
363.7410, 23582.00
364.9410, 24512.00
366.1410, 25366.00
367.3410, 26718.00
368.5410, 28032.00
369.7410, 29584.00
370.9400, 31495.00
372.1400, 33882.00
373.3390, 36441.00
374.5380, 38629.00
375.7370, 41571.00
376.9360, 44312.00
378.1350, 47140.00
379.3330, 49679.00
380.5310, 51756.00
381.7300, 53966.00
382.9280, 55548.00
384.1260, 56360.00
385.3230, 56874.00
386.5210, 56721.00
387.7180, 56485.00
388.9160, 56204.00
390.1130, 55852.98
391.3100, 55291.00
392.5060, 54861.00
393.7030, 54117.00
394.9000, 53224.00
396.0960, 51933.00
397.2920, 49967.00
398.4880, 47409.00
399.6840, 44331.00
400.8800, 41671.00
402.0750, 38177.00
403.2710, 35512.00
404.4660, 33298.00
405.6610, 31774.00
406.8560, 30383.00
408.0510, 29294.00
409.2450, 28619.00
410.4400, 28246.00
411.6340, 27742.00
412.8280, 27554.00
414.0220, 27616.00
415.2160, 27388.00
416.4100, 27693.00
417.6030, 27801.00
418.7970, 28009.00
419.9900, 28451.00
421.1830, 28707.00
422.3760, 28939.00
423.5690, 28942.00
424.7610, 28649.00
425.9540, 28418.00
427.1460, 27870.00
428.3380, 27379.00
429.5300, 26514.00
430.7220, 25950.00
431.9140, 24923.00
433.1050, 24516.00
434.2970, 23874.00
435.4880, 23702.00
436.6790, 23315.00
437.8700, 23102.00
439.0610, 23003.00
440.2510, 23340.00
441.4420, 23570.00
442.6320, 24093.00
443.8220, 24565.00
445.0120, 25212.00
446.2020, 26131.00
447.3910, 26672.00
448.5810, 27634.00
449.7700, 28066.00
450.9600, 28868.00
452.1490, 28920.00
453.3370, 28717.00
454.5260, 28236.00
455.7150, 27079.00
456.9030, 26055.00
458.0910, 25025.00
459.2800, 24180.00
460.4670, 23618.00
461.6550, 23118.00
462.8430, 23140.00
464.0300, 23025.00
465.2180, 22835.00
466.4050, 23296.00
467.5920, 23438.00
468.7790, 23922.00
469.9650, 24519.00
471.1520, 25228.00
472.3380, 25909.00
473.5250, 26628.00
474.7110, 27932.00
475.8970, 29196.00
477.0820, 30627.00
478.2680, 32286.00
479.4540, 33871.00
480.6390, 35898.00
481.8240, 38223.00
483.0090, 40820.00
484.1940, 43802.00
485.3780, 46547.00
486.5630, 49395.00
487.7470, 52198.00
488.9320, 54342.00
490.1160, 55896.00
491.3000, 56309.00
492.4830, 55712.00
493.6670, 54422.00
494.8500, 52160.00
496.0340, 49581.00
497.2170, 47335.00
498.4000, 45374.00
499.5820, 43190.00
500.7650, 41729.00
501.9480, 40542.00
503.1300, 39931.00
504.3120, 39238.00
505.4940, 38514.00
506.6760, 38267.00
507.8580, 37520.00
509.0390, 36727.00
510.2210, 36033.00
511.4020, 34914.00
512.5830, 33842.00
513.7640, 32383.00
514.9450, 31079.00
516.1250, 29917.00
517.3060, 28780.00
518.4860, 27652.00
519.6660, 26642.00
520.8460, 25790.00
522.0260, 25125.00
523.2060, 24341.00
524.3850, 23929.00
525.5650, 23358.00
526.7440, 23000.00
527.9230, 22812.00
529.1020, 22546.00
530.2810, 22336.00
531.4590, 22061.00
532.6380, 21944.64
533.8160, 21658.00
534.9940, 21779.00
536.1720, 21644.00
537.3500, 21675.00
538.5270, 21483.00
539.7050, 21462.00
540.8820, 21358.00
542.0590, 21093.00
543.2360, 20918.00
544.4130, 20538.00
545.5900, 20361.00
546.7660, 19930.00
547.9430, 19860.00
549.1190, 19543.00
550.2950, 19409.00
551.4710, 19195.00
552.6470, 19054.00
553.8220, 18970.00
554.9980, 18934.00
556.1730, 18841.37
557.3480, 18895.00
558.5230, 18734.00
559.6980, 18851.00
560.8730, 18826.00
562.0470, 18946.00
563.2220, 18788.00
564.3960, 18586.00
565.5700, 18599.00
566.7440, 18814.00
567.9170, 18586.00
569.0910, 18613.00
570.2640, 18897.00
571.4380, 18702.00
572.6110, 18756.00
573.7840, 18526.00
574.9570, 18536.00
576.1290, 18770.00
577.3020, 18652.00
578.4740, 18712.00
579.6460, 18676.00
580.8180, 18823.00
581.9900, 18753.00
583.1620, 18780.00
584.3330, 18715.00
585.5040, 18722.00
586.6760, 18900.00
587.8470, 18776.00
589.0180, 18739.00
590.1880, 18623.00
591.3590, 18795.00
592.5290, 18953.00
593.7000, 18817.00
594.8700, 18881.00
596.0400, 18910.00
597.2090, 18893.00
598.3790, 19039.00
599.5490, 18867.00
600.7180, 19054.00
601.8870, 19116.00
603.0560, 18817.00
604.2250, 18873.00
605.3940, 19168.00
606.5620, 19066.00
607.7300, 18994.00
608.8990, 19158.00
610.0670, 19004.00
611.2350, 18943.00
612.4020, 18981.00
613.5700, 18877.00
614.7370, 18901.57
615.9050, 18921.00
617.0720, 18895.00
618.2390, 19024.00
619.4060, 19003.00
620.5720, 19198.00
621.7390, 19039.00
622.9050, 19042.00
624.0710, 18978.00
625.2370, 19067.00
626.4030, 19018.00
627.5690, 19050.00
628.7340, 18946.00
629.9000, 19044.00
631.0650, 19030.00
632.2300, 18967.00
633.3950, 19097.00
634.5600, 19200.00
635.7240, 19104.00
636.8890, 19175.00
638.0530, 19147.00
639.2170, 19137.00
640.3810, 19267.00
641.5450, 19192.00
642.7080, 19281.00
643.8720, 19260.00
645.0350, 19249.10
646.1980, 19292.61
647.3610, 19215.00
648.5240, 19289.00
649.6870, 19247.00
650.8490, 19152.00
652.0120, 19233.00
653.1740, 19192.00
654.3360, 19358.00
655.4980, 19291.00
656.6600, 19337.00
657.8210, 19453.00
658.9830, 19362.00
660.1440, 19260.00
661.3050, 19488.00
662.4660, 19395.00
663.6270, 19347.00
664.7870, 19466.00
665.9480, 19580.00
667.1080, 19752.00
668.2680, 19790.18
669.4280, 19814.00
670.5880, 19898.00
671.7480, 19928.00
672.9070, 20004.00
674.0670, 20052.00
675.2260, 20339.00
676.3850, 20093.00
677.5440, 20233.00
678.7030, 20600.00
679.8610, 20792.00
681.0200, 20727.00
682.1780, 21013.00
683.3360, 20844.00
684.4940, 20784.00
685.6520, 21162.00
686.8090, 21105.00
687.9670, 20983.00
689.1240, 21028.00
690.2810, 21024.26
691.4380, 21174.00
692.5950, 21156.00
693.7520, 21314.00
694.9080, 21451.00
696.0650, 21548.00
697.2210, 21637.82
698.3770, 21738.00
699.5330, 21797.00
700.6880, 21792.00
701.8440, 21941.00
702.9990, 21919.00
704.1550, 22140.00
705.3100, 22142.00
706.4650, 22167.00
707.6190, 22354.00
708.7740, 22442.00
709.9290, 22539.00
711.0830, 22504.03
712.2370, 22587.00
713.3910, 22354.00
714.5450, 22189.00
715.6980, 22129.00
716.8520, 21942.00
718.0050, 21827.00
719.1580, 21694.00
720.3110, 21620.39
721.4640, 21498.00
722.6170, 21522.00
723.7700, 21689.00
724.9220, 21666.00
726.0740, 21774.00
727.2260, 21766.00
728.3780, 21992.00
729.5300, 21970.00
730.6810, 21956.00
731.8330, 21839.00
732.9840, 21974.00
734.1350, 21665.00
735.2860, 21606.00
736.4370, 21333.00
737.5880, 21051.00
738.7380, 21214.00
739.8880, 20989.00
741.0390, 20964.00
742.1890, 21054.00
743.3380, 20855.00
744.4880, 20922.00
745.6380, 20960.00
746.7870, 21022.00
747.9360, 21220.00
749.0850, 21318.00
750.2340, 21389.00
751.3830, 21398.00
752.5310, 21676.00
753.6800, 21525.00
754.8280, 21716.00
755.9760, 22038.00
757.1240, 22320.00
758.2720, 22527.00
759.4190, 22617.00
760.5670, 22815.00
761.7140, 23252.00
762.8610, 23217.00
764.0080, 23384.00
765.1550, 23486.00
766.3020, 23164.00
767.4480, 23178.00
768.5950, 23285.00
769.7410, 23064.00
770.8870, 23131.00
772.0330, 22793.00
773.1780, 22744.00
774.3240, 22558.00
775.4690, 22531.00
776.6140, 22526.00
777.7590, 22395.00
778.9040, 22223.00
780.0490, 22246.00
781.1940, 22389.00
782.3380, 22090.00
783.4820, 22129.00
784.6260, 22106.00
785.7700, 21893.00
786.9140, 21932.00
788.0580, 21943.00
789.2010, 21957.00
790.3450, 21930.82
791.4880, 21605.00
792.6310, 21805.00
793.7730, 21741.00
794.9160, 21574.00
796.0590, 21770.00
797.2010, 21591.00
798.3430, 21681.00
799.4850, 21731.00
800.6270, 21571.00
801.7690, 21770.00
802.9100, 21625.00
804.0520, 21664.00
805.1930, 21606.00
806.3340, 21651.30
807.4750, 21670.00
808.6160, 21800.00
809.7560, 21830.00
810.8970, 21912.80
812.0370, 21817.00
813.1770, 21895.00
814.3170, 21842.00
815.4570, 21733.00
816.5960, 21818.00
817.7360, 21885.00
818.8750, 21791.00
820.0140, 21818.00
821.1530, 21926.00
822.2920, 21892.00
823.4310, 21843.00
824.5690, 22079.00
825.7070, 21842.00
826.8460, 22103.00
827.9840, 21966.00
829.1220, 21645.00
830.2590, 22059.00
831.3970, 21800.00
832.5340, 21972.00
833.6710, 22315.00
834.8080, 22178.00
835.9450, 22076.00
837.0820, 21998.00
838.2190, 22187.00
839.3550, 21970.00
840.4910, 22235.00
841.6270, 22078.00
842.7630, 22335.00
843.8990, 22322.00
845.0350, 22060.00
846.1700, 22530.00
847.3060, 22161.00
848.4410, 22330.00
849.5760, 22173.00
850.7100, 22361.00
851.8450, 22238.00
852.9800, 22201.00
854.1140, 22374.00
855.2480, 22280.00
856.3820, 22520.00
857.5160, 22337.00
858.6500, 22663.00
859.7830, 22640.00
860.9170, 22420.00
862.0500, 22489.00
863.1830, 22476.00
864.3160, 22509.00
865.4480, 22564.00
866.5810, 22523.00
867.7130, 22513.00
868.8460, 22634.00
869.9780, 22489.00
871.1100, 22705.00
872.2410, 22676.00
873.3730, 22649.00
874.5050, 22676.00
875.6360, 22799.00
876.7670, 22746.00
877.8980, 22751.00
879.0290, 22787.00
880.1590, 22763.00
881.2900, 22762.88
882.4200, 22763.00
883.5500, 22784.00
884.6800, 22843.00
885.8100, 22976.00
886.9400, 23019.00
888.0690, 22834.00
889.1990, 23011.00
890.3280, 22900.00
891.4570, 22999.00
892.5860, 23158.00
893.7140, 22949.00
894.8430, 23068.00
895.9710, 23152.00
897.1000, 23021.00
898.2280, 23251.00
899.3560, 23298.00
900.4830, 23055.00
901.6110, 23128.00
902.7380, 23125.00
903.8660, 23268.00
904.9930, 23246.00
906.1200, 23322.00
907.2460, 23275.00
908.3730, 23144.00
909.5000, 23158.00
910.6260, 23398.00
911.7520, 23551.00
912.8780, 23430.00
914.0040, 23453.00
915.1290, 23571.00
916.2550, 23606.00
917.3800, 23394.00
918.5050, 23628.00
919.6300, 23474.00
920.7550, 23685.00
921.8800, 23542.00
923.0040, 23621.00
924.1290, 23786.00
925.2530, 23579.00
926.3770, 23874.00
927.5010, 23806.00
928.6250, 24004.00
929.7480, 24113.00
930.8720, 23970.00
931.9950, 23968.00
933.1180, 24118.00
934.2410, 24115.00
935.3640, 24071.00
936.4860, 24169.00
937.6090, 24442.00
938.7310, 24259.00
939.8530, 24634.00
940.9750, 24533.00
942.0970, 24603.00
943.2180, 25020.00
944.3400, 24911.00
945.4610, 25321.00
946.5820, 25610.00
947.7030, 25888.00
948.8240, 26489.00
949.9450, 27201.00
951.0650, 28043.00
952.1860, 28964.00
953.3060, 30662.00
954.4260, 32464.00
955.5460, 34139.00
956.6650, 36454.00
957.7850, 38159.00
958.9040, 40058.00
960.0230, 40937.00
961.1420, 41307.00
962.2610, 41127.00
963.3800, 40320.00
964.4990, 39615.00
965.6170, 38493.00
966.7350, 37590.00
967.8530, 36711.00
968.9710, 35415.00
970.0890, 34100.00
971.2070, 32054.00
972.3240, 30787.00
973.4410, 29611.00
974.5580, 28535.00
975.6750, 27927.00
976.7920, 27267.00
977.9090, 26947.00
979.0250, 26654.00
980.1410, 26265.00
981.2580, 26180.58
982.3740, 26074.00
983.4890, 26101.00
984.6050, 26132.32
985.7200, 26183.00
986.8360, 26357.00
987.9510, 26549.00
989.0660, 26762.00
990.1810, 27208.00
991.2950, 27424.00
992.4100, 27996.00
993.5240, 28061.00
994.6390, 28310.00
995.7530, 28104.00
996.8660, 27503.00
997.9800, 27001.00
999.0940, 26910.00
1000.207, 26551.00
1001.320, 26158.00
1002.433, 25946.00
1003.546, 26109.00
1004.659, 25995.00
1005.772, 26068.00
1006.884, 25874.00
1007.996, 26077.00
1009.108, 26093.00
1010.220, 26247.00
1011.332, 26474.00
1012.444, 26551.00
1013.555, 26554.00
1014.666, 26602.42
1015.777, 26498.00
1016.888, 26487.00
1017.999, 26423.00
1019.110, 26255.00
1020.220, 26389.00
1021.331, 25997.00
1022.441, 25960.00
1023.551, 25724.00
1024.661, 25849.00
1025.770, 25829.00
1026.880, 25914.00
1027.989, 25930.52
1029.098, 25832.00
1030.207, 26008.00
1031.316, 26024.00
1032.425, 26179.00
1033.533, 25950.00
1034.642, 26124.00
1035.750, 26145.00
1036.858, 26299.00
1037.966, 26382.00
1039.073, 26509.00
1040.181, 26783.00
1041.288, 26883.00
1042.396, 27042.00
1043.503, 27126.00
1044.610, 27403.00
1045.716, 28014.00
1046.823, 28241.00
1047.929, 28809.00
1049.036, 29292.00
1050.142, 29629.00
1051.248, 29723.00
1052.353, 29814.00
1053.459, 29774.00
1054.564, 29644.00
1055.670, 29467.62
1056.775, 29243.00
1057.880, 28841.00
1058.985, 28478.00
1060.089, 27974.00
1061.194, 27940.00
1062.298, 27669.00
1063.402, 27505.00
1064.506, 27378.00
1065.610, 27211.00
1066.713, 27118.69
1067.817, 27007.00
1068.920, 26964.00
1070.023, 26829.00
1071.126, 26803.73
1072.229, 26927.00
1073.332, 26789.00
1074.435, 26947.00
1075.537, 26894.00
1076.639, 26899.00
1077.741, 27108.00
1078.843, 26889.00
1079.945, 26962.00
1081.046, 27005.00
1082.148, 27101.00
1083.249, 27127.00
1084.350, 27161.00
1085.451, 27194.49
1086.551, 27211.65
1087.652, 27212.00
1088.752, 27238.00
1089.853, 27225.00
1090.953, 27271.23
1092.053, 27283.00
1093.152, 27366.00
1094.252, 27403.00
1095.351, 27469.00
1096.451, 27607.00
1097.550, 27593.00
1098.649, 27876.00
1099.748, 27781.00
1100.846, 27912.00
1101.945, 27914.00
1103.043, 28225.00
1104.141, 28043.00
1105.239, 28308.00
1106.337, 28108.00
1107.434, 27855.00
1108.532, 28011.00
1109.629, 27817.00
1110.726, 27866.00
1111.823, 27817.00
1112.920, 27865.59
1114.017, 27922.62
1115.113, 28044.00
1116.210, 28093.00
1117.306, 28161.00
1118.402, 28294.00
1119.498, 28486.00
1120.593, 28678.00
1121.689, 28995.00
1122.784, 29215.00
1123.879, 29445.00
1124.974, 29773.00
1126.069, 30005.51
1127.164, 30080.00
1128.259, 30493.00
1129.353, 30589.00
1130.447, 30695.00
1131.541, 31204.00
1132.635, 31293.00
1133.729, 31748.00
1134.822, 31937.00
1135.916, 32533.00
1137.009, 32747.00
1138.102, 32799.00
1139.195, 33155.00
1140.288, 33327.00
1141.380, 33267.00
1142.473, 33281.00
1143.565, 33021.00
1144.657, 32817.00
1145.749, 32567.00
1146.841, 31932.00
1147.932, 31507.00
1149.024, 31076.00
1150.115, 30805.00
1151.206, 30487.00
1152.297, 30113.00
1153.388, 29949.00
1154.479, 29724.00
1155.569, 29707.00
1156.659, 29530.00
1157.750, 29206.00
1158.839, 29323.00
1159.929, 29222.00
1161.019, 29210.00
1162.108, 28969.00
1163.198, 29058.00
1164.287, 29086.00
1165.376, 29110.00
1166.465, 29278.00
1167.553, 29340.00
1168.642, 28977.00
1169.730, 28980.00
1170.818, 29213.00
1171.906, 29150.00
1172.994, 29263.00
1174.082, 29118.00
1175.170, 29064.00
1176.257, 29238.00
1177.344, 28963.00
1178.431, 29026.00
1179.518, 28756.00
1180.605, 28765.00
1181.691, 28806.00
1182.778, 28665.00
1183.864, 28770.00
1184.950, 28532.00
1186.036, 28710.00
1187.122, 28713.07
1188.207, 28544.00
1189.292, 28796.00
1190.378, 28756.00
1191.463, 28652.00
1192.548, 28616.00
1193.632, 28693.00
1194.717, 28565.00
1195.801, 28710.00
1196.886, 28697.00
1197.970, 28551.00
1199.054, 28851.00
1200.137, 28669.00
1201.221, 28557.00
1202.305, 28804.00
1203.388, 28827.00
1204.471, 28744.00
1205.554, 28809.00
1206.637, 28809.16
1207.719, 28819.00
1208.802, 28861.00
1209.884, 28916.00
1210.966, 28926.00
1212.048, 28804.00
1213.130, 28699.00
1214.212, 28806.00
1215.293, 28902.00
1216.374, 28914.00
1217.456, 28815.00
1218.536, 28956.00
1219.617, 28678.00
1220.698, 29117.00
1221.778, 28989.00
1222.859, 29053.00
1223.939, 28874.00
1225.019, 29076.00
1226.099, 29062.98
1227.178, 28980.00
1228.258, 29168.00
1229.337, 29056.00
1230.417, 29027.00
1231.496, 29188.00
1232.574, 29238.00
1233.653, 29057.00
1234.732, 29242.00
1235.810, 29151.00
1236.888, 28978.00
1237.966, 29310.00
1239.044, 29543.00
1240.122, 28920.00
1241.199, 29295.00
1242.277, 29293.00
1243.354, 29220.00
1244.431, 29359.00
1245.508, 29185.00
1246.585, 29037.00
1247.661, 29327.00
1248.738, 29326.00
1249.814, 29519.00
1250.890, 29156.00
1251.966, 29254.00
1253.042, 29472.00
1254.117, 29452.00
1255.193, 29671.00
1256.268, 29479.00
1257.343, 29507.00
1258.418, 29597.00
1259.493, 29582.00
1260.567, 29604.00
1261.642, 29604.00
1262.716, 29627.00
1263.790, 29874.00
1264.864, 29595.00
1265.938, 29798.00
1267.011, 29532.00
1268.085, 29593.00
1269.158, 29478.00
1270.231, 29983.00
1271.304, 29742.00
