##NAMES=Braunite
##RRUFFID=R050390
##IDEAL CHEMISTRY=Mn^2+^Mn^3+^_6_SiO_12_
##LOCALITY=Oehrenstock, Thuringia, Germany
##OWNER=RRUFF
##SOURCE=University of Arizona Mineral Museum
##DESCRIPTION=Mass of black octahedra
##STATUS=The identification of this mineral has been confirmed by X-ray diffraction and chemical analysis
##URL=rruff.info/R050390
##MEASURED CHEMISTRY=(Mn^2+^_0.83_Ca_0.17_)_Î£=1_Mn^3+^_6.00_Si_1.00_O_12_
##PIN_ID=M00051
##ORIENTATION=Laser parallel to -a* (-1 0 0). Fiducial mark perpendicular to laser is parallel to -c [0 0 -1]
302.3190, 37517.00
303.5270, 37698.00
304.7350, 37532.00
305.9430, 37780.00
307.1510, 37390.00
308.3580, 37483.00
309.5660, 37671.00
310.7730, 37482.00
311.9800, 37356.00
313.1870, 37326.00
314.3940, 37358.00
315.6010, 37345.47
316.8070, 37359.67
318.0130, 37508.00
319.2200, 37599.00
320.4260, 37841.00
321.6310, 37857.52
322.8370, 38135.00
324.0430, 38104.00
325.2480, 38004.00
326.4540, 38455.00
327.6590, 39136.00
328.8640, 38901.00
330.0680, 39220.00
331.2730, 39286.00
332.4780, 39650.00
333.6820, 39646.00
334.8860, 39908.00
336.0900, 40085.73
337.2940, 40257.00
338.4980, 40334.00
339.7010, 40454.00
340.9050, 40349.00
342.1080, 40438.00
343.3110, 40561.00
344.5140, 40246.00
345.7170, 41033.00
346.9200, 40478.59
348.1220, 40176.97
349.3240, 39884.00
350.5270, 39584.99
351.7290, 39073.00
352.9310, 39179.00
354.1320, 39091.00
355.3340, 38933.45
356.5350, 39385.00
357.7370, 38710.00
358.9380, 38669.00
360.1390, 38761.00
361.3400, 39055.00
362.5400, 38782.05
363.7410, 38664.00
364.9410, 38414.00
366.1410, 38492.00
367.3410, 38400.00
368.5410, 38329.93
369.7410, 38406.64
370.9400, 38379.00
372.1400, 38431.00
373.3390, 38458.41
374.5380, 38440.46
375.7370, 38502.00
376.9360, 38429.00
378.1350, 38411.00
379.3330, 38420.04
380.5310, 38531.00
381.7300, 38572.00
382.9280, 38408.00
384.1260, 38549.00
385.3230, 38416.00
386.5210, 38576.00
387.7180, 38549.00
388.9160, 38512.00
390.1130, 38250.00
391.3100, 38374.00
392.5060, 38354.00
393.7030, 37951.00
394.9000, 37618.98
396.0960, 37969.87
397.2920, 38168.48
398.4880, 38222.99
399.6840, 37701.84
400.8800, 37924.04
402.0750, 37848.34
403.2710, 37760.42
404.4660, 38087.25
405.6610, 37649.82
406.8560, 37970.07
408.0510, 37987.87
409.2450, 38144.09
410.4400, 38000.57
411.6340, 37949.62
412.8280, 38198.52
414.0220, 38281.39
415.2160, 38103.37
416.4100, 38268.39
417.6030, 37820.49
418.7970, 37955.00
419.9900, 38340.00
421.1830, 38629.00
422.3760, 37824.00
423.5690, 38407.00
424.7610, 37943.00
425.9540, 38173.00
427.1460, 37903.00
428.3380, 38343.00
429.5300, 38062.00
430.7220, 38301.00
431.9140, 38352.00
433.1050, 38393.00
434.2970, 38424.00
435.4880, 38321.00
436.6790, 38460.00
437.8700, 38607.00
439.0610, 38446.00
440.2510, 38377.00
441.4420, 38738.00
442.6320, 38471.00
443.8220, 38997.00
445.0120, 38612.00
446.2020, 38734.00
447.3910, 38756.00
448.5810, 38876.00
449.7700, 38731.60
450.9600, 39155.22
452.1490, 39426.50
453.3370, 39553.63
454.5260, 39105.16
455.7150, 39400.04
456.9030, 39396.95
458.0910, 39381.65
459.2800, 39781.15
460.4670, 39416.28
461.6550, 39809.14
462.8430, 39899.55
464.0300, 40128.33
465.2180, 40057.43
466.4050, 40079.04
467.5920, 40400.49
468.7790, 40555.92
469.9650, 40450.38
471.1520, 40687.96
472.3380, 40312.55
473.5250, 40475.05
474.7110, 40869.54
475.8970, 40779.08
477.0820, 40689.00
478.2680, 40979.00
479.4540, 40665.00
480.6390, 41111.00
481.8240, 41107.00
483.0090, 40886.00
484.1940, 41176.00
485.3780, 41080.00
486.5630, 41174.51
487.7470, 41297.48
488.9320, 41343.00
490.1160, 41459.00
491.3000, 41489.00
492.4830, 41514.00
493.6670, 41314.38
494.8500, 41766.49
496.0340, 42066.41
497.2170, 42222.16
498.4000, 41802.23
499.5820, 42125.58
500.7650, 42151.11
501.9480, 42164.42
503.1300, 42592.38
504.3120, 42256.10
505.4940, 42677.49
506.6760, 42796.43
507.8580, 43053.79
509.0390, 43011.33
510.2210, 43061.53
511.4020, 43411.48
512.5830, 43374.00
513.7640, 43728.00
514.9450, 43664.00
516.1250, 43689.00
517.3060, 44260.00
518.4860, 44436.00
519.6660, 44150.00
520.8460, 44496.00
522.0260, 44390.00
523.2060, 44484.00
524.3850, 44330.00
525.5650, 44268.00
526.7440, 44120.00
527.9230, 43999.00
529.1020, 43823.00
530.2810, 43672.00
531.4590, 43472.00
532.6380, 43372.00
533.8160, 43166.00
534.9940, 43288.00
536.1720, 42664.00
537.3500, 42652.00
538.5270, 43484.00
539.7050, 43167.00
540.8820, 42183.00
542.0590, 42472.00
543.2360, 41893.00
544.4130, 42167.00
545.5900, 42167.00
546.7660, 41826.00
547.9430, 41816.00
549.1190, 41809.00
550.2950, 41765.00
551.4710, 41765.14
552.6470, 41771.00
553.8220, 41768.00
554.9980, 41799.27
556.1730, 42002.00
557.3480, 41902.00
558.5230, 42061.00
559.6980, 42201.00
560.8730, 42127.00
562.0470, 42220.00
563.2220, 42056.00
564.3960, 42098.00
565.5700, 42215.00
566.7440, 42357.00
567.9170, 42157.00
569.0910, 42539.00
570.2640, 42344.00
571.4380, 42557.00
572.6110, 42503.00
573.7840, 42358.00
574.9570, 42402.00
576.1290, 42149.00
577.3020, 42130.00
578.4740, 42051.31
579.6460, 42628.00
580.8180, 42038.00
581.9900, 41940.00
583.1620, 42198.00
584.3330, 41681.00
585.5040, 41987.00
586.6760, 42129.00
587.8470, 42120.00
589.0180, 42051.00
590.1880, 42063.00
591.3590, 42109.76
592.5290, 41951.00
593.7000, 42236.00
594.8700, 42110.00
596.0400, 42121.00
597.2090, 42054.00
598.3790, 42241.72
599.5490, 42576.00
600.7180, 42698.00
601.8870, 42932.00
603.0560, 43166.00
604.2250, 43418.93
605.3940, 43918.00
606.5620, 44189.44
607.7300, 44454.06
608.8990, 44829.00
610.0670, 45098.00
611.2350, 45189.00
612.4020, 45881.00
613.5700, 46337.00
614.7370, 47183.00
615.9050, 47510.00
617.0720, 48143.00
618.2390, 48729.00
619.4060, 49154.00
620.5720, 49775.00
621.7390, 50386.00
622.9050, 51031.00
624.0710, 51594.00
625.2370, 52110.00
626.4030, 52242.00
627.5690, 52389.00
628.7340, 52911.00
629.9000, 52324.00
631.0650, 52188.00
632.2300, 52396.00
633.3950, 52141.00
634.5600, 51617.00
635.7240, 51341.00
636.8890, 50597.00
638.0530, 50515.00
639.2170, 49550.00
640.3810, 49133.00
641.5450, 48777.00
642.7080, 48043.00
643.8720, 47635.00
645.0350, 46907.00
646.1980, 46460.05
647.3610, 45950.14
648.5240, 45716.00
649.6870, 45496.00
650.8490, 45528.00
652.0120, 45071.79
653.1740, 44741.52
654.3360, 44332.00
655.4980, 44002.00
656.6600, 43715.00
657.8210, 43802.00
658.9830, 43536.74
660.1440, 43488.00
661.3050, 42954.73
662.4660, 43283.75
663.6270, 43460.49
664.7870, 43493.16
665.9480, 42950.15
667.1080, 43150.50
668.2680, 43052.96
669.4280, 42943.19
670.5880, 43248.17
671.7480, 42788.91
672.9070, 43087.32
674.0670, 43083.28
675.2260, 43165.00
676.3850, 43030.00
677.5440, 43074.00
678.7030, 43201.00
679.8610, 43393.00
681.0200, 43352.00
682.1780, 43394.00
683.3360, 43269.00
684.4940, 43560.00
685.6520, 43363.00
686.8090, 43959.00
687.9670, 44364.00
689.1240, 44483.00
690.2810, 43991.00
691.4380, 44522.00
692.5950, 44129.00
693.7520, 44247.00
694.9080, 44281.00
696.0650, 44524.00
697.2210, 44280.00
698.3770, 43991.00
699.5330, 44571.00
700.6880, 44220.00
701.8440, 43909.00
702.9990, 43810.00
704.1550, 44142.00
705.3100, 43861.00
706.4650, 43783.00
707.6190, 43624.79
708.7740, 43333.30
709.9290, 43150.00
711.0830, 42781.00
712.2370, 42683.00
713.3910, 42441.00
714.5450, 42304.00
715.6980, 41669.00
716.8520, 41687.00
718.0050, 41369.54
719.1580, 41232.00
720.3110, 40983.00
721.4640, 40764.00
722.6170, 40605.00
723.7700, 40544.00
724.9220, 40062.00
726.0740, 40115.00
727.2260, 39636.00
728.3780, 39690.00
729.5300, 39602.00
730.6810, 39102.00
731.8330, 39023.00
732.9840, 39027.00
734.1350, 38868.00
735.2860, 38989.00
736.4370, 38968.00
737.5880, 38745.00
738.7380, 38592.00
739.8880, 38454.00
741.0390, 38333.00
742.1890, 38612.00
743.3380, 38243.00
744.4880, 38468.00
745.6380, 38391.35
746.7870, 38318.18
747.9360, 38254.00
749.0850, 38203.43
750.2340, 38091.00
751.3830, 38117.00
752.5310, 38030.00
753.6800, 37983.00
754.8280, 38011.46
755.9760, 37931.72
757.1240, 38017.00
758.2720, 37895.00
759.4190, 37811.00
760.5670, 37893.00
761.7140, 37914.00
762.8610, 37993.00
764.0080, 37937.00
765.1550, 37801.00
766.3020, 37711.00
767.4480, 37712.86
768.5950, 37599.04
769.7410, 37683.00
770.8870, 37590.00
772.0330, 37461.00
773.1780, 37721.00
774.3240, 37752.00
775.4690, 37628.00
776.6140, 37606.00
777.7590, 37501.00
778.9040, 37660.00
780.0490, 37466.00
781.1940, 37243.00
782.3380, 37466.00
783.4820, 37529.00
784.6260, 37829.00
785.7700, 37671.26
786.9140, 37492.00
788.0580, 37397.00
789.2010, 37346.00
790.3450, 37278.00
791.4880, 37563.00
792.6310, 37340.00
793.7730, 37592.00
794.9160, 37256.00
796.0590, 37408.00
797.2010, 37420.00
798.3430, 37304.18
799.4850, 37314.00
800.6270, 37305.00
801.7690, 37462.00
802.9100, 37438.55
804.0520, 37634.00
805.1930, 37523.00
806.3340, 37564.00
807.4750, 37660.00
808.6160, 37735.00
809.7560, 38043.00
810.8970, 37723.00
812.0370, 37795.76
813.1770, 38116.00
814.3170, 37614.00
815.4570, 37652.00
816.5960, 37663.00
817.7360, 37851.00
818.8750, 37884.00
820.0140, 37783.00
821.1530, 37633.00
822.2920, 37826.00
823.4310, 37486.00
824.5690, 37699.00
825.7070, 37900.00
826.8460, 38041.00
827.9840, 37955.85
829.1220, 37757.00
830.2590, 37761.00
831.3970, 37610.00
832.5340, 37727.00
833.6710, 37725.26
834.8080, 38243.00
835.9450, 37971.00
837.0820, 37494.48
838.2190, 37841.72
839.3550, 38036.69
840.4910, 38087.56
841.6270, 37562.77
842.7630, 37781.34
843.8990, 37702.00
845.0350, 37610.44
846.1700, 37933.62
847.3060, 37492.57
848.4410, 37809.18
849.5760, 37823.34
850.7100, 37975.92
851.8450, 37828.76
852.9800, 37774.18
854.1140, 38019.45
855.2480, 38098.68
856.3820, 37917.02
857.5160, 38078.41
858.6500, 37626.88
859.7830, 37713.18
860.9170, 38031.55
862.0500, 37843.27
863.1830, 37836.00
864.3160, 37949.00
865.4480, 38121.00
866.5810, 38209.00
867.7130, 37904.00
868.8460, 38278.00
869.9780, 37968.00
871.1100, 38121.00
872.2410, 37944.00
873.3730, 38137.00
874.5050, 38358.00
875.6360, 38088.00
876.7670, 38199.00
877.8980, 38025.00
879.0290, 38175.00
880.1590, 38055.00
881.2900, 38120.00
882.4200, 38344.00
883.5500, 38427.00
884.6800, 38190.00
885.8100, 38498.00
886.9400, 38158.00
888.0690, 38341.00
889.1990, 38303.00
890.3280, 38517.00
891.4570, 38413.00
892.5860, 38262.00
893.7140, 38659.00
894.8430, 38481.00
895.9710, 38601.00
897.1000, 38624.00
898.2280, 38535.00
899.3560, 38487.00
900.4830, 38759.00
901.6110, 38579.00
902.7380, 38852.00
903.8660, 38856.87
904.9930, 38804.42
906.1200, 38671.08
907.2460, 39046.85
908.3730, 39270.36
909.5000, 39349.79
910.6260, 38853.52
911.7520, 39100.61
912.8780, 39049.79
914.0040, 38986.75
915.1290, 39338.44
916.2550, 38925.90
917.3800, 39271.01
918.5050, 39313.67
919.6300, 39494.75
920.7550, 39376.09
921.8800, 39350.01
923.0040, 39623.75
924.1290, 39731.48
925.2530, 39578.30
926.3770, 39768.15
927.5010, 39345.09
928.6250, 39459.88
929.7480, 39824.00
930.8720, 39871.00
931.9950, 39911.00
933.1180, 40128.00
934.2410, 40181.00
935.3640, 40365.00
936.4860, 40111.00
937.6090, 40308.00
938.7310, 40108.00
939.8530, 40455.00
940.9750, 40804.00
942.0970, 40784.00
943.2180, 40644.00
944.3400, 40555.00
945.4610, 40804.00
946.5820, 40650.00
947.7030, 40944.00
948.8240, 40828.00
949.9450, 40852.00
951.0650, 40911.00
952.1860, 40964.00
953.3060, 41142.00
954.4260, 41130.00
955.5460, 41290.00
956.6650, 41175.00
957.7850, 41429.00
958.9040, 41449.26
960.0230, 41325.00
961.1420, 41644.00
962.2610, 41079.48
963.3800, 41433.38
964.4990, 41635.00
965.6170, 41692.53
966.7350, 41174.38
967.8530, 41399.59
968.9710, 41326.90
970.0890, 41242.00
971.2070, 41571.83
972.3240, 41137.41
973.4410, 41460.66
974.5580, 41481.47
975.6750, 41640.70
976.7920, 41500.18
977.9090, 41452.25
979.0250, 41704.14
980.1410, 41790.02
981.2580, 41615.00
982.3740, 41783.02
983.4890, 41338.12
984.6050, 41431.07
985.7200, 41756.06
986.8360, 41596.11
987.9510, 41769.60
989.0660, 41816.10
990.1810, 41285.44
991.2950, 41758.51
992.4100, 41797.50
993.5240, 41390.78
994.6390, 41829.46
995.7530, 41484.19
996.8660, 41418.73
997.9800, 41563.86
999.0940, 41489.46
1000.207, 41761.18
1001.320, 41699.45
1002.433, 41607.94
1003.546, 41646.43
1004.659, 41316.53
1005.772, 41670.08
1006.884, 41556.77
1007.996, 41675.52
1009.108, 41846.87
1010.220, 41615.46
1011.332, 41810.45
1012.444, 41344.19
1013.555, 41431.21
1014.666, 41458.66
1015.777, 41839.75
1016.888, 41376.72
1017.999, 41448.37
1019.110, 41747.69
1020.220, 41728.44
1021.331, 41842.39
1022.441, 41562.05
1023.551, 41652.11
1024.661, 41640.07
1025.770, 41980.83
1026.880, 42043.07
1027.989, 41769.41
1029.098, 41497.18
1030.207, 41863.33
1031.316, 41624.41
1032.425, 41711.92
1033.533, 41462.29
1034.642, 41503.75
1035.750, 41540.60
1036.858, 41726.66
1037.966, 41460.25
1039.073, 41780.77
1040.181, 41762.06
1041.288, 41539.00
1042.396, 41802.00
1043.503, 41918.00
1044.610, 41821.00
1045.716, 41969.00
1046.823, 41879.00
1047.929, 41798.46
1049.036, 42172.00
1050.142, 41956.00
1051.248, 42465.00
1052.353, 42503.93
1053.459, 43227.00
1054.564, 42669.00
1055.670, 42556.00
1056.775, 42358.00
1057.880, 42576.00
1058.985, 42417.00
1060.089, 42575.00
1061.194, 42882.00
1062.298, 42698.00
1063.402, 42884.00
1064.506, 42650.00
1065.610, 42704.00
1066.713, 42756.00
1067.817, 42589.00
1068.920, 42851.00
1070.023, 42627.00
1071.126, 42662.00
1072.229, 42857.00
1073.332, 42768.00
1074.435, 42903.00
1075.537, 42638.00
1076.639, 42833.00
1077.741, 42583.00
1078.843, 42753.00
1079.945, 42483.00
1081.046, 42785.00
1082.148, 42937.00
1083.249, 42776.58
1084.350, 43466.00
1085.451, 42550.00
1086.551, 42617.00
1087.652, 42390.00
1088.752, 43082.00
1089.853, 42521.00
1090.953, 42485.00
1092.053, 42642.00
1093.152, 42226.00
1094.252, 42386.00
1095.351, 42403.00
1096.451, 42025.00
1097.550, 42204.00
1098.649, 42260.00
1099.748, 42234.58
1100.846, 42275.32
1101.945, 42357.00
1103.043, 42165.00
1104.141, 42084.00
1105.239, 41926.80
1106.337, 41940.97
1107.434, 41742.00
1108.532, 42032.00
1109.629, 41979.00
1110.726, 42062.00
1111.823, 41750.00
1112.920, 41954.00
1114.017, 41672.00
1115.113, 42275.00
1116.210, 42118.01
1117.306, 42556.00
1118.402, 42134.00
1119.498, 42052.00
1120.593, 41981.00
1121.689, 42210.00
1122.784, 41953.07
1123.879, 41746.00
1124.974, 41286.76
1126.069, 41589.10
1127.164, 41739.17
1128.259, 41745.14
1129.353, 41175.50
1130.447, 41349.20
1131.541, 41225.00
1132.635, 41088.59
1133.729, 41366.92
1134.822, 40881.04
1135.916, 41152.79
1137.009, 41122.14
1138.102, 41229.90
1139.195, 41037.93
1140.288, 40938.54
1141.380, 41139.02
1142.473, 41173.44
1143.565, 40947.01
1144.657, 41063.61
1145.749, 40567.30
1146.841, 40608.84
1147.932, 40882.47
1149.024, 40671.10
1150.115, 40793.23
1151.206, 40788.36
1152.297, 40206.34
1153.388, 40628.05
1154.479, 40615.68
1155.569, 40157.64
1156.659, 40544.99
1157.750, 40148.36
1158.839, 39813.00
1159.929, 39766.00
1161.019, 39866.00
1162.108, 39706.00
1163.198, 39791.00
1164.287, 39945.00
1165.376, 39457.00
1166.465, 39760.00
1167.553, 39730.00
1168.642, 39613.00
1169.730, 39774.00
1170.818, 39687.90
1171.906, 39535.00
1172.994, 39617.00
1174.082, 39392.00
1175.170, 39222.00
1176.257, 39465.00
1177.344, 39521.00
1178.431, 39263.00
1179.518, 39481.00
1180.605, 39435.00
1181.691, 39332.00
1182.778, 39238.00
1183.864, 39447.00
1184.950, 39215.44
1186.036, 39408.00
1187.122, 39037.00
1188.207, 39225.00
1189.292, 39354.00
1190.378, 39420.00
1191.463, 39291.88
1192.548, 39345.00
1193.632, 39013.00
1194.717, 38922.00
1195.801, 39067.00
1196.886, 39307.00
1197.970, 39111.00
1199.054, 39017.00
1200.137, 39035.00
1201.221, 38792.00
1202.305, 38964.00
1203.388, 38898.00
1204.471, 38977.00
1205.554, 39052.00
1206.637, 38865.00
1207.719, 38943.00
1208.802, 38826.00
1209.884, 38893.00
1210.966, 38828.00
1212.048, 38911.00
1213.130, 39058.00
1214.212, 38853.00
1215.293, 39155.00
1216.374, 38926.00
1217.456, 38812.00
1218.536, 38993.00
1219.617, 38667.00
1220.698, 38844.00
1221.778, 38688.00
1222.859, 38786.00
1223.939, 38755.00
1225.019, 38845.36
1226.099, 38962.72
1227.178, 38866.00
1228.258, 39212.00
1229.337, 38744.00
1230.417, 38760.00
1231.496, 38761.00
1232.574, 39289.00
1233.653, 38859.00
1234.732, 38956.00
1235.810, 38475.05
1236.888, 38833.83
1237.966, 39040.33
1239.044, 39102.75
1240.122, 38589.50
1241.199, 38819.59
1242.277, 38751.79
1243.354, 38671.76
1244.431, 39006.47
1245.508, 38576.94
1246.585, 38905.08
1247.661, 38930.76
1248.738, 39094.87
1249.814, 38959.23
1250.890, 38916.18
1251.966, 39172.96
1253.042, 39263.71
1254.117, 39093.56
1255.193, 39142.00
1256.268, 38942.00
1257.343, 38839.00
1258.418, 38873.00
1259.493, 38647.00
1260.567, 38628.00
1261.642, 38602.00
1262.716, 38475.00
1263.790, 38866.00
1264.864, 38933.00
1265.938, 38500.00
1267.011, 38461.00
1268.085, 38913.00
1269.158, 38766.00
1270.231, 38617.00
1271.304, 38790.00
1272.377, 38821.00
1273.450, 38701.00
1274.522, 39005.00
1275.594, 38932.00
1276.666, 39197.00
1277.738, 39028.00
1278.810, 38818.00
1279.882, 38551.00
1280.953, 38943.00
1282.025, 38930.00
1283.096, 38881.00
1284.167, 38979.00
1285.238, 38928.34
1286.308, 38923.00
1287.379, 38837.00
1288.449, 38786.72
1289.519, 38881.00
1290.589, 38594.00
1291.659, 38621.00
1292.729, 38423.00
1293.798, 38697.00
1294.868, 38914.23
1295.937, 39143.00
1297.006, 39421.00
1298.075, 38851.00
1299.143, 38528.00
1300.212, 38662.00
1301.280, 38705.00
1302.348, 38695.00
1303.416, 38618.00
1304.484, 38810.00
1305.552, 38590.00
1306.620, 38964.00
1307.687, 38742.00
1308.754, 38703.00
1309.821, 38914.00
1310.888, 38570.00
1311.955, 39063.00
1313.021, 38998.97
1314.088, 38837.00
1315.154, 39181.00
1316.220, 38922.00
1317.286, 38961.00
1318.352, 38950.00
1319.417, 38744.00
1320.483, 38823.00
1321.548, 38831.00
1322.613, 38882.00
1323.678, 38742.00
1324.743, 38887.00
1325.807, 38958.00
1326.872, 38669.00
1327.936, 38880.00
1329.000, 38837.57
1330.064, 39063.00
1331.128, 38931.00
1332.191, 38981.00
1333.255, 38997.00
1334.318, 38931.00
1335.381, 38860.00
1336.444, 39189.00
1337.507, 38935.00
1338.569, 38919.00
1339.632, 38955.00
1340.694, 38745.00
1341.756, 39100.00
1342.818, 39010.00
1343.880, 39113.00
1344.941, 39101.00
1346.003, 38820.00
1347.064, 39041.00
1348.125, 38809.00
1349.186, 39003.00
1350.247, 39075.00
1351.308, 39040.00
1352.368, 38858.00
1353.428, 38971.00
1354.489, 38849.00
1355.549, 38633.00
1356.608, 38845.00
1357.668, 38842.00
1358.727, 38951.00
1359.787, 38936.00
1360.846, 38981.00
1361.905, 39126.00
1362.964, 39160.00
1364.022, 39270.00
1365.081, 38852.00
1366.139, 39071.00
1367.197, 38957.00
1368.255, 38996.00
1369.313, 39017.00
1370.371, 39063.00
1371.428, 38940.00
1372.486, 39274.00
1373.543, 38660.31
1374.600, 39009.63
1375.657, 39206.67
1376.713, 39259.62
1377.770, 38736.91
1378.826, 38957.55
1379.882, 38880.28
1380.938, 38790.80
1381.994, 39116.06
1383.050, 38677.07
1384.106, 38995.76
1385.161, 39011.99
1386.216, 39166.65
1387.271, 39021.57
1388.326, 38969.06
1389.381, 39216.39
1390.435, 39297.71
1391.490, 39118.12
1392.544, 39281.57
1393.598, 38832.11
1394.652, 38920.49
1395.705, 39240.93
1396.759, 39076.41
1397.812, 39245.34
1398.866, 39287.28
1399.919, 38752.06
1400.972, 39220.57
1402.024, 39255.00
1403.077, 38843.73
1404.129, 39277.84
1405.181, 38928.01
1406.233, 38858.00
1407.285, 38998.58
1408.337, 38919.63
1409.389, 39186.79
1410.440, 39120.51
1411.491, 39024.44
1412.542, 39058.38
1413.593, 38723.93
1414.644, 39072.92
1415.695, 38955.06
1416.745, 39069.27
1417.795, 39236.07
1418.845, 39000.11
1419.895, 39190.55
1420.945, 38719.75
1421.995, 38802.23
1423.044, 38825.12
1424.093, 39201.68
1425.142, 38734.09
1426.191, 38999.00
1427.240, 39415.00
1428.289, 38924.00
1429.337, 38888.00
1430.385, 39217.00
1431.433, 38882.00
1432.481, 39067.00
1433.529, 39132.00
1434.577, 39113.00
1435.624, 38964.00
1436.672, 39135.00
1437.719, 39051.00
1438.766, 38966.00
1439.812, 39241.00
1440.859, 38909.00
1441.905, 38965.00
1442.952, 39087.00
1443.998, 39051.00
1445.044, 39228.00
1446.090, 39146.00
1447.135, 39159.00
1448.181, 38967.00
1449.226, 39162.00
1450.271, 38967.00
1451.316, 39152.00
1452.361, 39147.00
1453.405, 38903.00
1454.450, 38967.00
