##NAMES=Braunite
##RRUFFID=R050390
##IDEAL CHEMISTRY=Mn^2+^Mn^3+^_6_SiO_12_
##LOCALITY=Oehrenstock, Thuringia, Germany
##OWNER=RRUFF
##SOURCE=University of Arizona Mineral Museum
##DESCRIPTION=Mass of black octahedra
##STATUS=The identification of this mineral has been confirmed by X-ray diffraction and chemical analysis
##URL=rruff.info/R050390
##MEASURED CHEMISTRY=(Mn^2+^_0.83_Ca_0.17_)_Î£=1_Mn^3+^_6.00_Si_1.00_O_12_
##PIN_ID=M00380
##ORIENTATION=Laser parallel to c* (0 0 1). Fiducial mark perpendicular to laser is parallel to a [1 0 0]
293.8570, 26712.00
295.0670, 26870.00
296.2760, 26755.00
297.4850, 26912.00
298.6930, 26686.00
299.9020, 26663.00
301.1110, 26779.00
302.3190, 26939.00
303.5270, 26722.00
304.7350, 26669.00
305.9430, 26670.00
307.1510, 26743.00
308.3580, 26734.98
309.5660, 26867.00
310.7730, 26848.00
311.9800, 26818.00
313.1870, 26959.00
314.3940, 26864.00
315.6010, 26816.00
316.8070, 27045.00
318.0130, 26961.00
319.2200, 27090.00
320.4260, 27146.00
321.6310, 27393.00
322.8370, 27289.00
324.0430, 27558.00
325.2480, 27695.00
326.4540, 27508.00
327.6590, 27903.00
328.8640, 28074.00
330.0680, 28243.00
331.2730, 28389.00
332.4780, 28474.73
333.6820, 28445.00
334.8860, 28527.00
336.0900, 28661.00
337.2940, 28522.00
338.4980, 28598.00
339.7010, 28952.00
340.9050, 28767.00
342.1080, 28823.00
343.3110, 28827.16
344.5140, 28795.00
345.7170, 28703.00
346.9200, 28757.00
348.1220, 28706.00
349.3240, 28353.00
350.5270, 28506.00
351.7290, 28110.00
352.9310, 28098.00
354.1320, 28158.00
355.3340, 28047.00
356.5350, 27905.00
357.7370, 27939.00
358.9380, 28042.00
360.1390, 28187.00
361.3400, 27968.00
362.5400, 27835.00
363.7410, 27913.00
364.9410, 27965.00
366.1410, 27962.00
367.3410, 27862.00
368.5410, 27916.06
369.7410, 28077.00
370.9400, 27966.00
372.1400, 28001.00
373.3390, 28105.00
374.5380, 28011.00
375.7370, 28132.00
376.9360, 28062.00
378.1350, 27973.00
379.3330, 28245.00
380.5310, 28170.00
381.7300, 28309.00
382.9280, 28189.00
384.1260, 28307.00
385.3230, 28108.00
386.5210, 28075.00
387.7180, 28024.00
388.9160, 28148.00
390.1130, 28263.00
391.3100, 28284.00
392.5060, 28489.00
393.7030, 28021.00
394.9000, 27854.00
396.0960, 28171.00
397.2920, 28011.00
398.4880, 28032.00
399.6840, 27885.00
400.8800, 28039.00
402.0750, 27768.00
403.2710, 27915.00
404.4660, 28191.00
405.6610, 27937.00
406.8560, 28031.00
408.0510, 27853.00
409.2450, 28056.00
410.4400, 27900.00
411.6340, 28029.00
412.8280, 27864.00
414.0220, 28022.00
415.2160, 28156.00
416.4100, 28064.00
417.6030, 28293.00
418.7970, 28127.22
419.9900, 28202.60
421.1830, 27989.00
422.3760, 28145.00
423.5690, 28368.00
424.7610, 28161.00
425.9540, 28145.00
427.1460, 28161.00
428.3380, 28388.00
429.5300, 28157.00
430.7220, 28485.00
431.9140, 28472.00
433.1050, 28464.00
434.2970, 28498.00
435.4880, 28531.00
436.6790, 28538.00
437.8700, 28605.00
439.0610, 28652.93
440.2510, 28514.00
441.4420, 28710.00
442.6320, 28750.00
443.8220, 28613.00
445.0120, 28762.41
446.2020, 28878.00
447.3910, 28841.00
448.5810, 28714.00
449.7700, 28711.00
450.9600, 28982.00
452.1490, 29032.00
453.3370, 29207.00
454.5260, 29180.00
455.7150, 29362.00
456.9030, 29358.46
458.0910, 29210.00
459.2800, 29414.00
460.4670, 29409.00
461.6550, 29514.00
462.8430, 29671.00
464.0300, 29689.00
465.2180, 29781.56
466.4050, 29694.00
467.5920, 29768.00
468.7790, 29940.00
469.9650, 29699.00
471.1520, 29925.00
472.3380, 30032.00
473.5250, 29930.00
474.7110, 30136.00
475.8970, 30198.00
477.0820, 30292.00
478.2680, 30482.00
479.4540, 30329.00
480.6390, 30696.00
481.8240, 30598.00
483.0090, 30806.00
484.1940, 31071.00
485.3780, 30876.00
486.5630, 30826.00
487.7470, 30860.00
488.9320, 30759.00
490.1160, 30876.31
491.3000, 31099.00
492.4830, 31163.00
493.6670, 31119.00
494.8500, 31410.00
496.0340, 31242.00
497.2170, 31282.00
498.4000, 31479.00
499.5820, 31606.00
500.7650, 31396.00
501.9480, 31496.00
503.1300, 31594.00
504.3120, 31516.00
505.4940, 31842.00
506.6760, 31825.00
507.8580, 31713.00
509.0390, 31665.00
510.2210, 31928.00
511.4020, 32075.45
512.5830, 32586.00
513.7640, 32517.00
514.9450, 32653.00
516.1250, 32483.00
517.3060, 32697.00
518.4860, 32733.00
519.6660, 32848.00
520.8460, 32857.00
522.0260, 33013.00
523.2060, 33171.00
524.3850, 32820.00
525.5650, 32875.00
526.7440, 32728.00
527.9230, 32874.00
529.1020, 32736.00
530.2810, 32673.00
531.4590, 32458.00
532.6380, 32441.00
533.8160, 32226.00
534.9940, 32130.00
536.1720, 32003.00
537.3500, 32051.00
538.5270, 31851.00
539.7050, 32066.00
540.8820, 31667.00
542.0590, 31706.00
543.2360, 32092.00
544.4130, 31942.00
545.5900, 31873.00
546.7660, 31709.00
547.9430, 31800.00
549.1190, 31886.00
550.2950, 31887.00
551.4710, 31868.00
552.6470, 31813.00
553.8220, 31818.00
554.9980, 31823.00
556.1730, 31506.00
557.3480, 31682.65
558.5230, 31927.00
559.6980, 31724.00
560.8730, 32089.00
562.0470, 31883.00
563.2220, 32015.00
564.3960, 31911.85
565.5700, 31901.00
566.7440, 31985.00
567.9170, 31905.00
569.0910, 32086.19
570.2640, 32083.12
571.4380, 32399.00
572.6110, 32066.00
573.7840, 32146.00
574.9570, 31895.00
576.1290, 31644.00
577.3020, 31697.00
578.4740, 31517.24
579.6460, 31614.00
580.8180, 31407.00
581.9900, 31311.00
583.1620, 31266.00
584.3330, 31262.00
585.5040, 30990.00
586.6760, 31158.00
587.8470, 31059.00
589.0180, 30997.00
590.1880, 31126.00
591.3590, 30960.00
592.5290, 31030.00
593.7000, 31317.00
594.8700, 31509.00
596.0400, 31455.00
597.2090, 31346.00
598.3790, 31161.00
599.5490, 31386.00
600.7180, 31430.00
601.8870, 31333.00
603.0560, 31619.00
604.2250, 31648.00
605.3940, 31904.00
606.5620, 31826.00
607.7300, 31725.00
608.8990, 31951.00
610.0670, 32187.00
611.2350, 32552.00
612.4020, 32614.00
613.5700, 32802.00
614.7370, 33181.00
615.9050, 33517.00
617.0720, 33586.00
618.2390, 34098.00
619.4060, 34360.00
620.5720, 34364.00
621.7390, 34548.00
622.9050, 35131.00
624.0710, 35443.00
625.2370, 35485.00
626.4030, 35930.00
627.5690, 35829.00
628.7340, 36409.00
629.9000, 36282.00
631.0650, 36591.00
632.2300, 36413.00
633.3950, 36478.00
634.5600, 36397.00
635.7240, 36261.00
636.8890, 36247.00
638.0530, 35789.00
639.2170, 36061.00
640.3810, 36148.00
641.5450, 35288.00
642.7080, 35216.00
643.8720, 34856.00
645.0350, 34629.00
646.1980, 34294.00
647.3610, 34147.00
648.5240, 33898.00
649.6870, 33700.91
650.8490, 33525.78
652.0120, 33323.00
653.1740, 33165.00
654.3360, 32933.00
655.4980, 32749.00
656.6600, 32494.00
657.8210, 32477.88
658.9830, 32403.79
660.1440, 32434.00
661.3050, 32345.00
662.4660, 32244.00
663.6270, 32021.00
664.7870, 32160.00
665.9480, 32230.00
667.1080, 31934.00
668.2680, 31571.00
669.4280, 31805.00
670.5880, 31667.00
671.7480, 31957.00
672.9070, 31717.00
674.0670, 31868.00
675.2260, 31952.00
676.3850, 31905.00
677.5440, 31837.00
678.7030, 32009.00
679.8610, 31994.00
681.0200, 32116.00
682.1780, 32034.00
683.3360, 32015.00
684.4940, 31980.00
685.6520, 32221.00
686.8090, 32419.00
687.9670, 32740.00
689.1240, 32399.00
690.2810, 32602.00
691.4380, 32523.00
692.5950, 32653.00
693.7520, 32881.00
694.9080, 33112.00
696.0650, 32969.00
697.2210, 32918.00
698.3770, 33148.00
699.5330, 33190.00
700.6880, 33490.00
701.8440, 33620.00
702.9990, 33323.00
704.1550, 33287.00
705.3100, 33236.00
706.4650, 33617.00
707.6190, 33181.00
708.7740, 32986.00
709.9290, 33210.00
711.0830, 32670.00
712.2370, 32541.00
713.3910, 32518.00
714.5450, 32201.00
715.6980, 32293.00
716.8520, 32242.00
718.0050, 31908.00
719.1580, 31795.00
720.3110, 31811.00
721.4640, 31676.00
722.6170, 31599.00
723.7700, 31146.00
724.9220, 31166.00
726.0740, 31245.00
727.2260, 31008.00
728.3780, 31123.00
729.5300, 30579.00
730.6810, 30752.00
731.8330, 30668.00
732.9840, 30874.00
734.1350, 30714.00
735.2860, 30575.00
736.4370, 30561.00
737.5880, 30484.00
738.7380, 30467.00
739.8880, 30143.00
741.0390, 30254.00
742.1890, 30001.00
743.3380, 30290.00
744.4880, 30097.00
745.6380, 30038.00
746.7870, 29985.57
747.9360, 30162.15
749.0850, 30250.55
750.2340, 30255.53
751.3830, 29927.18
752.5310, 30029.27
753.6800, 29958.84
754.8280, 29881.36
755.9760, 30044.03
757.1240, 29764.18
758.2720, 29923.05
759.4190, 29906.80
760.5670, 29970.69
761.7140, 29861.04
762.8610, 29805.00
764.0080, 29922.57
765.1550, 29944.01
766.3020, 29814.38
767.4480, 30013.00
768.5950, 29885.00
769.7410, 29940.21
770.8870, 29806.00
772.0330, 30000.00
773.1780, 29896.00
774.3240, 29902.00
775.4690, 30050.00
776.6140, 29842.00
777.7590, 29860.00
778.9040, 29921.00
780.0490, 29887.31
781.1940, 29924.28
782.3380, 29903.00
783.4820, 29979.00
784.6260, 29804.00
785.7700, 29876.00
786.9140, 30019.00
788.0580, 29869.00
789.2010, 29773.00
790.3450, 29977.00
791.4880, 29821.00
792.6310, 29958.00
793.7730, 30043.00
794.9160, 29762.00
796.0590, 30088.00
797.2010, 30061.00
798.3430, 30159.00
799.4850, 29848.00
800.6270, 29929.00
801.7690, 29896.00
802.9100, 29765.10
804.0520, 30093.00
805.1930, 29631.00
806.3340, 30009.00
807.4750, 29989.00
808.6160, 30189.00
809.7560, 30002.00
810.8970, 29951.00
812.0370, 29982.00
813.1770, 29888.00
814.3170, 30135.00
815.4570, 30233.00
816.5960, 30082.00
817.7360, 30210.00
818.8750, 30152.00
820.0140, 30275.00
821.1530, 30291.00
822.2920, 30289.00
823.4310, 30297.00
824.5690, 30282.00
825.7070, 30269.99
826.8460, 30177.00
827.9840, 30353.00
829.1220, 30124.00
830.2590, 30410.00
831.3970, 30206.00
832.5340, 30316.00
833.6710, 30233.00
834.8080, 30340.00
835.9450, 30354.00
837.0820, 30363.93
838.2190, 30303.00
839.3550, 30356.00
840.4910, 30451.00
841.6270, 30322.00
842.7630, 30237.00
843.8990, 30536.00
845.0350, 30192.00
846.1700, 30366.39
847.3060, 30660.00
848.4410, 30495.00
849.5760, 30471.00
850.7100, 30596.00
851.8450, 30578.00
852.9800, 30471.00
854.1140, 30421.00
855.2480, 30540.00
856.3820, 30475.66
857.5160, 30535.89
858.6500, 30481.00
859.7830, 30601.00
860.9170, 30558.00
862.0500, 30546.00
863.1830, 30616.00
864.3160, 30574.00
865.4480, 30775.00
866.5810, 30700.00
867.7130, 30766.00
868.8460, 30616.00
869.9780, 30534.00
871.1100, 30786.00
872.2410, 30612.00
873.3730, 30805.00
874.5050, 30887.00
875.6360, 30765.00
876.7670, 30557.00
877.8980, 30948.00
879.0290, 31027.00
880.1590, 30788.00
881.2900, 30999.00
882.4200, 30737.00
883.5500, 30989.00
884.6800, 30927.00
885.8100, 30903.00
886.9400, 30905.00
888.0690, 31547.00
889.1990, 30898.00
890.3280, 31116.00
891.4570, 31556.00
892.5860, 31088.00
893.7140, 30976.00
894.8430, 30922.00
895.9710, 31120.00
897.1000, 31199.00
898.2280, 31029.00
899.3560, 31273.00
900.4830, 31220.00
901.6110, 31621.00
902.7380, 31191.00
903.8660, 31539.00
904.9930, 31397.00
906.1200, 31398.00
907.2460, 31316.00
908.3730, 31403.00
909.5000, 31394.00
910.6260, 31428.33
911.7520, 31400.00
912.8780, 31414.00
914.0040, 31694.00
915.1290, 31468.00
916.2550, 31432.00
917.3800, 31864.00
918.5050, 31675.77
919.6300, 31809.00
920.7550, 31769.00
921.8800, 31586.00
923.0040, 31690.00
924.1290, 31754.00
925.2530, 31983.00
926.3770, 31936.00
927.5010, 31728.00
928.6250, 31911.85
929.7480, 31887.95
930.8720, 32054.00
931.9950, 31812.71
933.1180, 32063.64
934.2410, 32226.40
935.3640, 32305.73
936.4860, 32051.69
937.6090, 32228.11
938.7310, 32232.00
939.8530, 32228.81
940.9750, 32465.77
942.0970, 32260.21
943.2180, 32493.32
944.3400, 32551.35
945.4610, 32689.48
946.5820, 32459.00
947.7030, 32672.00
948.8240, 32709.00
949.9450, 32573.00
951.0650, 32869.00
952.1860, 32900.00
953.3060, 32730.00
954.4260, 33027.00
955.5460, 32890.61
956.6650, 33157.00
957.7850, 32887.00
958.9040, 33013.00
960.0230, 33129.00
961.1420, 33051.00
962.2610, 33417.00
963.3800, 33039.00
964.4990, 33225.00
965.6170, 33449.00
966.7350, 33240.00
967.8530, 33368.00
968.9710, 33209.00
970.0890, 33255.19
971.2070, 33415.00
972.3240, 33457.00
973.4410, 33235.00
974.5580, 33566.00
975.6750, 33291.00
976.7920, 33484.00
977.9090, 33483.00
979.0250, 33486.00
980.1410, 33253.00
981.2580, 33428.00
982.3740, 33328.00
983.4890, 33174.00
984.6050, 33567.00
985.7200, 33398.00
986.8360, 33498.00
987.9510, 33742.00
989.0660, 33258.00
990.1810, 33231.00
991.2950, 33244.00
992.4100, 33520.00
993.5240, 33531.00
994.6390, 33450.00
995.7530, 33509.00
996.8660, 33511.39
997.9800, 33600.00
999.0940, 33577.00
1000.207, 33442.00
1001.320, 33455.00
1002.433, 33417.00
1003.546, 33658.00
1004.659, 33588.00
1005.772, 33677.00
1006.884, 33558.00
1007.996, 33342.00
1009.108, 33582.00
1010.220, 33453.00
1011.332, 33629.00
1012.444, 33520.00
1013.555, 33572.00
1014.666, 33655.00
1015.777, 33527.00
1016.888, 33775.00
1017.999, 33491.00
1019.110, 33574.00
1020.220, 33537.00
1021.331, 33471.00
1022.441, 33555.03
1023.551, 33536.16
1024.661, 33664.00
1025.770, 33576.00
1026.880, 33644.00
1027.989, 33611.00
1029.098, 33531.00
1030.207, 33469.00
1031.316, 33570.00
1032.425, 33506.40
1033.533, 33353.00
1034.642, 33498.00
1035.750, 33489.00
1036.858, 33455.00
1037.966, 33558.00
1039.073, 33520.00
1040.181, 33758.00
1041.288, 33650.00
1042.396, 33681.00
1043.503, 33614.00
1044.610, 33635.00
1045.716, 33768.00
1046.823, 33735.00
1047.929, 33925.00
1049.036, 33775.00
1050.142, 33805.00
1051.248, 33774.00
1052.353, 33966.00
1053.459, 34050.00
1054.564, 34063.00
1055.670, 34034.00
1056.775, 34166.00
1057.880, 34030.00
1058.985, 34138.00
1060.089, 34062.00
1061.194, 33913.00
1062.298, 33995.00
1063.402, 34293.00
1064.506, 34104.00
1065.610, 34179.00
1066.713, 34325.00
1067.817, 34228.00
1068.920, 34439.00
1070.023, 34181.00
1071.126, 34112.00
1072.229, 34199.00
1073.332, 33865.00
1074.435, 34163.00
1075.537, 34144.00
1076.639, 34466.00
1077.741, 34256.00
1078.843, 34255.00
1079.945, 34534.00
1081.046, 34286.00
1082.148, 34302.00
1083.249, 34155.00
1084.350, 34159.00
1085.451, 34036.00
1086.551, 34084.00
1087.652, 34036.79
1088.752, 34069.00
1089.853, 34023.00
1090.953, 33924.00
1092.053, 33952.00
1093.152, 33948.83
1094.252, 34014.00
1095.351, 34037.00
1096.451, 34030.00
1097.550, 34095.00
1098.649, 33948.00
1099.748, 33899.00
1100.846, 33906.00
1101.945, 34018.00
1103.043, 34031.00
1104.141, 33982.79
1105.239, 33959.72
1106.337, 33859.00
1107.434, 33833.00
1108.532, 33810.00
1109.629, 33673.55
1110.726, 33847.27
1111.823, 33932.81
1112.920, 33934.92
1114.017, 33603.70
1115.113, 33702.93
1116.210, 33629.65
1117.306, 33549.31
1118.402, 33709.12
1119.498, 33426.41
1120.593, 33582.44
1121.689, 33563.32
1122.784, 33624.37
1123.879, 33511.87
1124.974, 33452.97
1126.069, 33567.68
1127.164, 33586.27
1128.259, 33453.78
1129.353, 33519.95
1130.447, 33231.23
1131.541, 33253.93
1132.635, 33411.00
1133.729, 33287.27
1134.822, 33356.64
1135.916, 33352.45
1137.009, 33014.10
1138.102, 33242.00
1139.195, 33157.00
1140.288, 33024.00
1141.380, 33091.00
1142.473, 33144.00
1143.565, 32768.00
1144.657, 33237.00
1145.749, 33034.00
1146.841, 33218.00
1147.932, 33083.00
1149.024, 33153.00
1150.115, 32892.00
1151.206, 33076.00
1152.297, 32854.00
1153.388, 32981.00
1154.479, 32772.00
1155.569, 32889.00
1156.659, 32680.00
1157.750, 33116.00
1158.839, 33088.00
1159.929, 32941.00
1161.019, 32724.00
1162.108, 32990.00
1163.198, 32996.00
1164.287, 32831.53
1165.376, 32911.96
1166.465, 32621.00
1167.553, 32726.00
1168.642, 32852.00
1169.730, 32633.00
1170.818, 32728.00
1171.906, 32635.00
1172.994, 32933.00
1174.082, 32621.00
1175.170, 32524.00
1176.257, 32898.00
1177.344, 32551.00
1178.431, 32563.00
1179.518, 32678.00
1180.605, 32750.00
1181.691, 32745.58
1182.778, 32638.00
1183.864, 32700.00
1184.950, 32743.00
1186.036, 32631.00
1187.122, 32690.28
1188.207, 32534.30
1189.292, 32551.36
1190.378, 32751.86
1191.463, 32864.18
1192.548, 32893.07
1193.632, 32588.64
1194.717, 32714.63
1195.801, 32668.13
1196.886, 32614.55
1197.970, 32801.11
1199.054, 32545.16
1200.137, 32727.92
1201.221, 32735.56
1202.305, 32823.34
1203.388, 32737.57
1204.471, 32705.41
1205.554, 32846.85
1206.637, 32892.17
1207.719, 32786.42
1208.802, 32879.30
1209.884, 32617.29
1210.966, 32666.70
1212.048, 32850.48
1213.130, 32753.45
1214.212, 32681.00
1215.293, 32617.00
1216.374, 32661.21
1217.456, 32638.68
1218.536, 32651.00
1219.617, 32608.00
1220.698, 32668.00
1221.778, 32561.00
1222.859, 32691.00
1223.939, 32654.03
1225.019, 32538.00
1226.099, 32714.00
1227.178, 32534.00
1228.258, 32660.00
1229.337, 32804.00
1230.417, 32644.00
1231.496, 32578.00
1232.574, 32556.00
1233.653, 32490.00
1234.732, 32534.26
1235.810, 32570.08
1236.888, 32562.00
1237.966, 32676.00
1239.044, 32536.00
1240.122, 32477.00
1241.199, 32653.00
1242.277, 32976.00
1243.354, 32672.00
1244.431, 32898.00
1245.508, 32629.00
1246.585, 32731.00
1247.661, 32435.00
1248.738, 32564.00
1249.814, 32782.00
1250.890, 32362.00
1251.966, 32967.00
1253.042, 32640.00
1254.117, 32716.00
1255.193, 32849.00
1256.268, 32550.24
1257.343, 32755.06
1258.418, 32871.71
1259.493, 32904.92
1260.567, 32604.81
1261.642, 32735.12
1262.716, 32692.94
1263.790, 32643.68
1264.864, 32834.56
1265.938, 32582.93
1267.011, 32770.01
1268.085, 32781.96
1269.158, 32874.06
1270.231, 32792.61
1271.304, 32764.75
1272.377, 32910.52
1273.450, 32960.15
1274.522, 32858.71
1275.594, 32955.90
1276.666, 32698.20
1277.738, 32751.92
1278.810, 32940.01
1279.882, 32847.29
1280.953, 32947.65
1282.025, 32974.48
1283.096, 32667.12
1284.167, 32940.95
1285.238, 32963.43
1286.308, 32863.32
1287.379, 32736.06
1288.449, 32778.00
1289.519, 32787.00
1290.589, 32749.00
1291.659, 32715.79
1292.729, 32935.00
1293.798, 32648.00
1294.868, 32717.00
1295.937, 32836.00
1297.006, 32667.00
1298.075, 32708.00
1299.143, 32665.00
1300.212, 32815.00
1301.280, 32900.00
1302.348, 32979.00
1303.416, 33122.00
1304.484, 32895.00
1305.552, 32990.00
1306.620, 33092.00
1307.687, 32909.00
1308.754, 32994.00
1309.821, 33240.00
1310.888, 33049.00
1311.955, 33604.00
1313.021, 33029.00
1314.088, 32648.00
1315.154, 32743.00
1316.220, 33164.00
1317.286, 32852.00
1318.352, 33461.00
1319.417, 33686.00
1320.483, 33343.00
1321.548, 33153.00
1322.613, 33190.84
1323.678, 33261.00
1324.743, 33073.00
1325.807, 33150.00
1326.872, 33049.00
1327.936, 33040.00
1329.000, 33498.00
1330.064, 33220.00
1331.128, 33346.00
1332.191, 33303.42
1333.255, 33289.24
1334.318, 33153.00
1335.381, 33296.00
1336.444, 33385.00
1337.507, 33234.00
1338.569, 33287.00
1339.632, 33193.00
1340.694, 33307.00
1341.756, 33148.00
1342.818, 33172.00
1343.880, 33219.00
1344.941, 33218.52
1346.003, 33412.00
1347.064, 33299.00
1348.125, 33363.00
1349.186, 33293.00
1350.247, 33292.00
1351.308, 33213.00
1352.368, 33425.00
1353.428, 33501.00
1354.489, 33056.00
1355.549, 33375.00
1356.608, 33031.00
1357.668, 33236.00
1358.727, 33611.00
1359.787, 33445.00
1360.846, 33427.00
1361.905, 33471.00
1362.964, 33613.00
1364.022, 33375.00
1365.081, 33488.89
1366.139, 33457.34
1367.197, 33478.00
1368.255, 33445.00
1369.313, 33403.00
1370.371, 33375.00
1371.428, 33304.00
1372.486, 33412.00
1373.543, 33434.00
1374.600, 33402.00
1375.657, 33470.00
1376.713, 33584.00
1377.770, 33315.00
1378.826, 33418.00
1379.882, 33386.00
1380.938, 33560.00
1381.994, 33538.00
1383.050, 33403.00
1384.106, 33491.00
1385.161, 33463.00
1386.216, 33456.00
1387.271, 33601.46
1388.326, 33907.00
1389.381, 33682.00
1390.435, 33795.00
1391.490, 33421.00
1392.544, 33365.00
1393.598, 33792.00
1394.652, 33576.00
1395.705, 33535.00
1396.759, 33598.00
1397.812, 33567.00
1398.866, 33635.00
1399.919, 33632.00
1400.972, 33661.21
1402.024, 33717.21
1403.077, 33564.00
1404.129, 33817.00
1405.181, 33445.98
1406.233, 33452.30
1407.285, 33489.00
1408.337, 33580.00
1409.389, 33629.00
1410.440, 33674.00
1411.491, 33721.00
1412.542, 33757.69
1413.593, 33797.58
1414.644, 33832.00
1415.695, 33829.00
1416.745, 33871.96
1417.795, 33802.00
1418.845, 33833.00
1419.895, 33792.00
1420.945, 33699.00
1421.995, 33766.00
1423.044, 33650.00
1424.093, 33938.00
1425.142, 33822.00
1426.191, 33706.00
1427.240, 33933.00
1428.289, 34141.00
1429.337, 33899.00
1430.385, 33636.00
1431.433, 33778.00
1432.481, 33677.80
1433.529, 33642.88
1434.577, 33780.00
1435.624, 33620.00
1436.672, 33600.00
1437.719, 33590.00
1438.766, 33603.00
1439.812, 33594.00
1440.859, 33857.00
1441.905, 33827.00
1442.952, 33804.00
1443.998, 34101.00
1445.044, 33986.00
1446.090, 33655.00
1447.135, 33864.00
