##NAMES=Braunite
##RRUFFID=R050390
##IDEAL CHEMISTRY=Mn^2+^Mn^3+^_6_SiO_12_
##LOCALITY=Oehrenstock, Thuringia, Germany
##OWNER=RRUFF
##SOURCE=University of Arizona Mineral Museum
##DESCRIPTION=Mass of black octahedra
##STATUS=The identification of this mineral has been confirmed by X-ray diffraction and chemical analysis
##URL=rruff.info/R050390
##MEASURED CHEMISTRY=(Mn^2+^_0.83_Ca_0.17_)_Î£=1_Mn^3+^_6.00_Si_1.00_O_12_
##PIN_ID=M00051
##ORIENTATION=Laser parallel to -a* (-1 0 0). Fiducial mark perpendicular to laser is parallel to -c [0 0 -1]
293.8570, 34510.00
295.0670, 34650.00
296.2760, 34674.00
297.4850, 34810.00
298.6930, 34743.00
299.9020, 34555.00
301.1110, 35098.00
302.3190, 34802.29
303.5270, 35048.00
304.7350, 34614.00
305.9430, 34563.00
307.1510, 34407.00
308.3580, 34576.00
309.5660, 34433.00
310.7730, 34334.00
311.9800, 34294.66
313.1870, 34172.00
314.3940, 34053.00
315.6010, 34037.40
316.8070, 34141.00
318.0130, 34069.00
319.2200, 34073.00
320.4260, 34281.00
321.6310, 34393.46
322.8370, 34546.96
324.0430, 34858.00
325.2480, 34911.00
326.4540, 35151.00
327.6590, 35350.00
328.8640, 35753.00
330.0680, 35724.00
331.2730, 36034.00
332.4780, 37136.00
333.6820, 37154.28
334.8860, 36747.00
336.0900, 37684.08
337.2940, 37849.11
338.4980, 37944.50
339.7010, 37973.99
340.9050, 37740.21
342.1080, 37846.39
343.3110, 37816.33
344.5140, 37780.68
345.7170, 37683.00
346.9200, 37385.00
348.1220, 37281.00
349.3240, 36974.00
350.5270, 37299.00
351.7290, 36881.00
352.9310, 36961.00
354.1320, 37007.00
355.3340, 36857.00
356.5350, 36888.00
357.7370, 36543.38
358.9380, 36627.95
360.1390, 36642.88
361.3400, 36591.92
362.5400, 36277.74
363.7410, 36303.46
364.9410, 36193.00
366.1410, 36076.96
367.3410, 36150.59
368.5410, 35874.70
369.7410, 35945.33
370.9400, 35877.69
372.1400, 35873.30
373.3390, 35731.89
374.5380, 35632.82
375.7370, 35670.87
376.9360, 35633.00
378.1350, 35341.00
379.3330, 35625.00
380.5310, 35405.00
381.7300, 35305.00
382.9280, 35405.00
384.1260, 35428.00
385.3230, 35439.82
386.5210, 35393.36
387.7180, 35459.00
388.9160, 35293.00
390.1130, 35160.00
391.3100, 35255.00
392.5060, 35177.00
393.7030, 35147.00
394.9000, 35273.00
396.0960, 35008.00
397.2920, 34870.00
398.4880, 34841.00
399.6840, 34768.00
400.8800, 34855.00
402.0750, 34556.00
403.2710, 34850.00
404.4660, 35172.00
405.6610, 34740.00
406.8560, 34502.00
408.0510, 34437.11
409.2450, 34952.00
410.4400, 34421.00
411.6340, 34540.00
412.8280, 35372.00
414.0220, 35016.00
415.2160, 34677.00
416.4100, 34348.00
417.6030, 34548.00
418.7970, 34495.00
419.9900, 34575.00
421.1830, 34643.00
422.3760, 34384.00
423.5690, 34413.00
424.7610, 34668.00
425.9540, 34791.00
427.1460, 34441.00
428.3380, 34764.00
429.5300, 34667.00
430.7220, 34562.00
431.9140, 34681.00
433.1050, 34882.00
434.2970, 35371.00
435.4880, 35459.00
436.6790, 34822.00
437.8700, 35247.00
439.0610, 35013.00
440.2510, 34963.00
441.4420, 35096.00
442.6320, 35082.22
443.8220, 35280.00
445.0120, 35289.00
446.2020, 35293.00
447.3910, 35316.00
448.5810, 35303.00
449.7700, 35482.04
450.9600, 35797.00
452.1490, 35793.00
453.3370, 35809.00
454.5260, 35794.00
455.7150, 36123.00
456.9030, 36420.00
458.0910, 36305.00
459.2800, 36329.00
460.4670, 36734.00
461.6550, 36685.00
462.8430, 36981.00
464.0300, 36844.00
465.2180, 37081.00
466.4050, 37360.00
467.5920, 37499.00
468.7790, 37876.00
469.9650, 37840.00
471.1520, 38183.00
472.3380, 38368.00
473.5250, 38511.00
474.7110, 38627.00
475.8970, 38867.00
477.0820, 38961.00
478.2680, 39866.00
479.4540, 39769.00
480.6390, 39616.33
481.8240, 39956.61
483.0090, 40227.24
484.1940, 40431.98
485.3780, 40373.28
486.5630, 40654.70
487.7470, 40799.72
488.9320, 40958.00
490.1160, 40900.00
491.3000, 40970.00
492.4830, 41098.00
493.6670, 40894.00
494.8500, 41349.00
496.0340, 40927.00
497.2170, 41161.00
498.4000, 40813.00
499.5820, 41330.00
500.7650, 40878.00
501.9480, 40858.00
503.1300, 41081.00
504.3120, 41121.00
505.4940, 41340.00
506.6760, 41794.00
507.8580, 41523.00
509.0390, 41349.00
510.2210, 41451.00
511.4020, 41796.00
512.5830, 41801.96
513.7640, 42379.00
514.9450, 42293.00
516.1250, 42417.00
517.3060, 42957.00
518.4860, 42972.00
519.6660, 43035.00
520.8460, 43332.00
522.0260, 43162.00
523.2060, 43274.00
524.3850, 43009.00
525.5650, 42970.00
526.7440, 43127.00
527.9230, 42794.00
529.1020, 42543.00
530.2810, 42211.00
531.4590, 42381.00
532.6380, 42016.00
533.8160, 41684.00
534.9940, 41440.00
536.1720, 41097.00
537.3500, 40781.00
538.5270, 40609.00
539.7050, 40631.00
540.8820, 40142.00
542.0590, 40364.00
543.2360, 40225.00
544.4130, 39991.00
545.5900, 40460.00
546.7660, 40008.00
547.9430, 39776.87
549.1190, 40089.31
550.2950, 39472.00
551.4710, 39851.00
552.6470, 39669.28
553.8220, 39598.00
554.9980, 39596.00
556.1730, 39471.00
557.3480, 39563.00
558.5230, 39672.71
559.6980, 40010.00
560.8730, 39783.00
562.0470, 40058.00
563.2220, 39592.00
564.3960, 39961.00
565.5700, 39832.00
566.7440, 39979.00
567.9170, 40098.00
569.0910, 40374.00
570.2640, 40628.00
571.4380, 40178.00
572.6110, 40140.00
573.7840, 40791.00
574.9570, 40305.00
576.1290, 40257.64
577.3020, 40184.00
578.4740, 39595.00
579.6460, 39655.00
580.8180, 39337.00
581.9900, 39232.00
583.1620, 38786.00
584.3330, 38929.00
585.5040, 38576.00
586.6760, 38668.00
587.8470, 38491.00
589.0180, 38374.00
590.1880, 38419.00
591.3590, 38283.57
592.5290, 38073.00
593.7000, 38156.85
594.8700, 38114.00
596.0400, 38028.00
597.2090, 38041.00
598.3790, 38191.00
599.5490, 38238.00
600.7180, 38132.00
601.8870, 38516.00
603.0560, 38442.00
604.2250, 38736.00
605.3940, 38631.00
606.5620, 38895.00
607.7300, 39784.00
608.8990, 39522.37
610.0670, 40261.00
611.2350, 39651.00
612.4020, 40047.00
613.5700, 40306.00
614.7370, 40621.00
615.9050, 41653.00
617.0720, 41848.00
618.2390, 42257.00
619.4060, 42477.00
620.5720, 42871.00
621.7390, 42945.00
622.9050, 43241.00
624.0710, 43604.00
625.2370, 44112.00
626.4030, 44252.00
627.5690, 44631.00
628.7340, 44868.00
629.9000, 44973.00
631.0650, 44876.06
632.2300, 44913.00
633.3950, 44389.00
634.5600, 44444.00
635.7240, 44190.00
636.8890, 44480.00
638.0530, 43621.00
639.2170, 43560.00
640.3810, 42817.00
641.5450, 42460.00
642.7080, 43283.00
643.8720, 41733.00
645.0350, 41795.00
646.1980, 42296.00
647.3610, 40746.00
648.5240, 40226.00
649.6870, 40435.00
650.8490, 39816.00
652.0120, 39764.00
653.1740, 39464.00
654.3360, 39292.00
655.4980, 39150.00
656.6600, 38929.00
657.8210, 38828.00
658.9830, 38559.00
660.1440, 38492.18
661.3050, 38533.00
662.4660, 38337.00
663.6270, 38411.00
664.7870, 38377.00
665.9480, 38323.00
667.1080, 38184.00
668.2680, 38081.77
669.4280, 38209.54
670.5880, 38267.68
671.7480, 38259.91
672.9070, 37988.91
674.0670, 38057.83
675.2260, 37990.54
676.3850, 37917.67
677.5440, 38034.47
678.7030, 37801.75
679.8610, 37915.57
681.0200, 37891.04
682.1780, 37929.85
683.3360, 37831.57
684.4940, 37775.63
685.6520, 37856.82
686.8090, 37862.11
687.9670, 37748.05
689.1240, 37790.91
690.2810, 37553.46
691.4380, 37561.98
692.5950, 37676.63
693.7520, 37569.49
694.9080, 37614.88
696.0650, 37602.16
697.2210, 37325.52
698.3770, 37507.91
699.5330, 37491.79
700.6880, 37271.86
701.8440, 37316.00
702.9990, 37393.00
704.1550, 37379.00
705.3100, 37283.14
706.4650, 37213.00
707.6190, 37047.00
708.7740, 36902.51
709.9290, 36942.24
711.0830, 36912.45
712.2370, 36816.75
713.3910, 36457.78
714.5450, 36438.77
715.6980, 36283.62
716.8520, 36122.79
718.0050, 36151.73
719.1580, 35831.15
720.3110, 35857.08
721.4640, 35744.69
722.6170, 35592.00
723.7700, 35599.00
724.9220, 35495.00
726.0740, 35225.00
727.2260, 35011.00
728.3780, 35047.00
729.5300, 34877.93
730.6810, 35001.00
731.8330, 34827.00
732.9840, 34656.00
734.1350, 34735.00
735.2860, 34538.00
736.4370, 34671.00
737.5880, 34675.00
738.7380, 34537.00
739.8880, 34576.00
741.0390, 34513.00
742.1890, 34198.00
743.3380, 34292.00
744.4880, 34267.00
745.6380, 34128.00
746.7870, 34176.00
747.9360, 33938.00
749.0850, 34163.00
750.2340, 34134.00
751.3830, 34062.00
752.5310, 33990.00
753.6800, 33990.00
754.8280, 34026.00
755.9760, 33983.00
757.1240, 34080.00
758.2720, 34264.00
759.4190, 34288.86
760.5670, 34166.00
761.7140, 34418.00
762.8610, 34087.00
764.0080, 33987.00
765.1550, 33858.00
766.3020, 33811.00
767.4480, 33796.91
768.5950, 33866.00
769.7410, 33813.00
770.8870, 33787.08
772.0330, 33735.00
773.1780, 33744.73
774.3240, 33720.00
775.4690, 33826.00
776.6140, 33764.00
777.7590, 33914.00
778.9040, 33825.00
780.0490, 33715.10
781.1940, 33605.00
782.3380, 33491.00
783.4820, 33512.00
784.6260, 33623.00
785.7700, 33500.00
786.9140, 33379.00
788.0580, 33626.00
789.2010, 33416.00
790.3450, 33439.00
791.4880, 33618.00
792.6310, 33606.00
793.7730, 33545.00
794.9160, 33550.00
796.0590, 33336.00
797.2010, 33663.00
798.3430, 33647.00
799.4850, 33553.00
800.6270, 33436.00
801.7690, 33690.00
802.9100, 33953.00
804.0520, 33779.00
805.1930, 33735.38
806.3340, 33893.41
807.4750, 33981.79
808.6160, 34004.27
809.7560, 33763.49
810.8970, 33862.66
812.0370, 33825.59
813.1770, 33782.94
814.3170, 33929.96
815.4570, 33727.47
816.5960, 33871.48
817.7360, 33877.18
818.8750, 33946.18
820.0140, 33878.10
821.1530, 33852.36
822.2920, 33963.75
823.4310, 33999.20
824.5690, 34258.00
825.7070, 33978.00
826.8460, 33948.00
827.9840, 33867.00
829.1220, 33867.00
830.2590, 33963.00
831.3970, 33780.00
832.5340, 33884.00
833.6710, 34116.00
834.8080, 33976.03
835.9450, 33733.00
837.0820, 33900.00
838.2190, 33822.00
839.3550, 33736.00
840.4910, 33824.09
841.6270, 33736.93
842.7630, 33938.00
843.8990, 33773.00
845.0350, 33953.00
846.1700, 34175.00
847.3060, 33888.98
848.4410, 34162.97
849.5760, 34320.78
850.7100, 34408.95
851.8450, 34431.22
852.9800, 34190.21
854.1140, 34289.18
855.2480, 34251.89
856.3820, 34209.03
857.5160, 34355.84
858.6500, 34153.12
859.7830, 34296.93
860.9170, 34302.41
862.0500, 34371.20
863.1830, 34302.90
864.3160, 34276.94
865.4480, 34388.12
866.5810, 34423.36
867.7130, 34339.29
868.8460, 34412.09
869.9780, 34204.60
871.1100, 34243.08
872.2410, 34387.68
873.3730, 34310.50
874.5050, 34385.82
875.6360, 34403.06
876.7670, 34156.35
877.8980, 34368.68
879.0290, 34382.48
880.1590, 34500.00
881.2900, 34167.00
882.4200, 34552.00
883.5500, 34564.00
884.6800, 34441.00
885.8100, 34518.00
886.9400, 34406.00
888.0690, 34633.00
889.1990, 34369.00
890.3280, 34497.00
891.4570, 34606.00
892.5860, 34571.00
893.7140, 34757.16
894.8430, 34959.26
895.9710, 34844.00
897.1000, 34960.76
898.2280, 35043.00
899.3560, 34926.00
900.4830, 34949.00
901.6110, 34886.00
902.7380, 35025.00
903.8660, 35003.00
904.9930, 35023.00
906.1200, 35264.00
907.2460, 35097.22
908.3730, 35186.10
909.5000, 35045.00
910.6260, 35172.00
911.7520, 35458.00
912.8780, 35478.00
914.0040, 35317.00
915.1290, 35367.00
916.2550, 35326.00
917.3800, 35393.50
918.5050, 35424.65
919.6300, 35600.00
920.7550, 35626.00
921.8800, 35709.00
923.0040, 36029.00
924.1290, 35745.00
925.2530, 35862.00
926.3770, 36056.00
927.5010, 35882.00
928.6250, 35853.00
929.7480, 36017.00
930.8720, 36624.00
931.9950, 36250.00
933.1180, 36629.13
934.2410, 36356.00
935.3640, 36637.00
936.4860, 37177.00
937.6090, 36654.00
938.7310, 36711.00
939.8530, 36763.00
940.9750, 37393.00
942.0970, 37135.00
943.2180, 37135.00
944.3400, 37183.00
945.4610, 37325.00
946.5820, 37387.00
947.7030, 37388.09
948.8240, 36984.00
949.9450, 37361.00
951.0650, 37243.00
952.1860, 37227.00
953.3060, 37401.00
954.4260, 37287.45
955.5460, 37510.34
956.6650, 37168.00
957.7850, 37776.00
958.9040, 37606.00
960.0230, 37481.00
961.1420, 37625.00
962.2610, 37792.00
963.3800, 37434.00
964.4990, 37523.00
965.6170, 37587.00
966.7350, 37248.00
967.8530, 38044.00
968.9710, 37873.00
970.0890, 37726.00
971.2070, 37602.00
972.3240, 37527.00
973.4410, 37599.00
974.5580, 37569.00
975.6750, 37479.00
976.7920, 37475.00
977.9090, 37686.00
979.0250, 37461.00
980.1410, 37748.00
981.2580, 37678.00
982.3740, 37399.00
983.4890, 37641.00
984.6050, 37524.35
985.7200, 37206.00
986.8360, 37598.00
987.9510, 37510.00
989.0660, 37579.00
990.1810, 37705.00
991.2950, 37579.00
992.4100, 37825.00
993.5240, 37677.00
994.6390, 37671.00
995.7530, 37607.00
996.8660, 37834.00
997.9800, 37663.00
999.0940, 37588.00
1000.207, 37782.00
1001.320, 37493.00
1002.433, 37528.00
1003.546, 37942.00
1004.659, 37680.23
1005.772, 37681.00
1006.884, 37675.00
1007.996, 37495.00
1009.108, 37689.00
1010.220, 37697.00
1011.332, 37627.00
1012.444, 37714.00
1013.555, 37627.00
1014.666, 37595.00
1015.777, 37703.00
1016.888, 37702.00
1017.999, 37462.00
1019.110, 37607.00
1020.220, 37459.00
1021.331, 37450.00
1022.441, 37628.00
1023.551, 37421.00
1024.661, 37545.00
1025.770, 37406.00
1026.880, 37382.00
1027.989, 37122.00
1029.098, 37422.00
1030.207, 37334.00
1031.316, 37415.00
1032.425, 37457.00
1033.533, 37678.00
1034.642, 37410.00
1035.750, 37544.00
1036.858, 37522.00
1037.966, 37470.00
1039.073, 37526.00
1040.181, 37441.36
1041.288, 37646.59
1042.396, 37782.22
1043.503, 37851.91
1044.610, 37658.32
1045.716, 37804.66
1046.823, 37814.80
1047.929, 37819.31
1049.036, 38013.54
1050.142, 37858.20
1051.248, 38049.38
1052.353, 38102.20
1053.459, 38218.36
1054.564, 38197.39
1055.670, 38218.82
1056.775, 38377.32
1057.880, 38459.90
1058.985, 38423.16
1060.089, 38543.26
1061.194, 38383.10
1062.298, 38468.87
1063.402, 38660.77
1064.506, 38630.88
1065.610, 38645.00
1066.713, 38657.60
1067.817, 38708.34
1068.920, 38564.00
1070.023, 38726.00
1071.126, 38541.00
1072.229, 38465.00
1073.332, 38453.00
1074.435, 38401.38
1075.537, 38414.00
1076.639, 38371.00
1077.741, 38388.00
1078.843, 38259.00
1079.945, 38378.00
1081.046, 38314.00
1082.148, 38150.00
1083.249, 38443.00
1084.350, 38285.00
1085.451, 38347.00
1086.551, 38360.00
1087.652, 38161.00
1088.752, 38123.00
1089.853, 38287.00
1090.953, 38033.00
1092.053, 38242.00
1093.152, 38008.00
1094.252, 37793.00
1095.351, 37891.00
1096.451, 37893.00
1097.550, 37695.00
1098.649, 37619.99
1099.748, 37629.32
1100.846, 37677.00
1101.945, 37729.00
1103.043, 37710.32
1104.141, 37909.00
1105.239, 37518.00
1106.337, 37677.00
1107.434, 37479.00
1108.532, 37389.42
1109.629, 37514.09
1110.726, 37569.14
1111.823, 37558.27
1112.920, 37284.14
1114.017, 37349.97
1115.113, 37279.59
1116.210, 37203.59
1117.306, 37317.29
1118.402, 37081.48
1119.498, 37192.18
1120.593, 37164.59
1121.689, 37200.27
1122.784, 37098.90
1123.879, 37039.88
1124.974, 37117.98
1126.069, 37120.14
1127.164, 37003.00
1128.259, 37042.73
1129.353, 36802.20
1130.447, 36807.63
1131.541, 36563.00
1132.635, 36657.00
1133.729, 36673.00
1134.822, 36523.55
1135.916, 36415.00
1137.009, 36386.00
1138.102, 36281.00
1139.195, 36231.00
1140.288, 36296.00
1141.380, 36143.00
1142.473, 36211.00
1143.565, 36112.00
1144.657, 35966.00
1145.749, 36019.00
1146.841, 36115.00
1147.932, 36110.00
1149.024, 36119.89
1150.115, 36072.78
1151.206, 36028.00
1152.297, 35954.00
1153.388, 35810.00
1154.479, 35836.00
1155.569, 35759.86
1156.659, 35675.64
1157.750, 35674.00
1158.839, 35528.00
1159.929, 35411.00
1161.019, 35357.37
1162.108, 35448.00
1163.198, 35318.00
1164.287, 35407.00
1165.376, 35406.00
1166.465, 35350.90
1167.553, 35406.70
1168.642, 35373.00
1169.730, 35335.00
1170.818, 35363.41
1171.906, 35308.00
1172.994, 35397.00
1174.082, 35368.00
1175.170, 35433.00
1176.257, 35382.00
1177.344, 35008.00
1178.431, 35359.00
1179.518, 35009.00
1180.605, 35290.00
1181.691, 34949.00
1182.778, 35149.00
1183.864, 34981.88
1184.950, 35122.38
1186.036, 35193.24
1187.122, 35198.20
1188.207, 34939.91
1189.292, 35021.58
1190.378, 34966.98
1191.463, 34906.83
1192.548, 35036.34
1193.632, 34816.36
1194.717, 34942.87
1195.801, 34931.07
1196.886, 34982.57
1197.970, 34897.00
1199.054, 34853.76
1200.137, 34947.68
1201.221, 34965.64
1202.305, 34864.29
1203.388, 34919.84
1204.471, 34695.09
1205.554, 34716.30
1206.637, 34843.65
1207.719, 34749.22
1208.802, 34807.28
1209.884, 34612.00
1210.966, 34525.00
1212.048, 34515.24
1213.130, 34681.00
1214.212, 34568.00
1215.293, 34586.00
1216.374, 34637.00
1217.456, 34552.00
1218.536, 34579.00
1219.617, 34604.00
1220.698, 34396.00
1221.778, 34662.00
1222.859, 34646.00
1223.939, 34370.00
1225.019, 34604.00
1226.099, 34552.00
1227.178, 34528.00
1228.258, 34571.00
1229.337, 34522.38
1230.417, 34594.00
1231.496, 34503.00
1232.574, 34460.00
1233.653, 34482.00
1234.732, 34552.00
1235.810, 34383.00
1236.888, 34552.00
1237.966, 34409.33
1239.044, 34512.00
1240.122, 34311.00
1241.199, 34484.00
1242.277, 34649.00
1243.354, 34362.00
1244.431, 34438.00
1245.508, 34463.00
1246.585, 34503.00
1247.661, 34635.00
1248.738, 34570.00
1249.814, 34554.00
1250.890, 34656.11
1251.966, 34625.00
1253.042, 34798.00
1254.117, 34727.00
1255.193, 34765.00
1256.268, 34345.00
1257.343, 34496.00
1258.418, 34426.50
1259.493, 34477.00
1260.567, 34484.00
1261.642, 34497.63
1262.716, 34251.00
1263.790, 34498.00
1264.864, 34519.78
1265.938, 34379.00
1267.011, 34738.00
1268.085, 34685.00
1269.158, 34421.00
1270.231, 34333.00
1271.304, 34622.00
1272.377, 34718.00
1273.450, 34686.00
1274.522, 34499.00
1275.594, 34540.72
1276.666, 34532.09
1277.738, 34486.00
1278.810, 34566.00
1279.882, 34642.00
1280.953, 34350.70
1282.025, 34516.81
1283.096, 34613.28
1284.167, 34643.84
1285.238, 34411.14
1286.308, 34518.39
1287.379, 34489.40
1288.449, 34454.82
1289.519, 34609.92
1290.589, 34415.50
1291.659, 34567.59
1292.729, 34581.36
1293.798, 34658.43
1294.868, 34598.43
1295.937, 34580.75
1297.006, 34700.20
1298.075, 34743.73
1299.143, 34667.93
1300.212, 34749.02
1301.280, 34549.80
1302.348, 34596.55
1303.416, 34749.43
1304.484, 34680.53
1305.552, 34764.12
1306.620, 34589.00
1307.687, 34703.63
1308.754, 34792.00
1309.821, 34695.00
1310.888, 34670.00
1311.955, 34518.00
1313.021, 34620.00
1314.088, 34614.00
1315.154, 34544.00
1316.220, 34608.00
1317.286, 34532.00
1318.352, 34367.00
1319.417, 34548.00
1320.483, 34454.00
1321.548, 34566.00
1322.613, 34596.47
1323.678, 34534.00
1324.743, 34683.00
1325.807, 34585.21
1326.872, 34671.00
1327.936, 34621.00
1329.000, 34490.00
1330.064, 34577.00
1331.128, 34799.00
1332.191, 34628.00
1333.255, 34585.00
1334.318, 34797.00
1335.381, 34539.00
1336.444, 34598.00
1337.507, 34669.00
1338.569, 34684.00
1339.632, 34702.00
1340.694, 34763.23
1341.756, 34681.00
1342.818, 34863.00
1343.880, 34848.00
1344.941, 34893.90
1346.003, 34790.00
1347.064, 34846.00
1348.125, 34880.00
1349.186, 34798.00
1350.247, 34804.00
1351.308, 34706.00
1352.368, 34768.00
1353.428, 34818.24
1354.489, 34765.00
1355.549, 34817.27
1356.608, 34700.00
1357.668, 34828.00
1358.727, 34754.00
1359.787, 34731.00
1360.846, 34807.00
1361.905, 34509.00
1362.964, 34958.00
1364.022, 34599.00
1365.081, 34892.00
1366.139, 35113.00
1367.197, 34898.00
1368.255, 34775.00
1369.313, 34689.00
1370.371, 34922.00
1371.428, 34910.00
1372.486, 34625.00
1373.543, 34907.00
1374.600, 34489.00
1375.657, 34909.00
1376.713, 34862.00
1377.770, 35000.00
1378.826, 34712.00
1379.882, 34771.00
1380.938, 34870.00
1381.994, 34789.00
1383.050, 34988.00
1384.106, 34862.00
1385.161, 34969.00
1386.216, 34881.00
1387.271, 35437.00
1388.326, 35139.34
1389.381, 35165.00
1390.435, 34811.00
1391.490, 35017.00
1392.544, 34826.00
1393.598, 35094.00
1394.652, 35040.00
1395.705, 35046.00
1396.759, 35099.97
1397.812, 35109.55
1398.866, 34966.00
1399.919, 35221.00
1400.972, 34965.00
1402.024, 35029.00
1403.077, 34944.00
1404.129, 35188.00
1405.181, 35229.00
1406.233, 34948.00
1407.285, 35493.00
1408.337, 34937.00
1409.389, 35029.00
1410.440, 34795.00
1411.491, 35199.00
1412.542, 34989.00
1413.593, 34970.00
1414.644, 35188.00
1415.695, 35199.00
1416.745, 34826.00
1417.795, 34803.00
1418.845, 35052.00
1419.895, 34963.00
1420.945, 35144.00
1421.995, 35037.00
1423.044, 35110.00
1424.093, 35071.89
1425.142, 35038.50
1426.191, 35018.00
1427.240, 34920.00
1428.289, 35026.00
1429.337, 34844.00
1430.385, 34815.00
1431.433, 34910.45
1432.481, 35063.28
1433.529, 35146.48
1434.577, 35163.78
1435.624, 34917.81
1436.672, 35011.80
1437.719, 34969.55
1438.766, 34921.72
1439.812, 35063.57
1440.859, 34855.89
1441.905, 34994.73
1442.952, 34995.25
1443.998, 35059.07
1445.044, 34985.82
1446.090, 34954.90
1447.135, 35061.12
