##NAMES=Braunite
##RRUFFID=R050390
##IDEAL CHEMISTRY=Mn^2+^Mn^3+^_6_SiO_12_
##LOCALITY=Oehrenstock, Thuringia, Germany
##OWNER=RRUFF
##SOURCE=University of Arizona Mineral Museum
##DESCRIPTION=Mass of black octahedra
##STATUS=The identification of this mineral has been confirmed by X-ray diffraction and chemical analysis
##URL=rruff.info/R050390
##MEASURED CHEMISTRY=(Mn^2+^_0.83_Ca_0.17_)_Î£=1_Mn^3+^_6.00_Si_1.00_O_12_
##PIN_ID=M00051
##ORIENTATION=Laser parallel to -a* (-1 0 0). Fiducial mark perpendicular to laser is parallel to -c [0 0 -1]
299.9020, 29086.00
301.1110, 28855.00
302.3190, 28675.00
303.5270, 28838.00
304.7350, 28858.00
305.9430, 29013.00
307.1510, 29300.00
308.3580, 29197.00
309.5660, 29358.00
310.7730, 29303.00
311.9800, 29224.01
313.1870, 29191.00
314.3940, 29162.00
315.6010, 29234.55
316.8070, 29331.00
318.0130, 29455.51
319.2200, 29740.00
320.4260, 29899.00
321.6310, 30295.68
322.8370, 30971.00
324.0430, 30995.00
325.2480, 31568.00
326.4540, 31639.00
327.6590, 31924.00
328.8640, 32404.00
330.0680, 32946.00
331.2730, 33287.00
332.4780, 33885.00
333.6820, 34280.00
334.8860, 34770.00
336.0900, 35219.00
337.2940, 35829.00
338.4980, 36356.00
339.7010, 36895.00
340.9050, 36695.00
342.1080, 36521.00
343.3110, 36688.00
344.5140, 36736.00
345.7170, 36056.00
346.9200, 35852.00
348.1220, 35698.00
349.3240, 34943.00
350.5270, 34591.00
351.7290, 34074.00
352.9310, 33591.00
354.1320, 33355.61
355.3340, 32955.49
356.5350, 32719.39
357.7370, 32424.00
358.9380, 32353.00
360.1390, 32195.00
361.3400, 32151.00
362.5400, 31912.00
363.7410, 31975.00
364.9410, 31828.00
366.1410, 31520.00
367.3410, 31605.00
368.5410, 31750.00
369.7410, 31550.00
370.9400, 31470.00
372.1400, 31520.91
373.3390, 31422.00
374.5380, 31579.00
375.7370, 31429.00
376.9360, 31517.00
378.1350, 31599.00
379.3330, 31785.00
380.5310, 32276.00
381.7300, 31500.00
382.9280, 31435.00
384.1260, 31918.00
385.3230, 31449.00
386.5210, 31871.00
387.7180, 31699.35
388.9160, 31111.00
390.1130, 31374.00
391.3100, 31294.00
392.5060, 30959.00
393.7030, 30426.68
394.9000, 30851.81
396.0960, 31075.42
397.2920, 31108.31
398.4880, 30379.27
399.6840, 30634.11
400.8800, 30494.65
402.0750, 30339.06
403.2710, 30732.38
404.4660, 30114.18
405.6610, 30498.82
406.8560, 30483.15
408.0510, 30650.69
409.2450, 30421.53
410.4400, 30314.88
411.6340, 30605.12
412.8280, 30419.00
414.0220, 30151.00
415.2160, 29947.00
416.4100, 29964.00
417.6030, 29833.74
418.7970, 30034.91
419.9900, 29948.00
421.1830, 30285.00
422.3760, 30693.00
423.5690, 30323.83
424.7610, 31332.00
425.9540, 30839.00
427.1460, 30090.00
428.3380, 30195.00
429.5300, 30371.00
430.7220, 30442.00
431.9140, 30560.52
433.1050, 30869.00
434.2970, 30686.00
435.4880, 30640.00
436.6790, 30548.00
437.8700, 30766.00
439.0610, 30917.00
440.2510, 31622.00
441.4420, 31277.00
442.6320, 32163.00
443.8220, 31080.00
445.0120, 31423.00
446.2020, 31506.00
447.3910, 32465.00
448.5810, 31301.00
449.7700, 31578.00
450.9600, 31578.00
452.1490, 32294.00
453.3370, 31953.00
454.5260, 32230.00
455.7150, 32419.00
456.9030, 32678.00
458.0910, 32647.00
459.2800, 32760.00
460.4670, 32989.00
461.6550, 34211.00
462.8430, 34416.00
464.0300, 33897.00
465.2180, 34537.00
466.4050, 36155.00
467.5920, 35764.00
468.7790, 36085.00
469.9650, 36089.00
471.1520, 36068.00
472.3380, 36842.00
473.5250, 37162.00
474.7110, 37808.00
475.8970, 37778.00
477.0820, 38691.00
478.2680, 39732.00
479.4540, 40330.00
480.6390, 40204.00
481.8240, 40319.00
483.0090, 40654.00
484.1940, 40601.79
485.3780, 41074.93
486.5630, 41346.54
487.7470, 41427.42
488.9320, 40746.38
490.1160, 41049.20
491.3000, 40957.74
492.4830, 40850.09
493.6670, 41291.40
494.8500, 40721.16
496.0340, 40604.00
497.2170, 40379.19
498.4000, 40973.00
499.5820, 40144.00
500.7650, 40682.00
501.9480, 40603.00
503.1300, 39978.00
504.3120, 39885.00
505.4940, 39750.00
506.6760, 39782.82
507.8580, 39998.55
509.0390, 40238.00
510.2210, 40537.00
511.4020, 40845.00
512.5830, 40947.00
513.7640, 41621.00
514.9450, 41727.00
516.1250, 41863.00
517.3060, 42301.00
518.4860, 42480.00
519.6660, 42436.00
520.8460, 42669.00
522.0260, 42842.00
523.2060, 42773.00
524.3850, 42533.00
525.5650, 42445.00
526.7440, 41892.00
527.9230, 41713.00
529.1020, 41311.00
530.2810, 40917.00
531.4590, 39951.00
532.6380, 39600.00
533.8160, 38725.00
534.9940, 38286.00
536.1720, 37660.00
537.3500, 37367.00
538.5270, 36867.00
539.7050, 37010.00
540.8820, 36144.00
542.0590, 35605.00
543.2360, 35595.00
544.4130, 34994.47
545.5900, 34893.00
546.7660, 34723.00
547.9430, 34598.00
549.1190, 35196.00
550.2950, 35136.00
551.4710, 34863.00
552.6470, 34335.00
553.8220, 34012.00
554.9980, 34148.00
556.1730, 34613.00
557.3480, 34069.00
558.5230, 34142.00
559.6980, 34698.00
560.8730, 34025.00
562.0470, 34264.00
563.2220, 34481.00
564.3960, 34127.00
565.5700, 33907.00
566.7440, 33974.00
567.9170, 34418.00
569.0910, 34125.48
570.2640, 34050.00
571.4380, 34040.00
572.6110, 33847.00
573.7840, 34054.00
574.9570, 33890.00
576.1290, 33632.00
577.3020, 33720.00
578.4740, 33584.00
579.6460, 33214.00
580.8180, 33253.00
581.9900, 33265.00
583.1620, 33407.00
584.3330, 33197.00
585.5040, 32981.00
586.6760, 33203.00
587.8470, 33086.93
589.0180, 32958.00
590.1880, 33101.00
591.3590, 33117.00
592.5290, 32908.00
593.7000, 33117.00
594.8700, 33243.00
596.0400, 33399.00
597.2090, 33304.00
598.3790, 33439.00
599.5490, 33529.00
600.7180, 33796.00
601.8870, 33933.00
603.0560, 34146.00
604.2250, 34490.00
605.3940, 34699.00
606.5620, 34973.00
607.7300, 35339.00
608.8990, 35683.00
610.0670, 36139.00
611.2350, 36698.00
612.4020, 37303.00
613.5700, 38001.00
614.7370, 38616.00
615.9050, 38902.00
617.0720, 39685.00
618.2390, 40362.00
619.4060, 40904.00
620.5720, 41085.00
621.7390, 41968.00
622.9050, 42383.16
624.0710, 43053.00
625.2370, 43517.00
626.4030, 43702.00
627.5690, 44161.00
628.7340, 43926.00
629.9000, 44212.00
631.0650, 44327.00
632.2300, 43928.00
633.3950, 43348.00
634.5600, 42902.00
635.7240, 42655.00
636.8890, 42253.00
638.0530, 41675.18
639.2170, 41444.00
640.3810, 40539.00
641.5450, 39616.00
642.7080, 39204.00
643.8720, 38375.00
645.0350, 37805.00
646.1980, 37426.00
647.3610, 36864.00
648.5240, 36475.72
649.6870, 36024.43
650.8490, 35655.00
652.0120, 35352.00
653.1740, 34877.00
654.3360, 34956.00
655.4980, 34503.00
656.6600, 34354.00
657.8210, 33900.00
658.9830, 33722.00
660.1440, 33458.00
661.3050, 33206.00
662.4660, 33261.00
663.6270, 32967.00
664.7870, 33094.00
665.9480, 32698.00
667.1080, 32714.42
668.2680, 32464.00
669.4280, 32713.00
670.5880, 32394.00
671.7480, 32585.00
672.9070, 32292.00
674.0670, 32206.00
675.2260, 32266.00
676.3850, 32216.00
677.5440, 32245.00
678.7030, 32281.00
679.8610, 32615.00
681.0200, 32300.00
682.1780, 32568.00
683.3360, 32337.00
684.4940, 32465.00
685.6520, 32060.67
686.8090, 32359.39
687.9670, 32537.20
689.1240, 32600.57
690.2810, 32206.77
691.4380, 32403.29
692.5950, 32363.25
693.7520, 32313.50
694.9080, 32593.10
696.0650, 32265.79
697.2210, 32540.17
698.3770, 32574.35
699.5330, 32718.47
700.6880, 32624.52
701.8440, 32478.00
702.9990, 32201.00
704.1550, 32168.00
705.3100, 32039.00
706.4650, 32158.00
707.6190, 32020.00
708.7740, 31895.00
709.9290, 31859.00
711.0830, 31676.00
712.2370, 31545.00
713.3910, 31524.00
714.5450, 31145.00
715.6980, 30846.00
716.8520, 31074.00
718.0050, 30726.00
719.1580, 30664.00
720.3110, 30546.00
721.4640, 30611.00
722.6170, 30339.00
723.7700, 30296.00
724.9220, 30231.00
726.0740, 30109.00
727.2260, 29858.00
728.3780, 29753.00
729.5300, 29670.00
730.6810, 29929.00
731.8330, 30229.00
732.9840, 29673.00
734.1350, 29580.00
735.2860, 29544.54
736.4370, 29426.12
737.5880, 29388.00
738.7380, 29323.00
739.8880, 29269.00
741.0390, 28756.14
742.1890, 29689.00
743.3380, 28953.00
744.4880, 29166.00
745.6380, 29540.00
746.7870, 29446.00
747.9360, 28983.00
749.0850, 28973.00
750.2340, 29008.00
751.3830, 28998.00
752.5310, 28922.00
753.6800, 29205.00
754.8280, 29050.64
755.9760, 28771.00
757.1240, 28951.00
758.2720, 28855.00
759.4190, 28817.00
760.5670, 28725.00
761.7140, 28637.00
762.8610, 28646.00
764.0080, 28372.00
765.1550, 28760.00
766.3020, 28540.00
767.4480, 28667.00
768.5950, 28501.00
769.7410, 28415.00
770.8870, 28442.33
772.0330, 28496.00
773.1780, 28641.00
774.3240, 28592.51
775.4690, 28611.09
776.6140, 28508.00
777.7590, 28685.00
778.9040, 28559.00
780.0490, 28912.00
781.1940, 28367.00
782.3380, 28316.00
783.4820, 28586.00
784.6260, 28471.00
785.7700, 27923.00
786.9140, 28098.00
788.0580, 28003.37
789.2010, 28286.09
790.3450, 28447.89
791.4880, 28495.25
792.6310, 28085.46
793.7730, 28265.98
794.9160, 28209.93
796.0590, 28144.19
797.2010, 28407.80
798.3430, 28064.48
799.4850, 28322.87
800.6270, 28341.07
801.7690, 28469.20
802.9100, 28359.29
804.0520, 28322.90
805.1930, 28524.62
806.3340, 28594.50
807.4750, 28457.18
808.6160, 28303.00
809.7560, 28199.00
810.8970, 28139.00
812.0370, 28306.00
813.1770, 28194.00
814.3170, 28504.00
815.4570, 28427.00
816.5960, 28364.00
817.7360, 28409.00
818.8750, 28614.00
820.0140, 28472.51
821.1530, 28544.49
822.2920, 28367.00
823.4310, 28468.00
824.5690, 28503.00
825.7070, 28390.00
826.8460, 28572.00
827.9840, 28570.00
829.1220, 28348.00
830.2590, 28593.00
831.3970, 28512.00
832.5340, 28689.00
833.6710, 28442.00
834.8080, 28638.93
835.9450, 28486.95
837.0820, 28789.00
838.2190, 28470.00
839.3550, 28278.00
840.4910, 28728.00
841.6270, 28425.00
842.7630, 28370.00
843.8990, 28455.00
845.0350, 28347.63
846.1700, 28313.93
847.3060, 28459.00
848.4410, 28309.00
849.5760, 28501.00
850.7100, 28824.00
851.8450, 28411.00
852.9800, 28372.72
854.1140, 28665.64
855.2480, 28837.64
856.3820, 28895.21
857.5160, 28495.61
858.6500, 28686.35
859.7830, 28640.49
860.9170, 28584.95
862.0500, 28858.75
863.1830, 28525.63
864.3160, 28794.22
865.4480, 28822.60
866.5810, 28960.92
867.7130, 28861.19
868.8460, 28835.00
869.9780, 29046.90
871.1100, 29126.96
872.2410, 28999.82
873.3730, 29145.11
874.5050, 28803.66
875.6360, 28889.33
876.7670, 29159.27
877.8980, 28976.89
879.0290, 28922.00
880.1590, 28918.00
881.2900, 29266.00
882.4200, 29165.00
883.5500, 29403.00
884.6800, 29607.00
885.8100, 29113.00
886.9400, 29157.00
888.0690, 29076.00
889.1990, 29448.00
890.3280, 29255.00
891.4570, 29369.00
892.5860, 29187.00
893.7140, 29305.00
894.8430, 29364.00
895.9710, 29400.00
897.1000, 29530.00
898.2280, 29329.00
899.3560, 29755.00
900.4830, 29439.00
901.6110, 30162.00
902.7380, 29789.00
903.8660, 29692.00
904.9930, 29737.00
906.1200, 29956.00
907.2460, 30214.00
908.3730, 30018.00
909.5000, 30402.00
910.6260, 30293.34
911.7520, 30287.62
912.8780, 30224.00
914.0040, 30205.00
915.1290, 30170.00
916.2550, 30141.00
917.3800, 30369.00
918.5050, 30582.00
919.6300, 30526.00
920.7550, 30284.00
921.8800, 30418.00
923.0040, 30323.19
924.1290, 30713.00
925.2530, 30386.00
926.3770, 30449.00
927.5010, 30616.00
928.6250, 30572.00
929.7480, 30893.00
930.8720, 30738.00
931.9950, 31146.00
933.1180, 30752.52
934.2410, 31088.67
935.3640, 31303.88
936.4860, 31404.62
937.6090, 31048.24
938.7310, 31282.15
939.8530, 31279.47
940.9750, 31267.10
942.0970, 31584.09
943.2180, 31294.10
944.3400, 31605.87
945.4610, 31677.39
946.5820, 31858.85
947.7030, 31802.27
948.8240, 31653.00
949.9450, 31629.18
951.0650, 31915.00
952.1860, 31866.00
953.3060, 31873.00
954.4260, 32028.00
955.5460, 32026.00
956.6650, 32056.19
957.7850, 32043.00
958.9040, 32070.00
960.0230, 32321.00
961.1420, 32354.00
962.2610, 32515.00
963.3800, 32244.00
964.4990, 32259.00
965.6170, 32186.00
966.7350, 32462.00
967.8530, 32180.00
968.9710, 32260.00
970.0890, 31966.00
971.2070, 32384.00
972.3240, 32499.00
973.4410, 32430.43
974.5580, 32844.00
975.6750, 32432.00
976.7920, 32448.00
977.9090, 32475.00
979.0250, 32560.00
980.1410, 32545.00
981.2580, 32487.00
982.3740, 32499.00
983.4890, 32559.00
984.6050, 32873.00
985.7200, 32568.00
986.8360, 32841.00
987.9510, 32985.74
989.0660, 32867.81
990.1810, 33386.00
991.2950, 32788.00
992.4100, 32881.00
993.5240, 32775.00
994.6390, 32882.00
995.7530, 32847.00
996.8660, 32959.00
997.9800, 32932.00
999.0940, 32801.00
1000.207, 33016.00
1001.320, 32672.06
1002.433, 32942.56
1003.546, 33092.13
1004.659, 33127.28
1005.772, 32705.26
1006.884, 32873.57
1007.996, 32805.31
1009.108, 32727.35
1010.220, 32978.75
1011.332, 32623.23
1012.444, 32869.41
1013.555, 32875.41
1014.666, 32991.33
1015.777, 32869.22
1016.888, 32820.63
1017.999, 33010.15
1019.110, 33067.83
1020.220, 32918.32
1021.331, 33041.23
1022.441, 32677.41
1023.551, 32740.70
1024.661, 32988.29
1025.770, 32850.75
1026.880, 32978.02
1027.989, 33004.44
1029.098, 32782.00
1030.207, 32677.00
1031.316, 32575.00
1032.425, 32559.00
1033.533, 32719.00
1034.642, 32765.00
1035.750, 32562.00
1036.858, 32909.00
1037.966, 32948.00
1039.073, 32833.00
1040.181, 33042.00
1041.288, 32790.00
1042.396, 33103.00
1043.503, 32976.00
1044.610, 33003.00
1045.716, 33219.00
1046.823, 33098.88
1047.929, 33278.00
1049.036, 32983.00
1050.142, 33372.00
1051.248, 33175.00
1052.353, 33231.00
1053.459, 33199.02
1054.564, 33512.96
1055.670, 33706.02
1056.775, 33784.61
1057.880, 33406.04
1058.985, 33617.80
1060.089, 33592.94
1061.194, 33558.42
1062.298, 33853.23
1063.402, 33541.11
1064.506, 33830.70
1065.610, 33880.09
1066.713, 33894.00
1067.817, 33722.00
1068.920, 33745.82
1070.023, 33799.00
1071.126, 33763.00
1072.229, 33786.00
1073.332, 33927.00
1074.435, 33957.00
1075.537, 33843.00
1076.639, 33896.92
1077.741, 33827.04
1078.843, 33768.00
1079.945, 33780.00
1081.046, 33586.00
1082.148, 33664.42
1083.249, 33515.36
1084.350, 33337.43
1085.451, 33576.93
1086.551, 33695.55
1087.652, 33699.70
1088.752, 33246.72
1089.853, 33384.04
1090.953, 33284.81
1092.053, 33175.88
1093.152, 33396.35
1094.252, 33009.87
1095.351, 33225.11
1096.451, 33200.13
1097.550, 33285.12
1098.649, 33132.07
1099.748, 33052.54
1100.846, 32947.00
1101.945, 32945.00
1103.043, 32781.00
1104.141, 32680.00
1105.239, 32661.54
1106.337, 32595.00
1107.434, 32611.00
1108.532, 32580.00
1109.629, 32313.38
1110.726, 32544.00
1111.823, 32653.69
1112.920, 32648.95
1114.017, 32187.05
1115.113, 32315.52
1116.210, 32207.38
1117.306, 32089.57
1118.402, 32301.13
1119.498, 31905.76
1120.593, 32112.13
1121.689, 32078.28
1122.784, 32154.39
1123.879, 31992.46
1124.974, 31904.06
1126.069, 32053.78
1127.164, 32071.64
1128.259, 31882.31
1129.353, 31965.45
1130.447, 31561.85
1131.541, 31472.00
1132.635, 31467.00
1133.729, 31410.00
1134.822, 31469.00
1135.916, 31352.00
1137.009, 31265.00
1138.102, 31226.54
1139.195, 31102.00
1140.288, 31066.00
1141.380, 31147.00
1142.473, 31062.00
1143.565, 30881.00
1144.657, 31097.00
1145.749, 30827.00
1146.841, 30648.00
1147.932, 30845.00
1149.024, 30934.00
1150.115, 30947.00
1151.206, 30845.00
1152.297, 30630.00
1153.388, 30621.00
1154.479, 30479.00
1155.569, 30524.00
1156.659, 30374.00
1157.750, 30454.00
1158.839, 30347.00
1159.929, 30242.00
1161.019, 30150.00
1162.108, 29880.43
1163.198, 30139.41
1164.287, 30277.49
1165.376, 30301.13
1166.465, 29867.61
1167.553, 30024.43
1168.642, 29944.67
1169.730, 29855.21
1170.818, 30095.13
1171.906, 29728.12
1172.994, 29962.81
1174.082, 30131.00
1175.170, 29795.00
1176.257, 29683.00
1177.344, 29731.00
1178.431, 29856.00
1179.518, 29890.00
1180.605, 29731.00
1181.691, 29800.00
1182.778, 29665.00
1183.864, 29919.00
1184.950, 29670.00
1186.036, 29460.00
1187.122, 29688.00
1188.207, 29217.58
1189.292, 29511.01
1190.378, 29683.52
1191.463, 29741.59
1192.548, 29342.49
1193.632, 29533.71
1194.717, 29488.37
1195.801, 29133.09
1196.886, 29390.90
1197.970, 29527.79
1199.054, 29550.25
1200.137, 29115.57
1201.221, 29271.20
1202.305, 29190.25
1203.388, 29099.62
1204.471, 29338.35
1205.554, 28970.16
1206.637, 29203.67
1207.719, 29197.01
1208.802, 29300.25
1209.884, 29165.48
1210.966, 29104.23
1212.048, 29281.10
1213.130, 29269.00
1214.212, 29116.00
1215.293, 29205.00
1216.374, 29351.00
1217.456, 29067.00
1218.536, 29148.19
1219.617, 28978.42
1220.698, 29013.00
1221.778, 29028.00
1222.859, 28965.32
1223.939, 29070.04
1225.019, 28991.97
1226.099, 29200.00
1227.178, 29020.00
1228.258, 28995.20
1229.337, 29259.00
1230.417, 29077.00
1231.496, 29075.00
1232.574, 29256.00
1233.653, 29104.00
1234.732, 29138.00
1235.810, 29275.00
1236.888, 29202.00
1237.966, 29249.42
1239.044, 28889.00
1240.122, 29232.00
1241.199, 29068.98
1242.277, 29041.00
1243.354, 29192.00
1244.431, 28959.00
1245.508, 28965.00
1246.585, 29107.00
1247.661, 28940.00
1248.738, 28963.00
1249.814, 29136.00
1250.890, 28828.26
1251.966, 29105.24
1253.042, 29261.30
1254.117, 29302.94
1255.193, 28887.40
1256.268, 29062.20
1257.343, 29000.42
1258.418, 28928.94
1259.493, 29186.82
1260.567, 28837.79
1261.642, 29090.45
1262.716, 29102.92
1263.790, 29225.32
1264.864, 29109.68
1265.938, 29067.56
1267.011, 29263.56
1268.085, 29327.71
1269.158, 29184.67
1270.231, 29314.06
1271.304, 28956.71
1272.377, 29026.47
1273.450, 29280.53
1274.522, 29149.45
1275.594, 29283.19
1276.666, 29316.07
1277.738, 28890.62
1278.810, 29262.26
1279.882, 29289.18
1280.953, 28962.15
1282.025, 29306.49
1283.096, 29028.25
1284.167, 28972.23
1285.238, 29026.00
1286.308, 29054.38
1287.379, 29156.00
1288.449, 29061.00
1289.519, 28966.00
1290.589, 28897.75
1291.659, 29026.00
1292.729, 28733.00
1293.798, 28581.00
1294.868, 28457.00
1295.937, 28888.00
1297.006, 28917.00
1298.075, 28871.00
1299.143, 28717.00
1300.212, 28690.00
1301.280, 28765.00
1302.348, 28961.00
1303.416, 28913.00
1304.484, 28995.00
1305.552, 29000.00
1306.620, 29090.00
1307.687, 29099.00
1308.754, 29116.63
1309.821, 29236.00
1310.888, 29161.00
1311.955, 29134.00
1313.021, 29219.00
1314.088, 29080.00
1315.154, 29271.00
1316.220, 29135.00
1317.286, 29133.00
1318.352, 29244.00
1319.417, 29183.00
1320.483, 29368.00
1321.548, 29108.39
1322.613, 29392.62
1323.678, 29555.91
1324.743, 29604.78
1325.807, 29196.48
1326.872, 29378.51
1327.936, 29323.96
1329.000, 29259.71
1330.064, 29524.83
1331.128, 29183.02
1332.191, 29442.90
1333.255, 29462.60
1334.318, 29592.23
1335.381, 29483.81
1336.444, 29448.92
1337.507, 29652.14
1338.569, 29723.51
1339.632, 29587.69
1340.694, 29724.29
1341.756, 29374.15
1342.818, 29451.14
1343.880, 29712.41
1344.941, 29588.54
1346.003, 29729.50
1347.064, 29769.59
1348.125, 29351.34
1349.186, 29730.20
1350.247, 29764.33
1351.308, 29444.51
1352.368, 29796.04
1353.428, 29525.01
1354.489, 29476.20
1355.549, 29594.62
1356.608, 29538.70
1357.668, 29757.64
1358.727, 29711.79
1359.787, 29642.28
1360.846, 29676.01
1361.905, 29417.18
1362.964, 29701.11
1364.022, 29614.28
1365.081, 29711.76
1366.139, 29850.99
1367.197, 29670.38
1368.255, 29828.38
1369.313, 29461.27
1370.371, 29533.54
1371.428, 29558.49
1372.486, 29864.29
1373.543, 29499.73
1374.600, 29559.79
1375.657, 29800.64
1376.713, 29788.51
1377.770, 29882.16
1378.826, 29662.68
1379.882, 29575.00
1380.938, 29585.53
1381.994, 29778.00
1383.050, 29703.00
1384.106, 29805.00
1385.161, 29702.00
1386.216, 29294.75
1387.271, 29576.64
1388.326, 29737.61
1389.381, 29784.13
1390.435, 29373.50
1391.490, 29553.20
1392.544, 29496.31
1393.598, 29429.73
1394.652, 29692.51
1395.705, 29348.36
1396.759, 29605.91
1397.812, 29623.28
1398.866, 29750.57
1399.919, 29639.82
1400.972, 29602.60
1402.024, 29803.48
1403.077, 29872.53
1404.129, 29734.37
1405.181, 29868.64
1406.233, 29516.17
1407.285, 29590.83
1408.337, 29849.77
1409.389, 29723.58
1410.440, 29862.20
1411.491, 29899.96
1412.542, 29479.38
1413.593, 29855.91
1414.644, 29887.71
1415.695, 29565.56
1416.745, 29914.77
1417.795, 29641.41
1418.845, 29590.27
1419.895, 29706.37
1420.945, 29648.12
1421.995, 29864.74
1423.044, 29816.56
1424.093, 29744.72
1425.142, 29776.13
1426.191, 29514.97
1427.240, 29796.58
1428.289, 29707.43
1429.337, 29802.57
1430.385, 29704.46
1431.433, 29958.80
1432.481, 30092.21
1433.529, 30111.19
1434.577, 29673.01
1435.624, 29825.18
1436.672, 29740.75
1437.719, 29646.64
1438.766, 29881.90
1439.812, 29510.25
1440.859, 29740.29
1441.905, 29730.15
1442.952, 29829.93
1443.998, 29691.68
1445.044, 29626.96
1446.090, 29800.35
1447.135, 29841.92
1448.181, 29676.27
1449.226, 29783.08
1450.271, 29403.14
1451.316, 29450.32
1452.361, 29681.79
