##NAMES=Braunite
##RRUFFID=R050390
##IDEAL CHEMISTRY=Mn^2+^Mn^3+^_6_SiO_12_
##LOCALITY=Oehrenstock, Thuringia, Germany
##OWNER=RRUFF
##SOURCE=University of Arizona Mineral Museum
##DESCRIPTION=Mass of black octahedra
##STATUS=The identification of this mineral has been confirmed by X-ray diffraction and chemical analysis
##URL=rruff.info/R050390
##MEASURED CHEMISTRY=(Mn^2+^_0.83_Ca_0.17_)_Î£=1_Mn^3+^_6.00_Si_1.00_O_12_
##PIN_ID=M00380
##ORIENTATION=Laser parallel to c* (0 0 1). Fiducial mark perpendicular to laser is parallel to a [1 0 0]
298.6930, 30428.00
299.9020, 30410.00
301.1110, 30198.00
302.3190, 30355.00
303.5270, 30446.00
304.7350, 30443.00
305.9430, 30527.00
307.1510, 30514.00
308.3580, 30557.21
309.5660, 30582.00
310.7730, 30640.00
311.9800, 30361.00
313.1870, 30420.00
314.3940, 30484.00
315.6010, 30337.00
316.8070, 30775.00
318.0130, 30546.00
319.2200, 30598.00
320.4260, 30913.00
321.6310, 30655.00
322.8370, 31117.00
324.0430, 31137.00
325.2480, 31295.00
326.4540, 31211.00
327.6590, 31595.00
328.8640, 31590.00
330.0680, 31686.00
331.2730, 31827.00
332.4780, 31901.62
333.6820, 32050.00
334.8860, 32137.00
336.0900, 32174.00
337.2940, 32265.00
338.4980, 32187.00
339.7010, 32217.66
340.9050, 32231.71
342.1080, 32245.00
343.3110, 32220.00
344.5140, 32198.59
345.7170, 32186.37
346.9200, 32103.00
348.1220, 32094.00
349.3240, 32016.34
350.5270, 31953.53
351.7290, 31928.00
352.9310, 31821.00
354.1320, 31731.00
355.3340, 31680.00
356.5350, 31558.87
357.7370, 31593.00
358.9380, 31329.00
360.1390, 31493.00
361.3400, 31358.00
362.5400, 31529.00
363.7410, 31565.00
364.9410, 31521.00
366.1410, 31525.00
367.3410, 31418.00
368.5410, 31612.00
369.7410, 31448.00
370.9400, 31726.00
372.1400, 31622.00
373.3390, 31795.00
374.5380, 31660.00
375.7370, 31651.00
376.9360, 31747.00
378.1350, 31719.00
379.3330, 31878.00
380.5310, 31771.00
381.7300, 31897.00
382.9280, 31768.00
384.1260, 31630.00
385.3230, 32024.00
386.5210, 31739.00
387.7180, 31536.00
388.9160, 31637.00
390.1130, 31874.00
391.3100, 31801.00
392.5060, 31997.97
393.7030, 31968.00
394.9000, 32109.00
396.0960, 31835.00
397.2920, 31570.00
398.4880, 31600.00
399.6840, 31755.00
400.8800, 31509.00
402.0750, 31822.00
403.2710, 31591.00
404.4660, 31467.00
405.6610, 31455.00
406.8560, 31554.00
408.0510, 31497.81
409.2450, 31689.00
410.4400, 31614.00
411.6340, 31588.00
412.8280, 31820.00
414.0220, 31571.00
415.2160, 31441.00
416.4100, 31754.00
417.6030, 31731.00
418.7970, 31497.00
419.9900, 31626.00
421.1830, 31574.00
422.3760, 31731.00
423.5690, 32116.00
424.7610, 32322.00
425.9540, 31945.00
427.1460, 31975.00
428.3380, 31718.00
429.5300, 32090.00
430.7220, 32036.00
431.9140, 32148.00
433.1050, 31993.00
434.2970, 32398.00
435.4880, 32326.00
436.6790, 32055.00
437.8700, 32359.00
439.0610, 31969.00
440.2510, 31963.00
441.4420, 32077.19
442.6320, 32335.00
443.8220, 32388.00
445.0120, 32267.00
446.2020, 32690.00
447.3910, 32343.00
448.5810, 32325.00
449.7700, 32468.00
450.9600, 32461.00
452.1490, 32872.00
453.3370, 32849.00
454.5260, 33081.00
455.7150, 32882.00
456.9030, 32762.00
458.0910, 33073.00
459.2800, 32945.00
460.4670, 33186.00
461.6550, 33119.00
462.8430, 33246.00
464.0300, 33008.00
465.2180, 33370.00
466.4050, 33409.25
467.5920, 33544.00
468.7790, 33661.00
469.9650, 33413.00
471.1520, 33293.98
472.3380, 33451.22
473.5250, 33783.00
474.7110, 33805.00
475.8970, 33596.00
477.0820, 33925.00
478.2680, 33854.00
479.4540, 34073.00
480.6390, 33967.00
481.8240, 34230.00
483.0090, 34261.04
484.1940, 34381.00
485.3780, 34453.00
486.5630, 34554.00
487.7470, 34735.00
488.9320, 34681.57
490.1160, 34639.00
491.3000, 34641.00
492.4830, 34926.00
493.6670, 34990.00
494.8500, 34663.00
496.0340, 34968.00
497.2170, 34819.00
498.4000, 34921.00
499.5820, 34874.00
500.7650, 34741.00
501.9480, 35186.00
503.1300, 35065.00
504.3120, 35319.00
505.4940, 35256.00
506.6760, 35373.48
507.8580, 35429.36
509.0390, 35636.00
510.2210, 35575.00
511.4020, 35792.00
512.5830, 36055.00
513.7640, 36088.00
514.9450, 36112.00
516.1250, 36138.00
517.3060, 36141.47
518.4860, 36388.00
519.6660, 36250.00
520.8460, 36396.00
522.0260, 36701.00
523.2060, 36470.00
524.3850, 36366.00
525.5650, 36407.00
526.7440, 36423.00
527.9230, 36082.00
529.1020, 36290.00
530.2810, 36107.00
531.4590, 35864.00
532.6380, 36017.00
533.8160, 35907.00
534.9940, 35687.00
536.1720, 36055.00
537.3500, 36088.00
538.5270, 35540.00
539.7050, 35222.00
540.8820, 35304.00
542.0590, 35186.00
543.2360, 35323.00
544.4130, 35359.00
545.5900, 35275.00
546.7660, 35177.00
547.9430, 35145.00
549.1190, 35093.00
550.2950, 35182.00
551.4710, 35308.00
552.6470, 35194.00
553.8220, 35032.00
554.9980, 35211.00
556.1730, 35106.00
557.3480, 35488.00
558.5230, 35238.00
559.6980, 35342.00
560.8730, 35389.00
562.0470, 35382.00
563.2220, 35377.00
564.3960, 35240.00
565.5700, 35255.00
566.7440, 35595.00
567.9170, 35627.68
569.0910, 35930.61
570.2640, 36107.29
571.4380, 36164.50
572.6110, 35744.41
573.7840, 35940.65
574.9570, 35889.89
576.1290, 35828.99
577.3020, 36111.97
578.4740, 35761.29
579.6460, 36038.80
580.8180, 35334.53
581.9900, 34891.00
583.1620, 34512.00
584.3330, 34790.00
585.5040, 34582.00
586.6760, 34387.00
587.8470, 34146.00
589.0180, 34362.00
590.1880, 34281.00
591.3590, 34561.00
592.5290, 34498.00
593.7000, 34608.00
594.8700, 34539.00
596.0400, 34544.00
597.2090, 34710.00
598.3790, 34557.00
599.5490, 34714.00
600.7180, 34916.00
601.8870, 34678.00
603.0560, 34839.00
604.2250, 35056.00
605.3940, 35067.00
606.5620, 35127.00
607.7300, 35203.00
608.8990, 35408.00
610.0670, 35481.00
611.2350, 35674.00
612.4020, 36108.00
613.5700, 36159.00
614.7370, 36583.00
615.9050, 36718.00
617.0720, 36994.00
618.2390, 37301.00
619.4060, 37473.00
620.5720, 37985.00
621.7390, 38448.00
622.9050, 38647.00
624.0710, 38710.00
625.2370, 39002.00
626.4030, 39346.00
627.5690, 39491.00
628.7340, 39685.61
629.9000, 39634.00
631.0650, 39873.00
632.2300, 39844.00
633.3950, 39815.00
634.5600, 39966.00
635.7240, 39749.00
636.8890, 39725.00
638.0530, 39228.00
639.2170, 39042.00
640.3810, 39124.00
641.5450, 40611.00
642.7080, 39189.00
643.8720, 40618.00
645.0350, 37820.00
646.1980, 37293.00
647.3610, 37272.00
648.5240, 36931.00
649.6870, 37098.00
650.8490, 36867.00
652.0120, 36874.00
653.1740, 36198.00
654.3360, 36271.00
655.4980, 35711.00
656.6600, 35694.00
657.8210, 35583.47
658.9830, 35376.64
660.1440, 35470.00
661.3050, 35264.00
662.4660, 35225.00
663.6270, 35293.00
664.7870, 35269.00
665.9480, 35066.00
667.1080, 35256.00
668.2680, 35147.52
669.4280, 35128.00
670.5880, 35198.00
671.7480, 34982.00
672.9070, 35144.00
674.0670, 34985.00
675.2260, 35055.00
676.3850, 35225.00
677.5440, 34995.00
678.7030, 35014.00
679.8610, 35159.00
681.0200, 35256.00
682.1780, 35207.00
683.3360, 35476.00
684.4940, 35333.00
685.6520, 35628.27
686.8090, 35658.00
687.9670, 35963.00
689.1240, 36020.18
690.2810, 35808.00
691.4380, 35836.00
692.5950, 36142.00
693.7520, 35978.00
694.9080, 36076.00
696.0650, 36559.00
697.2210, 36414.00
698.3770, 36670.00
699.5330, 36593.00
700.6880, 36391.00
701.8440, 36446.00
702.9990, 36815.00
704.1550, 36441.00
705.3100, 36611.00
706.4650, 36318.00
707.6190, 36249.85
708.7740, 36306.00
709.9290, 35957.00
711.0830, 36147.00
712.2370, 35775.00
713.3910, 35793.00
714.5450, 35657.00
715.6980, 35272.00
716.8520, 35415.00
718.0050, 35137.00
719.1580, 35095.00
720.3110, 34831.00
721.4640, 34747.00
722.6170, 34610.00
723.7700, 34484.00
724.9220, 34271.00
726.0740, 34195.00
727.2260, 34044.00
728.3780, 34162.00
729.5300, 33680.00
730.6810, 33772.00
731.8330, 33907.00
732.9840, 33554.00
734.1350, 33511.00
735.2860, 33485.00
736.4370, 33508.00
737.5880, 33591.00
738.7380, 33536.00
739.8880, 33402.00
741.0390, 33195.00
742.1890, 33172.19
743.3380, 33447.64
744.4880, 33596.82
745.6380, 33626.54
746.7870, 33178.96
747.9360, 33347.72
749.0850, 33269.48
750.2340, 33181.11
751.3830, 33436.61
752.5310, 33058.48
753.6800, 33308.52
754.8280, 33307.82
755.9760, 33421.88
757.1240, 33287.42
758.2720, 33229.73
759.4190, 33420.64
760.5670, 33238.00
761.7140, 33700.00
762.8610, 33792.00
764.0080, 33168.00
765.1550, 32878.00
766.3020, 33133.00
767.4480, 33179.00
768.5950, 33022.00
769.7410, 33412.00
770.8870, 33104.21
772.0330, 32928.00
773.1780, 32795.00
774.3240, 33255.00
775.4690, 33316.00
776.6140, 32895.00
777.7590, 33042.00
778.9040, 32812.00
780.0490, 33113.00
781.1940, 32749.00
782.3380, 32962.00
783.4820, 32893.00
784.6260, 32879.00
785.7700, 33124.00
786.9140, 32959.00
788.0580, 32872.00
789.2010, 32939.00
790.3450, 32843.00
791.4880, 32938.00
792.6310, 32917.79
793.7730, 32899.57
794.9160, 32945.00
796.0590, 32900.00
797.2010, 32943.00
798.3430, 32998.00
799.4850, 32888.00
800.6270, 33027.00
801.7690, 32984.00
802.9100, 32607.00
804.0520, 32532.00
805.1930, 32590.03
806.3340, 32603.05
807.4750, 32773.00
808.6160, 32957.00
809.7560, 32960.00
810.8970, 33135.00
812.0370, 33012.00
813.1770, 33097.00
814.3170, 32864.00
815.4570, 33104.00
816.5960, 33365.00
817.7360, 32935.00
818.8750, 33080.00
820.0140, 33097.00
821.1530, 33057.00
822.2920, 33284.00
823.4310, 33180.30
824.5690, 33249.00
825.7070, 33140.00
826.8460, 33282.00
827.9840, 33327.00
829.1220, 33240.00
830.2590, 33195.00
831.3970, 33281.00
832.5340, 33353.00
833.6710, 33302.00
834.8080, 33435.40
835.9450, 33205.00
837.0820, 33514.00
838.2190, 33488.00
839.3550, 33296.00
840.4910, 33413.00
841.6270, 33288.00
842.7630, 33244.00
843.8990, 33351.00
845.0350, 33442.00
846.1700, 33403.00
847.3060, 33530.00
848.4410, 33302.00
849.5760, 33614.00
850.7100, 33236.00
851.8450, 33425.00
852.9800, 33451.97
854.1140, 33588.00
855.2480, 33506.00
856.3820, 33492.00
857.5160, 33380.00
858.6500, 33338.00
859.7830, 33644.00
860.9170, 33814.00
862.0500, 33714.79
863.1830, 33522.00
864.3160, 33495.00
865.4480, 33687.00
866.5810, 33493.00
867.7130, 33679.00
868.8460, 33526.00
869.9780, 33539.00
871.1100, 33623.00
872.2410, 33588.00
873.3730, 33522.00
874.5050, 33478.00
875.6360, 33479.05
876.7670, 33490.46
877.8980, 33600.00
879.0290, 33632.00
880.1590, 33922.00
881.2900, 34135.00
882.4200, 34549.00
883.5500, 34148.00
884.6800, 33698.00
885.8100, 33535.00
886.9400, 33574.25
888.0690, 34069.00
889.1990, 34002.00
890.3280, 33926.00
891.4570, 34215.00
892.5860, 33941.00
893.7140, 33841.00
894.8430, 33874.00
895.9710, 33884.00
897.1000, 33930.00
898.2280, 33889.00
899.3560, 34014.00
900.4830, 33830.00
901.6110, 34204.00
902.7380, 34165.00
903.8660, 34186.00
904.9930, 33990.00
906.1200, 33859.00
907.2460, 34365.00
908.3730, 34098.00
909.5000, 34220.00
910.6260, 34392.00
911.7520, 34303.00
912.8780, 34366.00
914.0040, 34433.00
915.1290, 34470.00
916.2550, 34152.00
917.3800, 34497.00
918.5050, 34355.00
919.6300, 34477.42
920.7550, 34592.00
921.8800, 34636.00
923.0040, 34801.00
924.1290, 34644.00
925.2530, 34586.00
926.3770, 34641.89
927.5010, 34935.00
928.6250, 34627.00
929.7480, 34904.00
930.8720, 34835.00
931.9950, 34721.00
933.1180, 34773.00
934.2410, 34913.00
935.3640, 35137.00
936.4860, 34875.00
937.6090, 34910.00
938.7310, 35155.00
939.8530, 34871.00
940.9750, 35263.00
942.0970, 35304.00
943.2180, 35147.00
944.3400, 35330.00
945.4610, 35407.00
946.5820, 35303.00
947.7030, 35339.00
948.8240, 35631.00
949.9450, 35688.00
951.0650, 35458.00
952.1860, 35706.00
953.3060, 35680.00
954.4260, 35730.00
955.5460, 35935.00
956.6650, 35916.00
957.7850, 35820.00
958.9040, 35936.00
960.0230, 35856.00
961.1420, 35947.48
962.2610, 36004.14
963.3800, 36079.00
964.4990, 36168.00
965.6170, 36145.00
966.7350, 36261.00
967.8530, 36155.00
968.9710, 36188.43
970.0890, 36151.61
971.2070, 36155.00
972.3240, 36182.00
973.4410, 36152.00
974.5580, 36241.25
975.6750, 36379.00
976.7920, 36362.00
977.9090, 36440.00
979.0250, 36399.00
980.1410, 36378.00
981.2580, 36564.00
982.3740, 36235.00
983.4890, 36461.00
984.6050, 36370.00
985.7200, 36420.00
986.8360, 36435.00
987.9510, 36441.00
989.0660, 36425.70
990.1810, 36433.00
991.2950, 36413.00
992.4100, 36360.00
993.5240, 36471.00
994.6390, 36356.00
995.7530, 36449.00
996.8660, 36451.00
997.9800, 36488.00
999.0940, 36497.00
1000.207, 36605.00
1001.320, 36690.00
1002.433, 36249.00
1003.546, 36564.00
1004.659, 36393.00
1005.772, 36494.00
1006.884, 36554.00
1007.996, 36322.00
1009.108, 36391.00
1010.220, 36688.00
1011.332, 36505.46
1012.444, 36930.00
1013.555, 36391.00
1014.666, 36505.81
1015.777, 36488.57
1016.888, 36478.00
1017.999, 36315.00
1019.110, 36571.00
1020.220, 36267.00
1021.331, 36310.00
1022.441, 36434.00
1023.551, 36279.00
1024.661, 36483.00
1025.770, 36437.00
1026.880, 36597.00
1027.989, 36462.00
1029.098, 36500.00
1030.207, 36537.00
1031.316, 36452.36
1032.425, 36688.00
1033.533, 36453.00
1034.642, 36360.00
1035.750, 36541.00
1036.858, 36388.00
1037.966, 36423.73
1039.073, 36438.20
1040.181, 36452.00
1041.288, 36431.00
1042.396, 36569.00
1043.503, 36587.00
1044.610, 36768.00
1045.716, 36729.00
1046.823, 36738.00
1047.929, 37152.00
1049.036, 36777.00
1050.142, 36806.00
1051.248, 36787.00
1052.353, 37165.00
1053.459, 36882.00
1054.564, 36850.00
1055.670, 37016.00
1056.775, 36842.42
1057.880, 37115.26
1058.985, 36735.00
1060.089, 37373.00
1061.194, 37294.00
1062.298, 36978.00
1063.402, 37094.00
1064.506, 37049.00
1065.610, 36864.00
1066.713, 37227.00
1067.817, 37063.88
1068.920, 36912.00
1070.023, 37121.00
1071.126, 37106.00
1072.229, 37274.00
1073.332, 37025.00
1074.435, 37357.00
1075.537, 36945.00
1076.639, 36940.00
1077.741, 36935.00
1078.843, 37217.00
1079.945, 36870.00
1081.046, 36966.00
1082.148, 37142.00
1083.249, 36913.00
1084.350, 36644.00
1085.451, 36914.00
1086.551, 36770.00
1087.652, 36980.00
1088.752, 36720.00
1089.853, 36784.00
1090.953, 36984.00
1092.053, 36918.00
1093.152, 36791.00
1094.252, 36690.00
1095.351, 36664.00
1096.451, 36568.50
1097.550, 36612.00
1098.649, 36504.00
1099.748, 36462.00
1100.846, 36543.00
1101.945, 36537.00
1103.043, 36669.00
1104.141, 36661.00
1105.239, 36541.00
1106.337, 36158.71
1107.434, 36421.54
1108.532, 36558.09
1109.629, 36575.19
1110.726, 36115.00
1111.823, 36271.14
1112.920, 36180.28
1114.017, 36079.29
1115.113, 36322.20
1116.210, 35931.43
1117.306, 36168.88
1118.402, 36155.57
1119.498, 36257.02
1120.593, 36109.98
1121.689, 36039.67
1122.784, 36217.99
1123.879, 36258.66
1124.974, 36083.00
1126.069, 36191.78
1127.164, 35792.38
1128.259, 35838.90
1129.353, 36077.85
1130.447, 35914.72
1131.541, 36028.06
1132.635, 36036.11
1133.729, 35670.00
1134.822, 35435.00
1135.916, 35453.30
1137.009, 35486.00
1138.102, 35269.00
1139.195, 35416.00
1140.288, 35424.00
1141.380, 35351.00
1142.473, 35367.00
1143.565, 35486.00
1144.657, 35307.00
1145.749, 35274.00
1146.841, 35336.00
1147.932, 35139.00
1149.024, 35260.00
1150.115, 35399.00
1151.206, 35322.00
1152.297, 35295.56
1153.388, 35574.00
1154.479, 35106.00
1155.569, 34952.00
1156.659, 34968.00
1157.750, 35238.00
1158.839, 35054.00
1159.929, 35189.00
1161.019, 34977.00
1162.108, 35435.00
1163.198, 35341.79
1164.287, 35220.44
1165.376, 35333.00
1166.465, 34983.00
1167.553, 34694.00
1168.642, 34808.00
1169.730, 34787.00
1170.818, 34779.40
1171.906, 34873.00
1172.994, 34756.00
1174.082, 35012.00
1175.170, 34703.65
1176.257, 34905.00
1177.344, 34533.00
1178.431, 34910.00
1179.518, 34703.00
1180.605, 34938.00
1181.691, 34671.00
1182.778, 34681.00
1183.864, 34569.00
1184.950, 34531.20
1186.036, 34550.58
1187.122, 34572.00
1188.207, 34594.00
1189.292, 34622.30
1190.378, 34641.70
1191.463, 34667.77
1192.548, 34677.41
1193.632, 34667.00
1194.717, 34666.00
1195.801, 34944.00
1196.886, 35116.00
1197.970, 34569.00
1199.054, 34479.00
1200.137, 34855.00
1201.221, 34631.11
1202.305, 34640.20
1203.388, 34805.00
1204.471, 34453.00
1205.554, 34516.00
1206.637, 34481.00
1207.719, 34621.00
1208.802, 34575.00
1209.884, 34658.00
1210.966, 34566.00
1212.048, 34500.81
1213.130, 34715.00
1214.212, 34426.00
1215.293, 34450.00
1216.374, 34716.00
1217.456, 34933.00
1218.536, 34485.00
1219.617, 34302.00
1220.698, 34402.00
1221.778, 34255.00
1222.859, 34587.00
1223.939, 34190.00
1225.019, 34139.00
1226.099, 34929.00
1227.178, 34453.00
1228.258, 34820.00
1229.337, 34160.00
1230.417, 34595.00
1231.496, 34493.00
1232.574, 34589.00
1233.653, 34330.00
1234.732, 34364.00
1235.810, 34392.00
1236.888, 34336.00
1237.966, 34369.00
1239.044, 34364.00
1240.122, 34426.00
1241.199, 34402.15
1242.277, 34367.31
1243.354, 34490.00
1244.431, 34270.00
1245.508, 34545.00
1246.585, 34558.00
1247.661, 34238.00
1248.738, 34393.00
1249.814, 34517.00
1250.890, 34384.39
1251.966, 34254.00
1253.042, 34499.00
1254.117, 34281.00
1255.193, 34662.00
1256.268, 34460.78
1257.343, 34438.00
1258.418, 34252.00
1259.493, 34217.00
1260.567, 34238.00
1261.642, 34382.00
1262.716, 34270.09
1263.790, 34107.00
1264.864, 34193.00
1265.938, 34115.00
1267.011, 34186.66
1268.085, 34392.00
1269.158, 34229.00
1270.231, 34344.00
1271.304, 34507.00
1272.377, 34496.00
1273.450, 34609.00
1274.522, 34614.00
1275.594, 34425.00
1276.666, 34451.00
1277.738, 34426.61
1278.810, 34285.00
1279.882, 34408.00
1280.953, 34429.00
1282.025, 34332.00
1283.096, 34407.00
1284.167, 34451.00
1285.238, 34505.00
1286.308, 34448.00
1287.379, 34363.00
1288.449, 34211.00
1289.519, 34351.00
1290.589, 34230.00
1291.659, 34400.00
1292.729, 34371.00
1293.798, 34247.00
1294.868, 34431.00
1295.937, 34320.00
1297.006, 34287.00
1298.075, 34210.00
1299.143, 34180.52
1300.212, 34181.00
1301.280, 34217.00
1302.348, 34186.00
1303.416, 34364.00
1304.484, 34291.82
1305.552, 34419.00
1306.620, 34293.00
1307.687, 34366.00
1308.754, 34473.00
1309.821, 34194.00
1310.888, 34371.33
1311.955, 34429.00
1313.021, 34452.00
1314.088, 34570.73
1315.154, 34177.71
1316.220, 34636.00
1317.286, 34479.00
1318.352, 34316.00
1319.417, 34566.00
1320.483, 34448.00
1321.548, 34396.00
1322.613, 34491.00
1323.678, 34465.00
1324.743, 34752.00
1325.807, 34418.00
1326.872, 34662.00
1327.936, 34560.00
1329.000, 34495.00
1330.064, 34538.00
1331.128, 34565.18
1332.191, 34417.00
1333.255, 34630.83
1334.318, 34627.00
1335.381, 34402.00
1336.444, 34594.00
1337.507, 34416.00
1338.569, 34209.20
1339.632, 34499.47
1340.694, 34663.49
1341.756, 34708.04
1342.818, 34275.29
1343.880, 34458.88
1344.941, 34395.46
1346.003, 34321.92
1347.064, 34592.25
1348.125, 34228.92
1349.186, 34493.79
1350.247, 34507.90
1351.308, 34636.78
1352.368, 34517.13
1353.428, 34474.25
1354.489, 34679.96
1355.549, 34748.03
1356.608, 34599.77
1357.668, 34735.94
1358.727, 34363.93
1359.787, 34437.86
1360.846, 34704.18
1361.905, 34568.42
1362.964, 34709.13
1364.022, 34744.54
1365.081, 34301.43
1366.139, 34690.53
1367.197, 34719.72
1368.255, 34379.37
1369.313, 34739.95
1370.371, 34450.54
1371.428, 34393.14
1372.486, 34510.34
1373.543, 34445.52
1374.600, 34667.67
1375.657, 34613.37
1376.713, 34534.36
1377.770, 34563.14
1378.826, 34286.48
1379.882, 34576.49
1380.938, 34479.41
1381.994, 34574.74
1383.050, 34713.68
1384.106, 34518.69
1385.161, 34677.23
1386.216, 34287.52
1387.271, 34356.55
1388.326, 34376.18
1389.381, 34689.03
1390.435, 34301.99
1391.490, 34358.27
1392.544, 34603.32
1393.598, 34584.24
1394.652, 34675.59
1395.705, 34440.03
1396.759, 34511.57
1397.812, 34498.47
1398.866, 34777.89
1399.919, 34826.37
1400.972, 34596.35
1402.024, 34367.52
1403.077, 34667.98
1404.129, 34466.77
1405.181, 34536.20
1406.233, 34326.11
1407.285, 34357.37
1408.337, 34384.80
1409.389, 34535.96
1410.440, 34311.95
1411.491, 34574.58
1412.542, 34555.95
1413.593, 34620.17
1414.644, 34675.18
1415.695, 34352.75
1416.745, 34339.73
1417.795, 34769.42
1418.845, 34523.95
1419.895, 34414.74
1420.945, 34402.41
1421.995, 34847.27
1423.044, 34867.17
1424.093, 34379.13
1425.142, 34612.00
1426.191, 34567.00
1427.240, 34633.00
1428.289, 34669.00
1429.337, 34562.00
1430.385, 34526.00
1431.433, 34558.00
1432.481, 34550.05
1433.529, 34618.00
1434.577, 34566.00
1435.624, 34720.00
1436.672, 34581.00
1437.719, 34568.00
1438.766, 34718.00
1439.812, 34740.00
1440.859, 34990.00
1441.905, 34821.00
1442.952, 34447.00
1443.998, 35003.00
1445.044, 34676.00
1446.090, 34738.00
1447.135, 34650.00
1448.181, 34739.00
1449.226, 34882.00
1450.271, 34614.00
1451.316, 34598.00
