##NAMES=Braunite
##RRUFFID=R050390
##IDEAL CHEMISTRY=Mn^2+^Mn^3+^_6_SiO_12_
##LOCALITY=Oehrenstock, Thuringia, Germany
##OWNER=RRUFF
##SOURCE=University of Arizona Mineral Museum
##DESCRIPTION=Mass of black octahedra
##STATUS=The identification of this mineral has been confirmed by X-ray diffraction and chemical analysis
##URL=rruff.info/R050390
##MEASURED CHEMISTRY=(Mn^2+^_0.83_Ca_0.17_)_Î£=1_Mn^3+^_6.00_Si_1.00_O_12_
##PIN_ID=M00051
##ORIENTATION=Laser parallel to -a* (-1 0 0). Fiducial mark perpendicular to laser is parallel to -c [0 0 -1]
304.7350, 34600.00
305.9430, 34361.00
307.1510, 34337.00
308.3580, 34353.00
309.5660, 34422.00
310.7730, 34222.00
311.9800, 34345.00
313.1870, 34275.00
314.3940, 34063.00
315.6010, 34175.00
316.8070, 34080.00
318.0130, 34133.00
319.2200, 34241.00
320.4260, 34272.00
321.6310, 34132.00
322.8370, 34117.00
324.0430, 34261.30
325.2480, 34354.16
326.4540, 34597.00
327.6590, 34737.00
328.8640, 34895.00
330.0680, 35015.00
331.2730, 35073.00
332.4780, 35303.00
333.6820, 35357.79
334.8860, 35273.00
336.0900, 35456.00
337.2940, 35490.00
338.4980, 35327.00
339.7010, 35402.00
340.9050, 35462.00
342.1080, 35464.00
343.3110, 35525.00
344.5140, 35392.00
345.7170, 35200.00
346.9200, 35289.00
348.1220, 34998.00
349.3240, 35105.00
350.5270, 35202.00
351.7290, 34678.00
352.9310, 34559.00
354.1320, 34577.00
355.3340, 34484.00
356.5350, 34413.00
357.7370, 34446.09
358.9380, 34426.97
360.1390, 34494.00
361.3400, 34502.00
362.5400, 34541.00
363.7410, 34514.34
364.9410, 34246.00
366.1410, 34427.00
367.3410, 34324.00
368.5410, 34256.00
369.7410, 34417.00
370.9400, 34328.00
372.1400, 34559.00
373.3390, 34530.00
374.5380, 34477.00
375.7370, 34597.00
376.9360, 34676.00
378.1350, 34370.00
379.3330, 34650.00
380.5310, 34468.00
381.7300, 34674.00
382.9280, 34758.00
384.1260, 34963.00
385.3230, 34950.00
386.5210, 34849.00
387.7180, 34717.00
388.9160, 34939.00
390.1130, 34963.00
391.3100, 35176.00
392.5060, 34851.00
393.7030, 34841.00
394.9000, 34868.00
396.0960, 34987.00
397.2920, 35041.00
398.4880, 34961.00
399.6840, 34775.00
400.8800, 34936.00
402.0750, 35212.00
403.2710, 35237.00
404.4660, 35775.00
405.6610, 35025.00
406.8560, 34967.00
408.0510, 35512.00
409.2450, 35062.00
410.4400, 35784.00
411.6340, 35438.00
412.8280, 35484.00
414.0220, 35752.00
415.2160, 35659.00
416.4100, 35615.00
417.6030, 35895.00
418.7970, 35788.00
419.9900, 35882.00
421.1830, 36205.00
422.3760, 36065.00
423.5690, 36169.00
424.7610, 36157.00
425.9540, 36229.00
427.1460, 36344.00
428.3380, 36368.00
429.5300, 36497.00
430.7220, 36513.00
431.9140, 36582.00
433.1050, 36764.00
434.2970, 36773.00
435.4880, 36651.00
436.6790, 36502.00
437.8700, 36475.00
439.0610, 36489.33
440.2510, 36831.00
441.4420, 36645.00
442.6320, 36735.00
443.8220, 36843.00
445.0120, 36776.00
446.2020, 37121.00
447.3910, 37161.00
448.5810, 37521.00
449.7700, 37384.00
450.9600, 37698.00
452.1490, 37656.00
453.3370, 37780.00
454.5260, 37725.00
455.7150, 37926.00
456.9030, 37858.00
458.0910, 37980.15
459.2800, 38177.00
460.4670, 38179.00
461.6550, 38175.00
462.8430, 38272.00
464.0300, 38418.00
465.2180, 38475.34
466.4050, 38466.00
467.5920, 38715.00
468.7790, 38463.00
469.9650, 38620.00
471.1520, 38823.82
472.3380, 39296.00
473.5250, 39494.00
474.7110, 39937.00
475.8970, 40071.00
477.0820, 40322.86
478.2680, 40297.00
479.4540, 40784.00
480.6390, 40938.61
481.8240, 41318.00
483.0090, 41715.00
484.1940, 42130.00
485.3780, 42645.00
486.5630, 42755.00
487.7470, 42761.00
488.9320, 42931.00
490.1160, 42400.00
491.3000, 42371.00
492.4830, 42438.00
493.6670, 42680.00
494.8500, 42966.00
496.0340, 43103.00
497.2170, 43409.00
498.4000, 43168.00
499.5820, 43544.00
500.7650, 43790.00
501.9480, 43850.00
503.1300, 44291.00
504.3120, 44817.00
505.4940, 44604.00
506.6760, 45198.00
507.8580, 44953.00
509.0390, 44960.00
510.2210, 44789.00
511.4020, 44984.00
512.5830, 45264.00
513.7640, 45378.90
514.9450, 45956.00
516.1250, 45998.00
517.3060, 46371.00
518.4860, 46910.00
519.6660, 46968.00
520.8460, 47206.00
522.0260, 47169.00
523.2060, 46720.00
524.3850, 47218.00
525.5650, 47916.00
526.7440, 47045.00
527.9230, 47429.00
529.1020, 47182.00
530.2810, 46950.00
531.4590, 46640.00
532.6380, 47671.00
533.8160, 49064.00
534.9940, 45834.00
536.1720, 46030.00
537.3500, 47874.00
538.5270, 49154.00
539.7050, 47059.00
540.8820, 46963.00
542.0590, 47069.00
543.2360, 46642.00
544.4130, 46753.00
545.5900, 47807.00
546.7660, 47353.00
547.9430, 47982.00
549.1190, 48543.00
550.2950, 48906.00
551.4710, 49209.00
552.6470, 48859.00
553.8220, 48219.00
554.9980, 48586.00
556.1730, 48523.00
557.3480, 48949.00
558.5230, 49041.00
559.6980, 49846.00
560.8730, 49840.00
562.0470, 49485.00
563.2220, 48780.00
564.3960, 48930.00
565.5700, 48980.00
566.7440, 49047.00
567.9170, 49890.00
569.0910, 49664.00
570.2640, 49576.00
571.4380, 49225.00
572.6110, 48669.00
573.7840, 47597.00
574.9570, 47239.00
576.1290, 46537.00
577.3020, 45681.00
578.4740, 45168.00
579.6460, 43808.00
580.8180, 42810.00
581.9900, 41551.00
583.1620, 40506.00
584.3330, 39570.00
585.5040, 38451.00
586.6760, 38236.00
587.8470, 37554.00
589.0180, 37017.00
590.1880, 36980.00
591.3590, 36868.00
592.5290, 36853.00
593.7000, 36435.00
594.8700, 36366.00
596.0400, 36445.00
597.2090, 36225.00
598.3790, 36368.00
599.5490, 36310.00
600.7180, 36373.00
601.8870, 36301.00
603.0560, 36148.00
604.2250, 36285.00
605.3940, 36327.00
606.5620, 36512.00
607.7300, 36591.00
608.8990, 36777.00
610.0670, 36414.00
611.2350, 36764.00
612.4020, 36781.00
613.5700, 36937.00
614.7370, 37161.00
615.9050, 37066.00
617.0720, 37335.00
618.2390, 37432.00
619.4060, 37304.00
620.5720, 37494.00
621.7390, 37561.00
622.9050, 37806.00
624.0710, 37907.00
625.2370, 38159.00
626.4030, 38212.37
627.5690, 38239.61
628.7340, 38280.00
629.9000, 38251.00
631.0650, 38186.00
632.2300, 38317.00
633.3950, 38383.00
634.5600, 38218.79
635.7240, 37907.00
636.8890, 37980.00
638.0530, 37705.00
639.2170, 37751.00
640.3810, 37605.00
641.5450, 37624.00
642.7080, 37318.00
643.8720, 37296.00
645.0350, 36994.00
646.1980, 36883.00
647.3610, 36945.00
648.5240, 37096.00
649.6870, 36961.00
650.8490, 37064.00
652.0120, 36820.00
653.1740, 36644.00
654.3360, 36558.00
655.4980, 36492.00
656.6600, 36545.00
657.8210, 36458.29
658.9830, 36456.00
660.1440, 36409.00
661.3050, 36428.00
662.4660, 36468.00
663.6270, 36459.00
664.7870, 36409.00
665.9480, 36292.00
667.1080, 36394.00
668.2680, 36155.00
669.4280, 36298.00
670.5880, 36126.00
671.7480, 36250.00
672.9070, 35942.00
674.0670, 36111.00
675.2260, 36220.00
676.3850, 35963.00
677.5440, 35943.00
678.7030, 35911.00
679.8610, 36158.00
681.0200, 35994.00
682.1780, 35967.00
683.3360, 35680.00
684.4940, 35571.00
685.6520, 35934.00
686.8090, 35697.23
687.9670, 35840.00
689.1240, 35684.00
690.2810, 35640.00
691.4380, 35684.00
692.5950, 35637.00
693.7520, 35429.00
694.9080, 35498.84
696.0650, 35705.00
697.2210, 35543.00
698.3770, 35429.00
699.5330, 35559.00
700.6880, 35465.00
701.8440, 35481.00
702.9990, 35593.00
704.1550, 35403.43
705.3100, 35384.68
706.4650, 35153.00
707.6190, 35252.00
708.7740, 35225.00
709.9290, 35374.00
711.0830, 35391.00
712.2370, 35256.00
713.3910, 34954.00
714.5450, 34951.00
715.6980, 34965.00
716.8520, 35183.00
718.0050, 34927.00
719.1580, 34944.00
720.3110, 34886.00
721.4640, 34833.00
722.6170, 34838.00
723.7700, 34769.00
724.9220, 34827.00
726.0740, 34852.00
727.2260, 34640.00
728.3780, 34658.00
729.5300, 34726.00
730.6810, 34665.00
731.8330, 34744.00
732.9840, 34854.00
734.1350, 34481.00
735.2860, 34363.00
736.4370, 34409.00
737.5880, 34469.00
738.7380, 34595.00
739.8880, 34576.18
741.0390, 34407.00
742.1890, 34593.00
743.3380, 34450.00
744.4880, 34481.00
745.6380, 34542.00
746.7870, 34587.00
747.9360, 34346.00
749.0850, 34456.00
750.2340, 34432.00
751.3830, 34227.00
752.5310, 34336.00
753.6800, 34410.00
754.8280, 34336.74
755.9760, 34252.00
757.1240, 34371.00
758.2720, 34376.00
759.4190, 34487.00
760.5670, 34281.00
761.7140, 34401.00
762.8610, 34310.00
764.0080, 34469.00
765.1550, 34513.00
766.3020, 34189.00
767.4480, 34428.00
768.5950, 34162.00
769.7410, 34196.00
770.8870, 34625.00
772.0330, 34402.00
773.1780, 34342.00
774.3240, 34286.00
775.4690, 34432.00
776.6140, 34258.00
777.7590, 34228.00
778.9040, 34259.00
780.0490, 34209.00
781.1940, 34158.00
782.3380, 34349.00
783.4820, 34519.00
784.6260, 34316.00
785.7700, 34478.00
786.9140, 34082.00
788.0580, 34375.00
789.2010, 34253.00
790.3450, 34409.00
791.4880, 34350.00
792.6310, 34280.00
793.7730, 34440.00
794.9160, 34268.00
796.0590, 34318.00
797.2010, 34180.00
798.3430, 34453.00
799.4850, 34241.00
800.6270, 34423.00
801.7690, 34215.00
802.9100, 34646.00
804.0520, 34742.00
805.1930, 34249.00
806.3340, 34184.00
807.4750, 34467.00
808.6160, 34718.00
809.7560, 34438.00
810.8970, 34418.00
812.0370, 34282.00
813.1770, 34381.00
814.3170, 34506.00
815.4570, 34336.00
816.5960, 34568.00
817.7360, 34461.00
818.8750, 34477.00
820.0140, 34785.00
821.1530, 34527.00
822.2920, 34679.00
823.4310, 34689.00
824.5690, 34750.00
825.7070, 34565.00
826.8460, 34509.00
827.9840, 34421.00
829.1220, 34456.09
830.2590, 34438.50
831.3970, 34656.00
832.5340, 34451.00
833.6710, 34622.00
834.8080, 34555.00
835.9450, 34638.00
837.0820, 34510.00
838.2190, 34625.00
839.3550, 34605.00
840.4910, 34672.00
841.6270, 34649.00
842.7630, 34576.00
843.8990, 34435.00
845.0350, 34573.00
846.1700, 34689.00
847.3060, 34593.00
848.4410, 34766.00
849.5760, 34619.00
850.7100, 34480.00
851.8450, 34455.00
852.9800, 34559.00
854.1140, 34536.00
855.2480, 34496.00
856.3820, 34637.01
857.5160, 34630.00
858.6500, 34821.00
859.7830, 34776.00
860.9170, 34764.00
862.0500, 34610.00
863.1830, 34511.00
864.3160, 34499.00
865.4480, 34651.00
866.5810, 34690.00
867.7130, 34719.00
868.8460, 34640.00
869.9780, 34802.00
871.1100, 34753.00
872.2410, 34700.00
873.3730, 34732.00
874.5050, 34886.00
875.6360, 34830.00
876.7670, 34887.23
877.8980, 34941.00
879.0290, 34918.00
880.1590, 34912.00
881.2900, 34958.00
882.4200, 34848.00
883.5500, 34942.00
884.6800, 34843.00
885.8100, 34861.00
886.9400, 34953.00
888.0690, 34887.00
889.1990, 34913.83
890.3280, 35025.00
891.4570, 34857.00
892.5860, 34889.00
893.7140, 34808.00
894.8430, 35173.00
895.9710, 34998.00
897.1000, 35083.88
898.2280, 35020.00
899.3560, 35040.00
900.4830, 35064.00
901.6110, 34952.69
902.7380, 35030.94
903.8660, 35259.00
904.9930, 35074.00
906.1200, 35290.00
907.2460, 35263.00
908.3730, 35107.00
909.5000, 35314.00
910.6260, 35397.00
911.7520, 35136.00
912.8780, 35364.00
914.0040, 35275.72
915.1290, 35298.00
916.2550, 35497.00
917.3800, 35213.00
918.5050, 35774.00
919.6300, 35331.00
920.7550, 35267.96
921.8800, 35489.37
923.0040, 35635.16
924.1290, 35709.49
925.2530, 35498.08
926.3770, 35655.59
927.5010, 35665.25
928.6250, 35668.84
929.7480, 35878.23
930.8720, 35708.38
931.9950, 35914.50
933.1180, 35925.00
934.2410, 35922.95
935.3640, 36076.00
936.4860, 35888.00
937.6090, 35999.00
938.7310, 36040.00
939.8530, 36211.00
940.9750, 36149.00
942.0970, 36101.00
943.2180, 36316.00
944.3400, 36238.00
945.4610, 36600.00
946.5820, 36330.00
947.7030, 36713.00
948.8240, 36328.00
949.9450, 36377.00
951.0650, 36630.00
952.1860, 36658.00
953.3060, 36605.00
954.4260, 36476.00
955.5460, 36680.00
956.6650, 36588.85
957.7850, 36677.00
958.9040, 36572.00
960.0230, 36690.00
961.1420, 36605.00
962.2610, 36869.00
963.3800, 36777.00
964.4990, 36443.00
965.6170, 36609.00
966.7350, 36551.00
967.8530, 36404.00
968.9710, 36671.00
970.0890, 36516.00
971.2070, 36460.00
972.3240, 36284.00
973.4410, 36482.00
974.5580, 36209.00
975.6750, 36487.00
976.7920, 36445.00
977.9090, 36556.00
979.0250, 36718.00
980.1410, 36548.00
981.2580, 36679.00
982.3740, 36517.00
983.4890, 36468.00
984.6050, 36498.00
985.7200, 36492.00
986.8360, 36693.00
987.9510, 36626.00
989.0660, 36542.00
990.1810, 36418.00
991.2950, 36672.00
992.4100, 36406.00
993.5240, 36671.00
994.6390, 36640.00
995.7530, 36424.00
996.8660, 36599.00
997.9800, 36590.00
999.0940, 36534.00
1000.207, 36427.00
1001.320, 36389.00
1002.433, 36603.00
1003.546, 36561.00
1004.659, 36627.00
1005.772, 36671.00
1006.884, 36610.00
1007.996, 36525.00
1009.108, 36562.00
1010.220, 36402.00
1011.332, 36625.00
1012.444, 36315.00
1013.555, 36658.00
1014.666, 36546.00
1015.777, 36575.00
1016.888, 36669.00
1017.999, 36495.00
1019.110, 36828.00
1020.220, 36479.00
1021.331, 36606.00
1022.441, 36548.00
1023.551, 36616.00
1024.661, 36613.00
1025.770, 36484.00
1026.880, 36651.00
1027.989, 36705.00
1029.098, 36543.00
1030.207, 36667.00
1031.316, 36668.00
1032.425, 36747.00
1033.533, 36661.00
1034.642, 36856.00
1035.750, 36679.00
1036.858, 36803.00
1037.966, 36673.00
1039.073, 36624.00
1040.181, 36939.00
1041.288, 36793.00
1042.396, 36853.00
1043.503, 36705.00
1044.610, 36769.00
1045.716, 36931.00
1046.823, 36826.00
1047.929, 36997.00
1049.036, 37048.00
1050.142, 36867.00
1051.248, 36980.00
1052.353, 36791.00
1053.459, 37136.00
1054.564, 36747.00
1055.670, 37166.00
1056.775, 37072.00
1057.880, 37171.00
1058.985, 37085.00
1060.089, 37009.00
1061.194, 37322.00
1062.298, 37268.00
1063.402, 37291.83
1064.506, 37119.00
1065.610, 37212.00
1066.713, 37169.00
1067.817, 37037.00
1068.920, 37161.00
1070.023, 37112.45
1071.126, 37274.00
1072.229, 37142.00
1073.332, 37160.00
1074.435, 37121.29
1075.537, 37332.00
1076.639, 37285.00
1077.741, 37030.00
1078.843, 37313.00
1079.945, 37130.00
1081.046, 37323.00
1082.148, 37161.00
1083.249, 37400.00
1084.350, 37305.00
1085.451, 37504.00
1086.551, 37220.00
1087.652, 37283.00
1088.752, 37477.00
1089.853, 37275.00
1090.953, 37111.00
1092.053, 37279.00
1093.152, 37229.00
1094.252, 37056.00
1095.351, 37168.00
1096.451, 37304.00
1097.550, 37074.00
1098.649, 37154.00
1099.748, 37245.00
1100.846, 37146.00
1101.945, 37220.00
1103.043, 37217.77
1104.141, 37020.00
1105.239, 37192.00
1106.337, 37119.00
1107.434, 36998.00
1108.532, 36940.00
1109.629, 36812.00
1110.726, 37169.00
1111.823, 37187.00
1112.920, 37009.00
1114.017, 37062.00
1115.113, 36754.00
1116.210, 36920.00
1117.306, 37113.00
1118.402, 37206.00
1119.498, 36953.00
1120.593, 36988.00
1121.689, 37211.00
1122.784, 36957.64
1123.879, 37024.00
1124.974, 36843.00
1126.069, 36643.00
1127.164, 36866.00
1128.259, 36704.00
1129.353, 36783.00
1130.447, 36611.00
1131.541, 36717.00
1132.635, 36598.00
1133.729, 36699.00
1134.822, 36574.00
1135.916, 36394.00
1137.009, 36621.00
1138.102, 36786.00
1139.195, 36529.45
1140.288, 36634.00
1141.380, 36216.00
1142.473, 36354.00
1143.565, 36433.00
1144.657, 36335.00
1145.749, 36481.00
1146.841, 36210.00
1147.932, 36365.00
1149.024, 36348.00
1150.115, 36162.00
1151.206, 36092.00
1152.297, 35949.00
1153.388, 36039.00
1154.479, 36073.00
1155.569, 35947.00
1156.659, 36168.00
1157.750, 35946.00
1158.839, 36028.00
1159.929, 35850.00
1161.019, 35967.00
1162.108, 36001.00
1163.198, 35822.00
1164.287, 35750.00
1165.376, 35862.00
1166.465, 36059.00
1167.553, 36067.00
1168.642, 36005.00
1169.730, 35836.00
1170.818, 35899.00
1171.906, 36155.00
1172.994, 35800.00
1174.082, 35946.59
1175.170, 35934.95
1176.257, 36087.46
1177.344, 36164.39
1178.431, 36169.82
1179.518, 35889.54
1180.605, 35978.19
1181.691, 35919.00
1182.778, 35853.74
1183.864, 35994.33
1184.950, 35755.63
1186.036, 35892.95
1187.122, 35880.17
1188.207, 35936.11
1189.292, 35843.29
1190.378, 35796.39
1191.463, 35898.32
1192.548, 35917.86
1193.632, 35807.93
1194.717, 35868.23
1195.801, 35624.38
1196.886, 35647.42
1197.970, 35785.65
1199.054, 35683.20
1200.137, 35746.27
1201.221, 35746.28
1202.305, 35459.86
1203.388, 35671.60
1204.471, 35667.91
1205.554, 35443.02
1206.637, 35637.68
1207.719, 35652.00
1208.802, 35280.00
1209.884, 35553.00
1210.966, 35499.00
1212.048, 35610.00
1213.130, 35551.00
1214.212, 35745.00
1215.293, 35665.00
1216.374, 35466.00
1217.456, 35583.00
1218.536, 35616.00
1219.617, 35533.00
1220.698, 35317.00
1221.778, 35462.00
1222.859, 35396.00
1223.939, 35534.00
1225.019, 35704.00
1226.099, 35726.00
1227.178, 35689.00
1228.258, 35744.00
1229.337, 35636.73
1230.417, 35828.00
1231.496, 35502.00
1232.574, 35555.00
1233.653, 35648.00
1234.732, 35821.00
1235.810, 35555.00
1236.888, 35594.00
1237.966, 35603.00
1239.044, 35819.00
1240.122, 35721.48
1241.199, 35693.00
1242.277, 35641.00
1243.354, 35680.00
1244.431, 35664.55
1245.508, 35743.00
1246.585, 35775.00
1247.661, 35646.00
1248.738, 35399.00
1249.814, 35675.00
1250.890, 35656.00
1251.966, 35390.00
1253.042, 35594.00
1254.117, 35494.00
1255.193, 35635.00
1256.268, 35487.00
1257.343, 35677.00
1258.418, 35613.00
1259.493, 35481.00
1260.567, 35440.00
1261.642, 35319.00
1262.716, 35135.00
1263.790, 35367.00
1264.864, 35153.00
1265.938, 35362.00
1267.011, 35371.00
1268.085, 35491.00
1269.158, 35348.00
1270.231, 35528.00
1271.304, 35327.00
1272.377, 35567.00
1273.450, 35531.00
1274.522, 35445.00
1275.594, 35666.00
1276.666, 35523.69
1277.738, 35675.64
1278.810, 35752.02
1279.882, 35756.89
1280.953, 35476.09
1282.025, 35564.18
1283.096, 35504.45
1284.167, 35438.65
1285.238, 35578.68
1286.308, 35339.45
1287.379, 35476.22
1288.449, 35462.91
1289.519, 35601.00
1290.589, 35461.00
1291.659, 35359.00
1292.729, 35522.00
1293.798, 35541.00
1294.868, 35383.00
1295.937, 35310.00
1297.006, 35322.00
1298.075, 35341.00
1299.143, 35230.00
1300.212, 35493.00
1301.280, 35435.00
1302.348, 35424.00
1303.416, 35751.00
1304.484, 35610.00
1305.552, 35556.00
1306.620, 35350.00
1307.687, 35509.00
1308.754, 35533.01
1309.821, 35700.98
1310.888, 35793.39
1311.955, 35814.28
1313.021, 35549.48
1314.088, 35653.59
1315.154, 35609.86
1316.220, 35560.07
1317.286, 35716.11
1318.352, 35492.86
1319.417, 35645.64
1320.483, 35648.32
1321.548, 35719.70
1322.613, 35642.32
1323.678, 35610.88
1324.743, 35728.25
1325.807, 35763.23
1326.872, 35668.73
1327.936, 35744.48
1329.000, 35516.05
1330.064, 35554.54
1331.128, 35708.20
1332.191, 35621.18
1333.255, 35699.65
1334.318, 35715.09
1335.381, 35444.11
1336.444, 35657.00
1337.507, 35475.00
1338.569, 35542.68
1339.632, 35713.00
1340.694, 35481.04
1341.756, 35656.20
1342.818, 35755.78
1343.880, 35783.85
1344.941, 35526.22
1346.003, 35637.52
1347.064, 35600.96
1348.125, 35558.35
1349.186, 35721.56
1350.247, 35505.49
1351.308, 35665.44
1352.368, 35675.29
1353.428, 35753.83
1354.489, 35683.62
1355.549, 35659.35
1356.608, 35783.89
1357.668, 35826.03
1358.727, 35738.69
1359.787, 35821.61
1360.846, 35600.33
1361.905, 35645.98
1362.964, 35806.80
1364.022, 35499.00
1365.081, 35575.00
1366.139, 35607.00
1367.197, 35592.00
1368.255, 35698.00
1369.313, 35497.00
1370.371, 35612.00
1371.428, 35650.00
1372.486, 35449.00
1373.543, 35805.00
1374.600, 35693.00
1375.657, 35644.00
1376.713, 35378.00
1377.770, 35571.00
1378.826, 35595.00
1379.882, 35642.00
1380.938, 35697.00
1381.994, 35595.00
1383.050, 35824.00
1384.106, 35604.00
1385.161, 35648.00
1386.216, 35638.00
1387.271, 35449.00
1388.326, 35631.00
1389.381, 35503.00
1390.435, 35715.00
1391.490, 35470.00
1392.544, 35437.00
1393.598, 35726.00
1394.652, 35713.00
1395.705, 35494.00
1396.759, 35707.00
1397.812, 35557.00
1398.866, 35700.00
1399.919, 35792.00
1400.972, 35688.00
1402.024, 35734.39
1403.077, 35701.75
1404.129, 35674.00
1405.181, 35650.00
1406.233, 35631.12
1407.285, 35641.45
1408.337, 35627.00
1409.389, 35681.00
1410.440, 35739.00
1411.491, 35770.50
1412.542, 35774.98
1413.593, 35865.00
1414.644, 35732.00
1415.695, 35632.00
1416.745, 35557.00
1417.795, 35831.00
1418.845, 35746.00
1419.895, 35698.00
1420.945, 35664.00
1421.995, 35526.00
1423.044, 35532.00
1424.093, 35529.84
1425.142, 35534.00
1426.191, 35625.00
1427.240, 35704.00
1428.289, 35815.00
1429.337, 35622.00
1430.385, 35740.00
1431.433, 35450.00
1432.481, 35644.00
1433.529, 35446.00
1434.577, 35713.00
1435.624, 35598.00
1436.672, 35614.00
1437.719, 35750.00
1438.766, 35892.00
1439.812, 35691.00
1440.859, 35748.00
1441.905, 35520.00
1442.952, 35759.00
1443.998, 35685.00
1445.044, 35746.00
1446.090, 35716.00
1447.135, 35698.00
1448.181, 35763.00
1449.226, 35753.42
1450.271, 35814.03
1451.316, 35756.00
1452.361, 35847.00
1453.405, 35747.00
1454.450, 35767.17
1455.494, 35525.00
1456.538, 35720.00
