##NAMES=Braunite
##RRUFFID=R050385
##IDEAL CHEMISTRY=Mn^2+^Mn^3+^_6_SiO_12_
##LOCALITY=Jhabua District, Madhya Pradesh, India
##OWNER=RRUFF
##SOURCE=University of Arizona Mineral Museum
##DESCRIPTION=Black prismatic crystals
##STATUS=The identification of this mineral has been confirmed by X-ray diffraction and chemical analysis
##URL=rruff.info/R050385
##MEASURED CHEMISTRY=(Fe^2+^_0.61_Mn^2+^_0.39_)_Σ=1_(Mn^3+^_5.94_Al_0.06_)_Σ=6_Si_1.00_O_12_
##PIN_ID=L01451
##ORIENTATION=Laser parallel to a* (1 0 0). Fiducial mark perpendicular to laser is parallel to c [0 0 1]
178.2820, 11806.00
179.5050, 12045.00
180.7290, 11766.00
181.9520, 11915.00
183.1760, 11890.00
184.3990, 12254.00
185.6220, 12678.00
186.8450, 12882.00
188.0670, 12953.00
189.2900, 13125.00
190.5120, 13273.12
191.7340, 13387.00
192.9560, 13654.00
194.1780, 13939.00
195.4000, 14310.00
196.6220, 14511.00
197.8430, 14780.00
199.0640, 15124.00
200.2860, 15799.00
201.5070, 16873.00
202.7270, 17367.00
203.9480, 16418.00
205.1690, 14948.00
206.3890, 13910.00
207.6090, 13959.00
208.8290, 14020.00
210.0490, 14456.00
211.2690, 14989.00
212.4890, 15617.00
213.7080, 16320.00
214.9280, 16691.00
216.1470, 16726.00
217.3660, 17291.00
218.5850, 17461.00
219.8030, 17723.00
221.0220, 18019.00
222.2400, 18014.00
223.4590, 17990.00
224.6770, 18126.00
225.8950, 18258.00
227.1120, 18030.00
228.3300, 18000.00
229.5480, 17636.00
230.7650, 17327.00
231.9820, 16949.00
233.1990, 16531.00
234.4160, 16155.00
235.6330, 15790.00
236.8490, 15445.71
238.0660, 15066.23
239.2820, 14785.00
240.4980, 14419.00
241.7140, 14050.00
242.9300, 13925.00
244.1460, 13738.00
245.3610, 13531.00
246.5770, 13452.00
247.7920, 13361.00
249.0070, 13190.00
250.2220, 12900.00
251.4370, 12789.00
252.6510, 12544.00
253.8660, 12367.00
255.0800, 11973.83
256.2940, 11944.65
257.5080, 11879.68
258.7220, 11780.81
259.9360, 11546.58
261.1490, 11487.24
262.3630, 11357.75
263.5760, 11225.49
264.7890, 11190.75
266.0020, 10976.29
267.2150, 11052.00
268.4270, 11026.00
269.6400, 11113.00
270.8520, 11123.09
272.0640, 11174.00
273.2760, 11196.85
274.4880, 11326.00
275.7000, 11336.00
276.9120, 11359.00
278.1230, 11325.00
279.3340, 11187.00
280.5450, 11169.00
281.7560, 11292.00
282.9670, 11221.00
284.1780, 11523.00
285.3880, 11605.00
286.5980, 11911.00
287.8090, 12082.00
289.0190, 12589.00
290.2290, 12871.00
291.4380, 13278.00
292.6480, 13544.00
293.8570, 13853.00
295.0670, 13924.00
296.2760, 13747.00
297.4850, 13277.00
298.6930, 12666.00
299.9020, 12278.00
301.1110, 11834.00
302.3190, 11409.75
303.5270, 11043.00
304.7350, 10705.00
305.9430, 10383.00
307.1510, 10133.00
308.3580, 9997.000
309.5660, 10008.00
310.7730, 9877.494
311.9800, 9771.000
313.1870, 9848.000
314.3940, 9807.000
315.6010, 9889.000
316.8070, 9881.000
318.0130, 9890.000
319.2200, 10187.00
320.4260, 10231.00
321.6310, 10336.00
322.8370, 10665.00
324.0430, 10932.00
325.2480, 11167.20
326.4540, 11544.00
327.6590, 11783.00
328.8640, 12253.00
330.0680, 12718.00
331.2730, 12826.00
332.4780, 12942.00
333.6820, 13052.00
334.8860, 12934.00
336.0900, 12688.00
337.2940, 12516.00
338.4980, 12315.26
339.7010, 12144.64
340.9050, 11938.00
342.1080, 11697.70
343.3110, 11322.02
344.5140, 11121.14
345.7170, 10850.21
346.9200, 10576.41
348.1220, 10581.00
349.3240, 10474.00
350.5270, 10630.00
351.7290, 10210.00
352.9310, 10330.00
354.1320, 10435.00
355.3340, 10262.00
356.5350, 10492.00
357.7370, 10363.00
358.9380, 10388.00
360.1390, 10468.00
361.3400, 10430.00
362.5400, 10435.00
363.7410, 10471.00
364.9410, 10487.00
366.1410, 10490.00
367.3410, 10459.00
368.5410, 10566.00
369.7410, 10631.00
370.9400, 10656.00
372.1400, 10541.00
373.3390, 10687.00
374.5380, 10514.00
375.7370, 10474.00
376.9360, 10493.00
378.1350, 10328.00
379.3330, 10344.00
380.5310, 10248.00
381.7300, 10265.00
382.9280, 10073.00
384.1260, 10075.00
385.3230, 9986.000
386.5210, 10131.00
387.7180, 10103.00
388.9160, 10114.00
390.1130, 10105.00
391.3100, 10080.76
392.5060, 10087.20
393.7030, 10063.00
394.9000, 10028.00
396.0960, 10079.00
397.2920, 9944.000
398.4880, 9860.000
399.6840, 9928.000
400.8800, 9810.000
402.0750, 9765.000
403.2710, 9771.000
404.4660, 9814.000
405.6610, 9785.000
406.8560, 9577.000
408.0510, 9691.000
409.2450, 9604.000
410.4400, 9621.000
411.6340, 9624.310
412.8280, 9695.000
414.0220, 9624.000
415.2160, 9715.000
416.4100, 9782.000
417.6030, 9722.000
418.7970, 9783.000
419.9900, 9851.000
421.1830, 9870.000
422.3760, 9806.000
423.5690, 9854.000
424.7610, 9972.000
425.9540, 9841.000
427.1460, 9946.000
428.3380, 9971.000
429.5300, 9773.000
430.7220, 9914.000
431.9140, 9818.000
433.1050, 9772.000
434.2970, 9847.000
435.4880, 9682.000
436.6790, 9807.000
437.8700, 9835.000
439.0610, 9826.000
440.2510, 10043.00
441.4420, 9930.000
442.6320, 9989.000
443.8220, 10107.61
445.0120, 10101.00
446.2020, 10260.00
447.3910, 10285.00
448.5810, 10246.00
449.7700, 10421.00
450.9600, 10440.00
452.1490, 10689.00
453.3370, 10742.00
454.5260, 10875.00
455.7150, 11247.00
456.9030, 11347.00
458.0910, 11561.00
459.2800, 11635.00
460.4670, 12146.00
461.6550, 12289.00
462.8430, 12642.00
464.0300, 13020.00
465.2180, 13422.00
466.4050, 13760.00
467.5920, 14030.00
468.7790, 14495.00
469.9650, 14783.00
471.1520, 15351.00
472.3380, 15527.00
473.5250, 15723.00
474.7110, 15799.00
475.8970, 15874.00
477.0820, 15709.00
478.2680, 15308.00
479.4540, 15090.00
480.6390, 14786.00
481.8240, 14513.00
483.0090, 13933.00
484.1940, 13723.00
485.3780, 13238.00
486.5630, 12936.51
487.7470, 12808.00
488.9320, 12472.00
490.1160, 12353.00
491.3000, 12389.00
492.4830, 12316.00
493.6670, 12290.00
494.8500, 12351.00
496.0340, 12366.00
497.2170, 12550.00
498.4000, 12503.00
499.5820, 12806.00
500.7650, 12902.00
501.9480, 13183.00
503.1300, 13309.00
504.3120, 13873.00
505.4940, 14220.00
506.6760, 14703.00
507.8580, 15145.00
509.0390, 15656.00
510.2210, 16201.00
511.4020, 16338.00
512.5830, 16400.00
513.7640, 16438.00
514.9450, 16055.00
516.1250, 15758.00
517.3060, 15297.00
518.4860, 14837.00
519.6660, 14462.00
520.8460, 14009.00
522.0260, 13570.00
523.2060, 13222.00
524.3850, 13032.00
525.5650, 12674.00
526.7440, 12536.00
527.9230, 12406.00
529.1020, 12264.00
530.2810, 12114.00
531.4590, 11861.00
532.6380, 11695.00
533.8160, 11542.00
534.9940, 11379.00
536.1720, 11275.00
537.3500, 11006.00
538.5270, 10966.00
539.7050, 10827.00
540.8820, 10786.00
542.0590, 10706.76
543.2360, 10707.00
544.4130, 10593.00
545.5900, 10531.00
546.7660, 10524.00
547.9430, 10488.00
549.1190, 10642.00
550.2950, 10589.17
551.4710, 10694.90
552.6470, 10602.00
553.8220, 10838.00
554.9980, 10867.00
556.1730, 10870.00
557.3480, 10888.00
558.5230, 11059.75
559.6980, 11183.00
560.8730, 11454.00
562.0470, 11696.00
563.2220, 11928.00
564.3960, 12204.00
565.5700, 12579.00
566.7440, 12923.00
567.9170, 13304.00
569.0910, 13652.12
570.2640, 13888.00
571.4380, 14321.00
572.6110, 14576.00
573.7840, 14827.00
574.9570, 14988.00
576.1290, 15078.00
577.3020, 14957.00
578.4740, 14780.00
579.6460, 14454.00
580.8180, 14130.00
581.9900, 13825.00
583.1620, 13482.00
584.3330, 13216.00
585.5040, 12901.00
586.6760, 12617.00
587.8470, 12641.00
589.0180, 12382.00
590.1880, 12296.00
591.3590, 12167.00
592.5290, 12052.50
593.7000, 11989.83
594.8700, 12025.00
596.0400, 12028.00
597.2090, 12047.17
598.3790, 12139.21
599.5490, 12142.00
600.7180, 12401.00
601.8870, 12508.00
603.0560, 12778.00
604.2250, 13000.00
605.3940, 13318.00
606.5620, 13500.00
607.7300, 13859.00
608.8990, 14274.00
610.0670, 14413.00
611.2350, 14866.00
612.4020, 14743.00
613.5700, 15162.00
614.7370, 15345.17
615.9050, 15771.00
617.0720, 15681.00
618.2390, 15735.00
619.4060, 15620.00
620.5720, 15619.84
621.7390, 15442.50
622.9050, 15273.85
624.0710, 15012.00
625.2370, 14820.00
626.4030, 14536.00
627.5690, 14262.00
628.7340, 13979.12
629.9000, 13727.41
631.0650, 13393.00
632.2300, 13259.00
633.3950, 13052.00
634.5600, 12884.00
635.7240, 12608.00
636.8890, 12685.00
638.0530, 12406.00
639.2170, 12357.00
640.3810, 12439.00
641.5450, 12383.00
642.7080, 12315.00
643.8720, 12339.19
645.0350, 12396.00
646.1980, 12317.00
647.3610, 12463.00
648.5240, 12487.00
649.6870, 12311.00
650.8490, 12482.00
652.0120, 12460.00
653.1740, 12564.00
654.3360, 12459.00
655.4980, 12347.00
656.6600, 12206.00
657.8210, 12091.00
658.9830, 12000.06
660.1440, 11999.00
661.3050, 11853.00
662.4660, 11768.00
663.6270, 11742.00
664.7870, 11807.00
665.9480, 11726.00
667.1080, 11980.00
668.2680, 11599.00
669.4280, 11526.00
670.5880, 11295.00
671.7480, 11461.00
672.9070, 11510.00
674.0670, 11516.00
675.2260, 11468.00
676.3850, 11515.00
677.5440, 11459.00
678.7030, 11568.00
679.8610, 11545.00
681.0200, 11716.00
682.1780, 11789.80
683.3360, 12063.00
684.4940, 11985.00
685.6520, 12087.00
686.8090, 12114.00
687.9670, 12195.00
689.1240, 12135.00
690.2810, 12153.00
691.4380, 12047.00
692.5950, 12016.00
693.7520, 12075.00
694.9080, 11926.00
696.0650, 11882.00
697.2210, 11661.00
698.3770, 11420.00
699.5330, 11282.00
700.6880, 11091.00
701.8440, 11092.00
702.9990, 10920.55
704.1550, 10929.00
705.3100, 10644.00
706.4650, 10660.00
707.6190, 10435.66
708.7740, 10745.00
709.9290, 10483.00
711.0830, 10331.00
712.2370, 10130.00
713.3910, 10032.65
714.5450, 10107.00
715.6980, 9934.000
716.8520, 9823.000
718.0050, 9867.000
719.1580, 9682.000
720.3110, 9761.000
721.4640, 9422.000
722.6170, 9390.000
723.7700, 9428.000
724.9220, 9345.000
726.0740, 9391.000
727.2260, 9435.000
728.3780, 9062.000
729.5300, 9120.000
730.6810, 9155.000
731.8330, 9023.117
732.9840, 9262.000
734.1350, 8999.000
735.2860, 8976.000
736.4370, 9001.000
737.5880, 8994.000
738.7380, 8924.000
739.8880, 9022.000
741.0390, 8930.000
742.1890, 8920.000
743.3380, 8897.000
744.4880, 8817.000
745.6380, 9034.000
746.7870, 8979.000
747.9360, 9174.000
749.0850, 9130.860
750.2340, 9320.000
751.3830, 9034.018
752.5310, 8916.000
753.6800, 8824.000
754.8280, 8775.000
755.9760, 8765.000
757.1240, 8695.000
758.2720, 8653.000
759.4190, 8760.000
760.5670, 8714.890
761.7140, 8663.000
762.8610, 8639.000
764.0080, 8601.123
765.1550, 8495.586
766.3020, 8581.000
767.4480, 8530.000
768.5950, 8595.000
769.7410, 8640.000
770.8870, 8639.000
772.0330, 8686.000
773.1780, 8678.000
774.3240, 8714.000
775.4690, 8700.419
776.6140, 8622.000
777.7590, 8640.000
778.9040, 8560.000
780.0490, 8465.000
781.1940, 8591.000
782.3380, 8596.000
783.4820, 8451.000
784.6260, 8609.000
785.7700, 8694.000
786.9140, 8581.245
788.0580, 8657.000
789.2010, 8469.000
790.3450, 8499.000
791.4880, 8524.000
792.6310, 8465.000
793.7730, 8442.000
794.9160, 8419.521
796.0590, 8382.459
797.2010, 8365.000
798.3430, 8388.000
799.4850, 8388.000
800.6270, 8519.000
801.7690, 8459.000
802.9100, 8565.000
804.0520, 8402.000
805.1930, 8372.000
806.3340, 8374.000
807.4750, 8383.000
808.6160, 8408.000
809.7560, 8456.000
810.8970, 8425.000
812.0370, 8429.000
813.1770, 8503.000
814.3170, 8418.000
815.4570, 8376.000
816.5960, 8428.000
817.7360, 8333.000
818.8750, 8435.000
820.0140, 8367.000
821.1530, 8455.000
822.2920, 8356.000
823.4310, 8376.600
824.5690, 8400.261
825.7070, 8413.000
826.8460, 8383.000
827.9840, 8499.000
829.1220, 8371.000
830.2590, 8447.000
831.3970, 8405.000
832.5340, 8376.143
833.6710, 8375.352
834.8080, 8387.000
835.9450, 8347.000
837.0820, 8450.000
838.2190, 8515.000
839.3550, 8524.000
840.4910, 8455.000
841.6270, 8406.000
842.7630, 8393.000
843.8990, 8483.000
845.0350, 8470.000
846.1700, 8499.625
847.3060, 8477.627
848.4410, 8544.000
849.5760, 8429.000
850.7100, 8457.000
851.8450, 8513.000
852.9800, 8450.000
854.1140, 8602.000
855.2480, 8570.000
856.3820, 8585.000
857.5160, 8678.000
858.6500, 8546.000
859.7830, 8495.000
860.9170, 8523.000
862.0500, 8455.000
863.1830, 8573.000
864.3160, 8578.000
865.4480, 8532.000
866.5810, 8676.000
867.7130, 8494.000
868.8460, 8590.000
869.9780, 8458.000
871.1100, 8583.000
872.2410, 8603.000
873.3730, 8635.000
874.5050, 8702.000
875.6360, 8736.000
876.7670, 8668.000
877.8980, 8518.000
879.0290, 8565.233
880.1590, 8562.590
881.2900, 8603.000
882.4200, 8665.000
883.5500, 8781.000
884.6800, 8792.000
885.8100, 8545.000
886.9400, 8761.000
888.0690, 8688.000
889.1990, 8672.000
890.3280, 8739.000
891.4570, 8750.000
892.5860, 8768.565
893.7140, 8707.000
894.8430, 8832.000
895.9710, 8762.000
897.1000, 8839.000
898.2280, 8844.000
899.3560, 8863.000
900.4830, 8964.000
901.6110, 8851.000
902.7380, 8892.000
903.8660, 8940.000
904.9930, 8975.000
906.1200, 8985.000
907.2460, 9014.000
908.3730, 9004.000
909.5000, 9036.108
910.6260, 9047.316
911.7520, 9059.000
912.8780, 9096.000
914.0040, 9053.000
915.1290, 9106.000
916.2550, 9204.000
917.3800, 9082.000
918.5050, 9073.000
919.6300, 9257.000
920.7550, 9146.000
921.8800, 9220.000
923.0040, 9226.000
924.1290, 9266.000
925.2530, 9396.000
926.3770, 9316.000
927.5010, 9561.000
928.6250, 9555.000
929.7480, 9683.000
930.8720, 9718.000
931.9950, 9852.000
933.1180, 9795.000
934.2410, 9962.000
935.3640, 10053.00
936.4860, 10145.00
937.6090, 10277.00
938.7310, 10340.00
939.8530, 10503.40
940.9750, 10715.00
942.0970, 10778.00
943.2180, 10923.00
944.3400, 10982.88
945.4610, 11162.46
946.5820, 11345.00
947.7030, 11525.00
948.8240, 11591.00
949.9450, 11769.00
951.0650, 11592.00
952.1860, 11627.00
953.3060, 11553.00
954.4260, 11558.00
955.5460, 11428.00
956.6650, 11365.00
957.7850, 11402.00
958.9040, 11328.00
960.0230, 11320.00
961.1420, 11228.00
962.2610, 11214.00
963.3800, 11091.00
964.4990, 11098.00
965.6170, 11030.00
966.7350, 10988.00
967.8530, 10947.84
968.9710, 10888.43
970.0890, 10822.00
971.2070, 10778.00
972.3240, 10669.00
973.4410, 10596.31
974.5580, 10558.00
975.6750, 10467.00
976.7920, 10393.00
977.9090, 10319.00
979.0250, 10278.00
980.1410, 10206.00
981.2580, 10187.00
982.3740, 10077.00
983.4890, 9998.538
984.6050, 9960.502
985.7200, 9831.000
986.8360, 9868.000
987.9510, 9874.000
989.0660, 9838.000
990.1810, 9898.000
991.2950, 9829.266
992.4100, 9842.349
993.5240, 9715.000
994.6390, 9781.000
995.7530, 9709.000
996.8660, 9577.941
997.9800, 9615.850
999.0940, 9752.000
1000.207, 9703.000
1001.320, 9843.000
1002.433, 9757.963
1003.546, 9745.000
1004.659, 9621.000
1005.772, 9614.000
1006.884, 9607.000
1007.996, 9549.000
1009.108, 9589.000
1010.220, 9526.917
1011.332, 9573.874
1012.444, 9477.000
1013.555, 9591.000
1014.666, 9658.000
1015.777, 9522.283
1016.888, 9571.930
1017.999, 9630.000
1019.110, 9507.000
1020.220, 9480.000
1021.331, 9495.000
1022.441, 9524.000
1023.551, 9497.000
1024.661, 9450.000
1025.770, 9427.000
1026.880, 9495.000
1027.989, 9472.000
1029.098, 9521.000
1030.207, 9432.000
1031.316, 9483.000
1032.425, 9353.000
1033.533, 9465.000
1034.642, 9493.000
1035.750, 9494.000
1036.858, 9524.000
1037.966, 9436.000
1039.073, 9481.000
1040.181, 9469.584
1041.288, 9507.000
1042.396, 9483.000
1043.503, 9533.000
1044.610, 9537.000
1045.716, 9462.000
1046.823, 9479.000
1047.929, 9529.000
1049.036, 9675.000
1050.142, 9610.000
1051.248, 9602.000
1052.353, 9686.000
1053.459, 9581.000
1054.564, 9559.000
1055.670, 9569.000
1056.775, 9732.000
1057.880, 9625.000
1058.985, 9722.000
1060.089, 9596.000
1061.194, 9618.000
1062.298, 9612.000
1063.402, 9621.209
1064.506, 9612.366
1065.610, 9681.000
1066.713, 9615.000
1067.817, 9545.558
1068.920, 9627.031
1070.023, 9672.697
1071.126, 9684.479
1072.229, 9560.888
1073.332, 9612.103
1074.435, 9593.265
1075.537, 9571.555
1076.639, 9600.000
1077.741, 9565.000
1078.843, 9556.000
1079.945, 9680.000
1081.046, 9617.000
1082.148, 9611.000
1083.249, 9554.000
1084.350, 9629.000
1085.451, 9610.000
1086.551, 9548.000
1087.652, 9539.280
1088.752, 9482.777
1089.853, 9458.000
1090.953, 9446.000
1092.053, 9469.000
1093.152, 9594.000
1094.252, 9411.000
1095.351, 9550.000
1096.451, 9582.000
1097.550, 9473.036
1098.649, 9517.000
1099.748, 9357.000
1100.846, 9516.000
1101.945, 9540.000
1103.043, 9512.000
1104.141, 9417.000
1105.239, 9378.000
1106.337, 9234.000
1107.434, 9284.947
1108.532, 9516.000
1109.629, 9334.000
1110.726, 9411.000
1111.823, 9363.000
1112.920, 9322.000
1114.017, 9479.000
1115.113, 9529.000
1116.210, 9649.000
1117.306, 9801.000
1118.402, 10088.00
1119.498, 10168.00
1120.593, 10180.00
1121.689, 10314.63
1122.784, 10320.41
1123.879, 10319.00
1124.974, 10253.00
1126.069, 10052.00
1127.164, 9736.000
1128.259, 9696.000
1129.353, 9492.263
1130.447, 9326.042
1131.541, 9239.000
1132.635, 9155.000
1133.729, 9028.000
1134.822, 9224.000
1135.916, 8997.000
1137.009, 9087.000
1138.102, 8936.000
1139.195, 9059.000
1140.288, 9053.000
1141.380, 8968.000
1142.473, 9032.000
1143.565, 8907.000
1144.657, 8949.940
1145.749, 9020.000
1146.841, 8937.000
1147.932, 9062.000
1149.024, 8951.000
1150.115, 8878.000
1151.206, 8884.000
1152.297, 8893.000
1153.388, 8888.000
1154.479, 8872.000
1155.569, 8890.000
1156.659, 9011.000
1157.750, 8922.950
1158.839, 9034.000
1159.929, 8881.000
1161.019, 8687.000
1162.108, 8787.000
1163.198, 8978.000
1164.287, 8959.000
1165.376, 8839.000
1166.465, 8800.000
1167.553, 8761.000
1168.642, 8827.000
1169.730, 8740.000
1170.818, 8814.000
1171.906, 8899.000
1172.994, 8921.000
1174.082, 8670.000
1175.170, 8803.000
1176.257, 8774.000
1177.344, 8880.000
1178.431, 8782.000
1179.518, 8860.000
1180.605, 8756.000
1181.691, 8724.000
1182.778, 8798.000
1183.864, 8870.000
1184.950, 8764.000
1186.036, 8723.000
1187.122, 8750.676
1188.207, 8658.039
1189.292, 8820.000
1190.378, 8744.000
1191.463, 8880.000
1192.548, 8852.629
1193.632, 8843.000
1194.717, 8813.000
1195.801, 8804.000
1196.886, 8795.000
1197.970, 8726.000
1199.054, 8731.000
1200.137, 8719.000
1201.221, 8821.000
1202.305, 8710.000
1203.388, 8839.000
1204.471, 8806.000
1205.554, 8744.000
1206.637, 8607.143
1207.719, 8705.887
1208.802, 8768.837
1209.884, 8797.889
1210.966, 8691.565
1212.048, 8760.050
1213.130, 8758.480
1214.212, 8754.038
1215.293, 8847.108
1216.374, 8760.462
1217.456, 8852.003
1218.536, 8753.000
1219.617, 8935.000
1220.698, 8890.000
1221.778, 8745.000
1222.859, 8787.000
1223.939, 8871.000
1225.019, 8911.000
1226.099, 8879.000
1227.178, 8783.000
1228.258, 8874.000
1229.337, 8866.000
1230.417, 8884.000
1231.496, 8919.000
1232.574, 8921.000
1233.653, 8863.000
1234.732, 8940.000
1235.810, 8845.000
1236.888, 8873.000
1237.966, 8930.000
1239.044, 8837.000
1240.122, 8780.000
1241.199, 8814.131
1242.277, 8758.425
1243.354, 8896.000
1244.431, 8741.000
1245.508, 8885.000
1246.585, 8894.000
1247.661, 8814.000
1248.738, 8821.000
1249.814, 8818.000
1250.890, 8736.000
1251.966, 8777.000
1253.042, 8816.000
1254.117, 8777.000
1255.193, 8794.249
1256.268, 8751.117
1257.343, 8764.000
1258.418, 8752.932
1259.493, 8676.000
1260.567, 8742.000
1261.642, 8729.000
1262.716, 8727.000
1263.790, 8672.000
1264.864, 8606.000
1265.938, 8682.000
1267.011, 8560.000
1268.085, 8619.000
1269.158, 8589.000
1270.231, 8769.000
1271.304, 8698.915
1272.377, 8718.494
1273.450, 8666.000
1274.522, 8625.000
1275.594, 8566.540
1276.666, 8645.419
1277.738, 8688.488
1278.810, 8697.675
1279.882, 8571.488
1280.953, 8620.109
1282.025, 8598.673
1283.096, 8574.367
1284.167, 8647.591
1285.238, 8541.096
1286.308, 8612.775
1287.379, 8643.000
1288.449, 8568.000
1289.519, 8719.000
1290.589, 8645.000
1291.659, 8598.000
1292.729, 8725.000
1293.798, 8758.460
1294.868, 8732.795
1295.937, 8747.310
1297.006, 8670.000
1298.075, 8700.000
1299.143, 8631.000
1300.212, 8679.000
1301.280, 8698.000
1302.348, 8626.000
1303.416, 8772.000
1304.484, 8669.000
1305.552, 8712.000
1306.620, 8649.000
1307.687, 8782.000
1308.754, 8708.000
1309.821, 8760.000
1310.888, 8846.000
1311.955, 8826.000
1313.021, 8847.261
1314.088, 8728.000
1315.154, 8814.000
1316.220, 8780.000
1317.286, 8754.000
1318.352, 8858.000
1319.417, 8811.000
1320.483, 8861.000
1321.548, 8851.715
1322.613, 8973.000
1323.678, 8764.831
1324.743, 8848.835
1325.807, 8897.029
1326.872, 8911.341
1327.936, 8790.279
1329.000, 8844.022
1330.064, 8827.711
1331.128, 8808.527
1332.191, 8886.871
1333.255, 8785.499
1334.318, 8862.297
1335.381, 8867.971
1336.444, 8906.197
1337.507, 8873.937
1338.569, 8863.444
1339.632, 8923.464
1340.694, 8917.000
1341.756, 8913.000
1342.818, 8910.000
1343.880, 8928.000
1344.941, 8854.000
1346.003, 8934.000
