##NAMES=Braunite
##RRUFFID=R050390
##IDEAL CHEMISTRY=Mn^2+^Mn^3+^_6_SiO_12_
##LOCALITY=Oehrenstock, Thuringia, Germany
##OWNER=RRUFF
##SOURCE=University of Arizona Mineral Museum
##DESCRIPTION=Mass of black octahedra
##STATUS=The identification of this mineral has been confirmed by X-ray diffraction and chemical analysis
##URL=rruff.info/R050390
##MEASURED CHEMISTRY=(Mn^2+^_0.83_Ca_0.17_)_Î£=1_Mn^3+^_6.00_Si_1.00_O_12_
##PIN_ID=M00380
##ORIENTATION=Laser parallel to c* (0 0 1). Fiducial mark perpendicular to laser is parallel to a [1 0 0]
297.4850, 28319.00
298.6930, 28242.00
299.9020, 28075.00
301.1110, 28245.00
302.3190, 28394.00
303.5270, 28343.00
304.7350, 28314.00
305.9430, 28206.00
307.1510, 28300.00
308.3580, 28110.08
309.5660, 28331.68
310.7730, 28463.03
311.9800, 28508.99
313.1870, 28213.83
314.3940, 28359.17
315.6010, 28327.97
316.8070, 28289.53
318.0130, 28496.85
319.2200, 28251.30
320.4260, 28824.00
321.6310, 28395.00
322.8370, 28621.00
324.0430, 29112.00
325.2480, 29211.00
326.4540, 29301.00
327.6590, 29290.00
328.8640, 29688.00
330.0680, 29799.00
331.2730, 29622.00
332.4780, 29956.24
333.6820, 30401.00
334.8860, 30202.00
336.0900, 30270.00
337.2940, 30225.00
338.4980, 30432.00
339.7010, 30363.00
340.9050, 30210.00
342.1080, 30431.00
343.3110, 30500.00
344.5140, 30218.00
345.7170, 30245.00
346.9200, 30210.00
348.1220, 30079.00
349.3240, 30122.00
350.5270, 29683.00
351.7290, 29452.00
352.9310, 29672.00
354.1320, 29660.00
355.3340, 29638.00
356.5350, 29585.00
357.7370, 29530.00
358.9380, 29588.00
360.1390, 29473.00
361.3400, 29573.00
362.5400, 29362.00
363.7410, 29492.00
364.9410, 29519.00
366.1410, 29441.00
367.3410, 29374.00
368.5410, 29457.00
369.7410, 29569.00
370.9400, 29632.00
372.1400, 29499.00
373.3390, 29615.00
374.5380, 29330.00
375.7370, 29301.48
376.9360, 29516.26
378.1350, 29640.80
379.3330, 29679.95
380.5310, 29377.97
381.7300, 29516.49
382.9280, 29478.48
384.1260, 29433.23
385.3230, 29633.73
386.5210, 29381.37
387.7180, 29577.98
388.9160, 29553.00
390.1130, 29458.00
391.3100, 29565.00
392.5060, 29659.00
393.7030, 29437.00
394.9000, 29455.00
396.0960, 29359.00
397.2920, 29722.00
398.4880, 29487.00
399.6840, 29479.09
400.8800, 29538.00
402.0750, 29258.00
403.2710, 29427.00
404.4660, 29395.00
405.6610, 29639.00
406.8560, 29366.00
408.0510, 29424.00
409.2450, 29393.00
410.4400, 29316.00
411.6340, 29424.00
412.8280, 29714.00
414.0220, 29536.00
415.2160, 29672.00
416.4100, 29343.00
417.6030, 29276.00
418.7970, 29462.00
419.9900, 29499.00
421.1830, 29433.00
422.3760, 29580.00
423.5690, 29483.00
424.7610, 29631.00
425.9540, 29412.00
427.1460, 29447.91
428.3380, 29460.40
429.5300, 29355.00
430.7220, 29567.00
431.9140, 29481.00
433.1050, 29695.00
434.2970, 29878.00
435.4880, 29688.00
436.6790, 29717.00
437.8700, 29680.00
439.0610, 29754.00
440.2510, 29713.00
441.4420, 29755.00
442.6320, 30009.00
443.8220, 29759.00
445.0120, 29909.00
446.2020, 29747.00
447.3910, 29943.00
448.5810, 29922.00
449.7700, 30110.00
450.9600, 30153.00
452.1490, 30090.00
453.3370, 30174.00
454.5260, 30365.00
455.7150, 30256.00
456.9030, 30180.00
458.0910, 30444.00
459.2800, 30333.00
460.4670, 30371.00
461.6550, 30460.00
462.8430, 30564.00
464.0300, 30592.00
465.2180, 30735.00
466.4050, 30676.00
467.5920, 30863.00
468.7790, 30735.00
469.9650, 31006.00
471.1520, 31134.00
472.3380, 30947.00
473.5250, 31045.00
474.7110, 31262.00
475.8970, 31341.00
477.0820, 31235.00
478.2680, 31445.00
479.4540, 31351.00
480.6390, 31522.00
481.8240, 31372.00
483.0090, 31749.00
484.1940, 31786.00
485.3780, 31889.00
486.5630, 32088.00
487.7470, 32121.23
488.9320, 32091.00
490.1160, 32226.00
491.3000, 32393.00
492.4830, 32326.00
493.6670, 32419.00
494.8500, 32421.00
496.0340, 32579.00
497.2170, 32618.00
498.4000, 32533.00
499.5820, 32619.00
500.7650, 32741.00
501.9480, 32682.00
503.1300, 32713.00
504.3120, 32773.32
505.4940, 32815.52
506.6760, 32859.00
507.8580, 32979.00
509.0390, 33004.00
510.2210, 33069.00
511.4020, 33078.00
512.5830, 33363.00
513.7640, 33500.00
514.9450, 33665.00
516.1250, 33607.00
517.3060, 33801.00
518.4860, 33682.00
519.6660, 33957.00
520.8460, 34002.00
522.0260, 33855.00
523.2060, 34202.00
524.3850, 33870.00
525.5650, 33856.00
526.7440, 33760.00
527.9230, 33854.00
529.1020, 33749.00
530.2810, 33529.00
531.4590, 33514.00
532.6380, 33397.00
533.8160, 33417.00
534.9940, 33335.00
536.1720, 33241.00
537.3500, 32912.00
538.5270, 33199.00
539.7050, 32735.00
540.8820, 33202.00
542.0590, 32947.00
543.2360, 33193.00
544.4130, 33001.00
545.5900, 33167.00
546.7660, 33155.22
547.9430, 33086.00
549.1190, 33179.00
550.2950, 33127.23
551.4710, 33133.84
552.6470, 33092.00
553.8220, 33190.00
554.9980, 33143.00
556.1730, 33304.00
557.3480, 33176.00
558.5230, 33311.00
559.6980, 33245.00
560.8730, 33191.00
562.0470, 33179.00
563.2220, 33137.00
564.3960, 33175.00
565.5700, 33232.38
566.7440, 33382.00
567.9170, 33407.00
569.0910, 33525.00
570.2640, 33605.00
571.4380, 33669.00
572.6110, 33440.00
573.7840, 33551.00
574.9570, 33074.00
576.1290, 32999.00
577.3020, 33200.00
578.4740, 33115.00
579.6460, 32762.00
580.8180, 32616.00
581.9900, 32667.00
583.1620, 32606.00
584.3330, 32488.00
585.5040, 32329.00
586.6760, 32455.00
587.8470, 32394.00
589.0180, 32230.00
590.1880, 32175.00
591.3590, 32089.00
592.5290, 32038.00
593.7000, 32057.00
594.8700, 32133.00
596.0400, 32146.00
597.2090, 32076.00
598.3790, 32007.00
599.5490, 32225.00
600.7180, 32002.00
601.8870, 31892.00
603.0560, 31991.00
604.2250, 32202.00
605.3940, 31971.00
606.5620, 32271.00
607.7300, 32216.00
608.8990, 32251.00
610.0670, 32382.00
611.2350, 32307.00
612.4020, 32345.00
613.5700, 32426.00
614.7370, 32393.00
615.9050, 32378.00
617.0720, 32529.00
618.2390, 32495.00
619.4060, 32905.00
620.5720, 32655.00
621.7390, 32467.00
622.9050, 32635.00
624.0710, 33108.00
625.2370, 32843.00
626.4030, 33318.00
627.5690, 33071.00
628.7340, 33083.00
629.9000, 33398.00
631.0650, 33678.00
632.2300, 33995.00
633.3950, 34414.00
634.5600, 33309.00
635.7240, 33303.00
636.8890, 33373.00
638.0530, 33905.00
639.2170, 33881.00
640.3810, 33226.00
641.5450, 33024.00
642.7080, 32885.00
643.8720, 32854.00
645.0350, 32853.00
646.1980, 32775.70
647.3610, 32776.53
648.5240, 32710.00
649.6870, 32593.00
650.8490, 32567.00
652.0120, 32499.59
653.1740, 32399.68
654.3360, 32424.00
655.4980, 32203.00
656.6600, 32178.00
657.8210, 32068.00
658.9830, 32154.00
660.1440, 32199.00
661.3050, 32012.00
662.4660, 32096.00
663.6270, 32200.00
664.7870, 32347.00
665.9480, 32234.00
667.1080, 32017.00
668.2680, 32354.00
669.4280, 32130.00
670.5880, 32435.00
671.7480, 32291.00
672.9070, 32296.00
674.0670, 32473.00
675.2260, 32487.00
676.3850, 32753.00
677.5440, 32526.00
678.7030, 32653.00
679.8610, 32633.00
681.0200, 32946.00
682.1780, 33065.00
683.3360, 32983.00
684.4940, 33116.00
685.6520, 33237.34
686.8090, 33395.46
687.9670, 33564.00
689.1240, 33853.00
690.2810, 34043.00
691.4380, 34269.00
692.5950, 34434.00
693.7520, 34691.00
694.9080, 34907.00
696.0650, 35143.00
697.2210, 35612.00
698.3770, 35743.00
699.5330, 35690.00
700.6880, 36121.00
701.8440, 36043.00
702.9990, 36137.00
704.1550, 35931.00
705.3100, 36682.00
706.4650, 36011.00
707.6190, 36079.00
708.7740, 36186.00
709.9290, 35744.00
711.0830, 35735.00
712.2370, 35401.00
713.3910, 35431.00
714.5450, 35116.00
715.6980, 36751.00
716.8520, 35292.00
718.0050, 34628.00
719.1580, 35344.00
720.3110, 34065.00
721.4640, 33858.00
722.6170, 33658.00
723.7700, 33140.00
724.9220, 33158.00
726.0740, 32953.00
727.2260, 32423.00
728.3780, 32491.00
729.5300, 32239.00
730.6810, 32064.00
731.8330, 32290.00
732.9840, 32059.00
734.1350, 31773.00
735.2860, 31602.00
736.4370, 31557.00
737.5880, 31676.00
738.7380, 31491.00
739.8880, 31457.00
741.0390, 31256.00
742.1890, 31195.00
743.3380, 31157.00
744.4880, 31104.00
745.6380, 31041.00
746.7870, 31138.00
747.9360, 31371.00
749.0850, 31152.00
750.2340, 30897.99
751.3830, 31077.26
752.5310, 31166.31
753.6800, 31169.96
754.8280, 30832.50
755.9760, 30935.53
757.1240, 30862.03
758.2720, 30781.30
759.4190, 30946.35
760.5670, 30658.51
761.7140, 30819.67
762.8610, 30801.60
764.0080, 30865.56
765.1550, 30751.90
766.3020, 30848.00
767.4480, 30476.00
768.5950, 30751.00
769.7410, 30865.00
770.8870, 30746.00
772.0330, 30590.00
773.1780, 30647.00
774.3240, 30616.00
775.4690, 30635.00
776.6140, 30593.00
777.7590, 30630.00
778.9040, 30596.00
780.0490, 30597.00
781.1940, 30662.00
782.3380, 30651.00
783.4820, 30903.00
784.6260, 30758.00
785.7700, 30802.00
786.9140, 30648.00
788.0580, 30770.52
789.2010, 30914.25
790.3450, 30725.00
791.4880, 30861.35
792.6310, 30725.00
793.7730, 30816.00
794.9160, 30799.82
796.0590, 30594.42
797.2010, 30765.00
798.3430, 30761.00
799.4850, 31049.00
800.6270, 30958.80
801.7690, 30931.00
802.9100, 30897.00
804.0520, 30808.00
805.1930, 30861.00
806.3340, 30914.00
807.4750, 30958.00
808.6160, 30876.00
809.7560, 30853.00
810.8970, 30855.00
812.0370, 31168.00
813.1770, 30950.00
814.3170, 31379.00
815.4570, 31094.00
816.5960, 31036.00
817.7360, 31025.00
818.8750, 31225.00
820.0140, 31232.00
821.1530, 31140.00
822.2920, 31061.00
823.4310, 31105.65
824.5690, 31114.79
825.7070, 31177.00
826.8460, 31272.00
827.9840, 31321.00
829.1220, 31433.00
830.2590, 31363.00
831.3970, 31162.00
832.5340, 31294.00
833.6710, 31272.00
834.8080, 31356.00
835.9450, 31144.00
837.0820, 31332.00
838.2190, 31408.00
839.3550, 31593.00
840.4910, 31502.00
841.6270, 31449.00
842.7630, 31205.00
843.8990, 31244.00
845.0350, 31268.00
846.1700, 31281.00
847.3060, 31192.00
848.4410, 31318.00
849.5760, 31297.00
850.7100, 31347.00
851.8450, 31236.00
852.9800, 31421.00
854.1140, 31177.00
855.2480, 31399.00
856.3820, 31425.00
857.5160, 31331.00
858.6500, 31302.00
859.7830, 31345.00
860.9170, 31314.37
862.0500, 31301.00
863.1830, 31384.00
864.3160, 31389.00
865.4480, 31497.00
866.5810, 31519.00
867.7130, 31482.00
868.8460, 31507.00
869.9780, 31438.00
871.1100, 31509.00
872.2410, 31454.00
873.3730, 31236.00
874.5050, 31498.00
875.6360, 31389.00
876.7670, 31049.90
877.8980, 31279.65
879.0290, 31419.17
880.1590, 31473.27
881.2900, 31186.28
882.4200, 31339.75
883.5500, 31316.70
884.6800, 31286.40
885.8100, 31501.88
886.9400, 31264.48
888.0690, 31476.03
889.1990, 31508.38
890.3280, 31622.74
891.4570, 31559.47
892.5860, 31551.07
893.7140, 31720.33
894.8430, 31791.22
895.9710, 31492.00
897.1000, 31644.00
898.2280, 31459.00
899.3560, 31521.04
900.4830, 31733.66
901.6110, 31856.06
902.7380, 31893.06
903.8660, 31588.95
904.9930, 31725.32
906.1200, 31685.16
907.2460, 31637.76
908.3730, 31836.12
909.5000, 31581.62
910.6260, 31776.08
911.7520, 31791.33
912.8780, 31888.60
914.0040, 31808.24
915.1290, 31782.75
916.2550, 31934.94
917.3800, 31988.73
918.5050, 31887.93
919.6300, 31990.41
920.7550, 31953.00
921.8800, 32264.00
923.0040, 32182.00
924.1290, 31917.00
925.2530, 32378.00
926.3770, 32272.00
927.5010, 32151.00
928.6250, 32283.00
929.7480, 32288.00
930.8720, 32369.00
931.9950, 32470.00
933.1180, 32625.00
934.2410, 32539.00
935.3640, 32316.00
936.4860, 32717.00
937.6090, 32560.00
938.7310, 33035.00
939.8530, 33545.00
940.9750, 32983.00
942.0970, 33082.00
943.2180, 33259.00
944.3400, 33103.00
945.4610, 33305.00
946.5820, 33351.00
947.7030, 33374.00
948.8240, 33511.00
949.9450, 33508.00
951.0650, 33622.00
952.1860, 33836.00
953.3060, 33733.00
954.4260, 34040.00
955.5460, 33959.00
956.6650, 34221.00
957.7850, 34281.30
958.9040, 34656.00
960.0230, 34366.00
961.1420, 34760.00
962.2610, 34686.00
963.3800, 34339.00
964.4990, 34674.00
965.6170, 34657.00
966.7350, 34597.00
967.8530, 34447.00
968.9710, 34524.00
970.0890, 34514.00
971.2070, 34679.00
972.3240, 34592.00
973.4410, 34192.00
974.5580, 34328.00
975.6750, 34271.00
976.7920, 34367.00
977.9090, 34116.00
979.0250, 34342.00
980.1410, 33908.00
981.2580, 34172.00
982.3740, 33961.00
983.4890, 33800.00
984.6050, 34028.00
985.7200, 33675.00
986.8360, 33700.00
987.9510, 33693.00
989.0660, 33726.00
990.1810, 33851.00
991.2950, 33662.00
992.4100, 33611.00
993.5240, 33804.00
994.6390, 33599.00
995.7530, 33807.00
996.8660, 33804.77
997.9800, 33950.00
999.0940, 33701.00
1000.207, 33779.00
1001.320, 33756.46
1002.433, 33618.00
1003.546, 33737.00
1004.659, 33544.00
1005.772, 33495.00
1006.884, 33749.00
1007.996, 33632.00
1009.108, 33529.00
1010.220, 33390.00
1011.332, 33474.00
1012.444, 33362.00
1013.555, 33324.00
1014.666, 33553.00
1015.777, 33486.00
1016.888, 33504.32
1017.999, 33542.95
1019.110, 33397.00
1020.220, 33497.00
1021.331, 33348.00
1022.441, 33280.00
1023.551, 33500.00
1024.661, 33424.00
1025.770, 33577.00
1026.880, 33369.00
1027.989, 33217.00
1029.098, 33396.00
1030.207, 33466.00
1031.316, 33448.00
1032.425, 33418.00
1033.533, 33408.00
1034.642, 33754.00
1035.750, 33304.00
1036.858, 33459.00
1037.966, 33486.11
1039.073, 33521.00
1040.181, 33537.00
1041.288, 33451.00
1042.396, 33377.00
1043.503, 33447.18
1044.610, 33691.00
1045.716, 33568.00
1046.823, 33667.00
1047.929, 33730.74
1049.036, 33607.00
1050.142, 33859.00
1051.248, 33696.00
1052.353, 33432.00
1053.459, 34061.00
1054.564, 33650.00
1055.670, 33890.00
1056.775, 33923.00
1057.880, 33920.00
1058.985, 33922.00
1060.089, 33779.00
1061.194, 34084.00
1062.298, 34032.00
1063.402, 34125.00
1064.506, 33906.00
1065.610, 34042.00
1066.713, 34049.00
1067.817, 33914.00
1068.920, 33952.00
1070.023, 34313.00
1071.126, 34102.00
1072.229, 34136.00
1073.332, 33874.00
1074.435, 33978.00
1075.537, 34019.00
1076.639, 34045.00
1077.741, 34061.43
1078.843, 33825.00
1079.945, 33996.00
1081.046, 33876.22
1082.148, 33751.00
1083.249, 33860.00
1084.350, 33684.00
1085.451, 33740.00
1086.551, 33749.00
1087.652, 33596.00
1088.752, 33637.00
1089.853, 33799.00
1090.953, 33612.00
1092.053, 33777.00
1093.152, 33678.00
1094.252, 33712.00
1095.351, 33918.00
1096.451, 33440.00
1097.550, 33679.00
1098.649, 33686.00
1099.748, 33556.00
1100.846, 33440.00
1101.945, 33594.00
1103.043, 33527.00
1104.141, 33338.00
1105.239, 33740.00
1106.337, 33461.92
1107.434, 33433.00
1108.532, 33267.82
1109.629, 33448.83
1110.726, 33539.62
1111.823, 33545.02
1112.920, 33209.29
1114.017, 33314.05
1115.113, 33242.31
1116.210, 33163.30
1117.306, 33330.09
1118.402, 33044.00
1119.498, 33206.89
1120.593, 33190.58
1121.689, 33256.27
1122.784, 33144.36
1123.879, 33087.32
1124.974, 33207.95
1126.069, 33230.20
1127.164, 33097.85
1128.259, 33168.78
1129.353, 32876.53
1130.447, 32903.00
1131.541, 33066.97
1132.635, 32943.57
1133.729, 32663.00
1134.822, 32442.00
1135.916, 32382.08
1137.009, 32557.97
1138.102, 32643.62
1139.195, 32643.88
1140.288, 32303.02
1141.380, 32402.68
1142.473, 32325.78
1143.565, 32241.68
1144.657, 32403.34
1145.749, 32112.12
1146.841, 32269.88
1147.932, 32248.45
1149.024, 32309.01
1150.115, 32191.98
1151.206, 32129.81
1152.297, 32245.33
1153.388, 32262.46
1154.479, 32124.98
1155.569, 32190.82
1156.659, 31893.45
1157.750, 32052.00
1158.839, 31961.00
1159.929, 31970.91
1161.019, 31926.00
1162.108, 32018.00
1163.198, 31836.00
1164.287, 31790.00
1165.376, 31960.00
1166.465, 32075.00
1167.553, 31686.00
1168.642, 31910.00
1169.730, 31893.00
1170.818, 31744.00
1171.906, 31633.35
1172.994, 31827.95
1174.082, 31932.31
1175.170, 31951.29
1176.257, 31629.16
1177.344, 31747.51
1178.431, 31689.34
1179.518, 31623.93
1180.605, 31804.29
1181.691, 31531.78
1182.778, 31708.23
1183.864, 31705.48
1184.950, 31784.75
1186.036, 31686.40
1187.122, 31642.91
1188.207, 31777.11
1189.292, 31812.93
1190.378, 31694.13
1191.463, 31778.62
1192.548, 31499.92
1193.632, 31539.94
1194.717, 31717.46
1195.801, 31607.61
1196.886, 31695.36
1197.970, 31707.85
1199.054, 31378.34
1200.137, 31643.63
1201.221, 31651.68
1202.305, 31395.61
1203.388, 31640.52
1204.471, 31420.87
1205.554, 31367.05
1206.637, 31438.01
1207.719, 31378.89
1208.802, 31524.86
1209.884, 31473.25
1210.966, 31404.00
1212.048, 31411.78
1213.130, 31201.26
1214.212, 31395.73
1215.293, 31500.00
1216.374, 31496.00
1217.456, 31292.00
1218.536, 31353.00
1219.617, 31287.00
1220.698, 31455.00
1221.778, 31444.00
1222.859, 31476.00
1223.939, 31807.00
1225.019, 31558.00
1226.099, 31466.00
1227.178, 31224.00
1228.258, 31489.00
1229.337, 31502.00
1230.417, 31324.00
1231.496, 31336.00
1232.574, 31418.00
1233.653, 31430.00
1234.732, 31443.00
1235.810, 31441.00
1236.888, 31573.00
1237.966, 31361.00
1239.044, 31488.00
1240.122, 31363.00
1241.199, 31331.00
1242.277, 31206.00
1243.354, 31405.00
1244.431, 31229.00
1245.508, 31546.00
1246.585, 31297.00
1247.661, 31292.00
1248.738, 31360.00
1249.814, 31319.00
1250.890, 31112.00
1251.966, 31346.00
1253.042, 31259.00
1254.117, 31494.00
1255.193, 31690.00
1256.268, 31255.00
1257.343, 31403.00
1258.418, 31246.00
1259.493, 31135.00
1260.567, 31249.00
1261.642, 31280.00
1262.716, 31274.00
1263.790, 31341.00
1264.864, 31188.00
1265.938, 31291.00
1267.011, 31158.00
1268.085, 31201.00
1269.158, 31517.00
1270.231, 31409.00
1271.304, 31395.00
1272.377, 31331.00
1273.450, 31506.00
1274.522, 31381.03
1275.594, 31405.00
1276.666, 31345.00
1277.738, 31146.00
1278.810, 31300.00
1279.882, 31575.00
1280.953, 31351.00
1282.025, 31304.00
1283.096, 31268.00
1284.167, 31229.99
1285.238, 31275.89
1286.308, 31318.00
1287.379, 31354.00
1288.449, 31475.00
1289.519, 31433.00
1290.589, 31462.00
1291.659, 31232.00
1292.729, 31236.00
1293.798, 31262.00
1294.868, 31276.00
1295.937, 31216.00
1297.006, 31022.00
1298.075, 31320.00
1299.143, 31314.00
1300.212, 31147.00
1301.280, 31316.00
1302.348, 31318.00
1303.416, 31447.00
1304.484, 31529.62
1305.552, 31257.00
1306.620, 31577.00
1307.687, 31487.00
1308.754, 31237.00
1309.821, 31371.00
1310.888, 31377.00
1311.955, 31355.00
1313.021, 31505.00
1314.088, 31549.00
1315.154, 31432.00
1316.220, 31484.00
1317.286, 31511.00
1318.352, 31768.00
1319.417, 31383.00
1320.483, 31489.00
1321.548, 31261.00
1322.613, 31558.00
1323.678, 31340.00
1324.743, 31432.00
1325.807, 31491.00
1326.872, 31554.00
1327.936, 31493.00
1329.000, 31622.00
1330.064, 31579.04
1331.128, 31668.00
1332.191, 31547.00
1333.255, 31519.00
1334.318, 31483.00
1335.381, 31444.00
1336.444, 31604.00
1337.507, 31316.19
1338.569, 31518.95
1339.632, 31631.46
1340.694, 31658.59
1341.756, 31344.59
1342.818, 31471.09
1343.880, 31421.06
1344.941, 31363.79
1346.003, 31552.29
1347.064, 31287.91
1348.125, 31472.51
1349.186, 31477.88
1350.247, 31565.29
1351.308, 31475.07
1352.368, 31439.71
1353.428, 31582.04
1354.489, 31625.97
1355.549, 31528.71
1356.608, 31694.00
1357.668, 31546.00
1358.727, 31703.00
1359.787, 31571.00
1360.846, 31535.00
1361.905, 32184.00
1362.964, 31458.00
1364.022, 31519.00
1365.081, 31776.00
1366.139, 31339.00
1367.197, 31419.00
1368.255, 31389.00
1369.313, 31443.00
1370.371, 31569.00
1371.428, 31619.00
1372.486, 31388.00
1373.543, 31866.00
1374.600, 31530.00
1375.657, 31784.00
1376.713, 31743.68
1377.770, 32097.00
1378.826, 31532.00
1379.882, 31817.00
1380.938, 31526.00
1381.994, 31575.00
1383.050, 32120.00
1384.106, 31492.00
1385.161, 31635.00
1386.216, 31457.00
1387.271, 31590.00
1388.326, 31345.00
1389.381, 31819.00
1390.435, 31429.00
1391.490, 31662.00
1392.544, 31518.00
1393.598, 31456.00
1394.652, 31695.00
1395.705, 31471.00
1396.759, 31695.00
1397.812, 31817.00
1398.866, 31444.00
1399.919, 31779.00
1400.972, 31718.00
1402.024, 31491.00
1403.077, 31529.00
1404.129, 31665.00
1405.181, 31686.00
1406.233, 31526.00
1407.285, 31660.00
1408.337, 31554.00
1409.389, 31418.00
1410.440, 31476.00
1411.491, 31521.00
1412.542, 31544.00
1413.593, 31580.00
1414.644, 31521.00
1415.695, 31797.00
1416.745, 31745.00
1417.795, 31643.00
1418.845, 31437.00
1419.895, 31486.00
1420.945, 31534.00
1421.995, 31592.00
1423.044, 31660.00
1424.093, 31554.00
1425.142, 31660.00
1426.191, 31473.00
1427.240, 31536.00
1428.289, 31448.00
1429.337, 31490.00
1430.385, 31664.00
1431.433, 31533.00
1432.481, 31820.00
1433.529, 31631.00
1434.577, 31472.00
1435.624, 31551.00
1436.672, 31644.00
1437.719, 31576.00
1438.766, 31760.00
1439.812, 31687.00
1440.859, 31570.00
1441.905, 31595.00
1442.952, 31562.08
1443.998, 31612.95
1445.044, 31510.00
1446.090, 31792.00
1447.135, 31610.00
1448.181, 31718.00
1449.226, 31645.00
1450.271, 31641.00
