##NAMES=Braunite
##RRUFFID=R050390
##IDEAL CHEMISTRY=Mn^2+^Mn^3+^_6_SiO_12_
##LOCALITY=Oehrenstock, Thuringia, Germany
##OWNER=RRUFF
##SOURCE=University of Arizona Mineral Museum
##DESCRIPTION=Mass of black octahedra
##STATUS=The identification of this mineral has been confirmed by X-ray diffraction and chemical analysis
##URL=rruff.info/R050390
##MEASURED CHEMISTRY=(Mn^2+^_0.83_Ca_0.17_)_Î£=1_Mn^3+^_6.00_Si_1.00_O_12_
##PIN_ID=M00380
##ORIENTATION=Laser parallel to c* (0 0 1). Fiducial mark perpendicular to laser is parallel to a [1 0 0]
292.6480, 29769.00
293.8570, 29525.00
295.0670, 29428.00
296.2760, 29568.00
297.4850, 29613.00
298.6930, 29459.00
299.9020, 29311.00
301.1110, 29313.00
302.3190, 29427.00
303.5270, 29435.00
304.7350, 29368.00
305.9430, 29421.00
307.1510, 29477.00
308.3580, 29545.00
309.5660, 29533.75
310.7730, 29480.65
311.9800, 29483.00
313.1870, 29419.00
314.3940, 29342.00
315.6010, 29582.00
316.8070, 29547.00
318.0130, 29879.00
319.2200, 29792.00
320.4260, 29799.00
321.6310, 29756.00
322.8370, 30012.00
324.0430, 30079.00
325.2480, 30057.00
326.4540, 30338.00
327.6590, 30334.00
328.8640, 30681.00
330.0680, 30815.00
331.2730, 30869.00
332.4780, 31041.00
333.6820, 31023.83
334.8860, 31271.00
336.0900, 31156.00
337.2940, 31237.00
338.4980, 31633.00
339.7010, 31421.00
340.9050, 31801.00
342.1080, 31334.00
343.3110, 31455.00
344.5140, 31570.00
345.7170, 31473.00
346.9200, 31317.00
348.1220, 31395.00
349.3240, 31279.83
350.5270, 31250.39
351.7290, 31124.00
352.9310, 31166.00
354.1320, 30946.00
355.3340, 30864.00
356.5350, 30793.80
357.7370, 30959.28
358.9380, 31053.44
360.1390, 31080.12
361.3400, 30837.19
362.5400, 30942.40
363.7410, 30908.09
364.9410, 30868.06
366.1410, 31022.27
367.3410, 30818.56
368.5410, 30969.68
369.7410, 30979.16
370.9400, 31053.47
372.1400, 30987.40
373.3390, 30964.68
374.5380, 31082.39
375.7370, 31122.35
376.9360, 31040.12
378.1350, 31118.54
379.3330, 30909.92
380.5310, 30953.18
381.7300, 31105.13
382.9280, 31029.95
384.1260, 31110.94
385.3230, 31132.46
386.5210, 30883.67
387.7180, 31025.00
388.9160, 31048.00
390.1130, 31036.00
391.3100, 30958.00
392.5060, 30900.00
393.7030, 30922.00
394.9000, 30868.00
396.0960, 30868.26
397.2920, 30945.00
398.4880, 30900.00
399.6840, 30852.00
400.8800, 30949.00
402.0750, 30919.00
403.2710, 30718.00
404.4660, 30918.00
405.6610, 31058.00
406.8560, 30494.00
408.0510, 30937.00
409.2450, 30717.34
410.4400, 30607.62
411.6340, 30777.00
412.8280, 30505.00
414.0220, 30806.00
415.2160, 30950.00
416.4100, 30749.00
417.6030, 30762.00
418.7970, 30744.00
419.9900, 30918.00
421.1830, 30771.00
422.3760, 30849.00
423.5690, 30986.00
424.7610, 30939.00
425.9540, 30984.00
427.1460, 30741.13
428.3380, 30944.10
429.5300, 31075.74
430.7220, 31139.91
431.9140, 30934.47
433.1050, 31077.13
434.2970, 31080.32
435.4880, 31077.74
436.6790, 31269.41
437.8700, 31103.15
439.0610, 31291.73
440.2510, 31338.64
441.4420, 31450.40
442.6320, 31421.76
443.8220, 31358.00
445.0120, 31578.00
446.2020, 31550.06
447.3910, 31387.00
448.5810, 31529.00
449.7700, 31563.00
450.9600, 31481.00
452.1490, 31413.00
453.3370, 31537.00
454.5260, 31605.00
455.7150, 31650.00
456.9030, 31766.26
458.0910, 31838.00
459.2800, 31945.00
460.4670, 32000.00
461.6550, 32061.00
462.8430, 32036.00
464.0300, 32224.00
465.2180, 32288.00
466.4050, 32444.00
467.5920, 32293.00
468.7790, 32567.00
469.9650, 32223.00
471.1520, 32415.00
472.3380, 32447.00
473.5250, 32685.00
474.7110, 32752.89
475.8970, 32864.00
477.0820, 32953.00
478.2680, 33047.48
479.4540, 33115.81
480.6390, 33176.82
481.8240, 33209.00
483.0090, 33251.00
484.1940, 33237.00
485.3780, 33218.00
486.5630, 33437.00
487.7470, 33600.00
488.9320, 33700.00
490.1160, 33690.00
491.3000, 33768.00
492.4830, 33757.00
493.6670, 34117.00
494.8500, 33868.00
496.0340, 33968.00
497.2170, 33714.00
498.4000, 34169.00
499.5820, 34246.00
500.7650, 34223.00
501.9480, 34244.00
503.1300, 34145.00
504.3120, 34181.00
505.4940, 34509.00
506.6760, 34536.00
507.8580, 34755.58
509.0390, 34833.64
510.2210, 35184.00
511.4020, 34948.00
512.5830, 35222.00
513.7640, 35305.00
514.9450, 35070.00
516.1250, 35038.00
517.3060, 35134.00
518.4860, 35358.00
519.6660, 35199.00
520.8460, 35222.00
522.0260, 35119.00
523.2060, 35357.00
524.3850, 35123.00
525.5650, 35064.00
526.7440, 35289.00
527.9230, 35277.00
529.1020, 35134.00
530.2810, 35179.00
531.4590, 35157.00
532.6380, 34990.00
533.8160, 34940.31
534.9940, 34905.00
536.1720, 34691.00
537.3500, 34542.00
538.5270, 34435.00
539.7050, 34252.00
540.8820, 34221.30
542.0590, 34256.00
543.2360, 34176.00
544.4130, 34250.76
545.5900, 34597.00
546.7660, 34402.00
547.9430, 34308.00
549.1190, 34441.00
550.2950, 34096.00
551.4710, 34313.00
552.6470, 34569.00
553.8220, 34520.00
554.9980, 34474.00
556.1730, 34427.00
557.3480, 34664.00
558.5230, 34465.00
559.6980, 34385.00
560.8730, 34667.00
562.0470, 34687.00
563.2220, 34620.00
564.3960, 35111.00
565.5700, 34846.00
566.7440, 35050.00
567.9170, 34741.00
569.0910, 34695.00
570.2640, 34932.00
571.4380, 34680.00
572.6110, 34833.00
573.7840, 34917.00
574.9570, 34408.00
576.1290, 34625.00
577.3020, 34273.00
578.4740, 34321.00
579.6460, 34258.00
580.8180, 34174.00
581.9900, 34002.00
583.1620, 34038.00
584.3330, 33887.00
585.5040, 33729.00
586.6760, 33917.00
587.8470, 33685.00
589.0180, 33659.00
590.1880, 33595.00
591.3590, 33633.00
592.5290, 33739.00
593.7000, 33517.00
594.8700, 33382.00
596.0400, 33679.00
597.2090, 33474.00
598.3790, 33301.00
599.5490, 33591.00
600.7180, 33431.00
601.8870, 33675.00
603.0560, 33721.00
604.2250, 33745.00
605.3940, 33895.00
606.5620, 33973.11
607.7300, 34070.37
608.8990, 34138.00
610.0670, 34211.00
611.2350, 34110.00
612.4020, 34010.00
613.5700, 34395.00
614.7370, 34428.00
615.9050, 34531.11
617.0720, 34888.00
618.2390, 34547.00
619.4060, 35060.00
620.5720, 34713.59
621.7390, 35689.00
622.9050, 35599.00
624.0710, 35709.00
625.2370, 35648.00
626.4030, 35908.00
627.5690, 36146.00
628.7340, 36514.00
629.9000, 36444.00
631.0650, 36601.00
632.2300, 36303.00
633.3950, 36010.00
634.5600, 36384.00
635.7240, 36349.00
636.8890, 36256.00
638.0530, 36186.00
639.2170, 36000.00
640.3810, 35873.38
641.5450, 35958.00
642.7080, 36432.00
643.8720, 36282.00
645.0350, 36243.88
646.1980, 36261.57
647.3610, 35674.00
648.5240, 35878.00
649.6870, 35281.00
650.8490, 34775.00
652.0120, 34329.00
653.1740, 34421.00
654.3360, 34263.00
655.4980, 34372.00
656.6600, 34139.00
657.8210, 34099.00
658.9830, 34138.00
660.1440, 33969.09
661.3050, 33915.00
662.4660, 33831.00
663.6270, 33754.00
664.7870, 33783.00
665.9480, 33927.00
667.1080, 33853.00
668.2680, 33931.00
669.4280, 33842.00
670.5880, 33739.00
671.7480, 34071.00
672.9070, 33797.00
674.0670, 33952.00
675.2260, 34008.00
676.3850, 34015.00
677.5440, 34090.00
678.7030, 34320.00
679.8610, 34171.00
681.0200, 34272.00
682.1780, 34167.00
683.3360, 34060.00
684.4940, 34377.00
685.6520, 34502.00
686.8090, 34423.00
687.9670, 34671.00
689.1240, 34627.00
690.2810, 35211.00
691.4380, 35057.00
692.5950, 35309.00
693.7520, 35309.00
694.9080, 35649.00
696.0650, 35877.00
697.2210, 35697.00
698.3770, 35908.00
699.5330, 36035.00
700.6880, 36122.00
701.8440, 36368.00
702.9990, 36406.00
704.1550, 36444.00
705.3100, 36416.00
706.4650, 36385.00
707.6190, 36517.00
708.7740, 36364.00
709.9290, 36262.00
711.0830, 36245.00
712.2370, 36008.00
713.3910, 35901.00
714.5450, 35822.95
715.6980, 35557.10
716.8520, 35747.00
718.0050, 35030.00
719.1580, 35132.00
720.3110, 34761.00
721.4640, 34937.00
722.6170, 34525.00
723.7700, 34186.00
724.9220, 34226.00
726.0740, 34022.00
727.2260, 33761.00
728.3780, 33671.00
729.5300, 33559.92
730.6810, 33339.68
731.8330, 33585.00
732.9840, 33312.00
734.1350, 33564.00
735.2860, 33344.53
736.4370, 33121.09
737.5880, 33090.00
738.7380, 32751.00
739.8880, 32885.00
741.0390, 32699.88
742.1890, 32621.09
743.3380, 32492.00
744.4880, 32574.00
745.6380, 32439.00
746.7870, 32592.00
747.9360, 32443.00
749.0850, 32519.00
750.2340, 32496.00
751.3830, 32553.00
752.5310, 32522.99
753.6800, 32388.00
754.8280, 32459.00
755.9760, 32309.00
757.1240, 32277.00
758.2720, 32310.09
759.4190, 32472.00
760.5670, 32359.00
761.7140, 32366.00
762.8610, 32381.00
764.0080, 32317.00
765.1550, 32357.00
766.3020, 32328.49
767.4480, 32209.00
768.5950, 32353.00
769.7410, 32406.00
770.8870, 32527.00
772.0330, 32364.58
773.1780, 32177.00
774.3240, 32065.00
775.4690, 32052.93
776.6140, 32438.00
777.7590, 32147.00
778.9040, 32247.00
780.0490, 32374.00
781.1940, 32170.00
782.3380, 32395.00
783.4820, 32202.00
784.6260, 32233.00
785.7700, 32236.27
786.9140, 32346.00
788.0580, 32252.00
789.2010, 32226.00
790.3450, 32389.00
791.4880, 32335.00
792.6310, 32157.00
793.7730, 32126.00
794.9160, 32217.00
796.0590, 32123.00
797.2010, 32376.00
798.3430, 32375.00
799.4850, 32346.00
800.6270, 32567.00
801.7690, 32467.00
802.9100, 32658.00
804.0520, 32520.00
805.1930, 32189.00
806.3340, 32672.00
807.4750, 32502.00
808.6160, 32673.00
809.7560, 32718.98
810.8970, 32416.00
812.0370, 32602.00
813.1770, 32670.00
814.3170, 32446.00
815.4570, 32625.00
816.5960, 32460.00
817.7360, 32835.00
818.8750, 32668.00
820.0140, 32605.00
821.1530, 32582.00
822.2920, 32571.38
823.4310, 32708.72
824.5690, 32655.01
825.7070, 32795.00
826.8460, 32829.00
827.9840, 32903.00
829.1220, 32827.00
830.2590, 32676.00
831.3970, 32657.00
832.5340, 32797.00
833.6710, 32842.00
834.8080, 32893.57
835.9450, 33013.00
837.0820, 32867.00
838.2190, 32980.00
839.3550, 32665.00
840.4910, 32955.00
841.6270, 32645.00
842.7630, 32846.00
843.8990, 32969.00
845.0350, 32717.00
846.1700, 33008.00
847.3060, 32836.00
848.4410, 32894.00
849.5760, 32970.00
850.7100, 32949.00
851.8450, 32932.00
852.9800, 32796.00
854.1140, 33101.00
855.2480, 33050.00
856.3820, 32930.00
857.5160, 32845.00
858.6500, 33046.00
859.7830, 32885.00
860.9170, 32763.00
862.0500, 32971.00
863.1830, 32818.00
864.3160, 33091.00
865.4480, 32939.00
866.5810, 32934.62
867.7130, 32903.00
868.8460, 32887.00
869.9780, 33085.00
871.1100, 33215.00
872.2410, 33175.00
873.3730, 33104.00
874.5050, 32872.00
875.6360, 33136.00
876.7670, 32888.00
877.8980, 33046.00
879.0290, 32998.00
880.1590, 33215.00
881.2900, 33093.00
882.4200, 32843.00
883.5500, 33169.00
884.6800, 32791.00
885.8100, 33093.00
886.9400, 33268.00
888.0690, 32857.00
889.1990, 32929.00
890.3280, 33014.00
891.4570, 33262.00
892.5860, 33118.00
893.7140, 33228.00
894.8430, 33255.00
895.9710, 33204.00
897.1000, 33248.00
898.2280, 33276.00
899.3560, 33034.00
900.4830, 33233.00
901.6110, 33127.00
902.7380, 33260.00
903.8660, 33299.00
904.9930, 33391.00
906.1200, 33318.00
907.2460, 33414.00
908.3730, 33540.00
909.5000, 33214.00
910.6260, 33256.00
911.7520, 33621.00
912.8780, 33363.00
914.0040, 33661.00
915.1290, 33507.00
916.2550, 33452.00
917.3800, 33657.00
918.5050, 33834.00
919.6300, 33743.00
920.7550, 33614.00
921.8800, 33636.08
923.0040, 33828.19
924.1290, 33949.02
925.2530, 34002.33
926.3770, 33786.04
927.5010, 33917.89
928.6250, 33910.22
929.7480, 33896.81
930.8720, 34077.66
931.9950, 33900.56
933.1180, 34078.30
934.2410, 34114.39
935.3640, 34215.32
936.4860, 34175.84
937.6090, 34179.74
938.7310, 34324.05
939.8530, 34390.59
940.9750, 34334.95
942.0970, 34439.97
943.2180, 34257.92
944.3400, 34558.00
945.4610, 34386.00
946.5820, 34560.00
947.7030, 34600.00
948.8240, 34932.00
949.9450, 34886.00
951.0650, 35183.00
952.1860, 35084.00
953.3060, 34963.00
954.4260, 35074.82
955.5460, 35079.02
956.6650, 35084.00
957.7850, 35317.00
958.9040, 35368.00
960.0230, 35569.00
961.1420, 35439.00
962.2610, 35451.00
963.3800, 35790.00
964.4990, 35314.00
965.6170, 35502.00
966.7350, 35641.00
967.8530, 35394.00
968.9710, 35511.00
970.0890, 35392.00
971.2070, 35630.00
972.3240, 35665.00
973.4410, 35442.00
974.5580, 35630.20
975.6750, 35540.77
976.7920, 35717.00
977.9090, 35396.00
979.0250, 35404.00
980.1410, 35050.00
981.2580, 35213.00
982.3740, 35081.00
983.4890, 35299.00
984.6050, 35351.00
985.7200, 35114.00
986.8360, 35337.81
987.9510, 35297.03
989.0660, 35575.00
990.1810, 35282.00
991.2950, 35520.00
992.4100, 35246.00
993.5240, 35507.00
994.6390, 35319.00
995.7530, 35201.00
996.8660, 34958.00
997.9800, 34860.00
999.0940, 35108.00
1000.207, 35231.00
1001.320, 35265.00
1002.433, 34975.00
1003.546, 35197.00
1004.659, 34955.00
1005.772, 35055.00
1006.884, 34921.00
1007.996, 35059.00
1009.108, 35198.00
1010.220, 35216.00
1011.332, 35112.00
1012.444, 34852.00
1013.555, 34802.00
1014.666, 35317.00
1015.777, 34948.00
1016.888, 35031.18
1017.999, 35284.00
1019.110, 34784.00
1020.220, 34931.00
1021.331, 34772.00
1022.441, 35182.00
1023.551, 35595.00
1024.661, 34909.00
1025.770, 35101.00
1026.880, 35221.00
1027.989, 35122.00
1029.098, 35027.00
1030.207, 34932.00
1031.316, 34828.00
1032.425, 34865.33
1033.533, 35032.00
1034.642, 34929.00
1035.750, 35160.00
1036.858, 35126.00
1037.966, 35293.00
1039.073, 34967.00
1040.181, 35141.00
1041.288, 35166.00
1042.396, 35208.00
1043.503, 35231.00
1044.610, 35165.00
1045.716, 35232.00
1046.823, 35169.90
1047.929, 35124.00
1049.036, 35107.00
1050.142, 35232.00
1051.248, 35260.00
1052.353, 35322.00
1053.459, 35550.00
1054.564, 35741.00
1055.670, 35586.00
1056.775, 35566.00
1057.880, 35474.00
1058.985, 35654.00
1060.089, 35549.00
1061.194, 35718.00
1062.298, 35537.00
1063.402, 35618.00
1064.506, 36020.00
1065.610, 35713.40
1066.713, 36018.00
1067.817, 35393.00
1068.920, 35752.00
1070.023, 35589.00
1071.126, 35589.00
1072.229, 35781.00
1073.332, 35411.00
1074.435, 35736.00
1075.537, 35922.00
1076.639, 35627.00
1077.741, 35619.00
1078.843, 35441.00
1079.945, 35485.00
1081.046, 35626.00
1082.148, 35616.00
1083.249, 35665.50
1084.350, 35629.53
1085.451, 35679.00
1086.551, 35444.00
1087.652, 35397.00
1088.752, 35198.00
1089.853, 35549.00
1090.953, 35411.00
1092.053, 35593.00
1093.152, 35554.00
1094.252, 35376.00
1095.351, 35338.00
1096.451, 35396.00
1097.550, 35378.00
1098.649, 35228.00
1099.748, 35378.00
1100.846, 35024.00
1101.945, 35151.00
1103.043, 35246.00
1104.141, 35190.00
1105.239, 35082.00
1106.337, 35365.00
1107.434, 35284.00
1108.532, 35201.00
1109.629, 35297.00
1110.726, 35398.00
1111.823, 34814.00
1112.920, 34893.00
1114.017, 34860.00
1115.113, 35260.00
1116.210, 35121.77
1117.306, 34950.00
1118.402, 35088.00
1119.498, 35149.00
1120.593, 35190.00
1121.689, 34978.00
1122.784, 35124.00
1123.879, 35174.00
1124.974, 34892.00
1126.069, 34982.00
1127.164, 34807.00
1128.259, 34543.00
1129.353, 34624.00
1130.447, 34616.00
1131.541, 34391.00
1132.635, 34694.00
1133.729, 34417.00
1134.822, 35214.00
1135.916, 34677.00
1137.009, 34676.00
1138.102, 34294.00
1139.195, 34060.00
1140.288, 34398.00
1141.380, 34288.00
1142.473, 34146.00
1143.565, 34215.00
1144.657, 34225.00
1145.749, 34962.00
1146.841, 34612.00
1147.932, 34591.00
1149.024, 34151.00
1150.115, 34106.00
1151.206, 34059.00
1152.297, 34152.00
1153.388, 34059.16
1154.479, 34009.75
1155.569, 33993.00
1156.659, 33926.00
1157.750, 33953.00
1158.839, 34125.00
1159.929, 34069.00
1161.019, 33810.00
1162.108, 33967.16
1163.198, 34136.00
1164.287, 34140.00
1165.376, 33710.00
1166.465, 33986.00
1167.553, 33950.00
1168.642, 33740.00
1169.730, 33915.00
1170.818, 33884.00
1171.906, 33890.00
1172.994, 33965.82
1174.082, 33862.43
1175.170, 33994.00
1176.257, 33742.00
1177.344, 33645.00
1178.431, 33664.00
1179.518, 33617.00
1180.605, 33833.00
1181.691, 33758.00
1182.778, 33726.00
1183.864, 33506.00
1184.950, 33769.00
1186.036, 33496.00
1187.122, 33742.00
1188.207, 33573.00
1189.292, 33660.00
1190.378, 33728.00
1191.463, 33673.00
1192.548, 33802.00
1193.632, 33640.00
1194.717, 33680.00
1195.801, 33526.00
1196.886, 33616.00
1197.970, 33778.00
1199.054, 33618.00
1200.137, 33467.00
1201.221, 33594.00
1202.305, 33435.00
1203.388, 33436.00
1204.471, 33533.00
1205.554, 33582.00
1206.637, 33492.00
1207.719, 33325.00
1208.802, 33219.00
1209.884, 33294.69
1210.966, 33623.00
1212.048, 33423.00
1213.130, 33474.00
1214.212, 33366.00
1215.293, 33336.00
1216.374, 33397.00
1217.456, 33503.00
1218.536, 33587.00
1219.617, 33525.00
1220.698, 33331.00
1221.778, 33522.00
1222.859, 33361.00
1223.939, 33507.00
1225.019, 33461.00
1226.099, 33288.00
1227.178, 33434.00
1228.258, 33501.00
1229.337, 33242.00
1230.417, 33411.00
1231.496, 33481.00
1232.574, 33404.00
1233.653, 33360.40
1234.732, 33522.32
1235.810, 33612.93
1236.888, 33636.05
1237.966, 33389.57
1239.044, 33491.23
1240.122, 33453.37
1241.199, 33409.79
1242.277, 33560.45
1243.354, 33353.18
1244.431, 33500.76
1245.508, 33506.69
1246.585, 33577.45
1247.661, 33507.83
1248.738, 33481.57
1249.814, 33595.73
1250.890, 33632.14
1251.966, 33546.36
1253.042, 33621.24
1254.117, 33409.07
1255.193, 33448.79
1256.268, 33597.19
1257.343, 33518.47
1258.418, 33595.92
1259.493, 33613.89
1260.567, 33361.56
1261.642, 33579.31
1262.716, 33593.77
1263.790, 33399.48
1264.864, 33601.12
1265.938, 33435.62
1267.011, 33401.16
1268.085, 33465.33
1269.158, 33429.00
1270.231, 33375.00
1271.304, 33529.00
1272.377, 33385.00
1273.450, 33286.00
1274.522, 33459.00
1275.594, 33479.00
1276.666, 33420.00
1277.738, 33628.00
1278.810, 33499.79
1279.882, 33907.00
1280.953, 33347.00
1282.025, 33441.00
1283.096, 33327.00
1284.167, 33525.00
1285.238, 33521.00
1286.308, 33549.00
1287.379, 33409.00
1288.449, 33343.00
1289.519, 33683.00
1290.589, 33435.00
1291.659, 33391.00
1292.729, 33680.00
1293.798, 33425.00
1294.868, 33384.00
1295.937, 33422.00
1297.006, 33375.00
1298.075, 33301.00
1299.143, 33374.00
1300.212, 33427.00
1301.280, 33386.00
1302.348, 33338.00
1303.416, 33579.00
1304.484, 33365.00
1305.552, 33635.00
1306.620, 33496.00
1307.687, 33491.00
1308.754, 33683.00
1309.821, 33795.00
1310.888, 33484.00
1311.955, 33605.00
1313.021, 33506.00
1314.088, 33373.00
1315.154, 33458.00
1316.220, 33529.00
1317.286, 33492.00
1318.352, 33622.00
1319.417, 33514.00
1320.483, 33657.00
1321.548, 33553.00
1322.613, 33695.00
1323.678, 33873.00
1324.743, 33543.00
1325.807, 33479.00
1326.872, 33834.00
1327.936, 33755.00
1329.000, 33610.00
1330.064, 33604.00
1331.128, 33665.00
1332.191, 33492.00
1333.255, 33650.00
1334.318, 33656.00
1335.381, 33629.00
1336.444, 33581.00
1337.507, 33725.00
1338.569, 33556.00
1339.632, 33609.00
1340.694, 33692.00
1341.756, 33533.00
1342.818, 33563.00
1343.880, 33780.00
1344.941, 33555.00
1346.003, 33644.00
1347.064, 34009.00
1348.125, 33710.00
1349.186, 33652.00
1350.247, 33780.00
1351.308, 33551.00
1352.368, 33620.00
1353.428, 33721.00
1354.489, 33537.00
1355.549, 33620.00
1356.608, 33650.00
1357.668, 33714.00
1358.727, 33825.00
1359.787, 33792.00
1360.846, 33718.00
1361.905, 33859.00
1362.964, 33851.00
1364.022, 33898.00
1365.081, 33894.00
1366.139, 33903.97
1367.197, 33569.00
1368.255, 33873.00
1369.313, 33975.00
1370.371, 33881.00
1371.428, 34168.00
1372.486, 33706.00
1373.543, 33607.23
1374.600, 33769.48
1375.657, 33860.42
1376.713, 33883.88
1377.770, 33637.73
1378.826, 33739.71
1379.882, 33702.19
1380.938, 33658.94
1381.994, 33809.93
1383.050, 33602.99
1384.106, 33750.90
1385.161, 33757.16
1386.216, 33828.25
1387.271, 33758.96
1388.326, 33733.03
1389.381, 33847.52
1390.435, 33884.26
1391.490, 33798.81
1392.544, 33874.02
1393.598, 33662.18
1394.652, 33702.23
1395.705, 33850.96
1396.759, 33772.57
1397.812, 33850.35
1398.866, 33868.65
1399.919, 33616.66
1400.972, 33834.73
1402.024, 33849.52
1403.077, 33655.57
1404.129, 33857.54
1405.181, 33692.37
1406.233, 33658.24
1407.285, 33722.74
1408.337, 33684.43
1409.389, 33808.21
1410.440, 33775.83
1411.491, 33729.50
1412.542, 33744.07
1413.593, 33586.09
1414.644, 33748.20
1415.695, 33691.67
1416.745, 33743.82
1417.795, 33820.60
1418.845, 33708.76
1419.895, 33796.61
1420.945, 33574.79
1421.995, 33612.08
1423.044, 33621.47
1424.093, 33796.49
1425.142, 33444.89
1426.191, 33618.25
1427.240, 33720.30
1428.289, 33754.87
1429.337, 33519.83
1430.385, 33632.92
1431.433, 33606.50
1432.481, 33574.35
1433.529, 33736.44
1434.577, 33540.61
1435.624, 33699.61
1436.672, 33716.98
1437.719, 33799.16
1438.766, 33740.96
1439.812, 33726.11
1440.859, 33851.70
1441.905, 33899.52
1442.952, 33825.16
1443.998, 33911.46
1445.044, 33710.70
1446.090, 33761.84
