##NAMES=Braunite
##RRUFFID=R050388
##IDEAL CHEMISTRY=Mn^2+^Mn^3+^_6_SiO_12_
##LOCALITY=Langban, Filipstad, Varmland, Sweden
##OWNER=RRUFF
##SOURCE=University of Arizona Mineral Museum
##DESCRIPTION=Black crystals
##STATUS=The identification of this mineral has been confirmed by X-ray diffraction and chemical analysis
##URL=rruff.info/R050388
##MEASURED CHEMISTRY=(Mn^2+^_0.96_Mg_0.04_)_Î£=1_Mn^3+^_6.00_Si_1.00_O_12_
##PIN_ID=M00354
##ORIENTATION=Laser parallel to -c* (0 0 -1). Fiducial mark perpendicular to laser is parallel to a [1 0 0]
157.4550, 46468.00
158.6810, 46229.00
159.9080, 46371.00
161.1340, 46750.00
162.3590, 46490.00
163.5850, 46986.00
164.8110, 47534.00
166.0360, 47637.00
167.2610, 47951.09
168.4860, 48108.00
169.7110, 48146.00
170.9360, 48006.00
172.1610, 47910.00
173.3850, 48097.00
174.6100, 47955.00
175.8340, 48117.00
177.0580, 47986.00
178.2820, 48347.00
179.5050, 48458.00
180.7290, 48413.00
181.9520, 48742.00
183.1760, 49188.00
184.3990, 49254.00
185.6220, 50143.00
186.8450, 50573.00
188.0670, 51068.00
189.2900, 51886.00
190.5120, 52126.00
191.7340, 52879.00
192.9560, 53528.00
194.1780, 54160.00
195.4000, 55216.00
196.6220, 55778.71
197.8430, 56605.62
199.0640, 57315.00
200.2860, 58130.00
201.5070, 59177.00
202.7270, 59987.00
203.9480, 59814.00
205.1690, 59511.00
206.3890, 59467.00
207.6090, 59718.00
208.8290, 60114.00
210.0490, 60251.00
211.2690, 60250.00
212.4890, 59367.00
213.7080, 59025.00
214.9280, 58260.00
216.1470, 57329.00
217.3660, 56436.00
218.5850, 55804.00
219.8030, 55566.00
221.0220, 55008.00
222.2400, 54399.00
223.4590, 53813.00
224.6770, 53222.93
225.8950, 52680.00
227.1120, 52027.00
228.3300, 51630.00
229.5480, 51041.00
230.7650, 50796.00
231.9820, 50277.00
233.1990, 49910.00
234.4160, 49395.00
235.6330, 49129.00
236.8490, 48805.00
238.0660, 48886.00
239.2820, 48896.00
240.4980, 48486.00
241.7140, 48661.00
242.9300, 48228.00
244.1460, 48226.00
245.3610, 48238.00
246.5770, 48410.00
247.7920, 48115.00
249.0070, 47882.60
250.2220, 48122.84
251.4370, 48263.17
252.6510, 48308.94
253.8660, 47977.02
255.0800, 48132.82
256.2940, 48093.16
257.5080, 48045.48
258.7220, 48269.93
259.9360, 47992.93
261.1490, 48213.05
262.3630, 48234.73
263.5760, 48347.23
264.7890, 48263.07
266.0020, 48239.64
267.2150, 48412.95
268.4270, 47747.00
269.6400, 48191.00
270.8520, 48019.00
272.0640, 47726.45
273.2760, 48005.99
274.4880, 48185.61
275.7000, 48270.70
276.9120, 47978.07
278.1230, 48173.13
279.3340, 48172.74
280.5450, 48164.32
281.7560, 48428.04
282.9670, 48190.30
284.1780, 48449.70
285.3880, 48510.61
286.5980, 48662.34
287.8090, 48617.45
289.0190, 48633.25
290.2290, 48845.79
291.4380, 48812.00
292.6480, 48610.00
293.8570, 48688.00
295.0670, 48679.39
296.2760, 48552.00
297.4850, 48788.00
298.6930, 48781.00
299.9020, 49036.00
301.1110, 49033.73
302.3190, 49058.00
303.5270, 49042.00
304.7350, 49085.00
305.9430, 49048.00
307.1510, 49180.00
308.3580, 49520.00
309.5660, 49368.00
310.7730, 49501.00
311.9800, 49726.00
313.1870, 49675.00
314.3940, 49762.00
315.6010, 49940.00
316.8070, 50116.00
318.0130, 50400.00
319.2200, 50063.00
320.4260, 50612.00
321.6310, 50820.00
322.8370, 51437.00
324.0430, 51381.00
325.2480, 51820.00
326.4540, 51678.00
327.6590, 52109.00
328.8640, 52371.00
330.0680, 52033.00
331.2730, 52127.00
332.4780, 51765.00
333.6820, 51865.00
334.8860, 51514.00
336.0900, 51431.00
337.2940, 50975.00
338.4980, 50724.00
339.7010, 50979.00
340.9050, 50652.00
342.1080, 50484.00
343.3110, 50726.00
344.5140, 50646.00
345.7170, 50830.00
346.9200, 50571.00
348.1220, 50270.00
349.3240, 50358.00
350.5270, 50272.64
351.7290, 50395.00
352.9310, 50402.00
354.1320, 50679.00
355.3340, 50730.00
356.5350, 50846.00
357.7370, 51021.08
358.9380, 51202.79
360.1390, 51247.88
361.3400, 51062.00
362.5400, 51036.00
363.7410, 50948.00
364.9410, 51080.00
366.1410, 50998.00
367.3410, 51069.00
368.5410, 51016.00
369.7410, 51142.00
370.9400, 51364.00
372.1400, 51485.00
373.3390, 51587.00
374.5380, 51273.00
375.7370, 51403.00
376.9360, 51414.00
378.1350, 51438.00
379.3330, 51486.00
380.5310, 51613.00
381.7300, 51535.00
382.9280, 51683.00
384.1260, 51681.54
385.3230, 51435.00
386.5210, 51728.00
387.7180, 51445.00
388.9160, 51441.00
390.1130, 51368.00
391.3100, 51474.00
392.5060, 51480.52
393.7030, 51548.48
394.9000, 51610.00
396.0960, 51708.00
397.2920, 51796.88
398.4880, 51850.10
399.6840, 51929.77
400.8800, 52001.00
402.0750, 52037.00
403.2710, 51950.00
404.4660, 51954.00
405.6610, 52087.00
406.8560, 52195.00
408.0510, 52170.00
409.2450, 52507.00
410.4400, 52339.00
411.6340, 52643.00
412.8280, 52273.00
414.0220, 52732.00
415.2160, 52699.00
416.4100, 52989.00
417.6030, 52731.00
418.7970, 53158.00
419.9900, 53024.00
421.1830, 52899.00
422.3760, 53701.00
423.5690, 53370.00
424.7610, 53296.00
425.9540, 53209.00
427.1460, 53322.00
428.3380, 53393.00
429.5300, 53556.00
430.7220, 53213.00
431.9140, 53748.00
433.1050, 53600.00
434.2970, 53676.00
435.4880, 53958.00
436.6790, 53953.00
437.8700, 53536.00
439.0610, 54101.00
440.2510, 53793.00
441.4420, 54200.00
442.6320, 53935.00
443.8220, 54353.00
445.0120, 54194.00
446.2020, 54333.00
447.3910, 54531.00
448.5810, 54399.00
449.7700, 54183.00
450.9600, 54414.00
452.1490, 54272.95
453.3370, 54742.00
454.5260, 54324.00
455.7150, 54428.00
456.9030, 54546.00
458.0910, 54477.00
459.2800, 54461.00
460.4670, 54732.00
461.6550, 54964.00
462.8430, 54949.00
464.0300, 55172.00
465.2180, 55108.00
466.4050, 55189.00
467.5920, 55204.00
468.7790, 55463.00
469.9650, 55452.00
471.1520, 55488.00
472.3380, 55778.00
473.5250, 55666.00
474.7110, 55894.00
475.8970, 55490.00
477.0820, 55831.00
478.2680, 55895.00
479.4540, 55648.00
480.6390, 56068.00
481.8240, 56279.00
483.0090, 56523.00
484.1940, 55881.00
485.3780, 55988.00
486.5630, 56183.00
487.7470, 56130.00
488.9320, 56306.00
490.1160, 56314.24
491.3000, 56286.00
492.4830, 56364.00
493.6670, 56454.00
494.8500, 56514.00
496.0340, 56994.00
497.2170, 57055.00
498.4000, 57410.00
499.5820, 57327.00
500.7650, 57600.00
501.9480, 57950.00
503.1300, 59068.00
504.3120, 59058.00
505.4940, 59694.00
506.6760, 58534.00
507.8580, 58890.00
509.0390, 59439.00
510.2210, 58624.00
511.4020, 59290.00
512.5830, 59156.00
513.7640, 58831.00
514.9450, 58757.00
516.1250, 58661.00
517.3060, 58592.00
518.4860, 58232.00
519.6660, 57983.00
520.8460, 58112.05
522.0260, 58202.00
523.2060, 58197.00
524.3850, 58202.00
525.5650, 57837.00
526.7440, 58011.00
527.9230, 57954.00
529.1020, 57666.00
530.2810, 57863.00
531.4590, 57565.00
532.6380, 57606.00
533.8160, 57758.00
534.9940, 57839.00
536.1720, 57838.00
537.3500, 57668.00
538.5270, 58105.00
539.7050, 57810.00
540.8820, 57993.00
542.0590, 57894.00
543.2360, 58287.00
544.4130, 58044.00
545.5900, 58338.00
546.7660, 58243.00
547.9430, 58166.00
549.1190, 58576.00
550.2950, 58472.00
551.4710, 58714.00
552.6470, 58514.00
553.8220, 58417.00
554.9980, 58698.00
556.1730, 58838.00
557.3480, 58631.00
558.5230, 58704.00
559.6980, 58949.00
560.8730, 58575.00
562.0470, 58938.00
563.2220, 58706.00
564.3960, 58631.00
565.5700, 59141.00
566.7440, 59038.00
567.9170, 59284.00
569.0910, 59202.00
570.2640, 59657.00
571.4380, 59412.00
572.6110, 59164.00
573.7840, 58864.00
574.9570, 58606.00
576.1290, 58559.00
577.3020, 58487.00
578.4740, 58331.00
579.6460, 58003.00
580.8180, 57672.00
581.9900, 57371.00
583.1620, 57240.00
584.3330, 57102.00
585.5040, 56865.00
586.6760, 56928.37
587.8470, 57234.00
589.0180, 57035.00
590.1880, 57193.00
591.3590, 57270.00
592.5290, 57251.00
593.7000, 57596.00
594.8700, 57499.00
596.0400, 57696.00
597.2090, 58028.00
598.3790, 58273.00
599.5490, 58885.00
600.7180, 58783.00
601.8870, 59071.00
603.0560, 59401.00
604.2250, 60119.00
605.3940, 60675.00
606.5620, 61223.96
607.7300, 61697.00
608.8990, 62223.00
610.0670, 62854.00
611.2350, 62939.00
612.4020, 63971.00
613.5700, 64297.00
614.7370, 64575.00
615.9050, 64591.00
617.0720, 64879.00
618.2390, 64785.00
619.4060, 64527.00
620.5720, 64456.00
621.7390, 63871.00
622.9050, 63479.00
624.0710, 62892.00
625.2370, 62573.00
626.4030, 61968.54
627.5690, 61290.00
628.7340, 60931.00
629.9000, 60510.00
631.0650, 60234.00
632.2300, 59968.00
633.3950, 59649.00
634.5600, 59033.00
635.7240, 59360.00
636.8890, 58621.00
638.0530, 58675.00
639.2170, 58435.00
640.3810, 58620.00
641.5450, 58129.00
642.7080, 57977.00
643.8720, 58098.00
645.0350, 58159.00
646.1980, 58131.00
647.3610, 58226.00
648.5240, 57803.00
649.6870, 57644.00
650.8490, 57806.00
652.0120, 57806.00
653.1740, 57748.00
654.3360, 57869.00
655.4980, 57636.00
656.6600, 57827.00
657.8210, 57779.00
658.9830, 57705.00
660.1440, 58336.00
661.3050, 58190.00
662.4660, 57999.00
663.6270, 58494.00
664.7870, 58275.59
665.9480, 58687.00
667.1080, 58538.00
668.2680, 58326.00
669.4280, 58927.00
670.5880, 58719.00
671.7480, 59043.00
672.9070, 59229.00
674.0670, 59301.29
675.2260, 59548.37
676.3850, 59622.00
677.5440, 60001.00
678.7030, 60152.00
679.8610, 60632.00
681.0200, 60676.00
682.1780, 61234.00
683.3360, 61340.00
684.4940, 61889.00
685.6520, 61816.00
686.8090, 61908.00
687.9670, 62044.00
689.1240, 61847.05
690.2810, 61731.98
691.4380, 61498.00
692.5950, 61197.00
693.7520, 60958.00
694.9080, 60640.00
696.0650, 61158.00
697.2210, 61199.00
698.3770, 60695.00
699.5330, 60090.00
700.6880, 59549.00
701.8440, 59146.25
702.9990, 58474.00
704.1550, 58446.00
705.3100, 58376.00
706.4650, 58211.00
707.6190, 57829.00
708.7740, 58223.00
709.9290, 57856.00
711.0830, 57848.00
712.2370, 57906.00
713.3910, 57731.00
714.5450, 57570.00
715.6980, 57946.00
716.8520, 57482.00
718.0050, 57654.00
719.1580, 57648.00
720.3110, 57388.00
721.4640, 57429.00
722.6170, 57623.00
723.7700, 57589.00
724.9220, 57384.00
726.0740, 57422.00
727.2260, 57469.00
728.3780, 57369.00
729.5300, 57364.00
730.6810, 57214.00
731.8330, 57671.00
732.9840, 57521.00
734.1350, 57525.00
735.2860, 57478.00
736.4370, 57425.00
737.5880, 57534.00
738.7380, 57389.00
739.8880, 57264.00
741.0390, 57341.00
742.1890, 57248.00
743.3380, 57485.00
744.4880, 57175.00
745.6380, 57345.00
746.7870, 57303.00
747.9360, 57932.00
749.0850, 57317.00
750.2340, 57426.00
751.3830, 56961.00
752.5310, 57334.00
753.6800, 57711.00
754.8280, 57347.00
755.9760, 57602.00
757.1240, 57794.00
758.2720, 57283.00
759.4190, 57561.00
760.5670, 57483.00
761.7140, 57638.00
762.8610, 57437.00
764.0080, 57636.00
765.1550, 57535.00
766.3020, 57415.00
767.4480, 57211.00
768.5950, 57823.00
769.7410, 57342.00
770.8870, 57630.00
772.0330, 57735.00
773.1780, 57566.00
774.3240, 57692.00
775.4690, 57603.00
776.6140, 57767.00
777.7590, 57732.03
778.9040, 57715.95
780.0490, 57720.00
781.1940, 57695.00
782.3380, 57688.00
783.4820, 57755.00
784.6260, 57676.00
785.7700, 57967.00
786.9140, 57923.00
788.0580, 57739.00
789.2010, 57989.00
790.3450, 57834.00
791.4880, 57710.00
792.6310, 57827.00
793.7730, 57976.00
794.9160, 57664.00
796.0590, 57791.00
797.2010, 57962.00
798.3430, 57998.00
799.4850, 58003.00
800.6270, 57766.00
801.7690, 57921.00
802.9100, 57734.00
804.0520, 57904.00
805.1930, 58063.00
806.3340, 58019.00
807.4750, 57984.00
808.6160, 57795.00
809.7560, 58025.00
810.8970, 58101.00
812.0370, 57743.00
813.1770, 57975.00
814.3170, 58335.00
815.4570, 58024.00
816.5960, 58234.00
817.7360, 57989.00
818.8750, 58484.00
820.0140, 58002.00
821.1530, 58156.00
822.2920, 58195.00
823.4310, 57958.00
824.5690, 58197.00
825.7070, 58103.00
826.8460, 57925.00
827.9840, 58129.00
829.1220, 58024.00
830.2590, 58300.00
831.3970, 57910.00
832.5340, 58204.00
833.6710, 57957.00
834.8080, 58390.00
835.9450, 58285.00
837.0820, 58175.00
838.2190, 57979.00
839.3550, 58180.00
840.4910, 58267.00
841.6270, 58178.00
842.7630, 58252.00
843.8990, 57938.00
845.0350, 58263.00
846.1700, 58389.00
847.3060, 58182.00
848.4410, 58459.00
849.5760, 57953.00
850.7100, 58543.00
851.8450, 58065.00
852.9800, 58440.00
854.1140, 58278.00
855.2480, 58366.00
856.3820, 58252.00
857.5160, 58366.00
858.6500, 58373.00
859.7830, 58225.00
860.9170, 58578.00
862.0500, 58401.00
863.1830, 58448.00
864.3160, 58464.00
865.4480, 58416.00
866.5810, 58470.61
867.7130, 58556.00
868.8460, 58479.00
869.9780, 58612.00
871.1100, 58534.00
872.2410, 58520.00
873.3730, 58667.00
874.5050, 58621.00
875.6360, 58555.00
876.7670, 58501.00
877.8980, 58512.63
879.0290, 58490.09
880.1590, 58576.00
881.2900, 58466.00
882.4200, 58540.00
883.5500, 58440.00
884.6800, 58780.00
885.8100, 58372.00
886.9400, 58923.00
888.0690, 58699.00
889.1990, 58793.00
890.3280, 58759.00
891.4570, 58564.00
892.5860, 58814.00
893.7140, 58703.00
894.8430, 59097.00
895.9710, 58861.00
897.1000, 58643.00
898.2280, 59060.00
899.3560, 58997.00
900.4830, 58915.00
901.6110, 58962.00
902.7380, 59030.00
903.8660, 58833.00
904.9930, 58790.00
906.1200, 58985.00
907.2460, 59112.00
908.3730, 59115.00
909.5000, 59134.79
910.6260, 59264.40
911.7520, 59093.00
912.8780, 59321.00
914.0040, 59502.00
915.1290, 59184.00
916.2550, 59090.00
917.3800, 59191.00
918.5050, 59133.00
919.6300, 59363.00
920.7550, 59124.00
921.8800, 59185.00
923.0040, 59216.00
924.1290, 59470.00
925.2530, 59400.00
926.3770, 59240.00
927.5010, 59257.00
928.6250, 59515.00
929.7480, 59359.00
930.8720, 59587.00
931.9950, 59537.00
933.1180, 59634.00
934.2410, 59873.00
935.3640, 59838.00
936.4860, 59780.00
937.6090, 59715.00
938.7310, 59729.00
939.8530, 59760.00
940.9750, 59822.00
942.0970, 59720.00
943.2180, 59836.00
944.3400, 59887.00
945.4610, 60029.00
946.5820, 60146.00
947.7030, 60349.00
948.8240, 60379.00
949.9450, 60455.00
951.0650, 60634.00
952.1860, 60549.00
953.3060, 60809.00
954.4260, 60777.00
955.5460, 60811.00
956.6650, 60625.00
957.7850, 60640.00
958.9040, 60644.00
960.0230, 60787.00
961.1420, 60700.00
962.2610, 60735.00
963.3800, 60516.00
964.4990, 60775.00
965.6170, 60420.00
966.7350, 60385.00
967.8530, 60603.00
968.9710, 60418.00
970.0890, 59980.00
971.2070, 60288.00
972.3240, 60256.00
973.4410, 60035.00
974.5580, 60228.00
975.6750, 60002.00
976.7920, 60265.00
977.9090, 60351.00
979.0250, 60224.00
980.1410, 60234.00
981.2580, 60422.00
982.3740, 60179.00
983.4890, 60243.00
984.6050, 60009.00
985.7200, 60045.00
986.8360, 60309.00
987.9510, 60302.00
989.0660, 60029.00
990.1810, 60201.00
991.2950, 60295.00
992.4100, 60024.00
993.5240, 60522.00
994.6390, 60475.00
995.7530, 60441.00
996.8660, 60206.00
997.9800, 60603.00
999.0940, 60835.00
1000.207, 60221.00
1001.320, 60484.00
1002.433, 60061.00
1003.546, 60254.00
1004.659, 60037.00
1005.772, 60370.00
1006.884, 60009.00
1007.996, 60527.00
1009.108, 60373.00
1010.220, 60480.00
1011.332, 60082.00
1012.444, 60112.00
1013.555, 60435.00
1014.666, 60228.00
1015.777, 60319.00
1016.888, 60376.00
1017.999, 60397.00
1019.110, 60539.00
1020.220, 60432.00
1021.331, 60435.00
1022.441, 60996.00
1023.551, 60687.00
1024.661, 60650.00
1025.770, 60822.00
1026.880, 60585.00
1027.989, 60548.00
1029.098, 60698.00
1030.207, 60691.00
1031.316, 60623.00
1032.425, 60676.00
1033.533, 60585.00
1034.642, 60667.00
1035.750, 60650.58
1036.858, 60671.39
1037.966, 60734.00
1039.073, 60713.00
1040.181, 60892.00
1041.288, 60867.00
1042.396, 60997.00
1043.503, 60978.00
1044.610, 61029.54
1045.716, 60951.00
1046.823, 61058.00
1047.929, 61171.00
1049.036, 61089.00
1050.142, 61068.00
1051.248, 61050.00
1052.353, 61174.00
1053.459, 61053.00
1054.564, 61090.00
1055.670, 60961.00
1056.775, 61117.00
1057.880, 61257.00
1058.985, 61048.00
1060.089, 60892.00
1061.194, 61275.00
1062.298, 61308.00
1063.402, 61111.00
1064.506, 60883.69
1065.610, 61145.90
1066.713, 61309.30
1067.817, 61379.25
1068.920, 61075.70
1070.023, 61254.39
1071.126, 61239.83
1072.229, 61217.35
1073.332, 61463.93
1074.435, 61214.70
1075.537, 61456.97
1076.639, 61503.04
1077.741, 61213.00
1078.843, 61413.00
1079.945, 61333.00
1081.046, 61315.00
1082.148, 61519.00
1083.249, 61301.00
1084.350, 61257.00
1085.451, 61250.00
1086.551, 61424.00
1087.652, 61306.00
1088.752, 61567.00
1089.853, 61495.00
1090.953, 61420.00
1092.053, 61318.00
1093.152, 61450.18
1094.252, 61144.00
1095.351, 61410.00
1096.451, 61837.00
1097.550, 61123.00
1098.649, 61501.21
1099.748, 61477.59
1100.846, 61466.00
1101.945, 61553.00
1103.043, 61452.00
1104.141, 61260.00
1105.239, 61127.00
1106.337, 61405.00
1107.434, 61272.00
1108.532, 61297.00
1109.629, 61391.00
1110.726, 61418.00
1111.823, 61429.00
1112.920, 61374.20
1114.017, 61338.29
1115.113, 61215.00
1116.210, 61188.00
1117.306, 61173.00
1118.402, 61087.00
1119.498, 61117.94
1120.593, 61078.00
1121.689, 61139.19
1122.784, 61154.00
1123.879, 61148.00
1124.974, 61108.00
1126.069, 61140.00
1127.164, 61026.00
1128.259, 61336.00
1129.353, 60974.00
1130.447, 61078.00
1131.541, 60817.00
1132.635, 61040.00
1133.729, 61079.00
1134.822, 61055.00
1135.916, 61023.00
1137.009, 60981.00
1138.102, 60948.94
1139.195, 60930.00
1140.288, 60895.00
1141.380, 60987.00
1142.473, 61020.00
1143.565, 61033.00
1144.657, 60939.00
1145.749, 60816.00
1146.841, 60689.00
1147.932, 61014.00
1149.024, 60638.00
1150.115, 61098.00
1151.206, 60851.00
1152.297, 60881.00
1153.388, 60888.00
1154.479, 60744.87
1155.569, 60775.19
1156.659, 60664.00
1157.750, 60712.00
1158.839, 60857.00
1159.929, 60833.00
1161.019, 60553.00
1162.108, 61122.00
1163.198, 60855.00
1164.287, 61023.00
1165.376, 60586.00
1166.465, 60929.00
1167.553, 60686.00
1168.642, 61044.00
1169.730, 60962.00
1170.818, 60981.00
1171.906, 60553.00
1172.994, 61025.00
1174.082, 60837.00
1175.170, 60927.00
1176.257, 60931.00
1177.344, 61191.00
1178.431, 60663.00
1179.518, 61259.00
1180.605, 60999.19
1181.691, 60745.00
1182.778, 60906.00
1183.864, 60826.00
1184.950, 60890.00
1186.036, 60654.00
1187.122, 60718.00
1188.207, 61090.00
1189.292, 60695.00
1190.378, 60817.00
1191.463, 60890.00
1192.548, 60698.00
1193.632, 60724.00
1194.717, 60775.00
1195.801, 60537.00
1196.886, 60748.00
1197.970, 60818.00
1199.054, 60754.00
1200.137, 60948.00
1201.221, 60842.00
1202.305, 60950.00
1203.388, 60797.00
1204.471, 60718.00
1205.554, 61054.00
1206.637, 60745.00
1207.719, 60964.00
1208.802, 60741.00
1209.884, 60980.00
1210.966, 61061.00
1212.048, 60695.00
1213.130, 60937.00
1214.212, 61116.00
1215.293, 61116.00
1216.374, 60751.00
1217.456, 60841.00
1218.536, 61028.00
1219.617, 60868.00
1220.698, 61070.00
1221.778, 61171.00
1222.859, 61260.00
1223.939, 61020.00
1225.019, 61106.75
1226.099, 61460.00
1227.178, 61116.00
1228.258, 61130.00
1229.337, 61327.00
1230.417, 61028.00
1231.496, 61017.00
1232.574, 60725.00
1233.653, 60854.00
1234.732, 61044.00
1235.810, 61093.00
1236.888, 61238.00
1237.966, 60902.00
1239.044, 60832.00
1240.122, 61059.00
1241.199, 61256.00
1242.277, 60846.00
1243.354, 61184.00
1244.431, 60938.00
1245.508, 60973.00
1246.585, 61202.00
1247.661, 60943.00
1248.738, 61015.00
1249.814, 61168.00
1250.890, 61080.00
1251.966, 61197.00
1253.042, 61121.49
1254.117, 60818.00
1255.193, 60938.00
1256.268, 60860.00
1257.343, 60711.00
1258.418, 60957.00
1259.493, 60712.00
1260.567, 60619.00
1261.642, 60713.77
1262.716, 60672.02
1263.790, 60878.00
1264.864, 60817.00
1265.938, 61113.00
1267.011, 61150.00
1268.085, 61015.00
1269.158, 61178.00
1270.231, 61033.00
1271.304, 61067.00
1272.377, 60965.00
1273.450, 61110.00
1274.522, 60994.00
1275.594, 61331.00
1276.666, 61143.00
1277.738, 61219.00
1278.810, 60986.00
1279.882, 61154.00
1280.953, 61016.00
1282.025, 61128.00
1283.096, 60899.00
1284.167, 61159.00
1285.238, 61010.00
1286.308, 60592.62
1287.379, 60839.42
1288.449, 60987.41
1289.519, 61041.91
1290.589, 60722.95
1291.659, 60886.25
1292.729, 60856.28
1293.798, 60818.36
1294.868, 61049.53
1295.937, 60784.87
1297.006, 61011.75
1298.075, 61042.41
1299.143, 61162.86
1300.212, 61158.00
1301.280, 61334.00
1302.348, 61166.00
1303.416, 61158.00
1304.484, 61261.00
1305.552, 61210.00
1306.620, 61277.00
1307.687, 61279.00
1308.754, 61060.00
1309.821, 61558.00
1310.888, 61375.00
1311.955, 61082.00
1313.021, 61334.00
1314.088, 61023.00
1315.154, 61223.00
1316.220, 61405.00
1317.286, 61209.00
1318.352, 61213.00
1319.417, 61215.00
1320.483, 61487.00
1321.548, 61580.00
1322.613, 61349.00
1323.678, 61145.00
1324.743, 61349.00
1325.807, 61206.74
1326.872, 61281.00
1327.936, 61234.00
1329.000, 61467.00
1330.064, 61447.00
