##NAMES=Brazilianite
##RRUFFID=R050504
##IDEAL CHEMISTRY=NaAl_3_(PO_4_)_2_(OH)_4_
##LOCALITY=CÃ³rrego Frio, Minas Gerais, Brazil
##OWNER=RRUFF
##SOURCE=Marcus Origlieri
##DESCRIPTION=Yellowish green fragment
##STATUS=The identification of this mineral has been confirmed by X-ray diffraction and chemical analysis
##URL=rruff.info/R050504
##MEASURED CHEMISTRY=Na_1.00_Al_3.00_(P_1.00_O_4_)_2_(OH)_4_
##PIN_ID=L00856
##ORIENTATION=Laser parallel to -a* (-1 0 0). Fiducial mark perpendicular to laser is parallel to b [0 1 0]
82.36700, 7946.000
83.60200, 8536.000
84.83700, 9441.000
86.07200, 10363.00
87.30800, 11004.00
88.54200, 11019.00
89.77700, 10802.00
91.01200, 10344.00
92.24600, 10044.00
93.48000, 9989.000
94.71400, 10006.00
95.94800, 10298.00
97.18200, 10447.00
98.41600, 10631.00
99.64900, 11370.00
100.8830, 12402.00
102.1160, 13424.00
103.3490, 13992.00
104.5820, 13585.00
105.8150, 13184.00
107.0470, 13011.00
108.2800, 12787.00
109.5120, 12272.00
110.7440, 11891.00
111.9760, 11943.00
113.2080, 12134.00
114.4400, 11980.00
115.6710, 11455.00
116.9030, 11037.00
118.1340, 10577.00
119.3650, 10202.00
120.5960, 10028.00
121.8270, 9942.000
123.0580, 9737.000
124.2880, 9844.000
125.5190, 9858.000
126.7490, 9964.000
127.9790, 9927.000
129.2090, 9922.000
130.4390, 9876.000
131.6680, 9882.000
132.8980, 9857.000
134.1270, 10150.00
135.3560, 10389.00
136.5850, 10514.00
137.8140, 10888.00
139.0430, 11130.00
140.2710, 11403.00
141.5000, 11767.00
142.7280, 12076.00
143.9560, 12462.00
145.1840, 12611.00
146.4120, 12725.00
147.6390, 12454.00
148.8670, 12348.00
150.0940, 11945.00
151.3210, 12024.00
152.5490, 11898.00
153.7750, 11781.00
155.0020, 11881.00
156.2290, 12275.00
157.4550, 12514.00
158.6810, 12935.00
159.9080, 13739.00
161.1340, 14450.00
162.3590, 15807.00
163.5850, 16675.00
164.8110, 16952.00
166.0360, 16910.00
167.2610, 17024.00
168.4860, 17534.00
169.7110, 17738.00
170.9360, 17622.00
172.1610, 16952.00
173.3850, 16052.00
174.6100, 15058.00
175.8340, 14208.00
177.0580, 13472.00
178.2820, 12953.00
179.5050, 12577.00
180.7290, 12371.00
181.9520, 12290.00
183.1760, 12126.00
184.3990, 12017.00
185.6220, 12119.00
186.8450, 12153.00
188.0670, 12216.00
189.2900, 12311.32
190.5120, 12496.00
191.7340, 12403.00
192.9560, 12544.00
194.1780, 12400.00
195.4000, 12610.00
196.6220, 12556.00
197.8430, 12482.00
199.0640, 12328.00
200.2860, 12195.00
201.5070, 12219.00
202.7270, 11976.00
203.9480, 11862.00
205.1690, 11877.00
206.3890, 11827.00
207.6090, 12098.00
208.8290, 12396.00
210.0490, 12667.00
211.2690, 12809.00
212.4890, 13067.00
213.7080, 13289.00
214.9280, 13675.00
216.1470, 14096.00
217.3660, 14162.00
218.5850, 13988.00
219.8030, 13840.00
221.0220, 13610.00
222.2400, 13504.00
223.4590, 13191.00
224.6770, 13195.00
225.8950, 12878.00
227.1120, 13097.00
228.3300, 13143.00
229.5480, 13156.00
230.7650, 13294.00
231.9820, 13458.00
233.1990, 13578.86
234.4160, 13791.00
235.6330, 13962.00
236.8490, 14061.00
238.0660, 14339.00
239.2820, 14589.00
240.4980, 14942.00
241.7140, 15306.00
242.9300, 15571.00
244.1460, 15618.00
245.3610, 15907.00
246.5770, 15957.00
247.7920, 16181.00
249.0070, 16649.00
250.2220, 17322.00
251.4370, 17260.00
252.6510, 16578.00
253.8660, 15556.00
255.0800, 14730.00
256.2940, 13867.00
257.5080, 13547.00
258.7220, 13233.00
259.9360, 13234.00
261.1490, 12858.00
262.3630, 12859.00
263.5760, 12811.00
264.7890, 12827.00
266.0020, 13160.00
267.2150, 13165.00
268.4270, 13252.00
269.6400, 13379.00
270.8520, 13455.00
272.0640, 13469.00
273.2760, 13586.00
274.4880, 13633.00
275.7000, 13594.00
276.9120, 13405.00
278.1230, 13277.00
279.3340, 13182.00
280.5450, 13081.00
281.7560, 12953.00
282.9670, 12954.00
284.1780, 12939.00
285.3880, 12988.00
286.5980, 13284.00
287.8090, 13407.00
289.0190, 13594.00
290.2290, 13662.00
291.4380, 13943.00
292.6480, 14128.00
293.8570, 14211.00
295.0670, 14210.00
296.2760, 14026.00
297.4850, 13979.00
298.6930, 13758.00
299.9020, 13771.00
301.1110, 13534.00
302.3190, 13680.00
303.5270, 13671.00
304.7350, 13866.00
305.9430, 14006.00
307.1510, 14079.00
308.3580, 14268.00
309.5660, 14478.00
310.7730, 14600.00
311.9800, 14892.00
313.1870, 14781.00
314.3940, 14846.00
315.6010, 14690.00
316.8070, 14593.00
318.0130, 14644.00
319.2200, 14362.00
320.4260, 14197.00
321.6310, 13981.00
322.8370, 13734.00
324.0430, 13634.00
325.2480, 13557.00
326.4540, 13272.00
327.6590, 13175.00
328.8640, 13020.00
330.0680, 13018.00
331.2730, 12815.00
332.4780, 12881.00
333.6820, 12823.00
334.8860, 12821.00
336.0900, 12834.06
337.2940, 12778.00
338.4980, 12832.00
339.7010, 12829.00
340.9050, 12817.00
342.1080, 12832.00
343.3110, 12861.00
344.5140, 13028.00
345.7170, 13134.00
346.9200, 13206.00
348.1220, 13533.00
349.3240, 13531.00
350.5270, 13791.00
351.7290, 14044.00
352.9310, 14341.00
354.1320, 14379.00
355.3340, 14543.00
356.5350, 14633.00
357.7370, 14467.00
358.9380, 14342.00
360.1390, 14211.00
361.3400, 13961.00
362.5400, 13946.00
363.7410, 13926.00
364.9410, 13700.00
366.1410, 13775.00
367.3410, 13923.00
368.5410, 13833.00
369.7410, 13970.00
370.9400, 13970.00
372.1400, 13993.00
373.3390, 14138.00
374.5380, 13883.00
375.7370, 14136.00
376.9360, 14201.00
378.1350, 14046.00
379.3330, 13960.00
380.5310, 13918.00
381.7300, 13846.00
382.9280, 13840.47
384.1260, 13843.99
385.3230, 13874.00
386.5210, 13922.00
387.7180, 14003.00
388.9160, 14095.00
390.1130, 14233.00
391.3100, 14364.00
392.5060, 14547.00
393.7030, 14574.00
394.9000, 14790.00
396.0960, 14874.00
397.2920, 14965.00
398.4880, 15133.00
399.6840, 15333.00
400.8800, 15601.00
402.0750, 15646.00
403.2710, 15660.00
404.4660, 15761.00
405.6610, 16033.00
406.8560, 15995.00
408.0510, 16030.00
409.2450, 15969.00
410.4400, 15909.00
411.6340, 15834.27
412.8280, 15783.00
414.0220, 15619.00
415.2160, 15531.00
416.4100, 15427.00
417.6030, 15208.00
418.7970, 15099.00
419.9900, 14982.00
421.1830, 14935.00
422.3760, 15176.00
423.5690, 15310.00
424.7610, 15536.24
425.9540, 16008.00
427.1460, 16225.00
428.3380, 16675.00
429.5300, 17306.00
430.7220, 17875.00
431.9140, 18831.00
433.1050, 19575.00
434.2970, 20261.00
435.4880, 21184.00
436.6790, 21578.00
437.8700, 22024.00
439.0610, 22013.00
440.2510, 21432.00
441.4420, 20777.00
442.6320, 20131.00
443.8220, 19456.00
445.0120, 18878.00
446.2020, 18509.00
447.3910, 18497.00
448.5810, 18785.00
449.7700, 18832.00
450.9600, 19028.00
452.1490, 19561.00
453.3370, 20055.00
454.5260, 20397.00
455.7150, 20868.00
456.9030, 21351.00
458.0910, 21892.00
459.2800, 22465.00
460.4670, 22899.00
461.6550, 23102.00
462.8430, 23661.00
464.0300, 23774.00
465.2180, 23288.00
466.4050, 22925.00
467.5920, 22266.00
468.7790, 21660.00
469.9650, 21018.76
471.1520, 20302.00
472.3380, 19772.00
473.5250, 19563.00
474.7110, 19388.00
475.8970, 19282.00
477.0820, 19392.00
478.2680, 19551.00
479.4540, 19861.00
480.6390, 20372.00
481.8240, 20485.00
483.0090, 20911.00
484.1940, 21036.00
485.3780, 21369.00
486.5630, 21911.00
487.7470, 22044.00
488.9320, 22360.00
490.1160, 22790.00
491.3000, 23374.00
492.4830, 23952.00
493.6670, 24581.00
494.8500, 25419.00
496.0340, 25893.00
497.2170, 26702.00
498.4000, 27397.00
499.5820, 27799.00
500.7650, 28264.63
501.9480, 28600.00
503.1300, 28742.00
504.3120, 28865.00
505.4940, 28869.00
506.6760, 29133.00
507.8580, 29193.00
509.0390, 29376.00
510.2210, 29100.00
511.4020, 29117.00
512.5830, 28984.00
513.7640, 28589.00
514.9450, 27958.00
516.1250, 27523.00
517.3060, 27240.00
518.4860, 27003.00
519.6660, 26862.00
520.8460, 26893.00
522.0260, 27055.00
523.2060, 27059.00
524.3850, 27573.00
525.5650, 27824.00
526.7440, 28796.00
527.9230, 29385.00
529.1020, 29313.00
530.2810, 29337.00
531.4590, 29515.00
532.6380, 29432.00
533.8160, 28823.00
534.9940, 28472.00
536.1720, 27904.00
537.3500, 27388.00
538.5270, 26650.00
539.7050, 26078.00
540.8820, 25771.00
542.0590, 25457.00
543.2360, 25208.00
544.4130, 25227.00
545.5900, 25390.00
546.7660, 25928.00
547.9430, 26487.00
549.1190, 27521.00
550.2950, 28790.00
551.4710, 30204.00
552.6470, 31683.00
553.8220, 33156.00
554.9980, 34954.00
556.1730, 36021.00
557.3480, 37202.00
558.5230, 37505.00
559.6980, 37609.00
560.8730, 37443.00
562.0470, 37350.00
563.2220, 36890.00
564.3960, 36314.00
565.5700, 35349.00
566.7440, 34098.00
567.9170, 32750.00
569.0910, 31359.00
570.2640, 29679.00
571.4380, 28764.00
572.6110, 27238.00
573.7840, 26259.00
574.9570, 25436.00
576.1290, 24510.00
577.3020, 24258.00
578.4740, 23756.00
579.6460, 23373.00
580.8180, 23183.00
581.9900, 23166.00
583.1620, 22989.00
584.3330, 23056.00
585.5040, 23069.00
586.6760, 23243.00
587.8470, 23469.00
589.0180, 24413.00
590.1880, 25161.00
591.3590, 26134.00
592.5290, 27044.00
593.7000, 28649.00
594.8700, 30095.00
596.0400, 31422.00
597.2090, 32905.00
598.3790, 33924.00
599.5490, 34158.00
600.7180, 33634.00
601.8870, 32628.00
603.0560, 31457.00
604.2250, 30073.00
605.3940, 28993.00
606.5620, 27930.00
607.7300, 27503.00
608.8990, 27318.00
610.0670, 26906.00
611.2350, 26782.00
612.4020, 26821.00
613.5700, 26729.00
614.7370, 26441.00
615.9050, 25925.00
617.0720, 25317.00
618.2390, 24705.00
619.4060, 23995.00
620.5720, 23458.00
621.7390, 22864.00
622.9050, 22477.00
624.0710, 22585.00
625.2370, 22536.00
626.4030, 22392.00
627.5690, 22573.00
628.7340, 22532.00
629.9000, 22810.00
631.0650, 22777.00
632.2300, 22776.00
633.3950, 22680.00
634.5600, 22415.00
635.7240, 22236.00
636.8890, 21794.00
638.0530, 21100.00
639.2170, 20675.00
640.3810, 20175.00
641.5450, 19878.00
642.7080, 19588.11
643.8720, 19297.00
645.0350, 19204.00
646.1980, 19164.00
647.3610, 19077.00
648.5240, 18910.00
649.6870, 18896.00
650.8490, 18693.00
652.0120, 19107.00
653.1740, 18996.00
654.3360, 18791.00
655.4980, 19102.00
656.6600, 18978.00
657.8210, 18990.00
658.9830, 18967.00
660.1440, 19069.00
661.3050, 18774.00
662.4660, 18625.00
663.6270, 18497.00
664.7870, 18155.00
665.9480, 18001.00
667.1080, 17874.00
668.2680, 17864.00
669.4280, 17659.00
670.5880, 17506.00
671.7480, 17316.00
672.9070, 17350.00
674.0670, 17400.00
675.2260, 17223.00
676.3850, 16988.00
677.5440, 17032.00
678.7030, 16967.00
679.8610, 17083.00
681.0200, 17081.00
682.1780, 16859.00
683.3360, 16872.00
684.4940, 16765.00
685.6520, 16712.00
686.8090, 16748.00
687.9670, 16603.00
689.1240, 16657.00
690.2810, 16722.00
691.4380, 16517.00
692.5950, 16678.00
693.7520, 16686.00
694.9080, 16645.00
696.0650, 16746.00
697.2210, 16458.00
698.3770, 16581.00
699.5330, 16593.00
700.6880, 16725.00
701.8440, 16762.35
702.9990, 16783.00
704.1550, 16816.00
705.3100, 16920.00
706.4650, 16861.00
707.6190, 16857.00
708.7740, 16957.00
709.9290, 17104.00
711.0830, 17183.00
712.2370, 17170.00
713.3910, 17278.00
714.5450, 17382.00
715.6980, 17349.00
716.8520, 17605.00
718.0050, 17586.00
719.1580, 17586.00
720.3110, 17638.00
721.4640, 17620.00
722.6170, 17557.00
723.7700, 17708.00
724.9220, 17695.00
726.0740, 17512.00
727.2260, 17538.00
728.3780, 17385.00
729.5300, 17604.00
730.6810, 17568.00
731.8330, 17686.00
732.9840, 17299.00
734.1350, 17471.00
735.2860, 17277.00
736.4370, 17427.00
737.5880, 17498.00
738.7380, 17514.00
739.8880, 17584.00
741.0390, 17499.00
742.1890, 17588.89
743.3380, 17314.00
744.4880, 17596.00
745.6380, 17607.00
746.7870, 17395.00
747.9360, 17463.00
749.0850, 17574.00
750.2340, 17495.00
751.3830, 17652.00
752.5310, 17559.00
753.6800, 17784.00
754.8280, 17733.00
755.9760, 17806.00
757.1240, 17942.00
758.2720, 17988.00
759.4190, 17887.00
760.5670, 17983.00
761.7140, 18106.00
762.8610, 18252.00
764.0080, 18196.00
765.1550, 18257.00
766.3020, 18251.00
767.4480, 18225.00
768.5950, 18303.00
769.7410, 18185.00
770.8870, 18084.00
772.0330, 18076.00
773.1780, 18040.00
774.3240, 17931.00
775.4690, 18050.00
776.6140, 18004.00
777.7590, 17924.00
778.9040, 17836.00
780.0490, 17914.00
781.1940, 17875.00
782.3380, 17982.00
783.4820, 17788.00
784.6260, 18085.00
785.7700, 18103.00
786.9140, 17920.00
788.0580, 17825.00
789.2010, 18167.00
790.3450, 18353.00
791.4880, 18102.00
792.6310, 18430.00
793.7730, 18372.00
794.9160, 18458.00
796.0590, 18514.00
797.2010, 18551.00
798.3430, 18702.00
799.4850, 18854.00
800.6270, 18930.00
801.7690, 18925.75
802.9100, 18971.00
804.0520, 18846.00
805.1930, 18756.00
806.3340, 18764.00
807.4750, 18745.00
808.6160, 18793.00
809.7560, 18709.00
810.8970, 18636.00
812.0370, 18660.00
813.1770, 18419.00
814.3170, 18416.00
815.4570, 18369.00
816.5960, 18507.00
817.7360, 18173.00
818.8750, 18274.00
820.0140, 18226.00
821.1530, 18272.00
822.2920, 18244.73
823.4310, 18031.00
824.5690, 18156.00
825.7070, 18047.00
826.8460, 17976.00
827.9840, 18063.00
829.1220, 17945.00
830.2590, 18083.00
831.3970, 18079.00
832.5340, 18025.00
833.6710, 18046.00
834.8080, 17960.00
835.9450, 18080.00
837.0820, 18059.00
838.2190, 17949.00
839.3550, 17736.00
840.4910, 17861.00
841.6270, 17886.00
842.7630, 17987.00
843.8990, 17966.86
845.0350, 17970.00
846.1700, 17940.00
847.3060, 17944.00
848.4410, 18009.00
849.5760, 18061.00
850.7100, 18030.31
851.8450, 18059.49
852.9800, 17997.00
854.1140, 18032.00
855.2480, 18066.04
856.3820, 18034.00
857.5160, 18058.00
858.6500, 18100.00
859.7830, 18085.00
860.9170, 18149.00
862.0500, 18087.00
863.1830, 18033.00
864.3160, 17949.00
865.4480, 18100.00
866.5810, 17945.00
867.7130, 17993.00
868.8460, 18032.00
869.9780, 17943.00
871.1100, 18027.00
872.2410, 17824.00
873.3730, 17964.00
874.5050, 17940.00
875.6360, 17983.00
876.7670, 17993.00
877.8980, 18075.00
879.0290, 18127.00
880.1590, 17996.00
881.2900, 18141.00
882.4200, 18103.00
883.5500, 17968.00
884.6800, 17991.00
885.8100, 18063.00
886.9400, 18024.00
888.0690, 18046.00
889.1990, 18034.00
890.3280, 18060.00
891.4570, 18086.00
892.5860, 18195.00
893.7140, 18173.00
894.8430, 18359.00
895.9710, 18101.00
897.1000, 18203.00
898.2280, 18339.00
899.3560, 18180.00
900.4830, 18289.00
901.6110, 18401.00
902.7380, 18234.00
903.8660, 18524.00
904.9930, 18486.00
906.1200, 18358.00
907.2460, 18560.00
908.3730, 18467.00
909.5000, 18428.00
910.6260, 18404.00
911.7520, 18502.00
912.8780, 18481.12
914.0040, 18655.00
915.1290, 18571.00
916.2550, 18585.00
917.3800, 18694.00
918.5050, 18714.00
919.6300, 18787.00
920.7550, 18743.00
921.8800, 18898.00
923.0040, 18938.00
924.1290, 18988.00
925.2530, 18799.00
926.3770, 19241.00
927.5010, 18951.00
928.6250, 19200.00
929.7480, 19060.00
930.8720, 19392.00
931.9950, 19382.00
933.1180, 19531.00
934.2410, 19801.00
935.3640, 19666.00
936.4860, 19764.00
937.6090, 19846.00
938.7310, 19911.00
939.8530, 20244.00
940.9750, 20399.00
942.0970, 20461.00
943.2180, 20707.00
944.3400, 20708.00
945.4610, 20921.00
946.5820, 21258.00
947.7030, 21153.00
948.8240, 21460.00
949.9450, 21428.00
951.0650, 21539.00
952.1860, 21661.00
953.3060, 21816.00
954.4260, 22272.00
955.5460, 22486.00
956.6650, 22772.00
957.7850, 23254.00
958.9040, 23547.00
960.0230, 23903.00
961.1420, 24604.00
962.2610, 25166.00
963.3800, 25908.00
964.4990, 26831.00
965.6170, 27954.00
966.7350, 28906.00
967.8530, 29917.00
968.9710, 31121.00
970.0890, 32288.00
971.2070, 32907.06
972.3240, 33913.00
973.4410, 33854.00
974.5580, 34247.00
975.6750, 34180.00
976.7920, 34111.00
977.9090, 34580.00
979.0250, 34934.00
980.1410, 35908.00
981.2580, 36797.00
982.3740, 38122.00
983.4890, 39855.00
984.6050, 41072.00
985.7200, 42595.00
986.8360, 43246.00
987.9510, 42955.00
989.0660, 42104.00
990.1810, 40377.00
991.2950, 38870.00
992.4100, 36925.00
993.5240, 35318.00
994.6390, 33780.00
995.7530, 32746.00
996.8660, 31777.00
997.9800, 31059.00
999.0940, 30644.00
1000.207, 30462.47
1001.320, 30890.00
1002.433, 30918.00
1003.546, 31258.00
1004.659, 32131.00
1005.772, 32733.00
1006.884, 33846.00
1007.996, 35516.00
1009.108, 37056.00
1010.220, 39439.00
1011.332, 41937.00
1012.444, 44369.00
1013.555, 47317.00
1014.666, 50097.00
1015.777, 52770.00
1016.888, 53975.00
1017.999, 55070.00
1019.110, 55226.00
1020.220, 54259.00
1021.331, 53231.00
1022.441, 51581.00
1023.551, 49997.00
1024.661, 47927.00
1025.770, 46261.00
1026.880, 44682.00
1027.989, 43338.50
1029.098, 42381.00
1030.207, 41304.00
1031.316, 40625.00
1032.425, 40154.00
1033.533, 39530.00
1034.642, 39399.00
1035.750, 38878.00
1036.858, 38711.00
1037.966, 38413.00
1039.073, 38409.00
1040.181, 37890.00
1041.288, 37538.00
1042.396, 36920.00
1043.503, 36420.00
1044.610, 35480.00
1045.716, 34905.00
1046.823, 33989.00
1047.929, 33287.00
1049.036, 32718.00
1050.142, 32188.00
1051.248, 31532.00
1052.353, 31005.00
1053.459, 30570.00
1054.564, 30183.00
1055.670, 29851.00
1056.775, 29810.00
1057.880, 29478.00
1058.985, 29144.00
1060.089, 29218.00
1061.194, 29007.00
1062.298, 28636.00
1063.402, 28408.00
1064.506, 28389.00
1065.610, 28210.00
1066.713, 27864.00
1067.817, 27763.00
1068.920, 27562.00
1070.023, 27390.00
1071.126, 26988.00
1072.229, 26813.00
1073.332, 26821.00
1074.435, 26432.00
1075.537, 26409.00
1076.639, 26159.00
1077.741, 26011.00
1078.843, 25960.00
1079.945, 25742.00
1081.046, 25329.00
1082.148, 25197.00
1083.249, 24756.00
1084.350, 24618.00
1085.451, 24561.00
1086.551, 24108.00
1087.652, 23736.00
1088.752, 23401.00
1089.853, 23013.00
1090.953, 23001.00
1092.053, 22731.00
1093.152, 22566.00
1094.252, 22306.00
1095.351, 22262.27
1096.451, 22122.00
1097.550, 22228.00
1098.649, 22085.00
1099.748, 22107.00
1100.846, 22219.00
1101.945, 22103.00
1103.043, 22533.00
1104.141, 22379.00
1105.239, 22777.00
1106.337, 22971.00
1107.434, 23440.00
1108.532, 23921.00
1109.629, 24444.00
1110.726, 24980.00
1111.823, 25970.00
1112.920, 26748.00
1114.017, 27111.00
1115.113, 27572.00
1116.210, 27658.00
1117.306, 27719.00
1118.402, 26856.00
1119.498, 26804.00
1120.593, 26426.00
1121.689, 26094.00
1122.784, 25857.00
1123.879, 25648.00
1124.974, 25136.00
1126.069, 24886.00
1127.164, 24846.00
1128.259, 24479.00
1129.353, 24362.00
1130.447, 24243.00
1131.541, 23873.00
1132.635, 23958.00
1133.729, 23933.00
1134.822, 23840.00
1135.916, 23811.00
1137.009, 23764.00
1138.102, 23798.00
1139.195, 24297.00
1140.288, 24350.00
1141.380, 24857.00
1142.473, 25407.00
1143.565, 25879.00
1144.657, 26339.00
1145.749, 26953.00
1146.841, 27175.00
1147.932, 26953.00
1149.024, 26273.00
1150.115, 25853.00
1151.206, 25227.00
1152.297, 24516.00
1153.388, 23936.00
1154.479, 23372.00
1155.569, 23084.00
1156.659, 22821.00
1157.750, 22672.00
1158.839, 22459.00
1159.929, 22277.00
1161.019, 22343.00
1162.108, 22290.00
1163.198, 22291.00
1164.287, 22181.00
1165.376, 22281.00
1166.465, 22159.00
1167.553, 22106.13
1168.642, 21927.00
1169.730, 21958.00
1170.818, 21850.00
1171.906, 21818.00
1172.994, 21606.00
1174.082, 21471.00
1175.170, 21585.00
1176.257, 21724.00
1177.344, 21503.00
1178.431, 21386.00
1179.518, 21375.00
1180.605, 21111.00
1181.691, 21398.00
1182.778, 21252.00
1183.864, 21232.00
1184.950, 21335.00
1186.036, 21137.00
1187.122, 21234.00
1188.207, 21048.00
1189.292, 21184.00
1190.378, 21438.00
1191.463, 21085.00
1192.548, 21095.00
1193.632, 21290.00
1194.717, 21082.00
1195.801, 21276.00
1196.886, 21307.00
1197.970, 21295.00
1199.054, 21340.14
1200.137, 21296.48
1201.221, 21262.00
1202.305, 21198.00
1203.388, 21088.00
1204.471, 20997.00
1205.554, 21040.00
1206.637, 21064.00
1207.719, 21287.00
1208.802, 21188.00
1209.884, 21244.00
1210.966, 21053.00
1212.048, 21112.00
1213.130, 21151.00
1214.212, 21298.00
1215.293, 21174.00
1216.374, 21483.00
1217.456, 21190.00
1218.536, 21249.00
1219.617, 21078.00
1220.698, 21137.00
1221.778, 21138.00
1222.859, 21400.00
1223.939, 21131.00
1225.019, 21422.00
1226.099, 21346.00
1227.178, 21202.00
1228.258, 21247.00
1229.337, 21432.00
1230.417, 21263.00
1231.496, 21343.00
1232.574, 21194.00
1233.653, 21136.00
1234.732, 21218.00
1235.810, 21332.00
1236.888, 21414.00
1237.966, 21454.00
1239.044, 21388.00
1240.122, 21363.00
1241.199, 21331.10
1242.277, 21348.06
1243.354, 21254.00
1244.431, 21422.00
1245.508, 21441.00
1246.585, 21492.00
1247.661, 21400.00
1248.738, 21528.00
1249.814, 21468.00
1250.890, 21615.00
1251.966, 21468.00
1253.042, 21547.00
1254.117, 21338.00
1255.193, 21536.00
1256.268, 21445.00
1257.343, 21608.00
1258.418, 21565.00
1259.493, 21655.00
1260.567, 21496.00
1261.642, 21672.00
1262.716, 21402.00
1263.790, 21735.00
1264.864, 21658.00
1265.938, 21491.00
