##NAMES=Brazilianite
##RRUFFID=R050319
##IDEAL CHEMISTRY=NaAl_3_(PO_4_)_2_(OH)_4_
##LOCALITY=Minas Gerais, Brazil
##OWNER=RRUFF
##SOURCE=American Museum of Natural History
##DESCRIPTION=Pale green fragment
##STATUS=The identification of this mineral has been confirmed by X-ray diffraction and chemical analysis
##URL=rruff.info/R050319
##MEASURED CHEMISTRY=Na_1.00_Al_3.00_(PO_4_)_2_(OH)_4_
##PIN_ID=M00183
##ORIENTATION=Laser parallel to a* (1 0 0). Fiducial mark perpendicular to laser is parallel to -b [0 -1 0]
81.13100, 10983.00
82.36700, 12416.00
83.60200, 12929.00
84.83700, 13656.00
86.07200, 14342.00
87.30800, 14479.00
88.54200, 14270.00
89.77700, 14108.00
91.01200, 14158.00
92.24600, 14082.00
93.48000, 14605.00
94.71400, 15411.00
95.94800, 16400.00
97.18200, 16950.00
98.41600, 17079.00
99.64900, 17635.00
100.8830, 18588.00
102.1160, 19046.00
103.3490, 18760.00
104.5820, 18488.00
105.8150, 18232.00
107.0470, 18035.00
108.2800, 17493.00
109.5120, 16745.00
110.7440, 16015.00
111.9760, 15549.00
113.2080, 15043.00
114.4400, 14756.00
115.6710, 14301.00
116.9030, 13997.58
118.1340, 13666.00
119.3650, 13446.00
120.5960, 13151.00
121.8270, 12956.00
123.0580, 12925.00
124.2880, 12840.45
125.5190, 12845.00
126.7490, 12900.00
127.9790, 12957.46
129.2090, 13175.00
130.4390, 13213.00
131.6680, 13503.00
132.8980, 13711.00
134.1270, 13826.00
135.3560, 14399.00
136.5850, 14749.00
137.8140, 15436.00
139.0430, 15924.00
140.2710, 16364.00
141.5000, 16665.00
142.7280, 16870.00
143.9560, 17086.00
145.1840, 17126.00
146.4120, 16838.00
147.6390, 16500.00
148.8670, 16452.00
150.0940, 16043.00
151.3210, 16112.00
152.5490, 16316.00
153.7750, 16809.00
155.0020, 17415.00
156.2290, 18351.00
157.4550, 18789.00
158.6810, 19354.00
159.9080, 19755.00
161.1340, 20208.00
162.3590, 20571.00
163.5850, 20432.00
164.8110, 20077.00
166.0360, 19652.00
167.2610, 18995.00
168.4860, 18648.00
169.7110, 18067.00
170.9360, 17369.00
172.1610, 16857.00
173.3850, 16710.00
174.6100, 16322.00
175.8340, 16151.00
177.0580, 15978.00
178.2820, 15799.00
179.5050, 15886.00
180.7290, 15784.00
181.9520, 15958.00
183.1760, 16003.00
184.3990, 16074.00
185.6220, 16190.00
186.8450, 16328.00
188.0670, 16616.00
189.2900, 16641.00
190.5120, 16778.00
191.7340, 16674.00
192.9560, 16750.00
194.1780, 16669.00
195.4000, 16703.00
196.6220, 16710.00
197.8430, 16485.00
199.0640, 16385.00
200.2860, 16246.00
201.5070, 16366.00
202.7270, 16305.00
203.9480, 16331.00
205.1690, 16112.00
206.3890, 16248.00
207.6090, 16502.00
208.8290, 16647.00
210.0490, 16904.20
211.2690, 17283.00
212.4890, 17411.00
213.7080, 17624.00
214.9280, 17860.00
216.1470, 17811.00
217.3660, 17960.00
218.5850, 17798.00
219.8030, 17781.00
221.0220, 17783.00
222.2400, 17552.00
223.4590, 17658.00
224.6770, 17633.00
225.8950, 17690.00
227.1120, 17574.00
228.3300, 17765.00
229.5480, 17759.00
230.7650, 17898.00
231.9820, 18080.00
233.1990, 18225.00
234.4160, 18380.56
235.6330, 18407.00
236.8490, 18420.47
238.0660, 18492.00
239.2820, 18285.00
240.4980, 18082.00
241.7140, 17920.00
242.9300, 17833.00
244.1460, 17722.00
245.3610, 17349.00
246.5770, 17192.00
247.7920, 16845.00
249.0070, 16796.00
250.2220, 16768.00
251.4370, 16695.00
252.6510, 16680.00
253.8660, 16529.00
255.0800, 16569.00
256.2940, 16629.00
257.5080, 16562.00
258.7220, 16798.00
259.9360, 16996.00
261.1490, 16708.00
262.3630, 16624.00
263.5760, 16792.00
264.7890, 16904.00
266.0020, 16971.00
267.2150, 16796.00
268.4270, 16977.00
269.6400, 16961.00
270.8520, 17125.00
272.0640, 17090.00
273.2760, 17286.00
274.4880, 17319.00
275.7000, 17364.00
276.9120, 17410.00
278.1230, 17306.00
279.3340, 17323.00
280.5450, 17231.00
281.7560, 17094.00
282.9670, 17254.00
284.1780, 17259.00
285.3880, 17164.00
286.5980, 17382.00
287.8090, 17401.00
289.0190, 17542.00
290.2290, 17633.00
291.4380, 17621.00
292.6480, 17681.00
293.8570, 17704.43
295.0670, 17721.38
296.2760, 17789.00
297.4850, 17789.00
298.6930, 17924.00
299.9020, 18018.00
301.1110, 17922.00
302.3190, 17923.00
303.5270, 18196.00
304.7350, 18343.00
305.9430, 18175.00
307.1510, 18766.00
308.3580, 18644.90
309.5660, 18836.00
310.7730, 18765.00
311.9800, 19072.00
313.1870, 19150.00
314.3940, 18995.00
315.6010, 19088.00
316.8070, 19065.00
318.0130, 18855.00
319.2200, 18959.00
320.4260, 18493.00
321.6310, 18381.00
322.8370, 18406.00
324.0430, 18195.00
325.2480, 17801.00
326.4540, 17802.00
327.6590, 17565.00
328.8640, 17440.00
330.0680, 17441.00
331.2730, 17377.00
332.4780, 17169.00
333.6820, 16988.00
334.8860, 17283.00
336.0900, 17111.00
337.2940, 17014.00
338.4980, 17258.00
339.7010, 17225.00
340.9050, 17164.00
342.1080, 17169.00
343.3110, 17309.00
344.5140, 17315.00
345.7170, 17435.00
346.9200, 17459.00
348.1220, 17505.00
349.3240, 17470.00
350.5270, 17643.00
351.7290, 17715.00
352.9310, 17718.00
354.1320, 18089.00
355.3340, 18044.00
356.5350, 18018.00
357.7370, 18036.00
358.9380, 17932.00
360.1390, 18351.00
361.3400, 18329.00
362.5400, 18543.00
363.7410, 18546.00
364.9410, 18677.00
366.1410, 18644.00
367.3410, 18913.00
368.5410, 18835.00
369.7410, 18808.00
370.9400, 19084.00
372.1400, 18773.00
373.3390, 19019.00
374.5380, 19096.00
375.7370, 18780.00
376.9360, 18851.00
378.1350, 18931.00
379.3330, 18949.00
380.5310, 19006.31
381.7300, 18934.00
382.9280, 19037.00
384.1260, 19092.00
385.3230, 19027.00
386.5210, 19241.00
387.7180, 19265.00
388.9160, 19583.00
390.1130, 19691.00
391.3100, 19858.00
392.5060, 19956.00
393.7030, 20208.00
394.9000, 20342.00
396.0960, 20673.00
397.2920, 20652.00
398.4880, 20806.00
399.6840, 20930.00
400.8800, 20788.00
402.0750, 20784.00
403.2710, 20869.00
404.4660, 20697.00
405.6610, 20678.00
406.8560, 20389.00
408.0510, 20148.00
409.2450, 20183.00
410.4400, 20050.00
411.6340, 19925.40
412.8280, 19838.25
414.0220, 19660.00
415.2160, 19565.00
416.4100, 19358.00
417.6030, 19205.00
418.7970, 19372.00
419.9900, 19208.00
421.1830, 19171.00
422.3760, 19200.00
423.5690, 19194.00
424.7610, 19316.74
425.9540, 19351.00
427.1460, 19676.00
428.3380, 19741.00
429.5300, 20068.00
430.7220, 20366.00
431.9140, 20433.00
433.1050, 20726.00
434.2970, 20817.00
435.4880, 21009.00
436.6790, 21108.54
437.8700, 21231.00
439.0610, 21227.00
440.2510, 21176.00
441.4420, 21176.00
442.6320, 21102.24
443.8220, 20893.00
445.0120, 21002.00
446.2020, 21003.00
447.3910, 21059.00
448.5810, 21289.00
449.7700, 21280.00
450.9600, 21569.00
452.1490, 21705.00
453.3370, 21721.00
454.5260, 21930.00
455.7150, 22091.00
456.9030, 22160.00
458.0910, 21987.00
459.2800, 22184.00
460.4670, 22052.00
461.6550, 22086.00
462.8430, 21921.00
464.0300, 21972.00
465.2180, 21792.00
466.4050, 21944.00
467.5920, 22166.00
468.7790, 21978.00
469.9650, 22292.00
471.1520, 22743.00
472.3380, 23253.00
473.5250, 23439.00
474.7110, 24018.00
475.8970, 24619.00
477.0820, 24861.00
478.2680, 25846.00
479.4540, 26340.00
480.6390, 26689.00
481.8240, 27235.00
483.0090, 27926.00
484.1940, 28506.00
485.3780, 29041.00
486.5630, 29759.00
487.7470, 30258.00
488.9320, 31117.00
490.1160, 31953.00
491.3000, 32980.00
492.4830, 33837.00
493.6670, 34972.00
494.8500, 36020.00
496.0340, 36722.00
497.2170, 37568.00
498.4000, 38233.00
499.5820, 38822.00
500.7650, 39451.00
501.9480, 39513.00
503.1300, 40059.00
504.3120, 40092.00
505.4940, 40397.00
506.6760, 40398.00
507.8580, 40521.00
509.0390, 40166.00
510.2210, 40144.00
511.4020, 39697.00
512.5830, 38728.00
513.7640, 38340.00
514.9450, 37454.00
516.1250, 37108.00
517.3060, 36726.00
518.4860, 36059.00
519.6660, 36164.00
520.8460, 36042.00
522.0260, 36143.00
523.2060, 36244.00
524.3850, 36607.00
525.5650, 36622.48
526.7440, 36793.00
527.9230, 36709.00
529.1020, 36807.00
530.2810, 36600.00
531.4590, 36135.00
532.6380, 35802.00
533.8160, 34900.00
534.9940, 33879.00
536.1720, 33626.00
537.3500, 32608.00
538.5270, 31920.00
539.7050, 31209.00
540.8820, 30890.00
542.0590, 30706.00
543.2360, 30843.00
544.4130, 30936.00
545.5900, 31389.00
546.7660, 32181.00
547.9430, 33503.00
549.1190, 34671.00
550.2950, 35761.00
551.4710, 36886.00
552.6470, 38305.00
553.8220, 38997.00
554.9980, 39707.00
556.1730, 40046.00
557.3480, 40044.00
558.5230, 39592.00
559.6980, 39355.00
560.8730, 38702.00
562.0470, 38121.00
563.2220, 37278.00
564.3960, 36573.00
565.5700, 36006.00
566.7440, 35042.00
567.9170, 34175.00
569.0910, 33558.00
570.2640, 32512.00
571.4380, 31808.00
572.6110, 31095.00
573.7840, 30569.00
574.9570, 29931.00
576.1290, 29815.00
577.3020, 29429.00
578.4740, 29332.00
579.6460, 29361.00
580.8180, 29499.00
581.9900, 29641.00
583.1620, 30159.00
584.3330, 30379.00
585.5040, 31032.00
586.6760, 31939.00
587.8470, 33035.00
589.0180, 34576.00
590.1880, 36172.00
591.3590, 38376.00
592.5290, 40716.00
593.7000, 42942.00
594.8700, 44840.00
596.0400, 46104.00
597.2090, 46724.06
598.3790, 46762.18
599.5490, 46354.00
600.7180, 45062.00
601.8870, 43476.00
603.0560, 41326.00
604.2250, 39853.00
605.3940, 38060.00
606.5620, 36777.00
607.7300, 35882.00
608.8990, 34833.00
610.0670, 34520.00
611.2350, 34391.00
612.4020, 33858.00
613.5700, 33656.00
614.7370, 32811.00
615.9050, 32282.00
617.0720, 31651.00
618.2390, 31091.00
619.4060, 30528.00
620.5720, 30228.00
621.7390, 29673.00
622.9050, 29202.00
624.0710, 29014.00
625.2370, 29016.00
626.4030, 28858.00
627.5690, 28885.00
628.7340, 28941.00
629.9000, 28914.00
631.0650, 28825.00
632.2300, 28517.00
633.3950, 28039.00
634.5600, 28096.00
635.7240, 27406.00
636.8890, 27365.00
638.0530, 27144.00
639.2170, 26845.00
640.3810, 26418.00
641.5450, 26076.00
642.7080, 26109.00
643.8720, 26120.00
645.0350, 25822.00
646.1980, 26015.00
647.3610, 25877.00
648.5240, 26072.00
649.6870, 26156.00
650.8490, 26227.00
652.0120, 26279.00
653.1740, 26403.00
654.3360, 26282.00
655.4980, 26463.00
656.6600, 26617.00
657.8210, 26250.00
658.9830, 26407.00
660.1440, 26020.00
661.3050, 25875.00
662.4660, 25589.00
663.6270, 25309.39
664.7870, 25240.00
665.9480, 24865.00
667.1080, 24732.00
668.2680, 24718.00
669.4280, 24529.00
670.5880, 24521.00
671.7480, 24186.00
672.9070, 24199.00
674.0670, 24057.00
675.2260, 24193.00
676.3850, 23696.00
677.5440, 23768.00
678.7030, 23742.00
679.8610, 23698.00
681.0200, 23787.00
682.1780, 23792.00
683.3360, 23743.00
684.4940, 23781.00
685.6520, 23609.00
686.8090, 23557.00
687.9670, 23814.00
689.1240, 23745.00
690.2810, 23447.00
691.4380, 23694.00
692.5950, 23579.00
693.7520, 23717.00
694.9080, 23661.00
696.0650, 23666.00
697.2210, 23762.06
698.3770, 23771.00
699.5330, 23906.00
700.6880, 23854.00
701.8440, 23910.00
702.9990, 23622.00
704.1550, 23961.00
705.3100, 23941.00
706.4650, 23785.00
707.6190, 23980.00
708.7740, 24014.00
709.9290, 23856.00
711.0830, 24122.00
712.2370, 24060.00
713.3910, 24067.00
714.5450, 23832.00
715.6980, 24070.00
716.8520, 24086.00
718.0050, 24006.00
719.1580, 24082.00
720.3110, 24177.00
721.4640, 24008.00
722.6170, 23945.00
723.7700, 24114.00
724.9220, 24293.00
726.0740, 24270.00
727.2260, 24143.00
728.3780, 24214.00
729.5300, 24272.00
730.6810, 24212.00
731.8330, 24253.00
732.9840, 24295.00
734.1350, 24324.00
735.2860, 24302.00
736.4370, 24355.00
737.5880, 24559.00
738.7380, 24530.00
739.8880, 24414.00
741.0390, 24712.00
742.1890, 24705.00
743.3380, 24749.00
744.4880, 25092.00
745.6380, 24782.00
746.7870, 25242.00
747.9360, 25128.00
749.0850, 24865.00
750.2340, 25193.00
751.3830, 25201.00
752.5310, 25387.00
753.6800, 25687.00
754.8280, 25575.00
755.9760, 25639.00
757.1240, 25741.12
758.2720, 25785.32
759.4190, 25897.00
760.5670, 25996.00
761.7140, 26167.00
762.8610, 26238.00
764.0080, 26270.78
765.1550, 26043.00
766.3020, 26239.00
767.4480, 26144.00
768.5950, 26042.00
769.7410, 26086.00
770.8870, 25979.55
772.0330, 25883.00
773.1780, 25850.00
774.3240, 25870.00
775.4690, 25771.00
776.6140, 25954.00
777.7590, 25967.00
778.9040, 26087.00
780.0490, 25989.00
781.1940, 25723.00
782.3380, 25925.00
783.4820, 25900.00
784.6260, 26086.00
785.7700, 26193.00
786.9140, 26234.00
788.0580, 26217.00
789.2010, 26514.00
790.3450, 26410.00
791.4880, 26894.00
792.6310, 26837.00
793.7730, 26966.00
794.9160, 27276.00
796.0590, 27414.00
797.2010, 27484.00
798.3430, 27440.00
799.4850, 27679.00
800.6270, 27745.00
801.7690, 27571.00
802.9100, 27766.00
804.0520, 27341.00
805.1930, 27506.00
806.3340, 27305.00
807.4750, 27397.00
808.6160, 27370.00
809.7560, 27565.00
810.8970, 27022.00
812.0370, 27111.00
813.1770, 26881.00
814.3170, 26916.00
815.4570, 26921.00
816.5960, 26764.00
817.7360, 26667.00
818.8750, 26445.00
820.0140, 26492.00
821.1530, 26456.00
822.2920, 26527.00
823.4310, 26358.00
824.5690, 26465.00
825.7070, 26527.00
826.8460, 26422.00
827.9840, 26121.00
829.1220, 26140.00
830.2590, 26163.00
831.3970, 26223.00
832.5340, 26200.00
833.6710, 26132.00
834.8080, 26014.00
835.9450, 26127.00
837.0820, 26162.00
838.2190, 26188.00
839.3550, 25992.00
840.4910, 26023.00
841.6270, 26000.00
842.7630, 26199.00
843.8990, 26019.00
845.0350, 26147.00
846.1700, 25821.00
847.3060, 26156.00
848.4410, 26125.00
849.5760, 26151.00
850.7100, 26002.00
851.8450, 26137.00
852.9800, 25918.00
854.1140, 26032.00
855.2480, 25923.00
856.3820, 26058.00
857.5160, 26029.00
858.6500, 26111.00
859.7830, 25906.00
860.9170, 26291.00
862.0500, 26106.00
863.1830, 26072.00
864.3160, 26330.00
865.4480, 26123.00
866.5810, 26203.00
867.7130, 25868.00
868.8460, 26296.00
869.9780, 26226.00
871.1100, 26117.00
872.2410, 26207.00
873.3730, 26285.00
874.5050, 26221.00
875.6360, 26081.00
876.7670, 26180.00
877.8980, 26555.00
879.0290, 26142.00
880.1590, 26281.00
881.2900, 26515.00
882.4200, 26275.00
883.5500, 26392.00
884.6800, 26413.00
885.8100, 26410.00
886.9400, 26335.00
888.0690, 26154.00
889.1990, 26624.00
890.3280, 26480.00
891.4570, 26285.00
892.5860, 26469.00
893.7140, 26289.00
894.8430, 26390.00
895.9710, 26474.00
897.1000, 26558.00
898.2280, 26831.00
899.3560, 26511.00
900.4830, 26719.00
901.6110, 26976.00
902.7380, 26656.00
903.8660, 26705.00
904.9930, 26807.00
906.1200, 26849.00
907.2460, 26931.00
908.3730, 26900.00
909.5000, 26762.00
910.6260, 27090.00
911.7520, 27224.00
912.8780, 27034.00
914.0040, 27161.00
915.1290, 27217.00
916.2550, 27185.00
917.3800, 27160.00
918.5050, 27325.00
919.6300, 27261.03
920.7550, 27408.00
921.8800, 27331.00
923.0040, 27361.00
924.1290, 27532.00
925.2530, 27569.89
926.3770, 27746.00
927.5010, 27788.00
928.6250, 28006.00
929.7480, 28047.00
930.8720, 28161.39
931.9950, 28275.71
933.1180, 28301.00
934.2410, 28464.00
935.3640, 28434.00
936.4860, 28528.00
937.6090, 28634.00
938.7310, 28865.00
939.8530, 29054.00
940.9750, 29104.00
942.0970, 29382.00
943.2180, 29490.00
944.3400, 29545.00
945.4610, 29775.00
946.5820, 29698.00
947.7030, 29927.00
948.8240, 29914.00
949.9450, 30100.00
951.0650, 30016.00
952.1860, 30207.00
953.3060, 30292.00
954.4260, 30348.00
955.5460, 30429.00
956.6650, 30626.00
957.7850, 30584.00
958.9040, 30868.00
960.0230, 31001.00
961.1420, 31047.00
962.2610, 31355.00
963.3800, 31801.00
964.4990, 32288.00
965.6170, 32476.00
966.7350, 32729.00
967.8530, 33435.00
968.9710, 34144.00
970.0890, 34517.00
971.2070, 35417.00
972.3240, 36166.00
973.4410, 36931.00
974.5580, 37891.00
975.6750, 38998.00
976.7920, 40373.00
977.9090, 41760.00
979.0250, 43473.00
980.1410, 45938.00
981.2580, 48323.00
982.3740, 50654.00
983.4890, 52672.00
984.6050, 54852.00
985.7200, 55636.00
986.8360, 55948.00
987.9510, 55012.00
989.0660, 53545.00
990.1810, 51615.00
991.2950, 49345.00
992.4100, 47568.00
993.5240, 45001.00
994.6390, 43551.00
995.7530, 42229.00
996.8660, 40823.00
997.9800, 40387.00
999.0940, 39988.00
1000.207, 39458.00
1001.320, 39564.00
1002.433, 39572.00
1003.546, 39991.00
1004.659, 40058.00
1005.772, 40867.00
1006.884, 41731.00
1007.996, 42828.00
1009.108, 44132.00
1010.220, 45552.00
1011.332, 47608.00
1012.444, 49473.00
1013.555, 50904.00
1014.666, 52581.00
1015.777, 53238.00
1016.888, 53932.00
1017.999, 53536.00
1019.110, 52758.00
1020.220, 51947.00
1021.331, 50873.00
1022.441, 49447.00
1023.551, 47767.00
1024.661, 46627.00
1025.770, 45526.00
1026.880, 44369.00
1027.989, 43795.00
1029.098, 43065.00
1030.207, 42598.00
1031.316, 42232.00
1032.425, 42043.00
1033.533, 42012.00
1034.642, 42058.00
1035.750, 41856.00
1036.858, 41869.00
1037.966, 41991.00
1039.073, 41793.00
1040.181, 41801.00
1041.288, 41711.00
1042.396, 41086.00
1043.503, 41115.00
1044.610, 40874.00
1045.716, 40403.00
1046.823, 40322.00
1047.929, 40091.00
1049.036, 39763.00
1050.142, 39801.00
1051.248, 39648.00
1052.353, 39333.00
1053.459, 39518.00
1054.564, 39628.00
1055.670, 39469.00
1056.775, 39536.58
1057.880, 39448.89
1058.985, 39385.00
1060.089, 39198.00
1061.194, 39054.00
1062.298, 38748.00
1063.402, 38612.00
1064.506, 38479.00
1065.610, 38134.00
1066.713, 38075.57
1067.817, 37892.00
1068.920, 37808.00
1070.023, 37697.00
1071.126, 37533.00
1072.229, 37329.00
1073.332, 36933.00
1074.435, 36964.00
1075.537, 36406.00
1076.639, 36580.00
1077.741, 36274.00
1078.843, 35964.00
1079.945, 35594.00
1081.046, 35296.00
1082.148, 34975.71
1083.249, 34587.00
1084.350, 34319.00
1085.451, 34052.00
1086.551, 33637.00
1087.652, 33538.00
1088.752, 32991.00
1089.853, 32690.00
1090.953, 32596.00
1092.053, 32301.00
1093.152, 32212.00
1094.252, 32023.00
1095.351, 31641.00
1096.451, 31495.00
1097.550, 31688.00
1098.649, 31763.00
1099.748, 31415.00
1100.846, 31596.00
1101.945, 31478.00
1103.043, 31612.00
1104.141, 31479.00
1105.239, 31693.00
1106.337, 32057.00
1107.434, 32073.00
1108.532, 32170.00
1109.629, 32579.00
1110.726, 32649.00
1111.823, 33010.00
1112.920, 33252.00
1114.017, 33565.00
1115.113, 33736.80
1116.210, 33931.59
1117.306, 34004.00
1118.402, 34161.00
1119.498, 34227.00
1120.593, 34178.00
1121.689, 34412.00
1122.784, 34192.00
1123.879, 34400.00
1124.974, 34102.00
1126.069, 34038.00
1127.164, 34128.00
1128.259, 33792.00
1129.353, 33899.00
1130.447, 33843.00
1131.541, 33673.00
1132.635, 33765.00
1133.729, 33858.00
1134.822, 33659.00
1135.916, 33741.00
1137.009, 33774.00
1138.102, 33984.00
1139.195, 34219.00
1140.288, 33973.00
1141.380, 34605.00
1142.473, 34397.00
1143.565, 34844.00
1144.657, 35057.00
1145.749, 34985.00
1146.841, 35080.00
1147.932, 34800.00
1149.024, 34438.00
1150.115, 34233.00
1151.206, 34060.00
1152.297, 33707.00
1153.388, 33480.00
1154.479, 33313.00
1155.569, 32886.00
1156.659, 32826.00
1157.750, 32575.00
1158.839, 32731.00
1159.929, 32686.00
1161.019, 32424.00
1162.108, 32426.00
1163.198, 32347.00
1164.287, 32499.00
1165.376, 32224.00
1166.465, 32318.00
1167.553, 32459.00
1168.642, 32421.00
1169.730, 32352.00
1170.818, 32203.00
1171.906, 32260.00
1172.994, 32463.00
1174.082, 32245.00
1175.170, 32127.00
1176.257, 32240.00
1177.344, 32098.00
1178.431, 32134.00
1179.518, 32059.00
1180.605, 32169.00
1181.691, 31967.00
1182.778, 32234.00
1183.864, 32059.00
1184.950, 31827.00
1186.036, 32035.00
1187.122, 31869.00
1188.207, 32203.00
1189.292, 31951.00
1190.378, 32132.00
1191.463, 32108.00
1192.548, 32026.00
1193.632, 32085.00
1194.717, 31998.00
1195.801, 31813.00
1196.886, 31883.00
1197.970, 32257.00
1199.054, 31936.00
1200.137, 32232.00
1201.221, 31951.00
1202.305, 32360.00
1203.388, 32068.00
1204.471, 32298.00
1205.554, 32242.00
1206.637, 32039.00
1207.719, 32061.00
1208.802, 32320.00
1209.884, 32243.00
1210.966, 32234.00
1212.048, 32125.00
1213.130, 32166.00
1214.212, 32335.00
1215.293, 32279.00
1216.374, 32256.00
1217.456, 32288.82
1218.536, 32263.00
1219.617, 32223.00
1220.698, 32414.00
1221.778, 32338.00
1222.859, 32368.32
1223.939, 32503.00
1225.019, 32284.00
1226.099, 32381.00
1227.178, 32218.00
1228.258, 32420.00
1229.337, 32329.00
1230.417, 32399.00
1231.496, 32556.00
1232.574, 32368.00
1233.653, 32480.00
1234.732, 32502.00
1235.810, 32608.00
1236.888, 32647.00
1237.966, 32512.00
1239.044, 32679.00
1240.122, 32688.00
1241.199, 32724.00
1242.277, 32879.00
1243.354, 32524.00
1244.431, 32702.00
1245.508, 32679.00
1246.585, 32695.00
1247.661, 32960.00
1248.738, 32687.00
1249.814, 32989.00
1250.890, 32871.00
1251.966, 32707.00
1253.042, 33007.00
1254.117, 33137.00
1255.193, 33102.00
1256.268, 33028.00
1257.343, 33186.00
1258.418, 32988.00
1259.493, 33178.00
1260.567, 32820.00
1261.642, 33201.00
1262.716, 32979.00
1263.790, 32940.00
1264.864, 33172.00
