##NAMES=Brazilianite
##RRUFFID=R050319
##IDEAL CHEMISTRY=NaAl_3_(PO_4_)_2_(OH)_4_
##LOCALITY=Minas Gerais, Brazil
##OWNER=RRUFF
##SOURCE=American Museum of Natural History
##DESCRIPTION=Pale green fragment
##STATUS=The identification of this mineral has been confirmed by X-ray diffraction and chemical analysis
##URL=rruff.info/R050319
##MEASURED CHEMISTRY=Na_1.00_Al_3.00_(PO_4_)_2_(OH)_4_
##PIN_ID=M00315
##ORIENTATION=Laser parallel to c* (0 0 1). Fiducial mark perpendicular to laser is parallel to a [1 0 0]
81.13100, 6437.000
82.36700, 7389.000
83.60200, 8205.000
84.83700, 8858.000
86.07200, 9625.000
87.30800, 10234.00
88.54200, 10827.00
89.77700, 11086.00
91.01200, 10692.00
92.24600, 10320.00
93.48000, 9577.000
94.71400, 9757.000
95.94800, 10077.00
97.18200, 10418.00
98.41600, 10545.00
99.64900, 10871.00
100.8830, 11986.00
102.1160, 13272.00
103.3490, 14674.00
104.5820, 15625.00
105.8150, 15143.00
107.0470, 13997.00
108.2800, 12896.00
109.5120, 12170.00
110.7440, 11598.00
111.9760, 10904.00
113.2080, 11041.00
114.4400, 11441.00
115.6710, 11530.00
116.9030, 10658.00
118.1340, 10067.00
119.3650, 9181.000
120.5960, 8771.000
121.8270, 8309.000
123.0580, 8233.000
124.2880, 8331.000
125.5190, 8316.000
126.7490, 8250.000
127.9790, 8352.000
129.2090, 8327.000
130.4390, 8353.000
131.6680, 8342.000
132.8980, 8350.000
134.1270, 8339.000
135.3560, 8652.000
136.5850, 8879.000
137.8140, 9280.000
139.0430, 9605.000
140.2710, 9811.000
141.5000, 10198.00
142.7280, 10690.00
143.9560, 11047.00
145.1840, 11586.00
146.4120, 12026.00
147.6390, 11992.00
148.8670, 11896.00
150.0940, 11575.00
151.3210, 11161.00
152.5490, 10903.00
153.7750, 10705.00
155.0020, 10900.00
156.2290, 11206.00
157.4550, 11476.00
158.6810, 11801.00
159.9080, 12111.00
161.1340, 12532.00
162.3590, 13451.00
163.5850, 14271.00
164.8110, 15002.00
166.0360, 15375.00
167.2610, 14941.00
168.4860, 14559.00
169.7110, 14641.00
170.9360, 14998.00
172.1610, 15129.00
173.3850, 14684.00
174.6100, 14062.00
175.8340, 13132.00
177.0580, 12313.00
178.2820, 11930.00
179.5050, 11384.00
180.7290, 11095.00
181.9520, 10921.00
183.1760, 10908.00
184.3990, 10769.00
185.6220, 10792.00
186.8450, 10950.00
188.0670, 10939.00
189.2900, 11026.00
190.5120, 11129.00
191.7340, 11187.00
192.9560, 11288.00
194.1780, 11270.00
195.4000, 11462.00
196.6220, 11378.00
197.8430, 11421.00
199.0640, 11331.00
200.2860, 11262.00
201.5070, 11256.00
202.7270, 11250.00
203.9480, 10967.00
205.1690, 10740.00
206.3890, 10817.00
207.6090, 10990.00
208.8290, 11213.00
210.0490, 11354.00
211.2690, 11767.00
212.4890, 12164.00
213.7080, 12313.00
214.9280, 12563.00
216.1470, 13049.00
217.3660, 13551.00
218.5850, 13795.00
219.8030, 13829.00
221.0220, 13664.00
222.2400, 13154.00
223.4590, 12857.00
224.6770, 12518.00
225.8950, 12206.00
227.1120, 12304.00
228.3300, 12419.00
229.5480, 12311.00
230.7650, 12442.00
231.9820, 12508.00
233.1990, 12714.00
234.4160, 12765.00
235.6330, 12816.00
236.8490, 13219.00
238.0660, 13282.00
239.2820, 13533.00
240.4980, 13912.00
241.7140, 14096.00
242.9300, 14293.00
244.1460, 14546.00
245.3610, 14554.00
246.5770, 14385.00
247.7920, 14402.00
249.0070, 14706.00
250.2220, 15655.00
251.4370, 16514.00
252.6510, 17380.00
253.8660, 16966.00
255.0800, 15905.00
256.2940, 14487.00
257.5080, 13544.00
258.7220, 12664.00
259.9360, 12535.00
261.1490, 12224.00
262.3630, 12130.00
263.5760, 11969.00
264.7890, 12058.00
266.0020, 12103.00
267.2150, 12366.00
268.4270, 12780.00
269.6400, 12834.99
270.8520, 13327.00
272.0640, 13206.00
273.2760, 13189.00
274.4880, 13481.00
275.7000, 13385.00
276.9120, 13474.00
278.1230, 13141.00
279.3340, 12826.00
280.5450, 12528.00
281.7560, 12344.00
282.9670, 12174.00
284.1780, 12220.00
285.3880, 12409.00
286.5980, 12576.00
287.8090, 12642.00
289.0190, 12837.84
290.2290, 12881.00
291.4380, 13127.00
292.6480, 13402.00
293.8570, 13513.00
295.0670, 13595.00
296.2760, 13588.00
297.4850, 13491.00
298.6930, 13263.00
299.9020, 13066.00
301.1110, 12754.00
302.3190, 12880.00
303.5270, 12780.00
304.7350, 13042.00
305.9430, 13177.00
307.1510, 13463.00
308.3580, 13865.00
309.5660, 14455.00
310.7730, 14884.00
311.9800, 15521.00
313.1870, 15611.00
314.3940, 15768.00
315.6010, 15712.00
316.8070, 15302.00
318.0130, 14697.00
319.2200, 14321.00
320.4260, 13906.00
321.6310, 13641.00
322.8370, 13190.00
324.0430, 12911.00
325.2480, 12649.00
326.4540, 12543.00
327.6590, 12206.00
328.8640, 12106.00
330.0680, 12003.00
331.2730, 11861.00
332.4780, 11786.00
333.6820, 11673.00
334.8860, 11641.95
336.0900, 11727.00
337.2940, 11673.00
338.4980, 11695.00
339.7010, 11854.00
340.9050, 11717.58
342.1080, 11961.00
343.3110, 11662.00
344.5140, 11799.00
345.7170, 12015.00
346.9200, 12167.00
348.1220, 12364.00
349.3240, 12499.00
350.5270, 12816.00
351.7290, 13079.00
352.9310, 13480.00
354.1320, 13887.00
355.3340, 14218.00
356.5350, 14550.00
357.7370, 14743.00
358.9380, 14731.00
360.1390, 14611.00
361.3400, 14132.00
362.5400, 13843.00
363.7410, 13678.00
364.9410, 13382.00
366.1410, 13191.00
367.3410, 13199.00
368.5410, 13221.00
369.7410, 13297.00
370.9400, 13254.00
372.1400, 13116.00
373.3390, 13139.00
374.5380, 13299.00
375.7370, 13021.00
376.9360, 13001.00
378.1350, 13104.00
379.3330, 12917.00
380.5310, 12912.00
381.7300, 12838.00
382.9280, 12741.00
384.1260, 12970.00
385.3230, 12868.00
386.5210, 12995.00
387.7180, 12911.00
388.9160, 12973.00
390.1130, 13230.00
391.3100, 13466.00
392.5060, 13482.00
393.7030, 13514.00
394.9000, 13889.00
396.0960, 14071.00
397.2920, 14349.00
398.4880, 14543.00
399.6840, 14751.00
400.8800, 15012.49
402.0750, 15322.00
403.2710, 15495.00
404.4660, 15805.00
405.6610, 16026.00
406.8560, 16219.00
408.0510, 16175.00
409.2450, 16411.00
410.4400, 16344.00
411.6340, 16360.00
412.8280, 16402.00
414.0220, 16030.00
415.2160, 15864.00
416.4100, 15678.00
417.6030, 15309.00
418.7970, 15091.00
419.9900, 14978.00
421.1830, 14855.00
422.3760, 14652.00
423.5690, 14459.00
424.7610, 14769.00
425.9540, 14964.00
427.1460, 15169.00
428.3380, 15690.00
429.5300, 16143.00
430.7220, 16853.00
431.9140, 17626.00
433.1050, 18837.00
434.2970, 19601.00
435.4880, 20918.00
436.6790, 21817.00
437.8700, 23033.00
439.0610, 23659.00
440.2510, 23907.00
441.4420, 23432.00
442.6320, 22384.00
443.8220, 21399.00
445.0120, 20327.00
446.2020, 19485.00
447.3910, 19151.00
448.5810, 18958.00
449.7700, 18904.00
450.9600, 19235.00
452.1490, 19482.00
453.3370, 19763.00
454.5260, 20124.00
455.7150, 20544.11
456.9030, 21055.00
458.0910, 21517.00
459.2800, 21951.00
460.4670, 22377.62
461.6550, 22739.00
462.8430, 23147.00
464.0300, 23549.00
465.2180, 23888.00
466.4050, 23815.00
467.5920, 23605.00
468.7790, 22953.00
469.9650, 22026.00
471.1520, 21330.00
472.3380, 20613.00
473.5250, 19966.00
474.7110, 19694.00
475.8970, 19453.00
477.0820, 19487.00
478.2680, 19856.00
479.4540, 19758.00
480.6390, 20419.00
481.8240, 20702.00
483.0090, 21235.00
484.1940, 21582.00
485.3780, 21987.00
486.5630, 22333.00
487.7470, 22766.00
488.9320, 22835.00
490.1160, 23221.00
491.3000, 23729.00
492.4830, 24247.00
493.6670, 24811.00
494.8500, 25591.00
496.0340, 26376.00
497.2170, 27314.00
498.4000, 28012.00
499.5820, 28788.00
500.7650, 29134.00
501.9480, 29890.00
503.1300, 30088.00
504.3120, 30315.00
505.4940, 30541.00
506.6760, 30865.00
507.8580, 30872.00
509.0390, 31055.00
510.2210, 30868.00
511.4020, 31008.00
512.5830, 30705.00
513.7640, 30498.00
514.9450, 30143.00
516.1250, 29857.00
517.3060, 29550.00
518.4860, 28961.00
519.6660, 29344.00
520.8460, 28935.00
522.0260, 29200.00
523.2060, 29423.00
524.3850, 29603.00
525.5650, 30201.00
526.7440, 30920.00
527.9230, 31357.00
529.1020, 32254.00
530.2810, 32825.00
531.4590, 33197.00
532.6380, 33307.00
533.8160, 33221.00
534.9940, 32640.00
536.1720, 32310.00
537.3500, 31674.00
538.5270, 30942.00
539.7050, 29992.00
540.8820, 29033.00
542.0590, 28495.00
543.2360, 27867.00
544.4130, 27826.00
545.5900, 27638.00
546.7660, 27912.00
547.9430, 28576.00
549.1190, 29145.00
550.2950, 30123.00
551.4710, 31562.00
552.6470, 32850.00
553.8220, 34264.00
554.9980, 35859.00
556.1730, 37616.00
557.3480, 38778.00
558.5230, 39846.00
559.6980, 39796.00
560.8730, 39968.00
562.0470, 39775.00
563.2220, 39541.00
564.3960, 39175.00
565.5700, 38460.00
566.7440, 37700.00
567.9170, 36386.00
569.0910, 34737.00
570.2640, 33353.00
571.4380, 31301.00
572.6110, 30014.00
573.7840, 28458.00
574.9570, 27591.00
576.1290, 26661.00
577.3020, 25779.00
578.4740, 25198.00
579.6460, 25121.00
580.8180, 24773.00
581.9900, 24541.00
583.1620, 24488.00
584.3330, 24156.00
585.5040, 24608.00
586.6760, 24645.00
587.8470, 24845.00
589.0180, 25833.00
590.1880, 26572.00
591.3590, 27558.00
592.5290, 29052.00
593.7000, 30429.00
594.8700, 32048.00
596.0400, 33381.00
597.2090, 34934.00
598.3790, 36229.00
599.5490, 36572.00
600.7180, 36516.00
601.8870, 35706.00
603.0560, 33829.00
604.2250, 32259.00
605.3940, 30385.00
606.5620, 28919.00
607.7300, 28025.00
608.8990, 27135.00
610.0670, 26417.00
611.2350, 26005.00
612.4020, 25953.00
613.5700, 25740.00
614.7370, 25816.00
615.9050, 25309.00
617.0720, 24736.00
618.2390, 23965.00
619.4060, 23517.00
620.5720, 23052.00
621.7390, 22561.35
622.9050, 22245.82
624.0710, 21865.00
625.2370, 21708.00
626.4030, 21579.00
627.5690, 21509.00
628.7340, 21628.97
629.9000, 22213.00
631.0650, 21994.00
632.2300, 22142.00
633.3950, 22321.00
634.5600, 22045.00
635.7240, 21849.00
636.8890, 21693.00
638.0530, 21145.00
639.2170, 20575.00
640.3810, 20142.00
641.5450, 19763.00
642.7080, 19252.00
643.8720, 19145.00
645.0350, 18853.00
646.1980, 18772.00
647.3610, 18859.00
648.5240, 18591.00
649.6870, 18940.00
650.8490, 19072.00
652.0120, 19340.00
653.1740, 19260.00
654.3360, 19517.00
655.4980, 19610.00
656.6600, 19922.00
657.8210, 19909.00
658.9830, 20125.00
660.1440, 19972.00
661.3050, 19892.00
662.4660, 19750.00
663.6270, 19384.00
664.7870, 18992.00
665.9480, 18854.00
667.1080, 18417.00
668.2680, 18001.00
669.4280, 17719.00
670.5880, 17597.00
671.7480, 17451.00
672.9070, 16972.00
674.0670, 16982.00
675.2260, 16764.00
676.3850, 16671.00
677.5440, 16497.00
678.7030, 16312.00
679.8610, 16299.00
681.0200, 16172.00
682.1780, 16019.00
683.3360, 16030.00
684.4940, 15836.00
685.6520, 15726.00
686.8090, 15681.00
687.9670, 15740.00
689.1240, 15733.00
690.2810, 15600.00
691.4380, 15557.00
692.5950, 15601.00
693.7520, 15581.00
694.9080, 15677.00
696.0650, 15651.00
697.2210, 15662.20
698.3770, 15817.00
699.5330, 15665.00
700.6880, 15658.00
701.8440, 15691.00
702.9990, 15786.00
704.1550, 15770.00
705.3100, 15782.00
706.4650, 15687.00
707.6190, 15888.00
708.7740, 15795.00
709.9290, 15882.00
711.0830, 15954.00
712.2370, 16187.00
713.3910, 16157.00
714.5450, 16416.00
715.6980, 16309.00
716.8520, 16348.00
718.0050, 16551.00
719.1580, 16578.00
720.3110, 16456.00
721.4640, 16645.00
722.6170, 16628.00
723.7700, 16595.00
724.9220, 16735.00
726.0740, 16635.00
727.2260, 16416.00
728.3780, 16606.00
729.5300, 16398.00
730.6810, 16407.00
731.8330, 16431.00
732.9840, 16240.00
734.1350, 16305.41
735.2860, 16402.00
736.4370, 16344.00
737.5880, 16433.46
738.7380, 16399.00
739.8880, 16514.00
741.0390, 16545.00
742.1890, 16578.00
743.3380, 16655.00
744.4880, 16642.00
745.6380, 16696.00
746.7870, 16577.00
747.9360, 16630.00
749.0850, 16567.00
750.2340, 16698.00
751.3830, 16870.00
752.5310, 16862.00
753.6800, 16882.00
754.8280, 16852.00
755.9760, 16979.00
757.1240, 16923.00
758.2720, 16943.00
759.4190, 17107.00
760.5670, 17183.00
761.7140, 17197.00
762.8610, 17245.00
764.0080, 17352.00
765.1550, 17404.00
766.3020, 17425.62
767.4480, 17309.00
768.5950, 17488.00
769.7410, 17281.00
770.8870, 17384.00
772.0330, 17237.00
773.1780, 17303.00
774.3240, 17383.00
775.4690, 17280.00
776.6140, 17277.00
777.7590, 17305.00
778.9040, 17463.00
780.0490, 17287.00
781.1940, 17390.00
782.3380, 17244.00
783.4820, 17361.00
784.6260, 17351.00
785.7700, 17429.00
786.9140, 17446.00
788.0580, 17527.00
789.2010, 17680.00
790.3450, 17829.00
791.4880, 17985.00
792.6310, 18049.00
793.7730, 18182.00
794.9160, 17992.00
796.0590, 18177.00
797.2010, 18379.00
798.3430, 18205.00
799.4850, 18399.00
800.6270, 18272.00
801.7690, 18594.00
802.9100, 18510.00
804.0520, 18390.00
805.1930, 18419.00
806.3340, 18292.00
807.4750, 18192.00
808.6160, 18234.00
809.7560, 18095.00
810.8970, 17968.00
812.0370, 17757.00
813.1770, 17984.00
814.3170, 17876.00
815.4570, 17740.00
816.5960, 17691.00
817.7360, 17502.00
818.8750, 17484.00
820.0140, 17360.00
821.1530, 17381.00
822.2920, 17347.00
823.4310, 17309.00
824.5690, 17261.40
825.7070, 17235.60
826.8460, 17140.00
827.9840, 17149.00
829.1220, 17131.00
830.2590, 17028.00
831.3970, 16880.00
832.5340, 17035.00
833.6710, 17134.00
834.8080, 16949.00
835.9450, 16855.00
837.0820, 17038.00
838.2190, 16875.00
839.3550, 16795.00
840.4910, 16827.00
841.6270, 16768.00
842.7630, 16923.00
843.8990, 16733.00
845.0350, 16838.00
846.1700, 16719.00
847.3060, 16727.00
848.4410, 16751.00
849.5760, 16819.00
850.7100, 16752.00
851.8450, 16786.00
852.9800, 16792.00
854.1140, 16831.00
855.2480, 16847.00
856.3820, 16885.00
857.5160, 16880.62
858.6500, 16909.00
859.7830, 16866.00
860.9170, 16822.00
862.0500, 16808.00
863.1830, 16908.00
864.3160, 16769.00
865.4480, 16876.00
866.5810, 16932.00
867.7130, 16819.00
868.8460, 16907.30
869.9780, 16892.00
871.1100, 16843.00
872.2410, 16938.00
873.3730, 16720.00
874.5050, 16918.00
875.6360, 16990.00
876.7670, 16870.00
877.8980, 16902.00
879.0290, 16834.00
880.1590, 17021.00
881.2900, 16935.00
882.4200, 16947.00
883.5500, 16966.00
884.6800, 16927.00
885.8100, 16977.54
886.9400, 17047.00
888.0690, 17000.00
889.1990, 17122.00
890.3280, 17037.00
891.4570, 17018.00
892.5860, 17153.00
893.7140, 17064.00
894.8430, 17112.00
895.9710, 17108.00
897.1000, 17284.00
898.2280, 17280.63
899.3560, 17199.00
900.4830, 17352.00
901.6110, 17332.00
902.7380, 17318.00
903.8660, 17385.00
904.9930, 17434.00
906.1200, 17388.00
907.2460, 17379.00
908.3730, 17445.00
909.5000, 17272.00
910.6260, 17566.00
911.7520, 17567.00
912.8780, 17668.00
914.0040, 17466.00
915.1290, 17889.00
916.2550, 17642.00
917.3800, 17837.49
918.5050, 18235.00
919.6300, 18014.00
920.7550, 18060.00
921.8800, 17975.00
923.0040, 18081.00
924.1290, 17930.00
925.2530, 18246.00
926.3770, 18162.00
927.5010, 18287.00
928.6250, 18493.00
929.7480, 18321.00
930.8720, 18483.00
931.9950, 18793.00
933.1180, 18782.00
934.2410, 18835.00
935.3640, 18956.00
936.4860, 19180.00
937.6090, 19289.00
938.7310, 19409.00
939.8530, 19539.00
940.9750, 19676.00
942.0970, 19823.00
943.2180, 20073.00
944.3400, 20242.00
945.4610, 20364.00
946.5820, 20720.00
947.7030, 20837.00
948.8240, 20986.00
949.9450, 21177.00
951.0650, 21489.00
952.1860, 21718.00
953.3060, 21957.00
954.4260, 22183.00
955.5460, 22286.00
956.6650, 22842.00
957.7850, 23124.00
958.9040, 23612.00
960.0230, 24143.00
961.1420, 24995.00
962.2610, 25777.00
963.3800, 26573.00
964.4990, 27531.00
965.6170, 28608.00
966.7350, 30012.00
967.8530, 31459.00
968.9710, 33238.00
970.0890, 34422.00
971.2070, 35727.00
972.3240, 36852.00
973.4410, 37904.00
974.5580, 38581.00
975.6750, 38730.00
976.7920, 39285.00
977.9090, 39604.00
979.0250, 40090.00
980.1410, 40891.00
981.2580, 42249.00
982.3740, 43438.00
983.4890, 45549.00
984.6050, 47483.00
985.7200, 49006.00
986.8360, 50377.00
987.9510, 50580.00
989.0660, 50681.00
990.1810, 48769.00
991.2950, 46353.00
992.4100, 44048.00
993.5240, 41149.00
994.6390, 39037.00
995.7530, 37338.00
996.8660, 35652.00
997.9800, 34478.00
999.0940, 33946.00
1000.207, 33415.00
1001.320, 33094.00
1002.433, 32992.00
1003.546, 33167.00
1004.659, 33463.00
1005.772, 34206.00
1006.884, 35029.00
1007.996, 36263.00
1009.108, 37623.00
1010.220, 39458.00
1011.332, 41841.00
1012.444, 44480.00
1013.555, 47689.00
1014.666, 50443.00
1015.777, 53249.00
1016.888, 55535.00
1017.999, 57317.00
1019.110, 58189.00
1020.220, 58222.00
1021.331, 57640.00
1022.441, 56112.00
1023.551, 54675.00
1024.661, 52518.00
1025.770, 50679.00
1026.880, 48788.00
1027.989, 47424.00
1029.098, 46259.00
1030.207, 44821.00
1031.316, 43842.00
1032.425, 43434.00
1033.533, 42764.00
1034.642, 42127.00
1035.750, 41983.00
1036.858, 41584.00
1037.966, 41329.00
1039.073, 41222.00
1040.181, 40710.00
1041.288, 40591.00
1042.396, 39436.00
1043.503, 39206.00
1044.610, 38208.00
1045.716, 37421.00
1046.823, 36532.00
1047.929, 35457.00
1049.036, 34798.00
1050.142, 33852.00
1051.248, 33078.00
1052.353, 32431.00
1053.459, 32107.00
1054.564, 31501.00
1055.670, 31239.00
1056.775, 30715.00
1057.880, 30838.00
1058.985, 30528.00
1060.089, 30301.00
1061.194, 30212.00
1062.298, 29865.00
1063.402, 29595.00
1064.506, 29524.00
1065.610, 29666.00
1066.713, 29306.00
1067.817, 29264.00
1068.920, 29139.00
1070.023, 29023.00
1071.126, 29006.00
1072.229, 29052.00
1073.332, 29118.00
1074.435, 29116.00
1075.537, 28859.00
1076.639, 28940.00
1077.741, 28513.00
1078.843, 28462.00
1079.945, 27964.00
1081.046, 27923.00
1082.148, 27687.00
1083.249, 27250.00
1084.350, 27030.00
1085.451, 26552.00
1086.551, 25931.00
1087.652, 25466.00
1088.752, 25247.00
1089.853, 24831.00
1090.953, 24614.00
1092.053, 24158.00
1093.152, 24123.00
1094.252, 23795.00
1095.351, 23534.00
1096.451, 23156.00
1097.550, 23462.00
1098.649, 23349.00
1099.748, 23168.00
1100.846, 23301.00
1101.945, 23280.00
1103.043, 23391.00
1104.141, 23653.00
1105.239, 23879.00
1106.337, 24353.66
1107.434, 24842.00
1108.532, 25567.00
1109.629, 26352.00
1110.726, 27271.00
1111.823, 28592.00
1112.920, 30039.00
1114.017, 31638.00
1115.113, 32889.00
1116.210, 33491.00
1117.306, 33769.00
1118.402, 33325.00
1119.498, 32497.00
1120.593, 31900.00
1121.689, 30735.00
1122.784, 29953.00
1123.879, 29426.00
1124.974, 28870.00
1126.069, 28350.00
1127.164, 28005.00
1128.259, 27658.00
1129.353, 26930.00
1130.447, 26835.00
1131.541, 26145.00
1132.635, 26065.00
1133.729, 25497.00
1134.822, 25374.00
1135.916, 25199.00
1137.009, 25248.00
1138.102, 25419.00
1139.195, 25386.00
1140.288, 25714.00
1141.380, 26241.00
1142.473, 26715.00
1143.565, 27378.00
1144.657, 28158.00
1145.749, 29121.00
1146.841, 29574.00
1147.932, 29860.00
1149.024, 29761.00
1150.115, 28750.00
1151.206, 27791.00
1152.297, 26676.00
1153.388, 26001.00
1154.479, 24869.00
1155.569, 24008.00
1156.659, 23643.00
1157.750, 23164.00
1158.839, 23088.00
1159.929, 22563.00
1161.019, 22452.00
1162.108, 22162.00
1163.198, 21984.00
1164.287, 21863.00
1165.376, 21938.00
1166.465, 21819.00
1167.553, 21710.00
1168.642, 21546.00
1169.730, 21581.00
1170.818, 21374.00
1171.906, 21368.00
1172.994, 21247.00
1174.082, 21136.00
1175.170, 21116.00
1176.257, 21110.00
1177.344, 21051.00
1178.431, 20980.00
1179.518, 21047.00
1180.605, 20893.00
1181.691, 20763.00
1182.778, 20780.00
1183.864, 20735.00
1184.950, 20809.00
1186.036, 20752.00
1187.122, 20541.00
1188.207, 20673.00
1189.292, 20509.00
1190.378, 20736.00
1191.463, 20630.00
1192.548, 20592.00
1193.632, 20706.00
1194.717, 20409.00
1195.801, 20407.00
1196.886, 20419.00
1197.970, 20714.00
1199.054, 20546.00
1200.137, 20626.00
1201.221, 20621.00
1202.305, 20389.00
1203.388, 20534.00
1204.471, 20479.00
1205.554, 20764.00
1206.637, 20392.00
1207.719, 20658.00
1208.802, 20515.00
1209.884, 20556.00
1210.966, 20537.00
1212.048, 20655.00
1213.130, 20671.00
1214.212, 20624.00
1215.293, 20583.00
1216.374, 20733.00
1217.456, 20653.00
1218.536, 20580.00
1219.617, 20582.00
1220.698, 20471.00
1221.778, 20489.00
1222.859, 20527.00
1223.939, 20481.00
1225.019, 20584.00
1226.099, 20509.00
1227.178, 20620.00
1228.258, 20513.00
1229.337, 20777.00
1230.417, 20687.00
1231.496, 20776.00
1232.574, 20584.00
1233.653, 20667.00
1234.732, 20535.00
1235.810, 20707.00
1236.888, 20664.00
1237.966, 20680.00
1239.044, 20729.00
1240.122, 20695.00
1241.199, 20483.00
1242.277, 20602.00
1243.354, 20592.00
1244.431, 20696.00
1245.508, 20753.00
1246.585, 20651.00
1247.661, 20666.00
1248.738, 20774.00
1249.814, 20782.00
1250.890, 20683.00
1251.966, 20975.00
1253.042, 20911.00
1254.117, 20762.00
1255.193, 20648.00
1256.268, 20802.00
1257.343, 20888.00
1258.418, 20742.00
1259.493, 20984.00
1260.567, 20735.00
1261.642, 20782.00
1262.716, 20734.00
1263.790, 20898.00
1264.864, 20779.00
