##NAMES=Brazilianite
##RRUFFID=R050504
##IDEAL CHEMISTRY=NaAl_3_(PO_4_)_2_(OH)_4_
##LOCALITY=CÃ³rrego Frio, Minas Gerais, Brazil
##OWNER=RRUFF
##SOURCE=Marcus Origlieri
##DESCRIPTION=Yellowish green fragment
##STATUS=The identification of this mineral has been confirmed by X-ray diffraction and chemical analysis
##URL=rruff.info/R050504
##MEASURED CHEMISTRY=Na_1.00_Al_3.00_(P_1.00_O_4_)_2_(OH)_4_
##PIN_ID=L00567
##ORIENTATION=Laser parallel to (1 0 1). Fiducial mark perpendicular to laser is parallel to b [0 1 0]
83.60200, 8431.000
84.83700, 8633.000
86.07200, 9070.000
87.30800, 9220.000
88.54200, 9261.000
89.77700, 9422.000
91.01200, 9544.000
92.24600, 9622.000
93.48000, 9626.000
94.71400, 9519.000
95.94800, 9724.000
97.18200, 9806.000
98.41600, 9911.000
99.64900, 10077.00
100.8830, 10288.00
102.1160, 10482.00
103.3490, 10537.00
104.5820, 10726.00
105.8150, 10842.00
107.0470, 11039.00
108.2800, 11158.00
109.5120, 11178.00
110.7440, 10980.00
111.9760, 10799.00
113.2080, 10779.00
114.4400, 10840.00
115.6710, 10946.00
116.9030, 10908.00
118.1340, 10979.00
119.3650, 10830.00
120.5960, 11010.00
121.8270, 10757.00
123.0580, 10935.00
124.2880, 10969.00
125.5190, 10955.00
126.7490, 11006.00
127.9790, 11098.00
129.2090, 11058.00
130.4390, 11050.00
131.6680, 11203.00
132.8980, 11388.00
134.1270, 11259.00
135.3560, 11445.00
136.5850, 11456.00
137.8140, 11668.00
139.0430, 12050.00
140.2710, 11900.00
141.5000, 12201.00
142.7280, 12609.00
143.9560, 12310.00
145.1840, 12165.00
146.4120, 12301.00
147.6390, 12473.00
148.8670, 12391.00
150.0940, 12522.00
151.3210, 12370.00
152.5490, 12528.00
153.7750, 12546.00
155.0020, 12705.00
156.2290, 13010.00
157.4550, 13136.00
158.6810, 13833.00
159.9080, 14445.00
161.1340, 15718.00
162.3590, 17182.00
163.5850, 19079.00
164.8110, 20496.00
166.0360, 21468.00
167.2610, 22942.00
168.4860, 24813.00
169.7110, 25874.00
170.9360, 25262.00
172.1610, 24373.00
173.3850, 23747.00
174.6100, 22649.00
175.8340, 21009.00
177.0580, 18894.00
178.2820, 16974.00
179.5050, 16272.00
180.7290, 14653.00
181.9520, 14166.00
183.1760, 13694.00
184.3990, 13491.00
185.6220, 13519.00
186.8450, 13484.00
188.0670, 13541.00
189.2900, 13571.00
190.5120, 13587.37
191.7340, 13580.00
192.9560, 13640.00
194.1780, 13739.00
195.4000, 13747.00
196.6220, 13908.00
197.8430, 14040.00
199.0640, 14311.00
200.2860, 14425.79
201.5070, 14587.00
202.7270, 14643.00
203.9480, 14673.00
205.1690, 14575.00
206.3890, 14594.00
207.6090, 14684.00
208.8290, 14814.00
210.0490, 14767.00
211.2690, 14799.00
212.4890, 15000.00
213.7080, 15146.00
214.9280, 15044.00
216.1470, 15175.00
217.3660, 15155.00
218.5850, 15090.00
219.8030, 15203.00
221.0220, 15296.00
222.2400, 15340.00
223.4590, 15362.00
224.6770, 15356.00
225.8950, 15358.00
227.1120, 15336.44
228.3300, 15389.00
229.5480, 15280.00
230.7650, 15274.00
231.9820, 15255.00
233.1990, 15041.00
234.4160, 15000.00
235.6330, 14905.39
236.8490, 14688.00
238.0660, 14730.00
239.2820, 14586.00
240.4980, 14462.00
241.7140, 14655.00
242.9300, 14965.00
244.1460, 15130.00
245.3610, 15308.00
246.5770, 15382.00
247.7920, 15498.00
249.0070, 15468.36
250.2220, 15404.71
251.4370, 15345.00
252.6510, 15092.00
253.8660, 15015.00
255.0800, 14734.00
256.2940, 14504.00
257.5080, 14289.00
258.7220, 14060.00
259.9360, 14015.00
261.1490, 13911.00
262.3630, 13920.00
263.5760, 13945.00
264.7890, 14050.00
266.0020, 14344.00
267.2150, 14345.00
268.4270, 14504.00
269.6400, 14791.00
270.8520, 14925.00
272.0640, 15166.38
273.2760, 15505.00
274.4880, 15596.00
275.7000, 15670.00
276.9120, 15843.00
278.1230, 15710.00
279.3340, 15787.00
280.5450, 15690.00
281.7560, 15489.00
282.9670, 15389.00
284.1780, 15292.00
285.3880, 15164.00
286.5980, 15311.00
287.8090, 15325.00
289.0190, 15400.00
290.2290, 15721.00
291.4380, 15688.00
292.6480, 15923.00
293.8570, 16020.00
295.0670, 16090.00
296.2760, 15842.00
297.4850, 15857.00
298.6930, 15555.00
299.9020, 15529.00
301.1110, 15363.00
302.3190, 15280.00
303.5270, 15225.00
304.7350, 15143.00
305.9430, 15299.00
307.1510, 15318.00
308.3580, 15512.00
309.5660, 15466.00
310.7730, 15699.00
311.9800, 15768.00
313.1870, 15689.00
314.3940, 15853.00
315.6010, 15802.00
316.8070, 15780.00
318.0130, 15765.00
319.2200, 15574.00
320.4260, 15542.00
321.6310, 15462.00
322.8370, 15319.00
324.0430, 15282.00
325.2480, 15201.31
326.4540, 15255.00
327.6590, 15080.00
328.8640, 15046.00
330.0680, 14961.00
331.2730, 15042.00
332.4780, 15130.00
333.6820, 14965.00
334.8860, 15203.00
336.0900, 15190.00
337.2940, 15121.00
338.4980, 15268.00
339.7010, 15370.00
340.9050, 15250.00
342.1080, 15404.00
343.3110, 15586.00
344.5140, 15676.46
345.7170, 16032.00
346.9200, 16076.00
348.1220, 16393.00
349.3240, 16671.00
350.5270, 16974.00
351.7290, 17158.00
352.9310, 17502.00
354.1320, 17605.00
355.3340, 17649.85
356.5350, 17650.00
357.7370, 17578.00
358.9380, 17552.00
360.1390, 17486.00
361.3400, 17082.00
362.5400, 17049.00
363.7410, 16736.00
364.9410, 16562.00
366.1410, 16381.00
367.3410, 16457.00
368.5410, 16409.00
369.7410, 16476.00
370.9400, 16488.00
372.1400, 16539.00
373.3390, 16541.00
374.5380, 16538.00
375.7370, 16524.00
376.9360, 16484.40
378.1350, 16411.00
379.3330, 16346.00
380.5310, 16196.00
381.7300, 16036.00
382.9280, 15957.00
384.1260, 15879.00
385.3230, 15772.00
386.5210, 15808.00
387.7180, 15770.00
388.9160, 15899.00
390.1130, 15918.00
391.3100, 15981.00
392.5060, 15977.00
393.7030, 16176.00
394.9000, 16452.00
396.0960, 16381.00
397.2920, 16472.00
398.4880, 16933.00
399.6840, 16906.00
400.8800, 17118.00
402.0750, 17067.00
403.2710, 17494.00
404.4660, 17723.00
405.6610, 18006.00
406.8560, 18107.00
408.0510, 18461.00
409.2450, 18371.00
410.4400, 18586.00
411.6340, 18850.00
412.8280, 18871.00
414.0220, 18798.00
415.2160, 18903.00
416.4100, 18800.60
417.6030, 18705.00
418.7970, 18640.00
419.9900, 18529.00
421.1830, 18408.00
422.3760, 18320.00
423.5690, 18597.00
424.7610, 18413.00
425.9540, 18391.00
427.1460, 18580.00
428.3380, 18525.00
429.5300, 18728.00
430.7220, 18866.00
431.9140, 18921.00
433.1050, 19229.00
434.2970, 19442.00
435.4880, 19413.00
436.6790, 19482.00
437.8700, 19756.00
439.0610, 19473.00
440.2510, 19532.00
441.4420, 19482.00
442.6320, 19281.00
443.8220, 19233.00
445.0120, 19329.00
446.2020, 18975.00
447.3910, 18919.00
448.5810, 18881.00
449.7700, 18990.00
450.9600, 18880.00
452.1490, 19073.00
453.3370, 18945.00
454.5260, 19139.00
455.7150, 19231.00
456.9030, 19412.00
458.0910, 19513.00
459.2800, 19504.00
460.4670, 19694.00
461.6550, 19671.00
462.8430, 19788.00
464.0300, 19691.00
465.2180, 19607.00
466.4050, 19541.00
467.5920, 19369.00
468.7790, 19170.00
469.9650, 19096.00
471.1520, 19225.00
472.3380, 19058.00
473.5250, 19118.00
474.7110, 19392.00
475.8970, 19634.00
477.0820, 19758.00
478.2680, 20068.00
479.4540, 20392.00
480.6390, 20592.00
481.8240, 20677.00
483.0090, 20921.00
484.1940, 21149.00
485.3780, 21425.00
486.5630, 21446.00
487.7470, 21759.00
488.9320, 21916.00
490.1160, 22296.00
491.3000, 22868.00
492.4830, 23022.00
493.6670, 23615.00
494.8500, 23928.00
496.0340, 24255.00
497.2170, 24782.00
498.4000, 25083.00
499.5820, 25683.00
500.7650, 25438.00
501.9480, 25714.00
503.1300, 26046.00
504.3120, 26034.00
505.4940, 26162.00
506.6760, 26266.00
507.8580, 26237.00
509.0390, 26351.00
510.2210, 26440.00
511.4020, 26137.00
512.5830, 26326.00
513.7640, 26335.00
514.9450, 26087.00
516.1250, 26485.00
517.3060, 26349.00
518.4860, 26459.00
519.6660, 26366.00
520.8460, 26633.00
522.0260, 26694.00
523.2060, 26756.00
524.3850, 27183.00
525.5650, 27529.00
526.7440, 27787.00
527.9230, 27999.00
529.1020, 28370.00
530.2810, 28470.00
531.4590, 28683.00
532.6380, 28769.00
533.8160, 28741.00
534.9940, 28391.00
536.1720, 28179.00
537.3500, 27638.00
538.5270, 27295.00
539.7050, 26951.00
540.8820, 26792.00
542.0590, 26609.00
543.2360, 26343.00
544.4130, 26651.00
545.5900, 26816.00
546.7660, 27448.00
547.9430, 27917.00
549.1190, 28825.00
550.2950, 29638.00
551.4710, 30890.00
552.6470, 31771.00
553.8220, 33027.00
554.9980, 34595.00
556.1730, 35350.00
557.3480, 36267.00
558.5230, 37085.00
559.6980, 37394.00
560.8730, 37813.00
562.0470, 37642.00
563.2220, 37369.00
564.3960, 36771.00
565.5700, 35686.00
566.7440, 34751.00
567.9170, 33675.00
569.0910, 32372.00
570.2640, 31195.00
571.4380, 29619.00
572.6110, 28567.00
573.7840, 27741.00
574.9570, 26912.00
576.1290, 26240.00
577.3020, 25508.00
578.4740, 25154.00
579.6460, 24632.00
580.8180, 24335.00
581.9900, 24340.00
583.1620, 24227.00
584.3330, 24218.00
585.5040, 24373.00
586.6760, 24798.00
587.8470, 25023.00
589.0180, 25486.00
590.1880, 26219.00
591.3590, 27207.00
592.5290, 28142.00
593.7000, 29432.00
594.8700, 30655.00
596.0400, 31713.00
597.2090, 32247.00
598.3790, 32573.00
599.5490, 33029.00
600.7180, 32685.00
601.8870, 32115.00
603.0560, 31240.00
604.2250, 30550.00
605.3940, 29488.00
606.5620, 28815.00
607.7300, 28113.00
608.8990, 27770.00
610.0670, 27533.00
611.2350, 26910.00
612.4020, 26739.00
613.5700, 26480.00
614.7370, 25947.00
615.9050, 25506.00
617.0720, 25043.00
618.2390, 24441.00
619.4060, 24024.00
620.5720, 23780.00
621.7390, 23510.00
622.9050, 23767.00
624.0710, 23650.00
625.2370, 23659.00
626.4030, 23868.00
627.5690, 23821.00
628.7340, 24289.00
629.9000, 24370.00
631.0650, 24689.00
632.2300, 24680.00
633.3950, 24677.00
634.5600, 24407.00
635.7240, 24253.00
636.8890, 23940.00
638.0530, 23505.00
639.2170, 23233.56
640.3810, 22938.00
641.5450, 22519.00
642.7080, 22145.00
643.8720, 21817.00
645.0350, 21769.00
646.1980, 21367.00
647.3610, 21423.00
648.5240, 21312.00
649.6870, 21043.00
650.8490, 21135.00
652.0120, 21039.00
653.1740, 20950.00
654.3360, 21027.00
655.4980, 20870.00
656.6600, 20803.00
657.8210, 20786.96
658.9830, 20535.00
660.1440, 20635.00
661.3050, 20530.00
662.4660, 20307.00
663.6270, 20336.00
664.7870, 20235.00
665.9480, 20258.00
667.1080, 20215.00
668.2680, 20106.00
669.4280, 20161.00
670.5880, 20089.00
671.7480, 19988.00
672.9070, 20194.00
674.0670, 20168.00
675.2260, 20094.00
676.3850, 20209.00
677.5440, 20099.00
678.7030, 19924.00
679.8610, 19937.00
681.0200, 19962.00
682.1780, 20082.00
683.3360, 20122.00
684.4940, 20094.00
685.6520, 20079.00
686.8090, 19867.00
687.9670, 19936.00
689.1240, 20098.00
690.2810, 19821.00
691.4380, 19699.00
692.5950, 19872.00
693.7520, 19768.00
694.9080, 19961.00
696.0650, 19854.00
697.2210, 19890.00
698.3770, 20111.00
699.5330, 20081.00
700.6880, 20079.00
701.8440, 19973.00
702.9990, 20151.00
704.1550, 20138.00
705.3100, 20091.00
706.4650, 20048.00
707.6190, 20001.00
708.7740, 20226.00
709.9290, 20284.00
711.0830, 20345.00
712.2370, 20425.00
713.3910, 20482.00
714.5450, 20323.00
715.6980, 20345.00
716.8520, 20532.00
718.0050, 20673.00
719.1580, 20529.00
720.3110, 20820.00
721.4640, 20595.00
722.6170, 20660.00
723.7700, 20679.00
724.9220, 20651.00
726.0740, 20671.00
727.2260, 20612.00
728.3780, 20662.00
729.5300, 20599.00
730.6810, 20466.00
731.8330, 20590.00
732.9840, 20461.00
734.1350, 20619.00
735.2860, 20559.00
736.4370, 20581.00
737.5880, 20753.00
738.7380, 20705.00
739.8880, 20548.00
741.0390, 20643.00
742.1890, 20695.00
743.3380, 20753.00
744.4880, 20830.00
745.6380, 20701.00
746.7870, 20884.00
747.9360, 20790.00
749.0850, 20733.00
750.2340, 20807.00
751.3830, 20933.00
752.5310, 20990.00
753.6800, 20843.00
754.8280, 21175.00
755.9760, 21179.00
757.1240, 21245.00
758.2720, 20973.00
759.4190, 21351.00
760.5670, 21215.00
761.7140, 21297.00
762.8610, 21249.00
764.0080, 21318.00
765.1550, 21221.00
766.3020, 21268.00
767.4480, 21529.00
768.5950, 21424.00
769.7410, 21483.00
770.8870, 21530.00
772.0330, 21367.00
773.1780, 21357.00
774.3240, 21372.00
775.4690, 21403.00
776.6140, 21369.44
777.7590, 21338.00
778.9040, 21309.00
780.0490, 21363.00
781.1940, 21319.00
782.3380, 21362.00
783.4820, 21328.00
784.6260, 21398.00
785.7700, 21591.00
786.9140, 21433.00
788.0580, 21554.00
789.2010, 21552.00
790.3450, 21511.00
791.4880, 21472.00
792.6310, 21697.00
793.7730, 21664.00
794.9160, 21796.00
796.0590, 21804.00
797.2010, 21762.00
798.3430, 21695.00
799.4850, 21758.00
800.6270, 21835.00
801.7690, 21745.00
802.9100, 21886.00
804.0520, 21896.00
805.1930, 21822.00
806.3340, 21935.00
807.4750, 21695.00
808.6160, 21835.00
809.7560, 21752.00
810.8970, 21779.00
812.0370, 21616.00
813.1770, 21852.00
814.3170, 21875.00
815.4570, 21749.00
816.5960, 21958.00
817.7360, 21729.00
818.8750, 21690.00
820.0140, 21726.00
821.1530, 21676.00
822.2920, 21988.00
823.4310, 21675.00
824.5690, 21848.00
825.7070, 21554.00
826.8460, 21696.00
827.9840, 21691.00
829.1220, 21721.00
830.2590, 21741.00
831.3970, 21784.00
832.5340, 21685.00
833.6710, 21809.00
834.8080, 21714.00
835.9450, 21857.00
837.0820, 21831.00
838.2190, 21768.00
839.3550, 21802.00
840.4910, 21805.00
841.6270, 21857.00
842.7630, 21942.00
843.8990, 21979.00
845.0350, 21826.00
846.1700, 21997.00
847.3060, 21810.00
848.4410, 22008.00
849.5760, 21918.00
850.7100, 22034.00
851.8450, 22148.00
852.9800, 21953.00
854.1140, 21960.00
855.2480, 22126.00
856.3820, 22150.00
857.5160, 22091.00
858.6500, 22099.00
859.7830, 22136.00
860.9170, 22157.00
862.0500, 22186.00
863.1830, 22279.00
864.3160, 22084.00
865.4480, 22176.00
866.5810, 22312.00
867.7130, 22033.00
868.8460, 22203.00
869.9780, 22227.00
871.1100, 22310.00
872.2410, 22354.00
873.3730, 22369.00
874.5050, 22230.00
875.6360, 22272.00
876.7670, 22150.00
877.8980, 22254.00
879.0290, 22371.00
880.1590, 22311.00
881.2900, 22560.00
882.4200, 22431.00
883.5500, 22510.00
884.6800, 22604.00
885.8100, 22393.00
886.9400, 22307.00
888.0690, 22556.00
889.1990, 22565.00
890.3280, 22628.00
891.4570, 22556.00
892.5860, 22620.00
893.7140, 22554.00
894.8430, 22587.91
895.9710, 22750.00
897.1000, 22598.00
898.2280, 22690.00
899.3560, 22605.00
900.4830, 22931.00
901.6110, 22595.00
902.7380, 22940.00
903.8660, 23032.00
904.9930, 23103.00
906.1200, 22949.00
907.2460, 23156.00
908.3730, 22889.00
909.5000, 22859.00
910.6260, 22892.00
911.7520, 23082.00
912.8780, 22971.00
914.0040, 23122.00
915.1290, 23282.00
916.2550, 23192.00
917.3800, 23298.00
918.5050, 23268.00
919.6300, 23468.00
920.7550, 23314.00
921.8800, 23567.00
923.0040, 23347.00
924.1290, 23468.00
925.2530, 23360.00
926.3770, 23902.00
927.5010, 23813.00
928.6250, 23716.00
929.7480, 23922.00
930.8720, 23885.00
931.9950, 23856.00
933.1180, 24150.00
934.2410, 24238.00
935.3640, 24311.00
936.4860, 24505.00
937.6090, 24635.00
938.7310, 24648.00
939.8530, 24870.00
940.9750, 25020.66
942.0970, 25370.00
943.2180, 25479.00
944.3400, 25845.00
945.4610, 26185.00
946.5820, 26180.00
947.7030, 26450.00
948.8240, 26469.00
949.9450, 26642.00
951.0650, 26815.00
952.1860, 26629.00
953.3060, 26931.00
954.4260, 26914.00
955.5460, 26986.00
956.6650, 27180.00
957.7850, 27254.00
958.9040, 27464.00
960.0230, 27611.00
961.1420, 28121.00
962.2610, 28620.00
963.3800, 28931.00
964.4990, 29603.00
965.6170, 30182.00
966.7350, 30860.00
967.8530, 31782.00
968.9710, 32794.00
970.0890, 33134.00
971.2070, 33171.00
972.3240, 33856.00
973.4410, 33967.00
974.5580, 33631.00
975.6750, 33659.00
976.7920, 33711.00
977.9090, 33660.00
979.0250, 33836.00
980.1410, 34327.00
981.2580, 34266.00
982.3740, 34679.00
983.4890, 35383.00
984.6050, 35990.00
985.7200, 36224.00
986.8360, 36603.00
987.9510, 36737.00
989.0660, 36372.00
990.1810, 35885.00
991.2950, 35139.00
992.4100, 34572.00
993.5240, 33777.00
994.6390, 33136.00
995.7530, 32616.00
996.8660, 32230.00
997.9800, 32028.00
999.0940, 32247.00
1000.207, 32485.00
1001.320, 32948.00
1002.433, 33375.00
1003.546, 34093.00
1004.659, 35113.00
1005.772, 36089.00
1006.884, 37760.00
1007.996, 39412.00
1009.108, 41606.00
1010.220, 44356.00
1011.332, 47290.00
1012.444, 50189.00
1013.555, 53242.00
1014.666, 56257.00
1015.777, 59098.00
1016.888, 60640.00
1017.999, 62008.00
1019.110, 61915.00
1020.220, 61599.00
1021.331, 60265.00
1022.441, 58318.00
1023.551, 56680.00
1024.661, 54582.00
1025.770, 52743.00
1026.880, 50685.00
1027.989, 48873.00
1029.098, 47199.00
1030.207, 45955.00
1031.316, 45113.00
1032.425, 44140.00
1033.533, 43615.00
1034.642, 43011.00
1035.750, 42365.00
1036.858, 41825.00
1037.966, 41299.00
1039.073, 41055.00
1040.181, 40217.00
1041.288, 39781.00
1042.396, 39407.00
1043.503, 38702.00
1044.610, 37990.00
1045.716, 37022.00
1046.823, 36715.00
1047.929, 35760.00
1049.036, 35328.00
1050.142, 35097.00
1051.248, 34690.00
1052.353, 34360.23
1053.459, 34179.00
1054.564, 33716.00
1055.670, 33730.00
1056.775, 33516.00
1057.880, 33711.00
1058.985, 33433.00
1060.089, 33672.00
1061.194, 33232.00
1062.298, 33251.00
1063.402, 33251.00
1064.506, 33021.00
1065.610, 32738.00
1066.713, 32546.00
1067.817, 32449.00
1068.920, 31606.00
1070.023, 31610.00
1071.126, 30885.00
1072.229, 30639.00
1073.332, 30296.00
1074.435, 29771.00
1075.537, 29767.00
1076.639, 29092.00
1077.741, 28874.00
1078.843, 28649.00
1079.945, 28477.00
1081.046, 28268.00
1082.148, 28056.36
1083.249, 27868.00
1084.350, 27640.00
1085.451, 27427.00
1086.551, 27238.00
1087.652, 27121.00
1088.752, 26939.00
1089.853, 26714.00
1090.953, 26852.00
1092.053, 26779.00
1093.152, 26597.00
1094.252, 26574.00
1095.351, 26507.00
1096.451, 26414.00
1097.550, 26184.00
1098.649, 26296.00
1099.748, 26298.00
1100.846, 26385.00
1101.945, 26112.00
1103.043, 26128.00
1104.141, 26430.00
1105.239, 25950.00
1106.337, 26354.00
1107.434, 26178.00
1108.532, 26234.00
1109.629, 26345.00
1110.726, 26327.00
1111.823, 26808.00
1112.920, 26662.12
1114.017, 26627.00
1115.113, 26707.00
1116.210, 26403.00
1117.306, 26585.00
1118.402, 26567.00
1119.498, 26727.00
1120.593, 26453.00
1121.689, 26720.00
1122.784, 26514.00
1123.879, 26732.00
1124.974, 26662.00
1126.069, 26775.00
1127.164, 26940.00
1128.259, 26762.00
1129.353, 26769.00
1130.447, 26703.00
1131.541, 26989.00
1132.635, 26997.00
1133.729, 27125.00
1134.822, 27021.00
1135.916, 27175.00
1137.009, 27169.00
1138.102, 27378.00
1139.195, 27468.00
1140.288, 27697.00
1141.380, 27958.00
1142.473, 28193.00
1143.565, 28579.00
1144.657, 28855.00
1145.749, 29117.00
1146.841, 28927.00
1147.932, 29196.00
1149.024, 28845.00
1150.115, 28828.00
1151.206, 28731.00
1152.297, 28516.00
1153.388, 28019.00
1154.479, 27945.00
1155.569, 27670.00
1156.659, 27698.00
1157.750, 27516.00
1158.839, 27468.00
1159.929, 27516.57
1161.019, 27739.00
1162.108, 27661.00
1163.198, 27732.00
1164.287, 27869.00
1165.376, 27655.00
1166.465, 27738.00
1167.553, 27470.00
1168.642, 27898.00
1169.730, 27726.56
1170.818, 27661.00
1171.906, 27635.00
1172.994, 27474.00
1174.082, 27300.00
1175.170, 27283.00
1176.257, 27164.00
1177.344, 27085.00
1178.431, 27239.00
1179.518, 26946.00
1180.605, 27050.00
1181.691, 26953.00
1182.778, 26887.00
1183.864, 26913.00
1184.950, 27023.00
1186.036, 26989.00
1187.122, 27014.00
1188.207, 27065.00
1189.292, 27029.00
1190.378, 27081.15
1191.463, 26890.00
1192.548, 27077.00
1193.632, 27037.00
1194.717, 26897.00
1195.801, 27015.00
1196.886, 27042.00
1197.970, 27010.00
1199.054, 27086.00
1200.137, 27075.00
1201.221, 27061.02
1202.305, 26913.00
1203.388, 27047.79
1204.471, 27040.93
1205.554, 27099.47
1206.637, 27175.00
1207.719, 27098.00
1208.802, 26990.00
1209.884, 26866.00
1210.966, 26875.00
1212.048, 26995.00
1213.130, 26887.45
1214.212, 27040.00
1215.293, 26893.00
1216.374, 26979.00
1217.456, 27162.00
1218.536, 27273.00
1219.617, 27238.00
1220.698, 27370.00
1221.778, 27201.00
1222.859, 27118.00
1223.939, 27247.00
1225.019, 27427.00
1226.099, 27229.00
1227.178, 27508.00
1228.258, 27336.00
1229.337, 27350.00
1230.417, 27311.00
1231.496, 27322.00
1232.574, 27292.98
1233.653, 27300.00
1234.732, 27285.00
1235.810, 27256.00
1236.888, 27350.00
1237.966, 27412.00
1239.044, 27616.00
1240.122, 27368.00
1241.199, 27444.00
1242.277, 27382.00
1243.354, 27263.00
1244.431, 27237.00
1245.508, 27542.00
1246.585, 27346.00
1247.661, 27433.00
1248.738, 27629.00
1249.814, 27427.00
1250.890, 27594.00
1251.966, 27617.00
1253.042, 27502.00
1254.117, 27456.00
1255.193, 27657.00
1256.268, 27338.00
1257.343, 27403.00
1258.418, 27714.00
1259.493, 27662.00
1260.567, 27624.00
1261.642, 27800.00
1262.716, 27715.00
1263.790, 27442.00
1264.864, 27717.00
1265.938, 27804.00
1267.011, 27714.00
