##NAMES=Brazilianite
##RRUFFID=R050504
##IDEAL CHEMISTRY=NaAl_3_(PO_4_)_2_(OH)_4_
##LOCALITY=CÃ³rrego Frio, Minas Gerais, Brazil
##OWNER=RRUFF
##SOURCE=Marcus Origlieri
##DESCRIPTION=Yellowish green fragment
##STATUS=The identification of this mineral has been confirmed by X-ray diffraction and chemical analysis
##URL=rruff.info/R050504
##MEASURED CHEMISTRY=Na_1.00_Al_3.00_(P_1.00_O_4_)_2_(OH)_4_
##PIN_ID=L00677
##ORIENTATION=Laser parallel to -c* (0 0 -1). Fiducial mark perpendicular to laser is parallel to a [1 0 0]
72.47700, 2809.000
73.71400, 3314.000
74.95100, 3931.000
76.18700, 4686.000
77.42300, 5681.000
78.65900, 7004.000
79.89500, 8628.000
81.13100, 10729.00
82.36700, 13047.00
83.60200, 15271.00
84.83700, 17115.00
86.07200, 18503.00
87.30800, 19424.00
88.54200, 19734.00
89.77700, 18584.00
91.01200, 16560.00
92.24600, 14512.00
93.48000, 12572.00
94.71400, 11618.00
95.94800, 11111.00
97.18200, 11283.00
98.41600, 12248.00
99.64900, 13847.00
100.8830, 17068.00
102.1160, 20688.00
103.3490, 22912.00
104.5820, 22883.00
105.8150, 19965.00
107.0470, 16617.00
108.2800, 13822.00
109.5120, 11284.00
110.7440, 9352.000
111.9760, 8622.000
113.2080, 8476.000
114.4400, 8477.000
115.6710, 8113.000
116.9030, 7460.000
118.1340, 6766.000
119.3650, 6169.000
120.5960, 5746.000
121.8270, 5549.000
123.0580, 5485.000
124.2880, 5537.000
125.5190, 5444.000
126.7490, 5413.000
127.9790, 5440.000
129.2090, 5402.000
130.4390, 5445.000
131.6680, 5405.000
132.8980, 5310.000
134.1270, 5420.000
135.3560, 5495.000
136.5850, 5638.000
137.8140, 5826.000
139.0430, 6045.000
140.2710, 6337.000
141.5000, 6680.000
142.7280, 7225.000
143.9560, 7711.000
145.1840, 8173.000
146.4120, 8412.000
147.6390, 8389.000
148.8670, 8210.000
150.0940, 7946.000
151.3210, 7718.000
152.5490, 7499.000
153.7750, 7403.000
155.0020, 7596.000
156.2290, 7741.000
157.4550, 8076.000
158.6810, 8541.000
159.9080, 9223.000
161.1340, 10326.00
162.3590, 11895.00
163.5850, 13624.00
164.8110, 14916.00
166.0360, 16146.00
167.2610, 17731.00
168.4860, 19854.00
169.7110, 22058.00
170.9360, 23639.00
172.1610, 23279.00
173.3850, 20903.00
174.6100, 17647.00
175.8340, 14669.00
177.0580, 12075.00
178.2820, 10300.00
179.5050, 8977.000
180.7290, 8331.000
181.9520, 7753.000
183.1760, 7542.000
184.3990, 7383.000
185.6220, 7280.000
186.8450, 7339.000
188.0670, 7393.000
189.2900, 7502.248
190.5120, 7827.000
191.7340, 7927.000
192.9560, 8125.000
194.1780, 8531.000
195.4000, 8995.000
196.6220, 9277.000
197.8430, 9521.000
199.0640, 9683.000
200.2860, 10042.00
201.5070, 10299.91
202.7270, 10652.00
203.9480, 10948.00
205.1690, 11321.00
206.3890, 11686.00
207.6090, 11406.00
208.8290, 11148.00
210.0490, 10451.00
211.2690, 9918.000
212.4890, 9503.000
213.7080, 9311.000
214.9280, 9382.000
216.1470, 9707.000
217.3660, 10039.00
218.5850, 10218.00
219.8030, 10240.00
221.0220, 9976.000
222.2400, 9963.000
223.4590, 9821.000
224.6770, 9820.000
225.8950, 10182.00
227.1120, 10639.00
228.3300, 11089.00
229.5480, 11243.00
230.7650, 11104.00
231.9820, 10654.00
233.1990, 10004.00
234.4160, 9537.000
235.6330, 8977.000
236.8490, 9040.000
238.0660, 9081.000
239.2820, 9264.000
240.4980, 9685.000
241.7140, 9820.000
242.9300, 9789.000
244.1460, 9565.000
245.3610, 9058.000
246.5770, 8660.000
247.7920, 8346.000
249.0070, 8394.000
250.2220, 8527.000
251.4370, 8733.000
252.6510, 8565.000
253.8660, 8121.000
255.0800, 7778.000
256.2940, 7510.000
257.5080, 7173.000
258.7220, 7216.000
259.9360, 7164.458
261.1490, 7407.000
262.3630, 7542.000
263.5760, 7757.000
264.7890, 8326.000
266.0020, 8643.000
267.2150, 9142.000
268.4270, 9811.000
269.6400, 10505.00
270.8520, 11621.00
272.0640, 12834.00
273.2760, 14849.00
274.4880, 17613.00
275.7000, 20445.00
276.9120, 22301.00
278.1230, 22281.00
279.3340, 21121.00
280.5450, 18918.00
281.7560, 16468.00
282.9670, 14412.00
284.1780, 12470.00
285.3880, 11236.00
286.5980, 10114.00
287.8090, 9346.000
289.0190, 8809.000
290.2290, 8316.000
291.4380, 8343.000
292.6480, 8140.000
293.8570, 8088.000
295.0670, 8108.000
296.2760, 8107.000
297.4850, 8071.000
298.6930, 8181.000
299.9020, 8320.000
301.1110, 8370.000
302.3190, 8570.000
303.5270, 8871.000
304.7350, 9286.000
305.9430, 9996.000
307.1510, 10788.00
308.3580, 11875.00
309.5660, 13635.00
310.7730, 15526.00
311.9800, 17533.00
313.1870, 19135.00
314.3940, 19998.00
315.6010, 19562.00
316.8070, 18612.00
318.0130, 17633.00
319.2200, 16766.00
320.4260, 15761.00
321.6310, 14906.00
322.8370, 14209.00
324.0430, 13609.00
325.2480, 12973.00
326.4540, 12335.00
327.6590, 11688.00
328.8640, 11530.00
330.0680, 11278.00
331.2730, 10921.00
332.4780, 10630.00
333.6820, 10544.00
334.8860, 10533.00
336.0900, 10312.00
337.2940, 10143.00
338.4980, 9799.000
339.7010, 9926.000
340.9050, 9633.000
342.1080, 9628.000
343.3110, 9627.000
344.5140, 9616.000
345.7170, 9873.000
346.9200, 10083.00
348.1220, 10642.00
349.3240, 11388.00
350.5270, 12327.00
351.7290, 13456.00
352.9310, 14859.00
354.1320, 16540.00
355.3340, 17891.00
356.5350, 18998.00
357.7370, 18871.00
358.9380, 18311.00
360.1390, 17213.00
361.3400, 15605.00
362.5400, 13872.00
363.7410, 12482.00
364.9410, 11562.00
366.1410, 10725.00
367.3410, 10191.00
368.5410, 9610.000
369.7410, 9255.000
370.9400, 8742.000
372.1400, 8501.000
373.3390, 8322.000
374.5380, 8323.000
375.7370, 8275.000
376.9360, 8339.000
378.1350, 8510.000
379.3330, 8525.000
380.5310, 8645.000
381.7300, 8580.000
382.9280, 8527.000
384.1260, 8482.000
385.3230, 8473.000
386.5210, 8409.000
387.7180, 8392.000
388.9160, 8444.000
390.1130, 8616.000
391.3100, 8861.000
392.5060, 9079.000
393.7030, 9456.000
394.9000, 9986.000
396.0960, 10405.00
397.2920, 11078.00
398.4880, 11724.00
399.6840, 12590.00
400.8800, 13446.00
402.0750, 14417.00
403.2710, 15196.00
404.4660, 16042.00
405.6610, 16541.00
406.8560, 17016.00
408.0510, 17464.00
409.2450, 17603.00
410.4400, 17768.00
411.6340, 17455.00
412.8280, 17190.00
414.0220, 16696.00
415.2160, 16023.00
416.4100, 15343.00
417.6030, 14615.00
418.7970, 14165.00
419.9900, 13713.00
421.1830, 13282.00
422.3760, 13050.00
423.5690, 12640.00
424.7610, 12334.00
425.9540, 11818.00
427.1460, 11258.00
428.3380, 10881.00
429.5300, 10504.00
430.7220, 10308.00
431.9140, 10107.00
433.1050, 9783.000
434.2970, 9879.000
435.4880, 9804.000
436.6790, 9693.000
437.8700, 9900.000
439.0610, 9657.000
440.2510, 9502.000
441.4420, 9291.000
442.6320, 8949.000
443.8220, 8915.000
445.0120, 8737.000
446.2020, 8547.000
447.3910, 8628.000
448.5810, 8560.000
449.7700, 8674.000
450.9600, 8786.000
452.1490, 8923.000
453.3370, 8860.000
454.5260, 8971.000
455.7150, 9006.000
456.9030, 9055.000
458.0910, 9103.000
459.2800, 9210.000
460.4670, 9201.000
461.6550, 9370.000
462.8430, 9452.000
464.0300, 9609.000
465.2180, 9648.000
466.4050, 9692.000
467.5920, 9662.000
468.7790, 9663.000
469.9650, 9775.000
471.1520, 9975.000
472.3380, 9902.000
473.5250, 9913.000
474.7110, 10259.00
475.8970, 10503.00
477.0820, 10893.00
478.2680, 11416.00
479.4540, 11876.00
480.6390, 12475.00
481.8240, 13074.00
483.0090, 13502.00
484.1940, 14307.00
485.3780, 14670.00
486.5630, 15094.00
487.7470, 15367.00
488.9320, 15734.00
490.1160, 16376.00
491.3000, 17042.00
492.4830, 17782.00
493.6670, 18741.00
494.8500, 19935.00
496.0340, 21168.00
497.2170, 22116.00
498.4000, 23119.00
499.5820, 24229.00
500.7650, 25041.00
501.9480, 25362.00
503.1300, 25830.00
504.3120, 25814.00
505.4940, 26241.00
506.6760, 26506.00
507.8580, 26488.00
509.0390, 26831.00
510.2210, 27085.00
511.4020, 27360.00
512.5830, 27193.00
513.7640, 26950.00
514.9450, 26731.00
516.1250, 26561.00
517.3060, 26201.00
518.4860, 26162.00
519.6660, 25978.00
520.8460, 26382.00
522.0260, 27012.00
523.2060, 27940.00
524.3850, 28982.00
525.5650, 30380.00
526.7440, 32013.00
527.9230, 33515.00
529.1020, 35085.00
530.2810, 36152.00
531.4590, 37027.00
532.6380, 37899.00
533.8160, 37656.00
534.9940, 37151.00
536.1720, 35935.00
537.3500, 34568.00
538.5270, 32853.00
539.7050, 31267.00
540.8820, 29493.00
542.0590, 28064.00
543.2360, 26918.00
544.4130, 26171.00
545.5900, 26074.00
546.7660, 25917.00
547.9430, 26342.00
549.1190, 26909.00
550.2950, 27848.00
551.4710, 28877.00
552.6470, 30566.00
553.8220, 32306.00
554.9980, 34244.00
556.1730, 35814.00
557.3480, 37020.00
558.5230, 37289.00
559.6980, 37397.00
560.8730, 37005.00
562.0470, 36415.00
563.2220, 36072.00
564.3960, 35479.00
565.5700, 34589.00
566.7440, 33145.00
567.9170, 31359.00
569.0910, 29531.00
570.2640, 27408.00
571.4380, 25480.00
572.6110, 23658.00
573.7840, 22029.00
574.9570, 21086.00
576.1290, 20310.00
577.3020, 19577.00
578.4740, 19474.00
579.6460, 19559.00
580.8180, 19817.00
581.9900, 20405.00
583.1620, 21246.00
584.3330, 22136.00
585.5040, 23513.00
586.6760, 25181.00
587.8470, 26894.00
589.0180, 29146.00
590.1880, 32279.00
591.3590, 35613.00
592.5290, 39489.00
593.7000, 44126.00
594.8700, 48639.00
596.0400, 52998.00
597.2090, 56017.00
598.3790, 57602.00
599.5490, 56780.00
600.7180, 53770.00
601.8870, 49474.00
603.0560, 44052.00
604.2250, 38883.00
605.3940, 34176.00
606.5620, 30646.00
607.7300, 27447.00
608.8990, 25071.00
610.0670, 23277.00
611.2350, 22089.00
612.4020, 20979.00
613.5700, 20112.00
614.7370, 19579.00
615.9050, 18945.00
617.0720, 18313.00
618.2390, 17582.00
619.4060, 16613.00
620.5720, 15985.00
621.7390, 15475.00
622.9050, 14874.00
624.0710, 14615.00
625.2370, 14399.00
626.4030, 14298.00
627.5690, 14224.00
628.7340, 14314.00
629.9000, 14402.00
631.0650, 14511.00
632.2300, 14553.00
633.3950, 14701.00
634.5600, 14590.00
635.7240, 14320.00
636.8890, 13886.00
638.0530, 13580.00
639.2170, 12792.00
640.3810, 12518.00
641.5450, 12021.00
642.7080, 11738.00
643.8720, 11492.00
645.0350, 11550.00
646.1980, 11273.00
647.3610, 11235.00
648.5240, 11429.00
649.6870, 11326.00
650.8490, 11436.00
652.0120, 11507.00
653.1740, 11725.00
654.3360, 11764.00
655.4980, 11884.00
656.6600, 11976.00
657.8210, 11998.00
658.9830, 11932.00
660.1440, 11837.00
661.3050, 11588.00
662.4660, 11172.00
663.6270, 10940.00
664.7870, 10573.00
665.9480, 10175.00
667.1080, 9809.000
668.2680, 9410.000
669.4280, 9254.000
670.5880, 8919.000
671.7480, 8728.000
672.9070, 8516.000
674.0670, 8306.000
675.2260, 8201.000
676.3850, 8052.000
677.5440, 7932.954
678.7030, 7856.073
679.8610, 7754.000
681.0200, 7716.000
682.1780, 7686.000
683.3360, 7625.000
684.4940, 7583.000
685.6520, 7673.000
686.8090, 7449.000
687.9670, 7249.000
689.1240, 7215.000
690.2810, 7265.000
691.4380, 7068.000
692.5950, 7016.000
693.7520, 6999.000
694.9080, 6974.000
696.0650, 6956.837
697.2210, 6947.580
698.3770, 6951.000
699.5330, 6944.000
700.6880, 6965.000
701.8440, 6988.000
702.9990, 6960.000
704.1550, 6915.000
705.3100, 6900.000
706.4650, 7065.000
707.6190, 7071.000
708.7740, 6991.000
709.9290, 7051.000
711.0830, 7001.000
712.2370, 6962.000
713.3910, 7057.000
714.5450, 6999.000
715.6980, 6923.000
716.8520, 6949.000
718.0050, 6989.000
719.1580, 6921.000
720.3110, 6961.000
721.4640, 6896.000
722.6170, 6909.000
723.7700, 6952.000
724.9220, 7040.000
726.0740, 7043.000
727.2260, 7031.000
728.3780, 7014.000
729.5300, 7059.000
730.6810, 7161.000
731.8330, 7188.000
732.9840, 7233.000
734.1350, 7224.000
735.2860, 7290.000
736.4370, 7290.000
737.5880, 7412.000
738.7380, 7358.000
739.8880, 7486.000
741.0390, 7547.000
742.1890, 7706.000
743.3380, 7693.000
744.4880, 7708.000
745.6380, 7867.000
746.7870, 7809.000
747.9360, 7952.000
749.0850, 7949.000
750.2340, 8174.000
751.3830, 8258.000
752.5310, 8221.000
753.6800, 8376.000
754.8280, 8501.000
755.9760, 8700.000
757.1240, 8888.000
758.2720, 8909.000
759.4190, 8979.000
760.5670, 9103.000
761.7140, 9313.000
762.8610, 9373.000
764.0080, 9539.000
765.1550, 9440.000
766.3020, 9418.000
767.4480, 9439.000
768.5950, 9440.000
769.7410, 9468.000
770.8870, 9397.000
772.0330, 9244.000
773.1780, 9268.000
774.3240, 9238.000
775.4690, 9156.000
776.6140, 9288.000
777.7590, 9232.000
778.9040, 9184.000
780.0490, 9288.000
781.1940, 9283.000
782.3380, 9312.000
783.4820, 9496.000
784.6260, 9707.000
785.7700, 9838.000
786.9140, 9994.000
788.0580, 10110.00
789.2010, 10221.00
790.3450, 10486.00
791.4880, 10609.00
792.6310, 10776.00
793.7730, 11034.00
794.9160, 11237.00
796.0590, 11281.00
797.2010, 11469.00
798.3430, 11606.00
799.4850, 11541.00
800.6270, 11527.00
801.7690, 11483.00
802.9100, 11279.00
804.0520, 11114.00
805.1930, 10974.00
806.3340, 10694.00
807.4750, 10430.00
808.6160, 10272.18
809.7560, 10253.00
810.8970, 9873.000
812.0370, 9811.000
813.1770, 9551.000
814.3170, 9429.000
815.4570, 9176.000
816.5960, 9046.000
817.7360, 8910.000
818.8750, 8711.000
820.0140, 8655.000
821.1530, 8510.280
822.2920, 8457.000
823.4310, 8296.000
824.5690, 8194.000
825.7070, 8082.000
826.8460, 8098.000
827.9840, 8017.000
829.1220, 7894.000
830.2590, 7820.000
831.3970, 7718.000
832.5340, 7615.000
833.6710, 7659.000
834.8080, 7536.000
835.9450, 7550.000
837.0820, 7499.000
838.2190, 7520.000
839.3550, 7440.000
840.4910, 7351.000
841.6270, 7335.000
842.7630, 7330.000
843.8990, 7313.000
845.0350, 7304.000
846.1700, 7282.000
847.3060, 7157.000
848.4410, 7311.000
849.5760, 7166.000
850.7100, 7108.000
851.8450, 7211.000
852.9800, 7259.000
854.1140, 7259.000
855.2480, 7183.000
856.3820, 7080.000
857.5160, 7199.000
858.6500, 7246.000
859.7830, 7182.000
860.9170, 7126.000
862.0500, 7068.000
863.1830, 7181.000
864.3160, 7211.000
865.4480, 7115.000
866.5810, 7108.000
867.7130, 7116.000
868.8460, 7029.000
869.9780, 7025.000
871.1100, 7021.000
872.2410, 6983.995
873.3730, 6983.985
874.5050, 6972.000
875.6360, 6980.000
876.7670, 7008.000
877.8980, 7051.000
879.0290, 7023.000
880.1590, 7030.000
881.2900, 7025.202
882.4200, 6922.000
883.5500, 6995.000
884.6800, 6946.000
885.8100, 6917.000
886.9400, 7049.000
888.0690, 6901.000
889.1990, 7009.000
890.3280, 7050.000
891.4570, 7078.000
892.5860, 7063.000
893.7140, 7132.000
894.8430, 7070.000
895.9710, 7075.000
897.1000, 7139.000
898.2280, 7246.000
899.3560, 7127.000
900.4830, 7153.000
901.6110, 7218.000
902.7380, 7371.000
903.8660, 7272.000
904.9930, 7237.000
906.1200, 7338.000
907.2460, 7288.000
908.3730, 7373.000
909.5000, 7301.000
910.6260, 7435.000
911.7520, 7432.000
912.8780, 7513.000
914.0040, 7562.000
915.1290, 7594.658
916.2550, 7662.000
917.3800, 7684.000
918.5050, 7761.000
919.6300, 7817.000
920.7550, 7852.000
921.8800, 7930.000
923.0040, 7971.000
924.1290, 8073.000
925.2530, 8131.000
926.3770, 8312.000
927.5010, 8421.000
928.6250, 8456.000
929.7480, 8730.000
930.8720, 8731.000
931.9950, 8987.000
933.1180, 9077.000
934.2410, 9314.000
935.3640, 9682.000
936.4860, 10016.00
937.6090, 10216.00
938.7310, 10592.00
939.8530, 11082.00
940.9750, 11622.00
942.0970, 12049.00
943.2180, 12662.00
944.3400, 13244.00
945.4610, 13749.00
946.5820, 14248.00
947.7030, 14698.00
948.8240, 15085.00
949.9450, 15373.00
951.0650, 15755.00
952.1860, 15744.00
953.3060, 15838.00
954.4260, 15938.00
955.5460, 16066.00
956.6650, 16045.00
957.7850, 15954.00
958.9040, 16399.00
960.0230, 16688.00
961.1420, 16910.00
962.2610, 17516.00
963.3800, 18261.00
964.4990, 18991.00
965.6170, 20008.00
966.7350, 21234.00
967.8530, 22063.00
968.9710, 23348.00
970.0890, 24860.00
971.2070, 25923.00
972.3240, 26973.00
973.4410, 27771.00
974.5580, 28671.00
975.6750, 29278.00
976.7920, 29737.00
977.9090, 30480.00
979.0250, 31599.00
980.1410, 33238.00
981.2580, 35489.95
982.3740, 37977.00
983.4890, 41447.00
984.6050, 44881.00
985.7200, 49057.00
986.8360, 51828.00
987.9510, 52382.97
989.0660, 54299.00
990.1810, 50456.00
991.2950, 46505.00
992.4100, 41850.00
993.5240, 37615.00
994.6390, 33506.00
995.7530, 30545.00
996.8660, 28205.00
997.9800, 26563.00
999.0940, 25293.00
1000.207, 24645.00
1001.320, 24434.00
1002.433, 24461.00
1003.546, 24513.00
1004.659, 24997.00
1005.772, 25704.00
1006.884, 26909.00
1007.996, 28432.00
1009.108, 30641.00
1010.220, 33163.00
1011.332, 36170.00
1012.444, 39807.00
1013.555, 43569.00
1014.666, 47535.00
1015.777, 51269.00
1016.888, 54065.00
1017.999, 55570.00
1019.110, 55912.00
1020.220, 55391.00
1021.331, 53685.00
1022.441, 51043.00
1023.551, 48144.00
1024.661, 45035.00
1025.770, 42160.00
1026.880, 39735.00
1027.989, 37483.00
1029.098, 35749.00
1030.207, 33990.00
1031.316, 32767.00
1032.425, 31587.00
1033.533, 30295.00
1034.642, 29492.00
1035.750, 29102.00
1036.858, 28492.00
1037.966, 28187.00
1039.073, 27807.00
1040.181, 27284.00
1041.288, 26943.00
1042.396, 26525.00
1043.503, 25986.00
1044.610, 25248.00
1045.716, 24630.00
1046.823, 24388.00
1047.929, 24067.00
1049.036, 23545.00
1050.142, 23463.00
1051.248, 23400.00
1052.353, 23466.00
1053.459, 23672.00
1054.564, 23875.00
1055.670, 24570.00
1056.775, 25058.00
1057.880, 25562.00
1058.985, 26410.00
1060.089, 26733.00
1061.194, 26995.00
1062.298, 26892.00
1063.402, 26934.00
1064.506, 26622.00
1065.610, 25955.00
1066.713, 25416.00
1067.817, 24975.00
1068.920, 24596.00
1070.023, 24177.00
1071.126, 23880.00
1072.229, 23454.00
1073.332, 23142.00
1074.435, 22916.00
1075.537, 22814.00
1076.639, 22622.00
1077.741, 22410.00
1078.843, 22057.00
1079.945, 21961.00
1081.046, 21601.00
1082.148, 21290.00
1083.249, 20602.00
1084.350, 20494.00
1085.451, 19801.00
1086.551, 19344.00
1087.652, 18742.00
1088.752, 17978.00
1089.853, 17342.00
1090.953, 17016.00
1092.053, 16371.00
1093.152, 16067.00
1094.252, 15403.00
1095.351, 14981.00
1096.451, 14551.00
1097.550, 14147.94
1098.649, 14004.00
1099.748, 13590.00
1100.846, 13464.00
1101.945, 13390.00
1103.043, 13177.00
1104.141, 13280.00
1105.239, 13281.00
1106.337, 13239.00
1107.434, 13381.00
1108.532, 13730.00
1109.629, 13970.00
1110.726, 14625.00
1111.823, 15211.00
1112.920, 16019.00
1114.017, 16725.00
1115.113, 17167.00
1116.210, 17383.96
1117.306, 17578.00
1118.402, 17178.00
1119.498, 16682.00
1120.593, 15994.00
1121.689, 15585.00
1122.784, 15089.00
1123.879, 14671.00
1124.974, 14310.00
1126.069, 14067.00
1127.164, 13663.00
1128.259, 13341.00
1129.353, 13081.00
1130.447, 12775.00
1131.541, 12614.00
1132.635, 12441.00
1133.729, 12232.00
1134.822, 12126.00
1135.916, 11845.00
1137.009, 11759.00
1138.102, 11770.00
1139.195, 11537.00
1140.288, 11514.00
1141.380, 11412.00
1142.473, 11547.00
1143.565, 11520.00
1144.657, 11463.00
1145.749, 11413.00
1146.841, 11469.00
1147.932, 11343.00
1149.024, 11263.00
1150.115, 11056.00
1151.206, 10807.64
1152.297, 10470.00
1153.388, 10216.00
1154.479, 10024.00
1155.569, 9761.000
1156.659, 9779.000
1157.750, 9633.000
1158.839, 9491.000
1159.929, 9360.000
1161.019, 9352.000
1162.108, 9266.000
1163.198, 9108.000
1164.287, 9224.000
1165.376, 9195.000
1166.465, 9078.000
1167.553, 9010.000
1168.642, 8921.000
1169.730, 8934.000
1170.818, 8811.000
1171.906, 8727.000
1172.994, 8704.000
1174.082, 8604.343
1175.170, 8438.000
1176.257, 8453.000
1177.344, 8373.000
1178.431, 8255.000
1179.518, 8289.000
1180.605, 8209.000
1181.691, 8169.000
1182.778, 8118.000
1183.864, 8086.000
1184.950, 7988.000
1186.036, 7963.000
1187.122, 8025.000
1188.207, 7898.000
1189.292, 8007.000
1190.378, 7882.000
1191.463, 7893.000
1192.548, 7836.000
1193.632, 7810.000
1194.717, 7812.116
1195.801, 7823.000
1196.886, 7804.000
1197.970, 7786.000
1199.054, 7770.000
1200.137, 7848.000
1201.221, 7773.000
1202.305, 7814.000
1203.388, 7730.000
1204.471, 7817.000
1205.554, 7744.000
1206.637, 7838.000
1207.719, 7815.000
1208.802, 7689.000
1209.884, 7806.000
1210.966, 7695.000
1212.048, 7704.000
1213.130, 7708.000
1214.212, 7699.203
1215.293, 7679.000
1216.374, 7739.000
1217.456, 7787.000
1218.536, 7777.799
1219.617, 7773.871
1220.698, 7755.298
1221.778, 7703.000
1222.859, 7661.000
1223.939, 7626.000
1225.019, 7535.000
1226.099, 7550.000
1227.178, 7611.000
1228.258, 7569.000
1229.337, 7505.000
1230.417, 7600.000
1231.496, 7591.327
1232.574, 7599.939
1233.653, 7631.000
1234.732, 7653.000
1235.810, 7542.000
1236.888, 7619.000
1237.966, 7520.000
1239.044, 7593.000
1240.122, 7600.859
1241.199, 7559.000
1242.277, 7666.000
1243.354, 7525.000
1244.431, 7570.000
1245.508, 7552.000
1246.585, 7553.000
1247.661, 7606.000
1248.738, 7588.000
1249.814, 7633.159
1250.890, 7640.029
1251.966, 7652.000
1253.042, 7653.000
1254.117, 7549.000
1255.193, 7532.000
1256.268, 7531.000
1257.343, 7556.000
