##NAMES=Brazilianite
##RRUFFID=R050504
##IDEAL CHEMISTRY=NaAl_3_(PO_4_)_2_(OH)_4_
##LOCALITY=CÃ³rrego Frio, Minas Gerais, Brazil
##OWNER=RRUFF
##SOURCE=Marcus Origlieri
##DESCRIPTION=Yellowish green fragment
##STATUS=The identification of this mineral has been confirmed by X-ray diffraction and chemical analysis
##URL=rruff.info/R050504
##MEASURED CHEMISTRY=Na_1.00_Al_3.00_(P_1.00_O_4_)_2_(OH)_4_
##PIN_ID=L00856
##ORIENTATION=Laser parallel to -a* (-1 0 0). Fiducial mark perpendicular to laser is parallel to b [0 1 0]
79.89500, 11410.00
81.13100, 12668.00
82.36700, 14239.00
83.60200, 15401.00
84.83700, 16370.00
86.07200, 18103.00
87.30800, 19331.00
88.54200, 19510.00
89.77700, 18840.00
91.01200, 17856.00
92.24600, 16931.00
93.48000, 15946.00
94.71400, 15441.00
95.94800, 15553.00
97.18200, 15583.00
98.41600, 15826.00
99.64900, 16825.00
100.8830, 18605.00
102.1160, 20486.00
103.3490, 21393.00
104.5820, 21281.00
105.8150, 20466.00
107.0470, 19452.00
108.2800, 18912.00
109.5120, 18062.00
110.7440, 17274.00
111.9760, 17283.00
113.2080, 17586.00
114.4400, 17496.00
115.6710, 16937.00
116.9030, 16083.00
118.1340, 15346.00
119.3650, 14891.00
120.5960, 14291.00
121.8270, 14126.00
123.0580, 13852.00
124.2880, 13949.00
125.5190, 13940.00
126.7490, 13669.00
127.9790, 13793.00
129.2090, 13879.00
130.4390, 14047.00
131.6680, 13969.00
132.8980, 13987.00
134.1270, 14138.00
135.3560, 14251.00
136.5850, 14655.00
137.8140, 14810.00
139.0430, 15116.00
140.2710, 15680.00
141.5000, 16071.00
142.7280, 16802.00
143.9560, 17041.00
145.1840, 17518.00
146.4120, 17639.00
147.6390, 17562.00
148.8670, 16924.00
150.0940, 16704.00
151.3210, 16425.00
152.5490, 16371.00
153.7750, 16426.00
155.0020, 16512.00
156.2290, 16732.00
157.4550, 17327.00
158.6810, 17588.00
159.9080, 18406.00
161.1340, 19696.00
162.3590, 21176.00
163.5850, 22361.00
164.8110, 22580.00
166.0360, 22269.00
167.2610, 21920.00
168.4860, 21572.00
169.7110, 21545.00
170.9360, 21273.00
172.1610, 20656.00
173.3850, 19826.00
174.6100, 19125.00
175.8340, 18518.00
177.0580, 18115.00
178.2820, 17281.00
179.5050, 17018.00
180.7290, 16827.00
181.9520, 16843.00
183.1760, 16635.00
184.3990, 16627.00
185.6220, 16674.00
186.8450, 16701.40
188.0670, 16959.00
189.2900, 17009.00
190.5120, 17232.00
191.7340, 17544.00
192.9560, 17598.00
194.1780, 17777.43
195.4000, 17749.00
196.6220, 17899.00
197.8430, 17791.00
199.0640, 17680.00
200.2860, 17575.00
201.5070, 17290.00
202.7270, 17106.00
203.9480, 16767.00
205.1690, 16645.00
206.3890, 16660.00
207.6090, 16712.00
208.8290, 17116.00
210.0490, 17329.00
211.2690, 17487.00
212.4890, 17892.00
213.7080, 18126.00
214.9280, 18597.00
216.1470, 19035.00
217.3660, 19329.00
218.5850, 19385.00
219.8030, 19092.00
221.0220, 19151.00
222.2400, 18956.00
223.4590, 18456.00
224.6770, 18347.00
225.8950, 18404.00
227.1120, 18417.00
228.3300, 18626.00
229.5480, 18650.00
230.7650, 19030.00
231.9820, 19041.00
233.1990, 19117.00
234.4160, 19421.00
235.6330, 19475.00
236.8490, 19658.00
238.0660, 19715.00
239.2820, 20053.00
240.4980, 19945.00
241.7140, 20240.00
242.9300, 20018.00
244.1460, 19898.00
245.3610, 19454.00
246.5770, 19259.00
247.7920, 19115.00
249.0070, 19326.00
250.2220, 19787.00
251.4370, 19941.00
252.6510, 19716.00
253.8660, 19216.00
255.0800, 18635.00
256.2940, 18276.00
257.5080, 17773.00
258.7220, 17597.00
259.9360, 17580.00
261.1490, 17562.00
262.3630, 17430.00
263.5760, 17495.00
264.7890, 17748.00
266.0020, 17668.00
267.2150, 17803.00
268.4270, 17812.00
269.6400, 17705.00
270.8520, 17777.00
272.0640, 17768.00
273.2760, 17942.00
274.4880, 18107.00
275.7000, 18101.00
276.9120, 18310.00
278.1230, 18275.00
279.3340, 18330.00
280.5450, 18242.00
281.7560, 18336.73
282.9670, 18406.46
284.1780, 18450.00
285.3880, 18692.00
286.5980, 18676.00
287.8090, 18950.00
289.0190, 19555.00
290.2290, 19854.00
291.4380, 20463.00
292.6480, 20850.00
293.8570, 21188.00
295.0670, 21368.00
296.2760, 21116.00
297.4850, 20666.00
298.6930, 20155.00
299.9020, 19852.00
301.1110, 19696.00
302.3190, 19506.00
303.5270, 19338.00
304.7350, 19246.00
305.9430, 19378.00
307.1510, 19421.00
308.3580, 19389.00
309.5660, 19707.00
310.7730, 19820.00
311.9800, 19947.00
313.1870, 20288.00
314.3940, 20417.00
315.6010, 20396.00
316.8070, 20272.00
318.0130, 20237.00
319.2200, 20243.00
320.4260, 19941.00
321.6310, 19990.00
322.8370, 19664.00
324.0430, 19455.00
325.2480, 19306.00
326.4540, 19015.03
327.6590, 18674.00
328.8640, 18561.00
330.0680, 18248.00
331.2730, 18071.00
332.4780, 17966.00
333.6820, 17931.00
334.8860, 17835.00
336.0900, 17791.00
337.2940, 17984.00
338.4980, 17865.00
339.7010, 17749.00
340.9050, 17935.00
342.1080, 17889.00
343.3110, 17894.00
344.5140, 17921.00
345.7170, 18078.00
346.9200, 18037.00
348.1220, 18344.00
349.3240, 18458.00
350.5270, 18754.00
351.7290, 18783.00
352.9310, 19051.00
354.1320, 19196.00
355.3340, 19322.00
356.5350, 19634.00
357.7370, 19597.00
358.9380, 19703.00
360.1390, 19539.00
361.3400, 19694.00
362.5400, 19454.00
363.7410, 19506.00
364.9410, 19629.00
366.1410, 19758.00
367.3410, 19898.00
368.5410, 19981.00
369.7410, 20102.67
370.9400, 20220.43
372.1400, 20275.00
373.3390, 20417.00
374.5380, 20439.00
375.7370, 20447.00
376.9360, 20235.00
378.1350, 20237.00
379.3330, 19922.00
380.5310, 20069.00
381.7300, 19765.00
382.9280, 19727.00
384.1260, 19563.00
385.3230, 19748.00
386.5210, 19724.00
387.7180, 19767.00
388.9160, 19703.00
390.1130, 19972.00
391.3100, 20200.00
392.5060, 20390.00
393.7030, 20522.00
394.9000, 20682.00
396.0960, 20815.00
397.2920, 21146.00
398.4880, 21194.00
399.6840, 21357.00
400.8800, 21586.00
402.0750, 21498.00
403.2710, 21730.00
404.4660, 21618.00
405.6610, 21624.00
406.8560, 21634.00
408.0510, 21466.00
409.2450, 21522.00
410.4400, 21498.00
411.6340, 21368.00
412.8280, 21197.00
414.0220, 20883.00
415.2160, 20757.00
416.4100, 20609.00
417.6030, 20500.00
418.7970, 20233.00
419.9900, 20325.00
421.1830, 20046.00
422.3760, 20141.00
423.5690, 20065.00
424.7610, 20277.00
425.9540, 20442.00
427.1460, 20504.00
428.3380, 20867.00
429.5300, 21352.00
430.7220, 21600.00
431.9140, 22078.00
433.1050, 22670.00
434.2970, 23080.00
435.4880, 24020.00
436.6790, 24578.00
437.8700, 25014.00
439.0610, 24844.00
440.2510, 24676.00
441.4420, 24487.00
442.6320, 23972.00
443.8220, 23561.00
445.0120, 23446.00
446.2020, 22923.00
447.3910, 22935.00
448.5810, 23115.00
449.7700, 22893.00
450.9600, 23247.00
452.1490, 23479.00
453.3370, 23880.00
454.5260, 24316.00
455.7150, 24554.00
456.9030, 24874.00
458.0910, 25209.52
459.2800, 25606.00
460.4670, 25844.00
461.6550, 26041.00
462.8430, 26370.00
464.0300, 26197.00
465.2180, 26169.00
466.4050, 26152.00
467.5920, 25762.00
468.7790, 25475.00
469.9650, 25403.00
471.1520, 25412.00
472.3380, 25325.00
473.5250, 25497.00
474.7110, 25773.00
475.8970, 26454.00
477.0820, 27089.00
478.2680, 27687.00
479.4540, 28183.00
480.6390, 28851.00
481.8240, 29482.00
483.0090, 29956.00
484.1940, 30586.00
485.3780, 31070.00
486.5630, 31479.00
487.7470, 31745.00
488.9320, 32070.00
490.1160, 32479.00
491.3000, 33134.00
492.4830, 33812.00
493.6670, 34435.00
494.8500, 35450.00
496.0340, 36456.00
497.2170, 37318.00
498.4000, 38443.00
499.5820, 38955.00
500.7650, 39732.00
501.9480, 39779.00
503.1300, 40228.00
504.3120, 40497.00
505.4940, 40757.00
506.6760, 40984.00
507.8580, 40852.00
509.0390, 41055.00
510.2210, 41003.00
511.4020, 40378.00
512.5830, 40085.00
513.7640, 39454.00
514.9450, 38688.00
516.1250, 38433.00
517.3060, 37516.00
518.4860, 37050.00
519.6660, 36484.00
520.8460, 36141.00
522.0260, 35911.00
523.2060, 35956.00
524.3850, 36409.00
525.5650, 36973.00
526.7440, 37400.00
527.9230, 37868.00
529.1020, 37907.00
530.2810, 38307.00
531.4590, 38215.00
532.6380, 38351.00
533.8160, 37567.00
534.9940, 36880.00
536.1720, 36430.00
537.3500, 35540.00
538.5270, 34811.00
539.7050, 33980.00
540.8820, 33067.00
542.0590, 32643.00
543.2360, 32405.00
544.4130, 32485.00
545.5900, 32445.00
546.7660, 32741.00
547.9430, 33184.00
549.1190, 34169.00
550.2950, 35177.00
551.4710, 36918.00
552.6470, 38542.00
553.8220, 40454.00
554.9980, 42077.00
556.1730, 43695.00
557.3480, 44425.00
558.5230, 44483.00
559.6980, 44474.00
560.8730, 44255.00
562.0470, 43945.00
563.2220, 43713.00
564.3960, 42988.00
565.5700, 42551.00
566.7440, 41541.00
567.9170, 40213.00
569.0910, 39351.00
570.2640, 38054.00
571.4380, 36921.00
572.6110, 35498.00
573.7840, 34674.00
574.9570, 33851.00
576.1290, 33553.00
577.3020, 32960.00
578.4740, 32827.00
579.6460, 32604.00
580.8180, 32341.00
581.9900, 32315.00
583.1620, 31991.00
584.3330, 32336.00
585.5040, 32323.00
586.6760, 32571.00
587.8470, 33364.00
589.0180, 34128.00
590.1880, 34989.00
591.3590, 36187.00
592.5290, 37952.00
593.7000, 39754.00
594.8700, 42227.00
596.0400, 44482.00
597.2090, 46470.00
598.3790, 48325.00
599.5490, 48770.00
600.7180, 48315.00
601.8870, 46931.00
603.0560, 44787.00
604.2250, 42834.00
605.3940, 40466.00
606.5620, 38871.00
607.7300, 37873.00
608.8990, 36976.00
610.0670, 36435.00
611.2350, 36515.00
612.4020, 36462.00
613.5700, 36097.00
614.7370, 35973.00
615.9050, 35579.00
617.0720, 35044.00
618.2390, 34236.00
619.4060, 33164.00
620.5720, 32168.00
621.7390, 31614.00
622.9050, 31042.00
624.0710, 30858.00
625.2370, 30436.00
626.4030, 30385.00
627.5690, 30285.00
628.7340, 30397.00
629.9000, 30511.00
631.0650, 30403.00
632.2300, 30628.00
633.3950, 30213.00
634.5600, 30067.00
635.7240, 29974.00
636.8890, 29368.00
638.0530, 28862.00
639.2170, 28397.00
640.3810, 27800.00
641.5450, 27297.00
642.7080, 26939.92
643.8720, 26762.00
645.0350, 26404.00
646.1980, 26304.00
647.3610, 26347.00
648.5240, 26298.00
649.6870, 26297.15
650.8490, 26291.00
652.0120, 26340.00
653.1740, 26335.03
654.3360, 26396.37
655.4980, 26409.00
656.6600, 26480.00
657.8210, 26621.00
658.9830, 26586.00
660.1440, 26330.00
661.3050, 26567.00
662.4660, 26171.00
663.6270, 26065.00
664.7870, 25611.00
665.9480, 25213.00
667.1080, 25278.00
668.2680, 25012.00
669.4280, 24817.00
670.5880, 24805.00
671.7480, 24860.00
672.9070, 24690.00
674.0670, 24591.00
675.2260, 24281.00
676.3850, 24274.00
677.5440, 24292.00
678.7030, 24083.00
679.8610, 24262.00
681.0200, 24169.00
682.1780, 24062.00
683.3360, 23926.00
684.4940, 23979.00
685.6520, 24084.00
686.8090, 23738.00
687.9670, 23617.00
689.1240, 23946.00
690.2810, 23884.00
691.4380, 23840.00
692.5950, 24129.00
693.7520, 23821.00
694.9080, 23868.00
696.0650, 24166.00
697.2210, 23958.00
698.3770, 23950.00
699.5330, 23990.00
700.6880, 24010.00
701.8440, 24054.00
702.9990, 24114.00
704.1550, 24197.00
705.3100, 24236.00
706.4650, 24214.00
707.6190, 24122.00
708.7740, 24303.00
709.9290, 24326.00
711.0830, 24532.00
712.2370, 24586.00
713.3910, 24578.00
714.5450, 24630.00
715.6980, 24575.00
716.8520, 24628.00
718.0050, 24668.38
719.1580, 24671.94
720.3110, 24740.00
721.4640, 24725.00
722.6170, 24665.00
723.7700, 24675.00
724.9220, 24807.00
726.0740, 24653.00
727.2260, 24761.00
728.3780, 24629.00
729.5300, 24675.00
730.6810, 24587.73
731.8330, 24578.99
732.9840, 24629.17
734.1350, 24610.00
735.2860, 24734.00
736.4370, 24851.00
737.5880, 24909.72
738.7380, 24875.00
739.8880, 24940.00
741.0390, 24968.59
742.1890, 25000.72
743.3380, 25016.00
744.4880, 25061.00
745.6380, 25005.00
746.7870, 24951.00
747.9360, 25244.00
749.0850, 25203.00
750.2340, 25155.00
751.3830, 25445.00
752.5310, 25188.00
753.6800, 25478.00
754.8280, 25495.00
755.9760, 25764.00
757.1240, 25880.00
758.2720, 25924.00
759.4190, 26011.00
760.5670, 25974.00
761.7140, 26260.00
762.8610, 26248.00
764.0080, 26433.00
765.1550, 26283.00
766.3020, 26149.00
767.4480, 26242.00
768.5950, 26496.00
769.7410, 26371.00
770.8870, 26343.00
772.0330, 26331.00
773.1780, 26123.00
774.3240, 26302.00
775.4690, 26043.00
776.6140, 26183.00
777.7590, 25904.00
778.9040, 26128.00
780.0490, 26028.00
781.1940, 26003.00
782.3380, 25745.00
783.4820, 25873.00
784.6260, 25879.00
785.7700, 25998.00
786.9140, 26182.00
788.0580, 26179.00
789.2010, 26153.00
790.3450, 26416.00
791.4880, 26693.00
792.6310, 26795.00
793.7730, 26738.00
794.9160, 26884.00
796.0590, 27177.00
797.2010, 27062.00
798.3430, 27252.00
799.4850, 27519.00
800.6270, 27452.00
801.7690, 27464.00
802.9100, 27533.00
804.0520, 27585.00
805.1930, 27575.00
806.3340, 27598.00
807.4750, 27352.00
808.6160, 27410.00
809.7560, 27386.00
810.8970, 27173.00
812.0370, 27241.00
813.1770, 27073.71
814.3170, 26775.00
815.4570, 26884.00
816.5960, 26858.00
817.7360, 26881.00
818.8750, 26740.00
820.0140, 26750.00
821.1530, 26664.80
822.2920, 26506.00
823.4310, 26472.00
824.5690, 26488.00
825.7070, 26316.00
826.8460, 26437.00
827.9840, 26197.00
829.1220, 26032.00
830.2590, 26147.00
831.3970, 25804.00
832.5340, 26001.00
833.6710, 26099.00
834.8080, 26257.00
835.9450, 26234.53
837.0820, 25761.00
838.2190, 26118.00
839.3550, 25952.00
840.4910, 25842.00
841.6270, 26020.00
842.7630, 25863.00
843.8990, 25974.00
845.0350, 25858.00
846.1700, 26105.00
847.3060, 25825.00
848.4410, 25911.00
849.5760, 25858.00
850.7100, 26107.00
851.8450, 25986.00
852.9800, 25871.00
854.1140, 25731.00
855.2480, 25913.00
856.3820, 26048.00
857.5160, 26043.00
858.6500, 26064.00
859.7830, 26000.00
860.9170, 26105.00
862.0500, 25904.00
863.1830, 25902.00
864.3160, 25994.00
865.4480, 26099.00
866.5810, 26126.00
867.7130, 25960.00
868.8460, 25880.00
869.9780, 26045.00
871.1100, 25993.00
872.2410, 26028.00
873.3730, 26033.00
874.5050, 25954.00
875.6360, 25818.00
876.7670, 25919.00
877.8980, 26230.00
879.0290, 26289.00
880.1590, 26243.00
881.2900, 26160.00
882.4200, 26091.00
883.5500, 25923.00
884.6800, 25995.34
885.8100, 26177.00
886.9400, 26036.00
888.0690, 26333.00
889.1990, 26211.00
890.3280, 26358.00
891.4570, 26343.00
892.5860, 26432.00
893.7140, 26366.00
894.8430, 26405.00
895.9710, 26421.00
897.1000, 26354.00
898.2280, 26356.00
899.3560, 26478.00
900.4830, 26558.00
901.6110, 26695.00
902.7380, 26677.00
903.8660, 26681.00
904.9930, 26699.00
906.1200, 26759.00
907.2460, 26908.00
908.3730, 26971.00
909.5000, 26965.00
910.6260, 26833.00
911.7520, 27015.00
912.8780, 26796.00
914.0040, 26945.00
915.1290, 27125.00
916.2550, 27174.00
917.3800, 27104.00
918.5050, 27058.00
919.6300, 27122.00
920.7550, 27083.00
921.8800, 27282.00
923.0040, 27431.00
924.1290, 27511.00
925.2530, 27572.00
926.3770, 27580.00
927.5010, 27716.00
928.6250, 27874.00
929.7480, 28025.00
930.8720, 27914.00
931.9950, 28034.00
933.1180, 28211.00
934.2410, 28406.00
935.3640, 28523.09
936.4860, 28682.80
937.6090, 28770.00
938.7310, 28950.00
939.8530, 29027.00
940.9750, 29161.00
942.0970, 29271.00
943.2180, 29626.00
944.3400, 29802.00
945.4610, 29945.00
946.5820, 30274.00
947.7030, 30351.00
948.8240, 30333.00
949.9450, 30523.00
951.0650, 30836.00
952.1860, 30704.00
953.3060, 31004.00
954.4260, 31069.00
955.5460, 31280.00
956.6650, 31520.00
957.7850, 31712.00
958.9040, 32007.00
960.0230, 32369.00
961.1420, 32849.00
962.2610, 33215.00
963.3800, 33712.00
964.4990, 34340.00
965.6170, 34754.00
966.7350, 35997.00
967.8530, 36619.00
968.9710, 37687.00
970.0890, 39014.00
971.2070, 39885.00
972.3240, 40599.00
973.4410, 41111.00
974.5580, 42111.00
975.6750, 42416.00
976.7920, 43139.00
977.9090, 43903.00
979.0250, 44974.00
980.1410, 46397.00
981.2580, 48136.00
982.3740, 50455.00
983.4890, 52766.00
984.6050, 55090.00
985.7200, 57636.00
986.8360, 59115.00
987.9510, 59852.00
989.0660, 59120.00
990.1810, 57533.00
991.2950, 54456.00
992.4100, 52199.00
993.5240, 49165.00
994.6390, 47323.00
995.7530, 45493.00
996.8660, 43848.00
997.9800, 42660.00
999.0940, 42177.00
1000.207, 41735.00
1001.320, 41567.00
1002.433, 41783.00
1003.546, 42094.00
1004.659, 42144.00
1005.772, 42929.00
1006.884, 43973.00
1007.996, 45268.00
1009.108, 46799.00
1010.220, 49047.00
1011.332, 51212.00
1012.444, 53962.00
1013.555, 57258.00
1014.666, 59601.00
1015.777, 61952.00
1016.888, 64270.00
1017.999, 64636.00
1019.110, 65046.00
1020.220, 64409.00
1021.331, 63380.00
1022.441, 61791.00
1023.551, 59992.00
1024.661, 57878.00
1025.770, 55957.00
1026.880, 54380.00
1027.989, 53293.00
1029.098, 52022.00
1030.207, 51074.00
1031.316, 50282.00
1032.425, 49803.00
1033.533, 49159.00
1034.642, 49013.00
1035.750, 48557.00
1036.858, 48267.00
1037.966, 48539.00
1039.073, 48545.00
1040.181, 48300.00
1041.288, 47903.00
1042.396, 47769.00
1043.503, 47258.00
1044.610, 46672.00
1045.716, 46059.00
1046.823, 45591.00
1047.929, 45132.00
1049.036, 44335.00
1050.142, 43862.00
1051.248, 43496.00
1052.353, 43223.00
1053.459, 42946.00
1054.564, 42718.00
1055.670, 42389.00
1056.775, 42380.00
1057.880, 42196.00
1058.985, 41831.00
1060.089, 41443.00
1061.194, 41548.00
1062.298, 41323.00
1063.402, 41116.00
1064.506, 40619.00
1065.610, 40195.00
1066.713, 40217.00
1067.817, 39762.00
1068.920, 39541.00
1070.023, 39331.00
1071.126, 38929.00
1072.229, 38704.00
1073.332, 38284.00
1074.435, 38330.00
1075.537, 38109.00
1076.639, 37818.00
1077.741, 37447.00
1078.843, 37245.21
1079.945, 37284.00
1081.046, 36777.00
1082.148, 36430.00
1083.249, 36227.00
1084.350, 35717.00
1085.451, 35421.00
1086.551, 34971.00
1087.652, 34536.00
1088.752, 34044.00
1089.853, 33934.00
1090.953, 33828.00
1092.053, 33313.00
1093.152, 33002.00
1094.252, 33201.00
1095.351, 32663.00
1096.451, 32458.00
1097.550, 32705.00
1098.649, 32334.00
1099.748, 32489.00
1100.846, 32583.00
1101.945, 32519.00
1103.043, 32722.00
1104.141, 32860.00
1105.239, 32843.00
1106.337, 32959.00
1107.434, 33162.00
1108.532, 33752.00
1109.629, 33961.00
1110.726, 34718.00
1111.823, 35122.00
1112.920, 35785.00
1114.017, 36582.00
1115.113, 36869.00
1116.210, 37513.00
1117.306, 37619.00
1118.402, 37358.00
1119.498, 37388.00
1120.593, 36937.00
1121.689, 37175.00
1122.784, 36851.00
1123.879, 36732.00
1124.974, 36703.00
1126.069, 36695.00
1127.164, 36361.00
1128.259, 36228.00
1129.353, 36232.00
1130.447, 35730.00
1131.541, 35781.00
1132.635, 35489.00
1133.729, 35846.00
1134.822, 35422.00
1135.916, 35719.00
1137.009, 35926.00
1138.102, 36024.00
1139.195, 36152.00
1140.288, 36841.00
1141.380, 37529.00
1142.473, 38337.00
1143.565, 39041.00
1144.657, 40205.00
1145.749, 40790.00
1146.841, 41421.00
1147.932, 41227.00
1149.024, 40842.00
1150.115, 39846.00
1151.206, 38616.00
1152.297, 37661.00
1153.388, 36760.00
1154.479, 35670.00
1155.569, 35241.00
1156.659, 34809.00
1157.750, 34175.00
1158.839, 34290.00
1159.929, 33584.00
1161.019, 33816.00
1162.108, 33900.00
1163.198, 33438.00
1164.287, 33389.00
1165.376, 33466.00
1166.465, 33629.00
1167.553, 33196.00
1168.642, 33399.00
1169.730, 33117.00
1170.818, 33092.00
1171.906, 32878.00
1172.994, 32796.00
1174.082, 32569.00
1175.170, 32542.00
1176.257, 32474.00
1177.344, 32180.00
1178.431, 32474.00
1179.518, 32350.00
1180.605, 32040.00
1181.691, 32166.00
1182.778, 32207.00
1183.864, 32527.00
1184.950, 32153.00
1186.036, 31867.00
1187.122, 32052.00
1188.207, 32056.00
1189.292, 32082.00
1190.378, 32051.77
1191.463, 32076.00
1192.548, 31921.00
1193.632, 31976.00
1194.717, 32014.00
1195.801, 31890.00
1196.886, 31938.00
1197.970, 31902.78
1199.054, 31904.77
1200.137, 31854.00
1201.221, 31988.00
1202.305, 31933.00
1203.388, 32049.00
1204.471, 32100.00
1205.554, 32068.00
1206.637, 31723.00
1207.719, 31960.00
1208.802, 32043.00
1209.884, 31988.00
1210.966, 32304.00
1212.048, 32061.00
1213.130, 32201.00
1214.212, 32416.00
1215.293, 32184.00
1216.374, 32225.00
1217.456, 32405.00
1218.536, 32142.00
1219.617, 32161.00
1220.698, 32313.00
1221.778, 32238.00
1222.859, 32125.00
1223.939, 32229.00
1225.019, 32108.00
1226.099, 32268.00
1227.178, 32383.00
1228.258, 32130.00
1229.337, 32172.00
1230.417, 32411.00
1231.496, 32424.00
1232.574, 32458.00
1233.653, 32428.00
1234.732, 32337.00
1235.810, 32201.00
1236.888, 32276.76
1237.966, 32228.57
1239.044, 32446.00
1240.122, 32287.00
1241.199, 32459.00
1242.277, 32513.00
1243.354, 32440.00
1244.431, 32560.00
1245.508, 32452.00
1246.585, 32225.00
1247.661, 32545.00
1248.738, 32481.00
1249.814, 32471.00
1250.890, 32619.00
1251.966, 32471.00
1253.042, 32748.00
1254.117, 32541.00
1255.193, 32637.00
1256.268, 32689.00
1257.343, 32697.00
1258.418, 32747.00
1259.493, 32712.00
1260.567, 32777.25
1261.642, 32634.00
1262.716, 32870.00
1263.790, 32837.00
