##NAMES=Brazilianite
##RRUFFID=R050504
##IDEAL CHEMISTRY=NaAl_3_(PO_4_)_2_(OH)_4_
##LOCALITY=CÃ³rrego Frio, Minas Gerais, Brazil
##OWNER=RRUFF
##SOURCE=Marcus Origlieri
##DESCRIPTION=Yellowish green fragment
##STATUS=The identification of this mineral has been confirmed by X-ray diffraction and chemical analysis
##URL=rruff.info/R050504
##MEASURED CHEMISTRY=Na_1.00_Al_3.00_(P_1.00_O_4_)_2_(OH)_4_
##PIN_ID=L00583
##ORIENTATION=Laser parallel to b* (0 1 0). Fiducial mark perpendicular to laser is parallel to c [0 0 1]
72.47700, 3666.000
73.71400, 4327.000
74.95100, 5181.000
76.18700, 6216.000
77.42300, 7334.000
78.65900, 8558.000
79.89500, 10207.00
81.13100, 12520.00
82.36700, 14654.00
83.60200, 16498.00
84.83700, 17907.00
86.07200, 18783.00
87.30800, 19336.00
88.54200, 19337.00
89.77700, 18105.00
91.01200, 16718.00
92.24600, 15702.00
93.48000, 14916.00
94.71400, 14699.00
95.94800, 14982.00
97.18200, 15393.00
98.41600, 16001.00
99.64900, 18240.00
100.8830, 21285.00
102.1160, 24915.00
103.3490, 26631.00
104.5820, 25492.00
105.8150, 22177.00
107.0470, 19419.00
108.2800, 16077.00
109.5120, 12401.00
110.7440, 9848.000
111.9760, 8585.000
113.2080, 8375.000
114.4400, 8071.000
115.6710, 7861.000
116.9030, 7292.000
118.1340, 6771.000
119.3650, 6309.000
120.5960, 6111.000
121.8270, 5880.000
123.0580, 5889.000
124.2880, 5797.000
125.5190, 5782.000
126.7490, 5678.000
127.9790, 5754.000
129.2090, 5726.000
130.4390, 5799.000
131.6680, 5731.000
132.8980, 5946.000
134.1270, 5995.000
135.3560, 6150.000
136.5850, 6278.000
137.8140, 6446.000
139.0430, 6682.055
140.2710, 6922.830
141.5000, 7223.000
142.7280, 7497.000
143.9560, 7833.000
145.1840, 8118.000
146.4120, 8208.575
147.6390, 8454.000
148.8670, 8252.000
150.0940, 8134.000
151.3210, 7971.000
152.5490, 7886.000
153.7750, 7635.000
155.0020, 7633.000
156.2290, 7565.000
157.4550, 7810.000
158.6810, 8016.000
159.9080, 8445.000
161.1340, 9097.000
162.3590, 10079.00
163.5850, 11263.00
164.8110, 12349.00
166.0360, 13204.00
167.2610, 14740.00
168.4860, 17435.00
169.7110, 20789.00
170.9360, 23021.00
172.1610, 23110.00
173.3850, 21037.00
174.6100, 18643.00
175.8340, 15996.00
177.0580, 13324.00
178.2820, 10994.00
179.5050, 9596.000
180.7290, 8716.000
181.9520, 8070.000
183.1760, 7914.000
184.3990, 7736.000
185.6220, 7564.000
186.8450, 7629.000
188.0670, 7622.000
189.2900, 7752.000
190.5120, 7830.000
191.7340, 7853.000
192.9560, 8154.000
194.1780, 8192.000
195.4000, 8481.000
196.6220, 8708.000
197.8430, 8981.000
199.0640, 9219.000
200.2860, 9467.000
201.5070, 9634.000
202.7270, 9817.000
203.9480, 9697.000
205.1690, 9767.000
206.3890, 9794.000
207.6090, 10109.00
208.8290, 10043.00
210.0490, 9910.000
211.2690, 9922.000
212.4890, 9814.000
213.7080, 9872.000
214.9280, 10031.00
216.1470, 10201.00
217.3660, 10483.00
218.5850, 10417.00
219.8030, 10471.00
221.0220, 10201.00
222.2400, 10100.00
223.4590, 9898.000
224.6770, 9771.000
225.8950, 9887.000
227.1120, 10125.00
228.3300, 10357.00
229.5480, 10524.00
230.7650, 10560.00
231.9820, 10229.00
233.1990, 9917.000
234.4160, 9610.000
235.6330, 9362.000
236.8490, 9448.000
238.0660, 9575.000
239.2820, 9738.000
240.4980, 10094.00
241.7140, 10545.00
242.9300, 10677.00
244.1460, 10817.00
245.3610, 10647.00
246.5770, 10438.00
247.7920, 10492.00
249.0070, 11121.00
250.2220, 11862.00
251.4370, 12439.00
252.6510, 12357.00
253.8660, 11680.00
255.0800, 10853.00
256.2940, 9923.000
257.5080, 9039.000
258.7220, 8516.000
259.9360, 8291.000
261.1490, 8048.000
262.3630, 8070.000
263.5760, 8196.000
264.7890, 8403.000
266.0020, 8764.000
267.2150, 9038.000
268.4270, 9386.000
269.6400, 9539.000
270.8520, 9798.000
272.0640, 9873.000
273.2760, 10093.00
274.4880, 10174.00
275.7000, 10404.00
276.9120, 10592.00
278.1230, 10772.00
279.3340, 11286.00
280.5450, 11614.00
281.7560, 11892.00
282.9670, 12226.00
284.1780, 12255.00
285.3880, 12002.00
286.5980, 11509.00
287.8090, 10960.00
289.0190, 10176.00
290.2290, 9732.000
291.4380, 9373.000
292.6480, 9123.000
293.8570, 8924.000
295.0670, 8760.000
296.2760, 8749.000
297.4850, 8771.000
298.6930, 8757.000
299.9020, 8991.000
301.1110, 9136.000
302.3190, 9368.000
303.5270, 9725.000
304.7350, 10245.00
305.9430, 10745.00
307.1510, 11610.00
308.3580, 12452.00
309.5660, 13379.00
310.7730, 14351.00
311.9800, 15270.00
313.1870, 15573.00
314.3940, 15800.00
315.6010, 15651.00
316.8070, 15591.00
318.0130, 15678.00
319.2200, 15677.00
320.4260, 15811.00
321.6310, 15748.00
322.8370, 15446.00
324.0430, 15061.00
325.2480, 14758.00
326.4540, 14188.00
327.6590, 13783.00
328.8640, 13474.00
330.0680, 13101.00
331.2730, 12869.00
332.4780, 12555.00
333.6820, 12161.00
334.8860, 12149.00
336.0900, 11805.00
337.2940, 11754.00
338.4980, 11711.00
339.7010, 11661.00
340.9050, 11911.00
342.1080, 11992.00
343.3110, 12343.00
344.5140, 13142.00
345.7170, 13539.00
346.9200, 14574.00
348.1220, 15565.00
349.3240, 17070.00
350.5270, 18437.00
351.7290, 20336.00
352.9310, 22325.00
354.1320, 24412.00
355.3340, 26537.00
356.5350, 28029.00
357.7370, 28404.00
358.9380, 28065.00
360.1390, 26133.00
361.3400, 23996.00
362.5400, 21707.00
363.7410, 19042.00
364.9410, 17013.00
366.1410, 15332.00
367.3410, 13996.00
368.5410, 12865.00
369.7410, 11745.00
370.9400, 11100.00
372.1400, 10232.00
373.3390, 9875.000
374.5380, 9248.000
375.7370, 9064.000
376.9360, 8971.000
378.1350, 9121.000
379.3330, 9278.000
380.5310, 9335.000
381.7300, 9382.000
382.9280, 9349.000
384.1260, 9223.000
385.3230, 9145.000
386.5210, 8985.000
387.7180, 8940.000
388.9160, 8952.000
390.1130, 8946.000
391.3100, 9161.000
392.5060, 9266.000
393.7030, 9550.000
394.9000, 9985.000
396.0960, 10179.00
397.2920, 10495.00
398.4880, 11255.00
399.6840, 11712.00
400.8800, 12178.00
402.0750, 12791.00
403.2710, 13387.42
404.4660, 14225.00
405.6610, 14742.00
406.8560, 15601.00
408.0510, 16324.00
409.2450, 16809.00
410.4400, 17386.00
411.6340, 17755.00
412.8280, 17695.00
414.0220, 17404.00
415.2160, 17122.00
416.4100, 16547.00
417.6030, 16066.00
418.7970, 15791.00
419.9900, 15414.00
421.1830, 15308.00
422.3760, 15262.00
423.5690, 15142.00
424.7610, 15049.00
425.9540, 14679.00
427.1460, 14355.00
428.3380, 13974.00
429.5300, 13457.00
430.7220, 13419.00
431.9140, 13288.00
433.1050, 13493.00
434.2970, 13678.00
435.4880, 13877.00
436.6790, 14296.00
437.8700, 14413.00
439.0610, 14392.00
440.2510, 14003.00
441.4420, 13392.00
442.6320, 12777.00
443.8220, 11899.00
445.0120, 11446.00
446.2020, 10777.00
447.3910, 10606.00
448.5810, 10337.00
449.7700, 10198.00
450.9600, 10248.00
452.1490, 10230.00
453.3370, 10333.00
454.5260, 10230.00
455.7150, 10243.00
456.9030, 10198.00
458.0910, 10203.00
459.2800, 10298.00
460.4670, 10438.00
461.6550, 10690.00
462.8430, 10954.00
464.0300, 11078.00
465.2180, 11215.00
466.4050, 11351.00
467.5920, 11250.00
468.7790, 11250.00
469.9650, 11047.00
471.1520, 10617.00
472.3380, 10287.00
473.5250, 10094.00
474.7110, 9806.000
475.8970, 9699.000
477.0820, 9541.000
478.2680, 9546.000
479.4540, 9540.000
480.6390, 9592.000
481.8240, 9606.000
483.0090, 9917.000
484.1940, 10082.00
485.3780, 10271.00
486.5630, 10654.00
487.7470, 10906.00
488.9320, 11521.00
490.1160, 11883.00
491.3000, 12606.00
492.4830, 13191.00
493.6670, 14006.00
494.8500, 14765.00
496.0340, 15498.00
497.2170, 16517.00
498.4000, 17312.00
499.5820, 18077.00
500.7650, 18768.00
501.9480, 19027.00
503.1300, 19563.00
504.3120, 19789.00
505.4940, 19885.00
506.6760, 20055.00
507.8580, 20065.00
509.0390, 20498.00
510.2210, 20799.00
511.4020, 20826.00
512.5830, 21187.00
513.7640, 21495.00
514.9450, 21822.00
516.1250, 22212.00
517.3060, 22828.00
518.4860, 23035.00
519.6660, 23685.00
520.8460, 24487.00
522.0260, 25365.00
523.2060, 26427.00
524.3850, 27775.00
525.5650, 28927.00
526.7440, 30323.00
527.9230, 31316.00
529.1020, 32649.00
530.2810, 33278.00
531.4590, 33751.00
532.6380, 33864.89
533.8160, 33872.00
534.9940, 33054.00
536.1720, 32386.00
537.3500, 31252.00
538.5270, 29516.00
539.7050, 28513.00
540.8820, 27218.00
542.0590, 26044.00
543.2360, 25252.00
544.4130, 24717.00
545.5900, 24485.00
546.7660, 24499.76
547.9430, 24881.00
549.1190, 25453.00
550.2950, 26405.00
551.4710, 27771.00
552.6470, 29507.00
553.8220, 31673.00
554.9980, 34054.00
556.1730, 36083.00
557.3480, 37783.00
558.5230, 39284.00
559.6980, 40119.87
560.8730, 40208.00
562.0470, 40793.00
563.2220, 40393.00
564.3960, 39765.00
565.5700, 38988.00
566.7440, 37409.00
567.9170, 35842.00
569.0910, 33364.00
570.2640, 30959.00
571.4380, 28881.00
572.6110, 26518.00
573.7840, 24707.00
574.9570, 23358.00
576.1290, 22029.00
577.3020, 21489.00
578.4740, 20954.00
579.6460, 20819.00
580.8180, 20948.00
581.9900, 21372.00
583.1620, 21788.00
584.3330, 22877.00
585.5040, 23879.00
586.6760, 25283.00
587.8470, 27160.00
589.0180, 29276.00
590.1880, 32147.00
591.3590, 34911.00
592.5290, 38221.00
593.7000, 41625.00
594.8700, 45318.00
596.0400, 48042.00
597.2090, 50158.00
598.3790, 50782.00
599.5490, 49422.00
600.7180, 46592.00
601.8870, 42268.00
603.0560, 37608.00
604.2250, 33267.00
605.3940, 29281.00
606.5620, 26174.00
607.7300, 23683.00
608.8990, 21764.00
610.0670, 19916.00
611.2350, 18664.00
612.4020, 17563.00
613.5700, 16919.00
614.7370, 16203.00
615.9050, 15619.00
617.0720, 15192.00
618.2390, 14875.00
619.4060, 14445.00
620.5720, 14053.00
621.7390, 13960.00
622.9050, 13839.00
624.0710, 13592.00
625.2370, 13492.00
626.4030, 13338.00
627.5690, 13518.00
628.7340, 13620.00
629.9000, 13736.00
631.0650, 13745.00
632.2300, 13821.00
633.3950, 13822.00
634.5600, 13698.00
635.7240, 13768.00
636.8890, 13458.00
638.0530, 13341.00
639.2170, 12937.00
640.3810, 12561.00
641.5450, 12644.00
642.7080, 12322.00
643.8720, 12378.00
645.0350, 12317.00
646.1980, 12481.00
647.3610, 12565.00
648.5240, 12732.00
649.6870, 12996.00
650.8490, 13305.00
652.0120, 13693.00
653.1740, 13797.00
654.3360, 14066.00
655.4980, 14638.00
656.6600, 14945.00
657.8210, 14998.00
658.9830, 14965.00
660.1440, 14937.00
661.3050, 14613.84
662.4660, 14177.00
663.6270, 13735.00
664.7870, 13268.00
665.9480, 12596.00
667.1080, 11948.00
668.2680, 11337.00
669.4280, 10704.00
670.5880, 10295.00
671.7480, 9692.000
672.9070, 9453.000
674.0670, 9035.000
675.2260, 8729.000
676.3850, 8596.000
677.5440, 8311.000
678.7030, 8239.000
679.8610, 8096.000
681.0200, 7976.000
682.1780, 7871.005
683.3360, 7755.964
684.4940, 7632.000
685.6520, 7580.000
686.8090, 7448.000
687.9670, 7414.000
689.1240, 7346.885
690.2810, 7246.000
691.4380, 7246.000
692.5950, 7248.000
693.7520, 7197.000
694.9080, 7185.000
696.0650, 7170.000
697.2210, 7128.000
698.3770, 7098.000
699.5330, 7084.000
700.6880, 7090.019
701.8440, 7143.000
702.9990, 7121.000
704.1550, 7153.000
705.3100, 7148.000
706.4650, 7066.000
707.6190, 7177.000
708.7740, 7215.000
709.9290, 7060.000
711.0830, 7247.000
712.2370, 7219.150
713.3910, 7183.000
714.5450, 7251.000
715.6980, 7361.000
716.8520, 7234.000
718.0050, 7328.000
719.1580, 7356.000
720.3110, 7315.000
721.4640, 7415.000
722.6170, 7359.000
723.7700, 7372.000
724.9220, 7428.000
726.0740, 7445.000
727.2260, 7445.000
728.3780, 7425.000
729.5300, 7410.000
730.6810, 7336.000
731.8330, 7394.000
732.9840, 7370.000
734.1350, 7495.000
735.2860, 7564.000
736.4370, 7545.283
737.5880, 7554.005
738.7380, 7514.000
739.8880, 7465.000
741.0390, 7413.000
742.1890, 7392.000
743.3380, 7446.000
744.4880, 7542.000
745.6380, 7425.000
746.7870, 7545.000
747.9360, 7500.000
749.0850, 7572.000
750.2340, 7503.000
751.3830, 7384.000
752.5310, 7708.000
753.6800, 7549.318
754.8280, 7860.000
755.9760, 7532.000
757.1240, 7579.000
758.2720, 7609.000
759.4190, 7599.000
760.5670, 7627.006
761.7140, 7679.000
762.8610, 7628.034
764.0080, 7653.000
765.1550, 7626.000
766.3020, 7673.000
767.4480, 7676.000
768.5950, 7710.000
769.7410, 7696.000
770.8870, 7690.552
772.0330, 7740.000
773.1780, 7671.000
774.3240, 7548.000
775.4690, 7564.000
776.6140, 7484.000
777.7590, 7457.000
778.9040, 7453.000
780.0490, 7405.000
781.1940, 7475.000
782.3380, 7379.557
783.4820, 7516.000
784.6260, 7285.000
785.7700, 7254.000
786.9140, 7318.000
788.0580, 7185.000
789.2010, 7236.000
790.3450, 7239.000
791.4880, 7103.000
792.6310, 7202.000
793.7730, 7150.000
794.9160, 7093.000
796.0590, 7106.000
797.2010, 7068.000
798.3430, 7073.000
799.4850, 7065.000
800.6270, 7104.000
801.7690, 7053.000
802.9100, 7008.000
804.0520, 7049.000
805.1930, 6903.000
806.3340, 7056.000
807.4750, 7028.000
808.6160, 6930.000
809.7560, 7060.000
810.8970, 7004.000
812.0370, 6976.000
813.1770, 6984.000
814.3170, 6987.000
815.4570, 6969.000
816.5960, 6971.000
817.7360, 6972.000
818.8750, 6925.000
820.0140, 6935.000
821.1530, 6897.000
822.2920, 6902.000
823.4310, 6926.000
824.5690, 7020.000
825.7070, 6921.000
826.8460, 7089.000
827.9840, 7121.000
829.1220, 6921.000
830.2590, 7045.000
831.3970, 7055.000
832.5340, 7095.000
833.6710, 7035.000
834.8080, 7070.000
835.9450, 7095.000
837.0820, 7071.000
838.2190, 7199.000
839.3550, 7134.000
840.4910, 7111.000
841.6270, 7210.000
842.7630, 7167.000
843.8990, 7210.000
845.0350, 7253.000
846.1700, 7171.000
847.3060, 7253.000
848.4410, 7275.000
849.5760, 7282.000
850.7100, 7237.000
851.8450, 7253.000
852.9800, 7366.000
854.1140, 7219.000
855.2480, 7454.000
856.3820, 7446.000
857.5160, 7460.000
858.6500, 7435.000
859.7830, 7461.000
860.9170, 7523.000
862.0500, 7517.000
863.1830, 7550.000
864.3160, 7414.000
865.4480, 7467.000
866.5810, 7457.000
867.7130, 7628.000
868.8460, 7466.000
869.9780, 7563.000
871.1100, 7525.000
872.2410, 7497.000
873.3730, 7627.000
874.5050, 7618.000
875.6360, 7583.000
876.7670, 7595.000
877.8980, 7655.000
879.0290, 7685.000
880.1590, 7683.000
881.2900, 7616.000
882.4200, 7816.000
883.5500, 7799.000
884.6800, 7848.000
885.8100, 7728.000
886.9400, 7758.000
888.0690, 7834.000
889.1990, 7884.000
890.3280, 7890.000
891.4570, 7910.000
892.5860, 7948.129
893.7140, 7968.375
894.8430, 8007.000
895.9710, 8035.000
897.1000, 8050.000
898.2280, 8089.000
899.3560, 8029.000
900.4830, 8173.000
901.6110, 8150.000
902.7380, 8087.000
903.8660, 8331.000
904.9930, 8210.000
906.1200, 8388.000
907.2460, 8217.000
908.3730, 8443.000
909.5000, 8442.000
910.6260, 8378.000
911.7520, 8520.000
912.8780, 8478.000
914.0040, 8441.000
915.1290, 8694.000
916.2550, 8567.000
917.3800, 8723.000
918.5050, 8852.000
919.6300, 8960.000
920.7550, 8906.000
921.8800, 9026.401
923.0040, 9089.000
924.1290, 9144.000
925.2530, 9247.000
926.3770, 9326.000
927.5010, 9429.873
928.6250, 9557.000
929.7480, 9688.000
930.8720, 9781.000
931.9950, 9985.426
933.1180, 10220.34
934.2410, 10497.00
935.3640, 10806.00
936.4860, 11176.00
937.6090, 11525.00
938.7310, 11992.00
939.8530, 12417.43
940.9750, 12915.00
942.0970, 13433.00
943.2180, 13940.00
944.3400, 14605.00
945.4610, 15259.00
946.5820, 15781.00
947.7030, 16294.00
948.8240, 16791.00
949.9450, 17025.86
951.0650, 17378.00
952.1860, 17370.00
953.3060, 17536.00
954.4260, 17626.00
955.5460, 17683.00
956.6650, 17650.00
957.7850, 17837.00
958.9040, 18327.00
960.0230, 18729.00
961.1420, 19263.00
962.2610, 20359.00
963.3800, 21452.00
964.4990, 22943.00
965.6170, 24535.00
966.7350, 26387.00
967.8530, 28621.00
968.9710, 30858.00
970.0890, 33069.00
971.2070, 35044.00
972.3240, 36429.00
973.4410, 37641.00
974.5580, 37981.00
975.6750, 38398.00
976.7920, 37901.00
977.9090, 38161.00
979.0250, 38569.00
980.1410, 39395.00
981.2580, 40848.00
982.3740, 42695.00
983.4890, 45333.00
984.6050, 48063.00
985.7200, 50320.00
986.8360, 52269.00
987.9510, 53045.00
989.0660, 52136.00
990.1810, 49723.00
991.2950, 46390.00
992.4100, 42064.00
993.5240, 37983.00
994.6390, 34512.00
995.7530, 31572.00
996.8660, 29343.00
997.9800, 27492.00
999.0940, 26620.00
1000.207, 25763.00
1001.320, 25506.00
1002.433, 25278.00
1003.546, 25578.00
1004.659, 25894.00
1005.772, 26924.00
1006.884, 28241.00
1007.996, 30048.00
1009.108, 32149.00
1010.220, 34835.00
1011.332, 38126.00
1012.444, 41636.00
1013.555, 45818.00
1014.666, 49367.00
1015.777, 53094.00
1016.888, 56067.00
1017.999, 58209.00
1019.110, 59231.00
1020.220, 59163.00
1021.331, 57708.00
1022.441, 55477.00
1023.551, 52894.00
1024.661, 50036.00
1025.770, 47176.00
1026.880, 44646.00
1027.989, 41940.00
1029.098, 39761.00
1030.207, 37913.00
1031.316, 36390.00
1032.425, 35108.00
1033.533, 33589.00
1034.642, 32331.00
1035.750, 31510.00
1036.858, 30442.00
1037.966, 29918.00
1039.073, 29069.00
1040.181, 28302.00
1041.288, 27091.00
1042.396, 26287.00
1043.503, 25209.00
1044.610, 24130.00
1045.716, 23267.00
1046.823, 22122.00
1047.929, 21052.00
1049.036, 20283.00
1050.142, 19319.00
1051.248, 18751.00
1052.353, 18301.00
1053.459, 17666.00
1054.564, 17393.00
1055.670, 17188.00
1056.775, 17046.00
1057.880, 17203.00
1058.985, 17368.00
1060.089, 17637.00
1061.194, 18033.00
1062.298, 18639.00
1063.402, 19338.00
1064.506, 20377.00
1065.610, 21314.00
1066.713, 22552.00
1067.817, 23707.00
1068.920, 24729.00
1070.023, 25659.00
1071.126, 26386.00
1072.229, 26936.00
1073.332, 27336.00
1074.435, 27401.00
1075.537, 27445.00
1076.639, 27320.00
1077.741, 27217.00
1078.843, 27140.00
1079.945, 26771.00
1081.046, 26844.00
1082.148, 26252.00
1083.249, 25963.00
1084.350, 25440.00
1085.451, 25023.00
1086.551, 24634.00
1087.652, 23697.00
1088.752, 23215.00
1089.853, 22498.00
1090.953, 22023.00
1092.053, 21246.00
1093.152, 20924.00
1094.252, 20156.00
1095.351, 19663.00
1096.451, 19036.00
1097.550, 18571.00
1098.649, 18285.00
1099.748, 17866.00
1100.846, 17759.00
1101.945, 17784.00
1103.043, 17764.00
1104.141, 17907.00
1105.239, 18117.00
1106.337, 18801.00
1107.434, 19338.00
1108.532, 20379.00
1109.629, 21627.00
1110.726, 23382.00
1111.823, 25301.00
1112.920, 27222.00
1114.017, 29264.00
1115.113, 30674.00
1116.210, 31262.00
1117.306, 30691.00
1118.402, 29393.00
1119.498, 27294.00
1120.593, 24619.00
1121.689, 22537.00
1122.784, 20483.00
1123.879, 18802.00
1124.974, 17373.00
1126.069, 16274.00
1127.164, 15415.00
1128.259, 14694.00
1129.353, 13825.00
1130.447, 13173.00
1131.541, 12757.00
1132.635, 12339.00
1133.729, 12026.00
1134.822, 11707.00
1135.916, 11382.00
1137.009, 11284.00
1138.102, 11032.00
1139.195, 10856.00
1140.288, 10754.00
1141.380, 10721.00
1142.473, 10475.00
1143.565, 10394.00
1144.657, 10280.00
1145.749, 10149.00
1146.841, 10249.00
1147.932, 9966.000
1149.024, 10096.00
1150.115, 9896.000
1151.206, 9814.000
1152.297, 9677.000
1153.388, 9671.000
1154.479, 9535.000
1155.569, 9532.000
1156.659, 9427.000
1157.750, 9414.000
1158.839, 9314.000
1159.929, 9223.000
1161.019, 9132.000
1162.108, 9177.000
1163.198, 9129.000
1164.287, 9022.000
1165.376, 8929.000
1166.465, 8942.000
1167.553, 8857.000
1168.642, 8816.000
1169.730, 8798.000
1170.818, 8718.000
1171.906, 8579.000
1172.994, 8498.000
1174.082, 8486.000
1175.170, 8395.823
1176.257, 8476.000
1177.344, 8368.000
1178.431, 8351.000
1179.518, 8479.000
1180.605, 8386.000
1181.691, 8221.000
1182.778, 8348.000
1183.864, 8233.000
1184.950, 8219.000
1186.036, 8103.000
1187.122, 8166.000
1188.207, 8064.000
1189.292, 8155.000
1190.378, 8089.000
1191.463, 8050.000
1192.548, 7881.000
1193.632, 7983.000
1194.717, 7980.000
1195.801, 8057.000
1196.886, 7966.000
1197.970, 8007.000
1199.054, 8013.000
1200.137, 7902.000
1201.221, 7984.000
1202.305, 8018.000
1203.388, 7822.000
1204.471, 7888.000
1205.554, 7983.000
1206.637, 7929.000
1207.719, 7854.000
1208.802, 7843.000
1209.884, 7890.000
1210.966, 7923.000
1212.048, 7856.000
1213.130, 7849.000
1214.212, 8012.000
1215.293, 7861.000
1216.374, 7810.000
1217.456, 7857.000
1218.536, 7733.000
1219.617, 7791.000
1220.698, 7877.000
1221.778, 7859.000
1222.859, 7811.000
1223.939, 7737.000
1225.019, 7798.000
1226.099, 7741.000
1227.178, 7735.368
1228.258, 7807.000
1229.337, 7740.000
1230.417, 7754.000
1231.496, 7823.000
1232.574, 7775.000
1233.653, 7801.000
1234.732, 7746.000
1235.810, 7743.000
1236.888, 7757.249
1237.966, 7741.280
1239.044, 7777.000
1240.122, 7747.000
1241.199, 7730.000
1242.277, 7717.000
1243.354, 7787.000
1244.431, 7757.000
1245.508, 7844.000
1246.585, 7777.000
1247.661, 7825.000
1248.738, 7775.000
1249.814, 7895.000
1250.890, 7862.000
1251.966, 7877.000
1253.042, 7838.000
1254.117, 7813.000
1255.193, 7803.000
1256.268, 7858.000
1257.343, 7825.000
