##NAMES=Brazilianite
##RRUFFID=R050504
##IDEAL CHEMISTRY=NaAl_3_(PO_4_)_2_(OH)_4_
##LOCALITY=CÃ³rrego Frio, Minas Gerais, Brazil
##OWNER=RRUFF
##SOURCE=Marcus Origlieri
##DESCRIPTION=Yellowish green fragment
##STATUS=The identification of this mineral has been confirmed by X-ray diffraction and chemical analysis
##URL=rruff.info/R050504
##MEASURED CHEMISTRY=Na_1.00_Al_3.00_(P_1.00_O_4_)_2_(OH)_4_
##PIN_ID=L00567
##ORIENTATION=Laser parallel to (1 0 1). Fiducial mark perpendicular to laser is parallel to b [0 1 0]
78.65900, 5159.000
79.89500, 6217.000
81.13100, 7356.000
82.36700, 8413.000
83.60200, 9227.000
84.83700, 10062.00
86.07200, 10892.00
87.30800, 11639.00
88.54200, 12101.00
89.77700, 11852.00
91.01200, 12516.00
92.24600, 11278.00
93.48000, 11400.00
94.71400, 11874.00
95.94800, 12937.00
97.18200, 13564.00
98.41600, 14145.00
99.64900, 15175.00
100.8830, 16814.00
102.1160, 18576.00
103.3490, 19173.00
104.5820, 19166.00
105.8150, 18503.00
107.0470, 17390.00
108.2800, 16015.00
109.5120, 14466.00
110.7440, 13311.00
111.9760, 12800.00
113.2080, 12597.00
114.4400, 12490.00
115.6710, 12208.00
116.9030, 11549.00
118.1340, 10922.00
119.3650, 10419.00
120.5960, 9954.000
121.8270, 9804.000
123.0580, 9540.000
124.2880, 9515.000
125.5190, 9484.000
126.7490, 9507.000
127.9790, 9442.000
129.2090, 9601.000
130.4390, 9604.000
131.6680, 9595.000
132.8980, 9808.000
134.1270, 9971.000
135.3560, 10099.00
136.5850, 10546.00
137.8140, 11010.00
139.0430, 11392.00
140.2710, 11901.00
141.5000, 12142.00
142.7280, 12566.00
143.9560, 12828.00
145.1840, 13177.00
146.4120, 13234.00
147.6390, 13263.00
148.8670, 13136.00
150.0940, 12763.00
151.3210, 12559.00
152.5490, 12488.00
153.7750, 12703.00
155.0020, 13185.00
156.2290, 13744.00
157.4550, 14226.00
158.6810, 15063.00
159.9080, 16627.00
161.1340, 17088.00
162.3590, 18429.00
163.5850, 19494.00
164.8110, 20226.00
166.0360, 20247.00
167.2610, 20296.00
168.4860, 20554.00
169.7110, 20637.00
170.9360, 20220.00
172.1610, 19667.00
173.3850, 19012.00
174.6100, 17908.00
175.8340, 16772.00
177.0580, 15346.00
178.2820, 14077.00
179.5050, 13140.00
180.7290, 12702.00
181.9520, 12323.00
183.1760, 12347.00
184.3990, 12381.00
185.6220, 12298.00
186.8450, 12393.00
188.0670, 12485.00
189.2900, 12599.00
190.5120, 12775.00
191.7340, 12869.00
192.9560, 12897.00
194.1780, 13184.00
195.4000, 13363.00
196.6220, 13560.00
197.8430, 13617.00
199.0640, 13828.00
200.2860, 13925.00
201.5070, 14075.00
202.7270, 14342.00
203.9480, 14274.00
205.1690, 14347.00
206.3890, 14508.00
207.6090, 14670.00
208.8290, 14723.00
210.0490, 14750.00
211.2690, 14807.00
212.4890, 14844.98
213.7080, 14886.00
214.9280, 14952.00
216.1470, 14975.00
217.3660, 15077.00
218.5850, 15249.00
219.8030, 15173.00
221.0220, 15125.00
222.2400, 15067.00
223.4590, 14921.00
224.6770, 14915.00
225.8950, 14896.10
227.1120, 14913.00
228.3300, 15030.00
229.5480, 15104.00
230.7650, 15378.00
231.9820, 15143.00
233.1990, 15031.00
234.4160, 14742.00
235.6330, 14426.00
236.8490, 14163.00
238.0660, 13945.00
239.2820, 13801.00
240.4980, 13676.00
241.7140, 13573.00
242.9300, 13395.83
244.1460, 13201.00
245.3610, 13057.00
246.5770, 12887.58
247.7920, 12717.67
249.0070, 12594.00
250.2220, 12488.00
251.4370, 12437.00
252.6510, 12424.00
253.8660, 12519.00
255.0800, 12468.00
256.2940, 12451.00
257.5080, 12396.00
258.7220, 12683.00
259.9360, 12708.29
261.1490, 12939.00
262.3630, 13058.00
263.5760, 13396.00
264.7890, 13696.00
266.0020, 14213.00
267.2150, 14778.00
268.4270, 15627.00
269.6400, 16408.00
270.8520, 17003.00
272.0640, 17590.00
273.2760, 18443.00
274.4880, 19613.00
275.7000, 20193.00
276.9120, 20604.00
278.1230, 20222.00
279.3340, 19384.00
280.5450, 18449.00
281.7560, 17323.00
282.9670, 16071.00
284.1780, 15198.00
285.3880, 14578.00
286.5980, 14185.00
287.8090, 13936.00
289.0190, 14048.00
290.2290, 13951.00
291.4380, 14033.00
292.6480, 14089.00
293.8570, 14156.00
295.0670, 14169.80
296.2760, 14376.00
297.4850, 14242.00
298.6930, 14185.00
299.9020, 14354.00
301.1110, 14167.00
302.3190, 14290.00
303.5270, 14546.00
304.7350, 14686.00
305.9430, 15108.00
307.1510, 15621.00
308.3580, 15985.00
309.5660, 16368.00
310.7730, 17002.00
311.9800, 17492.00
313.1870, 17610.00
314.3940, 17708.00
315.6010, 17298.00
316.8070, 16861.00
318.0130, 16287.00
319.2200, 15746.00
320.4260, 15167.00
321.6310, 14900.00
322.8370, 14561.00
324.0430, 14306.00
325.2480, 13969.00
326.4540, 13734.00
327.6590, 13651.00
328.8640, 13377.00
330.0680, 13394.00
331.2730, 13186.00
332.4780, 13231.00
333.6820, 13177.00
334.8860, 13073.00
336.0900, 13002.00
337.2940, 13054.00
338.4980, 12979.00
339.7010, 12991.00
340.9050, 12954.00
342.1080, 12866.00
343.3110, 13047.00
344.5140, 13043.00
345.7170, 13211.00
346.9200, 13573.00
348.1220, 13665.00
349.3240, 13917.00
350.5270, 14356.00
351.7290, 14554.00
352.9310, 15071.00
354.1320, 15270.00
355.3340, 15353.00
356.5350, 15472.00
357.7370, 15640.00
358.9380, 15702.00
360.1390, 15807.00
361.3400, 15465.00
362.5400, 15272.00
363.7410, 15191.00
364.9410, 14980.00
366.1410, 15088.00
367.3410, 14948.00
368.5410, 14965.00
369.7410, 15003.00
370.9400, 14916.00
372.1400, 14970.00
373.3390, 14857.00
374.5380, 14686.00
375.7370, 14606.00
376.9360, 14499.00
378.1350, 14449.00
379.3330, 14252.00
380.5310, 14191.00
381.7300, 14017.00
382.9280, 14068.00
384.1260, 13982.00
385.3230, 13902.00
386.5210, 13910.00
387.7180, 13824.00
388.9160, 13969.00
390.1130, 14336.00
391.3100, 14310.00
392.5060, 14662.00
393.7030, 14755.00
394.9000, 15044.00
396.0960, 15316.00
397.2920, 15847.00
398.4880, 16003.00
399.6840, 16438.00
400.8800, 16691.00
402.0750, 16832.00
403.2710, 17112.00
404.4660, 17294.00
405.6610, 17382.00
406.8560, 17493.00
408.0510, 17500.00
409.2450, 17533.00
410.4400, 17467.00
411.6340, 17118.00
412.8280, 17006.00
414.0220, 16849.00
415.2160, 16755.00
416.4100, 16254.00
417.6030, 16219.00
418.7970, 16027.00
419.9900, 15638.00
421.1830, 15483.00
422.3760, 15481.00
423.5690, 15491.00
424.7610, 15473.00
425.9540, 15561.02
427.1460, 15492.00
428.3380, 15739.00
429.5300, 15806.00
430.7220, 15882.00
431.9140, 16158.00
433.1050, 16172.00
434.2970, 16282.00
435.4880, 16346.00
436.6790, 16759.00
437.8700, 16725.00
439.0610, 16673.00
440.2510, 16648.00
441.4420, 16524.00
442.6320, 16251.00
443.8220, 16228.00
445.0120, 16101.00
446.2020, 16042.00
447.3910, 16264.00
448.5810, 16289.00
449.7700, 16354.00
450.9600, 16457.00
452.1490, 16749.00
453.3370, 16691.00
454.5260, 16927.00
455.7150, 16991.00
456.9030, 17314.00
458.0910, 17156.00
459.2800, 17288.00
460.4670, 17138.00
461.6550, 17230.00
462.8430, 17191.00
464.0300, 17160.00
465.2180, 17102.00
466.4050, 17016.00
467.5920, 17176.00
468.7790, 17372.00
469.9650, 17827.00
471.1520, 18233.00
472.3380, 18578.00
473.5250, 19150.00
474.7110, 19724.00
475.8970, 20537.00
477.0820, 21289.00
478.2680, 21933.00
479.4540, 22685.99
480.6390, 23216.00
481.8240, 24059.00
483.0090, 24593.00
484.1940, 25239.00
485.3780, 25766.00
486.5630, 26445.00
487.7470, 27384.00
488.9320, 28043.00
490.1160, 29252.00
491.3000, 30316.00
492.4830, 31345.00
493.6670, 32631.00
494.8500, 34141.00
496.0340, 35463.00
497.2170, 36854.00
498.4000, 37704.00
499.5820, 38650.00
500.7650, 39499.00
501.9480, 39649.00
503.1300, 40229.00
504.3120, 40227.00
505.4940, 40684.00
506.6760, 41012.00
507.8580, 41016.00
509.0390, 40842.00
510.2210, 40568.00
511.4020, 40228.00
512.5830, 40044.00
513.7640, 39549.00
514.9450, 38550.00
516.1250, 38164.00
517.3060, 37250.00
518.4860, 37089.00
519.6660, 36833.00
520.8460, 36535.00
522.0260, 36709.00
523.2060, 37513.00
524.3850, 38018.00
525.5650, 38845.00
526.7440, 39667.00
527.9230, 40295.00
529.1020, 40847.00
530.2810, 41255.00
531.4590, 41576.00
532.6380, 41198.00
533.8160, 40636.00
534.9940, 39425.00
536.1720, 38204.00
537.3500, 37073.00
538.5270, 35857.00
539.7050, 34371.00
540.8820, 33415.00
542.0590, 32164.00
543.2360, 31713.00
544.4130, 31405.00
545.5900, 31785.00
546.7660, 32254.00
547.9430, 33214.00
549.1190, 34559.00
550.2950, 36146.00
551.4710, 37710.00
552.6470, 40195.00
553.8220, 41501.00
554.9980, 42932.00
556.1730, 44475.00
557.3480, 45010.00
558.5230, 45318.00
559.6980, 44546.00
560.8730, 44126.00
562.0470, 43261.00
563.2220, 42506.00
564.3960, 41290.00
565.5700, 40297.00
566.7440, 39078.00
567.9170, 37560.00
569.0910, 35701.00
570.2640, 33985.00
571.4380, 32635.00
572.6110, 30788.00
573.7840, 29427.00
574.9570, 28745.00
576.1290, 27691.00
577.3020, 27299.00
578.4740, 26854.00
579.6460, 26546.00
580.8180, 26780.00
581.9900, 27163.00
583.1620, 27404.00
584.3330, 28143.00
585.5040, 29171.00
586.6760, 30387.00
587.8470, 32005.00
589.0180, 33949.00
590.1880, 36657.00
591.3590, 39259.00
592.5290, 42715.00
593.7000, 46026.00
594.8700, 49561.00
596.0400, 52196.00
597.2090, 54691.00
598.3790, 55896.00
599.5490, 55641.00
600.7180, 53922.00
601.8870, 50943.00
603.0560, 47377.00
604.2250, 43409.00
605.3940, 39943.00
606.5620, 37044.00
607.7300, 35025.00
608.8990, 33328.00
610.0670, 32382.00
611.2350, 31799.00
612.4020, 31224.00
613.5700, 31008.00
614.7370, 30357.00
615.9050, 29705.00
617.0720, 29059.00
618.2390, 28299.00
619.4060, 27157.00
620.5720, 26461.00
621.7390, 25644.00
622.9050, 25270.00
624.0710, 24952.00
625.2370, 24468.00
626.4030, 24438.00
627.5690, 24342.00
628.7340, 24542.00
629.9000, 24404.00
631.0650, 24810.00
632.2300, 24708.00
633.3950, 24584.00
634.5600, 24242.00
635.7240, 24053.00
636.8890, 23462.00
638.0530, 23042.00
639.2170, 22382.00
640.3810, 21875.00
641.5450, 21228.00
642.7080, 21088.00
643.8720, 20733.00
645.0350, 20628.00
646.1980, 20500.00
647.3610, 20562.00
648.5240, 20538.00
649.6870, 20675.00
650.8490, 20623.00
652.0120, 20673.00
653.1740, 20812.11
654.3360, 21046.00
655.4980, 21060.00
656.6600, 21156.00
657.8210, 21216.00
658.9830, 21038.25
660.1440, 20738.00
661.3050, 20630.00
662.4660, 20298.00
663.6270, 20058.00
664.7870, 19523.00
665.9480, 19302.00
667.1080, 18994.00
668.2680, 18637.00
669.4280, 18363.00
670.5880, 18166.00
671.7480, 18045.00
672.9070, 17777.00
674.0670, 17593.00
675.2260, 17597.00
676.3850, 17454.00
677.5440, 17208.00
678.7030, 17261.00
679.8610, 17278.00
681.0200, 16988.00
682.1780, 16990.00
683.3360, 16844.00
684.4940, 16771.00
685.6520, 16752.38
686.8090, 16668.00
687.9670, 16685.00
689.1240, 16704.00
690.2810, 16636.00
691.4380, 16583.00
692.5950, 16462.00
693.7520, 16482.00
694.9080, 16476.00
696.0650, 16486.00
697.2210, 16517.00
698.3770, 16546.00
699.5330, 16383.00
700.6880, 16461.17
701.8440, 16429.00
702.9990, 16491.00
704.1550, 16510.00
705.3100, 16535.00
706.4650, 16495.00
707.6190, 16596.00
708.7740, 16531.00
709.9290, 16481.00
711.0830, 16612.00
712.2370, 16830.00
713.3910, 16629.00
714.5450, 16772.00
715.6980, 16549.00
716.8520, 16780.00
718.0050, 16546.00
719.1580, 16686.00
720.3110, 16700.00
721.4640, 16660.00
722.6170, 16765.00
723.7700, 16591.00
724.9220, 16720.00
726.0740, 16623.00
727.2260, 16729.00
728.3780, 16661.00
729.5300, 16894.00
730.6810, 16897.00
731.8330, 16796.00
732.9840, 16613.00
734.1350, 16683.00
735.2860, 16692.00
736.4370, 16875.00
737.5880, 16938.00
738.7380, 16890.00
739.8880, 17167.00
741.0390, 17194.00
742.1890, 17231.00
743.3380, 17286.00
744.4880, 17386.00
745.6380, 17289.00
746.7870, 17359.00
747.9360, 17443.87
749.0850, 17537.00
750.2340, 17690.00
751.3830, 17799.00
752.5310, 18004.00
753.6800, 18097.00
754.8280, 18294.00
755.9760, 18189.00
757.1240, 18514.00
758.2720, 18492.00
759.4190, 18837.00
760.5670, 18825.00
761.7140, 18967.00
762.8610, 18975.00
764.0080, 19251.00
765.1550, 19025.00
766.3020, 19270.00
767.4480, 19227.00
768.5950, 19102.00
769.7410, 19046.00
770.8870, 19056.00
772.0330, 18981.56
773.1780, 18990.00
774.3240, 18940.00
775.4690, 18948.00
776.6140, 18967.00
777.7590, 18843.00
778.9040, 18716.00
780.0490, 19027.00
781.1940, 18838.00
782.3380, 18977.00
783.4820, 18866.00
784.6260, 19253.00
785.7700, 19347.00
786.9140, 19334.00
788.0580, 19581.00
789.2010, 20006.00
790.3450, 20153.00
791.4880, 20233.00
792.6310, 20314.00
793.7730, 20559.00
794.9160, 20841.00
796.0590, 21127.00
797.2010, 21046.00
798.3430, 21055.00
799.4850, 21192.00
800.6270, 21320.00
801.7690, 21252.00
802.9100, 21388.00
804.0520, 21135.00
805.1930, 21089.00
806.3340, 20781.00
807.4750, 20600.00
808.6160, 20378.00
809.7560, 20275.00
810.8970, 20369.00
812.0370, 20176.00
813.1770, 19791.00
814.3170, 19794.00
815.4570, 19459.00
816.5960, 19388.00
817.7360, 19138.00
818.8750, 19061.00
820.0140, 18961.00
821.1530, 18825.00
822.2920, 18860.00
823.4310, 18835.00
824.5690, 18487.00
825.7070, 18521.00
826.8460, 18497.00
827.9840, 18349.00
829.1220, 18404.00
830.2590, 18336.00
831.3970, 18147.00
832.5340, 18253.00
833.6710, 18039.00
834.8080, 17955.00
835.9450, 17858.00
837.0820, 17958.00
838.2190, 17830.00
839.3550, 17919.00
840.4910, 17839.00
841.6270, 17798.00
842.7630, 17772.00
843.8990, 17713.00
845.0350, 17652.90
846.1700, 17560.00
847.3060, 17541.00
848.4410, 17562.00
849.5760, 17581.00
850.7100, 17427.00
851.8450, 17609.00
852.9800, 17436.00
854.1140, 17560.00
855.2480, 17605.00
856.3820, 17322.00
857.5160, 17448.00
858.6500, 17390.00
859.7830, 17544.00
860.9170, 17553.00
862.0500, 17401.00
863.1830, 17546.00
864.3160, 17512.00
865.4480, 17534.85
866.5810, 17550.65
867.7130, 17596.00
868.8460, 17547.00
869.9780, 17529.00
871.1100, 17590.00
872.2410, 17386.00
873.3730, 17482.00
874.5050, 17426.00
875.6360, 17380.00
876.7670, 17448.00
877.8980, 17455.73
879.0290, 17546.00
880.1590, 17563.00
881.2900, 17622.00
882.4200, 17648.00
883.5500, 17480.00
884.6800, 17407.00
885.8100, 17455.00
886.9400, 17597.00
888.0690, 17621.00
889.1990, 17777.00
890.3280, 17633.00
891.4570, 17480.00
892.5860, 17430.00
893.7140, 17749.00
894.8430, 17710.00
895.9710, 17633.00
897.1000, 17797.00
898.2280, 17768.00
899.3560, 17795.00
900.4830, 17866.00
901.6110, 17772.00
902.7380, 17836.00
903.8660, 17995.00
904.9930, 17952.00
906.1200, 18063.00
907.2460, 17810.00
908.3730, 18082.00
909.5000, 18039.00
910.6260, 18285.00
911.7520, 17986.00
912.8780, 18088.00
914.0040, 18071.00
915.1290, 18406.00
916.2550, 18203.00
917.3800, 18464.00
918.5050, 18261.00
919.6300, 18614.00
920.7550, 18665.00
921.8800, 18612.00
923.0040, 18588.00
924.1290, 18534.00
925.2530, 18878.00
926.3770, 18818.00
927.5010, 18965.00
928.6250, 19061.00
929.7480, 19168.00
930.8720, 19394.00
931.9950, 19602.00
933.1180, 19673.00
934.2410, 19959.00
935.3640, 20022.00
936.4860, 20336.00
937.6090, 20731.00
938.7310, 20836.00
939.8530, 21303.00
940.9750, 21463.00
942.0970, 21715.00
943.2180, 22195.00
944.3400, 22741.00
945.4610, 22709.00
946.5820, 22918.00
947.7030, 23109.00
948.8240, 23553.00
949.9450, 23631.00
951.0650, 23904.00
952.1860, 23932.00
953.3060, 23902.00
954.4260, 24228.00
955.5460, 24008.00
956.6650, 24133.00
957.7850, 24560.00
958.9040, 24472.00
960.0230, 24786.00
961.1420, 25225.00
962.2610, 25701.00
963.3800, 26090.00
964.4990, 26602.00
965.6170, 27322.00
966.7350, 27827.00
967.8530, 28655.00
968.9710, 29647.00
970.0890, 30335.00
971.2070, 31398.00
972.3240, 32470.00
973.4410, 33362.00
974.5580, 34419.00
975.6750, 35573.00
976.7920, 37030.00
977.9090, 38597.00
979.0250, 40493.00
980.1410, 42948.00
981.2580, 45738.00
982.3740, 49122.00
983.4890, 52496.00
984.6050, 55276.00
985.7200, 57955.00
986.8360, 59666.00
987.9510, 59407.00
989.0660, 58251.00
990.1810, 56504.00
991.2950, 52864.00
992.4100, 49307.00
993.5240, 45670.00
994.6390, 42863.00
995.7530, 40347.00
996.8660, 38459.00
997.9800, 37118.00
999.0940, 36599.00
1000.207, 35807.00
1001.320, 35668.00
1002.433, 35476.00
1003.546, 36278.00
1004.659, 36971.00
1005.772, 37715.00
1006.884, 39400.00
1007.996, 40884.00
1009.108, 43363.00
1010.220, 46059.00
1011.332, 49320.00
1012.444, 52850.00
1013.555, 55908.00
1014.666, 59504.00
1015.777, 61984.00
1016.888, 63721.00
1017.999, 64927.00
1019.110, 64208.00
1020.220, 63226.00
1021.331, 61836.00
1022.441, 60256.00
1023.551, 56661.00
1024.661, 54094.00
1025.770, 51509.00
1026.880, 49165.00
1027.989, 47306.00
1029.098, 45808.00
1030.207, 44144.00
1031.316, 43409.00
1032.425, 42205.00
1033.533, 41961.00
1034.642, 41274.00
1035.750, 40946.00
1036.858, 40774.00
1037.966, 40640.00
1039.073, 40359.00
1040.181, 40232.00
1041.288, 39764.00
1042.396, 39326.00
1043.503, 39359.00
1044.610, 38424.00
1045.716, 38264.00
1046.823, 37815.00
1047.929, 37441.00
1049.036, 37055.00
1050.142, 36924.00
1051.248, 36834.00
1052.353, 36881.00
1053.459, 37025.00
1054.564, 37371.00
1055.670, 37480.00
1056.775, 38198.00
1057.880, 38287.00
1058.985, 38491.00
1060.089, 38871.00
1061.194, 38699.00
1062.298, 38228.00
1063.402, 37693.00
1064.506, 37340.00
1065.610, 36426.00
1066.713, 35659.00
1067.817, 34883.00
1068.920, 34055.00
1070.023, 33372.00
1071.126, 32753.00
1072.229, 31894.00
1073.332, 31351.00
1074.435, 30947.00
1075.537, 30454.00
1076.639, 30162.00
1077.741, 29518.00
1078.843, 29171.00
1079.945, 28684.00
1081.046, 28248.00
1082.148, 27668.00
1083.249, 27185.00
1084.350, 26728.00
1085.451, 26077.00
1086.551, 25660.00
1087.652, 25129.54
1088.752, 24417.00
1089.853, 24153.00
1090.953, 23777.00
1092.053, 23320.00
1093.152, 23071.00
1094.252, 22858.00
1095.351, 22612.00
1096.451, 22432.00
1097.550, 22116.00
1098.649, 21889.00
1099.748, 21916.00
1100.846, 21897.00
1101.945, 21549.00
1103.043, 21656.00
1104.141, 21740.00
1105.239, 21523.00
1106.337, 21679.00
1107.434, 21752.00
1108.532, 21782.00
1109.629, 21902.00
1110.726, 21974.00
1111.823, 22244.00
1112.920, 22426.00
1114.017, 22679.00
1115.113, 22732.00
1116.210, 23087.00
1117.306, 23211.21
1118.402, 23173.00
1119.498, 23476.00
1120.593, 23539.00
1121.689, 23465.00
1122.784, 23667.00
1123.879, 23615.00
1124.974, 23584.00
1126.069, 23623.00
1127.164, 23837.00
1128.259, 23508.00
1129.353, 23788.00
1130.447, 23361.00
1131.541, 23401.00
1132.635, 23485.00
1133.729, 23484.00
1134.822, 23534.00
1135.916, 23345.00
1137.009, 23454.00
1138.102, 23548.00
1139.195, 23752.00
1140.288, 23667.00
1141.380, 23859.00
1142.473, 24345.00
1143.565, 24213.00
1144.657, 24545.00
1145.749, 24469.00
1146.841, 24585.00
1147.932, 24428.00
1149.024, 24259.00
1150.115, 23827.00
1151.206, 23541.00
1152.297, 23293.00
1153.388, 23212.43
1154.479, 22765.00
1155.569, 23329.00
1156.659, 23717.00
1157.750, 24022.00
1158.839, 22338.00
1159.929, 22346.00
1161.019, 22215.00
1162.108, 22275.00
1163.198, 22259.00
1164.287, 22111.00
1165.376, 22068.00
1166.465, 22017.16
1167.553, 21967.60
1168.642, 21985.00
1169.730, 21893.00
1170.818, 21991.00
1171.906, 21882.00
1172.994, 21694.00
1174.082, 21710.00
1175.170, 21674.00
1176.257, 21554.00
1177.344, 21409.00
1178.431, 21295.00
1179.518, 21182.18
1180.605, 21024.00
1181.691, 20987.00
1182.778, 20944.00
1183.864, 20886.00
1184.950, 20918.00
1186.036, 20783.00
1187.122, 21049.00
1188.207, 21102.00
1189.292, 20913.00
1190.378, 20762.00
1191.463, 20929.00
1192.548, 20677.00
1193.632, 20821.00
1194.717, 20663.00
1195.801, 20847.00
1196.886, 20684.00
1197.970, 20896.00
1199.054, 20734.00
1200.137, 20882.00
1201.221, 20781.00
1202.305, 20731.00
1203.388, 20669.00
1204.471, 20810.00
1205.554, 20697.00
1206.637, 20747.00
1207.719, 20850.00
1208.802, 20827.00
1209.884, 20791.00
1210.966, 20751.00
1212.048, 20764.00
1213.130, 20817.00
1214.212, 20693.00
1215.293, 20806.00
1216.374, 20720.00
1217.456, 20783.00
1218.536, 20733.00
1219.617, 20641.00
1220.698, 20785.00
1221.778, 20767.00
1222.859, 20715.00
1223.939, 20771.00
1225.019, 20913.00
1226.099, 20901.00
1227.178, 20872.00
1228.258, 20957.21
1229.337, 20809.00
1230.417, 20971.00
1231.496, 20933.00
1232.574, 20792.00
1233.653, 20838.00
1234.732, 20715.00
1235.810, 20786.00
1236.888, 21074.00
1237.966, 21009.00
1239.044, 21102.00
1240.122, 21021.00
1241.199, 20848.00
1242.277, 20922.00
1243.354, 20928.00
1244.431, 20918.00
1245.508, 20798.00
1246.585, 20865.00
1247.661, 21019.00
1248.738, 20949.00
1249.814, 21069.00
1250.890, 21080.00
1251.966, 20905.00
1253.042, 20853.00
1254.117, 20941.00
1255.193, 20859.00
1256.268, 20891.96
1257.343, 20987.00
1258.418, 20927.00
1259.493, 20952.00
1260.567, 21004.00
1261.642, 21027.00
1262.716, 21026.23
