##NAMES=Brazilianite
##RRUFFID=R050319
##IDEAL CHEMISTRY=NaAl_3_(PO_4_)_2_(OH)_4_
##LOCALITY=Minas Gerais, Brazil
##OWNER=RRUFF
##SOURCE=American Museum of Natural History
##DESCRIPTION=Pale green fragment
##STATUS=The identification of this mineral has been confirmed by X-ray diffraction and chemical analysis
##URL=rruff.info/R050319
##MEASURED CHEMISTRY=Na_1.00_Al_3.00_(PO_4_)_2_(OH)_4_
##PIN_ID=M00183
##ORIENTATION=Laser parallel to a* (1 0 0). Fiducial mark perpendicular to laser is parallel to -b [0 -1 0]
86.07200, 4489.000
87.30800, 4691.396
88.54200, 4950.000
89.77700, 4993.000
91.01200, 5090.000
92.24600, 5167.000
93.48000, 5025.000
94.71400, 5239.000
95.94800, 5132.000
97.18200, 5208.000
98.41600, 5288.000
99.64900, 5353.000
100.8830, 5379.000
102.1160, 5473.000
103.3490, 5660.000
104.5820, 5701.000
105.8150, 5902.000
107.0470, 6113.000
108.2800, 6142.792
109.5120, 6251.865
110.7440, 6241.000
111.9760, 6302.000
113.2080, 6282.000
114.4400, 6271.000
115.6710, 6320.000
116.9030, 6267.000
118.1340, 6306.000
119.3650, 6259.000
120.5960, 6147.000
121.8270, 6216.000
123.0580, 6222.041
124.2880, 6236.000
125.5190, 6356.000
126.7490, 6459.000
127.9790, 6532.000
129.2090, 6398.000
130.4390, 6558.000
131.6680, 6445.000
132.8980, 6432.000
134.1270, 6606.000
135.3560, 6610.000
136.5850, 6734.000
137.8140, 7034.000
139.0430, 7111.396
140.2710, 7439.000
141.5000, 7457.000
142.7280, 7605.000
143.9560, 7759.000
145.1840, 7759.000
146.4120, 7797.000
147.6390, 7643.000
148.8670, 7717.000
150.0940, 7466.000
151.3210, 7428.000
152.5490, 7252.000
153.7750, 7380.000
155.0020, 7296.000
156.2290, 7300.000
157.4550, 7455.000
158.6810, 7842.000
159.9080, 8467.000
161.1340, 9363.000
162.3590, 10870.00
163.5850, 12423.00
164.8110, 13667.00
166.0360, 14412.00
167.2610, 15327.00
168.4860, 16917.00
169.7110, 18455.00
170.9360, 18950.00
172.1610, 18310.00
173.3850, 17196.00
174.6100, 15848.00
175.8340, 14183.00
177.0580, 12318.00
178.2820, 10748.00
179.5050, 9690.000
180.7290, 8822.000
181.9520, 8457.000
183.1760, 8210.000
184.3990, 7945.000
185.6220, 7906.000
186.8450, 7796.000
188.0670, 7806.000
189.2900, 7675.000
190.5120, 7717.000
191.7340, 7677.000
192.9560, 7619.000
194.1780, 7679.000
195.4000, 7582.000
196.6220, 7610.000
197.8430, 7625.000
199.0640, 7594.000
200.2860, 7607.000
201.5070, 7705.000
202.7270, 7607.000
203.9480, 7597.000
205.1690, 7547.000
206.3890, 7628.995
207.6090, 7558.000
208.8290, 7924.000
210.0490, 7950.000
211.2690, 8259.000
212.4890, 8310.000
213.7080, 8663.000
214.9280, 8760.000
216.1470, 8999.000
217.3660, 9113.000
218.5850, 9094.000
219.8030, 8965.000
221.0220, 8876.000
222.2400, 8572.000
223.4590, 8408.000
224.6770, 8217.000
225.8950, 8047.000
227.1120, 7964.000
228.3300, 7893.364
229.5480, 7898.671
230.7650, 7912.000
231.9820, 8059.000
233.1990, 8203.000
234.4160, 8420.000
235.6330, 8563.000
236.8490, 8703.000
238.0660, 8949.000
239.2820, 9393.000
240.4980, 9898.000
241.7140, 10558.00
242.9300, 11604.00
244.1460, 12451.00
245.3610, 12978.00
246.5770, 13408.00
247.7920, 13604.00
249.0070, 14327.00
250.2220, 14998.00
251.4370, 14909.00
252.6510, 14225.00
253.8660, 13421.00
255.0800, 12481.00
256.2940, 11377.00
257.5080, 10366.00
258.7220, 9403.000
259.9360, 9077.000
261.1490, 8582.000
262.3630, 8316.000
263.5760, 8375.000
264.7890, 8453.000
266.0020, 8510.000
267.2150, 8659.429
268.4270, 8949.000
269.6400, 9039.000
270.8520, 9160.000
272.0640, 9487.000
273.2760, 9579.000
274.4880, 9608.000
275.7000, 9612.775
276.9120, 9332.000
278.1230, 9292.000
279.3340, 9091.000
280.5450, 8698.000
281.7560, 8549.000
282.9670, 8274.000
284.1780, 8226.000
285.3880, 8013.000
286.5980, 8089.000
287.8090, 7965.000
289.0190, 7920.000
290.2290, 7960.000
291.4380, 8134.000
292.6480, 8096.000
293.8570, 8140.000
295.0670, 8220.000
296.2760, 8152.000
297.4850, 8273.000
298.6930, 8153.000
299.9020, 8231.000
301.1110, 8206.000
302.3190, 8485.000
303.5270, 8523.000
304.7350, 8688.000
305.9430, 8890.000
307.1510, 9072.000
308.3580, 9305.000
309.5660, 9612.000
310.7730, 9498.000
311.9800, 9679.000
313.1870, 9644.000
314.3940, 9583.000
315.6010, 9330.000
316.8070, 9136.000
318.0130, 8903.000
319.2200, 8832.000
320.4260, 8639.000
321.6310, 8583.000
322.8370, 8493.000
324.0430, 8456.000
325.2480, 8637.000
326.4540, 8464.000
327.6590, 8576.000
328.8640, 8546.000
330.0680, 8585.000
331.2730, 8728.000
332.4780, 8615.000
333.6820, 8699.000
334.8860, 8679.000
336.0900, 8780.000
337.2940, 8730.000
338.4980, 8847.000
339.7010, 8724.000
340.9050, 8967.000
342.1080, 8945.000
343.3110, 8878.000
344.5140, 9048.000
345.7170, 9177.000
346.9200, 9228.000
348.1220, 9594.000
349.3240, 9659.000
350.5270, 9848.000
351.7290, 10055.00
352.9310, 10281.00
354.1320, 10344.00
355.3340, 10339.00
356.5350, 10432.00
357.7370, 10160.00
358.9380, 10039.00
360.1390, 9774.000
361.3400, 9397.000
362.5400, 9121.000
363.7410, 9013.000
364.9410, 8870.000
366.1410, 8715.000
367.3410, 8589.000
368.5410, 8523.000
369.7410, 8479.000
370.9400, 8440.000
372.1400, 8572.000
373.3390, 8510.000
374.5380, 8525.000
375.7370, 8621.000
376.9360, 8626.000
378.1350, 8596.000
379.3330, 8584.000
380.5310, 8504.000
381.7300, 8420.000
382.9280, 8492.000
384.1260, 8527.000
385.3230, 8415.000
386.5210, 8451.000
387.7180, 8559.000
388.9160, 8532.000
390.1130, 8603.000
391.3100, 8700.000
392.5060, 8636.000
393.7030, 8663.000
394.9000, 8861.000
396.0960, 8902.000
397.2920, 8919.000
398.4880, 9099.000
399.6840, 9274.000
400.8800, 9359.000
402.0750, 9677.000
403.2710, 9869.000
404.4660, 10211.00
405.6610, 10401.00
406.8560, 10847.00
408.0510, 11000.00
409.2450, 11230.00
410.4400, 11314.00
411.6340, 11394.14
412.8280, 11532.00
414.0220, 11446.00
415.2160, 11379.00
416.4100, 11367.00
417.6030, 11399.00
418.7970, 11350.00
419.9900, 11195.00
421.1830, 11154.00
422.3760, 11368.00
423.5690, 11542.00
424.7610, 11911.00
425.9540, 12153.00
427.1460, 12790.00
428.3380, 13325.00
429.5300, 14076.00
430.7220, 15147.00
431.9140, 15978.00
433.1050, 16970.00
434.2970, 17724.00
435.4880, 18798.00
436.6790, 19366.00
437.8700, 19461.00
439.0610, 19457.00
440.2510, 19184.00
441.4420, 18349.00
442.6320, 17384.00
443.8220, 16728.00
445.0120, 16091.00
446.2020, 15479.00
447.3910, 15060.00
448.5810, 15060.00
449.7700, 15138.00
450.9600, 15432.00
452.1490, 15992.00
453.3370, 16473.00
454.5260, 17313.00
455.7150, 18077.00
456.9030, 18671.00
458.0910, 19882.00
459.2800, 20420.00
460.4670, 21064.00
461.6550, 21490.00
462.8430, 21907.00
464.0300, 21986.00
465.2180, 21776.00
466.4050, 20964.00
467.5920, 20093.00
468.7790, 19010.00
469.9650, 17738.00
471.1520, 16484.00
472.3380, 15399.00
473.5250, 14293.00
474.7110, 13546.72
475.8970, 12964.00
477.0820, 12382.00
478.2680, 12070.00
479.4540, 11827.00
480.6390, 11635.27
481.8240, 11670.00
483.0090, 11569.00
484.1940, 11661.00
485.3780, 11760.00
486.5630, 11860.00
487.7470, 11921.00
488.9320, 12027.00
490.1160, 12411.00
491.3000, 12484.00
492.4830, 12841.00
493.6670, 13085.00
494.8500, 13414.00
496.0340, 13799.00
497.2170, 13954.00
498.4000, 14352.00
499.5820, 14570.00
500.7650, 14892.00
501.9480, 15001.00
503.1300, 15049.00
504.3120, 15090.00
505.4940, 15258.00
506.6760, 15438.00
507.8580, 15393.00
509.0390, 15517.00
510.2210, 15875.00
511.4020, 15962.00
512.5830, 16100.00
513.7640, 16393.00
514.9450, 16394.00
516.1250, 16576.00
517.3060, 16732.00
518.4860, 16947.00
519.6660, 17102.00
520.8460, 17424.00
522.0260, 17510.00
523.2060, 18095.00
524.3850, 18265.00
525.5650, 18643.00
526.7440, 19096.00
527.9230, 19466.00
529.1020, 19656.00
530.2810, 20025.00
531.4590, 20439.00
532.6380, 20521.00
533.8160, 20438.00
534.9940, 20362.00
536.1720, 20214.00
537.3500, 20192.00
538.5270, 19863.00
539.7050, 19639.00
540.8820, 19714.00
542.0590, 19433.00
543.2360, 19453.00
544.4130, 19732.00
545.5900, 19883.00
546.7660, 20492.00
547.9430, 20985.00
549.1190, 22007.00
550.2950, 22951.00
551.4710, 24267.00
552.6470, 25703.00
553.8220, 26927.00
554.9980, 28635.00
556.1730, 29980.00
557.3480, 31065.00
558.5230, 32276.00
559.6980, 32549.00
560.8730, 33141.00
562.0470, 33101.00
563.2220, 32864.00
564.3960, 31971.00
565.5700, 30939.00
566.7440, 29788.00
567.9170, 27986.00
569.0910, 26601.00
570.2640, 24685.00
571.4380, 22962.00
572.6110, 21486.00
573.7840, 20200.00
574.9570, 19087.00
576.1290, 18130.00
577.3020, 17172.00
578.4740, 16687.00
579.6460, 15958.00
580.8180, 15421.00
581.9900, 15293.00
583.1620, 15017.00
584.3330, 14736.00
585.5040, 14728.00
586.6760, 14456.00
587.8470, 14509.00
589.0180, 14398.00
590.1880, 14383.00
591.3590, 14608.00
592.5290, 14984.00
593.7000, 15205.00
594.8700, 15686.00
596.0400, 15922.00
597.2090, 16274.00
598.3790, 16489.00
599.5490, 16916.00
600.7180, 16921.00
601.8870, 17187.00
603.0560, 17290.00
604.2250, 17308.00
605.3940, 17580.00
606.5620, 17911.00
607.7300, 18377.00
608.8990, 18524.00
610.0670, 18852.00
611.2350, 18983.00
612.4020, 19062.00
613.5700, 19014.00
614.7370, 18859.00
615.9050, 18459.00
617.0720, 17670.00
618.2390, 17218.00
619.4060, 16634.00
620.5720, 16087.00
621.7390, 15925.00
622.9050, 15551.00
624.0710, 15692.00
625.2370, 15761.00
626.4030, 15939.00
627.5690, 16062.00
628.7340, 16178.00
629.9000, 16456.00
631.0650, 16661.00
632.2300, 16649.00
633.3950, 16539.00
634.5600, 16408.00
635.7240, 16095.00
636.8890, 15651.00
638.0530, 15391.00
639.2170, 14762.00
640.3810, 14268.00
641.5450, 13734.00
642.7080, 13451.00
643.8720, 13105.00
645.0350, 13007.00
646.1980, 12617.00
647.3610, 12444.00
648.5240, 12286.00
649.6870, 11917.00
650.8490, 11948.00
652.0120, 11926.00
653.1740, 11758.00
654.3360, 11757.00
655.4980, 11603.00
656.6600, 11679.00
657.8210, 11535.00
658.9830, 11465.00
660.1440, 11477.00
661.3050, 11546.00
662.4660, 11354.00
663.6270, 11419.00
664.7870, 11293.00
665.9480, 11246.00
667.1080, 11194.00
668.2680, 11307.00
669.4280, 11259.00
670.5880, 11268.00
671.7480, 11312.00
672.9070, 11236.00
674.0670, 11190.00
675.2260, 11108.00
676.3850, 11208.00
677.5440, 11260.00
678.7030, 11153.00
679.8610, 11086.00
681.0200, 11076.00
682.1780, 10908.00
683.3360, 11066.00
684.4940, 11024.00
685.6520, 11035.00
686.8090, 10852.00
687.9670, 10985.00
689.1240, 11041.00
690.2810, 10833.00
691.4380, 10806.00
692.5950, 10711.00
693.7520, 10933.00
694.9080, 10760.00
696.0650, 10797.00
697.2210, 10727.00
698.3770, 10766.00
699.5330, 10707.00
700.6880, 10768.00
701.8440, 10935.00
702.9990, 10852.00
704.1550, 10803.00
705.3100, 10855.00
706.4650, 11038.00
707.6190, 11185.00
708.7740, 11343.00
709.9290, 11439.00
711.0830, 11523.00
712.2370, 11709.00
713.3910, 11860.00
714.5450, 11930.00
715.6980, 12065.00
716.8520, 12230.00
718.0050, 12382.00
719.1580, 12431.00
720.3110, 12528.00
721.4640, 12481.66
722.6170, 12339.00
723.7700, 12335.00
724.9220, 12228.00
726.0740, 12159.00
727.2260, 12044.00
728.3780, 11991.00
729.5300, 11921.00
730.6810, 11939.00
731.8330, 11795.00
732.9840, 11823.00
734.1350, 11853.00
735.2860, 11740.00
736.4370, 11763.00
737.5880, 11642.00
738.7380, 11659.00
739.8880, 11725.00
741.0390, 11620.00
742.1890, 11533.00
743.3380, 11617.00
744.4880, 11415.00
745.6380, 11619.00
746.7870, 11530.00
747.9360, 11439.00
749.0850, 11477.00
750.2340, 11409.91
751.3830, 11402.65
752.5310, 11397.00
753.6800, 11372.00
754.8280, 11410.00
755.9760, 11371.00
757.1240, 11410.00
758.2720, 11341.00
759.4190, 11415.00
760.5670, 11297.00
761.7140, 11385.00
762.8610, 11341.00
764.0080, 11379.00
765.1550, 11511.00
766.3020, 11355.00
767.4480, 11351.00
768.5950, 11533.00
769.7410, 11293.00
770.8870, 11225.00
772.0330, 11298.00
773.1780, 11337.00
774.3240, 11382.00
775.4690, 11383.00
776.6140, 11328.00
777.7590, 11458.00
778.9040, 11189.00
780.0490, 11305.00
781.1940, 11244.00
782.3380, 11302.00
783.4820, 11335.00
784.6260, 11248.00
785.7700, 11365.00
786.9140, 11288.00
788.0580, 11249.00
789.2010, 11291.00
790.3450, 11327.00
791.4880, 11184.00
792.6310, 11436.00
793.7730, 11311.00
794.9160, 11387.00
796.0590, 11240.00
797.2010, 11489.00
798.3430, 11386.00
799.4850, 11255.00
800.6270, 11316.00
801.7690, 11255.00
802.9100, 11255.00
804.0520, 11315.00
805.1930, 11286.00
806.3340, 11491.00
807.4750, 11396.00
808.6160, 11495.00
809.7560, 11358.00
810.8970, 11369.00
812.0370, 11354.00
813.1770, 11361.00
814.3170, 11402.00
815.4570, 11415.59
816.5960, 11503.00
817.7360, 11486.00
818.8750, 11474.00
820.0140, 11509.00
821.1530, 11437.00
822.2920, 11599.00
823.4310, 11602.00
824.5690, 11616.00
825.7070, 11564.00
826.8460, 11598.45
827.9840, 11617.00
829.1220, 11623.00
830.2590, 11603.00
831.3970, 11595.00
832.5340, 11606.00
833.6710, 11609.00
834.8080, 11709.00
835.9450, 11657.00
837.0820, 11733.00
838.2190, 11743.00
839.3550, 11708.00
840.4910, 11616.00
841.6270, 11742.00
842.7630, 11706.00
843.8990, 11677.00
845.0350, 11703.00
846.1700, 11737.00
847.3060, 11764.00
848.4410, 11832.00
849.5760, 11825.85
850.7100, 11754.00
851.8450, 11832.00
852.9800, 11804.00
854.1140, 11807.00
855.2480, 11877.00
856.3820, 11886.00
857.5160, 11831.00
858.6500, 11901.00
859.7830, 11908.09
860.9170, 12045.00
862.0500, 11959.00
863.1830, 12050.00
864.3160, 12018.00
865.4480, 12053.00
866.5810, 11875.00
867.7130, 12019.00
868.8460, 12013.00
869.9780, 12089.00
871.1100, 12155.00
872.2410, 11906.00
873.3730, 12046.00
874.5050, 11980.00
875.6360, 12067.00
876.7670, 12144.00
877.8980, 12017.00
879.0290, 11951.00
880.1590, 12065.00
881.2900, 11965.00
882.4200, 12088.00
883.5500, 12112.00
884.6800, 12120.00
885.8100, 12123.00
886.9400, 12119.00
888.0690, 12185.00
889.1990, 12139.00
890.3280, 12115.00
891.4570, 12126.00
892.5860, 12253.00
893.7140, 12265.00
894.8430, 12303.00
895.9710, 12196.00
897.1000, 12116.00
898.2280, 12349.00
899.3560, 12497.00
900.4830, 12442.35
901.6110, 12315.00
902.7380, 12462.00
903.8660, 12269.00
904.9930, 12384.00
906.1200, 12399.00
907.2460, 12485.00
908.3730, 12400.00
909.5000, 12443.00
910.6260, 12499.00
911.7520, 12615.00
912.8780, 12543.00
914.0040, 12528.00
915.1290, 12621.00
916.2550, 12588.00
917.3800, 12735.00
918.5050, 12755.00
919.6300, 12846.00
920.7550, 12909.00
921.8800, 12834.00
923.0040, 12804.00
924.1290, 12901.00
925.2530, 12804.00
926.3770, 13005.00
927.5010, 12829.00
928.6250, 13013.00
929.7480, 13108.00
930.8720, 13336.00
931.9950, 13204.00
933.1180, 13302.00
934.2410, 13320.00
935.3640, 13398.00
936.4860, 13430.00
937.6090, 13554.00
938.7310, 13559.00
939.8530, 13690.00
940.9750, 13892.00
942.0970, 13843.00
943.2180, 14139.00
944.3400, 14122.00
945.4610, 14355.00
946.5820, 14323.00
947.7030, 14542.00
948.8240, 14734.00
949.9450, 14910.00
951.0650, 15271.00
952.1860, 15463.92
953.3060, 15755.00
954.4260, 16028.00
955.5460, 16355.00
956.6650, 16745.00
957.7850, 17120.00
958.9040, 17610.00
960.0230, 18423.00
961.1420, 19354.00
962.2610, 20225.00
963.3800, 21200.00
964.4990, 22323.00
965.6170, 23677.00
966.7350, 24996.00
967.8530, 26246.00
968.9710, 27476.00
970.0890, 28614.00
971.2070, 29111.00
972.3240, 29162.00
973.4410, 29412.00
974.5580, 29104.00
975.6750, 28153.00
976.7920, 27304.00
977.9090, 26388.00
979.0250, 25926.00
980.1410, 25328.00
981.2580, 24942.00
982.3740, 24650.00
983.4890, 24670.00
984.6050, 24434.00
985.7200, 24449.00
986.8360, 24224.00
987.9510, 24039.00
989.0660, 23616.00
990.1810, 23003.00
991.2950, 22474.00
992.4100, 22081.00
993.5240, 21402.00
994.6390, 21465.00
995.7530, 21443.00
996.8660, 20902.00
997.9800, 21038.00
999.0940, 21141.00
1000.207, 21455.00
1001.320, 21996.00
1002.433, 22630.16
1003.546, 23590.00
1004.659, 24509.00
1005.772, 25881.00
1006.884, 27339.00
1007.996, 29117.00
1009.108, 31459.00
1010.220, 34333.00
1011.332, 37141.00
1012.444, 40920.00
1013.555, 44205.00
1014.666, 47603.00
1015.777, 50603.00
1016.888, 53037.00
1017.999, 54420.00
1019.110, 55107.00
1020.220, 55155.00
1021.331, 53920.00
1022.441, 52082.00
1023.551, 50286.00
1024.661, 48306.00
1025.770, 46587.00
1026.880, 44644.00
1027.989, 42955.00
1029.098, 41656.00
1030.207, 40381.00
1031.316, 39412.00
1032.425, 38437.00
1033.533, 37865.00
1034.642, 37099.00
1035.750, 36473.00
1036.858, 36294.00
1037.966, 35482.00
1039.073, 34845.00
1040.181, 33877.00
1041.288, 33029.54
1042.396, 32050.00
1043.503, 31077.00
1044.610, 30034.00
1045.716, 28886.00
1046.823, 27808.00
1047.929, 26567.00
1049.036, 25511.00
1050.142, 24752.00
1051.248, 23977.00
1052.353, 23182.00
1053.459, 22593.26
1054.564, 22038.00
1055.670, 21559.00
1056.775, 21051.00
1057.880, 20800.00
1058.985, 20536.00
1060.089, 20369.00
1061.194, 20109.00
1062.298, 19940.01
1063.402, 19835.00
1064.506, 19594.00
1065.610, 19497.00
1066.713, 19323.00
1067.817, 19130.35
1068.920, 19042.00
1070.023, 18730.00
1071.126, 18534.00
1072.229, 18269.00
1073.332, 17898.00
1074.435, 17499.00
1075.537, 17311.00
1076.639, 17181.00
1077.741, 16759.00
1078.843, 16781.00
1079.945, 16484.00
1081.046, 16381.00
1082.148, 16276.00
1083.249, 16160.00
1084.350, 16059.00
1085.451, 15658.00
1086.551, 15739.00
1087.652, 15483.00
1088.752, 15526.00
1089.853, 15269.00
1090.953, 15263.00
1092.053, 15243.00
1093.152, 15028.00
1094.252, 15137.00
1095.351, 15062.00
1096.451, 14968.00
1097.550, 14936.00
1098.649, 14954.99
1099.748, 14937.12
1100.846, 15042.00
1101.945, 15032.00
1103.043, 15043.00
1104.141, 15192.07
1105.239, 15420.00
1106.337, 15658.00
1107.434, 16004.00
1108.532, 16376.00
1109.629, 16732.00
1110.726, 17026.00
1111.823, 17624.00
1112.920, 18112.00
1114.017, 18305.00
1115.113, 18433.00
1116.210, 18631.00
1117.306, 18327.00
1118.402, 18261.00
1119.498, 18037.00
1120.593, 17690.00
1121.689, 17341.00
1122.784, 17118.00
1123.879, 16824.00
1124.974, 16501.00
1126.069, 16366.00
1127.164, 16029.00
1128.259, 15648.00
1129.353, 15623.00
1130.447, 15359.00
1131.541, 15339.00
1132.635, 15066.00
1133.729, 15200.00
1134.822, 15204.00
1135.916, 15104.00
1137.009, 15089.00
1138.102, 15140.74
1139.195, 15215.28
1140.288, 15361.00
1141.380, 15527.00
1142.473, 15827.00
1143.565, 16069.00
1144.657, 16312.00
1145.749, 16405.00
1146.841, 16641.00
1147.932, 16486.00
1149.024, 16357.00
1150.115, 16300.00
1151.206, 15955.00
1152.297, 15691.00
1153.388, 15578.00
1154.479, 15202.00
1155.569, 15119.00
1156.659, 14977.00
1157.750, 14949.00
1158.839, 14854.00
1159.929, 14808.00
1161.019, 14755.00
1162.108, 14717.66
1163.198, 14752.00
1164.287, 14725.00
1165.376, 14753.00
1166.465, 14741.06
1167.553, 14715.00
1168.642, 14706.00
1169.730, 14746.00
1170.818, 14701.00
1171.906, 14509.00
1172.994, 14540.00
1174.082, 14471.00
1175.170, 14635.00
1176.257, 14498.00
1177.344, 14371.00
1178.431, 14493.00
1179.518, 14395.00
1180.605, 14403.00
1181.691, 14490.00
1182.778, 14205.00
1183.864, 14370.00
1184.950, 14298.00
1186.036, 14304.00
1187.122, 14325.00
1188.207, 14368.00
1189.292, 14373.00
1190.378, 14331.00
1191.463, 14380.00
1192.548, 14289.00
1193.632, 14347.00
1194.717, 14427.00
1195.801, 14365.00
1196.886, 14474.00
1197.970, 14459.00
1199.054, 14452.00
1200.137, 14304.00
1201.221, 14380.00
1202.305, 14313.00
1203.388, 14388.00
1204.471, 14352.00
1205.554, 14357.00
1206.637, 14340.00
1207.719, 14358.00
1208.802, 14542.00
1209.884, 14288.00
1210.966, 14385.00
1212.048, 14297.00
1213.130, 14452.00
1214.212, 14462.00
1215.293, 14416.00
1216.374, 14592.00
1217.456, 14450.00
1218.536, 14482.00
1219.617, 14501.00
1220.698, 14477.00
1221.778, 14413.00
1222.859, 14351.00
1223.939, 14461.00
1225.019, 14407.00
1226.099, 14448.00
1227.178, 14510.00
1228.258, 14505.00
1229.337, 14511.00
1230.417, 14515.55
1231.496, 14566.00
1232.574, 14470.00
1233.653, 14514.00
1234.732, 14452.00
1235.810, 14422.43
1236.888, 14450.01
1237.966, 14363.00
1239.044, 14478.00
1240.122, 14468.00
1241.199, 14473.00
1242.277, 14621.00
1243.354, 14491.00
1244.431, 14553.00
1245.508, 14573.00
1246.585, 14450.00
1247.661, 14510.00
1248.738, 14568.00
1249.814, 14646.00
1250.890, 14592.00
1251.966, 14572.00
1253.042, 14625.00
1254.117, 14754.00
1255.193, 14521.00
1256.268, 14628.00
1257.343, 14660.00
1258.418, 14585.00
1259.493, 14747.00
1260.567, 14515.00
1261.642, 14646.00
1262.716, 14617.00
1263.790, 14580.00
1264.864, 14750.00
1265.938, 14596.00
1267.011, 14723.00
1268.085, 14770.00
1269.158, 14739.00
