##NAMES=Brazilianite
##RRUFFID=R050504
##IDEAL CHEMISTRY=NaAl_3_(PO_4_)_2_(OH)_4_
##LOCALITY=CÃ³rrego Frio, Minas Gerais, Brazil
##OWNER=RRUFF
##SOURCE=Marcus Origlieri
##DESCRIPTION=Yellowish green fragment
##STATUS=The identification of this mineral has been confirmed by X-ray diffraction and chemical analysis
##URL=rruff.info/R050504
##MEASURED CHEMISTRY=Na_1.00_Al_3.00_(P_1.00_O_4_)_2_(OH)_4_
##PIN_ID=L00677
##ORIENTATION=Laser parallel to -c* (0 0 -1). Fiducial mark perpendicular to laser is parallel to a [1 0 0]
72.47700, 2230.000
73.71400, 2642.000
74.95100, 3098.000
76.18700, 3784.000
77.42300, 4579.000
78.65900, 5743.000
79.89500, 7192.000
81.13100, 8849.000
82.36700, 10742.00
83.60200, 12819.00
84.83700, 15442.00
86.07200, 18045.00
87.30800, 20912.00
88.54200, 23013.00
89.77700, 22413.00
91.01200, 18852.00
92.24600, 15386.00
93.48000, 12656.00
94.71400, 10547.00
95.94800, 9170.000
97.18200, 8582.000
98.41600, 8893.000
99.64900, 10608.00
100.8830, 13657.00
102.1160, 17583.00
103.3490, 22255.00
104.5820, 24399.00
105.8150, 22077.00
107.0470, 18953.00
108.2800, 16537.00
109.5120, 13890.00
110.7440, 12126.00
111.9760, 11586.00
113.2080, 12380.00
114.4400, 12920.00
115.6710, 11851.00
116.9030, 9958.000
118.1340, 8780.000
119.3650, 7399.000
120.5960, 6337.000
121.8270, 5597.000
123.0580, 5215.000
124.2880, 4969.000
125.5190, 4997.000
126.7490, 4776.000
127.9790, 4838.000
129.2090, 4756.000
130.4390, 4790.000
131.6680, 4857.000
132.8980, 4979.000
134.1270, 5064.000
135.3560, 5324.000
136.5850, 5654.000
137.8140, 6119.000
139.0430, 6573.000
140.2710, 7149.000
141.5000, 8017.000
142.7280, 9190.000
143.9560, 10373.00
145.1840, 11515.00
146.4120, 11843.00
147.6390, 11839.00
148.8670, 11256.00
150.0940, 10459.00
151.3210, 9530.000
152.5490, 8991.000
153.7750, 8468.000
155.0020, 8463.000
156.2290, 8684.000
157.4550, 9248.000
158.6810, 10205.00
159.9080, 11729.00
161.1340, 14143.00
162.3590, 17505.00
163.5850, 20697.00
164.8110, 22307.00
166.0360, 21393.00
167.2610, 19318.00
168.4860, 16911.00
169.7110, 14713.00
170.9360, 12844.00
172.1610, 11385.00
173.3850, 10089.00
174.6100, 9366.000
175.8340, 8799.000
177.0580, 8377.000
178.2820, 8170.000
179.5050, 8098.000
180.7290, 7844.000
181.9520, 7805.000
183.1760, 7998.000
184.3990, 8137.000
185.6220, 8185.000
186.8450, 8372.000
188.0670, 8411.000
189.2900, 8715.000
190.5120, 8962.000
191.7340, 9379.000
192.9560, 9660.000
194.1780, 9900.000
195.4000, 10196.00
196.6220, 10350.00
197.8430, 10141.00
199.0640, 9759.000
200.2860, 9073.000
201.5070, 8328.000
202.7270, 7754.000
203.9480, 7273.000
205.1690, 7091.000
206.3890, 7056.000
207.6090, 7157.000
208.8290, 7568.000
210.0490, 7922.000
211.2690, 8425.000
212.4890, 8724.000
213.7080, 9202.000
214.9280, 10097.00
216.1470, 10537.00
217.3660, 11412.00
218.5850, 11924.00
219.8030, 11658.00
221.0220, 11196.00
222.2400, 10610.00
223.4590, 10056.00
224.6770, 9624.000
225.8950, 9339.000
227.1120, 9505.000
228.3300, 9656.000
229.5480, 10047.00
230.7650, 10297.00
231.9820, 10493.00
233.1990, 10504.00
234.4160, 10742.00
235.6330, 10763.00
236.8490, 10910.00
238.0660, 11412.00
239.2820, 11776.00
240.4980, 12206.00
241.7140, 12474.00
242.9300, 12225.00
244.1460, 11500.00
245.3610, 10590.00
246.5770, 9632.000
247.7920, 8749.000
249.0070, 8118.000
250.2220, 7832.000
251.4370, 7804.000
252.6510, 7637.000
253.8660, 7383.000
255.0800, 7207.000
256.2940, 7040.000
257.5080, 6893.000
258.7220, 6984.000
259.9360, 6944.000
261.1490, 6940.000
262.3630, 6886.000
263.5760, 7044.000
264.7890, 7209.000
266.0020, 7030.000
267.2150, 7178.000
268.4270, 7056.000
269.6400, 6972.000
270.8520, 6739.000
272.0640, 6546.000
273.2760, 6655.000
274.4880, 6873.000
275.7000, 6913.000
276.9120, 7112.000
278.1230, 7096.000
279.3340, 7029.000
280.5450, 6809.000
281.7560, 6657.000
282.9670, 6751.000
284.1780, 6776.000
285.3880, 6860.000
286.5980, 6955.000
287.8090, 6964.000
289.0190, 6935.000
290.2290, 7038.000
291.4380, 7180.000
292.6480, 7225.000
293.8570, 7375.000
295.0670, 7477.000
296.2760, 7580.442
297.4850, 7692.000
298.6930, 7815.000
299.9020, 7895.000
301.1110, 8020.000
302.3190, 8191.000
303.5270, 8305.000
304.7350, 8358.000
305.9430, 8317.000
307.1510, 8451.000
308.3580, 8360.000
309.5660, 8552.000
310.7730, 8619.000
311.9800, 8849.000
313.1870, 9108.000
314.3940, 9471.000
315.6010, 9604.000
316.8070, 9859.000
318.0130, 10003.00
319.2200, 10139.00
320.4260, 9977.000
321.6310, 9894.000
322.8370, 9585.000
324.0430, 9108.000
325.2480, 8668.000
326.4540, 8031.000
327.6590, 7554.000
328.8640, 7199.000
330.0680, 6802.000
331.2730, 6357.000
332.4780, 6096.000
333.6820, 5938.000
334.8860, 5838.000
336.0900, 5700.000
337.2940, 5609.000
338.4980, 5672.000
339.7010, 5529.000
340.9050, 5681.000
342.1080, 5731.000
343.3110, 5785.000
344.5140, 5808.000
345.7170, 5954.000
346.9200, 6046.000
348.1220, 6105.000
349.3240, 6112.000
350.5270, 6171.000
351.7290, 6125.000
352.9310, 6304.000
354.1320, 6203.000
355.3340, 6323.000
356.5350, 6326.000
357.7370, 6221.000
358.9380, 6310.000
360.1390, 6277.000
361.3400, 6331.000
362.5400, 6418.000
363.7410, 6594.000
364.9410, 6992.000
366.1410, 7348.000
367.3410, 7832.000
368.5410, 8071.000
369.7410, 8325.000
370.9400, 8307.000
372.1400, 8181.000
373.3390, 8101.000
374.5380, 8044.000
375.7370, 7896.000
376.9360, 7936.000
378.1350, 7922.000
379.3330, 7989.000
380.5310, 7965.000
381.7300, 8010.000
382.9280, 8054.000
384.1260, 8152.000
385.3230, 8223.000
386.5210, 8323.000
387.7180, 8383.000
388.9160, 8621.000
390.1130, 8881.000
391.3100, 9090.000
392.5060, 9421.000
393.7030, 9685.000
394.9000, 10050.00
396.0960, 10416.00
397.2920, 10797.00
398.4880, 10972.00
399.6840, 11197.00
400.8800, 11393.00
402.0750, 11330.00
403.2710, 11262.97
404.4660, 11030.00
405.6610, 10769.00
406.8560, 10471.00
408.0510, 10040.00
409.2450, 9478.000
410.4400, 9107.000
411.6340, 8677.000
412.8280, 8367.000
414.0220, 8013.000
415.2160, 7689.000
416.4100, 7500.000
417.6030, 7315.000
418.7970, 7201.000
419.9900, 7082.000
421.1830, 7059.000
422.3760, 6966.000
423.5690, 7015.000
424.7610, 7013.000
425.9540, 7062.000
427.1460, 7368.000
428.3380, 7539.000
429.5300, 7769.000
430.7220, 7966.000
431.9140, 8384.000
433.1050, 8641.000
434.2970, 9120.000
435.4880, 9647.000
436.6790, 9958.000
437.8700, 10483.00
439.0610, 10640.00
440.2510, 10512.00
441.4420, 10411.00
442.6320, 10006.00
443.8220, 9879.000
445.0120, 9567.000
446.2020, 9444.000
447.3910, 9511.112
448.5810, 9527.000
449.7700, 9795.000
450.9600, 10292.00
452.1490, 10545.00
453.3370, 11282.00
454.5260, 11412.00
455.7150, 11713.00
456.9030, 11946.00
458.0910, 12155.00
459.2800, 12277.00
460.4670, 12201.00
461.6550, 12375.00
462.8430, 12066.00
464.0300, 11898.11
465.2180, 11531.30
466.4050, 11330.00
467.5920, 10771.00
468.7790, 10562.00
469.9650, 10645.00
471.1520, 10837.00
472.3380, 11378.00
473.5250, 11905.00
474.7110, 12785.00
475.8970, 13631.00
477.0820, 14657.00
478.2680, 15616.00
479.4540, 16598.00
480.6390, 17646.00
481.8240, 18515.00
483.0090, 19686.00
484.1940, 20737.00
485.3780, 21785.00
486.5630, 22667.00
487.7470, 23990.00
488.9320, 25261.00
490.1160, 27035.00
491.3000, 28477.00
492.4830, 30272.00
493.6670, 32344.00
494.8500, 34264.00
496.0340, 36529.00
497.2170, 38892.00
498.4000, 40786.00
499.5820, 42171.00
500.7650, 43468.00
501.9480, 44284.00
503.1300, 45328.00
504.3120, 45446.00
505.4940, 45682.00
506.6760, 46378.00
507.8580, 46666.00
509.0390, 46632.00
510.2210, 46810.00
511.4020, 46759.00
512.5830, 45479.00
513.7640, 44130.00
514.9450, 42380.00
516.1250, 40928.00
517.3060, 39008.00
518.4860, 37674.00
519.6660, 36254.00
520.8460, 35186.00
522.0260, 34567.00
523.2060, 34469.00
524.3850, 34442.00
525.5650, 35146.00
526.7440, 35774.00
527.9230, 36414.00
529.1020, 37037.00
530.2810, 37020.00
531.4590, 37207.00
532.6380, 36541.00
533.8160, 35502.00
534.9940, 34166.00
536.1720, 32253.00
537.3500, 30451.00
538.5270, 28617.00
539.7050, 26792.00
540.8820, 25235.00
542.0590, 24050.00
543.2360, 23364.00
544.4130, 22698.00
545.5900, 22804.00
546.7660, 22889.00
547.9430, 23932.00
549.1190, 25599.00
550.2950, 27495.00
551.4710, 30109.00
552.6470, 33235.00
553.8220, 37042.00
554.9980, 40570.00
556.1730, 43008.00
557.3480, 44403.00
558.5230, 44633.00
559.6980, 43962.00
560.8730, 42973.00
562.0470, 41410.00
563.2220, 40050.00
564.3960, 38972.00
565.5700, 38196.00
566.7440, 36685.00
567.9170, 35202.00
569.0910, 32996.00
570.2640, 30939.00
571.4380, 28995.00
572.6110, 26788.00
573.7840, 25116.00
574.9570, 23591.00
576.1290, 22510.00
577.3020, 21569.56
578.4740, 20970.00
579.6460, 20535.00
580.8180, 20219.00
581.9900, 20312.00
583.1620, 20457.84
584.3330, 20956.81
585.5040, 21555.00
586.6760, 22615.00
587.8470, 23876.00
589.0180, 25278.00
590.1880, 27432.00
591.3590, 29851.00
592.5290, 33110.00
593.7000, 37173.00
594.8700, 41910.00
596.0400, 47461.00
597.2090, 53354.00
598.3790, 57900.00
599.5490, 60274.00
600.7180, 60510.00
601.8870, 57877.00
603.0560, 53938.00
604.2250, 48481.00
605.3940, 43334.00
606.5620, 39092.00
607.7300, 35977.00
608.8990, 33563.00
610.0670, 32029.00
611.2350, 31479.00
612.4020, 31131.00
613.5700, 31104.00
614.7370, 30681.00
615.9050, 29816.00
617.0720, 28967.00
618.2390, 27235.00
619.4060, 25509.00
620.5720, 23922.00
621.7390, 22439.00
622.9050, 21148.00
624.0710, 20447.00
625.2370, 19703.00
626.4030, 19303.00
627.5690, 19359.00
628.7340, 19174.00
629.9000, 19409.00
631.0650, 19591.00
632.2300, 19729.00
633.3950, 19639.00
634.5600, 19547.00
635.7240, 18907.00
636.8890, 18345.00
638.0530, 17344.00
639.2170, 16484.00
640.3810, 15476.00
641.5450, 14593.00
642.7080, 14044.00
643.8720, 13686.00
645.0350, 13457.00
646.1980, 13061.00
647.3610, 12941.00
648.5240, 12982.00
649.6870, 12923.00
650.8490, 12961.00
652.0120, 13079.00
653.1740, 13338.00
654.3360, 13404.00
655.4980, 13645.00
656.6600, 13914.00
657.8210, 13933.00
658.9830, 13775.00
660.1440, 13723.00
661.3050, 13335.00
662.4660, 12979.00
663.6270, 12496.00
664.7870, 11932.00
665.9480, 11662.00
667.1080, 11237.00
668.2680, 10567.00
669.4280, 10232.00
670.5880, 10025.00
671.7480, 9746.000
672.9070, 9486.000
674.0670, 9262.000
675.2260, 9079.000
676.3850, 8881.000
677.5440, 8747.000
678.7030, 8590.000
679.8610, 8445.000
681.0200, 8340.000
682.1780, 8208.542
683.3360, 8099.000
684.4940, 7973.000
685.6520, 7898.000
686.8090, 7754.000
687.9670, 7783.000
689.1240, 7594.000
690.2810, 7588.000
691.4380, 7606.000
692.5950, 7628.000
693.7520, 7589.000
694.9080, 7582.000
696.0650, 7607.446
697.2210, 7679.000
698.3770, 7666.159
699.5330, 7685.000
700.6880, 7732.000
701.8440, 7708.000
702.9990, 7648.000
704.1550, 7754.000
705.3100, 7826.000
706.4650, 7894.000
707.6190, 7824.000
708.7740, 7852.000
709.9290, 7828.000
711.0830, 7833.059
712.2370, 7866.000
713.3910, 7856.000
714.5450, 7814.000
715.6980, 7803.000
716.8520, 7878.000
718.0050, 7759.000
719.1580, 7714.000
720.3110, 7767.000
721.4640, 7609.000
722.6170, 7702.000
723.7700, 7537.000
724.9220, 7637.000
726.0740, 7555.000
727.2260, 7628.000
728.3780, 7644.000
729.5300, 7647.000
730.6810, 7523.000
731.8330, 7658.000
732.9840, 7709.000
734.1350, 7643.000
735.2860, 7841.000
736.4370, 7757.000
737.5880, 7846.000
738.7380, 7791.000
739.8880, 8012.000
741.0390, 7936.000
742.1890, 8040.000
743.3380, 8118.000
744.4880, 8160.000
745.6380, 8272.000
746.7870, 8240.000
747.9360, 8492.000
749.0850, 8443.000
750.2340, 8645.000
751.3830, 8782.000
752.5310, 8895.000
753.6800, 9071.000
754.8280, 9242.000
755.9760, 9463.000
757.1240, 9642.000
758.2720, 9745.000
759.4190, 9892.000
760.5670, 10047.00
761.7140, 10155.00
762.8610, 10260.99
764.0080, 10305.11
765.1550, 10414.00
766.3020, 10359.00
767.4480, 10387.00
768.5950, 10446.00
769.7410, 10247.00
770.8870, 10137.00
772.0330, 9934.000
773.1780, 9785.144
774.3240, 9693.000
775.4690, 9497.000
776.6140, 9412.000
777.7590, 9336.000
778.9040, 9111.000
780.0490, 9012.000
781.1940, 9036.000
782.3380, 8990.000
783.4820, 9085.000
784.6260, 9032.000
785.7700, 9064.000
786.9140, 9342.000
788.0580, 9308.000
789.2010, 9520.000
790.3450, 9720.000
791.4880, 10001.00
792.6310, 10316.00
793.7730, 10618.00
794.9160, 10771.00
796.0590, 11157.00
797.2010, 11436.00
798.3430, 11561.00
799.4850, 11988.00
800.6270, 12028.00
801.7690, 11992.00
802.9100, 12231.00
804.0520, 12200.00
805.1930, 12101.00
806.3340, 12084.00
807.4750, 11868.00
808.6160, 11712.00
809.7560, 11562.00
810.8970, 11331.00
812.0370, 11043.00
813.1770, 10780.00
814.3170, 10624.00
815.4570, 10391.00
816.5960, 10173.00
817.7360, 10020.00
818.8750, 9807.000
820.0140, 9629.000
821.1530, 9322.000
822.2920, 9227.000
823.4310, 9097.000
824.5690, 9035.000
825.7070, 8776.000
826.8460, 8765.000
827.9840, 8568.000
829.1220, 8544.000
830.2590, 8425.257
831.3970, 8205.000
832.5340, 8180.000
833.6710, 8101.000
834.8080, 7913.000
835.9450, 7893.000
837.0820, 7771.000
838.2190, 7676.000
839.3550, 7607.000
840.4910, 7468.000
841.6270, 7411.000
842.7630, 7231.000
843.8990, 7229.000
845.0350, 7037.000
846.1700, 7136.000
847.3060, 6900.000
848.4410, 7041.000
849.5760, 6840.000
850.7100, 6912.000
851.8450, 6784.000
852.9800, 6736.000
854.1140, 6758.000
855.2480, 6804.000
856.3820, 6641.000
857.5160, 6667.000
858.6500, 6626.000
859.7830, 6677.000
860.9170, 6657.000
862.0500, 6697.000
863.1830, 6540.000
864.3160, 6491.000
865.4480, 6500.000
866.5810, 6422.000
867.7130, 6412.000
868.8460, 6378.000
869.9780, 6361.000
871.1100, 6358.000
872.2410, 6388.000
873.3730, 6209.000
874.5050, 6232.000
875.6360, 6320.000
876.7670, 6201.000
877.8980, 6317.000
879.0290, 6307.000
880.1590, 6269.000
881.2900, 6294.000
882.4200, 6306.000
883.5500, 6273.000
884.6800, 6348.000
885.8100, 6319.000
886.9400, 6289.000
888.0690, 6269.000
889.1990, 6299.000
890.3280, 6276.000
891.4570, 6301.000
892.5860, 6328.000
893.7140, 6425.000
894.8430, 6359.000
895.9710, 6360.000
897.1000, 6454.000
898.2280, 6399.000
899.3560, 6566.000
900.4830, 6480.000
901.6110, 6498.000
902.7380, 6474.000
903.8660, 6513.000
904.9930, 6537.000
906.1200, 6528.724
907.2460, 6610.000
908.3730, 6535.000
909.5000, 6578.000
910.6260, 6593.000
911.7520, 6628.000
912.8780, 6662.000
914.0040, 6693.000
915.1290, 6804.000
916.2550, 6795.000
917.3800, 6738.000
918.5050, 6918.000
919.6300, 7060.000
920.7550, 7013.000
921.8800, 7083.000
923.0040, 7045.000
924.1290, 7255.000
925.2530, 7186.000
926.3770, 7234.000
927.5010, 7409.000
928.6250, 7476.000
929.7480, 7554.000
930.8720, 7797.000
931.9950, 7880.000
933.1180, 7979.000
934.2410, 8218.000
935.3640, 8285.000
936.4860, 8595.000
937.6090, 8790.000
938.7310, 9037.000
939.8530, 9245.000
940.9750, 9472.000
942.0970, 9739.000
943.2180, 10000.00
944.3400, 10255.00
945.4610, 10328.00
946.5820, 10572.00
947.7030, 10807.00
948.8240, 10897.00
949.9450, 10890.00
951.0650, 11087.00
952.1860, 11179.00
953.3060, 11303.00
954.4260, 11253.00
955.5460, 11535.00
956.6650, 11544.00
957.7850, 11594.00
958.9040, 11824.00
960.0230, 12074.00
961.1420, 12329.00
962.2610, 12636.00
963.3800, 13023.00
964.4990, 13381.00
965.6170, 13812.00
966.7350, 14376.00
967.8530, 15182.00
968.9710, 15915.00
970.0890, 16838.00
971.2070, 17724.00
972.3240, 18821.00
973.4410, 20311.00
974.5580, 21623.00
975.6750, 23200.00
976.7920, 25248.00
977.9090, 27392.00
979.0250, 30051.00
980.1410, 33080.00
981.2580, 37012.00
982.3740, 41615.00
983.4890, 46875.00
984.6050, 52173.00
985.7200, 57094.00
986.8360, 61311.00
987.9510, 63365.00
989.0660, 63169.00
990.1810, 60617.00
991.2950, 56073.00
992.4100, 50727.00
993.5240, 45068.00
994.6390, 40226.00
995.7530, 36704.00
996.8660, 33449.00
997.9800, 31289.00
999.0940, 29481.00
1000.207, 28507.00
1001.320, 27830.00
1002.433, 27220.00
1003.546, 27274.00
1004.659, 27241.00
1005.772, 28256.00
1006.884, 29185.00
1007.996, 30410.00
1009.108, 32659.00
1010.220, 35168.00
1011.332, 38251.00
1012.444, 41616.00
1013.555, 45510.00
1014.666, 49064.00
1015.777, 51955.00
1016.888, 54661.00
1017.999, 55613.00
1019.110, 55450.00
1020.220, 53857.00
1021.331, 51488.00
1022.441, 48794.00
1023.551, 46446.00
1024.661, 42911.00
1025.770, 39708.00
1026.880, 37367.00
1027.989, 35132.00
1029.098, 33407.00
1030.207, 32029.86
1031.316, 31023.00
1032.425, 30292.00
1033.533, 29817.00
1034.642, 29748.00
1035.750, 29626.00
1036.858, 29758.00
1037.966, 29884.00
1039.073, 29992.00
1040.181, 30248.00
1041.288, 30030.00
1042.396, 30028.00
1043.503, 30144.00
1044.610, 29662.00
1045.716, 29278.00
1046.823, 28673.00
1047.929, 28254.00
1049.036, 27824.00
1050.142, 27561.22
1051.248, 27420.00
1052.353, 27232.00
1053.459, 27166.00
1054.564, 27099.00
1055.670, 27124.00
1056.775, 27319.00
1057.880, 27213.00
1058.985, 27201.00
1060.089, 27179.00
1061.194, 26840.40
1062.298, 26652.00
1063.402, 26109.00
1064.506, 25462.00
1065.610, 25014.00
1066.713, 24090.00
1067.817, 23721.00
1068.920, 23008.00
1070.023, 22535.00
1071.126, 22089.00
1072.229, 21550.00
1073.332, 21219.00
1074.435, 20853.00
1075.537, 20613.00
1076.639, 20143.00
1077.741, 19792.00
1078.843, 19143.00
1079.945, 18804.00
1081.046, 18228.00
1082.148, 17375.00
1083.249, 16638.00
1084.350, 15909.00
1085.451, 14892.00
1086.551, 14205.00
1087.652, 13454.00
1088.752, 12713.00
1089.853, 11978.00
1090.953, 11503.00
1092.053, 10869.00
1093.152, 10482.00
1094.252, 9985.000
1095.351, 9741.000
1096.451, 9335.000
1097.550, 9153.000
1098.649, 9091.000
1099.748, 8806.000
1100.846, 8737.000
1101.945, 8552.000
1103.043, 8638.000
1104.141, 8542.000
1105.239, 8673.000
1106.337, 8708.000
1107.434, 8811.000
1108.532, 9002.000
1109.629, 9376.000
1110.726, 9756.000
1111.823, 10220.00
1112.920, 11055.00
1114.017, 11555.00
1115.113, 12226.00
1116.210, 12754.00
1117.306, 12854.00
1118.402, 12890.00
1119.498, 12870.00
1120.593, 12699.00
1121.689, 12532.00
1122.784, 12496.00
1123.879, 12141.00
1124.974, 12296.00
1126.069, 11976.00
1127.164, 11808.00
1128.259, 11610.00
1129.353, 11391.18
1130.447, 11260.00
1131.541, 11056.00
1132.635, 10966.00
1133.729, 10884.00
1134.822, 10851.00
1135.916, 10907.00
1137.009, 10759.00
1138.102, 10745.00
1139.195, 10650.04
1140.288, 10509.00
1141.380, 10439.00
1142.473, 10316.00
1143.565, 10214.00
1144.657, 10025.00
1145.749, 10261.00
1146.841, 9985.343
1147.932, 9780.000
1149.024, 9660.000
1150.115, 9326.000
1151.206, 9130.000
1152.297, 8923.000
1153.388, 8736.000
1154.479, 8589.000
1155.569, 8472.000
1156.659, 8355.000
1157.750, 8261.000
1158.839, 8070.000
1159.929, 7926.000
1161.019, 7861.000
1162.108, 7957.000
1163.198, 7803.000
1164.287, 7663.000
1165.376, 7791.000
1166.465, 7681.000
1167.553, 7532.000
1168.642, 7606.000
1169.730, 7360.000
1170.818, 7424.000
1171.906, 7375.000
1172.994, 7321.000
1174.082, 7273.000
1175.170, 7223.165
1176.257, 7135.000
1177.344, 7147.000
1178.431, 7091.000
1179.518, 7098.000
1180.605, 6933.000
1181.691, 6944.000
1182.778, 6879.000
1183.864, 6879.000
1184.950, 6903.000
1186.036, 6860.000
1187.122, 6783.000
1188.207, 6744.000
1189.292, 6762.000
1190.378, 6684.000
1191.463, 6658.605
1192.548, 6586.000
1193.632, 6615.000
1194.717, 6664.000
1195.801, 6760.000
1196.886, 6725.000
1197.970, 6752.000
1199.054, 6739.188
1200.137, 6636.000
1201.221, 6664.000
1202.305, 6669.000
1203.388, 6605.000
1204.471, 6498.000
1205.554, 6608.000
1206.637, 6571.000
1207.719, 6489.000
1208.802, 6522.000
1209.884, 6595.000
1210.966, 6489.000
1212.048, 6591.000
1213.130, 6496.000
1214.212, 6542.000
1215.293, 6410.000
1216.374, 6491.000
1217.456, 6432.000
1218.536, 6390.000
1219.617, 6357.000
1220.698, 6357.514
1221.778, 6402.169
1222.859, 6395.173
1223.939, 6402.000
1225.019, 6437.000
1226.099, 6397.765
1227.178, 6450.000
1228.258, 6335.000
1229.337, 6307.000
1230.417, 6270.000
1231.496, 6377.000
1232.574, 6302.000
1233.653, 6329.000
1234.732, 6270.000
1235.810, 6266.000
1236.888, 6235.000
1237.966, 6274.000
1239.044, 6255.000
1240.122, 6232.000
1241.199, 6277.000
1242.277, 6276.000
1243.354, 6248.000
1244.431, 6262.000
1245.508, 6222.000
1246.585, 6321.000
1247.661, 6307.000
1248.738, 6265.000
1249.814, 6297.613
1250.890, 6199.000
1251.966, 6288.000
1253.042, 6227.000
1254.117, 6238.000
1255.193, 6208.000
1256.268, 6206.000
1257.343, 6159.000
