##NAMES=Brazilianite
##RRUFFID=R050504
##IDEAL CHEMISTRY=NaAl_3_(PO_4_)_2_(OH)_4_
##LOCALITY=CÃ³rrego Frio, Minas Gerais, Brazil
##OWNER=RRUFF
##SOURCE=Marcus Origlieri
##DESCRIPTION=Yellowish green fragment
##STATUS=The identification of this mineral has been confirmed by X-ray diffraction and chemical analysis
##URL=rruff.info/R050504
##MEASURED CHEMISTRY=Na_1.00_Al_3.00_(P_1.00_O_4_)_2_(OH)_4_
##PIN_ID=L00583
##ORIENTATION=Laser parallel to b* (0 1 0). Fiducial mark perpendicular to laser is parallel to c [0 0 1]
72.47700, 2089.000
73.71400, 2391.000
74.95100, 2816.000
76.18700, 3379.000
77.42300, 3867.000
78.65900, 4556.000
79.89500, 5409.000
81.13100, 6574.000
82.36700, 7490.000
83.60200, 8467.000
84.83700, 9253.000
86.07200, 9884.000
87.30800, 10112.00
88.54200, 10123.00
89.77700, 9525.000
91.01200, 8904.000
92.24600, 8323.000
93.48000, 7709.000
94.71400, 7498.000
95.94800, 7522.000
97.18200, 7720.000
98.41600, 8036.000
99.64900, 8837.000
100.8830, 10146.00
102.1160, 11738.00
103.3490, 12673.00
104.5820, 12072.00
105.8150, 10744.00
107.0470, 9471.000
108.2800, 8367.000
109.5120, 6960.000
110.7440, 5864.000
111.9760, 5359.000
113.2080, 5310.000
114.4400, 5290.000
115.6710, 5163.000
116.9030, 4771.000
118.1340, 4556.000
119.3650, 4282.000
120.5960, 3984.000
121.8270, 3898.000
123.0580, 3895.000
124.2880, 3928.000
125.5190, 3889.000
126.7490, 3894.000
127.9790, 4026.000
129.2090, 4051.000
130.4390, 4053.000
131.6680, 4086.000
132.8980, 4061.000
134.1270, 4083.000
135.3560, 4174.000
136.5850, 4279.000
137.8140, 4319.000
139.0430, 4586.000
140.2710, 4707.000
141.5000, 4917.000
142.7280, 4998.000
143.9560, 5431.000
145.1840, 5660.000
146.4120, 6102.532
147.6390, 6936.000
148.8670, 6682.000
150.0940, 6613.000
151.3210, 6017.168
152.5490, 5788.536
153.7750, 5634.000
155.0020, 5225.000
156.2290, 5222.000
157.4550, 5402.000
158.6810, 5617.000
159.9080, 6171.000
161.1340, 6962.000
162.3590, 8532.000
163.5850, 10417.00
164.8110, 11104.00
166.0360, 12340.00
167.2610, 14088.00
168.4860, 17277.00
169.7110, 21011.00
170.9360, 24001.00
172.1610, 24477.00
173.3850, 21955.00
174.6100, 19126.00
175.8340, 15906.00
177.0580, 12678.00
178.2820, 10210.00
179.5050, 8291.000
180.7290, 7171.000
181.9520, 6460.000
183.1760, 6114.000
184.3990, 5686.000
185.6220, 5671.000
186.8450, 5598.000
188.0670, 5525.000
189.2900, 5501.000
190.5120, 5493.000
191.7340, 5496.000
192.9560, 5642.000
194.1780, 5736.000
195.4000, 5746.000
196.6220, 5871.000
197.8430, 5927.000
199.0640, 6057.000
200.2860, 6133.000
201.5070, 6344.000
202.7270, 6359.000
203.9480, 6464.000
205.1690, 6510.000
206.3890, 6541.000
207.6090, 6733.000
208.8290, 6903.000
210.0490, 6958.000
211.2690, 6948.000
212.4890, 7009.000
213.7080, 6997.000
214.9280, 7262.000
216.1470, 7438.000
217.3660, 7634.000
218.5850, 7612.000
219.8030, 7580.000
221.0220, 7431.000
222.2400, 7208.000
223.4590, 6987.000
224.6770, 6927.000
225.8950, 6876.000
227.1120, 6991.000
228.3300, 7233.000
229.5480, 7220.000
230.7650, 7250.000
231.9820, 7026.000
233.1990, 6598.000
234.4160, 6435.000
235.6330, 6400.000
236.8490, 6388.000
238.0660, 6497.000
239.2820, 6808.000
240.4980, 7095.000
241.7140, 7607.000
242.9300, 8121.000
244.1460, 8623.000
245.3610, 8947.000
246.5770, 9073.000
247.7920, 9562.000
249.0070, 10279.00
250.2220, 11350.00
251.4370, 12246.00
252.6510, 11941.00
253.8660, 11046.00
255.0800, 9806.000
256.2940, 8544.000
257.5080, 7325.000
258.7220, 6497.000
259.9360, 6038.000
261.1490, 5755.000
262.3630, 5483.000
263.5760, 5523.000
264.7890, 5613.000
266.0020, 5741.000
267.2150, 5922.000
268.4270, 6172.000
269.6400, 6323.000
270.8520, 6544.000
272.0640, 6596.000
273.2760, 6858.000
274.4880, 6998.000
275.7000, 7277.000
276.9120, 7341.000
278.1230, 7366.000
279.3340, 7394.000
280.5450, 7301.000
281.7560, 7378.000
282.9670, 7237.000
284.1780, 7129.000
285.3880, 6909.000
286.5980, 6804.000
287.8090, 6367.000
289.0190, 6102.000
290.2290, 5840.000
291.4380, 5668.000
292.6480, 5511.601
293.8570, 5372.000
295.0670, 5330.000
296.2760, 5352.000
297.4850, 5349.000
298.6930, 5440.000
299.9020, 5406.000
301.1110, 5614.000
302.3190, 5747.000
303.5270, 6012.000
304.7350, 6300.000
305.9430, 6659.000
307.1510, 7149.000
308.3580, 7616.000
309.5660, 8058.000
310.7730, 8695.000
311.9800, 9223.000
313.1870, 9291.000
314.3940, 9424.000
315.6010, 9291.000
316.8070, 9118.000
318.0130, 9017.000
319.2200, 8870.000
320.4260, 8789.000
321.6310, 8770.000
322.8370, 8713.000
324.0430, 8367.000
325.2480, 8309.000
326.4540, 8093.000
327.6590, 7843.000
328.8640, 7975.000
330.0680, 7782.000
331.2730, 7593.000
332.4780, 7523.000
333.6820, 7443.000
334.8860, 7326.000
336.0900, 7365.000
337.2940, 7106.000
338.4980, 7243.000
339.7010, 7208.000
340.9050, 7226.000
342.1080, 7385.000
343.3110, 7591.000
344.5140, 7847.000
345.7170, 8222.000
346.9200, 8612.000
348.1220, 9240.000
349.3240, 9845.000
350.5270, 10670.00
351.7290, 11606.00
352.9310, 12468.00
354.1320, 13480.00
355.3340, 14290.00
356.5350, 15122.00
357.7370, 15231.00
358.9380, 14736.00
360.1390, 13827.00
361.3400, 12788.00
362.5400, 11423.00
363.7410, 10248.00
364.9410, 9305.000
366.1410, 8687.000
367.3410, 7895.000
368.5410, 7446.000
369.7410, 7075.000
370.9400, 6660.000
372.1400, 6355.000
373.3390, 6111.000
374.5380, 6010.000
375.7370, 5924.000
376.9360, 5816.000
378.1350, 5824.000
379.3330, 5861.000
380.5310, 5839.000
381.7300, 5858.943
382.9280, 5826.000
384.1260, 5877.000
385.3230, 5816.000
386.5210, 5834.000
387.7180, 5862.000
388.9160, 5882.378
390.1130, 5922.493
391.3100, 6006.000
392.5060, 6041.000
393.7030, 6149.000
394.9000, 6287.000
396.0960, 6435.000
397.2920, 6733.000
398.4880, 7058.000
399.6840, 7328.000
400.8800, 7747.000
402.0750, 8161.000
403.2710, 8521.000
404.4660, 8952.000
405.6610, 9542.000
406.8560, 10023.00
408.0510, 10442.00
409.2450, 10961.00
410.4400, 11198.00
411.6340, 11538.00
412.8280, 11748.00
414.0220, 11528.00
415.2160, 11327.00
416.4100, 11078.00
417.6030, 10734.00
418.7970, 10487.00
419.9900, 10253.00
421.1830, 10213.00
422.3760, 10222.00
423.5690, 10229.00
424.7610, 10173.00
425.9540, 10172.00
427.1460, 10173.00
428.3380, 10423.00
429.5300, 10387.00
430.7220, 10771.00
431.9140, 11260.00
433.1050, 11894.00
434.2970, 12345.00
435.4880, 13282.00
436.6790, 13941.00
437.8700, 14399.00
439.0610, 14641.00
440.2510, 14426.00
441.4420, 13819.00
442.6320, 12805.00
443.8220, 11943.00
445.0120, 11185.00
446.2020, 10484.00
447.3910, 10267.00
448.5810, 9951.000
449.7700, 9930.000
450.9600, 10053.00
452.1490, 10147.00
453.3370, 10467.00
454.5260, 10544.00
455.7150, 10922.00
456.9030, 11389.00
458.0910, 11942.00
459.2800, 12345.00
460.4670, 12734.00
461.6550, 13286.00
462.8430, 13747.00
464.0300, 14124.00
465.2180, 14187.00
466.4050, 14077.00
467.5920, 13663.00
468.7790, 13009.00
469.9650, 12077.00
471.1520, 11127.00
472.3380, 10154.00
473.5250, 9324.000
474.7110, 8854.000
475.8970, 8201.000
477.0820, 7917.000
478.2680, 7562.000
479.4540, 7542.000
480.6390, 7325.000
481.8240, 7376.000
483.0090, 7439.000
484.1940, 7665.000
485.3780, 7624.000
486.5630, 7949.000
487.7470, 8087.000
488.9320, 8515.000
490.1160, 8770.000
491.3000, 9378.000
492.4830, 9856.000
493.6670, 10277.00
494.8500, 10848.00
496.0340, 11645.00
497.2170, 12169.00
498.4000, 12595.00
499.5820, 13254.00
500.7650, 13539.00
501.9480, 13738.00
503.1300, 14108.00
504.3120, 14058.00
505.4940, 14309.00
506.6760, 14439.00
507.8580, 14529.00
509.0390, 14577.00
510.2210, 14827.00
511.4020, 14838.00
512.5830, 15143.00
513.7640, 15539.00
514.9450, 15618.00
516.1250, 15872.00
517.3060, 16184.00
518.4860, 16320.00
519.6660, 16731.00
520.8460, 17222.00
522.0260, 17710.00
523.2060, 18581.00
524.3850, 18998.00
525.5650, 19772.00
526.7440, 20842.00
527.9230, 21445.00
529.1020, 22196.00
530.2810, 22931.00
531.4590, 23274.00
532.6380, 23356.00
533.8160, 23380.00
534.9940, 22988.00
536.1720, 22656.00
537.3500, 22001.00
538.5270, 21332.00
539.7050, 20480.00
540.8820, 19928.00
542.0590, 19564.00
543.2360, 18984.00
544.4130, 18964.00
545.5900, 18808.00
546.7660, 19209.00
547.9430, 19729.00
549.1190, 20300.00
550.2950, 21341.00
551.4710, 22541.00
552.6470, 24329.00
553.8220, 26207.00
554.9980, 28447.00
556.1730, 30292.00
557.3480, 32469.00
558.5230, 33295.00
559.6980, 34316.00
560.8730, 35139.00
562.0470, 35362.00
563.2220, 35125.00
564.3960, 34786.00
565.5700, 33790.00
566.7440, 32423.00
567.9170, 30651.00
569.0910, 28194.00
570.2640, 25891.00
571.4380, 23553.00
572.6110, 21452.00
573.7840, 19714.00
574.9570, 18159.00
576.1290, 16826.00
577.3020, 15908.00
578.4740, 15249.00
579.6460, 14617.00
580.8180, 14403.00
581.9900, 14289.00
583.1620, 14508.00
584.3330, 14610.00
585.5040, 15122.00
586.6760, 15538.00
587.8470, 16308.00
589.0180, 17187.00
590.1880, 18590.00
591.3590, 20114.00
592.5290, 21725.00
593.7000, 23367.00
594.8700, 25371.00
596.0400, 26817.00
597.2090, 28322.00
598.3790, 29059.00
599.5490, 28695.00
600.7180, 27473.00
601.8870, 25786.00
603.0560, 23589.00
604.2250, 21827.00
605.3940, 19969.00
606.5620, 18670.00
607.7300, 17895.00
608.8990, 17181.00
610.0670, 16693.00
611.2350, 16482.00
612.4020, 16254.00
613.5700, 15929.00
614.7370, 15557.00
615.9050, 15007.00
617.0720, 14413.00
618.2390, 13712.00
619.4060, 12915.00
620.5720, 12379.00
621.7390, 11858.00
622.9050, 11484.00
624.0710, 11217.00
625.2370, 11251.00
626.4030, 11253.00
627.5690, 11423.00
628.7340, 11723.00
629.9000, 11950.00
631.0650, 12245.00
632.2300, 12458.00
633.3950, 12571.00
634.5600, 12814.00
635.7240, 12469.66
636.8890, 12395.00
638.0530, 11661.00
639.2170, 11080.00
640.3810, 10587.00
641.5450, 10100.78
642.7080, 9707.000
643.8720, 9417.000
645.0350, 9169.000
646.1980, 9048.000
647.3610, 8889.000
648.5240, 8847.000
649.6870, 8860.000
650.8490, 8825.000
652.0120, 8864.000
653.1740, 8954.000
654.3360, 9025.000
655.4980, 8945.000
656.6600, 9156.000
657.8210, 9149.000
658.9830, 9083.000
660.1440, 9185.000
661.3050, 8969.000
662.4660, 8856.000
663.6270, 8584.000
664.7870, 8358.000
665.9480, 7965.000
667.1080, 7604.000
668.2680, 7445.000
669.4280, 7128.000
670.5880, 6904.000
671.7480, 6750.000
672.9070, 6512.000
674.0670, 6409.000
675.2260, 6261.000
676.3850, 6092.000
677.5440, 6006.000
678.7030, 5859.000
679.8610, 5804.000
681.0200, 5689.000
682.1780, 5752.000
683.3360, 5640.000
684.4940, 5503.000
685.6520, 5591.000
686.8090, 5484.000
687.9670, 5527.000
689.1240, 5392.000
690.2810, 5363.000
691.4380, 5225.000
692.5950, 5253.000
693.7520, 5367.000
694.9080, 5259.000
696.0650, 5283.000
697.2210, 5277.000
698.3770, 5204.000
699.5330, 5255.000
700.6880, 5184.000
701.8440, 5207.000
702.9990, 5230.000
704.1550, 5233.000
705.3100, 5300.000
706.4650, 5365.000
707.6190, 5297.000
708.7740, 5474.000
709.9290, 5507.000
711.0830, 5539.000
712.2370, 5730.000
713.3910, 5760.000
714.5450, 5890.000
715.6980, 5989.000
716.8520, 6088.000
718.0050, 6186.000
719.1580, 6220.375
720.3110, 6268.141
721.4640, 6259.000
722.6170, 6280.000
723.7700, 6271.000
724.9220, 6225.000
726.0740, 6102.000
727.2260, 6198.000
728.3780, 6007.000
729.5300, 6039.000
730.6810, 6019.000
731.8330, 5901.000
732.9840, 5983.000
734.1350, 5881.000
735.2860, 5887.000
736.4370, 5827.000
737.5880, 5851.000
738.7380, 5883.000
739.8880, 5888.000
741.0390, 5831.000
742.1890, 5846.059
743.3380, 5804.000
744.4880, 5793.000
745.6380, 5781.000
746.7870, 5708.000
747.9360, 5678.000
749.0850, 5617.000
750.2340, 5689.000
751.3830, 5726.000
752.5310, 5646.000
753.6800, 5629.000
754.8280, 5598.000
755.9760, 5617.000
757.1240, 5630.000
758.2720, 5630.000
759.4190, 5603.000
760.5670, 5594.000
761.7140, 5618.000
762.8610, 5603.000
764.0080, 5607.000
765.1550, 5645.000
766.3020, 5637.000
767.4480, 5487.000
768.5950, 5586.000
769.7410, 5682.000
770.8870, 5529.000
772.0330, 5574.000
773.1780, 5517.000
774.3240, 5554.000
775.4690, 5498.000
776.6140, 5441.000
777.7590, 5438.000
778.9040, 5274.000
780.0490, 5318.000
781.1940, 5306.000
782.3380, 5285.000
783.4820, 5363.000
784.6260, 5248.000
785.7700, 5294.000
786.9140, 5222.000
788.0580, 5259.000
789.2010, 5301.000
790.3450, 5205.000
791.4880, 5196.000
792.6310, 5225.000
793.7730, 5122.000
794.9160, 5232.000
796.0590, 5113.000
797.2010, 5249.000
798.3430, 5100.000
799.4850, 5126.000
800.6270, 5163.000
801.7690, 5088.000
802.9100, 5102.000
804.0520, 5078.000
805.1930, 5060.000
806.3340, 5001.000
807.4750, 5034.000
808.6160, 5131.000
809.7560, 5058.000
810.8970, 5094.000
812.0370, 5155.000
813.1770, 5115.000
814.3170, 5074.000
815.4570, 5069.000
816.5960, 4982.000
817.7360, 5043.000
818.8750, 5065.000
820.0140, 4985.000
821.1530, 5131.000
822.2920, 5027.000
823.4310, 5081.000
824.5690, 4956.000
825.7070, 5022.000
826.8460, 5057.000
827.9840, 5042.000
829.1220, 5070.000
830.2590, 5098.000
831.3970, 5196.000
832.5340, 5126.000
833.6710, 5082.000
834.8080, 5041.000
835.9450, 5116.000
837.0820, 5027.000
838.2190, 5122.000
839.3550, 5152.000
840.4910, 5143.000
841.6270, 5101.000
842.7630, 5120.000
843.8990, 5199.000
845.0350, 5195.000
846.1700, 5222.000
847.3060, 5175.000
848.4410, 5240.000
849.5760, 5200.000
850.7100, 5288.000
851.8450, 5240.000
852.9800, 5308.000
854.1140, 5318.000
855.2480, 5278.000
856.3820, 5323.000
857.5160, 5330.000
858.6500, 5376.000
859.7830, 5263.000
860.9170, 5331.000
862.0500, 5406.000
863.1830, 5319.000
864.3160, 5358.000
865.4480, 5404.000
866.5810, 5364.000
867.7130, 5419.000
868.8460, 5396.000
869.9780, 5483.000
871.1100, 5412.000
872.2410, 5408.000
873.3730, 5462.000
874.5050, 5482.000
875.6360, 5492.000
876.7670, 5541.000
877.8980, 5465.000
879.0290, 5469.000
880.1590, 5472.000
881.2900, 5607.000
882.4200, 5523.000
883.5500, 5625.000
884.6800, 5602.000
885.8100, 5639.000
886.9400, 5631.000
888.0690, 5651.000
889.1990, 5689.000
890.3280, 5621.000
891.4570, 5738.000
892.5860, 5668.000
893.7140, 5665.000
894.8430, 5679.000
895.9710, 5703.000
897.1000, 5832.000
898.2280, 5907.000
899.3560, 5836.000
900.4830, 5959.000
901.6110, 5880.000
902.7380, 5877.000
903.8660, 5934.000
904.9930, 6076.000
906.1200, 6096.000
907.2460, 6151.000
908.3730, 6089.000
909.5000, 6079.000
910.6260, 6205.000
911.7520, 6236.000
912.8780, 6289.000
914.0040, 6221.000
915.1290, 6242.000
916.2550, 6220.000
917.3800, 6272.000
918.5050, 6410.000
919.6300, 6404.000
920.7550, 6492.000
921.8800, 6644.000
923.0040, 6675.000
924.1290, 6634.000
925.2530, 6735.000
926.3770, 6762.000
927.5010, 6871.000
928.6250, 6947.000
929.7480, 7116.000
930.8720, 7156.000
931.9950, 7226.000
933.1180, 7382.000
934.2410, 7580.000
935.3640, 7736.000
936.4860, 7919.000
937.6090, 8202.000
938.7310, 8413.000
939.8530, 8702.000
940.9750, 9053.000
942.0970, 9205.000
943.2180, 9578.000
944.3400, 10027.00
945.4610, 10417.00
946.5820, 10611.00
947.7030, 11061.00
948.8240, 11219.00
949.9450, 11603.00
951.0650, 11923.00
952.1860, 11939.00
953.3060, 12111.00
954.4260, 12231.00
955.5460, 12455.00
956.6650, 12760.00
957.7850, 12914.00
958.9040, 13290.00
960.0230, 13876.00
961.1420, 14466.00
962.2610, 15488.00
963.3800, 16461.00
964.4990, 17806.00
965.6170, 19245.00
966.7350, 21020.00
967.8530, 22812.00
968.9710, 24643.00
970.0890, 26592.00
971.2070, 27808.00
972.3240, 28862.00
973.4410, 29388.00
974.5580, 29258.00
975.6750, 28983.00
976.7920, 28172.00
977.9090, 27596.00
979.0250, 27454.00
980.1410, 27319.89
981.2580, 27338.00
982.3740, 27985.00
983.4890, 28818.00
984.6050, 29943.00
985.7200, 30912.00
986.8360, 31901.00
987.9510, 32117.00
989.0660, 31496.00
990.1810, 30415.00
991.2950, 28406.00
992.4100, 26411.00
993.5240, 24252.00
994.6390, 22388.00
995.7530, 21199.00
996.8660, 20103.00
997.9800, 19456.00
999.0940, 18902.00
1000.207, 18905.00
1001.320, 18971.00
1002.433, 19462.00
1003.546, 20015.00
1004.659, 20927.00
1005.772, 21980.00
1006.884, 23494.00
1007.996, 25304.00
1009.108, 28120.00
1010.220, 31111.00
1011.332, 34406.00
1012.444, 38491.00
1013.555, 43055.00
1014.666, 47245.00
1015.777, 51459.00
1016.888, 55073.00
1017.999, 57505.00
1019.110, 58561.00
1020.220, 58485.00
1021.331, 57209.00
1022.441, 55309.00
1023.551, 52878.00
1024.661, 49835.00
1025.770, 46758.00
1026.880, 44010.00
1027.989, 41789.00
1029.098, 39423.00
1030.207, 37696.00
1031.316, 35862.00
1032.425, 34678.00
1033.533, 33527.00
1034.642, 32747.00
1035.750, 31664.00
1036.858, 30812.00
1037.966, 30164.00
1039.073, 29568.00
1040.181, 28551.00
1041.288, 27518.00
1042.396, 26528.00
1043.503, 25362.97
1044.610, 24207.00
1045.716, 22992.00
1046.823, 21784.00
1047.929, 20534.00
1049.036, 19564.00
1050.142, 18503.00
1051.248, 17466.00
1052.353, 16727.00
1053.459, 15947.00
1054.564, 15433.00
1055.670, 14989.00
1056.775, 14468.00
1057.880, 14332.00
1058.985, 14193.00
1060.089, 13995.00
1061.194, 14382.00
1062.298, 14725.00
1063.402, 14883.00
1064.506, 15362.00
1065.610, 15894.00
1066.713, 16444.00
1067.817, 16959.00
1068.920, 17488.00
1070.023, 17710.00
1071.126, 17667.00
1072.229, 17790.00
1073.332, 17633.00
1074.435, 17428.00
1075.537, 17111.00
1076.639, 16859.00
1077.741, 16607.00
1078.843, 15992.00
1079.945, 15938.00
1081.046, 15817.00
1082.148, 15296.00
1083.249, 15245.00
1084.350, 14893.00
1085.451, 14617.00
1086.551, 14048.00
1087.652, 13903.00
1088.752, 13541.00
1089.853, 13219.00
1090.953, 12912.00
1092.053, 12518.00
1093.152, 12128.00
1094.252, 11832.00
1095.351, 11568.00
1096.451, 11285.00
1097.550, 11106.00
1098.649, 11035.00
1099.748, 10982.00
1100.846, 10879.00
1101.945, 10793.00
1103.043, 10825.00
1104.141, 10976.00
1105.239, 11186.00
1106.337, 11449.00
1107.434, 11794.00
1108.532, 12391.00
1109.629, 13163.00
1110.726, 13981.00
1111.823, 15296.00
1112.920, 16337.00
1114.017, 17509.00
1115.113, 18270.00
1116.210, 18638.00
1117.306, 18452.00
1118.402, 17613.00
1119.498, 16610.00
1120.593, 15167.00
1121.689, 14144.00
1122.784, 13024.00
1123.879, 12264.00
1124.974, 11630.00
1126.069, 10893.00
1127.164, 10353.00
1128.259, 9774.000
1129.353, 9388.000
1130.447, 8863.000
1131.541, 8648.000
1132.635, 8421.000
1133.729, 8272.000
1134.822, 8090.000
1135.916, 7935.975
1137.009, 7729.000
1138.102, 7638.000
1139.195, 7589.000
1140.288, 7413.000
1141.380, 7487.000
1142.473, 7414.000
1143.565, 7295.000
1144.657, 7413.000
1145.749, 7361.000
1146.841, 7280.000
1147.932, 7261.000
1149.024, 7175.000
1150.115, 7092.000
1151.206, 7110.000
1152.297, 7036.000
1153.388, 6949.000
1154.479, 6919.000
1155.569, 6956.000
1156.659, 6829.000
1157.750, 6954.000
1158.839, 6782.000
1159.929, 6761.000
1161.019, 6763.000
1162.108, 6820.000
1163.198, 6700.000
1164.287, 6722.000
1165.376, 6621.000
1166.465, 6559.000
1167.553, 6577.000
1168.642, 6593.000
1169.730, 6562.000
1170.818, 6541.259
1171.906, 6443.000
1172.994, 6434.000
1174.082, 6346.000
1175.170, 6245.000
1176.257, 6247.000
1177.344, 6326.000
1178.431, 6213.000
1179.518, 6277.000
1180.605, 6140.000
1181.691, 6156.000
1182.778, 6230.000
1183.864, 6104.000
1184.950, 6066.000
1186.036, 5984.000
1187.122, 6066.000
1188.207, 6091.000
1189.292, 6063.000
1190.378, 6003.000
1191.463, 5915.000
1192.548, 6001.000
1193.632, 6025.000
1194.717, 5968.000
1195.801, 5946.000
1196.886, 5970.000
1197.970, 5901.000
1199.054, 5897.000
1200.137, 5908.000
1201.221, 5984.000
1202.305, 5955.000
1203.388, 5853.000
1204.471, 5786.000
1205.554, 5857.000
1206.637, 5800.000
1207.719, 5890.000
1208.802, 5877.000
1209.884, 5876.000
1210.966, 5864.000
1212.048, 5948.000
1213.130, 5807.000
1214.212, 5949.000
1215.293, 5896.000
1216.374, 5891.000
1217.456, 5819.000
1218.536, 5831.000
1219.617, 5858.000
1220.698, 5815.000
1221.778, 5832.016
1222.859, 5823.173
1223.939, 5809.000
1225.019, 5789.000
1226.099, 5749.000
1227.178, 5680.000
1228.258, 5806.000
1229.337, 5825.000
1230.417, 5795.000
1231.496, 5727.000
1232.574, 5706.000
1233.653, 5828.000
1234.732, 5795.000
1235.810, 5773.000
1236.888, 5790.000
1237.966, 5790.000
1239.044, 5801.000
1240.122, 5754.000
1241.199, 5765.000
1242.277, 5723.764
1243.354, 5749.000
1244.431, 5679.000
1245.508, 5746.000
1246.585, 5801.000
1247.661, 5814.000
1248.738, 5711.000
1249.814, 5883.000
1250.890, 5759.000
1251.966, 5851.000
1253.042, 5779.000
1254.117, 5789.000
1255.193, 5780.000
1256.268, 5842.000
1257.343, 5838.000
