##NAMES=Brazilianite
##RRUFFID=R050319
##IDEAL CHEMISTRY=NaAl_3_(PO_4_)_2_(OH)_4_
##LOCALITY=Minas Gerais, Brazil
##OWNER=RRUFF
##SOURCE=American Museum of Natural History
##DESCRIPTION=Pale green fragment
##STATUS=The identification of this mineral has been confirmed by X-ray diffraction and chemical analysis
##URL=rruff.info/R050319
##MEASURED CHEMISTRY=Na_1.00_Al_3.00_(PO_4_)_2_(OH)_4_
##PIN_ID=M00315
##ORIENTATION=Laser parallel to c* (0 0 1). Fiducial mark perpendicular to laser is parallel to a [1 0 0]
86.07200, 6106.000
87.30800, 6461.000
88.54200, 6807.000
89.77700, 6961.000
91.01200, 7138.000
92.24600, 7214.000
93.48000, 7369.000
94.71400, 7582.000
95.94800, 8024.000
97.18200, 8188.000
98.41600, 8473.000
99.64900, 9146.000
100.8830, 9802.000
102.1160, 10614.00
103.3490, 11409.00
104.5820, 11976.00
105.8150, 11507.00
107.0470, 10887.00
108.2800, 10326.00
109.5120, 10058.00
110.7440, 9807.000
111.9760, 9909.000
113.2080, 10250.00
114.4400, 10703.00
115.6710, 10869.00
116.9030, 10307.00
118.1340, 9519.000
119.3650, 8934.000
120.5960, 8503.000
121.8270, 8420.000
123.0580, 8498.000
124.2880, 8672.000
125.5190, 8566.000
126.7490, 8716.000
127.9790, 8759.000
129.2090, 8808.000
130.4390, 8640.000
131.6680, 8662.000
132.8980, 8469.000
134.1270, 8642.000
135.3560, 8744.000
136.5850, 8795.000
137.8140, 8992.000
139.0430, 9372.000
140.2710, 9610.000
141.5000, 9987.000
142.7280, 10357.00
143.9560, 10515.00
145.1840, 11158.00
146.4120, 11307.00
147.6390, 11436.00
148.8670, 11403.00
150.0940, 11169.00
151.3210, 10812.00
152.5490, 10499.00
153.7750, 10336.00
155.0020, 10201.00
156.2290, 10289.00
157.4550, 10047.00
158.6810, 10435.00
159.9080, 10338.00
161.1340, 10666.00
162.3590, 11132.00
163.5850, 11687.00
164.8110, 12037.00
166.0360, 12136.00
167.2610, 12899.00
168.4860, 13776.00
169.7110, 15040.00
170.9360, 16265.00
172.1610, 17280.00
173.3850, 16914.00
174.6100, 15474.00
175.8340, 14138.00
177.0580, 12889.00
178.2820, 12115.00
179.5050, 11462.00
180.7290, 11206.00
181.9520, 10966.00
183.1760, 10697.00
184.3990, 10687.00
185.6220, 10661.00
186.8450, 10689.00
188.0670, 10683.00
189.2900, 10698.00
190.5120, 10630.00
191.7340, 10722.00
192.9560, 10769.00
194.1780, 10719.00
195.4000, 10779.04
196.6220, 10692.00
197.8430, 10780.00
199.0640, 10811.00
200.2860, 10769.00
201.5070, 10979.00
202.7270, 11000.00
203.9480, 10814.00
205.1690, 10868.00
206.3890, 10782.00
207.6090, 10992.00
208.8290, 11189.00
210.0490, 11307.00
211.2690, 11711.00
212.4890, 11946.00
213.7080, 12263.00
214.9280, 12679.00
216.1470, 13364.00
217.3660, 13554.00
218.5850, 14028.00
219.8030, 13714.00
221.0220, 13251.00
222.2400, 12766.00
223.4590, 12381.00
224.6770, 12064.00
225.8950, 11936.00
227.1120, 11716.00
228.3300, 11772.00
229.5480, 11915.00
230.7650, 11929.00
231.9820, 11912.00
233.1990, 12187.00
234.4160, 12348.00
235.6330, 12566.00
236.8490, 12955.00
238.0660, 13284.00
239.2820, 13701.00
240.4980, 14168.00
241.7140, 14828.00
242.9300, 15367.00
244.1460, 16013.00
245.3610, 16404.00
246.5770, 16869.00
247.7920, 17410.00
249.0070, 18518.00
250.2220, 20536.00
251.4370, 22739.00
252.6510, 23825.00
253.8660, 23133.00
255.0800, 20617.00
256.2940, 17842.00
257.5080, 15871.00
258.7220, 14582.00
259.9360, 13756.00
261.1490, 13466.00
262.3630, 13049.00
263.5760, 13256.00
264.7890, 13248.00
266.0020, 13737.00
267.2150, 13839.00
268.4270, 14123.00
269.6400, 14416.00
270.8520, 14975.00
272.0640, 15132.00
273.2760, 15393.00
274.4880, 15836.00
275.7000, 15695.00
276.9120, 15208.00
278.1230, 14689.00
279.3340, 14063.00
280.5450, 13329.00
281.7560, 13080.00
282.9670, 12844.00
284.1780, 12866.00
285.3880, 12895.00
286.5980, 13084.00
287.8090, 13129.00
289.0190, 13252.00
290.2290, 13278.00
291.4380, 13069.00
292.6480, 13254.00
293.8570, 13347.00
295.0670, 13125.00
296.2760, 13220.00
297.4850, 13080.00
298.6930, 12904.00
299.9020, 12806.00
301.1110, 12797.00
302.3190, 12796.00
303.5270, 13059.00
304.7350, 13279.00
305.9430, 13767.00
307.1510, 14135.00
308.3580, 14760.00
309.5660, 15440.00
310.7730, 16118.00
311.9800, 16723.00
313.1870, 16833.00
314.3940, 16590.00
315.6010, 16231.00
316.8070, 15388.00
318.0130, 14770.00
319.2200, 14036.00
320.4260, 13630.00
321.6310, 13189.00
322.8370, 13088.00
324.0430, 12824.00
325.2480, 12686.00
326.4540, 12458.00
327.6590, 12486.00
328.8640, 12418.00
330.0680, 12447.00
331.2730, 12375.00
332.4780, 12305.00
333.6820, 12400.00
334.8860, 12519.00
336.0900, 12515.00
337.2940, 12492.00
338.4980, 12565.00
339.7010, 12646.00
340.9050, 12598.00
342.1080, 12733.00
343.3110, 12772.00
344.5140, 12883.00
345.7170, 13119.00
346.9200, 13382.00
348.1220, 13570.00
349.3240, 14038.00
350.5270, 14316.00
351.7290, 14867.00
352.9310, 15486.00
354.1320, 16200.00
355.3340, 16606.00
356.5350, 17186.00
357.7370, 17327.00
358.9380, 16900.00
360.1390, 16783.00
361.3400, 15998.00
362.5400, 15280.00
363.7410, 14752.00
364.9410, 14348.00
366.1410, 14215.00
367.3410, 13964.00
368.5410, 13734.00
369.7410, 13739.00
370.9400, 13668.00
372.1400, 13493.00
373.3390, 13384.00
374.5380, 13358.00
375.7370, 13370.00
376.9360, 13365.00
378.1350, 13211.00
379.3330, 13202.00
380.5310, 13151.00
381.7300, 13057.00
382.9280, 13134.00
384.1260, 13118.00
385.3230, 13121.54
386.5210, 13078.00
387.7180, 13197.00
388.9160, 13223.00
390.1130, 13351.00
391.3100, 13340.00
392.5060, 13542.00
393.7030, 13661.00
394.9000, 13640.00
396.0960, 13894.00
397.2920, 13990.00
398.4880, 14315.00
399.6840, 14608.00
400.8800, 14858.00
402.0750, 15193.00
403.2710, 15575.00
404.4660, 15827.00
405.6610, 16201.00
406.8560, 16820.00
408.0510, 16993.00
409.2450, 17338.00
410.4400, 17817.00
411.6340, 17920.00
412.8280, 18081.00
414.0220, 18023.00
415.2160, 17743.00
416.4100, 17367.00
417.6030, 17121.00
418.7970, 16833.00
419.9900, 16624.00
421.1830, 16565.00
422.3760, 16528.00
423.5690, 16646.00
424.7610, 16868.00
425.9540, 17299.00
427.1460, 17792.00
428.3380, 18498.00
429.5300, 19401.00
430.7220, 20369.00
431.9140, 21679.00
433.1050, 23247.00
434.2970, 24968.00
435.4880, 26991.00
436.6790, 28872.00
437.8700, 30504.00
439.0610, 31596.00
440.2510, 31593.00
441.4420, 30570.00
442.6320, 28945.00
443.8220, 26864.00
445.0120, 25182.00
446.2020, 24027.00
447.3910, 23024.00
448.5810, 22495.00
449.7700, 22551.00
450.9600, 22930.00
452.1490, 23245.00
453.3370, 23808.00
454.5260, 24323.83
455.7150, 25012.00
456.9030, 25670.00
458.0910, 26495.00
459.2800, 27449.00
460.4670, 28083.00
461.6550, 29273.00
462.8430, 30186.00
464.0300, 31065.00
465.2180, 31398.00
466.4050, 31182.00
467.5920, 30872.00
468.7790, 29643.00
469.9650, 27898.00
471.1520, 26082.00
472.3380, 24156.00
473.5250, 22530.00
474.7110, 21139.00
475.8970, 20210.00
477.0820, 19477.00
478.2680, 19060.00
479.4540, 18880.00
480.6390, 18459.00
481.8240, 18419.00
483.0090, 18387.00
484.1940, 18407.00
485.3780, 18447.00
486.5630, 18325.00
487.7470, 18330.00
488.9320, 18263.00
490.1160, 18368.00
491.3000, 18367.00
492.4830, 18573.00
493.6670, 18898.00
494.8500, 19143.00
496.0340, 19490.00
497.2170, 19967.00
498.4000, 20482.00
499.5820, 20884.00
500.7650, 21306.00
501.9480, 21555.88
503.1300, 21777.00
504.3120, 21907.00
505.4940, 22045.00
506.6760, 22109.00
507.8580, 22307.00
509.0390, 22480.00
510.2210, 22638.00
511.4020, 22874.00
512.5830, 22904.00
513.7640, 23339.00
514.9450, 23274.00
516.1250, 23569.00
517.3060, 23701.00
518.4860, 23786.00
519.6660, 23689.00
520.8460, 23885.00
522.0260, 24611.00
523.2060, 24982.00
524.3850, 25707.00
525.5650, 26435.00
526.7440, 27163.00
527.9230, 27842.00
529.1020, 28877.00
530.2810, 29505.00
531.4590, 29923.00
532.6380, 30324.00
533.8160, 30475.16
534.9940, 30595.00
536.1720, 30346.00
537.3500, 30236.00
538.5270, 29706.00
539.7050, 29289.00
540.8820, 28581.00
542.0590, 27924.00
543.2360, 27769.00
544.4130, 27582.00
545.5900, 27383.00
546.7660, 27545.00
547.9430, 27796.00
549.1190, 28536.00
550.2950, 29126.00
551.4710, 30175.00
552.6470, 31010.00
553.8220, 32659.00
554.9980, 33995.00
556.1730, 36152.00
557.3480, 37622.00
558.5230, 38853.00
559.6980, 39944.00
560.8730, 40621.00
562.0470, 41134.00
563.2220, 41226.35
564.3960, 41197.00
565.5700, 40442.00
566.7440, 39533.00
567.9170, 38172.00
569.0910, 36076.00
570.2640, 34241.00
571.4380, 31902.00
572.6110, 30065.00
573.7840, 28376.00
574.9570, 27044.00
576.1290, 25775.00
577.3020, 24949.00
578.4740, 24197.00
579.6460, 23577.00
580.8180, 22965.00
581.9900, 22678.00
583.1620, 22307.00
584.3330, 21887.00
585.5040, 21938.00
586.6760, 21560.00
587.8470, 21783.00
589.0180, 21684.00
590.1880, 21894.00
591.3590, 22094.00
592.5290, 22757.00
593.7000, 23105.00
594.8700, 23328.00
596.0400, 23920.00
597.2090, 24383.00
598.3790, 24777.00
599.5490, 24786.00
600.7180, 24832.00
601.8870, 24412.00
603.0560, 24014.00
604.2250, 23639.00
605.3940, 23240.00
606.5620, 23045.59
607.7300, 22749.00
608.8990, 22782.00
610.0670, 22732.00
611.2350, 22786.00
612.4020, 22752.00
613.5700, 22807.00
614.7370, 22681.00
615.9050, 22391.00
617.0720, 22363.00
618.2390, 21763.00
619.4060, 21567.00
620.5720, 21213.00
621.7390, 21025.00
622.9050, 20845.00
624.0710, 20795.00
625.2370, 20969.00
626.4030, 21003.00
627.5690, 21110.00
628.7340, 21602.00
629.9000, 21729.00
631.0650, 21809.00
632.2300, 22009.00
633.3950, 22112.00
634.5600, 22160.00
635.7240, 21691.00
636.8890, 21747.00
638.0530, 21247.00
639.2170, 20941.00
640.3810, 20665.00
641.5450, 20298.62
642.7080, 20166.00
643.8720, 19764.00
645.0350, 19559.00
646.1980, 19432.00
647.3610, 19391.00
648.5240, 19428.84
649.6870, 19558.45
650.8490, 19694.00
652.0120, 19985.00
653.1740, 20201.00
654.3360, 20433.00
655.4980, 20609.00
656.6600, 20919.00
657.8210, 21010.00
658.9830, 21223.00
660.1440, 21142.00
661.3050, 21234.00
662.4660, 20911.00
663.6270, 20702.00
664.7870, 20252.00
665.9480, 19982.00
667.1080, 19920.00
668.2680, 19383.00
669.4280, 19141.00
670.5880, 19019.00
671.7480, 18643.00
672.9070, 18505.00
674.0670, 18349.00
675.2260, 18222.00
676.3850, 18153.00
677.5440, 17793.00
678.7030, 17827.00
679.8610, 17739.00
681.0200, 17538.00
682.1780, 17555.00
683.3360, 17555.00
684.4940, 17281.00
685.6520, 17289.00
686.8090, 17239.00
687.9670, 17149.00
689.1240, 16965.00
690.2810, 17016.00
691.4380, 16817.00
692.5950, 16951.00
693.7520, 17023.00
694.9080, 16694.00
696.0650, 16804.00
697.2210, 16702.00
698.3770, 16771.00
699.5330, 16893.00
700.6880, 16754.00
701.8440, 16827.00
702.9990, 16859.00
704.1550, 16925.00
705.3100, 17003.00
706.4650, 17029.00
707.6190, 17192.00
708.7740, 17105.00
709.9290, 17301.00
711.0830, 17367.00
712.2370, 17484.64
713.3910, 17731.00
714.5450, 17811.00
715.6980, 17945.00
716.8520, 18146.00
718.0050, 18248.00
719.1580, 18316.00
720.3110, 18485.00
721.4640, 18475.00
722.6170, 18447.00
723.7700, 18600.00
724.9220, 18388.00
726.0740, 18292.00
727.2260, 18264.00
728.3780, 18237.00
729.5300, 18093.00
730.6810, 18170.00
731.8330, 18146.00
732.9840, 17950.00
734.1350, 17956.00
735.2860, 18063.00
736.4370, 18025.00
737.5880, 18071.00
738.7380, 18109.00
739.8880, 18116.00
741.0390, 18012.00
742.1890, 17915.00
743.3380, 17938.00
744.4880, 17958.00
745.6380, 18028.00
746.7870, 17893.00
747.9360, 18023.00
749.0850, 17822.00
750.2340, 17754.00
751.3830, 17774.00
752.5310, 17748.00
753.6800, 17757.80
754.8280, 17761.77
755.9760, 17820.00
757.1240, 17792.00
758.2720, 17863.00
759.4190, 17924.00
760.5670, 17916.00
761.7140, 17838.00
762.8610, 17824.00
764.0080, 17971.00
765.1550, 17831.00
766.3020, 17998.00
767.4480, 17940.00
768.5950, 18074.00
769.7410, 17975.00
770.8870, 18065.00
772.0330, 18031.00
773.1780, 17965.00
774.3240, 17995.00
775.4690, 17940.00
776.6140, 17964.36
777.7590, 18170.00
778.9040, 18017.00
780.0490, 18143.00
781.1940, 18187.00
782.3380, 18144.00
783.4820, 18238.00
784.6260, 18099.00
785.7700, 18150.00
786.9140, 18234.00
788.0580, 18311.00
789.2010, 18241.00
790.3450, 18334.00
791.4880, 18348.00
792.6310, 18302.00
793.7730, 18321.00
794.9160, 18399.00
796.0590, 18548.00
797.2010, 18402.00
798.3430, 18333.00
799.4850, 18487.00
800.6270, 18541.00
801.7690, 18384.00
802.9100, 18324.00
804.0520, 18214.00
805.1930, 18341.00
806.3340, 18335.00
807.4750, 18541.00
808.6160, 18214.00
809.7560, 18114.00
810.8970, 18261.00
812.0370, 18173.00
813.1770, 18285.00
814.3170, 18154.00
815.4570, 18351.00
816.5960, 18263.00
817.7360, 18271.00
818.8750, 18161.00
820.0140, 18208.00
821.1530, 18086.00
822.2920, 18294.00
823.4310, 18323.00
824.5690, 18210.00
825.7070, 18201.00
826.8460, 18178.00
827.9840, 18193.00
829.1220, 18342.00
830.2590, 18289.00
831.3970, 18342.00
832.5340, 18225.00
833.6710, 18436.00
834.8080, 18457.00
835.9450, 18135.00
837.0820, 18096.00
838.2190, 18379.00
839.3550, 18365.00
840.4910, 18370.00
841.6270, 18473.00
842.7630, 18356.00
843.8990, 18359.00
845.0350, 18432.00
846.1700, 18173.00
847.3060, 18068.00
848.4410, 18487.00
849.5760, 18419.00
850.7100, 18284.00
851.8450, 18547.00
852.9800, 18525.00
854.1140, 18418.00
855.2480, 18474.00
856.3820, 18453.00
857.5160, 18500.00
858.6500, 18502.00
859.7830, 18576.00
860.9170, 18600.86
862.0500, 18689.00
863.1830, 18666.00
864.3160, 18631.00
865.4480, 18628.00
866.5810, 18823.00
867.7130, 18664.00
868.8460, 18700.00
869.9780, 18789.00
871.1100, 18644.00
872.2410, 18712.00
873.3730, 18634.00
874.5050, 18773.00
875.6360, 18856.00
876.7670, 18793.00
877.8980, 18564.00
879.0290, 18907.00
880.1590, 18771.00
881.2900, 18889.00
882.4200, 18914.00
883.5500, 18654.00
884.6800, 18898.00
885.8100, 18970.00
886.9400, 18861.00
888.0690, 18973.00
889.1990, 18909.00
890.3280, 19066.00
891.4570, 18932.00
892.5860, 19002.00
893.7140, 19080.00
894.8430, 19022.00
895.9710, 19201.00
897.1000, 19078.00
898.2280, 19067.00
899.3560, 19079.00
900.4830, 19057.00
901.6110, 19473.00
902.7380, 19181.00
903.8660, 19472.00
904.9930, 19271.00
906.1200, 19390.00
907.2460, 19259.00
908.3730, 19614.00
909.5000, 19375.00
910.6260, 19479.00
911.7520, 19493.00
912.8780, 19528.00
914.0040, 19608.00
915.1290, 19670.00
916.2550, 19750.89
917.3800, 19775.60
918.5050, 19913.00
919.6300, 19866.00
920.7550, 19900.00
921.8800, 20050.00
923.0040, 19872.00
924.1290, 20120.00
925.2530, 20089.00
926.3770, 19957.00
927.5010, 20133.00
928.6250, 20127.98
929.7480, 20309.00
930.8720, 20323.00
931.9950, 20500.00
933.1180, 20631.00
934.2410, 20883.00
935.3640, 20891.00
936.4860, 21014.00
937.6090, 20952.00
938.7310, 21089.00
939.8530, 21204.00
940.9750, 21521.00
942.0970, 21427.00
943.2180, 21657.00
944.3400, 21959.00
945.4610, 22097.00
946.5820, 22297.00
947.7030, 22451.00
948.8240, 22784.00
949.9450, 23055.00
951.0650, 23474.00
952.1860, 23501.00
953.3060, 23921.00
954.4260, 24240.00
955.5460, 24717.00
956.6650, 25295.00
957.7850, 25915.00
958.9040, 26634.00
960.0230, 27514.80
961.1420, 28093.00
962.2610, 29551.00
963.3800, 30707.00
964.4990, 31971.00
965.6170, 33918.00
966.7350, 35765.00
967.8530, 37630.00
968.9710, 40103.00
970.0890, 42095.00
971.2070, 43872.00
972.3240, 44996.00
973.4410, 45793.00
974.5580, 45720.00
975.6750, 45187.00
976.7920, 44456.00
977.9090, 43172.00
979.0250, 42636.00
980.1410, 42096.00
981.2580, 41914.00
982.3740, 42033.00
983.4890, 42650.00
984.6050, 43009.00
985.7200, 43871.00
986.8360, 44120.00
987.9510, 44212.00
989.0660, 43636.00
990.1810, 42319.00
991.2950, 40976.00
992.4100, 39153.00
993.5240, 37700.00
994.6390, 36486.00
995.7530, 35511.00
996.8660, 34616.00
997.9800, 33934.00
999.0940, 33531.63
1000.207, 33263.00
1001.320, 33237.00
1002.433, 33404.00
1003.546, 33664.00
1004.659, 34178.00
1005.772, 34839.00
1006.884, 35568.00
1007.996, 37026.00
1009.108, 38351.00
1010.220, 40211.00
1011.332, 42800.00
1012.444, 45355.00
1013.555, 48458.00
1014.666, 51236.00
1015.777, 54433.00
1016.888, 57492.00
1017.999, 59124.00
1019.110, 60718.00
1020.220, 61286.00
1021.331, 60871.00
1022.441, 59556.00
1023.551, 58379.00
1024.661, 56524.00
1025.770, 54807.00
1026.880, 52827.00
1027.989, 51624.00
1029.098, 50246.00
1030.207, 49192.00
1031.316, 48097.00
1032.425, 47520.00
1033.533, 46629.00
1034.642, 46261.00
1035.750, 45938.00
1036.858, 45178.00
1037.966, 45029.00
1039.073, 44264.00
1040.181, 44054.00
1041.288, 43270.00
1042.396, 42403.00
1043.503, 41530.00
1044.610, 40534.00
1045.716, 39334.00
1046.823, 38125.00
1047.929, 36614.00
1049.036, 35732.00
1050.142, 34667.00
1051.248, 33761.00
1052.353, 32809.00
1053.459, 32253.00
1054.564, 31603.00
1055.670, 30791.00
1056.775, 30538.00
1057.880, 30172.00
1058.985, 30018.00
1060.089, 29634.00
1061.194, 29326.00
1062.298, 29288.00
1063.402, 29400.00
1064.506, 29266.00
1065.610, 29113.00
1066.713, 29147.00
1067.817, 29021.00
1068.920, 29024.00
1070.023, 29305.00
1071.126, 29091.00
1072.229, 29187.00
1073.332, 29353.00
1074.435, 29068.00
1075.537, 29342.00
1076.639, 29318.00
1077.741, 29142.00
1078.843, 28896.00
1079.945, 28958.00
1081.046, 28925.00
1082.148, 28779.00
1083.249, 28265.00
1084.350, 28134.00
1085.451, 27943.00
1086.551, 27639.00
1087.652, 27372.00
1088.752, 27104.00
1089.853, 26801.00
1090.953, 26648.00
1092.053, 26184.00
1093.152, 26265.00
1094.252, 25914.00
1095.351, 25782.00
1096.451, 25784.00
1097.550, 25799.00
1098.649, 25746.00
1099.748, 25814.00
1100.846, 25737.00
1101.945, 26015.00
1103.043, 26248.00
1104.141, 26645.00
1105.239, 27230.00
1106.337, 27628.00
1107.434, 28541.00
1108.532, 29527.00
1109.629, 31112.00
1110.726, 32360.00
1111.823, 34297.00
1112.920, 36263.00
1114.017, 38340.00
1115.113, 40164.00
1116.210, 41423.00
1117.306, 41435.00
1118.402, 40570.00
1119.498, 39327.00
1120.593, 37411.00
1121.689, 35539.00
1122.784, 34429.00
1123.879, 33098.00
1124.974, 32385.00
1126.069, 31056.00
1127.164, 30317.00
1128.259, 29382.00
1129.353, 28596.00
1130.447, 27958.00
1131.541, 27418.00
1132.635, 26963.00
1133.729, 26676.00
1134.822, 26424.00
1135.916, 26207.00
1137.009, 26157.00
1138.102, 26027.00
1139.195, 26123.00
1140.288, 26451.00
1141.380, 26594.00
1142.473, 26992.00
1143.565, 27687.00
1144.657, 28409.00
1145.749, 29079.00
1146.841, 29394.00
1147.932, 29273.00
1149.024, 29260.00
1150.115, 28666.00
1151.206, 27816.00
1152.297, 26968.00
1153.388, 26210.00
1154.479, 25430.00
1155.569, 25198.00
1156.659, 24632.00
1157.750, 24264.00
1158.839, 24180.00
1159.929, 23928.00
1161.019, 23876.00
1162.108, 23736.00
1163.198, 23577.00
1164.287, 23604.00
1165.376, 23443.00
1166.465, 23276.00
1167.553, 23243.00
1168.642, 23278.00
1169.730, 23208.00
1170.818, 23165.00
1171.906, 23293.00
1172.994, 23177.04
1174.082, 23015.00
1175.170, 23058.00
1176.257, 22932.00
1177.344, 22838.00
1178.431, 22771.00
1179.518, 22832.00
1180.605, 22629.00
1181.691, 22775.00
1182.778, 22599.00
1183.864, 22827.00
1184.950, 22848.00
1186.036, 22885.00
1187.122, 22648.00
1188.207, 22606.00
1189.292, 22582.70
1190.378, 22612.00
1191.463, 22647.00
1192.548, 22666.66
1193.632, 22689.00
1194.717, 22693.00
1195.801, 22679.00
1196.886, 22581.00
1197.970, 22649.00
1199.054, 22465.00
1200.137, 22749.00
1201.221, 22824.00
1202.305, 22497.00
1203.388, 22770.00
1204.471, 22593.00
1205.554, 22719.00
1206.637, 22768.00
1207.719, 22790.00
1208.802, 22765.00
1209.884, 22728.00
1210.966, 22723.95
1212.048, 22739.00
1213.130, 22706.00
1214.212, 22724.00
1215.293, 22772.00
1216.374, 22623.00
1217.456, 22785.00
1218.536, 22822.00
1219.617, 22922.00
1220.698, 22690.00
1221.778, 22766.00
1222.859, 22837.00
1223.939, 22701.00
1225.019, 22862.00
1226.099, 22766.00
1227.178, 22786.00
1228.258, 22766.00
1229.337, 22785.00
1230.417, 22910.00
1231.496, 22775.00
1232.574, 22951.00
1233.653, 22816.00
1234.732, 23006.00
1235.810, 22881.00
1236.888, 23135.00
1237.966, 22959.00
1239.044, 22876.00
1240.122, 22878.00
1241.199, 22919.00
1242.277, 22807.00
1243.354, 22905.00
1244.431, 23011.00
1245.508, 22699.00
1246.585, 22970.00
1247.661, 22832.00
1248.738, 23136.00
1249.814, 22942.00
1250.890, 22884.00
1251.966, 23073.00
1253.042, 22893.00
1254.117, 23029.00
1255.193, 23102.00
1256.268, 23018.00
1257.343, 22974.00
1258.418, 23065.00
1259.493, 23113.00
1260.567, 23167.00
1261.642, 23256.00
1262.716, 23327.00
1263.790, 23262.88
1264.864, 23106.00
1265.938, 23118.00
1267.011, 23046.00
1268.085, 23000.00
1269.158, 23171.00
