##NAMES=Brazilianite
##RRUFFID=R050319
##IDEAL CHEMISTRY=NaAl_3_(PO_4_)_2_(OH)_4_
##LOCALITY=Minas Gerais, Brazil
##OWNER=RRUFF
##SOURCE=American Museum of Natural History
##DESCRIPTION=Pale green fragment
##STATUS=The identification of this mineral has been confirmed by X-ray diffraction and chemical analysis
##URL=rruff.info/R050319
##MEASURED CHEMISTRY=Na_1.00_Al_3.00_(PO_4_)_2_(OH)_4_
##PIN_ID=M00183
##ORIENTATION=Laser parallel to a* (1 0 0). Fiducial mark perpendicular to laser is parallel to -b [0 -1 0]
86.07200, 11049.00
87.30800, 11448.00
88.54200, 11944.00
89.77700, 11419.00
91.01200, 11405.00
92.24600, 11415.00
93.48000, 11499.00
94.71400, 11765.00
95.94800, 12025.00
97.18200, 12420.00
98.41600, 12661.00
99.64900, 12966.00
100.8830, 13823.00
102.1160, 14267.00
103.3490, 14327.00
104.5820, 14273.00
105.8150, 14404.00
107.0470, 14300.00
108.2800, 14182.00
109.5120, 14053.00
110.7440, 13454.00
111.9760, 13270.00
113.2080, 13188.00
114.4400, 13036.00
115.6710, 12872.00
116.9030, 12505.00
118.1340, 12449.00
119.3650, 12177.00
120.5960, 11952.00
121.8270, 11797.00
123.0580, 11681.75
124.2880, 11790.00
125.5190, 11663.00
126.7490, 11799.00
127.9790, 12022.00
129.2090, 12031.00
130.4390, 12067.00
131.6680, 12174.00
132.8980, 12247.00
134.1270, 12492.00
135.3560, 12449.00
136.5850, 12971.00
137.8140, 13240.00
139.0430, 13832.00
140.2710, 14226.00
141.5000, 14470.00
142.7280, 14884.00
143.9560, 14911.00
145.1840, 14900.00
146.4120, 15054.00
147.6390, 14718.00
148.8670, 14459.00
150.0940, 14283.00
151.3210, 14143.00
152.5490, 14166.00
153.7750, 14147.00
155.0020, 14196.00
156.2290, 14681.00
157.4550, 15191.00
158.6810, 15527.00
159.9080, 16090.00
161.1340, 17051.00
162.3590, 18225.00
163.5850, 19400.00
164.8110, 19787.00
166.0360, 20167.00
167.2610, 20291.00
168.4860, 21013.00
169.7110, 21621.00
170.9360, 21514.00
172.1610, 21011.00
173.3850, 20400.00
174.6100, 19736.00
175.8340, 18737.00
177.0580, 17455.00
178.2820, 16562.00
179.5050, 15464.00
180.7290, 14878.00
181.9520, 14703.00
183.1760, 14625.00
184.3990, 14401.00
185.6220, 14502.00
186.8450, 14440.00
188.0670, 14516.00
189.2900, 14606.00
190.5120, 14522.00
191.7340, 14533.00
192.9560, 14680.00
194.1780, 14884.00
195.4000, 14682.00
196.6220, 14707.00
197.8430, 14592.00
199.0640, 14546.00
200.2860, 14587.00
201.5070, 14613.00
202.7270, 14593.00
203.9480, 14663.00
205.1690, 14505.00
206.3890, 14311.00
207.6090, 14458.00
208.8290, 14605.00
210.0490, 14810.00
211.2690, 15023.00
212.4890, 15325.00
213.7080, 15454.00
214.9280, 15878.00
216.1470, 16134.00
217.3660, 16186.00
218.5850, 16087.00
219.8030, 15923.00
221.0220, 16019.00
222.2400, 15861.00
223.4590, 15602.00
224.6770, 15708.00
225.8950, 15459.00
227.1120, 15470.00
228.3300, 15499.00
229.5480, 15638.00
230.7650, 15521.00
231.9820, 15856.00
233.1990, 15805.00
234.4160, 16148.00
235.6330, 16271.00
236.8490, 16560.00
238.0660, 16440.00
239.2820, 16629.00
240.4980, 16878.00
241.7140, 17028.00
242.9300, 17409.00
244.1460, 17690.00
245.3610, 18154.00
246.5770, 18211.00
247.7920, 18288.00
249.0070, 18675.00
250.2220, 18856.00
251.4370, 18787.00
252.6510, 18411.00
253.8660, 18038.00
255.0800, 17770.00
256.2940, 16911.00
257.5080, 16389.00
258.7220, 15679.00
259.9360, 15541.00
261.1490, 15190.00
262.3630, 15147.00
263.5760, 15134.00
264.7890, 15050.00
266.0020, 15170.00
267.2150, 15394.00
268.4270, 15603.00
269.6400, 15728.00
270.8520, 15911.00
272.0640, 15910.00
273.2760, 16235.00
274.4880, 16299.00
275.7000, 16260.00
276.9120, 16257.00
278.1230, 16208.00
279.3340, 16200.00
280.5450, 16049.00
281.7560, 15844.00
282.9670, 15773.00
284.1780, 15803.00
285.3880, 15869.00
286.5980, 15954.00
287.8090, 16231.00
289.0190, 16273.00
290.2290, 16551.00
291.4380, 16452.00
292.6480, 16661.00
293.8570, 16957.00
295.0670, 16805.00
296.2760, 16652.00
297.4850, 16787.00
298.6930, 16407.00
299.9020, 16195.00
301.1110, 16263.00
302.3190, 16067.00
303.5270, 16202.00
304.7350, 16312.00
305.9430, 16378.00
307.1510, 16600.00
308.3580, 16545.00
309.5660, 16707.00
310.7730, 16820.00
311.9800, 17098.00
313.1870, 17135.00
314.3940, 17189.00
315.6010, 17076.00
316.8070, 16907.00
318.0130, 16924.00
319.2200, 16726.80
320.4260, 16612.00
321.6310, 16372.00
322.8370, 16212.00
324.0430, 15919.00
325.2480, 15822.46
326.4540, 15809.00
327.6590, 15662.00
328.8640, 15660.00
330.0680, 15721.00
331.2730, 15567.00
332.4780, 15540.00
333.6820, 15494.00
334.8860, 15530.00
336.0900, 15500.00
337.2940, 15611.00
338.4980, 15509.00
339.7010, 15657.00
340.9050, 15588.00
342.1080, 15466.00
343.3110, 15645.00
344.5140, 15842.00
345.7170, 15916.00
346.9200, 16106.98
348.1220, 16268.71
349.3240, 16417.00
350.5270, 16586.00
351.7290, 16761.00
352.9310, 16849.00
354.1320, 17075.00
355.3340, 17051.00
356.5350, 17144.00
357.7370, 17175.00
358.9380, 17018.00
360.1390, 16926.00
361.3400, 16797.00
362.5400, 16780.00
363.7410, 16674.00
364.9410, 16715.00
366.1410, 16751.00
367.3410, 16778.00
368.5410, 16766.00
369.7410, 16779.00
370.9400, 16821.38
372.1400, 16795.78
373.3390, 16893.00
374.5380, 16794.00
375.7370, 16776.00
376.9360, 16819.00
378.1350, 16755.00
379.3330, 16745.00
380.5310, 16693.76
381.7300, 16554.00
382.9280, 16511.00
384.1260, 16577.00
385.3230, 16385.00
386.5210, 16472.00
387.7180, 16630.00
388.9160, 16540.00
390.1130, 16605.00
391.3100, 16861.00
392.5060, 17026.00
393.7030, 17085.00
394.9000, 17245.00
396.0960, 17310.00
397.2920, 17270.00
398.4880, 17643.00
399.6840, 17661.00
400.8800, 17922.00
402.0750, 18012.00
403.2710, 18069.00
404.4660, 18313.00
405.6610, 18439.00
406.8560, 18492.20
408.0510, 18528.00
409.2450, 18558.00
410.4400, 18530.00
411.6340, 18493.00
412.8280, 18467.04
414.0220, 18500.00
415.2160, 18395.00
416.4100, 18230.00
417.6030, 18237.00
418.7970, 18138.00
419.9900, 18000.00
421.1830, 18108.00
422.3760, 18109.00
423.5690, 18292.00
424.7610, 18540.00
425.9540, 18757.29
427.1460, 18952.00
428.3380, 19497.00
429.5300, 19972.00
430.7220, 20628.00
431.9140, 21365.00
433.1050, 21938.00
434.2970, 22592.00
435.4880, 22801.00
436.6790, 23752.00
437.8700, 23774.00
439.0610, 23910.00
440.2510, 23677.00
441.4420, 23322.00
442.6320, 22820.00
443.8220, 22439.00
445.0120, 21790.00
446.2020, 21546.00
447.3910, 21521.00
448.5810, 21389.00
449.7700, 21424.00
450.9600, 21570.00
452.1490, 22040.00
453.3370, 22295.00
454.5260, 22831.00
455.7150, 23327.00
456.9030, 23756.00
458.0910, 24299.00
459.2800, 24913.00
460.4670, 25157.00
461.6550, 25426.00
462.8430, 25901.00
464.0300, 26007.00
465.2180, 25738.00
466.4050, 25473.00
467.5920, 25201.00
468.7790, 24673.00
469.9650, 24114.00
471.1520, 23618.00
472.3380, 23223.00
473.5250, 22747.00
474.7110, 22786.00
475.8970, 22620.00
477.0820, 22772.00
478.2680, 22803.00
479.4540, 22939.00
480.6390, 23304.00
481.8240, 23436.00
483.0090, 23789.00
484.1940, 24221.00
485.3780, 24256.00
486.5630, 24788.00
487.7470, 24746.00
488.9320, 25316.00
490.1160, 25758.00
491.3000, 26312.00
492.4830, 26668.00
493.6670, 27453.00
494.8500, 28221.00
496.0340, 28496.00
497.2170, 29461.00
498.4000, 29889.00
499.5820, 30274.00
500.7650, 30783.00
501.9480, 30991.00
503.1300, 31295.00
504.3120, 31452.00
505.4940, 31563.00
506.6760, 31666.88
507.8580, 31695.05
509.0390, 31680.00
510.2210, 31708.00
511.4020, 31609.00
512.5830, 31636.00
513.7640, 31233.00
514.9450, 31054.00
516.1250, 30885.00
517.3060, 30671.00
518.4860, 30436.00
519.6660, 30412.00
520.8460, 30369.00
522.0260, 30690.00
523.2060, 30802.00
524.3850, 31127.00
525.5650, 31275.00
526.7440, 31925.00
527.9230, 32294.00
529.1020, 32305.00
530.2810, 32478.00
531.4590, 32482.00
532.6380, 32497.00
533.8160, 32115.00
534.9940, 31443.00
536.1720, 31338.00
537.3500, 30803.00
538.5270, 30247.00
539.7050, 30034.00
540.8820, 29443.00
542.0590, 29215.00
543.2360, 29260.00
544.4130, 29153.00
545.5900, 29511.00
546.7660, 30080.00
547.9430, 30861.00
549.1190, 32122.00
550.2950, 32873.00
551.4710, 34096.00
552.6470, 36218.00
553.8220, 37188.00
554.9980, 38611.00
556.1730, 39778.00
557.3480, 40389.00
558.5230, 41158.00
559.6980, 41288.00
560.8730, 41358.00
562.0470, 41176.00
563.2220, 40724.81
564.3960, 40042.00
565.5700, 39230.00
566.7440, 38274.00
567.9170, 36998.00
569.0910, 35733.00
570.2640, 34404.00
571.4380, 33087.00
572.6110, 31705.00
573.7840, 30483.00
574.9570, 29817.00
576.1290, 28864.00
577.3020, 28516.00
578.4740, 27912.00
579.6460, 27520.00
580.8180, 27098.00
581.9900, 27039.00
583.1620, 26833.00
584.3330, 27042.00
585.5040, 26942.00
586.6760, 27171.00
587.8470, 27553.00
589.0180, 28231.00
590.1880, 28808.00
591.3590, 30026.00
592.5290, 31060.00
593.7000, 32265.00
594.8700, 33712.00
596.0400, 34704.00
597.2090, 35462.00
598.3790, 36185.00
599.5490, 36201.00
600.7180, 35996.00
601.8870, 35319.00
603.0560, 34238.00
604.2250, 33519.00
605.3940, 32573.00
606.5620, 31834.00
607.7300, 31578.00
608.8990, 31072.00
610.0670, 31354.00
611.2350, 31162.00
612.4020, 31157.00
613.5700, 30668.00
614.7370, 30626.00
615.9050, 29787.00
617.0720, 29556.00
618.2390, 28938.00
619.4060, 27992.00
620.5720, 27457.00
621.7390, 27016.00
622.9050, 26717.00
624.0710, 26413.00
625.2370, 26259.00
626.4030, 26467.00
627.5690, 26594.00
628.7340, 26407.00
629.9000, 26602.00
631.0650, 26722.00
632.2300, 26642.00
633.3950, 26501.00
634.5600, 26167.00
635.7240, 26040.00
636.8890, 25601.00
638.0530, 24958.00
639.2170, 24752.00
640.3810, 24360.00
641.5450, 23829.00
642.7080, 23476.00
643.8720, 23204.00
645.0350, 23007.00
646.1980, 22758.00
647.3610, 22423.00
648.5240, 22550.00
649.6870, 22450.00
650.8490, 22200.00
652.0120, 22311.00
653.1740, 22211.00
654.3360, 22197.00
655.4980, 22493.00
656.6600, 22328.00
657.8210, 22181.00
658.9830, 22189.00
660.1440, 21982.00
661.3050, 22024.00
662.4660, 21888.00
663.6270, 21781.00
664.7870, 21710.00
665.9480, 21484.00
667.1080, 21460.00
668.2680, 21226.00
669.4280, 21100.00
670.5880, 21084.00
671.7480, 21100.00
672.9070, 20875.00
674.0670, 20877.00
675.2260, 20866.00
676.3850, 21079.00
677.5440, 20916.00
678.7030, 20850.00
679.8610, 20571.00
681.0200, 20664.00
682.1780, 20454.00
683.3360, 20615.00
684.4940, 20474.00
685.6520, 20747.00
686.8090, 20646.00
687.9670, 20486.00
689.1240, 20449.00
690.2810, 20511.00
691.4380, 20455.00
692.5950, 20541.00
693.7520, 20545.30
694.9080, 20551.00
696.0650, 20572.00
697.2210, 20557.68
698.3770, 20614.00
699.5330, 20519.00
700.6880, 20524.00
701.8440, 20469.00
702.9990, 20647.00
704.1550, 20672.00
705.3100, 20751.00
706.4650, 20805.48
707.6190, 20874.00
708.7740, 20955.69
709.9290, 21022.00
711.0830, 21135.00
712.2370, 21189.03
713.3910, 21308.41
714.5450, 21341.00
715.6980, 21476.00
716.8520, 21557.00
718.0050, 21606.00
719.1580, 21661.00
720.3110, 21723.00
721.4640, 21752.00
722.6170, 21833.00
723.7700, 21756.00
724.9220, 21580.00
726.0740, 21742.00
727.2260, 21625.00
728.3780, 21404.00
729.5300, 21541.00
730.6810, 21503.00
731.8330, 21509.00
732.9840, 21311.00
734.1350, 21474.00
735.2860, 21607.00
736.4370, 21392.00
737.5880, 21421.00
738.7380, 21457.00
739.8880, 21622.00
741.0390, 21549.00
742.1890, 21569.00
743.3380, 21779.00
744.4880, 21664.00
745.6380, 21602.00
746.7870, 21864.00
747.9360, 21781.00
749.0850, 21875.00
750.2340, 21825.00
751.3830, 21929.00
752.5310, 21805.00
753.6800, 21890.00
754.8280, 21959.00
755.9760, 21942.00
757.1240, 22103.00
758.2720, 22077.00
759.4190, 22193.00
760.5670, 22180.00
761.7140, 22263.00
762.8610, 22435.00
764.0080, 22269.00
765.1550, 22353.00
766.3020, 22318.00
767.4480, 22196.00
768.5950, 22043.00
769.7410, 22235.00
770.8870, 22143.00
772.0330, 22153.00
773.1780, 22153.08
774.3240, 22105.25
775.4690, 22089.00
776.6140, 22077.00
777.7590, 22104.00
778.9040, 22140.00
780.0490, 22155.00
781.1940, 22144.00
782.3380, 22195.00
783.4820, 22176.00
784.6260, 22229.00
785.7700, 22250.22
786.9140, 22243.00
788.0580, 22330.00
789.2010, 22433.00
790.3450, 22523.00
791.4880, 22460.00
792.6310, 22507.00
793.7730, 22519.62
794.9160, 22565.76
796.0590, 22592.00
797.2010, 22744.00
798.3430, 22896.00
799.4850, 23074.00
800.6270, 23093.00
801.7690, 22984.00
802.9100, 23029.00
804.0520, 23032.00
805.1930, 23099.00
806.3340, 23036.50
807.4750, 23015.00
808.6160, 22919.00
809.7560, 22878.00
810.8970, 22831.00
812.0370, 22726.00
813.1770, 22882.00
814.3170, 22869.00
815.4570, 22763.00
816.5960, 22682.00
817.7360, 22679.00
818.8750, 22684.00
820.0140, 22572.00
821.1530, 22755.00
822.2920, 22786.00
823.4310, 22726.00
824.5690, 22830.00
825.7070, 22633.00
826.8460, 22561.00
827.9840, 22442.00
829.1220, 22614.00
830.2590, 22644.00
831.3970, 22417.00
832.5340, 22518.00
833.6710, 22348.00
834.8080, 22538.00
835.9450, 22636.00
837.0820, 22466.00
838.2190, 22595.00
839.3550, 22534.00
840.4910, 22624.00
841.6270, 22604.00
842.7630, 22545.00
843.8990, 22553.40
845.0350, 22540.25
846.1700, 22522.00
847.3060, 22548.00
848.4410, 22638.00
849.5760, 22645.99
850.7100, 22659.00
851.8450, 22653.00
852.9800, 22590.00
854.1140, 22600.00
855.2480, 22719.00
856.3820, 22833.00
857.5160, 22600.00
858.6500, 22781.00
859.7830, 22938.00
860.9170, 22643.00
862.0500, 22876.00
863.1830, 22806.00
864.3160, 22949.00
865.4480, 22801.00
866.5810, 22898.00
867.7130, 22891.53
868.8460, 22852.00
869.9780, 22938.00
871.1100, 22838.00
872.2410, 22930.00
873.3730, 22853.00
874.5050, 22819.00
875.6360, 22801.00
876.7670, 22793.85
877.8980, 22919.00
879.0290, 22868.00
880.1590, 22883.00
881.2900, 23008.00
882.4200, 22849.00
883.5500, 22924.00
884.6800, 23006.00
885.8100, 22835.00
886.9400, 22968.00
888.0690, 23127.00
889.1990, 23169.00
890.3280, 23134.00
891.4570, 23131.00
892.5860, 23089.00
893.7140, 23220.00
894.8430, 23211.00
895.9710, 23259.46
897.1000, 23294.00
898.2280, 23293.00
899.3560, 23436.00
900.4830, 23345.00
901.6110, 23503.00
902.7380, 23375.00
903.8660, 23506.00
904.9930, 23611.00
906.1200, 23643.00
907.2460, 23503.00
908.3730, 23457.00
909.5000, 23746.00
910.6260, 23882.00
911.7520, 23705.00
912.8780, 23707.00
914.0040, 23691.00
915.1290, 23779.00
916.2550, 23874.00
917.3800, 24111.00
918.5050, 24153.00
919.6300, 24114.00
920.7550, 24130.00
921.8800, 24109.00
923.0040, 24196.59
924.1290, 24187.00
925.2530, 24375.00
926.3770, 24507.00
927.5010, 24547.00
928.6250, 24625.32
929.7480, 24659.51
930.8720, 24692.00
931.9950, 24705.00
933.1180, 24800.00
934.2410, 24854.00
935.3640, 25096.00
936.4860, 25161.00
937.6090, 25308.45
938.7310, 25451.00
939.8530, 25584.00
940.9750, 25673.00
942.0970, 25829.00
943.2180, 26056.00
944.3400, 26030.00
945.4610, 26417.00
946.5820, 26326.00
947.7030, 26658.00
948.8240, 26615.00
949.9450, 26759.00
951.0650, 27053.00
952.1860, 27178.00
953.3060, 27434.00
954.4260, 27814.00
955.5460, 27936.00
956.6650, 28261.00
957.7850, 28600.00
958.9040, 28730.00
960.0230, 29439.00
961.1420, 29978.00
962.2610, 30693.00
963.3800, 31573.00
964.4990, 32323.00
965.6170, 33082.00
966.7350, 34449.00
967.8530, 35341.00
968.9710, 36218.00
970.0890, 37167.00
971.2070, 38039.00
972.3240, 38786.00
973.4410, 38917.00
974.5580, 38954.00
975.6750, 39184.00
976.7920, 39632.00
977.9090, 39835.00
979.0250, 40488.68
980.1410, 40951.00
981.2580, 41961.00
982.3740, 43086.00
983.4890, 44180.00
984.6050, 45494.00
985.7200, 46225.00
986.8360, 46727.00
987.9510, 46574.00
989.0660, 45384.00
990.1810, 44423.00
991.2950, 42582.00
992.4100, 41326.00
993.5240, 39795.00
994.6390, 38561.00
995.7530, 37737.00
996.8660, 36725.00
997.9800, 36446.00
999.0940, 36209.00
1000.207, 36149.00
1001.320, 36500.00
1002.433, 36811.00
1003.546, 37480.00
1004.659, 38174.00
1005.772, 39142.00
1006.884, 40480.00
1007.996, 42145.00
1009.108, 44011.00
1010.220, 46040.00
1011.332, 48760.00
1012.444, 52052.00
1013.555, 55054.00
1014.666, 57728.00
1015.777, 60143.00
1016.888, 61550.00
1017.999, 63083.00
1019.110, 63644.00
1020.220, 62873.00
1021.331, 62472.00
1022.441, 60795.00
1023.551, 59118.00
1024.661, 56992.00
1025.770, 55537.00
1026.880, 53636.00
1027.989, 52486.00
1029.098, 50924.00
1030.207, 49829.00
1031.316, 49210.00
1032.425, 48802.00
1033.533, 47871.00
1034.642, 47262.00
1035.750, 46940.00
1036.858, 46776.00
1037.966, 46468.00
1039.073, 46090.64
1040.181, 45327.00
1041.288, 45063.00
1042.396, 44326.00
1043.503, 43318.00
1044.610, 42732.00
1045.716, 41930.00
1046.823, 41185.00
1047.929, 40492.00
1049.036, 39719.00
1050.142, 38892.00
1051.248, 38203.00
1052.353, 37832.00
1053.459, 37252.00
1054.564, 37094.00
1055.670, 36758.00
1056.775, 36677.00
1057.880, 36311.00
1058.985, 36106.00
1060.089, 36140.00
1061.194, 35660.00
1062.298, 35516.00
1063.402, 35579.00
1064.506, 34964.00
1065.610, 34752.00
1066.713, 34813.00
1067.817, 34528.00
1068.920, 34133.00
1070.023, 34133.00
1071.126, 33685.00
1072.229, 33376.00
1073.332, 33382.00
1074.435, 32932.00
1075.537, 32534.00
1076.639, 32230.00
1077.741, 32055.00
1078.843, 31666.00
1079.945, 31632.00
1081.046, 31302.00
1082.148, 31116.00
1083.249, 30854.00
1084.350, 30617.00
1085.451, 30218.00
1086.551, 30006.00
1087.652, 29739.64
1088.752, 29238.00
1089.853, 29222.00
1090.953, 29066.00
1092.053, 28709.00
1093.152, 28699.00
1094.252, 28536.00
1095.351, 28326.00
1096.451, 28699.00
1097.550, 28413.00
1098.649, 28369.00
1099.748, 28448.00
1100.846, 28349.00
1101.945, 28564.00
1103.043, 28495.00
1104.141, 28700.44
1105.239, 28871.00
1106.337, 29100.00
1107.434, 29168.00
1108.532, 29339.00
1109.629, 29827.00
1110.726, 30224.00
1111.823, 30622.00
1112.920, 31072.00
1114.017, 31453.00
1115.113, 31692.00
1116.210, 32129.00
1117.306, 32407.00
1118.402, 32237.00
1119.498, 31997.00
1120.593, 32024.00
1121.689, 31913.00
1122.784, 31755.00
1123.879, 31618.76
1124.974, 31428.00
1126.069, 31231.00
1127.164, 30893.00
1128.259, 30726.00
1129.353, 30539.43
1130.447, 30285.00
1131.541, 30306.00
1132.635, 30041.00
1133.729, 30062.00
1134.822, 30076.00
1135.916, 30206.00
1137.009, 30130.00
1138.102, 30150.00
1139.195, 30718.00
1140.288, 30867.00
1141.380, 30996.00
1142.473, 31800.00
1143.565, 32098.00
1144.657, 32546.00
1145.749, 32980.00
1146.841, 32943.00
1147.932, 32585.00
1149.024, 32526.00
1150.115, 32028.00
1151.206, 31644.00
1152.297, 31062.00
1153.388, 30481.00
1154.479, 30238.00
1155.569, 29882.00
1156.659, 29608.00
1157.750, 29325.00
1158.839, 29323.00
1159.929, 29187.00
1161.019, 29116.00
1162.108, 29185.00
1163.198, 28906.00
1164.287, 28969.00
1165.376, 29034.00
1166.465, 29073.00
1167.553, 28970.00
1168.642, 28735.00
1169.730, 28847.00
1170.818, 28753.00
1171.906, 28724.00
1172.994, 28742.00
1174.082, 28635.00
1175.170, 28441.00
1176.257, 28295.00
1177.344, 28279.00
1178.431, 28356.00
1179.518, 28412.00
1180.605, 28312.00
1181.691, 28293.00
1182.778, 28142.00
1183.864, 28281.00
1184.950, 28285.00
1186.036, 28166.00
1187.122, 28186.00
1188.207, 28113.00
1189.292, 28161.88
1190.378, 28156.00
1191.463, 28262.00
1192.548, 28299.00
1193.632, 28285.00
1194.717, 28211.00
1195.801, 28229.00
1196.886, 28273.00
1197.970, 28243.00
1199.054, 28238.00
1200.137, 28280.79
1201.221, 28293.00
1202.305, 28330.00
1203.388, 28340.00
1204.471, 28311.00
1205.554, 28397.00
1206.637, 28155.00
1207.719, 28369.00
1208.802, 28286.00
1209.884, 28522.00
1210.966, 28395.00
1212.048, 28196.00
1213.130, 28429.00
1214.212, 28160.00
1215.293, 28543.00
1216.374, 28587.00
1217.456, 28373.00
1218.536, 28350.00
1219.617, 28573.00
1220.698, 28528.00
1221.778, 28487.00
1222.859, 28370.00
1223.939, 28453.00
1225.019, 28622.00
1226.099, 28686.00
1227.178, 29226.00
1228.258, 29690.00
1229.337, 29106.00
1230.417, 28718.00
1231.496, 28764.00
1232.574, 28557.00
1233.653, 28493.00
1234.732, 28641.00
1235.810, 28640.00
1236.888, 28747.00
1237.966, 28741.00
1239.044, 28662.00
1240.122, 28668.00
1241.199, 28756.00
1242.277, 28769.00
1243.354, 28823.00
1244.431, 28864.00
1245.508, 28844.00
1246.585, 28859.00
1247.661, 28820.00
1248.738, 29052.00
1249.814, 28768.00
1250.890, 28953.00
1251.966, 28732.00
1253.042, 29097.00
1254.117, 28929.00
1255.193, 29100.00
1256.268, 29002.00
1257.343, 28999.00
1258.418, 28900.00
1259.493, 28802.00
1260.567, 29151.00
1261.642, 28987.00
1262.716, 29278.00
1263.790, 29223.00
1264.864, 29056.00
1265.938, 29109.00
1267.011, 29239.00
1268.085, 28975.00
1269.158, 29255.00
