##NAMES=Brazilianite
##RRUFFID=R050504
##IDEAL CHEMISTRY=NaAl_3_(PO_4_)_2_(OH)_4_
##LOCALITY=CÃ³rrego Frio, Minas Gerais, Brazil
##OWNER=RRUFF
##SOURCE=Marcus Origlieri
##DESCRIPTION=Yellowish green fragment
##STATUS=The identification of this mineral has been confirmed by X-ray diffraction and chemical analysis
##URL=rruff.info/R050504
##MEASURED CHEMISTRY=Na_1.00_Al_3.00_(P_1.00_O_4_)_2_(OH)_4_
##PIN_ID=L00856
##ORIENTATION=Laser parallel to -a* (-1 0 0). Fiducial mark perpendicular to laser is parallel to b [0 1 0]
79.89500, 7288.000
81.13100, 8752.000
82.36700, 10139.00
83.60200, 11332.00
84.83700, 12780.00
86.07200, 14560.00
87.30800, 15877.00
88.54200, 16059.00
89.77700, 14862.00
91.01200, 13821.00
92.24600, 13399.00
93.48000, 12760.00
94.71400, 12118.00
95.94800, 12056.00
97.18200, 12070.00
98.41600, 12539.00
99.64900, 13664.00
100.8830, 16022.00
102.1160, 18336.00
103.3490, 19384.00
104.5820, 18553.00
105.8150, 17770.00
107.0470, 17655.00
108.2800, 17173.00
109.5120, 15713.00
110.7440, 14570.00
111.9760, 14096.00
113.2080, 13877.00
114.4400, 13470.00
115.6710, 12669.00
116.9030, 12239.00
118.1340, 11711.00
119.3650, 11031.00
120.5960, 10317.00
121.8270, 9819.000
123.0580, 9631.000
124.2880, 9548.000
125.5190, 9393.000
126.7490, 9444.000
127.9790, 9448.000
129.2090, 9509.000
130.4390, 9577.000
131.6680, 9615.000
132.8980, 9826.000
134.1270, 9879.000
135.3560, 10225.00
136.5850, 10620.00
137.8140, 10993.00
139.0430, 11550.00
140.2710, 12134.00
141.5000, 12614.00
142.7280, 13227.00
143.9560, 13847.00
145.1840, 14285.00
146.4120, 14454.00
147.6390, 14213.00
148.8670, 13881.00
150.0940, 13635.00
151.3210, 13468.00
152.5490, 13075.00
153.7750, 13063.00
155.0020, 13236.00
156.2290, 13733.00
157.4550, 14337.00
158.6810, 15187.00
159.9080, 16075.00
161.1340, 17760.00
162.3590, 19676.00
163.5850, 20698.00
164.8110, 20478.00
166.0360, 19919.00
167.2610, 19247.00
168.4860, 18503.00
169.7110, 17342.00
170.9360, 15924.00
172.1610, 14788.00
173.3850, 14092.00
174.6100, 13448.00
175.8340, 13211.00
177.0580, 12887.00
178.2820, 12749.00
179.5050, 12686.00
180.7290, 12684.00
181.9520, 12602.00
183.1760, 12792.00
184.3990, 12797.00
185.6220, 12888.00
186.8450, 13114.00
188.0670, 13204.00
189.2900, 13351.00
190.5120, 13624.00
191.7340, 13945.00
192.9560, 13931.00
194.1780, 14160.00
195.4000, 14225.00
196.6220, 14259.00
197.8430, 13895.00
199.0640, 13665.00
200.2860, 13456.00
201.5070, 13238.00
202.7270, 12927.00
203.9480, 12723.00
205.1690, 12418.00
206.3890, 12576.00
207.6090, 12615.00
208.8290, 12994.00
210.0490, 13244.00
211.2690, 13762.00
212.4890, 13997.00
213.7080, 14180.00
214.9280, 14690.00
216.1470, 15182.00
217.3660, 15546.00
218.5850, 15468.00
219.8030, 15308.00
221.0220, 15293.00
222.2400, 15087.00
223.4590, 14878.00
224.6770, 14684.00
225.8950, 14680.48
227.1120, 14417.00
228.3300, 14748.00
229.5480, 14816.00
230.7650, 14882.00
231.9820, 14972.00
233.1990, 15149.32
234.4160, 15337.00
235.6330, 15505.00
236.8490, 15817.00
238.0660, 15911.00
239.2820, 16118.00
240.4980, 16202.00
241.7140, 16097.00
242.9300, 15990.00
244.1460, 15510.00
245.3610, 15115.00
246.5770, 14438.00
247.7920, 14069.00
249.0070, 13647.00
250.2220, 13497.00
251.4370, 13113.00
252.6510, 12989.00
253.8660, 12917.00
255.0800, 12898.00
256.2940, 12807.00
257.5080, 12870.00
258.7220, 12869.00
259.9360, 12948.00
261.1490, 12762.00
262.3630, 12866.00
263.5760, 12821.00
264.7890, 12950.00
266.0020, 12948.00
267.2150, 12920.00
268.4270, 12833.00
269.6400, 12773.00
270.8520, 12699.47
272.0640, 12637.11
273.2760, 12585.00
274.4880, 12531.00
275.7000, 12580.00
276.9120, 12560.00
278.1230, 12781.00
279.3340, 12875.00
280.5450, 12924.00
281.7560, 12944.00
282.9670, 12981.00
284.1780, 13181.00
285.3880, 13326.00
286.5980, 13241.00
287.8090, 13359.00
289.0190, 13367.00
290.2290, 13551.00
291.4380, 13798.00
292.6480, 13855.00
293.8570, 13973.00
295.0670, 14028.00
296.2760, 14164.00
297.4850, 14216.00
298.6930, 14178.00
299.9020, 14197.00
301.1110, 14269.00
302.3190, 14299.00
303.5270, 14368.00
304.7350, 14543.00
305.9430, 14534.00
307.1510, 14470.00
308.3580, 14389.00
309.5660, 14708.00
310.7730, 14587.00
311.9800, 15065.00
313.1870, 15191.00
314.3940, 15348.00
315.6010, 15592.00
316.8070, 15584.00
318.0130, 15543.00
319.2200, 15657.00
320.4260, 15567.00
321.6310, 15520.00
322.8370, 15316.00
324.0430, 14974.00
325.2480, 14643.00
326.4540, 14365.00
327.6590, 14024.00
328.8640, 13756.00
330.0680, 13513.00
331.2730, 13286.00
332.4780, 13097.00
333.6820, 12948.00
334.8860, 12839.82
336.0900, 12713.00
337.2940, 12767.00
338.4980, 12608.00
339.7010, 12710.00
340.9050, 12810.00
342.1080, 12770.00
343.3110, 12881.00
344.5140, 12952.00
345.7170, 13107.00
346.9200, 13098.00
348.1220, 13213.00
349.3240, 13179.00
350.5270, 13159.00
351.7290, 13463.00
352.9310, 13332.00
354.1320, 13513.00
355.3340, 13280.00
356.5350, 13553.00
357.7370, 13597.00
358.9380, 13626.00
360.1390, 13660.00
361.3400, 13739.00
362.5400, 13995.00
363.7410, 14011.00
364.9410, 14312.00
366.1410, 14426.00
367.3410, 14706.00
368.5410, 14792.00
369.7410, 14927.00
370.9400, 14973.00
372.1400, 15105.00
373.3390, 14924.00
374.5380, 14876.00
375.7370, 14911.00
376.9360, 14792.00
378.1350, 14944.00
379.3330, 14931.00
380.5310, 14952.00
381.7300, 14892.00
382.9280, 14922.00
384.1260, 15017.00
385.3230, 15029.00
386.5210, 15225.00
387.7180, 15463.00
388.9160, 15404.00
390.1130, 15732.00
391.3100, 15715.00
392.5060, 16225.00
393.7030, 16262.00
394.9000, 16499.00
396.0960, 16866.00
397.2920, 17034.00
398.4880, 17200.73
399.6840, 17508.00
400.8800, 17389.00
402.0750, 17446.00
403.2710, 17463.00
404.4660, 17310.00
405.6610, 17290.00
406.8560, 16782.00
408.0510, 16650.00
409.2450, 16331.00
410.4400, 16132.00
411.6340, 15741.00
412.8280, 15523.00
414.0220, 15305.00
415.2160, 15048.00
416.4100, 14987.00
417.6030, 14858.00
418.7970, 14747.00
419.9900, 14739.00
421.1830, 14648.00
422.3760, 14627.00
423.5690, 14802.00
424.7610, 14880.00
425.9540, 14918.00
427.1460, 15033.00
428.3380, 15168.00
429.5300, 15456.00
430.7220, 15742.00
431.9140, 16010.00
433.1050, 16272.00
434.2970, 16487.00
435.4880, 16774.00
436.6790, 17071.00
437.8700, 17284.00
439.0610, 17359.00
440.2510, 17311.00
441.4420, 17234.00
442.6320, 17373.00
443.8220, 17222.00
445.0120, 17161.00
446.2020, 16777.00
447.3910, 16712.00
448.5810, 16949.00
449.7700, 17289.00
450.9600, 17320.00
452.1490, 17797.00
453.3370, 17994.00
454.5260, 18343.00
455.7150, 18388.00
456.9030, 18587.00
458.0910, 18857.00
459.2800, 18755.00
460.4670, 18837.00
461.6550, 18733.00
462.8430, 18625.00
464.0300, 18436.00
465.2180, 18276.00
466.4050, 18125.00
467.5920, 17962.00
468.7790, 17960.00
469.9650, 18158.00
471.1520, 18454.00
472.3380, 18793.00
473.5250, 19323.00
474.7110, 19748.00
475.8970, 20661.00
477.0820, 21467.00
478.2680, 22202.00
479.4540, 22765.00
480.6390, 23844.00
481.8240, 24503.00
483.0090, 25113.00
484.1940, 26007.00
485.3780, 26807.00
486.5630, 27705.00
487.7470, 28475.00
488.9320, 29340.00
490.1160, 30684.00
491.3000, 31687.00
492.4830, 33267.00
493.6670, 34711.00
494.8500, 36152.00
496.0340, 37530.00
497.2170, 38952.00
498.4000, 40305.00
499.5820, 41310.00
500.7650, 42352.00
501.9480, 42898.00
503.1300, 43666.00
504.3120, 43599.00
505.4940, 44177.00
506.6760, 44106.00
507.8580, 44538.00
509.0390, 44539.00
510.2210, 43881.00
511.4020, 43587.00
512.5830, 43216.00
513.7640, 42242.00
514.9450, 41240.00
516.1250, 39897.00
517.3060, 39120.00
518.4860, 37942.00
519.6660, 37249.00
520.8460, 36306.00
522.0260, 36205.00
523.2060, 36294.00
524.3850, 36108.00
525.5650, 36564.00
526.7440, 36846.00
527.9230, 37484.00
529.1020, 37381.00
530.2810, 37662.00
531.4590, 37354.00
532.6380, 37082.00
533.8160, 36063.00
534.9940, 35106.00
536.1720, 34235.00
537.3500, 32863.00
538.5270, 31538.00
539.7050, 30468.00
540.8820, 29597.00
542.0590, 28766.00
543.2360, 28058.00
544.4130, 27877.00
545.5900, 28131.00
546.7660, 28478.00
547.9430, 29609.00
549.1190, 30795.00
550.2950, 32413.00
551.4710, 34104.00
552.6470, 36555.00
553.8220, 38462.00
554.9980, 40723.00
556.1730, 42134.00
557.3480, 42773.00
558.5230, 43096.00
559.6980, 42584.00
560.8730, 42094.00
562.0470, 41304.00
563.2220, 40251.00
564.3960, 39354.00
565.5700, 38431.00
566.7440, 37082.00
567.9170, 36118.00
569.0910, 34890.00
570.2640, 33426.00
571.4380, 31966.00
572.6110, 30700.00
573.7840, 29475.00
574.9570, 28479.00
576.1290, 27883.00
577.3020, 27602.00
578.4740, 27201.00
579.6460, 26760.00
580.8180, 26597.00
581.9900, 26758.00
583.1620, 26823.00
584.3330, 27296.00
585.5040, 27740.00
586.6760, 28515.00
587.8470, 29700.00
589.0180, 30802.00
590.1880, 32512.00
591.3590, 34760.00
592.5290, 37597.00
593.7000, 40590.00
594.8700, 43863.00
596.0400, 47063.00
597.2090, 50441.00
598.3790, 52785.00
599.5490, 53861.00
600.7180, 53674.00
601.8870, 51890.00
603.0560, 49200.00
604.2250, 45776.00
605.3940, 42834.00
606.5620, 39841.00
607.7300, 37713.00
608.8990, 36238.00
610.0670, 35093.00
611.2350, 34608.00
612.4020, 34264.00
613.5700, 33965.00
614.7370, 33582.00
615.9050, 32878.00
617.0720, 32096.00
618.2390, 31169.00
619.4060, 30165.00
620.5720, 28967.00
621.7390, 27856.00
622.9050, 27055.00
624.0710, 26651.00
625.2370, 26096.00
626.4030, 25943.00
627.5690, 25853.00
628.7340, 25708.00
629.9000, 25736.17
631.0650, 25818.00
632.2300, 25830.00
633.3950, 25811.00
634.5600, 25500.10
635.7240, 25173.00
636.8890, 24591.00
638.0530, 24192.00
639.2170, 23445.00
640.3810, 22850.00
641.5450, 22394.00
642.7080, 21950.34
643.8720, 21622.82
645.0350, 21399.00
646.1980, 21202.00
647.3610, 21137.00
648.5240, 21157.00
649.6870, 21269.00
650.8490, 21246.00
652.0120, 21562.00
653.1740, 21648.00
654.3360, 21655.00
655.4980, 21947.00
656.6600, 21980.00
657.8210, 22070.00
658.9830, 22016.00
660.1440, 21731.00
661.3050, 21414.00
662.4660, 21346.00
663.6270, 21065.00
664.7870, 20630.00
665.9480, 20265.00
667.1080, 20052.00
668.2680, 19704.00
669.4280, 19397.00
670.5880, 19249.00
671.7480, 19107.00
672.9070, 18830.00
674.0670, 18712.38
675.2260, 18617.00
676.3850, 18431.00
677.5440, 18332.00
678.7030, 18290.00
679.8610, 18291.00
681.0200, 18100.00
682.1780, 17932.00
683.3360, 17914.00
684.4940, 17812.00
685.6520, 17584.00
686.8090, 17652.00
687.9670, 17821.00
689.1240, 17743.00
690.2810, 17608.00
691.4380, 17829.00
692.5950, 17698.00
693.7520, 17656.00
694.9080, 17723.00
696.0650, 17831.00
697.2210, 17818.00
698.3770, 17900.38
699.5330, 17968.00
700.6880, 17992.00
701.8440, 17883.00
702.9990, 17906.00
704.1550, 17841.00
705.3100, 17945.00
706.4650, 17928.00
707.6190, 17980.00
708.7740, 18113.00
709.9290, 18063.00
711.0830, 18066.00
712.2370, 18018.00
713.3910, 18156.00
714.5450, 17957.00
715.6980, 18098.00
716.8520, 18157.00
718.0050, 18052.00
719.1580, 18004.00
720.3110, 17949.00
721.4640, 17998.00
722.6170, 18138.00
723.7700, 18060.00
724.9220, 18205.00
726.0740, 18149.77
727.2260, 17965.00
728.3780, 18029.00
729.5300, 18011.00
730.6810, 17876.00
731.8330, 18166.00
732.9840, 18076.00
734.1350, 18191.00
735.2860, 18094.00
736.4370, 18137.00
737.5880, 18185.00
738.7380, 18177.00
739.8880, 18175.00
741.0390, 18296.00
742.1890, 18304.00
743.3380, 18577.00
744.4880, 18640.00
745.6380, 18524.00
746.7870, 18769.00
747.9360, 18739.00
749.0850, 18805.00
750.2340, 18941.00
751.3830, 19007.00
752.5310, 19038.00
753.6800, 19245.00
754.8280, 19364.00
755.9760, 19382.00
757.1240, 19635.00
758.2720, 19742.00
759.4190, 19881.00
760.5670, 20127.00
761.7140, 20143.00
762.8610, 20185.00
764.0080, 20332.00
765.1550, 20281.00
766.3020, 20359.00
767.4480, 20301.00
768.5950, 20217.00
769.7410, 20089.00
770.8870, 20353.00
772.0330, 20171.00
773.1780, 19863.00
774.3240, 19996.00
775.4690, 19695.00
776.6140, 19620.00
777.7590, 19622.00
778.9040, 19460.00
780.0490, 19612.00
781.1940, 19538.00
782.3380, 19329.00
783.4820, 19500.00
784.6260, 19559.00
785.7700, 19729.00
786.9140, 19873.89
788.0580, 19948.69
789.2010, 20149.00
790.3450, 20196.00
791.4880, 20230.00
792.6310, 20491.00
793.7730, 20542.00
794.9160, 21003.00
796.0590, 20921.00
797.2010, 21172.00
798.3430, 21505.00
799.4850, 21509.00
800.6270, 21868.00
801.7690, 21548.00
802.9100, 21928.00
804.0520, 21831.00
805.1930, 21885.00
806.3340, 21749.00
807.4750, 21674.00
808.6160, 21562.00
809.7560, 21617.00
810.8970, 21358.00
812.0370, 21156.00
813.1770, 21167.00
814.3170, 20933.00
815.4570, 20712.00
816.5960, 20787.00
817.7360, 20281.00
818.8750, 20288.00
820.0140, 20424.00
821.1530, 20092.00
822.2920, 20297.00
823.4310, 20048.00
824.5690, 19952.00
825.7070, 19821.00
826.8460, 19719.00
827.9840, 19623.14
829.1220, 19610.00
830.2590, 19471.00
831.3970, 19372.00
832.5340, 19365.00
833.6710, 19224.00
834.8080, 19246.00
835.9450, 19128.21
837.0820, 19134.00
838.2190, 18933.00
839.3550, 18867.00
840.4910, 18779.00
841.6270, 18860.00
842.7630, 18872.00
843.8990, 18953.00
845.0350, 18793.00
846.1700, 18759.00
847.3060, 18682.00
848.4410, 18719.00
849.5760, 18706.00
850.7100, 18682.00
851.8450, 18678.00
852.9800, 18552.00
854.1140, 18417.00
855.2480, 18570.00
856.3820, 18580.00
857.5160, 18449.00
858.6500, 18519.00
859.7830, 18492.87
860.9170, 18706.00
862.0500, 18563.00
863.1830, 18566.00
864.3160, 18688.00
865.4480, 18497.00
866.5810, 18579.00
867.7130, 18521.00
868.8460, 18384.00
869.9780, 18635.00
871.1100, 18595.00
872.2410, 18533.00
873.3730, 18527.00
874.5050, 18536.00
875.6360, 18533.00
876.7670, 18536.00
877.8980, 18510.00
879.0290, 18588.00
880.1590, 18503.00
881.2900, 18552.65
882.4200, 18481.00
883.5500, 18656.00
884.6800, 18587.00
885.8100, 18765.00
886.9400, 18522.00
888.0690, 18528.00
889.1990, 18698.00
890.3280, 18438.00
891.4570, 18690.00
892.5860, 18617.00
893.7140, 18600.00
894.8430, 18648.00
895.9710, 18699.00
897.1000, 18703.00
898.2280, 18894.00
899.3560, 18761.00
900.4830, 18841.00
901.6110, 18737.00
902.7380, 18697.00
903.8660, 19026.00
904.9930, 18845.00
906.1200, 18947.00
907.2460, 18939.00
908.3730, 18803.00
909.5000, 18971.00
910.6260, 19144.00
911.7520, 19200.00
912.8780, 19198.00
914.0040, 19172.00
915.1290, 19220.00
916.2550, 19344.00
917.3800, 19258.00
918.5050, 19347.00
919.6300, 19534.00
920.7550, 19428.00
921.8800, 19577.00
923.0040, 19533.00
924.1290, 19520.00
925.2530, 19826.00
926.3770, 19533.00
927.5010, 19676.00
928.6250, 20114.00
929.7480, 19927.00
930.8720, 20344.00
931.9950, 20205.00
933.1180, 20339.00
934.2410, 20458.00
935.3640, 20622.00
936.4860, 20654.00
937.6090, 20959.00
938.7310, 21194.00
939.8530, 21287.00
940.9750, 21364.00
942.0970, 21692.00
943.2180, 22004.00
944.3400, 21905.00
945.4610, 22311.00
946.5820, 22445.00
947.7030, 22694.00
948.8240, 22472.00
949.9450, 22602.00
951.0650, 22824.00
952.1860, 22701.00
953.3060, 22839.00
954.4260, 22672.00
955.5460, 23120.00
956.6650, 23082.00
957.7850, 23143.00
958.9040, 23270.00
960.0230, 23431.98
961.1420, 23866.00
962.2610, 23985.00
963.3800, 24380.00
964.4990, 24860.00
965.6170, 24999.00
966.7350, 25616.00
967.8530, 26238.00
968.9710, 26801.00
970.0890, 27480.00
971.2070, 28497.00
972.3240, 29263.00
973.4410, 30325.00
974.5580, 31297.00
975.6750, 32848.00
976.7920, 34130.00
977.9090, 35888.00
979.0250, 37808.00
980.1410, 40748.00
981.2580, 43679.00
982.3740, 47210.00
983.4890, 50495.00
984.6050, 54311.00
985.7200, 57548.00
986.8360, 59378.00
987.9510, 60412.00
989.0660, 59707.00
990.1810, 57945.00
991.2950, 54749.00
992.4100, 51076.00
993.5240, 47754.00
994.6390, 44428.00
995.7530, 41630.00
996.8660, 39215.00
997.9800, 37574.00
999.0940, 36611.00
1000.207, 35712.00
1001.320, 35399.00
1002.433, 35088.00
1003.546, 35179.00
1004.659, 35391.00
1005.772, 35994.00
1006.884, 36956.00
1007.996, 38224.00
1009.108, 39949.00
1010.220, 41358.00
1011.332, 43882.00
1012.444, 46178.00
1013.555, 49110.00
1014.666, 51668.00
1015.777, 53587.00
1016.888, 55233.00
1017.999, 55713.00
1019.110, 55615.00
1020.220, 54646.00
1021.331, 53532.00
1022.441, 51095.00
1023.551, 49182.00
1024.661, 46927.00
1025.770, 45198.00
1026.880, 43298.00
1027.989, 41640.00
1029.098, 40496.00
1030.207, 39683.00
1031.316, 38997.00
1032.425, 38529.00
1033.533, 37886.00
1034.642, 37757.00
1035.750, 37770.00
1036.858, 37657.00
1037.966, 37997.00
1039.073, 37991.00
1040.181, 38123.00
1041.288, 38015.00
1042.396, 37821.00
1043.503, 37843.00
1044.610, 37337.00
1045.716, 36828.00
1046.823, 36550.00
1047.929, 36133.00
1049.036, 35726.00
1050.142, 35485.00
1051.248, 35155.00
1052.353, 35154.00
1053.459, 34764.00
1054.564, 34926.00
1055.670, 34588.00
1056.775, 34215.00
1057.880, 34335.00
1058.985, 33875.00
1060.089, 33953.00
1061.194, 33832.00
1062.298, 33789.00
1063.402, 33280.00
1064.506, 33158.00
1065.610, 32756.00
1066.713, 32644.00
1067.817, 32049.00
1068.920, 32178.00
1070.023, 31793.00
1071.126, 31482.00
1072.229, 31283.00
1073.332, 30969.90
1074.435, 30747.00
1075.537, 30535.00
1076.639, 30334.00
1077.741, 30248.00
1078.843, 29666.00
1079.945, 29439.00
1081.046, 29109.00
1082.148, 28506.00
1083.249, 28117.00
1084.350, 27513.00
1085.451, 27036.00
1086.551, 26379.00
1087.652, 25853.00
1088.752, 25150.00
1089.853, 24785.00
1090.953, 24514.00
1092.053, 23984.00
1093.152, 23812.00
1094.252, 23648.00
1095.351, 23260.00
1096.451, 23057.00
1097.550, 22905.00
1098.649, 22844.00
1099.748, 22676.00
1100.846, 22707.00
1101.945, 22445.00
1103.043, 22395.00
1104.141, 22566.00
1105.239, 22610.00
1106.337, 22778.00
1107.434, 22806.00
1108.532, 23060.00
1109.629, 23540.00
1110.726, 23675.00
1111.823, 24027.00
1112.920, 24718.00
1114.017, 25229.00
1115.113, 25376.00
1116.210, 25761.00
1117.306, 26116.00
1118.402, 26211.00
1119.498, 26257.00
1120.593, 26186.00
1121.689, 26183.07
1122.784, 26124.85
1123.879, 26057.00
1124.974, 25936.00
1126.069, 25893.00
1127.164, 25698.00
1128.259, 25694.00
1129.353, 25628.00
1130.447, 25371.00
1131.541, 25454.00
1132.635, 25419.00
1133.729, 25168.00
1134.822, 25375.00
1135.916, 25442.00
1137.009, 25059.00
1138.102, 25507.00
1139.195, 25456.00
1140.288, 25784.00
1141.380, 25759.00
1142.473, 26234.00
1143.565, 26430.00
1144.657, 26890.00
1145.749, 26773.00
1146.841, 27232.00
1147.932, 27090.00
1149.024, 27044.00
1150.115, 26301.00
1151.206, 25847.00
1152.297, 25302.00
1153.388, 24791.00
1154.479, 24239.00
1155.569, 24239.00
1156.659, 23719.00
1157.750, 23661.00
1158.839, 23386.00
1159.929, 23209.00
1161.019, 23122.00
1162.108, 23170.00
1163.198, 23046.00
1164.287, 22922.00
1165.376, 23010.00
1166.465, 22813.00
1167.553, 22615.00
1168.642, 22828.00
1169.730, 22589.00
1170.818, 22491.00
1171.906, 22587.00
1172.994, 22299.00
1174.082, 22485.00
1175.170, 22354.00
1176.257, 22402.00
1177.344, 22280.00
1178.431, 22155.00
1179.518, 21941.00
1180.605, 22134.00
1181.691, 22313.00
1182.778, 22141.00
1183.864, 22121.00
1184.950, 21983.00
1186.036, 22007.00
1187.122, 22081.00
1188.207, 21933.00
1189.292, 22206.00
1190.378, 21974.00
1191.463, 21994.00
1192.548, 21906.00
1193.632, 21863.72
1194.717, 21926.00
1195.801, 21900.00
1196.886, 21917.00
1197.970, 22041.00
1199.054, 21938.00
1200.137, 21880.00
1201.221, 21860.00
1202.305, 21952.00
1203.388, 21917.00
1204.471, 21949.71
1205.554, 21973.00
1206.637, 21947.00
1207.719, 21901.00
1208.802, 21822.00
1209.884, 21974.00
1210.966, 22059.00
1212.048, 22041.99
1213.130, 22115.92
1214.212, 22069.00
1215.293, 22045.00
1216.374, 22054.00
1217.456, 21980.62
1218.536, 21882.00
1219.617, 21864.00
1220.698, 21924.00
1221.778, 21882.00
1222.859, 22010.00
1223.939, 22046.00
1225.019, 21839.00
1226.099, 21919.00
1227.178, 21965.00
1228.258, 21953.00
1229.337, 21981.00
1230.417, 21849.00
1231.496, 21889.00
1232.574, 22085.00
1233.653, 22126.00
1234.732, 21967.00
1235.810, 21921.00
1236.888, 21866.00
1237.966, 21977.00
1239.044, 21907.05
1240.122, 22120.00
1241.199, 21914.00
1242.277, 21892.00
1243.354, 21967.00
1244.431, 21868.00
1245.508, 21962.00
1246.585, 22126.00
1247.661, 22218.00
1248.738, 22062.00
1249.814, 22133.00
1250.890, 21963.00
1251.966, 22018.00
1253.042, 21980.00
1254.117, 22232.00
1255.193, 22110.00
1256.268, 22010.00
1257.343, 22163.00
1258.418, 21988.00
1259.493, 22149.00
1260.567, 22035.00
1261.642, 22201.00
1262.716, 22240.00
1263.790, 22191.00
