##NAMES=Brookite
##RRUFFID=R050363
##IDEAL CHEMISTRY=Ti^4+^O_2_
##LOCALITY=Magnet Cove, Arkansas, USA
##OWNER=RRUFF
##SOURCE=University of Arizona Mineral Museum
##DESCRIPTION=Black fragment of a prismatic crystal associated with quartz
##STATUS=The identification of this mineral has been confirmed by X-ray diffraction and chemical analysis
##URL=rruff.info/R050363
##MEASURED CHEMISTRY=(Ti_0.94_Nb^5+^_0.03_Fe^3+^_0.03_)_Î£=1_O_2_
##PIN_ID=L01899
##ORIENTATION=Laser parallel to b* (0 1 0). Fiducial mark perpendicular to laser is parallel to c [0 0 1]
51.43100, 651.0000
52.67100, 653.0000
53.91000, 665.0000
55.14900, 676.0000
56.38700, 714.0000
57.62600, 774.0000
58.86400, 856.0000
60.10300, 892.0000
61.34100, 998.0000
62.57900, 1125.000
63.81700, 1254.000
65.05400, 1441.000
66.29200, 1642.000
67.52900, 1864.000
68.76700, 2239.000
70.00400, 2767.000
71.24100, 3193.000
72.47700, 3458.000
73.71400, 3820.000
74.95100, 4275.000
76.18700, 4703.000
77.42300, 5042.000
78.65900, 5430.000
79.89500, 5990.000
81.13100, 6502.000
82.36700, 7044.000
83.60200, 7469.000
84.83700, 7663.000
86.07200, 7804.000
87.30800, 8053.000
88.54200, 8565.000
89.77700, 9020.000
91.01200, 9619.000
92.24600, 10220.00
93.48000, 10338.00
94.71400, 10600.00
95.94800, 11066.00
97.18200, 11197.00
98.41600, 11521.00
99.64900, 12015.00
100.8830, 12111.00
102.1160, 12518.00
103.3490, 12895.00
104.5820, 13614.00
105.8150, 14220.00
107.0470, 14789.00
108.2800, 15708.00
109.5120, 16545.00
110.7440, 16234.00
111.9760, 15887.00
113.2080, 16207.00
114.4400, 16776.00
115.6710, 17874.00
116.9030, 18356.00
118.1340, 19257.00
119.3650, 20201.00
120.5960, 21508.00
121.8270, 23053.00
123.0580, 23485.00
124.2880, 23329.00
125.5190, 22894.00
126.7490, 22899.00
127.9790, 23303.00
129.2090, 24013.00
130.4390, 24886.00
131.6680, 25409.00
132.8980, 26311.00
134.1270, 27406.00
135.3560, 28970.00
136.5850, 31070.02
137.8140, 33647.00
139.0430, 36344.00
140.2710, 39674.00
141.5000, 43120.00
142.7280, 47000.00
143.9560, 51428.00
145.1840, 55382.00
146.4120, 59211.00
147.6390, 61567.00
148.8670, 62437.00
150.0940, 62256.00
151.3210, 61016.00
152.5490, 58296.00
153.7750, 55426.00
155.0020, 52482.00
156.2290, 48965.00
157.4550, 45771.00
158.6810, 42041.00
159.9080, 38607.00
161.1340, 34813.00
162.3590, 31168.00
163.5850, 28405.00
164.8110, 25663.00
166.0360, 23616.00
167.2610, 21387.80
168.4860, 19785.00
169.7110, 17509.00
170.9360, 16659.00
172.1610, 14634.97
173.3850, 13515.20
174.6100, 12424.00
175.8340, 11701.00
177.0580, 11124.00
178.2820, 10593.15
179.5050, 10270.33
180.7290, 9951.000
181.9520, 9880.000
183.1760, 9618.000
184.3990, 9547.000
185.6220, 9678.000
186.8450, 9470.000
188.0670, 9680.000
189.2900, 9797.000
190.5120, 9706.000
191.7340, 9737.000
192.9560, 9604.000
194.1780, 9446.000
195.4000, 9567.000
196.6220, 9542.000
197.8430, 9483.000
199.0640, 9545.000
200.2860, 9845.000
201.5070, 10345.00
202.7270, 10683.00
203.9480, 10661.00
205.1690, 10740.00
206.3890, 10821.00
207.6090, 11113.00
208.8290, 11478.00
210.0490, 11376.00
211.2690, 11178.00
212.4890, 10923.00
213.7080, 10500.00
214.9280, 10291.00
216.1470, 9936.000
217.3660, 9853.000
218.5850, 9619.000
219.8030, 9593.000
221.0220, 9351.000
222.2400, 9585.000
223.4590, 9646.000
224.6770, 9920.000
225.8950, 10083.00
227.1120, 10419.00
228.3300, 10611.00
229.5480, 10974.00
230.7650, 11573.00
231.9820, 12066.00
233.1990, 12806.00
234.4160, 13566.00
235.6330, 14766.00
236.8490, 16076.00
238.0660, 17638.00
239.2820, 19244.00
240.4980, 20954.00
241.7140, 21902.00
242.9300, 21615.00
244.1460, 20647.00
245.3610, 19063.00
246.5770, 17169.00
247.7920, 15822.00
249.0070, 14950.00
250.2220, 14458.00
251.4370, 14204.00
252.6510, 13792.00
253.8660, 13319.00
255.0800, 12581.00
256.2940, 12293.00
257.5080, 12156.00
258.7220, 12307.00
259.9360, 12513.00
261.1490, 12218.00
262.3630, 12162.00
263.5760, 12207.00
264.7890, 12305.00
266.0020, 12661.00
267.2150, 13001.00
268.4270, 13509.00
269.6400, 13860.00
270.8520, 14324.00
272.0640, 14819.00
273.2760, 15142.00
274.4880, 15739.00
275.7000, 15991.00
276.9120, 16286.00
278.1230, 16404.00
279.3340, 16655.00
280.5450, 16467.00
281.7560, 16347.00
282.9670, 16249.00
284.1780, 15896.00
285.3880, 15796.00
286.5980, 15384.00
287.8090, 15038.00
289.0190, 15018.00
290.2290, 15030.00
291.4380, 14891.00
292.6480, 15001.00
293.8570, 14926.00
295.0670, 15332.00
296.2760, 15423.00
297.4850, 15741.00
298.6930, 16046.00
299.9020, 16244.00
301.1110, 16475.00
302.3190, 17226.00
303.5270, 17450.00
304.7350, 18194.00
305.9430, 18914.00
307.1510, 19942.00
308.3580, 20509.00
309.5660, 21313.00
310.7730, 21988.00
311.9800, 22829.00
313.1870, 23791.00
314.3940, 24411.00
315.6010, 24943.00
316.8070, 25687.00
318.0130, 26008.00
319.2200, 26265.00
320.4260, 26520.00
321.6310, 26601.00
322.8370, 26125.00
324.0430, 25524.00
325.2480, 24222.00
326.4540, 23130.00
327.6590, 21979.00
328.8640, 20710.00
330.0680, 19406.00
331.2730, 18617.00
332.4780, 17712.00
333.6820, 16902.00
334.8860, 16092.00
336.0900, 15470.00
337.2940, 15167.00
338.4980, 14893.00
339.7010, 14520.00
340.9050, 14370.00
342.1080, 14382.00
343.3110, 14436.00
344.5140, 14825.00
345.7170, 15326.00
346.9200, 15761.00
348.1220, 16709.00
349.3240, 17672.00
350.5270, 19104.00
351.7290, 20848.00
352.9310, 22733.00
354.1320, 25275.00
355.3340, 27769.00
356.5350, 31172.00
357.7370, 33909.00
358.9380, 36517.00
360.1390, 38327.00
361.3400, 38745.00
362.5400, 37683.00
363.7410, 35841.00
364.9410, 33212.00
366.1410, 30069.00
367.3410, 27541.00
368.5410, 24919.00
369.7410, 22780.00
370.9400, 21574.00
372.1400, 20253.00
373.3390, 19156.00
374.5380, 18458.00
375.7370, 18044.00
376.9360, 17709.00
378.1350, 17607.00
379.3330, 17340.00
380.5310, 17463.00
381.7300, 17413.00
382.9280, 17626.00
384.1260, 17627.00
385.3230, 17604.00
386.5210, 17761.00
387.7180, 17478.00
388.9160, 17617.00
390.1130, 17419.00
391.3100, 17019.00
392.5060, 16730.00
393.7030, 16329.00
394.9000, 16041.00
396.0960, 15495.00
397.2920, 15272.00
398.4880, 15040.00
399.6840, 14905.00
400.8800, 14572.00
402.0750, 14341.00
403.2710, 14362.00
404.4660, 14008.00
405.6610, 14110.00
406.8560, 13742.00
408.0510, 13534.00
409.2450, 13601.00
410.4400, 13446.00
411.6340, 13184.00
412.8280, 13105.00
414.0220, 13126.00
415.2160, 12992.00
416.4100, 12923.00
417.6030, 12904.00
418.7970, 13056.00
419.9900, 12924.00
421.1830, 12850.00
422.3760, 13067.00
423.5690, 13060.00
424.7610, 13082.00
425.9540, 13296.00
427.1460, 13175.00
428.3380, 13588.00
429.5300, 13892.00
430.7220, 14030.00
431.9140, 14372.00
433.1050, 14675.00
434.2970, 14942.00
435.4880, 15615.00
436.6790, 15788.00
437.8700, 16437.00
439.0610, 17006.00
440.2510, 17603.00
441.4420, 18003.00
442.6320, 19001.00
443.8220, 19494.00
445.0120, 20466.00
446.2020, 20959.00
447.3910, 21836.00
448.5810, 22564.00
449.7700, 23283.00
450.9600, 24214.00
452.1490, 24782.00
453.3370, 25199.00
454.5260, 25878.00
455.7150, 26036.00
456.9030, 25829.00
458.0910, 25661.00
459.2800, 25231.00
460.4670, 25023.00
461.6550, 24416.00
462.8430, 23873.00
464.0300, 23321.00
465.2180, 22775.00
466.4050, 22420.00
467.5920, 21966.00
468.7790, 21559.00
469.9650, 20981.00
471.1520, 20660.00
472.3380, 20230.00
473.5250, 19916.00
474.7110, 19668.00
475.8970, 19404.00
477.0820, 19176.69
478.2680, 18989.00
479.4540, 18800.00
480.6390, 18585.59
481.8240, 18346.98
483.0090, 18139.00
484.1940, 17903.00
485.3780, 17599.00
486.5630, 17513.00
487.7470, 17271.00
488.9320, 16911.00
490.1160, 16744.00
491.3000, 16608.00
492.4830, 16367.00
493.6670, 16593.00
494.8500, 16346.00
496.0340, 16260.00
497.2170, 16175.00
498.4000, 16073.00
499.5820, 16199.00
500.7650, 16228.00
501.9480, 16211.00
503.1300, 16303.00
504.3120, 16471.00
505.4940, 16546.00
506.6760, 16818.00
507.8580, 17024.00
509.0390, 17161.00
510.2210, 17320.00
511.4020, 17575.00
512.5830, 17868.27
513.7640, 18193.92
514.9450, 18653.00
516.1250, 19013.00
517.3060, 19574.00
518.4860, 20122.00
519.6660, 20913.00
520.8460, 21427.00
522.0260, 22010.00
523.2060, 22961.00
524.3850, 23811.00
525.5650, 24563.00
526.7440, 25588.00
527.9230, 26379.00
529.1020, 27375.00
530.2810, 28176.00
531.4590, 29196.00
532.6380, 30354.00
533.8160, 31239.00
534.9940, 31764.00
536.1720, 33100.00
537.3500, 33635.00
538.5270, 33845.00
539.7050, 34547.00
540.8820, 34264.00
542.0590, 34807.00
543.2360, 34495.00
544.4130, 34177.00
545.5900, 33899.00
546.7660, 33472.00
547.9430, 33166.00
549.1190, 33036.00
550.2950, 31715.00
551.4710, 31120.00
552.6470, 30660.00
553.8220, 29536.00
554.9980, 28924.00
556.1730, 28229.00
557.3480, 27700.00
558.5230, 27295.00
559.6980, 26659.00
560.8730, 26450.00
562.0470, 25890.00
563.2220, 25815.00
564.3960, 25487.00
565.5700, 25252.00
566.7440, 25104.00
567.9170, 24915.00
569.0910, 25044.00
570.2640, 25040.00
571.4380, 25041.00
572.6110, 25463.00
573.7840, 25474.00
574.9570, 25782.00
576.1290, 25565.00
577.3020, 25565.00
578.4740, 25471.00
579.6460, 25255.00
580.8180, 25029.00
581.9900, 24454.00
583.1620, 23944.00
584.3330, 23209.00
585.5040, 22778.00
586.6760, 21972.00
587.8470, 21326.00
589.0180, 20866.00
590.1880, 19920.00
591.3590, 19356.00
592.5290, 18608.00
593.7000, 17872.00
594.8700, 17675.00
596.0400, 17097.00
597.2090, 16640.00
598.3790, 16265.00
599.5490, 16062.00
600.7180, 15453.00
601.8870, 15375.00
603.0560, 15108.00
604.2250, 14793.00
605.3940, 14561.00
606.5620, 14198.00
607.7300, 14118.00
608.8990, 13805.00
610.0670, 13558.00
611.2350, 13517.00
612.4020, 13386.00
613.5700, 13254.00
614.7370, 13215.00
615.9050, 12975.00
617.0720, 12877.00
618.2390, 12860.00
619.4060, 12779.00
620.5720, 12557.00
621.7390, 12575.00
622.9050, 12656.00
624.0710, 12434.00
625.2370, 12391.00
626.4030, 12395.00
627.5690, 12331.00
628.7340, 12232.00
629.9000, 12300.00
631.0650, 12305.00
632.2300, 12090.00
633.3950, 11993.00
634.5600, 11996.00
635.7240, 11937.00
636.8890, 11908.00
638.0530, 11818.00
639.2170, 11883.00
640.3810, 11809.00
641.5450, 11767.00
642.7080, 11555.00
643.8720, 11522.00
645.0350, 11332.00
646.1980, 11354.00
647.3610, 11201.00
648.5240, 11143.00
649.6870, 11044.00
650.8490, 10919.00
652.0120, 10893.00
653.1740, 10908.00
654.3360, 10790.00
655.4980, 10734.67
656.6600, 10579.00
657.8210, 10539.00
658.9830, 10445.00
660.1440, 10356.00
661.3050, 10313.00
662.4660, 10083.00
663.6270, 10088.00
664.7870, 10118.00
665.9480, 9910.000
667.1080, 9960.000
668.2680, 9905.000
669.4280, 9966.000
670.5880, 9904.000
671.7480, 9867.918
672.9070, 9721.000
674.0670, 9729.000
675.2260, 9620.000
676.3850, 9485.000
677.5440, 9562.000
678.7030, 9558.000
679.8610, 9454.000
681.0200, 9467.000
682.1780, 9397.000
683.3360, 9331.000
684.4940, 9313.000
685.6520, 9351.000
686.8090, 9253.000
687.9670, 9279.000
689.1240, 9173.000
690.2810, 9173.000
691.4380, 9188.000
692.5950, 9187.000
693.7520, 9159.765
694.9080, 9095.000
696.0650, 9089.000
697.2210, 9049.000
698.3770, 9005.000
699.5330, 8877.000
700.6880, 8878.000
701.8440, 8788.000
702.9990, 8940.000
704.1550, 8808.000
705.3100, 8817.000
706.4650, 8866.000
707.6190, 8792.000
708.7740, 8928.000
709.9290, 8824.000
711.0830, 8785.000
712.2370, 8887.000
713.3910, 8698.000
714.5450, 8758.000
715.6980, 8738.000
716.8520, 8727.000
718.0050, 8657.000
719.1580, 8534.000
720.3110, 8699.000
721.4640, 8797.000
722.6170, 8746.000
723.7700, 8620.000
724.9220, 8633.000
726.0740, 8544.000
727.2260, 8579.000
728.3780, 8680.000
729.5300, 8577.000
730.6810, 8647.000
731.8330, 8502.000
732.9840, 8621.000
734.1350, 8466.000
735.2860, 8534.000
736.4370, 8555.000
737.5880, 8466.000
738.7380, 8548.000
739.8880, 8366.000
741.0390, 8475.000
742.1890, 8438.000
743.3380, 8340.000
744.4880, 8458.000
745.6380, 8377.000
746.7870, 8277.000
747.9360, 8447.000
749.0850, 8331.000
750.2340, 8396.000
751.3830, 8317.000
752.5310, 8307.000
753.6800, 8170.000
754.8280, 8213.000
755.9760, 8299.000
757.1240, 8228.000
758.2720, 8237.000
759.4190, 8223.000
760.5670, 8214.000
761.7140, 8195.000
762.8610, 8262.000
764.0080, 8152.000
765.1550, 8253.000
766.3020, 8252.000
767.4480, 8218.000
768.5950, 8132.000
769.7410, 8018.000
770.8870, 8132.000
772.0330, 8220.000
773.1780, 8096.000
774.3240, 8095.000
775.4690, 7980.000
776.6140, 8035.000
777.7590, 7976.000
778.9040, 7984.000
780.0490, 7922.000
781.1940, 7908.000
782.3380, 7814.000
783.4820, 7833.000
784.6260, 7866.000
785.7700, 7814.000
786.9140, 7842.000
788.0580, 7780.000
789.2010, 7793.000
790.3450, 7862.000
791.4880, 7658.000
792.6310, 7717.000
793.7730, 7750.000
794.9160, 7611.000
796.0590, 7586.000
797.2010, 7663.000
798.3430, 7668.000
799.4850, 7605.000
800.6270, 7521.000
801.7690, 7630.000
802.9100, 7701.000
804.0520, 7474.000
805.1930, 7574.000
806.3340, 7515.000
807.4750, 7520.000
808.6160, 7523.000
809.7560, 7469.920
810.8970, 7413.000
812.0370, 7422.000
813.1770, 7370.000
814.3170, 7413.000
815.4570, 7369.000
816.5960, 7343.000
817.7360, 7424.000
818.8750, 7397.000
820.0140, 7358.000
821.1530, 7270.000
822.2920, 7173.000
823.4310, 7145.784
824.5690, 7102.459
825.7070, 7072.000
826.8460, 7093.000
827.9840, 7071.000
829.1220, 7104.000
830.2590, 6982.000
831.3970, 6940.000
832.5340, 6927.000
833.6710, 6974.000
834.8080, 6951.000
835.9450, 6835.000
837.0820, 6846.000
838.2190, 6796.000
839.3550, 6713.000
840.4910, 6661.000
841.6270, 6666.000
842.7630, 6680.000
843.8990, 6534.000
845.0350, 6480.000
846.1700, 6573.000
847.3060, 6413.000
848.4410, 6316.000
849.5760, 6293.000
850.7100, 6291.000
851.8450, 6229.000
852.9800, 6191.000
854.1140, 6149.000
855.2480, 6113.000
856.3820, 6098.000
857.5160, 6112.000
858.6500, 5985.000
859.7830, 5920.000
860.9170, 5801.000
862.0500, 5823.000
863.1830, 5724.000
864.3160, 5676.000
865.4480, 5629.000
866.5810, 5577.000
867.7130, 5599.000
868.8460, 5532.000
869.9780, 5528.000
871.1100, 5406.000
872.2410, 5290.000
873.3730, 5304.000
874.5050, 5318.000
875.6360, 5189.000
876.7670, 5169.000
877.8980, 5175.000
879.0290, 5075.000
880.1590, 5116.000
881.2900, 5082.000
882.4200, 4891.000
883.5500, 4911.000
884.6800, 4929.000
885.8100, 4925.000
886.9400, 4898.352
888.0690, 4820.000
889.1990, 4822.000
890.3280, 4741.000
891.4570, 4712.000
892.5860, 4728.000
893.7140, 4647.000
894.8430, 4705.000
895.9710, 4656.000
897.1000, 4634.000
898.2280, 4641.000
899.3560, 4602.936
900.4830, 4533.000
901.6110, 4547.000
902.7380, 4533.000
903.8660, 4473.000
904.9930, 4574.000
906.1200, 4543.000
907.2460, 4485.000
908.3730, 4580.000
909.5000, 4498.000
910.6260, 4449.000
911.7520, 4437.000
912.8780, 4370.000
914.0040, 4417.000
915.1290, 4371.000
916.2550, 4397.000
917.3800, 4379.000
918.5050, 4407.000
919.6300, 4398.000
920.7550, 4395.000
921.8800, 4379.000
923.0040, 4404.000
924.1290, 4349.000
925.2530, 4382.000
926.3770, 4381.000
927.5010, 4298.000
928.6250, 4355.000
929.7480, 4269.000
930.8720, 4284.000
931.9950, 4347.000
933.1180, 4249.000
934.2410, 4295.000
935.3640, 4268.000
936.4860, 4328.000
937.6090, 4268.000
938.7310, 4193.000
939.8530, 4209.000
940.9750, 4197.000
942.0970, 4164.000
943.2180, 4143.000
944.3400, 4123.000
945.4610, 4107.000
946.5820, 4121.000
947.7030, 4103.000
948.8240, 4110.000
949.9450, 4091.000
951.0650, 4035.000
952.1860, 4068.000
953.3060, 4024.000
954.4260, 4065.000
955.5460, 4114.000
956.6650, 4021.000
957.7850, 4025.000
958.9040, 4085.000
960.0230, 4020.000
961.1420, 4082.000
962.2610, 4001.000
963.3800, 4016.000
964.4990, 3988.000
965.6170, 3959.000
966.7350, 3980.000
967.8530, 3960.000
968.9710, 3961.000
970.0890, 3922.000
971.2070, 3866.000
972.3240, 3895.000
973.4410, 3950.000
974.5580, 3900.000
975.6750, 3870.000
976.7920, 3822.000
977.9090, 3846.000
979.0250, 3911.000
980.1410, 3869.000
981.2580, 3836.000
982.3740, 3849.000
983.4890, 3785.000
984.6050, 3887.000
985.7200, 3897.000
986.8360, 3884.000
987.9510, 3922.000
989.0660, 3819.000
990.1810, 3882.000
991.2950, 3833.000
992.4100, 3853.000
993.5240, 3816.000
994.6390, 3795.000
995.7530, 3766.000
996.8660, 3746.000
997.9800, 3730.000
999.0940, 3755.000
1000.207, 3785.000
1001.320, 3713.000
1002.433, 3691.000
1003.546, 3738.000
1004.659, 3748.000
1005.772, 3767.000
1006.884, 3654.000
1007.996, 3651.000
1009.108, 3666.000
1010.220, 3666.000
1011.332, 3645.000
1012.444, 3675.000
1013.555, 3664.000
1014.666, 3667.000
1015.777, 3674.000
1016.888, 3669.000
1017.999, 3623.000
1019.110, 3657.000
1020.220, 3591.000
1021.331, 3580.000
1022.441, 3557.000
1023.551, 3561.000
1024.661, 3530.000
1025.770, 3538.261
1026.880, 3554.424
1027.989, 3554.286
1029.098, 3517.000
1030.207, 3535.000
1031.316, 3549.000
1032.425, 3590.000
1033.533, 3560.000
1034.642, 3560.368
1035.750, 3536.634
1036.858, 3519.000
1037.966, 3507.000
1039.073, 3493.000
1040.181, 3497.830
1041.288, 3509.000
1042.396, 3516.000
1043.503, 3485.000
1044.610, 3495.000
1045.716, 3562.000
1046.823, 3407.000
1047.929, 3501.000
1049.036, 3457.000
1050.142, 3437.000
1051.248, 3480.000
1052.353, 3431.985
1053.459, 3457.210
1054.564, 3391.000
1055.670, 3472.000
1056.775, 3459.000
1057.880, 3452.000
1058.985, 3458.000
1060.089, 3429.364
1061.194, 3394.000
1062.298, 3381.000
1063.402, 3363.000
1064.506, 3341.000
1065.610, 3378.000
1066.713, 3382.000
1067.817, 3380.612
1068.920, 3386.910
1070.023, 3374.000
1071.126, 3371.000
1072.229, 3348.000
1073.332, 3332.000
1074.435, 3369.000
1075.537, 3482.000
1076.639, 3390.201
1077.741, 3360.000
1078.843, 3330.000
1079.945, 3234.000
1081.046, 3339.000
1082.148, 3289.000
1083.249, 3226.000
1084.350, 3279.000
1085.451, 3322.000
1086.551, 3275.000
1087.652, 3292.000
1088.752, 3259.000
1089.853, 3276.000
1090.953, 3194.000
1092.053, 3258.000
1093.152, 3169.000
1094.252, 3201.000
1095.351, 3234.000
1096.451, 3171.000
1097.550, 3192.000
1098.649, 3174.000
1099.748, 3242.000
1100.846, 3214.162
1101.945, 3155.000
1103.043, 3207.000
1104.141, 3161.000
1105.239, 3183.000
1106.337, 3148.000
1107.434, 3174.000
1108.532, 3043.000
1109.629, 3171.000
1110.726, 3112.820
1111.823, 3056.000
1112.920, 3090.000
1114.017, 3131.000
1115.113, 3098.000
1116.210, 3127.000
1117.306, 3181.000
1118.402, 3108.000
1119.498, 3240.000
1120.593, 3219.000
1121.689, 3268.000
1122.784, 3211.000
1123.879, 3184.000
1124.974, 3202.000
1126.069, 3147.000
1127.164, 3249.000
1128.259, 3143.298
1129.353, 3107.000
1130.447, 2999.000
1131.541, 3046.000
1132.635, 3011.000
1133.729, 3011.000
1134.822, 3029.000
1135.916, 3021.000
1137.009, 2959.000
1138.102, 2997.000
1139.195, 3010.000
1140.288, 3064.000
1141.380, 2952.000
1142.473, 2968.000
1143.565, 2972.000
1144.657, 2939.000
1145.749, 2994.000
1146.841, 3001.000
1147.932, 2870.000
1149.024, 2921.000
1150.115, 2902.338
1151.206, 2940.000
1152.297, 2946.000
1153.388, 2952.000
1154.479, 2994.000
1155.569, 2970.000
1156.659, 2901.000
1157.750, 2889.000
1158.839, 2889.000
1159.929, 2892.000
1161.019, 2939.000
1162.108, 2928.000
1163.198, 2951.000
1164.287, 2931.000
1165.376, 2898.734
1166.465, 2965.865
1167.553, 3001.290
1168.642, 3006.703
1169.730, 2892.241
1170.818, 2932.579
1171.906, 2910.879
1172.994, 2886.636
1174.082, 2883.000
1175.170, 2919.000
1176.257, 2876.000
1177.344, 2867.000
1178.431, 2909.000
1179.518, 2870.000
1180.605, 2868.000
1181.691, 2866.000
1182.778, 2842.000
1183.864, 2852.000
1184.950, 2867.000
1186.036, 2899.000
1187.122, 2892.000
1188.207, 2950.000
1189.292, 2792.000
1190.378, 2865.644
1191.463, 2838.000
1192.548, 2892.000
1193.632, 2847.000
1194.717, 2837.000
1195.801, 2846.000
1196.886, 2805.000
1197.970, 2837.000
1199.054, 2837.018
1200.137, 2800.000
1201.221, 2852.000
1202.305, 2867.000
1203.388, 2839.898
1204.471, 2867.000
1205.554, 2853.000
1206.637, 2879.000
1207.719, 2864.000
1208.802, 2850.000
1209.884, 2814.000
1210.966, 2764.000
1212.048, 2840.000
1213.130, 2825.000
1214.212, 2778.000
1215.293, 2826.000
1216.374, 2807.000
1217.456, 2873.000
1218.536, 2824.000
1219.617, 2809.000
1220.698, 2802.000
1221.778, 2785.000
1222.859, 2778.000
1223.939, 2828.000
1225.019, 2837.000
1226.099, 2734.000
1227.178, 2804.000
1228.258, 2807.000
1229.337, 2820.000
1230.417, 2850.000
1231.496, 2848.000
1232.574, 2776.000
1233.653, 2718.000
1234.732, 2737.904
1235.810, 2790.000
1236.888, 2754.000
