##NAMES=Brookite
##RRUFFID=R050591
##IDEAL CHEMISTRY=Ti^4+^O_2_
##LOCALITY=Taftan, near Dalbandi, Baluchistan, Pakistan
##OWNER=RRUFF
##SOURCE=Wayne Thompson
##DESCRIPTION=Yellowish-brown to reddish-brown thin tabular crystal
##STATUS=The identification of this mineral has been confirmed by X-ray diffraction and chemical analysis
##URL=rruff.info/R050591
##MEASURED CHEMISTRY=Ti_1.00_O_2_
##PIN_ID=M00065
##ORIENTATION=Laser parallel to c* (0 0 1). Fiducial mark perpendicular to laser is parallel to a [1 0 0]
51.43100, 387.0000
52.67100, 382.0000
53.91000, 379.0000
55.14900, 381.0000
56.38700, 388.0000
57.62600, 391.0000
58.86400, 405.0000
60.10300, 410.0000
61.34100, 414.0000
62.57900, 417.0000
63.81700, 426.0000
65.05400, 437.0000
66.29200, 449.0000
67.52900, 481.0000
68.76700, 503.0000
70.00400, 550.0000
71.24100, 572.0000
72.47700, 611.0000
73.71400, 643.9295
74.95100, 689.0000
76.18700, 711.0000
77.42300, 732.0000
78.65900, 770.0000
79.89500, 831.0000
81.13100, 858.0000
82.36700, 916.0000
83.60200, 1002.000
84.83700, 999.0000
86.07200, 1029.000
87.30800, 1070.000
88.54200, 1142.000
89.77700, 1231.000
91.01200, 1266.000
92.24600, 1293.000
93.48000, 1403.000
94.71400, 1453.000
95.94800, 1507.000
97.18200, 1569.000
98.41600, 1629.000
99.64900, 1685.000
100.8830, 1731.000
102.1160, 1744.000
103.3490, 1888.000
104.5820, 1985.000
105.8150, 2147.000
107.0470, 2175.000
108.2800, 2396.000
109.5120, 2525.000
110.7440, 2644.000
111.9760, 2676.000
113.2080, 2845.000
114.4400, 3129.000
115.6710, 3423.000
116.9030, 3843.000
118.1340, 4274.773
119.3650, 4927.000
120.5960, 5364.000
121.8270, 5979.000
123.0580, 6728.000
124.2880, 7973.000
125.5190, 9339.000
126.7490, 11405.00
127.9790, 14310.00
129.2090, 16937.00
130.4390, 17943.00
131.6680, 16549.00
132.8980, 13767.00
134.1270, 10973.00
135.3560, 9664.000
136.5850, 9329.000
137.8140, 9570.000
139.0430, 10053.00
140.2710, 10842.00
141.5000, 11993.00
142.7280, 13424.00
143.9560, 15460.00
145.1840, 17925.00
146.4120, 20679.00
147.6390, 23994.00
148.8670, 28183.00
150.0940, 32857.00
151.3210, 38329.00
152.5490, 44204.00
153.7750, 49640.00
155.0020, 53566.00
156.2290, 55028.00
157.4550, 53633.00
158.6810, 49696.00
159.9080, 44874.00
161.1340, 39821.00
162.3590, 35219.00
163.5850, 30902.00
164.8110, 26740.80
166.0360, 23174.00
167.2610, 19402.00
168.4860, 15987.00
169.7110, 13126.00
170.9360, 10892.00
172.1610, 9184.000
173.3850, 8028.000
174.6100, 7135.000
175.8340, 6284.000
177.0580, 5394.000
178.2820, 4764.000
179.5050, 4265.000
180.7290, 3851.000
181.9520, 3434.000
183.1760, 3305.000
184.3990, 3184.000
185.6220, 3026.000
186.8450, 2951.000
188.0670, 2860.000
189.2900, 2920.000
190.5120, 2897.000
191.7340, 3044.000
192.9560, 3332.000
194.1780, 3711.000
195.4000, 4263.000
196.6220, 4682.000
197.8430, 4611.000
199.0640, 4163.000
200.2860, 3392.000
201.5070, 2890.000
202.7270, 2555.000
203.9480, 2341.000
205.1690, 2226.000
206.3890, 2180.000
207.6090, 2148.000
208.8290, 2189.000
210.0490, 2292.000
211.2690, 2374.000
212.4890, 2517.000
213.7080, 2793.000
214.9280, 2965.000
216.1470, 3150.000
217.3660, 3210.000
218.5850, 3021.000
219.8030, 2704.000
221.0220, 2436.000
222.2400, 2204.000
223.4590, 2078.000
224.6770, 1983.000
225.8950, 1980.000
227.1120, 2013.000
228.3300, 2048.000
229.5480, 2147.000
230.7650, 2213.000
231.9820, 2384.000
233.1990, 2633.000
234.4160, 2976.000
235.6330, 3369.000
236.8490, 3788.000
238.0660, 4539.000
239.2820, 5207.000
240.4980, 6160.000
241.7140, 7266.000
242.9300, 8721.000
244.1460, 10823.00
245.3610, 13348.00
246.5770, 16707.00
247.7920, 19877.00
249.0070, 21411.00
250.2220, 20670.00
251.4370, 18095.00
252.6510, 14689.00
253.8660, 11710.00
255.0800, 9382.000
256.2940, 7853.000
257.5080, 6847.000
258.7220, 6101.000
259.9360, 5351.000
261.1490, 4816.000
262.3630, 4343.000
263.5760, 4024.000
264.7890, 3769.000
266.0020, 3661.000
267.2150, 3572.000
268.4270, 3509.000
269.6400, 3411.000
270.8520, 3489.000
272.0640, 3407.000
273.2760, 3467.000
274.4880, 3466.000
275.7000, 3585.000
276.9120, 3648.000
278.1230, 3797.000
279.3340, 4007.000
280.5450, 4178.000
281.7560, 4413.000
282.9670, 4588.000
284.1780, 4845.000
285.3880, 5093.000
286.5980, 5310.000
287.8090, 5382.000
289.0190, 5443.000
290.2290, 5383.000
291.4380, 5237.000
292.6480, 5029.000
293.8570, 4733.000
295.0670, 4597.000
296.2760, 4338.000
297.4850, 4274.000
298.6930, 4214.000
299.9020, 4221.000
301.1110, 4149.000
302.3190, 4277.000
303.5270, 4355.000
304.7350, 4405.000
305.9430, 4681.000
307.1510, 4935.000
308.3580, 5085.000
309.5660, 5336.000
310.7730, 5569.000
311.9800, 5934.945
313.1870, 6462.000
314.3940, 6856.000
315.6010, 7351.000
316.8070, 8046.000
318.0130, 8538.000
319.2200, 9238.000
320.4260, 9787.000
321.6310, 10364.00
322.8370, 10871.00
324.0430, 11322.00
325.2480, 11694.00
326.4540, 11874.00
327.6590, 12111.00
328.8640, 12241.00
330.0680, 12390.00
331.2730, 12165.00
332.4780, 11501.00
333.6820, 10865.00
334.8860, 9771.000
336.0900, 8912.000
337.2940, 7987.000
338.4980, 7130.000
339.7010, 6438.000
340.9050, 5759.000
342.1080, 5222.000
343.3110, 4850.000
344.5140, 4465.000
345.7170, 4368.000
346.9200, 4216.000
348.1220, 4197.000
349.3240, 4146.000
350.5270, 4348.000
351.7290, 4490.000
352.9310, 4689.000
354.1320, 5140.000
355.3340, 5724.000
356.5350, 6376.000
357.7370, 7224.000
358.9380, 8280.000
360.1390, 9557.000
361.3400, 10956.00
362.5400, 12649.00
363.7410, 14588.00
364.9410, 16864.00
366.1410, 18699.00
367.3410, 20565.00
368.5410, 21318.00
369.7410, 20826.00
370.9400, 19323.00
372.1400, 17104.00
373.3390, 14687.00
374.5380, 12289.00
375.7370, 10426.00
376.9360, 9094.000
378.1350, 8046.000
379.3330, 7114.000
380.5310, 6706.000
381.7300, 6293.000
382.9280, 6079.000
384.1260, 5985.000
385.3230, 5898.000
386.5210, 5972.000
387.7180, 6201.000
388.9160, 6456.000
390.1130, 6747.000
391.3100, 6976.000
392.5060, 7261.000
393.7030, 7489.000
394.9000, 7699.000
396.0960, 7575.000
397.2920, 7480.000
398.4880, 7312.000
399.6840, 7068.000
400.8800, 6761.000
402.0750, 6576.000
403.2710, 6593.000
404.4660, 6546.000
405.6610, 6540.000
406.8560, 6564.000
408.0510, 6799.000
409.2450, 6983.000
410.4400, 7095.000
411.6340, 7426.000
412.8280, 7391.000
414.0220, 7535.000
415.2160, 7267.000
416.4100, 7249.000
417.6030, 6811.000
418.7970, 6517.000
419.9900, 6190.000
421.1830, 5799.000
422.3760, 5466.000
423.5690, 5169.000
424.7610, 4932.000
425.9540, 4688.000
427.1460, 4522.761
428.3380, 4377.203
429.5300, 4267.000
430.7220, 4168.000
431.9140, 4090.000
433.1050, 4084.920
434.2970, 4088.000
435.4880, 4154.000
436.6790, 4172.000
437.8700, 4276.000
439.0610, 4311.000
440.2510, 4452.000
441.4420, 4484.000
442.6320, 4666.000
443.8220, 4884.000
445.0120, 5206.000
446.2020, 5401.000
447.3910, 5858.000
448.5810, 6213.000
449.7700, 6554.000
450.9600, 7089.000
452.1490, 7588.000
453.3370, 8175.000
454.5260, 8735.000
455.7150, 9340.000
456.9030, 10148.00
458.0910, 10765.00
459.2800, 11610.00
460.4670, 12266.00
461.6550, 12706.00
462.8430, 12986.00
464.0300, 13315.00
465.2180, 13259.00
466.4050, 12902.00
467.5920, 12385.00
468.7790, 11557.00
469.9650, 10771.00
471.1520, 10233.00
472.3380, 9311.000
473.5250, 8633.000
474.7110, 7991.000
475.8970, 7627.000
477.0820, 7056.000
478.2680, 6678.000
479.4540, 6306.000
480.6390, 5983.000
481.8240, 5565.000
483.0090, 5381.000
484.1940, 5144.000
485.3780, 5062.000
486.5630, 4952.000
487.7470, 4868.000
488.9320, 4862.000
490.1160, 4839.000
491.3000, 4788.000
492.4830, 4758.000
493.6670, 4718.000
494.8500, 4684.008
496.0340, 4563.000
497.2170, 4629.000
498.4000, 4606.000
499.5820, 4595.000
500.7650, 4690.000
501.9480, 4655.000
503.1300, 4677.000
504.3120, 4600.000
505.4940, 4584.000
506.6760, 4526.000
507.8580, 4475.000
509.0390, 4393.000
510.2210, 4334.000
511.4020, 4272.000
512.5830, 4295.000
513.7640, 4315.000
514.9450, 4260.000
516.1250, 4318.000
517.3060, 4320.000
518.4860, 4390.000
519.6660, 4561.000
520.8460, 4634.000
522.0260, 4724.000
523.2060, 4892.000
524.3850, 5121.000
525.5650, 5249.000
526.7440, 5637.000
527.9230, 5742.000
529.1020, 6093.000
530.2810, 6458.000
531.4590, 6722.000
532.6380, 7158.000
533.8160, 7605.000
534.9940, 8072.000
536.1720, 8493.000
537.3500, 8972.000
538.5270, 9419.000
539.7050, 9866.000
540.8820, 10336.00
542.0590, 10665.00
543.2360, 11097.00
544.4130, 11263.00
545.5900, 11415.00
546.7660, 11583.00
547.9430, 11542.00
549.1190, 11472.30
550.2950, 11346.00
551.4710, 11047.00
552.6470, 10622.00
553.8220, 10213.00
554.9980, 9808.000
556.1730, 9425.000
557.3480, 8963.000
558.5230, 8660.000
559.6980, 8421.000
560.8730, 7947.000
562.0470, 7832.000
563.2220, 7634.000
564.3960, 7390.000
565.5700, 7314.000
566.7440, 7194.000
567.9170, 7170.000
569.0910, 7181.000
570.2640, 7141.000
571.4380, 7214.000
572.6110, 7313.000
573.7840, 7531.000
574.9570, 7804.000
576.1290, 8030.000
577.3020, 8412.000
578.4740, 8848.000
579.6460, 9209.000
580.8180, 9485.000
581.9900, 9765.000
583.1620, 10013.00
584.3330, 10298.00
585.5040, 10266.00
586.6760, 10125.00
587.8470, 9880.000
589.0180, 9489.000
590.1880, 8970.000
591.3590, 8501.000
592.5290, 8000.000
593.7000, 7516.000
594.8700, 7099.000
596.0400, 6585.000
597.2090, 6142.000
598.3790, 6009.000
599.5490, 5612.000
600.7180, 5570.000
601.8870, 5318.000
603.0560, 5169.000
604.2250, 5076.000
605.3940, 5058.000
606.5620, 4901.000
607.7300, 4886.000
608.8990, 4944.000
610.0670, 4874.000
611.2350, 4927.000
612.4020, 4966.000
613.5700, 4970.000
614.7370, 5062.667
615.9050, 5138.768
617.0720, 5250.000
618.2390, 5352.000
619.4060, 5498.000
620.5720, 5609.000
621.7390, 5693.000
622.9050, 5870.000
624.0710, 6077.000
625.2370, 6333.000
626.4030, 6533.000
627.5690, 6732.000
628.7340, 6972.000
629.9000, 7242.000
631.0650, 7483.000
632.2300, 7813.000
633.3950, 7844.000
634.5600, 8312.000
635.7240, 8284.000
636.8890, 8491.000
638.0530, 8805.000
639.2170, 8615.000
640.3810, 8815.000
641.5450, 8612.000
642.7080, 8613.000
643.8720, 8463.000
645.0350, 8400.000
646.1980, 8195.524
647.3610, 7937.000
648.5240, 7724.000
649.6870, 7430.000
650.8490, 7162.000
652.0120, 6914.000
653.1740, 6690.000
654.3360, 6449.000
655.4980, 6171.000
656.6600, 5911.000
657.8210, 5713.000
658.9830, 5473.000
660.1440, 5262.000
661.3050, 5019.000
662.4660, 4883.000
663.6270, 4706.000
664.7870, 4575.000
665.9480, 4463.000
667.1080, 4330.000
668.2680, 4169.000
669.4280, 4091.000
670.5880, 4027.000
671.7480, 3853.000
672.9070, 3832.000
674.0670, 3806.000
675.2260, 3573.000
676.3850, 3614.000
677.5440, 3494.000
678.7030, 3371.000
679.8610, 3381.000
681.0200, 3281.000
682.1780, 3276.000
683.3360, 3264.000
684.4940, 3182.000
685.6520, 3103.000
686.8090, 3070.268
687.9670, 3009.156
689.1240, 2988.000
690.2810, 2947.000
691.4380, 2939.000
692.5950, 2952.000
693.7520, 2854.000
694.9080, 2803.000
696.0650, 2849.000
697.2210, 2728.000
698.3770, 2716.000
699.5330, 2741.000
700.6880, 2713.000
701.8440, 2603.000
702.9990, 2614.000
704.1550, 2597.000
705.3100, 2587.000
706.4650, 2578.000
707.6190, 2519.000
708.7740, 2571.000
709.9290, 2476.000
711.0830, 2446.000
712.2370, 2501.000
713.3910, 2446.000
714.5450, 2385.000
715.6980, 2464.000
716.8520, 2424.000
718.0050, 2373.000
719.1580, 2366.000
720.3110, 2324.000
721.4640, 2320.000
722.6170, 2300.795
723.7700, 2291.000
724.9220, 2272.000
726.0740, 2275.000
727.2260, 2260.000
728.3780, 2270.000
729.5300, 2232.000
730.6810, 2275.000
731.8330, 2264.000
732.9840, 2229.000
734.1350, 2165.000
735.2860, 2144.000
736.4370, 2121.871
737.5880, 2102.000
738.7380, 2094.000
739.8880, 2091.705
741.0390, 2136.000
742.1890, 2115.000
743.3380, 2087.000
744.4880, 2124.000
745.6380, 2043.000
746.7870, 2088.000
747.9360, 2028.000
749.0850, 2051.000
750.2340, 2007.000
751.3830, 2009.000
752.5310, 2054.000
753.6800, 2009.090
754.8280, 2021.273
755.9760, 1984.000
757.1240, 1992.000
758.2720, 2012.000
759.4190, 1984.000
760.5670, 1993.000
761.7140, 1949.000
762.8610, 1954.000
764.0080, 1906.000
765.1550, 1905.455
766.3020, 1937.000
767.4480, 1911.000
768.5950, 1918.000
769.7410, 1953.000
770.8870, 1869.000
772.0330, 1929.000
773.1780, 1877.000
774.3240, 1890.000
775.4690, 1895.000
776.6140, 1839.000
777.7590, 1873.000
778.9040, 1887.000
780.0490, 1805.000
781.1940, 1803.000
782.3380, 1823.000
783.4820, 1858.000
784.6260, 1798.000
785.7700, 1769.000
786.9140, 1714.000
788.0580, 1694.930
789.2010, 1748.000
790.3450, 1652.000
791.4880, 1696.000
792.6310, 1661.000
793.7730, 1690.000
794.9160, 1634.000
796.0590, 1623.000
797.2010, 1616.000
798.3430, 1651.000
799.4850, 1621.000
800.6270, 1568.000
801.7690, 1601.000
802.9100, 1572.000
804.0520, 1559.000
805.1930, 1590.000
806.3340, 1519.000
807.4750, 1661.000
808.6160, 1589.990
809.7560, 1598.000
810.8970, 1518.000
812.0370, 1539.000
813.1770, 1465.000
814.3170, 1529.000
815.4570, 1488.000
816.5960, 1477.000
817.7360, 1491.000
818.8750, 1482.000
820.0140, 1462.000
821.1530, 1438.000
822.2920, 1454.000
823.4310, 1454.000
824.5690, 1447.000
825.7070, 1436.000
826.8460, 1380.000
827.9840, 1390.000
829.1220, 1366.000
830.2590, 1426.000
831.3970, 1364.000
832.5340, 1411.000
833.6710, 1385.000
834.8080, 1389.000
835.9450, 1379.000
837.0820, 1365.000
838.2190, 1368.000
839.3550, 1374.000
840.4910, 1366.000
841.6270, 1356.000
842.7630, 1314.000
843.8990, 1319.000
845.0350, 1331.000
846.1700, 1291.000
847.3060, 1310.000
848.4410, 1332.000
849.5760, 1310.000
850.7100, 1326.000
851.8450, 1299.000
852.9800, 1274.000
854.1140, 1285.000
855.2480, 1234.000
856.3820, 1294.000
857.5160, 1228.000
858.6500, 1230.000
859.7830, 1256.000
860.9170, 1249.000
862.0500, 1257.006
863.1830, 1252.000
864.3160, 1251.000
865.4480, 1245.000
866.5810, 1222.000
867.7130, 1158.000
868.8460, 1172.000
869.9780, 1196.000
871.1100, 1232.000
872.2410, 1156.000
873.3730, 1172.000
874.5050, 1172.000
875.6360, 1158.000
876.7670, 1146.000
877.8980, 1142.000
879.0290, 1143.000
880.1590, 1130.000
881.2900, 1151.000
882.4200, 1118.000
883.5500, 1142.000
884.6800, 1087.000
885.8100, 1112.000
886.9400, 1132.000
888.0690, 1073.000
889.1990, 1079.000
890.3280, 1076.000
891.4570, 1122.000
892.5860, 1074.000
893.7140, 1063.000
894.8430, 1108.000
895.9710, 1078.000
897.1000, 1075.000
898.2280, 1063.000
899.3560, 1078.000
900.4830, 1065.000
901.6110, 1062.000
902.7380, 1036.000
903.8660, 1089.000
904.9930, 1042.000
906.1200, 1077.000
907.2460, 1019.000
908.3730, 1069.000
909.5000, 1049.000
910.6260, 1062.000
911.7520, 1047.000
912.8780, 1089.000
914.0040, 1069.000
915.1290, 1073.000
916.2550, 1049.000
917.3800, 1054.000
918.5050, 1063.000
919.6300, 1063.000
920.7550, 1052.000
921.8800, 1078.000
923.0040, 1043.000
924.1290, 1072.000
925.2530, 1055.000
926.3770, 1044.000
927.5010, 1097.000
928.6250, 1083.000
929.7480, 1045.000
930.8720, 1066.000
931.9950, 1048.000
933.1180, 1061.000
934.2410, 1045.000
935.3640, 1031.000
936.4860, 1055.000
937.6090, 1032.000
938.7310, 1001.000
939.8530, 1049.000
940.9750, 1049.000
942.0970, 1058.000
943.2180, 1014.000
944.3400, 1074.000
945.4610, 1009.000
946.5820, 1013.000
947.7030, 1004.000
948.8240, 1022.000
949.9450, 1014.000
951.0650, 1008.000
952.1860, 1019.000
953.3060, 1002.000
954.4260, 1004.000
955.5460, 951.0000
956.6650, 1002.000
957.7850, 956.0000
958.9040, 986.0000
960.0230, 988.0000
961.1420, 1008.000
962.2610, 1000.753
963.3800, 976.0000
964.4990, 981.0000
965.6170, 978.0000
966.7350, 974.0000
967.8530, 968.0000
968.9710, 947.0000
970.0890, 941.0000
971.2070, 953.0000
972.3240, 960.0000
973.4410, 943.0000
974.5580, 960.0000
975.6750, 933.0000
976.7920, 934.0000
977.9090, 956.0000
979.0250, 965.0000
980.1410, 963.0000
981.2580, 954.0000
982.3740, 990.0000
983.4890, 935.0000
984.6050, 942.0000
985.7200, 959.0000
986.8360, 939.0000
987.9510, 918.0000
989.0660, 924.0000
990.1810, 961.0000
991.2950, 945.0000
992.4100, 967.0000
993.5240, 964.6086
994.6390, 936.0000
995.7530, 962.0000
996.8660, 941.0000
997.9800, 951.0000
999.0940, 959.0000
1000.207, 921.0000
1001.320, 926.0000
1002.433, 927.0000
1003.546, 906.0000
1004.659, 946.0000
1005.772, 914.0000
1006.884, 935.0000
1007.996, 917.0000
1009.108, 904.0000
1010.220, 950.0000
1011.332, 894.0000
1012.444, 893.0000
1013.555, 876.0000
1014.666, 911.0000
1015.777, 897.0000
1016.888, 909.0000
1017.999, 888.0000
1019.110, 869.0000
1020.220, 883.0000
1021.331, 892.0000
1022.441, 897.0000
1023.551, 902.4071
1024.661, 900.9830
1025.770, 906.0000
1026.880, 887.0000
1027.989, 887.0000
1029.098, 865.0000
1030.207, 865.0000
1031.316, 875.0000
1032.425, 881.0000
1033.533, 866.0000
1034.642, 851.0000
1035.750, 873.0000
1036.858, 884.0000
1037.966, 858.0000
1039.073, 857.0000
1040.181, 891.0000
1041.288, 854.0000
1042.396, 857.0000
1043.503, 890.0000
1044.610, 873.0000
1045.716, 841.0000
1046.823, 855.0000
1047.929, 834.0000
1049.036, 831.0000
1050.142, 833.0000
1051.248, 833.0000
1052.353, 837.9864
1053.459, 861.0000
1054.564, 849.0000
1055.670, 855.0677
1056.775, 817.0000
1057.880, 845.0000
1058.985, 814.0000
1060.089, 798.0000
1061.194, 799.0000
1062.298, 822.0000
1063.402, 825.0000
1064.506, 804.0000
1065.610, 840.0000
1066.713, 803.0000
1067.817, 818.0000
1068.920, 789.0000
1070.023, 790.0000
1071.126, 821.0000
1072.229, 795.0000
1073.332, 790.0000
1074.435, 800.0000
1075.537, 807.0000
1076.639, 793.0000
1077.741, 782.0000
1078.843, 785.0000
1079.945, 789.0000
1081.046, 776.0000
1082.148, 769.0000
1083.249, 787.0000
1084.350, 769.0000
1085.451, 763.0000
1086.551, 783.0000
1087.652, 796.0000
1088.752, 775.0000
1089.853, 779.0000
1090.953, 765.0000
1092.053, 755.9000
1093.152, 763.0000
1094.252, 741.0000
1095.351, 732.0000
1096.451, 731.5606
1097.550, 735.0000
1098.649, 747.0000
1099.748, 741.0000
1100.846, 759.0000
1101.945, 715.0000
1103.043, 738.0000
1104.141, 748.0000
1105.239, 727.0000
1106.337, 739.0000
1107.434, 741.0000
1108.532, 734.0000
1109.629, 724.0000
1110.726, 724.0000
1111.823, 730.0000
1112.920, 747.0000
1114.017, 726.0000
1115.113, 757.0000
1116.210, 763.0000
1117.306, 806.0000
1118.402, 834.0000
1119.498, 850.0000
1120.593, 874.0000
1121.689, 910.0000
1122.784, 884.0000
1123.879, 907.0000
1124.974, 871.0000
1126.069, 809.0000
1127.164, 772.0000
1128.259, 771.0000
1129.353, 737.0000
1130.447, 722.0000
1131.541, 711.0000
1132.635, 685.0000
1133.729, 701.0000
1134.822, 683.0000
1135.916, 696.0000
1137.009, 713.0000
1138.102, 657.0000
1139.195, 669.0000
1140.288, 649.0000
1141.380, 680.0000
1142.473, 659.0000
1143.565, 678.0000
1144.657, 654.0000
1145.749, 678.0000
1146.841, 677.0000
1147.932, 655.0000
1149.024, 653.0000
1150.115, 683.0000
1151.206, 679.0000
1152.297, 669.0000
1153.388, 652.0000
1154.479, 668.0000
1155.569, 677.0000
1156.659, 644.0000
1157.750, 667.0000
1158.839, 654.0000
1159.929, 670.0000
1161.019, 656.0000
1162.108, 682.0000
1163.198, 668.0000
1164.287, 651.0000
1165.376, 655.0000
1166.465, 635.0000
1167.553, 676.0000
1168.642, 646.0000
1169.730, 623.0000
1170.818, 657.0000
1171.906, 656.0000
1172.994, 655.0000
1174.082, 633.0000
1175.170, 634.0000
1176.257, 643.0000
1177.344, 638.0000
1178.431, 634.0000
1179.518, 642.0000
1180.605, 648.0000
1181.691, 644.0000
1182.778, 621.0000
1183.864, 642.0000
1184.950, 627.0000
1186.036, 640.0000
1187.122, 648.0000
1188.207, 628.0000
1189.292, 638.0000
1190.378, 639.0000
1191.463, 630.0000
1192.548, 634.0000
1193.632, 648.0000
1194.717, 620.0000
1195.801, 627.0000
1196.886, 622.0000
1197.970, 642.0000
1199.054, 632.0000
1200.137, 619.0000
1201.221, 619.0000
1202.305, 632.0000
1203.388, 625.0000
1204.471, 643.0000
1205.554, 636.0000
1206.637, 637.0000
1207.719, 640.0000
1208.802, 651.0000
1209.884, 642.0000
1210.966, 644.3932
1212.048, 620.0000
1213.130, 635.0000
1214.212, 633.0000
1215.293, 623.0000
1216.374, 633.0000
1217.456, 634.0000
1218.536, 630.0000
1219.617, 635.0000
1220.698, 627.0000
1221.778, 624.0000
1222.859, 657.0000
1223.939, 614.0000
1225.019, 626.0000
1226.099, 660.0000
1227.178, 611.0000
1228.258, 617.0000
1229.337, 629.0000
1230.417, 623.0000
1231.496, 637.0000
1232.574, 611.0000
1233.653, 620.0000
1234.732, 657.0000
1235.810, 621.0000
1236.888, 602.0000
1237.966, 638.0000
1239.044, 640.0000
