##NAMES=Brookite
##RRUFFID=R050591
##IDEAL CHEMISTRY=Ti^4+^O_2_
##LOCALITY=Taftan, near Dalbandi, Baluchistan, Pakistan
##OWNER=RRUFF
##SOURCE=Wayne Thompson
##DESCRIPTION=Yellowish-brown to reddish-brown thin tabular crystal
##STATUS=The identification of this mineral has been confirmed by X-ray diffraction and chemical analysis
##URL=rruff.info/R050591
##MEASURED CHEMISTRY=Ti_1.00_O_2_
##PIN_ID=M00065
##ORIENTATION=Laser parallel to c* (0 0 1). Fiducial mark perpendicular to laser is parallel to a [1 0 0]
51.43100, 386.0000
52.67100, 391.0000
53.91000, 386.0000
55.14900, 399.0000
56.38700, 406.0000
57.62600, 416.0000
58.86400, 420.0000
60.10300, 426.0000
61.34100, 441.0000
62.57900, 469.0000
63.81700, 485.0000
65.05400, 524.0000
66.29200, 571.0000
67.52900, 580.0000
68.76700, 669.0000
70.00400, 764.0000
71.24100, 847.0000
72.47700, 898.0000
73.71400, 1009.000
74.95100, 1074.000
76.18700, 1131.000
77.42300, 1283.000
78.65900, 1381.000
79.89500, 1477.000
81.13100, 1611.000
82.36700, 1709.341
83.60200, 1837.000
84.83700, 1933.000
86.07200, 2040.000
87.30800, 2150.528
88.54200, 2262.000
89.77700, 2400.000
91.01200, 2563.000
92.24600, 2701.000
93.48000, 2799.898
94.71400, 2871.000
95.94800, 2988.000
97.18200, 3102.000
98.41600, 3216.000
99.64900, 3341.000
100.8830, 3389.000
102.1160, 3619.000
103.3490, 3612.000
104.5820, 3829.000
105.8150, 4011.000
107.0470, 4192.000
108.2800, 4347.000
109.5120, 4599.000
110.7440, 4744.000
111.9760, 4855.000
113.2080, 5220.000
114.4400, 5616.000
115.6710, 6136.000
116.9030, 6741.000
118.1340, 7473.000
119.3650, 8324.000
120.5960, 8664.000
121.8270, 9452.000
123.0580, 10547.00
124.2880, 11927.00
125.5190, 13416.00
126.7490, 15231.00
127.9790, 17259.00
129.2090, 18666.00
130.4390, 18706.00
131.6680, 17519.00
132.8980, 15648.00
134.1270, 14171.00
135.3560, 13891.00
136.5850, 14194.00
137.8140, 15301.00
139.0430, 16942.00
140.2710, 19095.00
141.5000, 21484.00
142.7280, 24377.00
143.9560, 27672.00
145.1840, 31048.00
146.4120, 34973.00
147.6390, 39371.00
148.8670, 44075.00
150.0940, 48650.00
151.3210, 53507.00
152.5490, 57568.00
153.7750, 59884.00
155.0020, 59656.00
156.2290, 56909.00
157.4550, 50967.00
158.6810, 43859.00
159.9080, 35969.00
161.1340, 28976.00
162.3590, 23251.00
163.5850, 18960.00
164.8110, 15408.00
166.0360, 12918.00
167.2610, 10952.00
168.4860, 9610.000
169.7110, 8714.000
170.9360, 8151.000
172.1610, 7940.000
173.3850, 7768.000
174.6100, 7396.000
175.8340, 6714.000
177.0580, 5854.000
178.2820, 4926.000
179.5050, 4215.000
180.7290, 3713.000
181.9520, 3460.000
183.1760, 3310.000
184.3990, 3162.000
185.6220, 3122.000
186.8450, 3119.000
188.0670, 3089.000
189.2900, 3094.000
190.5120, 3047.000
191.7340, 2978.000
192.9560, 3033.000
194.1780, 3015.000
195.4000, 3113.000
196.6220, 3159.000
197.8430, 3139.000
199.0640, 3144.000
200.2860, 3173.000
201.5070, 3252.000
202.7270, 3366.661
203.9480, 3484.000
205.1690, 3711.000
206.3890, 3928.000
207.6090, 4192.000
208.8290, 4519.000
210.0490, 4769.000
211.2690, 5302.000
212.4890, 5905.000
213.7080, 6547.000
214.9280, 6999.000
216.1470, 7364.000
217.3660, 7172.000
218.5850, 6913.000
219.8030, 6247.000
221.0220, 5612.000
222.2400, 5147.000
223.4590, 4829.000
224.6770, 4707.000
225.8950, 4713.000
227.1120, 4739.541
228.3300, 5044.000
229.5480, 5195.000
230.7650, 5588.000
231.9820, 6134.000
233.1990, 6761.000
234.4160, 7626.000
235.6330, 8692.000
236.8490, 9960.000
238.0660, 11306.00
239.2820, 12754.00
240.4980, 14095.00
241.7140, 16001.00
242.9300, 18508.00
244.1460, 21239.00
245.3610, 24034.00
246.5770, 26215.00
247.7920, 26915.00
249.0070, 25681.00
250.2220, 22378.00
251.4370, 17804.00
252.6510, 13537.00
253.8660, 10109.00
255.0800, 7897.000
256.2940, 6649.000
257.5080, 5922.000
258.7220, 5335.000
259.9360, 5081.000
261.1490, 4941.000
262.3630, 4867.000
263.5760, 4853.000
264.7890, 4894.897
266.0020, 5093.000
267.2150, 5197.000
268.4270, 5471.000
269.6400, 5852.000
270.8520, 6151.000
272.0640, 6466.000
273.2760, 6931.000
274.4880, 7547.000
275.7000, 7987.000
276.9120, 8889.000
278.1230, 9613.000
279.3340, 10634.00
280.5450, 11446.00
281.7560, 12573.00
282.9670, 13488.00
284.1780, 14404.00
285.3880, 15128.00
286.5980, 15662.00
287.8090, 15787.00
289.0190, 15695.00
290.2290, 14713.00
291.4380, 13765.00
292.6480, 12882.00
293.8570, 11545.00
295.0670, 10485.00
296.2760, 9525.000
297.4850, 8826.000
298.6930, 8129.000
299.9020, 7780.000
301.1110, 7316.000
302.3190, 6954.000
303.5270, 6841.000
304.7350, 6569.000
305.9430, 6367.000
307.1510, 6219.000
308.3580, 6138.000
309.5660, 6143.000
310.7730, 5965.000
311.9800, 6077.000
313.1870, 6026.000
314.3940, 6071.000
315.6010, 6224.000
316.8070, 6308.000
318.0130, 6408.000
319.2200, 6737.000
320.4260, 6925.000
321.6310, 7474.000
322.8370, 7788.000
324.0430, 8265.000
325.2480, 8873.000
326.4540, 9372.000
327.6590, 10067.00
328.8640, 10432.00
330.0680, 10721.00
331.2730, 10686.00
332.4780, 10115.00
333.6820, 9312.000
334.8860, 8456.000
336.0900, 7794.000
337.2940, 7155.000
338.4980, 6550.000
339.7010, 6031.000
340.9050, 5753.000
342.1080, 5536.000
343.3110, 5346.000
344.5140, 5245.000
345.7170, 5062.000
346.9200, 5062.000
348.1220, 4924.000
349.3240, 4939.000
350.5270, 4882.000
351.7290, 4828.000
352.9310, 4953.000
354.1320, 5047.000
355.3340, 5242.000
356.5350, 5314.000
357.7370, 5525.000
358.9380, 5680.000
360.1390, 5946.000
361.3400, 6189.000
362.5400, 6446.000
363.7410, 6596.000
364.9410, 6989.000
366.1410, 7271.000
367.3410, 7441.000
368.5410, 7512.000
369.7410, 7397.000
370.9400, 7210.000
372.1400, 6917.000
373.3390, 6517.000
374.5380, 6435.000
375.7370, 6080.000
376.9360, 5876.000
378.1350, 5755.000
379.3330, 5526.000
380.5310, 5377.000
381.7300, 5343.000
382.9280, 5224.000
384.1260, 5219.117
385.3230, 5254.000
386.5210, 5239.000
387.7180, 5290.000
388.9160, 5322.000
390.1130, 5332.000
391.3100, 5395.193
392.5060, 5467.000
393.7030, 5490.000
394.9000, 5580.000
396.0960, 5608.000
397.2920, 5632.000
398.4880, 5740.000
399.6840, 5746.000
400.8800, 5902.000
402.0750, 5978.000
403.2710, 6008.000
404.4660, 6285.000
405.6610, 6330.000
406.8560, 6447.000
408.0510, 6557.000
409.2450, 6665.000
410.4400, 6775.000
411.6340, 6856.000
412.8280, 6774.000
414.0220, 6695.888
415.2160, 6443.000
416.4100, 6303.000
417.6030, 6055.000
418.7970, 5868.497
419.9900, 5647.000
421.1830, 5496.000
422.3760, 5277.000
423.5690, 5125.000
424.7610, 5016.000
425.9540, 4939.000
427.1460, 4931.000
428.3380, 4885.000
429.5300, 4892.000
430.7220, 4859.000
431.9140, 4859.000
433.1050, 4885.000
434.2970, 5088.000
435.4880, 5263.000
436.6790, 5433.000
437.8700, 5551.000
439.0610, 5769.000
440.2510, 5913.000
441.4420, 6157.000
442.6320, 6499.000
443.8220, 6771.000
445.0120, 7123.000
446.2020, 7432.000
447.3910, 7770.000
448.5810, 7936.000
449.7700, 8240.000
450.9600, 8379.000
452.1490, 8426.000
453.3370, 8526.000
454.5260, 8323.000
455.7150, 8175.000
456.9030, 8088.000
458.0910, 7863.000
459.2800, 7743.000
460.4670, 7524.000
461.6550, 7538.000
462.8430, 7313.000
464.0300, 7289.000
465.2180, 7162.000
466.4050, 6942.000
467.5920, 6868.000
468.7790, 6694.000
469.9650, 6520.000
471.1520, 6447.000
472.3380, 6384.768
473.5250, 6345.880
474.7110, 6410.000
475.8970, 6417.000
477.0820, 6531.000
478.2680, 6715.000
479.4540, 6879.000
480.6390, 7204.000
481.8240, 7492.000
483.0090, 7825.000
484.1940, 8129.000
485.3780, 8704.000
486.5630, 9046.000
487.7470, 9357.000
488.9320, 9531.000
490.1160, 9626.000
491.3000, 9586.000
492.4830, 9396.000
493.6670, 9128.000
494.8500, 8703.000
496.0340, 8346.000
497.2170, 7910.000
498.4000, 7698.000
499.5820, 7418.000
500.7650, 7281.000
501.9480, 7164.000
503.1300, 7260.000
504.3120, 7225.000
505.4940, 7322.000
506.6760, 7338.000
507.8580, 7550.000
509.0390, 7467.000
510.2210, 7793.000
511.4020, 7837.000
512.5830, 7955.000
513.7640, 8344.000
514.9450, 8512.000
516.1250, 9035.000
517.3060, 9306.000
518.4860, 9560.000
519.6660, 10103.00
520.8460, 10580.00
522.0260, 11142.00
523.2060, 11680.00
524.3850, 12396.00
525.5650, 13067.00
526.7440, 14146.00
527.9230, 15180.00
529.1020, 16090.00
530.2810, 17335.00
531.4590, 18613.00
532.6380, 20038.00
533.8160, 21425.00
534.9940, 22880.83
536.1720, 24359.00
537.3500, 25868.00
538.5270, 27293.00
539.7050, 28776.00
540.8820, 30273.00
542.0590, 31325.00
543.2360, 32339.00
544.4130, 33061.00
545.5900, 33322.00
546.7660, 33660.00
547.9430, 33553.00
549.1190, 32699.00
550.2950, 32155.00
551.4710, 30927.00
552.6470, 29561.00
553.8220, 28234.00
554.9980, 27004.00
556.1730, 25665.00
557.3480, 24009.00
558.5230, 22817.00
559.6980, 21632.00
560.8730, 20543.00
562.0470, 19539.00
563.2220, 18565.29
564.3960, 17685.00
565.5700, 16875.00
566.7440, 16048.00
567.9170, 15425.00
569.0910, 14997.00
570.2640, 14332.00
571.4380, 14001.00
572.6110, 13507.00
573.7840, 12980.00
574.9570, 12820.00
576.1290, 12429.00
577.3020, 12339.00
578.4740, 12044.00
579.6460, 11728.00
580.8180, 11560.00
581.9900, 11426.00
583.1620, 11311.00
584.3330, 10956.00
585.5040, 10897.00
586.6760, 10584.00
587.8470, 10333.00
589.0180, 10113.00
590.1880, 9817.000
591.3590, 9619.000
592.5290, 9339.000
593.7000, 9157.735
594.8700, 9049.000
596.0400, 8809.000
597.2090, 8761.000
598.3790, 8608.000
599.5490, 8431.000
600.7180, 8423.000
601.8870, 8265.000
603.0560, 8287.000
604.2250, 8187.000
605.3940, 8140.000
606.5620, 8121.000
607.7300, 7962.000
608.8990, 8002.000
610.0670, 7979.000
611.2350, 7897.000
612.4020, 7956.000
613.5700, 7740.000
614.7370, 7617.000
615.9050, 7513.000
617.0720, 7419.773
618.2390, 7460.000
619.4060, 7312.000
620.5720, 7242.000
621.7390, 7176.000
622.9050, 7062.000
624.0710, 6965.213
625.2370, 6809.000
626.4030, 6724.000
627.5690, 6602.000
628.7340, 6466.000
629.9000, 6404.000
631.0650, 6348.000
632.2300, 6241.000
633.3950, 6114.000
634.5600, 6034.036
635.7240, 5808.000
636.8890, 5826.000
638.0530, 5680.000
639.2170, 5559.000
640.3810, 5560.000
641.5450, 5432.000
642.7080, 5249.000
643.8720, 5238.000
645.0350, 5208.000
646.1980, 5076.000
647.3610, 5015.000
648.5240, 4948.000
649.6870, 4872.198
650.8490, 4804.000
652.0120, 4769.000
653.1740, 4722.000
654.3360, 4691.000
655.4980, 4604.000
656.6600, 4678.000
657.8210, 4744.000
658.9830, 4593.000
660.1440, 4583.000
661.3050, 4670.000
662.4660, 4586.000
663.6270, 4574.000
664.7870, 4510.000
665.9480, 4656.000
667.1080, 4621.000
668.2680, 4513.000
669.4280, 4628.000
670.5880, 4524.000
671.7480, 4507.000
672.9070, 4507.000
674.0670, 4586.000
675.2260, 4476.000
676.3850, 4573.000
677.5440, 4558.000
678.7030, 4567.000
679.8610, 4586.000
681.0200, 4524.000
682.1780, 4445.000
683.3360, 4408.000
684.4940, 4411.000
685.6520, 4442.000
686.8090, 4452.000
687.9670, 4312.000
689.1240, 4379.000
690.2810, 4321.000
691.4380, 4276.000
692.5950, 4265.000
693.7520, 4236.204
694.9080, 4198.000
696.0650, 4226.000
697.2210, 4179.000
698.3770, 4191.000
699.5330, 4156.000
700.6880, 4065.000
701.8440, 4084.000
702.9990, 4082.000
704.1550, 4012.000
705.3100, 4061.000
706.4650, 4039.000
707.6190, 4007.000
708.7740, 3939.000
709.9290, 3932.000
711.0830, 3956.000
712.2370, 3968.000
713.3910, 3971.000
714.5450, 3895.000
715.6980, 3892.000
716.8520, 3902.000
718.0050, 3836.000
719.1580, 3825.000
720.3110, 3934.000
721.4640, 3909.000
722.6170, 3844.000
723.7700, 3923.000
724.9220, 3906.000
726.0740, 3793.000
727.2260, 3900.000
728.3780, 3904.000
729.5300, 3820.000
730.6810, 3887.000
731.8330, 3824.000
732.9840, 3811.000
734.1350, 3864.000
735.2860, 3767.000
736.4370, 3727.000
737.5880, 3809.000
738.7380, 3727.000
739.8880, 3800.000
741.0390, 3793.000
742.1890, 3704.000
743.3380, 3733.000
744.4880, 3791.000
745.6380, 3720.000
746.7870, 3770.000
747.9360, 3737.000
749.0850, 3672.000
750.2340, 3651.000
751.3830, 3648.000
752.5310, 3614.000
753.6800, 3606.233
754.8280, 3564.000
755.9760, 3604.000
757.1240, 3562.000
758.2720, 3613.000
759.4190, 3506.000
760.5670, 3517.000
761.7140, 3623.000
762.8610, 3540.000
764.0080, 3553.000
765.1550, 3568.000
766.3020, 3510.000
767.4480, 3458.000
768.5950, 3470.000
769.7410, 3420.917
770.8870, 3452.000
772.0330, 3387.000
773.1780, 3399.000
774.3240, 3411.000
775.4690, 3389.000
776.6140, 3420.000
777.7590, 3362.000
778.9040, 3341.000
780.0490, 3360.000
781.1940, 3324.000
782.3380, 3301.000
783.4820, 3226.000
784.6260, 3240.000
785.7700, 3235.000
786.9140, 3192.000
788.0580, 3189.000
789.2010, 3117.000
790.3450, 3195.000
791.4880, 3173.000
792.6310, 3111.000
793.7730, 3095.000
794.9160, 3090.000
796.0590, 3078.000
797.2010, 3047.000
798.3430, 3110.000
799.4850, 2986.000
800.6270, 3036.000
801.7690, 3043.000
802.9100, 2954.000
804.0520, 2937.000
805.1930, 2960.000
806.3340, 2969.000
807.4750, 2936.000
808.6160, 2932.000
809.7560, 2893.000
810.8970, 2870.000
812.0370, 2866.000
813.1770, 2794.000
814.3170, 2855.000
815.4570, 2834.000
816.5960, 2782.000
817.7360, 2753.000
818.8750, 2834.000
820.0140, 2735.000
821.1530, 2776.000
822.2920, 2610.000
823.4310, 2639.000
824.5690, 2671.000
825.7070, 2680.000
826.8460, 2674.478
827.9840, 2641.000
829.1220, 2626.000
830.2590, 2607.000
831.3970, 2555.000
832.5340, 2573.000
833.6710, 2496.000
834.8080, 2566.000
835.9450, 2489.000
837.0820, 2520.000
838.2190, 2469.000
839.3550, 2448.000
840.4910, 2424.000
841.6270, 2424.000
842.7630, 2414.000
843.8990, 2366.000
845.0350, 2365.000
846.1700, 2345.019
847.3060, 2372.000
848.4410, 2324.000
849.5760, 2290.000
850.7100, 2282.744
851.8450, 2334.000
852.9800, 2268.000
854.1140, 2292.000
855.2480, 2262.000
856.3820, 2267.000
857.5160, 2234.000
858.6500, 2232.000
859.7830, 2171.000
860.9170, 2196.000
862.0500, 2165.000
863.1830, 2135.000
864.3160, 2178.000
865.4480, 2108.000
866.5810, 2114.000
867.7130, 2069.000
868.8460, 2102.000
869.9780, 2092.000
871.1100, 2032.000
872.2410, 2061.000
873.3730, 2023.000
874.5050, 1980.000
875.6360, 1985.000
876.7670, 1891.000
877.8980, 1977.000
879.0290, 1912.000
880.1590, 1942.000
881.2900, 1894.000
882.4200, 1870.000
883.5500, 1919.000
884.6800, 1877.000
885.8100, 1834.000
886.9400, 1814.000
888.0690, 1814.000
889.1990, 1784.000
890.3280, 1820.000
891.4570, 1806.853
892.5860, 1782.000
893.7140, 1825.000
894.8430, 1789.000
895.9710, 1819.000
897.1000, 1748.000
898.2280, 1766.000
899.3560, 1790.000
900.4830, 1754.000
901.6110, 1771.000
902.7380, 1713.000
903.8660, 1750.000
904.9930, 1714.000
906.1200, 1691.000
907.2460, 1765.000
908.3730, 1748.000
909.5000, 1728.000
910.6260, 1722.000
911.7520, 1725.498
912.8780, 1709.000
914.0040, 1742.000
915.1290, 1765.000
916.2550, 1764.000
917.3800, 1724.000
918.5050, 1769.000
919.6300, 1742.000
920.7550, 1763.000
921.8800, 1745.000
923.0040, 1762.000
924.1290, 1738.000
925.2530, 1744.000
926.3770, 1758.000
927.5010, 1747.000
928.6250, 1739.000
929.7480, 1746.000
930.8720, 1730.388
931.9950, 1723.000
933.1180, 1729.000
934.2410, 1704.000
935.3640, 1742.000
936.4860, 1699.000
937.6090, 1742.000
938.7310, 1690.000
939.8530, 1674.000
940.9750, 1717.000
942.0970, 1667.000
943.2180, 1644.000
944.3400, 1721.000
945.4610, 1649.000
946.5820, 1647.000
947.7030, 1627.000
948.8240, 1604.000
949.9450, 1605.000
951.0650, 1589.008
952.1860, 1595.000
953.3060, 1570.000
954.4260, 1566.000
955.5460, 1547.000
956.6650, 1544.000
957.7850, 1533.000
958.9040, 1552.000
960.0230, 1539.000
961.1420, 1500.000
962.2610, 1533.000
963.3800, 1494.000
964.4990, 1481.000
965.6170, 1501.000
966.7350, 1450.000
967.8530, 1496.000
968.9710, 1474.000
970.0890, 1468.000
971.2070, 1471.000
972.3240, 1431.000
973.4410, 1458.000
974.5580, 1430.000
975.6750, 1455.000
976.7920, 1444.000
977.9090, 1425.000
979.0250, 1445.000
980.1410, 1435.000
981.2580, 1412.000
982.3740, 1379.000
983.4890, 1461.000
984.6050, 1426.000
985.7200, 1420.000
986.8360, 1393.000
987.9510, 1424.000
989.0660, 1394.000
990.1810, 1390.000
991.2950, 1372.000
992.4100, 1405.000
993.5240, 1417.000
994.6390, 1363.000
995.7530, 1395.000
996.8660, 1362.000
997.9800, 1370.000
999.0940, 1342.000
1000.207, 1370.000
1001.320, 1327.000
1002.433, 1366.000
1003.546, 1368.000
1004.659, 1302.000
1005.772, 1360.000
1006.884, 1372.000
1007.996, 1323.000
1009.108, 1320.000
1010.220, 1296.000
1011.332, 1300.000
1012.444, 1309.000
1013.555, 1284.000
1014.666, 1272.000
1015.777, 1304.000
1016.888, 1264.000
1017.999, 1296.000
1019.110, 1304.000
1020.220, 1286.000
1021.331, 1280.000
1022.441, 1259.000
1023.551, 1304.000
1024.661, 1238.000
1025.770, 1272.000
1026.880, 1269.000
1027.989, 1233.000
1029.098, 1276.000
1030.207, 1251.000
1031.316, 1223.000
1032.425, 1276.000
1033.533, 1223.000
1034.642, 1231.000
1035.750, 1211.000
1036.858, 1199.000
1037.966, 1237.000
1039.073, 1231.000
1040.181, 1202.000
1041.288, 1210.000
1042.396, 1191.000
1043.503, 1195.000
1044.610, 1188.000
1045.716, 1169.000
1046.823, 1179.000
1047.929, 1203.000
1049.036, 1179.000
1050.142, 1179.000
1051.248, 1158.000
1052.353, 1156.000
1053.459, 1141.000
1054.564, 1183.000
1055.670, 1180.000
1056.775, 1142.000
1057.880, 1169.000
1058.985, 1145.000
1060.089, 1143.000
1061.194, 1142.000
1062.298, 1119.000
1063.402, 1135.000
1064.506, 1106.000
1065.610, 1134.000
1066.713, 1119.000
1067.817, 1102.000
1068.920, 1098.000
1070.023, 1097.000
1071.126, 1065.000
1072.229, 1074.000
1073.332, 1070.000
1074.435, 1084.000
1075.537, 1108.000
1076.639, 1063.000
1077.741, 1059.000
1078.843, 1051.000
1079.945, 1084.000
1081.046, 1046.000
1082.148, 1047.000
1083.249, 1057.000
1084.350, 1050.000
1085.451, 1045.000
1086.551, 1011.000
1087.652, 1000.000
1088.752, 1012.000
1089.853, 1018.000
1090.953, 1011.000
1092.053, 986.0000
1093.152, 1029.000
1094.252, 991.0000
1095.351, 978.0000
1096.451, 1039.000
1097.550, 1018.000
1098.649, 966.0000
1099.748, 976.0000
1100.846, 954.0000
1101.945, 942.0000
1103.043, 957.0000
1104.141, 911.0000
1105.239, 944.0000
1106.337, 932.0000
1107.434, 955.0000
1108.532, 987.0000
1109.629, 933.0000
1110.726, 932.0000
1111.823, 899.0000
1112.920, 926.0000
1114.017, 955.0000
1115.113, 969.0000
1116.210, 991.6867
1117.306, 1009.199
1118.402, 1025.000
1119.498, 1040.000
1120.593, 1055.000
1121.689, 1067.000
1122.784, 1073.000
1123.879, 1069.000
1124.974, 1026.000
1126.069, 999.0000
1127.164, 966.0000
1128.259, 949.1409
1129.353, 937.0000
1130.447, 927.0000
1131.541, 904.0000
1132.635, 898.0000
1133.729, 870.0000
1134.822, 860.0000
1135.916, 860.0000
1137.009, 855.0000
1138.102, 882.0000
1139.195, 889.0000
1140.288, 862.0000
1141.380, 875.0000
1142.473, 842.0000
1143.565, 883.0000
1144.657, 861.0000
1145.749, 872.0000
1146.841, 882.0000
1147.932, 850.0000
1149.024, 860.0000
1150.115, 836.0000
1151.206, 878.0000
1152.297, 870.0000
1153.388, 834.0000
1154.479, 835.0000
1155.569, 883.0000
1156.659, 860.0000
1157.750, 848.0000
1158.839, 854.0000
1159.929, 814.0000
1161.019, 835.0000
1162.108, 859.0000
1163.198, 865.0000
1164.287, 857.0000
1165.376, 824.0000
1166.465, 847.0000
1167.553, 826.0000
1168.642, 819.0000
1169.730, 818.0000
1170.818, 836.0000
1171.906, 834.0000
1172.994, 816.0000
1174.082, 806.0000
1175.170, 808.0000
1176.257, 821.0000
1177.344, 818.0000
1178.431, 807.0000
1179.518, 827.0000
1180.605, 834.0000
1181.691, 821.0000
1182.778, 792.0000
1183.864, 815.0000
1184.950, 803.0000
1186.036, 790.0000
1187.122, 795.0000
1188.207, 801.0000
1189.292, 802.0000
1190.378, 833.0000
1191.463, 802.0000
1192.548, 814.0000
1193.632, 791.0000
1194.717, 785.0000
1195.801, 804.0000
1196.886, 783.0000
1197.970, 808.0000
1199.054, 803.0000
1200.137, 787.0000
1201.221, 800.0000
1202.305, 781.0000
1203.388, 799.0000
1204.471, 815.0000
1205.554, 798.0000
1206.637, 781.0000
1207.719, 781.0000
1208.802, 771.0000
1209.884, 791.0000
1210.966, 799.0000
1212.048, 772.0000
1213.130, 825.0000
1214.212, 769.0000
1215.293, 792.0000
1216.374, 794.0000
1217.456, 810.0000
1218.536, 795.0000
1219.617, 793.0000
1220.698, 788.0000
1221.778, 797.0000
1222.859, 808.0000
1223.939, 764.0000
1225.019, 796.0000
1226.099, 785.0000
1227.178, 782.0000
1228.258, 788.0000
1229.337, 781.0000
1230.417, 764.0000
1231.496, 794.0000
1232.574, 770.0000
1233.653, 782.0000
1234.732, 786.0000
1235.810, 788.0000
1236.888, 770.0000
1237.966, 758.0000
1239.044, 754.0000
