##NAMES=Brookite
##RRUFFID=R050591
##IDEAL CHEMISTRY=Ti^4+^O_2_
##LOCALITY=Taftan, near Dalbandi, Baluchistan, Pakistan
##OWNER=RRUFF
##SOURCE=Wayne Thompson
##DESCRIPTION=Yellowish-brown to reddish-brown thin tabular crystal
##STATUS=The identification of this mineral has been confirmed by X-ray diffraction and chemical analysis
##URL=rruff.info/R050591
##MEASURED CHEMISTRY=Ti_1.00_O_2_
##PIN_ID=M00274
##ORIENTATION=Laser parallel to b* (0 1 0). Fiducial mark perpendicular to laser is parallel to c [0 0 1]
51.43100, 401.0000
52.67100, 416.0000
53.91000, 404.0000
55.14900, 430.0000
56.38700, 413.0000
57.62600, 425.0000
58.86400, 454.0000
60.10300, 467.0000
61.34100, 477.0000
62.57900, 500.0000
63.81700, 542.0000
65.05400, 592.0000
66.29200, 630.0000
67.52900, 689.0000
68.76700, 754.0000
70.00400, 834.8653
71.24100, 956.0000
72.47700, 1022.000
73.71400, 1143.000
74.95100, 1242.000
76.18700, 1399.000
77.42300, 1534.000
78.65900, 1660.000
79.89500, 1800.000
81.13100, 1951.000
82.36700, 2084.000
83.60200, 2209.888
84.83700, 2307.000
86.07200, 2445.000
87.30800, 2573.000
88.54200, 2682.000
89.77700, 2814.000
91.01200, 2949.000
92.24600, 3052.000
93.48000, 3096.000
94.71400, 3208.000
95.94800, 3334.000
97.18200, 3471.000
98.41600, 3571.000
99.64900, 3728.255
100.8830, 3766.000
102.1160, 4013.000
103.3490, 4227.000
104.5820, 4343.000
105.8150, 4679.000
107.0470, 4814.000
108.2800, 5089.000
109.5120, 5392.000
110.7440, 5808.000
111.9760, 6302.000
113.2080, 7148.000
114.4400, 8188.000
115.6710, 10074.00
116.9030, 12293.00
118.1340, 14395.00
119.3650, 15283.00
120.5960, 16233.81
121.8270, 15672.00
123.0580, 16157.00
124.2880, 15371.00
125.5190, 13718.00
126.7490, 12580.00
127.9790, 12369.00
129.2090, 12725.00
130.4390, 13526.00
131.6680, 14373.00
132.8980, 16058.00
134.1270, 17954.00
135.3560, 20193.00
136.5850, 23693.00
137.8140, 27213.00
139.0430, 32688.00
140.2710, 38680.00
141.5000, 45182.00
142.7280, 51806.00
143.9560, 57455.00
145.1840, 60958.00
146.4120, 61960.00
147.6390, 61029.00
148.8670, 57949.00
150.0940, 52919.00
151.3210, 45669.00
152.5490, 38450.00
153.7750, 31607.00
155.0020, 25699.00
156.2290, 21066.00
157.4550, 17062.00
158.6810, 13969.00
159.9080, 11595.00
161.1340, 9596.000
162.3590, 7947.000
163.5850, 6962.000
164.8110, 5981.000
166.0360, 5304.000
167.2610, 4777.000
168.4860, 4338.000
169.7110, 3902.000
170.9360, 3561.000
172.1610, 3240.000
173.3850, 3009.015
174.6100, 2882.000
175.8340, 2712.000
177.0580, 2679.000
178.2820, 2669.000
179.5050, 2518.000
180.7290, 2477.000
181.9520, 2457.000
183.1760, 2424.000
184.3990, 2429.000
185.6220, 2446.000
186.8450, 2390.000
188.0670, 2360.000
189.2900, 2444.000
190.5120, 2347.000
191.7340, 2346.000
192.9560, 2234.000
194.1780, 2208.000
195.4000, 2169.000
196.6220, 2150.000
197.8430, 2140.000
199.0640, 2187.000
200.2860, 2188.000
201.5070, 2290.000
202.7270, 2371.000
203.9480, 2481.000
205.1690, 2530.000
206.3890, 2556.000
207.6090, 2615.000
208.8290, 2664.553
210.0490, 2698.201
211.2690, 2767.000
212.4890, 2775.000
213.7080, 2797.000
214.9280, 2836.000
216.1470, 2891.000
217.3660, 2992.000
218.5850, 3073.000
219.8030, 3259.000
221.0220, 3381.000
222.2400, 3500.000
223.4590, 3761.000
224.6770, 3978.000
225.8950, 4276.000
227.1120, 4701.000
228.3300, 5233.000
229.5480, 5920.000
230.7650, 6765.000
231.9820, 8156.000
233.1990, 10155.00
234.4160, 12576.00
235.6330, 15718.00
236.8490, 18806.00
238.0660, 21315.00
239.2820, 22081.00
240.4980, 21790.00
241.7140, 20871.00
242.9300, 18867.00
244.1460, 15711.00
245.3610, 12423.00
246.5770, 9801.000
247.7920, 7747.000
249.0070, 6432.000
250.2220, 5470.000
251.4370, 4736.000
252.6510, 4117.000
253.8660, 3618.000
255.0800, 3360.000
256.2940, 3163.000
257.5080, 3073.000
258.7220, 2956.000
259.9360, 3001.000
261.1490, 2940.000
262.3630, 2934.000
263.5760, 2996.000
264.7890, 2893.000
266.0020, 2984.000
267.2150, 3025.000
268.4270, 3073.000
269.6400, 3132.000
270.8520, 3271.000
272.0640, 3330.000
273.2760, 3445.000
274.4880, 3594.000
275.7000, 3690.000
276.9120, 3771.000
278.1230, 3875.000
279.3340, 3956.000
280.5450, 3977.000
281.7560, 4079.000
282.9670, 3995.000
284.1780, 3923.000
285.3880, 3839.000
286.5980, 3870.000
287.8090, 3711.000
289.0190, 3706.000
290.2290, 3565.000
291.4380, 3543.000
292.6480, 3548.000
293.8570, 3552.000
295.0670, 3514.000
296.2760, 3505.000
297.4850, 3375.000
298.6930, 3428.000
299.9020, 3467.000
301.1110, 3351.000
302.3190, 3397.000
303.5270, 3354.000
304.7350, 3319.000
305.9430, 3280.000
307.1510, 3311.000
308.3580, 3266.000
309.5660, 3254.000
310.7730, 3209.000
311.9800, 3223.000
313.1870, 3238.000
314.3940, 3235.000
315.6010, 3298.000
316.8070, 3313.000
318.0130, 3322.000
319.2200, 3392.000
320.4260, 3404.000
321.6310, 3470.000
322.8370, 3437.000
324.0430, 3418.000
325.2480, 3378.000
326.4540, 3290.000
327.6590, 3231.000
328.8640, 3061.000
330.0680, 3083.000
331.2730, 3097.000
332.4780, 2870.000
333.6820, 2889.000
334.8860, 2832.000
336.0900, 2735.000
337.2940, 2799.000
338.4980, 2777.000
339.7010, 2746.000
340.9050, 2794.000
342.1080, 2803.000
343.3110, 2698.000
344.5140, 2760.000
345.7170, 2751.000
346.9200, 2771.000
348.1220, 2793.000
349.3240, 2849.000
350.5270, 2828.000
351.7290, 2887.000
352.9310, 2962.000
354.1320, 2983.000
355.3340, 3055.000
356.5350, 3016.000
357.7370, 3083.000
358.9380, 3119.000
360.1390, 3176.000
361.3400, 3175.000
362.5400, 3049.000
363.7410, 3095.000
364.9410, 3043.000
366.1410, 3049.000
367.3410, 2973.000
368.5410, 2943.000
369.7410, 2898.000
370.9400, 2871.000
372.1400, 2905.000
373.3390, 2879.000
374.5380, 2868.000
375.7370, 2834.000
376.9360, 2851.000
378.1350, 2926.000
379.3330, 2891.000
380.5310, 2930.000
381.7300, 2935.000
382.9280, 2926.000
384.1260, 2944.000
385.3230, 2944.000
386.5210, 3088.000
387.7180, 3091.000
388.9160, 3138.000
390.1130, 3146.000
391.3100, 3110.000
392.5060, 3165.000
393.7030, 3234.000
394.9000, 3322.000
396.0960, 3325.000
397.2920, 3407.000
398.4880, 3413.000
399.6840, 3522.000
400.8800, 3715.000
402.0750, 3648.000
403.2710, 3774.000
404.4660, 3743.000
405.6610, 3761.000
406.8560, 3696.000
408.0510, 3674.000
409.2450, 3606.000
410.4400, 3490.000
411.6340, 3375.000
412.8280, 3309.000
414.0220, 3253.000
415.2160, 3131.000
416.4100, 3140.000
417.6030, 3049.000
418.7970, 2968.000
419.9900, 2949.000
421.1830, 2932.000
422.3760, 2895.000
423.5690, 2832.000
424.7610, 2854.000
425.9540, 2811.000
427.1460, 2857.000
428.3380, 2847.000
429.5300, 2842.000
430.7220, 2816.000
431.9140, 2915.000
433.1050, 2906.000
434.2970, 2916.000
435.4880, 2887.000
436.6790, 2969.000
437.8700, 2980.000
439.0610, 3033.629
440.2510, 3105.000
441.4420, 3155.000
442.6320, 3188.000
443.8220, 3246.000
445.0120, 3309.000
446.2020, 3338.000
447.3910, 3352.000
448.5810, 3317.000
449.7700, 3460.000
450.9600, 3362.000
452.1490, 3438.000
453.3370, 3520.000
454.5260, 3500.000
455.7150, 3510.000
456.9030, 3600.000
458.0910, 3600.000
459.2800, 3594.000
460.4670, 3627.000
461.6550, 3696.000
462.8430, 3667.000
464.0300, 3654.000
465.2180, 3735.000
466.4050, 3870.000
467.5920, 3892.000
468.7790, 4020.368
469.9650, 4154.000
471.1520, 4255.000
472.3380, 4435.000
473.5250, 4617.000
474.7110, 5085.000
475.8970, 5328.000
477.0820, 5656.000
478.2680, 6094.000
479.4540, 6426.000
480.6390, 6877.000
481.8240, 7152.000
483.0090, 7363.000
484.1940, 7447.000
485.3780, 7396.000
486.5630, 7253.000
487.7470, 7047.000
488.9320, 6603.000
490.1160, 6371.000
491.3000, 6064.000
492.4830, 5856.000
493.6670, 5660.000
494.8500, 5563.000
496.0340, 5324.000
497.2170, 5392.000
498.4000, 5446.000
499.5820, 5352.000
500.7650, 5495.000
501.9480, 5488.000
503.1300, 5525.000
504.3120, 5716.000
505.4940, 5876.000
506.6760, 5969.000
507.8580, 6124.000
509.0390, 6451.000
510.2210, 6572.000
511.4020, 6692.000
512.5830, 6987.000
513.7640, 7378.000
514.9450, 7702.000
516.1250, 8099.000
517.3060, 8562.000
518.4860, 8991.000
519.6660, 9666.000
520.8460, 10124.00
522.0260, 10838.00
523.2060, 11580.00
524.3850, 12430.00
525.5650, 13452.00
526.7440, 14253.00
527.9230, 15170.00
529.1020, 16468.00
530.2810, 17565.00
531.4590, 18660.00
532.6380, 19968.00
533.8160, 21118.00
534.9940, 22187.00
536.1720, 23074.00
537.3500, 23885.00
538.5270, 24451.90
539.7050, 25243.00
540.8820, 25072.00
542.0590, 25275.00
543.2360, 25019.00
544.4130, 24205.00
545.5900, 23395.00
546.7660, 22584.00
547.9430, 21828.00
549.1190, 20593.00
550.2950, 19715.00
551.4710, 18677.00
552.6470, 17810.00
553.8220, 16769.00
554.9980, 15878.00
556.1730, 15217.00
557.3480, 14465.00
558.5230, 13648.00
559.6980, 13029.00
560.8730, 12332.00
562.0470, 11782.00
563.2220, 11439.00
564.3960, 10915.00
565.5700, 10431.00
566.7440, 10057.00
567.9170, 9678.000
569.0910, 9366.152
570.2640, 9113.000
571.4380, 8863.000
572.6110, 8680.000
573.7840, 8511.000
574.9570, 8105.000
576.1290, 7987.000
577.3020, 7793.000
578.4740, 7660.000
579.6460, 7450.000
580.8180, 7194.000
581.9900, 7051.000
583.1620, 6898.000
584.3330, 6748.188
585.5040, 6635.095
586.6760, 6508.000
587.8470, 6434.000
589.0180, 6303.000
590.1880, 6242.000
591.3590, 6141.000
592.5290, 6063.585
593.7000, 5988.928
594.8700, 5928.000
596.0400, 5848.000
597.2090, 5793.000
598.3790, 5747.703
599.5490, 5719.203
600.7180, 5717.000
601.8870, 5687.000
603.0560, 5679.000
604.2250, 5651.000
605.3940, 5569.000
606.5620, 5434.000
607.7300, 5440.000
608.8990, 5402.000
610.0670, 5456.000
611.2350, 5414.000
612.4020, 5320.000
613.5700, 5352.000
614.7370, 5254.000
615.9050, 5313.000
617.0720, 5263.000
618.2390, 5240.000
619.4060, 5215.000
620.5720, 5208.000
621.7390, 5241.000
622.9050, 5160.000
624.0710, 5118.000
625.2370, 5196.000
626.4030, 5072.000
627.5690, 5061.000
628.7340, 5045.000
629.9000, 4962.000
631.0650, 4965.000
632.2300, 4869.000
633.3950, 4751.000
634.5600, 4676.000
635.7240, 4554.000
636.8890, 4489.000
638.0530, 4328.000
639.2170, 4296.000
640.3810, 4159.000
641.5450, 4043.000
642.7080, 3924.000
643.8720, 3848.000
645.0350, 3766.000
646.1980, 3716.000
647.3610, 3650.000
648.5240, 3558.000
649.6870, 3579.000
650.8490, 3528.000
652.0120, 3351.000
653.1740, 3364.000
654.3360, 3373.000
655.4980, 3315.000
656.6600, 3358.000
657.8210, 3277.000
658.9830, 3282.000
660.1440, 3254.000
661.3050, 3284.000
662.4660, 3215.000
663.6270, 3256.000
664.7870, 3201.000
665.9480, 3163.000
667.1080, 3176.000
668.2680, 3153.000
669.4280, 3224.000
670.5880, 3198.000
671.7480, 3203.000
672.9070, 3231.000
674.0670, 3133.000
675.2260, 3151.000
676.3850, 3129.000
677.5440, 3092.000
678.7030, 3126.000
679.8610, 3102.000
681.0200, 3084.000
682.1780, 3078.000
683.3360, 3024.000
684.4940, 3105.000
685.6520, 3052.000
686.8090, 3076.000
687.9670, 3028.000
689.1240, 3025.000
690.2810, 2995.000
691.4380, 2977.000
692.5950, 2913.000
693.7520, 2888.000
694.9080, 2937.000
696.0650, 2973.000
697.2210, 2877.000
698.3770, 2910.000
699.5330, 2849.000
700.6880, 2854.000
701.8440, 2893.000
702.9990, 2860.000
704.1550, 2837.000
705.3100, 2849.000
706.4650, 2801.000
707.6190, 2842.000
708.7740, 2852.000
709.9290, 2879.000
711.0830, 2805.000
712.2370, 2856.000
713.3910, 2814.000
714.5450, 2806.000
715.6980, 2793.000
716.8520, 2789.000
718.0050, 2791.591
719.1580, 2783.000
720.3110, 2802.000
721.4640, 2846.000
722.6170, 2850.000
723.7700, 2792.000
724.9220, 2874.000
726.0740, 2815.000
727.2260, 2836.000
728.3780, 2799.000
729.5300, 2845.000
730.6810, 2787.000
731.8330, 2735.000
732.9840, 2786.000
734.1350, 2840.000
735.2860, 2804.000
736.4370, 2718.000
737.5880, 2851.000
738.7380, 2767.000
739.8880, 2764.000
741.0390, 2793.000
742.1890, 2754.000
743.3380, 2769.000
744.4880, 2766.000
745.6380, 2779.000
746.7870, 2755.000
747.9360, 2687.000
749.0850, 2751.000
750.2340, 2737.000
751.3830, 2677.000
752.5310, 2703.000
753.6800, 2768.000
754.8280, 2772.000
755.9760, 2740.000
757.1240, 2758.000
758.2720, 2706.000
759.4190, 2754.000
760.5670, 2696.000
761.7140, 2712.000
762.8610, 2771.000
764.0080, 2656.000
765.1550, 2722.000
766.3020, 2713.000
767.4480, 2740.000
768.5950, 2670.000
769.7410, 2649.000
770.8870, 2639.000
772.0330, 2601.000
773.1780, 2632.000
774.3240, 2643.000
775.4690, 2665.000
776.6140, 2686.000
777.7590, 2672.000
778.9040, 2658.162
780.0490, 2612.000
781.1940, 2595.000
782.3380, 2561.000
783.4820, 2529.000
784.6260, 2574.000
785.7700, 2552.000
786.9140, 2598.000
788.0580, 2548.000
789.2010, 2567.000
790.3450, 2540.000
791.4880, 2547.000
792.6310, 2522.000
793.7730, 2498.000
794.9160, 2494.000
796.0590, 2497.000
797.2010, 2461.000
798.3430, 2475.000
799.4850, 2436.000
800.6270, 2405.000
801.7690, 2396.000
802.9100, 2447.000
804.0520, 2475.000
805.1930, 2449.000
806.3340, 2486.000
807.4750, 2430.000
808.6160, 2411.000
809.7560, 2438.000
810.8970, 2395.000
812.0370, 2413.000
813.1770, 2422.000
814.3170, 2335.000
815.4570, 2339.000
816.5960, 2331.000
817.7360, 2329.000
818.8750, 2308.000
820.0140, 2334.000
821.1530, 2344.000
822.2920, 2295.000
823.4310, 2298.000
824.5690, 2273.781
825.7070, 2240.000
826.8460, 2245.000
827.9840, 2187.000
829.1220, 2200.000
830.2590, 2197.000
831.3970, 2167.000
832.5340, 2162.000
833.6710, 2149.000
834.8080, 2139.566
835.9450, 2129.801
837.0820, 2126.000
838.2190, 2110.000
839.3550, 2093.000
840.4910, 2086.000
841.6270, 1997.000
842.7630, 2039.000
843.8990, 2045.000
845.0350, 1998.000
846.1700, 2033.000
847.3060, 2008.000
848.4410, 1995.000
849.5760, 1940.000
850.7100, 1893.000
851.8450, 1853.000
852.9800, 1906.000
854.1140, 1811.000
855.2480, 1849.000
856.3820, 1839.000
857.5160, 1784.000
858.6500, 1832.000
859.7830, 1811.000
860.9170, 1784.000
862.0500, 1768.000
863.1830, 1712.000
864.3160, 1683.000
865.4480, 1694.000
866.5810, 1714.000
867.7130, 1620.000
868.8460, 1621.000
869.9780, 1619.000
871.1100, 1654.000
872.2410, 1590.000
873.3730, 1579.000
874.5050, 1585.000
875.6360, 1581.000
876.7670, 1528.000
877.8980, 1534.000
879.0290, 1495.000
880.1590, 1496.000
881.2900, 1464.000
882.4200, 1467.000
883.5500, 1470.000
884.6800, 1431.000
885.8100, 1428.000
886.9400, 1424.514
888.0690, 1385.000
889.1990, 1419.000
890.3280, 1431.000
891.4570, 1416.000
892.5860, 1350.000
893.7140, 1331.000
894.8430, 1337.000
895.9710, 1315.000
897.1000, 1360.000
898.2280, 1361.000
899.3560, 1291.000
900.4830, 1376.000
901.6110, 1333.000
902.7380, 1300.000
903.8660, 1294.000
904.9930, 1323.000
906.1200, 1288.000
907.2460, 1299.000
908.3730, 1291.000
909.5000, 1294.408
910.6260, 1324.000
911.7520, 1310.000
912.8780, 1319.000
914.0040, 1314.000
915.1290, 1315.000
916.2550, 1339.000
917.3800, 1316.000
918.5050, 1317.000
919.6300, 1336.000
920.7550, 1343.000
921.8800, 1317.000
923.0040, 1323.000
924.1290, 1299.000
925.2530, 1337.000
926.3770, 1279.000
927.5010, 1288.000
928.6250, 1314.000
929.7480, 1295.000
930.8720, 1307.000
931.9950, 1296.000
933.1180, 1293.000
934.2410, 1311.000
935.3640, 1276.000
936.4860, 1257.000
937.6090, 1263.000
938.7310, 1240.000
939.8530, 1272.000
940.9750, 1255.000
942.0970, 1269.000
943.2180, 1239.000
944.3400, 1223.000
945.4610, 1249.000
946.5820, 1236.000
947.7030, 1199.000
948.8240, 1171.000
949.9450, 1147.000
951.0650, 1151.302
952.1860, 1168.000
953.3060, 1174.000
954.4260, 1177.000
955.5460, 1181.000
956.6650, 1170.083
957.7850, 1163.192
958.9040, 1146.000
960.0230, 1140.000
961.1420, 1134.000
962.2610, 1131.000
963.3800, 1134.000
964.4990, 1124.000
965.6170, 1114.000
966.7350, 1128.000
967.8530, 1146.000
968.9710, 1089.000
970.0890, 1099.000
971.2070, 1111.000
972.3240, 1121.000
973.4410, 1124.000
974.5580, 1132.000
975.6750, 1111.000
976.7920, 1130.000
977.9090, 1101.000
979.0250, 1070.000
980.1410, 1038.000
981.2580, 1034.365
982.3740, 1058.000
983.4890, 1040.000
984.6050, 1050.000
985.7200, 1071.000
986.8360, 1038.000
987.9510, 1025.000
989.0660, 1064.000
990.1810, 1057.000
991.2950, 1037.000
992.4100, 1026.000
993.5240, 1023.620
994.6390, 1017.943
995.7530, 1025.000
996.8660, 1017.000
997.9800, 1025.000
999.0940, 1018.000
1000.207, 1028.000
1001.320, 1018.000
1002.433, 1028.000
1003.546, 1019.000
1004.659, 1054.000
1005.772, 1015.000
1006.884, 986.0000
1007.996, 1011.000
1009.108, 988.0000
1010.220, 1005.000
1011.332, 1003.000
1012.444, 1016.000
1013.555, 999.0000
1014.666, 979.0000
1015.777, 1002.000
1016.888, 980.0000
1017.999, 1005.000
1019.110, 999.0000
1020.220, 970.0000
1021.331, 974.0000
1022.441, 962.0000
1023.551, 948.0000
1024.661, 972.0000
1025.770, 989.0000
1026.880, 981.0000
1027.989, 986.0000
1029.098, 947.0000
1030.207, 966.0000
1031.316, 996.0000
1032.425, 925.0000
1033.533, 955.0000
1034.642, 969.0000
1035.750, 933.0000
1036.858, 938.0000
1037.966, 948.0000
1039.073, 942.0000
1040.181, 926.0000
1041.288, 950.0000
1042.396, 918.0000
1043.503, 922.0000
1044.610, 917.0000
1045.716, 921.0000
1046.823, 888.0000
1047.929, 893.0000
1049.036, 897.0000
1050.142, 906.0000
1051.248, 917.0000
1052.353, 929.0000
1053.459, 920.1476
1054.564, 929.7868
1055.670, 906.0000
1056.775, 921.0000
1057.880, 930.0000
1058.985, 899.0000
1060.089, 889.0000
1061.194, 903.0000
1062.298, 873.0000
1063.402, 871.0000
1064.506, 869.0000
1065.610, 874.0000
1066.713, 858.0000
1067.817, 847.0000
1068.920, 885.0000
1070.023, 858.0000
1071.126, 852.0000
1072.229, 863.0000
1073.332, 837.0000
1074.435, 841.0000
1075.537, 855.0000
1076.639, 851.0000
1077.741, 829.0000
1078.843, 822.0000
1079.945, 855.0000
1081.046, 808.0000
1082.148, 844.0000
1083.249, 815.0000
1084.350, 836.0000
1085.451, 812.0000
1086.551, 806.0000
1087.652, 801.0000
1088.752, 809.0000
1089.853, 814.0000
1090.953, 832.0000
1092.053, 797.0000
1093.152, 785.0000
1094.252, 795.0000
1095.351, 796.0000
1096.451, 790.0000
1097.550, 793.0000
1098.649, 761.0000
1099.748, 803.0000
1100.846, 804.0000
1101.945, 741.0000
1103.043, 778.0000
1104.141, 773.0000
1105.239, 794.0000
1106.337, 810.0000
1107.434, 775.0000
1108.532, 761.0000
1109.629, 754.0000
1110.726, 748.6873
1111.823, 749.1467
1112.920, 756.0000
1114.017, 758.0000
1115.113, 754.0000
1116.210, 758.0000
1117.306, 758.9613
1118.402, 727.0000
1119.498, 758.0000
1120.593, 766.0000
1121.689, 753.0000
1122.784, 791.0000
1123.879, 795.0000
1124.974, 756.0000
1126.069, 772.0000
1127.164, 751.0000
1128.259, 775.0000
1129.353, 735.0000
1130.447, 751.0000
1131.541, 765.0000
1132.635, 742.0000
1133.729, 726.0000
1134.822, 733.0000
1135.916, 727.0000
1137.009, 730.0000
1138.102, 735.0000
1139.195, 718.0000
1140.288, 722.0000
1141.380, 729.0000
1142.473, 736.0000
1143.565, 732.0000
1144.657, 729.4831
1145.749, 716.0000
1146.841, 719.0000
1147.932, 715.0000
1149.024, 721.0000
1150.115, 725.0000
1151.206, 720.0000
1152.297, 718.0000
1153.388, 717.8062
1154.479, 708.0000
1155.569, 713.0000
1156.659, 716.0000
1157.750, 710.0000
1158.839, 720.0000
1159.929, 706.0000
1161.019, 746.0000
1162.108, 708.0000
1163.198, 727.0000
1164.287, 713.0000
1165.376, 705.0000
1166.465, 722.0000
1167.553, 712.0000
1168.642, 727.0000
1169.730, 710.0000
1170.818, 711.0000
1171.906, 712.0000
1172.994, 735.0000
1174.082, 697.0000
1175.170, 702.0000
1176.257, 717.0000
1177.344, 692.0000
1178.431, 720.0000
1179.518, 682.0000
1180.605, 683.0000
1181.691, 714.0000
1182.778, 706.0000
1183.864, 704.0000
1184.950, 686.0000
1186.036, 704.0000
1187.122, 695.4814
1188.207, 696.0000
1189.292, 706.0000
1190.378, 684.0000
1191.463, 707.0000
1192.548, 694.0000
1193.632, 683.0000
1194.717, 682.0000
1195.801, 674.0000
1196.886, 680.0000
1197.970, 694.0000
1199.054, 693.0000
1200.137, 690.0000
1201.221, 695.0000
1202.305, 688.0000
1203.388, 684.0000
1204.471, 694.0000
1205.554, 690.0000
1206.637, 692.2119
1207.719, 683.0000
1208.802, 686.0000
1209.884, 704.0000
1210.966, 686.0000
1212.048, 688.0000
1213.130, 713.0000
1214.212, 693.0000
1215.293, 708.0000
1216.374, 679.0000
1217.456, 673.0000
1218.536, 681.0000
1219.617, 654.0000
1220.698, 699.0000
1221.778, 682.0000
1222.859, 681.0000
1223.939, 681.0000
1225.019, 689.0000
1226.099, 680.0000
1227.178, 690.0000
1228.258, 676.0000
1229.337, 667.0000
1230.417, 680.0000
1231.496, 694.0000
1232.574, 669.0000
1233.653, 673.0000
1234.732, 670.0000
1235.810, 650.0000
1236.888, 679.0000
1237.966, 665.0000
1239.044, 679.0000
