##NAMES=Brookite
##RRUFFID=R050363
##IDEAL CHEMISTRY=Ti^4+^O_2_
##LOCALITY=Magnet Cove, Arkansas, USA
##OWNER=RRUFF
##SOURCE=University of Arizona Mineral Museum
##DESCRIPTION=Black fragment of a prismatic crystal associated with quartz
##STATUS=The identification of this mineral has been confirmed by X-ray diffraction and chemical analysis
##URL=rruff.info/R050363
##MEASURED CHEMISTRY=(Ti_0.94_Nb^5+^_0.03_Fe^3+^_0.03_)_Î£=1_O_2_
##PIN_ID=L01899
##ORIENTATION=Laser parallel to b* (0 1 0). Fiducial mark perpendicular to laser is parallel to c [0 0 1]
51.43100, 622.0000
52.67100, 629.0000
53.91000, 650.0000
55.14900, 640.0000
56.38700, 664.0000
57.62600, 665.0000
58.86400, 747.0000
60.10300, 776.0000
61.34100, 852.0000
62.57900, 910.0000
63.81700, 976.0000
65.05400, 1094.000
66.29200, 1202.000
67.52900, 1380.000
68.76700, 1641.000
70.00400, 2030.000
71.24100, 2281.000
72.47700, 2418.000
73.71400, 2542.000
74.95100, 2905.000
76.18700, 3214.000
77.42300, 3438.000
78.65900, 3631.000
79.89500, 4002.000
81.13100, 4324.000
82.36700, 4713.000
83.60200, 4928.951
84.83700, 5385.000
86.07200, 5373.000
87.30800, 5557.000
88.54200, 5824.000
89.77700, 6258.000
91.01200, 6708.000
92.24600, 7174.000
93.48000, 7225.000
94.71400, 7501.000
95.94800, 7693.000
97.18200, 7786.000
98.41600, 8074.000
99.64900, 8302.000
100.8830, 8603.000
102.1160, 8911.000
103.3490, 9357.215
104.5820, 9702.000
105.8150, 10405.00
107.0470, 10997.00
108.2800, 11668.00
109.5120, 12665.00
110.7440, 12373.00
111.9760, 12235.00
113.2080, 12572.00
114.4400, 13518.00
115.6710, 14493.00
116.9030, 15325.00
118.1340, 16317.37
119.3650, 16933.00
120.5960, 18171.00
121.8270, 19077.00
123.0580, 19895.00
124.2880, 20153.00
125.5190, 20304.00
126.7490, 20594.00
127.9790, 21406.00
129.2090, 22054.00
130.4390, 23093.00
131.6680, 24109.00
132.8980, 24823.00
134.1270, 26185.00
135.3560, 27794.00
136.5850, 30026.00
137.8140, 32942.00
139.0430, 36403.00
140.2710, 40469.00
141.5000, 44500.00
142.7280, 48857.00
143.9560, 53645.00
145.1840, 57304.00
146.4120, 61017.00
147.6390, 63287.00
148.8670, 62979.00
150.0940, 62256.00
151.3210, 59160.00
152.5490, 55145.00
153.7750, 50422.00
155.0020, 45447.00
156.2290, 40990.00
157.4550, 36746.00
158.6810, 33041.00
159.9080, 29588.00
161.1340, 26643.29
162.3590, 23937.00
163.5850, 21930.00
164.8110, 20221.00
166.0360, 18875.00
167.2610, 17630.00
168.4860, 15935.00
169.7110, 14618.00
170.9360, 12959.00
172.1610, 11690.00
173.3850, 10599.00
174.6100, 9881.000
175.8340, 9399.000
177.0580, 8894.000
178.2820, 8582.000
179.5050, 8306.000
180.7290, 7986.000
181.9520, 7903.000
183.1760, 7736.000
184.3990, 7642.000
185.6220, 7597.000
186.8450, 7554.606
188.0670, 7534.000
189.2900, 7573.000
190.5120, 7671.000
191.7340, 7699.000
192.9560, 7508.000
194.1780, 7448.000
195.4000, 7541.000
196.6220, 7611.000
197.8430, 7665.000
199.0640, 8006.000
200.2860, 8322.000
201.5070, 8920.000
202.7270, 9381.000
203.9480, 9637.000
205.1690, 9844.000
206.3890, 9954.000
207.6090, 10465.00
208.8290, 10719.00
210.0490, 10484.00
211.2690, 10167.00
212.4890, 9491.000
213.7080, 8968.000
214.9280, 8426.000
216.1470, 7974.361
217.3660, 7608.513
218.5850, 7251.000
219.8030, 7047.000
221.0220, 6860.000
222.2400, 6743.000
223.4590, 6685.000
224.6770, 6746.000
225.8950, 6789.000
227.1120, 7005.000
228.3300, 7076.000
229.5480, 7160.000
230.7650, 7538.000
231.9820, 7955.000
233.1990, 8372.000
234.4160, 9052.000
235.6330, 9699.000
236.8490, 10459.00
238.0660, 11293.00
239.2820, 12111.00
240.4980, 13046.00
241.7140, 13450.00
242.9300, 13789.00
244.1460, 13300.00
245.3610, 12625.00
246.5770, 11886.00
247.7920, 11256.00
249.0070, 10693.00
250.2220, 10359.00
251.4370, 10073.00
252.6510, 9834.000
253.8660, 9553.000
255.0800, 9537.000
256.2940, 9342.000
257.5080, 9311.000
258.7220, 9510.000
259.9360, 9509.907
261.1490, 9702.080
262.3630, 9900.000
263.5760, 10134.00
264.7890, 10557.00
266.0020, 10885.00
267.2150, 11397.00
268.4270, 11903.00
269.6400, 12614.00
270.8520, 13037.00
272.0640, 13719.00
273.2760, 14506.00
274.4880, 14939.00
275.7000, 15485.00
276.9120, 15903.00
278.1230, 16021.00
279.3340, 15997.00
280.5450, 15827.00
281.7560, 15454.00
282.9670, 15019.00
284.1780, 14510.00
285.3880, 13901.00
286.5980, 13374.00
287.8090, 13023.00
289.0190, 12514.00
290.2290, 12282.00
291.4380, 11938.00
292.6480, 11938.00
293.8570, 11915.00
295.0670, 11850.00
296.2760, 12046.00
297.4850, 12095.00
298.6930, 12538.00
299.9020, 12691.00
301.1110, 13139.00
302.3190, 13773.00
303.5270, 14210.00
304.7350, 14810.00
305.9430, 15493.00
307.1510, 16183.00
308.3580, 16977.00
309.5660, 17803.00
310.7730, 18354.00
311.9800, 19163.00
313.1870, 19670.00
314.3940, 20048.00
315.6010, 20540.00
316.8070, 20888.00
318.0130, 20801.00
319.2200, 21015.00
320.4260, 20837.00
321.6310, 20615.00
322.8370, 19866.00
324.0430, 19201.00
325.2480, 18338.00
326.4540, 17133.00
327.6590, 16201.00
328.8640, 15111.00
330.0680, 14095.00
331.2730, 13401.00
332.4780, 12612.00
333.6820, 12011.00
334.8860, 11510.00
336.0900, 11065.00
337.2940, 10702.00
338.4980, 10318.00
339.7010, 10132.00
340.9050, 10038.00
342.1080, 9786.000
343.3110, 9689.000
344.5140, 9749.000
345.7170, 9868.000
346.9200, 10079.00
348.1220, 10319.00
349.3240, 10751.00
350.5270, 11360.00
351.7290, 12161.00
352.9310, 12743.00
354.1320, 13773.00
355.3340, 14592.00
356.5350, 15936.00
357.7370, 16859.00
358.9380, 17591.00
360.1390, 17985.00
361.3400, 18094.00
362.5400, 17661.00
363.7410, 16897.00
364.9410, 16056.00
366.1410, 14908.00
367.3410, 14055.00
368.5410, 13186.00
369.7410, 12505.00
370.9400, 11953.00
372.1400, 11462.00
373.3390, 11152.00
374.5380, 10845.00
375.7370, 10708.00
376.9360, 10785.00
378.1350, 10658.00
379.3330, 10725.00
380.5310, 10782.00
381.7300, 10745.00
382.9280, 10906.00
384.1260, 10888.00
385.3230, 10999.00
386.5210, 11174.00
387.7180, 11177.00
388.9160, 11169.00
390.1130, 11200.00
391.3100, 11217.00
392.5060, 11214.88
393.7030, 11224.00
394.9000, 11244.00
396.0960, 11240.00
397.2920, 11310.00
398.4880, 11390.00
399.6840, 11359.00
400.8800, 11443.00
402.0750, 11543.00
403.2710, 11412.00
404.4660, 11611.00
405.6610, 11497.29
406.8560, 11257.00
408.0510, 11338.00
409.2450, 10980.00
410.4400, 10819.00
411.6340, 10658.00
412.8280, 10506.00
414.0220, 10253.00
415.2160, 10040.00
416.4100, 9874.000
417.6030, 9752.000
418.7970, 9465.000
419.9900, 9467.000
421.1830, 9229.000
422.3760, 9126.000
423.5690, 9163.000
424.7610, 9058.000
425.9540, 9321.000
427.1460, 9194.000
428.3380, 9365.000
429.5300, 9432.000
430.7220, 9573.000
431.9140, 9617.000
433.1050, 9859.000
434.2970, 10007.00
435.4880, 10265.00
436.6790, 10553.00
437.8700, 10927.00
439.0610, 11132.18
440.2510, 11357.00
441.4420, 11609.00
442.6320, 12136.00
443.8220, 12407.00
445.0120, 12571.00
446.2020, 12876.00
447.3910, 12980.00
448.5810, 13370.00
449.7700, 13358.00
450.9600, 13553.00
452.1490, 13678.00
453.3370, 13777.00
454.5260, 13780.00
455.7150, 13657.00
456.9030, 13565.00
458.0910, 13297.00
459.2800, 13204.00
460.4670, 13105.00
461.6550, 12624.00
462.8430, 12452.00
464.0300, 12657.00
465.2180, 11880.00
466.4050, 11590.00
467.5920, 11477.00
468.7790, 11853.00
469.9650, 10980.00
471.1520, 10950.00
472.3380, 10897.00
473.5250, 10647.00
474.7110, 10687.00
475.8970, 10672.00
477.0820, 10599.00
478.2680, 10686.00
479.4540, 10585.00
480.6390, 10545.00
481.8240, 10542.00
483.0090, 10459.00
484.1940, 10542.00
485.3780, 10554.00
486.5630, 10661.00
487.7470, 10564.00
488.9320, 10574.00
490.1160, 10680.00
491.3000, 10666.00
492.4830, 10795.00
493.6670, 10797.00
494.8500, 10777.00
496.0340, 10690.00
497.2170, 10745.00
498.4000, 10552.00
499.5820, 10554.00
500.7650, 10408.00
501.9480, 10178.00
503.1300, 10010.00
504.3120, 10072.00
505.4940, 10084.00
506.6760, 9894.000
507.8580, 9865.000
509.0390, 9713.000
510.2210, 9880.000
511.4020, 9919.000
512.5830, 9811.000
513.7640, 10009.00
514.9450, 10022.00
516.1250, 10234.00
517.3060, 10383.00
518.4860, 10356.00
519.6660, 10713.00
520.8460, 10935.00
522.0260, 11305.00
523.2060, 11529.00
524.3850, 11893.00
525.5650, 12160.00
526.7440, 12615.00
527.9230, 12999.00
529.1020, 13251.00
530.2810, 13783.00
531.4590, 13927.00
532.6380, 14465.00
533.8160, 14959.00
534.9940, 15052.00
536.1720, 15367.00
537.3500, 15586.00
538.5270, 15727.00
539.7050, 15816.00
540.8820, 15980.00
542.0590, 16039.00
543.2360, 16006.00
544.4130, 15866.00
545.5900, 15718.00
546.7660, 15384.00
547.9430, 15169.00
549.1190, 15159.00
550.2950, 14762.00
551.4710, 14576.00
552.6470, 14182.00
553.8220, 13959.00
554.9980, 13880.00
556.1730, 13718.00
557.3480, 13422.00
558.5230, 13552.00
559.6980, 13135.00
560.8730, 12953.00
562.0470, 12943.00
563.2220, 12936.00
564.3960, 12778.00
565.5700, 12677.00
566.7440, 12755.00
567.9170, 12711.14
569.0910, 12864.00
570.2640, 12890.00
571.4380, 12995.00
572.6110, 13069.12
573.7840, 13332.00
574.9570, 13234.00
576.1290, 13397.00
577.3020, 13553.00
578.4740, 13450.00
579.6460, 13502.00
580.8180, 13425.00
581.9900, 13389.00
583.1620, 13048.00
584.3330, 12903.00
585.5040, 12984.00
586.6760, 12558.00
587.8470, 12515.00
589.0180, 12368.00
590.1880, 12118.00
591.3590, 12105.00
592.5290, 12034.00
593.7000, 11969.00
594.8700, 11883.00
596.0400, 11876.00
597.2090, 11920.00
598.3790, 11892.00
599.5490, 11883.00
600.7180, 12015.00
601.8870, 12012.24
603.0560, 12158.00
604.2250, 12151.00
605.3940, 12334.00
606.5620, 12469.00
607.7300, 12590.00
608.8990, 12648.00
610.0670, 12683.00
611.2350, 12900.00
612.4020, 13078.00
613.5700, 13332.00
614.7370, 13610.00
615.9050, 13833.00
617.0720, 14050.13
618.2390, 14339.00
619.4060, 14406.47
620.5720, 14720.00
621.7390, 14827.00
622.9050, 15037.00
624.0710, 15394.00
625.2370, 15573.00
626.4030, 15643.00
627.5690, 15986.00
628.7340, 15902.00
629.9000, 16065.00
631.0650, 16381.00
632.2300, 16340.00
633.3950, 16342.00
634.5600, 16431.00
635.7240, 16256.00
636.8890, 16082.00
638.0530, 16079.00
639.2170, 15938.00
640.3810, 15612.00
641.5450, 15420.00
642.7080, 15081.00
643.8720, 14823.00
645.0350, 14384.00
646.1980, 14040.00
647.3610, 13782.00
648.5240, 13483.00
649.6870, 12978.00
650.8490, 12752.00
652.0120, 12309.00
653.1740, 12048.00
654.3360, 11587.00
655.4980, 11299.61
656.6600, 11033.00
657.8210, 10747.00
658.9830, 10519.00
660.1440, 10368.00
661.3050, 9970.000
662.4660, 9786.000
663.6270, 9686.000
664.7870, 9320.000
665.9480, 9295.000
667.1080, 9055.000
668.2680, 8780.000
669.4280, 8664.000
670.5880, 8514.000
671.7480, 8449.000
672.9070, 8283.000
674.0670, 8181.000
675.2260, 8207.000
676.3850, 8006.000
677.5440, 7896.000
678.7030, 7751.000
679.8610, 7734.000
681.0200, 7585.760
682.1780, 7507.336
683.3360, 7404.000
684.4940, 7331.000
685.6520, 7256.019
686.8090, 7197.408
687.9670, 7143.000
689.1240, 7090.000
690.2810, 7024.425
691.4380, 7009.000
692.5950, 6905.000
693.7520, 6885.000
694.9080, 6852.000
696.0650, 6791.000
697.2210, 6764.360
698.3770, 6716.000
699.5330, 6693.000
700.6880, 6617.854
701.8440, 6600.000
702.9990, 6508.000
704.1550, 6543.000
705.3100, 6526.000
706.4650, 6499.000
707.6190, 6354.000
708.7740, 6371.000
709.9290, 6395.000
711.0830, 6262.000
712.2370, 6411.000
713.3910, 6407.000
714.5450, 6353.000
715.6980, 6348.000
716.8520, 6279.000
718.0050, 6238.000
719.1580, 6174.000
720.3110, 6163.000
721.4640, 6139.000
722.6170, 6143.000
723.7700, 6107.000
724.9220, 6117.000
726.0740, 6118.000
727.2260, 6063.000
728.3780, 6149.000
729.5300, 5975.000
730.6810, 6022.000
731.8330, 6034.000
732.9840, 5977.455
734.1350, 5983.989
735.2860, 5946.000
736.4370, 5935.000
737.5880, 5890.000
738.7380, 5893.000
739.8880, 5906.000
741.0390, 5864.000
742.1890, 5890.393
743.3380, 5920.000
744.4880, 5896.000
745.6380, 5855.000
746.7870, 5818.000
747.9360, 5818.000
749.0850, 5815.000
750.2340, 5789.000
751.3830, 5766.836
752.5310, 5719.000
753.6800, 5709.000
754.8280, 5642.000
755.9760, 5632.489
757.1240, 5672.000
758.2720, 5576.000
759.4190, 5593.000
760.5670, 5631.000
761.7140, 5663.000
762.8610, 5491.000
764.0080, 5589.000
765.1550, 5472.000
766.3020, 5650.000
767.4480, 5480.000
768.5950, 5589.000
769.7410, 5493.000
770.8870, 5514.000
772.0330, 5498.000
773.1780, 5476.000
774.3240, 5535.000
775.4690, 5426.000
776.6140, 5387.000
777.7590, 5403.000
778.9040, 5340.000
780.0490, 5330.193
781.1940, 5352.000
782.3380, 5284.000
783.4820, 5276.000
784.6260, 5258.000
785.7700, 5321.000
786.9140, 5279.000
788.0580, 5282.000
789.2010, 5274.000
790.3450, 5255.000
791.4880, 5165.000
792.6310, 5172.000
793.7730, 5232.000
794.9160, 5148.000
796.0590, 5183.000
797.2010, 5181.000
798.3430, 5170.000
799.4850, 5139.000
800.6270, 5121.000
801.7690, 5120.000
802.9100, 5181.000
804.0520, 5135.000
805.1930, 5149.000
806.3340, 5015.000
807.4750, 4993.000
808.6160, 5073.000
809.7560, 5103.000
810.8970, 4982.000
812.0370, 5028.000
813.1770, 5015.000
814.3170, 5061.000
815.4570, 4944.000
816.5960, 4894.000
817.7360, 4931.000
818.8750, 4903.000
820.0140, 4891.000
821.1530, 4855.000
822.2920, 4828.000
823.4310, 4874.000
824.5690, 4846.000
825.7070, 4836.000
826.8460, 4820.000
827.9840, 4733.000
829.1220, 4748.000
830.2590, 4652.000
831.3970, 4720.000
832.5340, 4687.000
833.6710, 4636.000
834.8080, 4643.000
835.9450, 4548.000
837.0820, 4546.000
838.2190, 4569.000
839.3550, 4573.000
840.4910, 4519.000
841.6270, 4513.000
842.7630, 4436.000
843.8990, 4422.000
845.0350, 4473.000
846.1700, 4386.000
847.3060, 4328.000
848.4410, 4336.000
849.5760, 4261.000
850.7100, 4261.000
851.8450, 4253.000
852.9800, 4217.000
854.1140, 4166.000
855.2480, 4188.000
856.3820, 4123.000
857.5160, 4144.000
858.6500, 4108.638
859.7830, 4065.000
860.9170, 4034.000
862.0500, 3980.000
863.1830, 3904.000
864.3160, 3997.000
865.4480, 3862.000
866.5810, 3860.000
867.7130, 3773.000
868.8460, 3732.000
869.9780, 3722.000
871.1100, 3685.000
872.2410, 3735.000
873.3730, 3660.000
874.5050, 3649.000
875.6360, 3682.000
876.7670, 3590.000
877.8980, 3640.000
879.0290, 3486.000
880.1590, 3457.000
881.2900, 3571.000
882.4200, 3519.000
883.5500, 3494.000
884.6800, 3472.000
885.8100, 3346.000
886.9400, 3343.000
888.0690, 3301.000
889.1990, 3319.000
890.3280, 3342.000
891.4570, 3323.000
892.5860, 3331.000
893.7140, 3323.000
894.8430, 3319.000
895.9710, 3273.000
897.1000, 3217.000
898.2280, 3238.000
899.3560, 3281.000
900.4830, 3232.000
901.6110, 3248.077
902.7380, 3215.000
903.8660, 3212.000
904.9930, 3188.000
906.1200, 3152.000
907.2460, 3192.000
908.3730, 3099.000
909.5000, 3153.000
910.6260, 3115.000
911.7520, 3142.000
912.8780, 3155.000
914.0040, 3162.000
915.1290, 3156.842
916.2550, 3121.000
917.3800, 3122.000
918.5050, 3103.000
919.6300, 3072.000
920.7550, 3068.000
921.8800, 3156.000
923.0040, 3072.000
924.1290, 3156.000
925.2530, 3072.000
926.3770, 3096.000
927.5010, 2988.000
928.6250, 3131.000
929.7480, 3101.000
930.8720, 3037.000
931.9950, 3042.000
933.1180, 3096.000
934.2410, 3014.000
935.3640, 3075.000
936.4860, 3057.000
937.6090, 3021.000
938.7310, 3007.000
939.8530, 2961.000
940.9750, 2962.000
942.0970, 2995.000
943.2180, 2903.000
944.3400, 2941.000
945.4610, 2870.000
946.5820, 2957.000
947.7030, 2963.000
948.8240, 2993.000
949.9450, 2995.000
951.0650, 2910.000
952.1860, 2940.000
953.3060, 2942.000
954.4260, 2941.000
955.5460, 2968.000
956.6650, 2898.000
957.7850, 2912.000
958.9040, 2915.413
960.0230, 2895.315
961.1420, 2898.000
962.2610, 2922.000
963.3800, 2828.000
964.4990, 2892.000
965.6170, 2859.000
966.7350, 2851.904
967.8530, 2906.000
968.9710, 2830.000
970.0890, 2899.000
971.2070, 2844.000
972.3240, 2936.000
973.4410, 2830.000
974.5580, 2883.000
975.6750, 2795.000
976.7920, 2877.000
977.9090, 2889.000
979.0250, 2869.000
980.1410, 2828.000
981.2580, 2828.000
982.3740, 2791.000
983.4890, 2801.000
984.6050, 2888.000
985.7200, 2850.000
986.8360, 2821.000
987.9510, 2917.000
989.0660, 2785.000
990.1810, 2831.000
991.2950, 2835.000
992.4100, 2827.000
993.5240, 2818.000
994.6390, 2805.000
995.7530, 2815.000
996.8660, 2796.965
997.9800, 2807.028
999.0940, 2780.000
1000.207, 2811.000
1001.320, 2819.000
1002.433, 2798.000
1003.546, 2746.000
1004.659, 2797.000
1005.772, 2779.000
1006.884, 2792.000
1007.996, 2742.000
1009.108, 2699.000
1010.220, 2713.000
1011.332, 2749.000
1012.444, 2763.000
1013.555, 2709.000
1014.666, 2696.000
1015.777, 2693.000
1016.888, 2667.252
1017.999, 2722.000
1019.110, 2672.000
1020.220, 2658.000
1021.331, 2713.000
1022.441, 2735.000
1023.551, 2726.176
1024.661, 2677.000
1025.770, 2710.000
1026.880, 2663.000
1027.989, 2643.000
1029.098, 2707.000
1030.207, 2694.000
1031.316, 2710.000
1032.425, 2690.000
1033.533, 2660.000
1034.642, 2672.000
1035.750, 2651.000
1036.858, 2637.000
1037.966, 2619.000
1039.073, 2628.000
1040.181, 2661.000
1041.288, 2646.000
1042.396, 2657.000
1043.503, 2609.000
1044.610, 2583.000
1045.716, 2643.000
1046.823, 2651.000
1047.929, 2666.000
1049.036, 2579.000
1050.142, 2599.000
1051.248, 2598.000
1052.353, 2578.000
1053.459, 2610.000
1054.564, 2566.000
1055.670, 2586.000
1056.775, 2544.000
1057.880, 2599.000
1058.985, 2632.000
1060.089, 2580.000
1061.194, 2519.000
1062.298, 2516.000
1063.402, 2582.000
1064.506, 2594.000
1065.610, 2571.000
1066.713, 2573.000
1067.817, 2580.000
1068.920, 2602.000
1070.023, 2516.000
1071.126, 2458.000
1072.229, 2523.000
1073.332, 2560.000
1074.435, 2554.000
1075.537, 2553.000
1076.639, 2540.000
1077.741, 2534.000
1078.843, 2542.000
1079.945, 2509.000
1081.046, 2480.000
1082.148, 2543.000
1083.249, 2520.000
1084.350, 2480.000
1085.451, 2577.000
1086.551, 2508.000
1087.652, 2470.000
1088.752, 2449.000
1089.853, 2464.000
1090.953, 2482.000
1092.053, 2486.000
1093.152, 2471.000
1094.252, 2443.000
1095.351, 2430.000
1096.451, 2435.000
1097.550, 2439.000
1098.649, 2410.000
1099.748, 2443.000
1100.846, 2435.000
1101.945, 2471.000
1103.043, 2435.000
1104.141, 2477.000
1105.239, 2388.000
1106.337, 2408.000
1107.434, 2418.000
1108.532, 2418.000
1109.629, 2370.000
1110.726, 2423.000
1111.823, 2403.000
1112.920, 2354.000
1114.017, 2490.000
1115.113, 2448.000
1116.210, 2437.000
1117.306, 2412.000
1118.402, 2483.000
1119.498, 2518.000
1120.593, 2570.000
1121.689, 2624.000
1122.784, 2611.637
1123.879, 2599.997
1124.974, 2571.000
1126.069, 2497.000
1127.164, 2445.000
1128.259, 2360.000
1129.353, 2348.556
1130.447, 2369.000
1131.541, 2325.000
1132.635, 2353.000
1133.729, 2342.000
1134.822, 2271.000
1135.916, 2284.000
1137.009, 2326.000
1138.102, 2286.000
1139.195, 2309.000
1140.288, 2281.000
1141.380, 2279.000
1142.473, 2331.000
1143.565, 2320.000
1144.657, 2322.000
1145.749, 2317.488
1146.841, 2318.000
1147.932, 2279.000
1149.024, 2289.000
1150.115, 2275.000
1151.206, 2267.000
1152.297, 2271.000
1153.388, 2263.000
1154.479, 2233.000
1155.569, 2254.000
1156.659, 2211.000
1157.750, 2222.000
1158.839, 2181.000
1159.929, 2197.698
1161.019, 2267.000
1162.108, 2216.000
1163.198, 2267.000
1164.287, 2249.000
1165.376, 2254.000
1166.465, 2199.000
1167.553, 2216.000
1168.642, 2229.000
1169.730, 2244.000
1170.818, 2208.000
1171.906, 2277.000
1172.994, 2239.000
1174.082, 2198.000
1175.170, 2237.000
1176.257, 2239.000
1177.344, 2217.000
1178.431, 2201.000
1179.518, 2171.000
1180.605, 2163.000
1181.691, 2140.005
1182.778, 2205.000
1183.864, 2132.000
1184.950, 2153.000
1186.036, 2215.000
1187.122, 2210.000
1188.207, 2201.000
1189.292, 2227.000
1190.378, 2167.000
1191.463, 2215.000
1192.548, 2154.000
1193.632, 2206.000
1194.717, 2224.000
1195.801, 2175.000
1196.886, 2143.000
1197.970, 2159.000
1199.054, 2157.000
1200.137, 2189.000
1201.221, 2220.000
1202.305, 2214.000
1203.388, 2233.839
1204.471, 2196.000
1205.554, 2227.000
1206.637, 2183.000
1207.719, 2142.000
1208.802, 2167.000
1209.884, 2158.000
1210.966, 2208.000
1212.048, 2116.000
1213.130, 2184.000
1214.212, 2177.000
1215.293, 2183.000
1216.374, 2213.000
1217.456, 2224.000
1218.536, 2205.000
1219.617, 2194.000
1220.698, 2170.000
1221.778, 2162.367
1222.859, 2154.666
1223.939, 2141.000
1225.019, 2160.000
1226.099, 2146.000
1227.178, 2176.000
1228.258, 2178.000
1229.337, 2142.000
1230.417, 2194.000
1231.496, 2152.000
1232.574, 2168.000
1233.653, 2230.000
1234.732, 2153.000
1235.810, 2192.000
1236.888, 2159.000
