##NAMES=Brookite
##RRUFFID=R050363
##IDEAL CHEMISTRY=Ti^4+^O_2_
##LOCALITY=Magnet Cove, Arkansas, USA
##OWNER=RRUFF
##SOURCE=University of Arizona Mineral Museum
##DESCRIPTION=Black fragment of a prismatic crystal associated with quartz
##STATUS=The identification of this mineral has been confirmed by X-ray diffraction and chemical analysis
##URL=rruff.info/R050363
##MEASURED CHEMISTRY=(Ti_0.94_Nb^5+^_0.03_Fe^3+^_0.03_)_Î£=1_O_2_
##PIN_ID=L01899
##ORIENTATION=Laser parallel to b* (0 1 0). Fiducial mark perpendicular to laser is parallel to c [0 0 1]
51.43100, 593.0000
52.67100, 627.0000
53.91000, 590.0000
55.14900, 622.0000
56.38700, 638.0000
57.62600, 651.0000
58.86400, 681.0000
60.10300, 728.0000
61.34100, 746.0000
62.57900, 800.0000
63.81700, 890.0000
65.05400, 971.0000
66.29200, 1067.000
67.52900, 1241.000
68.76700, 1418.000
70.00400, 1703.000
71.24100, 1967.000
72.47700, 2073.000
73.71400, 2321.755
74.95100, 2446.000
76.18700, 2686.000
77.42300, 2839.000
78.65900, 3022.000
79.89500, 3303.000
81.13100, 3611.000
82.36700, 4030.000
83.60200, 4280.000
84.83700, 4292.000
86.07200, 4453.000
87.30800, 4561.000
88.54200, 4878.000
89.77700, 5197.000
91.01200, 5725.000
92.24600, 5974.000
93.48000, 6000.000
94.71400, 6285.000
95.94800, 6444.000
97.18200, 6601.000
98.41600, 6987.000
99.64900, 7185.000
100.8830, 7481.000
102.1160, 7591.000
103.3490, 7969.000
104.5820, 8483.000
105.8150, 9087.000
107.0470, 9648.000
108.2800, 10299.00
109.5120, 11040.00
110.7440, 10858.00
111.9760, 10868.00
113.2080, 11420.00
114.4400, 12398.00
115.6710, 13220.00
116.9030, 14062.00
118.1340, 14949.00
119.3650, 15932.00
120.5960, 17323.00
121.8270, 18605.00
123.0580, 19278.00
124.2880, 19876.00
125.5190, 19907.00
126.7490, 20659.00
127.9790, 21378.00
129.2090, 22186.00
130.4390, 22810.00
131.6680, 23220.00
132.8980, 24177.00
134.1270, 25258.00
135.3560, 26640.00
136.5850, 28860.00
137.8140, 31609.00
139.0430, 34757.00
140.2710, 38618.00
141.5000, 42702.00
142.7280, 47016.00
143.9560, 51389.00
145.1840, 55663.00
146.4120, 59308.00
147.6390, 61153.00
148.8670, 61696.00
150.0940, 60304.00
151.3210, 56971.00
152.5490, 52476.00
153.7750, 47329.00
155.0020, 42284.00
156.2290, 37612.00
157.4550, 33591.00
158.6810, 29673.00
159.9080, 26857.00
161.1340, 24291.00
162.3590, 22502.00
163.5850, 20791.00
164.8110, 19444.00
166.0360, 18719.00
167.2610, 17477.00
168.4860, 16132.00
169.7110, 14507.00
170.9360, 12577.00
172.1610, 11225.00
173.3850, 10098.00
174.6100, 9422.000
175.8340, 8812.000
177.0580, 8404.000
178.2820, 7910.000
179.5050, 7664.000
180.7290, 7538.000
181.9520, 7362.000
183.1760, 7229.000
184.3990, 7218.000
185.6220, 7165.000
186.8450, 7108.000
188.0670, 7267.000
189.2900, 7296.000
190.5120, 7303.000
191.7340, 7185.000
192.9560, 7217.000
194.1780, 7288.000
195.4000, 7249.000
196.6220, 7367.000
197.8430, 7638.000
199.0640, 7954.000
200.2860, 8385.000
201.5070, 9102.000
202.7270, 9708.000
203.9480, 10335.00
205.1690, 10735.00
206.3890, 11318.00
207.6090, 11905.00
208.8290, 12334.00
210.0490, 12215.00
211.2690, 11626.00
212.4890, 10643.00
213.7080, 9494.000
214.9280, 8713.000
216.1470, 7966.000
217.3660, 7389.000
218.5850, 6864.000
219.8030, 6511.199
221.0220, 6336.000
222.2400, 6116.000
223.4590, 6040.000
224.6770, 6075.000
225.8950, 5957.000
227.1120, 5928.000
228.3300, 6064.000
229.5480, 6092.000
230.7650, 6272.000
231.9820, 6495.000
233.1990, 6887.000
234.4160, 7167.000
235.6330, 7716.000
236.8490, 8191.000
238.0660, 9069.000
239.2820, 9881.000
240.4980, 10519.00
241.7140, 11178.00
242.9300, 11588.00
244.1460, 11499.00
245.3610, 11263.00
246.5770, 10645.00
247.7920, 10126.00
249.0070, 9664.000
250.2220, 9386.357
251.4370, 9272.000
252.6510, 9079.000
253.8660, 9162.000
255.0800, 9200.000
256.2940, 9241.000
257.5080, 9382.000
258.7220, 9594.000
259.9360, 9857.978
261.1490, 10341.00
262.3630, 10665.00
263.5760, 10967.00
264.7890, 11643.00
266.0020, 12090.00
267.2150, 12883.00
268.4270, 13565.00
269.6400, 14476.00
270.8520, 15329.00
272.0640, 16397.00
273.2760, 17141.00
274.4880, 18028.00
275.7000, 18698.00
276.9120, 18919.00
278.1230, 19293.00
279.3340, 19294.00
280.5450, 18904.00
281.7560, 18227.00
282.9670, 17730.00
284.1780, 16697.00
285.3880, 15958.00
286.5980, 15203.00
287.8090, 14304.00
289.0190, 13580.00
290.2290, 13261.00
291.4380, 12628.00
292.6480, 12414.00
293.8570, 12182.00
295.0670, 12263.00
296.2760, 12320.00
297.4850, 12396.00
298.6930, 12801.00
299.9020, 12951.00
301.1110, 13457.00
302.3190, 14071.00
303.5270, 14715.00
304.7350, 15412.71
305.9430, 16217.00
307.1510, 16963.00
308.3580, 17758.00
309.5660, 18621.00
310.7730, 19458.00
311.9800, 20307.00
313.1870, 20905.00
314.3940, 21490.00
315.6010, 21863.00
316.8070, 21971.00
318.0130, 22179.00
319.2200, 22116.00
320.4260, 21748.00
321.6310, 21522.00
322.8370, 20755.00
324.0430, 19840.00
325.2480, 18957.00
326.4540, 17499.00
327.6590, 16277.00
328.8640, 15141.00
330.0680, 14093.80
331.2730, 13131.00
332.4780, 12331.00
333.6820, 11645.00
334.8860, 10925.00
336.0900, 10496.00
337.2940, 10032.00
338.4980, 9643.000
339.7010, 9347.000
340.9050, 9092.073
342.1080, 8853.000
343.3110, 8756.000
344.5140, 8673.000
345.7170, 8558.000
346.9200, 8571.000
348.1220, 8714.000
349.3240, 8776.000
350.5270, 9097.000
351.7290, 9341.873
352.9310, 9665.948
354.1320, 10127.00
355.3340, 10439.00
356.5350, 11068.00
357.7370, 11492.00
358.9380, 11983.00
360.1390, 12195.00
361.3400, 12216.00
362.5400, 12205.00
363.7410, 11878.00
364.9410, 11429.00
366.1410, 10948.00
367.3410, 10666.00
368.5410, 10074.00
369.7410, 9754.000
370.9400, 9468.000
372.1400, 9232.000
373.3390, 9024.000
374.5380, 9240.000
375.7370, 9112.000
376.9360, 9036.000
378.1350, 8947.000
379.3330, 8965.000
380.5310, 9087.000
381.7300, 9081.000
382.9280, 9192.000
384.1260, 9197.000
385.3230, 9255.000
386.5210, 9347.644
387.7180, 9468.000
388.9160, 9503.000
390.1130, 9622.000
391.3100, 9658.000
392.5060, 9844.000
393.7030, 9858.000
394.9000, 9959.000
396.0960, 10114.00
397.2920, 10292.00
398.4880, 10406.00
399.6840, 10668.00
400.8800, 10732.92
402.0750, 10931.00
403.2710, 10989.00
404.4660, 10823.00
405.6610, 11083.00
406.8560, 10831.00
408.0510, 10666.00
409.2450, 10715.00
410.4400, 10351.00
411.6340, 10138.00
412.8280, 10052.00
414.0220, 9863.000
415.2160, 9550.000
416.4100, 9394.000
417.6030, 9157.000
418.7970, 8933.000
419.9900, 8788.000
421.1830, 8670.000
422.3760, 8543.113
423.5690, 8530.000
424.7610, 8434.000
425.9540, 8431.000
427.1460, 8528.000
428.3380, 8579.000
429.5300, 8724.000
430.7220, 8979.000
431.9140, 9007.000
433.1050, 9118.000
434.2970, 9282.000
435.4880, 9602.000
436.6790, 9787.000
437.8700, 9991.000
439.0610, 10363.00
440.2510, 10497.00
441.4420, 10864.00
442.6320, 10930.00
443.8220, 11053.00
445.0120, 11223.00
446.2020, 11212.00
447.3910, 11302.00
448.5810, 11287.00
449.7700, 11046.00
450.9600, 11045.00
452.1490, 10881.00
453.3370, 10844.00
454.5260, 10680.84
455.7150, 10516.00
456.9030, 10312.00
458.0910, 10109.16
459.2800, 9801.000
460.4670, 9665.000
461.6550, 9400.000
462.8430, 9177.000
464.0300, 9068.000
465.2180, 8831.000
466.4050, 8570.000
467.5920, 8471.488
468.7790, 8437.000
469.9650, 8233.000
471.1520, 8164.000
472.3380, 8107.000
473.5250, 8034.000
474.7110, 7983.000
475.8970, 7990.453
477.0820, 8058.000
478.2680, 8061.000
479.4540, 8096.000
480.6390, 8196.000
481.8240, 8240.000
483.0090, 8416.000
484.1940, 8493.000
485.3780, 8554.000
486.5630, 8790.000
487.7470, 9003.000
488.9320, 8997.000
490.1160, 9316.000
491.3000, 9386.000
492.4830, 9375.000
493.6670, 9554.000
494.8500, 9628.000
496.0340, 9501.000
497.2170, 9400.000
498.4000, 9290.000
499.5820, 9021.000
500.7650, 8923.000
501.9480, 8559.000
503.1300, 8422.000
504.3120, 8176.000
505.4940, 7989.000
506.6760, 7892.000
507.8580, 7747.000
509.0390, 7605.000
510.2210, 7508.000
511.4020, 7441.000
512.5830, 7320.000
513.7640, 7323.000
514.9450, 7096.000
516.1250, 7277.000
517.3060, 7192.000
518.4860, 7223.000
519.6660, 7359.000
520.8460, 7423.000
522.0260, 7451.000
523.2060, 7589.000
524.3850, 7691.000
525.5650, 7706.000
526.7440, 7859.000
527.9230, 8054.000
529.1020, 8216.000
530.2810, 8281.000
531.4590, 8429.000
532.6380, 8648.000
533.8160, 8697.000
534.9940, 8923.000
536.1720, 8956.000
537.3500, 9102.000
538.5270, 9110.000
539.7050, 9166.891
540.8820, 9169.000
542.0590, 9197.000
543.2360, 9187.323
544.4130, 9215.000
545.5900, 9134.000
546.7660, 9123.000
547.9430, 9067.891
549.1190, 8990.000
550.2950, 8961.000
551.4710, 8905.000
552.6470, 8769.000
553.8220, 8676.000
554.9980, 8546.000
556.1730, 8417.000
557.3480, 8457.000
558.5230, 8417.000
559.6980, 8507.000
560.8730, 8373.000
562.0470, 8434.000
563.2220, 8430.000
564.3960, 8422.000
565.5700, 8527.000
566.7440, 8628.000
567.9170, 8728.000
569.0910, 8725.000
570.2640, 8759.000
571.4380, 8962.000
572.6110, 9157.000
573.7840, 9144.000
574.9570, 9291.000
576.1290, 9526.000
577.3020, 9589.000
578.4740, 9600.000
579.6460, 9821.000
580.8180, 9697.000
581.9900, 9748.000
583.1620, 9737.000
584.3330, 9820.000
585.5040, 9820.000
586.6760, 9784.000
587.8470, 9888.000
589.0180, 9748.000
590.1880, 9991.000
591.3590, 10055.00
592.5290, 10066.00
593.7000, 10009.00
594.8700, 10206.00
596.0400, 10315.00
597.2090, 10458.00
598.3790, 10607.00
599.5490, 10771.08
600.7180, 10924.00
601.8870, 11177.00
603.0560, 11369.00
604.2250, 11670.00
605.3940, 11745.00
606.5620, 11849.00
607.7300, 12225.00
608.8990, 12347.00
610.0670, 12776.00
611.2350, 13034.00
612.4020, 13221.00
613.5700, 13436.00
614.7370, 13903.00
615.9050, 14039.00
617.0720, 14428.64
618.2390, 14785.00
619.4060, 15026.00
620.5720, 15440.00
621.7390, 15562.00
622.9050, 15982.00
624.0710, 16279.00
625.2370, 16466.00
626.4030, 16628.00
627.5690, 16817.00
628.7340, 17044.00
629.9000, 17139.00
631.0650, 17407.00
632.2300, 17300.00
633.3950, 17267.00
634.5600, 17372.00
635.7240, 17244.00
636.8890, 17176.00
638.0530, 17124.00
639.2170, 16786.00
640.3810, 16441.00
641.5450, 16199.00
642.7080, 15825.00
643.8720, 15361.00
645.0350, 15086.00
646.1980, 14854.00
647.3610, 14219.00
648.5240, 13661.00
649.6870, 13293.00
650.8490, 13120.00
652.0120, 12617.00
653.1740, 12164.00
654.3360, 11670.00
655.4980, 11345.00
656.6600, 11120.00
657.8210, 10696.00
658.9830, 10310.00
660.1440, 10119.00
661.3050, 9725.000
662.4660, 9385.000
663.6270, 9403.000
664.7870, 9030.000
665.9480, 8780.000
667.1080, 8596.000
668.2680, 8357.000
669.4280, 8246.000
670.5880, 8064.000
671.7480, 7940.000
672.9070, 7811.000
674.0670, 7533.000
675.2260, 7390.000
676.3850, 7232.363
677.5440, 7205.000
678.7030, 7011.000
679.8610, 6941.000
681.0200, 6971.000
682.1780, 6796.000
683.3360, 6805.000
684.4940, 6671.000
685.6520, 6634.000
686.8090, 6546.000
687.9670, 6415.000
689.1240, 6354.000
690.2810, 6219.000
691.4380, 6095.000
692.5950, 6053.000
693.7520, 6024.000
694.9080, 6017.000
696.0650, 5919.000
697.2210, 5979.000
698.3770, 5892.000
699.5330, 5947.000
700.6880, 5778.000
701.8440, 5803.000
702.9990, 5743.000
704.1550, 5694.000
705.3100, 5594.000
706.4650, 5606.000
707.6190, 5567.000
708.7740, 5610.000
709.9290, 5544.000
711.0830, 5522.000
712.2370, 5491.000
713.3910, 5455.000
714.5450, 5501.000
715.6980, 5423.000
716.8520, 5437.000
718.0050, 5371.000
719.1580, 5354.000
720.3110, 5300.000
721.4640, 5237.000
722.6170, 5195.000
723.7700, 5182.000
724.9220, 5260.000
726.0740, 5203.000
727.2260, 5180.000
728.3780, 5063.000
729.5300, 5200.000
730.6810, 5096.000
731.8330, 5180.000
732.9840, 5192.000
734.1350, 5134.000
735.2860, 5105.000
736.4370, 5074.000
737.5880, 5054.294
738.7380, 4928.000
739.8880, 5024.000
741.0390, 4954.000
742.1890, 4910.000
743.3380, 4963.000
744.4880, 4928.000
745.6380, 4898.000
746.7870, 4845.000
747.9360, 4899.000
749.0850, 4862.000
750.2340, 4790.000
751.3830, 4899.000
752.5310, 4892.000
753.6800, 4689.000
754.8280, 4719.000
755.9760, 4796.000
757.1240, 4819.000
758.2720, 4696.000
759.4190, 4765.000
760.5670, 4733.000
761.7140, 4790.000
762.8610, 4615.000
764.0080, 4654.000
765.1550, 4606.000
766.3020, 4639.000
767.4480, 4604.000
768.5950, 4632.000
769.7410, 4574.000
770.8870, 4661.000
772.0330, 4616.000
773.1780, 4566.000
774.3240, 4467.000
775.4690, 4525.000
776.6140, 4464.000
777.7590, 4485.000
778.9040, 4493.000
780.0490, 4422.000
781.1940, 4416.000
782.3380, 4360.000
783.4820, 4345.696
784.6260, 4368.000
785.7700, 4329.000
786.9140, 4363.000
788.0580, 4375.000
789.2010, 4383.000
790.3450, 4414.000
791.4880, 4379.000
792.6310, 4378.000
793.7730, 4266.000
794.9160, 4340.000
796.0590, 4407.000
797.2010, 4368.000
798.3430, 4265.000
799.4850, 4264.000
800.6270, 4338.000
801.7690, 4226.000
802.9100, 4246.000
804.0520, 4311.000
805.1930, 4264.000
806.3340, 4239.000
807.4750, 4244.000
808.6160, 4208.000
809.7560, 4214.000
810.8970, 4206.000
812.0370, 4193.000
813.1770, 4243.000
814.3170, 4140.000
815.4570, 4114.000
816.5960, 4151.000
817.7360, 4123.000
818.8750, 4108.000
820.0140, 4058.000
821.1530, 4091.000
822.2920, 4096.000
823.4310, 4042.000
824.5690, 4052.000
825.7070, 4018.000
826.8460, 4003.000
827.9840, 4013.000
829.1220, 4016.000
830.2590, 3996.142
831.3970, 3977.000
832.5340, 3943.000
833.6710, 3922.000
834.8080, 3890.849
835.9450, 3884.000
837.0820, 3830.000
838.2190, 3814.000
839.3550, 3787.000
840.4910, 3871.000
841.6270, 3817.000
842.7630, 3727.000
843.8990, 3827.000
845.0350, 3832.000
846.1700, 3701.000
847.3060, 3631.000
848.4410, 3679.000
849.5760, 3624.000
850.7100, 3625.000
851.8450, 3581.000
852.9800, 3512.000
854.1140, 3534.000
855.2480, 3487.449
856.3820, 3496.000
857.5160, 3450.000
858.6500, 3411.000
859.7830, 3389.000
860.9170, 3363.555
862.0500, 3367.000
863.1830, 3344.000
864.3160, 3293.000
865.4480, 3303.000
866.5810, 3330.000
867.7130, 3289.000
868.8460, 3206.000
869.9780, 3233.000
871.1100, 3183.000
872.2410, 3155.000
873.3730, 3163.000
874.5050, 3166.000
875.6360, 3019.000
876.7670, 3116.000
877.8980, 3023.000
879.0290, 3024.000
880.1590, 3010.000
881.2900, 3063.000
882.4200, 2969.000
883.5500, 2909.000
884.6800, 2960.000
885.8100, 2968.000
886.9400, 2901.000
888.0690, 2917.000
889.1990, 2918.000
890.3280, 2885.483
891.4570, 2892.000
892.5860, 2893.000
893.7140, 2809.000
894.8430, 2894.000
895.9710, 2831.000
897.1000, 2820.000
898.2280, 2864.000
899.3560, 2753.000
900.4830, 2839.000
901.6110, 2733.000
902.7380, 2782.000
903.8660, 2766.000
904.9930, 2760.825
906.1200, 2748.000
907.2460, 2786.000
908.3730, 2757.000
909.5000, 2753.000
910.6260, 2793.000
911.7520, 2736.000
912.8780, 2787.000
914.0040, 2677.000
915.1290, 2763.000
916.2550, 2752.000
917.3800, 2704.000
918.5050, 2721.000
919.6300, 2756.000
920.7550, 2747.000
921.8800, 2704.000
923.0040, 2780.000
924.1290, 2676.000
925.2530, 2696.000
926.3770, 2713.000
927.5010, 2712.000
928.6250, 2692.000
929.7480, 2689.000
930.8720, 2655.000
931.9950, 2638.000
933.1180, 2629.000
934.2410, 2641.000
935.3640, 2666.000
936.4860, 2632.000
937.6090, 2635.000
938.7310, 2603.000
939.8530, 2588.000
940.9750, 2640.000
942.0970, 2677.000
943.2180, 2629.000
944.3400, 2564.000
945.4610, 2603.000
946.5820, 2576.000
947.7030, 2635.000
948.8240, 2600.000
949.9450, 2626.000
951.0650, 2547.000
952.1860, 2602.000
953.3060, 2561.000
954.4260, 2643.000
955.5460, 2591.000
956.6650, 2551.000
957.7850, 2622.000
958.9040, 2571.000
960.0230, 2510.000
961.1420, 2543.000
962.2610, 2548.000
963.3800, 2556.000
964.4990, 2562.000
965.6170, 2582.000
966.7350, 2543.000
967.8530, 2588.000
968.9710, 2521.000
970.0890, 2560.000
971.2070, 2470.000
972.3240, 2531.000
973.4410, 2509.000
974.5580, 2485.000
975.6750, 2565.000
976.7920, 2490.000
977.9090, 2567.000
979.0250, 2503.000
980.1410, 2503.000
981.2580, 2541.000
982.3740, 2545.000
983.4890, 2590.000
984.6050, 2509.000
985.7200, 2540.000
986.8360, 2596.000
987.9510, 2501.000
989.0660, 2579.000
990.1810, 2591.000
991.2950, 2529.000
992.4100, 2508.000
993.5240, 2596.000
994.6390, 2588.000
995.7530, 2540.000
996.8660, 2466.000
997.9800, 2559.000
999.0940, 2517.000
1000.207, 2525.000
1001.320, 2542.000
1002.433, 2540.000
1003.546, 2521.000
1004.659, 2462.000
1005.772, 2483.000
1006.884, 2473.000
1007.996, 2446.000
1009.108, 2496.000
1010.220, 2434.000
1011.332, 2461.000
1012.444, 2459.000
1013.555, 2471.000
1014.666, 2448.000
1015.777, 2444.000
1016.888, 2453.000
1017.999, 2425.000
1019.110, 2468.000
1020.220, 2407.000
1021.331, 2439.000
1022.441, 2450.000
1023.551, 2380.000
1024.661, 2441.000
1025.770, 2430.000
1026.880, 2417.000
1027.989, 2401.000
1029.098, 2407.000
1030.207, 2384.000
1031.316, 2394.000
1032.425, 2389.525
1033.533, 2413.000
1034.642, 2383.000
1035.750, 2375.000
1036.858, 2355.277
1037.966, 2397.000
1039.073, 2339.000
1040.181, 2367.000
1041.288, 2380.000
1042.396, 2452.000
1043.503, 2382.000
1044.610, 2408.000
1045.716, 2395.000
1046.823, 2367.000
1047.929, 2392.000
1049.036, 2406.000
1050.142, 2360.000
1051.248, 2346.000
1052.353, 2340.968
1053.459, 2322.000
1054.564, 2352.000
1055.670, 2339.000
1056.775, 2402.000
1057.880, 2385.000
1058.985, 2367.000
1060.089, 2349.000
1061.194, 2422.000
1062.298, 2316.000
1063.402, 2364.000
1064.506, 2314.000
1065.610, 2319.000
1066.713, 2354.000
1067.817, 2374.000
1068.920, 2383.000
1070.023, 2306.000
1071.126, 2333.000
1072.229, 2316.000
1073.332, 2319.000
1074.435, 2359.000
1075.537, 2336.000
1076.639, 2336.000
1077.741, 2238.000
1078.843, 2330.000
1079.945, 2373.000
1081.046, 2261.000
1082.148, 2335.000
1083.249, 2254.000
1084.350, 2269.000
1085.451, 2273.000
1086.551, 2246.000
1087.652, 2278.000
1088.752, 2215.000
1089.853, 2246.000
1090.953, 2234.000
1092.053, 2234.000
1093.152, 2235.160
1094.252, 2248.000
1095.351, 2213.000
1096.451, 2221.000
1097.550, 2194.000
1098.649, 2235.000
1099.748, 2221.000
1100.846, 2229.000
1101.945, 2208.000
1103.043, 2236.000
1104.141, 2168.000
1105.239, 2179.000
1106.337, 2187.000
1107.434, 2218.000
1108.532, 2191.000
1109.629, 2181.000
1110.726, 2199.000
1111.823, 2190.000
1112.920, 2200.000
1114.017, 2265.000
1115.113, 2286.000
1116.210, 2317.000
1117.306, 2338.000
1118.402, 2373.774
1119.498, 2440.000
1120.593, 2453.000
1121.689, 2536.000
1122.784, 2595.000
1123.879, 2597.000
1124.974, 2499.000
1126.069, 2449.000
1127.164, 2378.000
1128.259, 2320.000
1129.353, 2274.445
1130.447, 2277.000
1131.541, 2191.000
1132.635, 2167.000
1133.729, 2139.000
1134.822, 2090.000
1135.916, 2188.000
1137.009, 2142.000
1138.102, 2138.000
1139.195, 2087.000
1140.288, 2062.000
1141.380, 2160.000
1142.473, 2145.000
1143.565, 2120.000
1144.657, 2042.000
1145.749, 2071.000
1146.841, 2072.657
1147.932, 2081.402
1149.024, 2145.000
1150.115, 2097.000
1151.206, 2137.000
1152.297, 2043.000
1153.388, 2106.000
1154.479, 2072.000
1155.569, 2056.000
1156.659, 2086.000
1157.750, 2076.000
1158.839, 2073.000
1159.929, 2051.000
1161.019, 2099.000
1162.108, 2063.000
1163.198, 2037.000
1164.287, 2079.000
1165.376, 2075.000
1166.465, 2071.000
1167.553, 2044.000
1168.642, 2026.000
1169.730, 1991.000
1170.818, 2016.000
1171.906, 2043.000
1172.994, 2022.000
1174.082, 2031.000
1175.170, 2005.000
1176.257, 2086.000
1177.344, 1989.000
1178.431, 2073.000
1179.518, 2068.000
1180.605, 2073.000
1181.691, 2061.000
1182.778, 2063.796
1183.864, 2033.000
1184.950, 2043.000
1186.036, 2055.000
1187.122, 2003.000
1188.207, 2016.000
1189.292, 2067.000
1190.378, 1983.000
1191.463, 2071.000
1192.548, 2003.000
1193.632, 2055.000
1194.717, 2031.000
1195.801, 2008.000
1196.886, 2084.000
1197.970, 2018.000
1199.054, 2073.000
1200.137, 2023.000
1201.221, 2030.000
1202.305, 2030.000
1203.388, 1981.000
1204.471, 1972.000
1205.554, 2018.000
1206.637, 2020.000
1207.719, 2029.000
1208.802, 2025.000
1209.884, 2036.000
1210.966, 2015.000
1212.048, 2029.000
1213.130, 2018.000
1214.212, 1990.000
1215.293, 2035.000
1216.374, 2021.000
1217.456, 2032.000
1218.536, 2040.000
1219.617, 2017.000
1220.698, 2039.000
1221.778, 1997.000
1222.859, 2019.000
1223.939, 2040.000
1225.019, 2036.000
1226.099, 2075.000
1227.178, 2000.000
1228.258, 2013.000
1229.337, 2013.000
1230.417, 2060.000
1231.496, 1991.000
1232.574, 2048.000
1233.653, 1990.000
1234.732, 2036.000
1235.810, 1983.000
1236.888, 2015.000
