##NAMES=Brookite
##RRUFFID=R050591
##IDEAL CHEMISTRY=Ti^4+^O_2_
##LOCALITY=Taftan, near Dalbandi, Baluchistan, Pakistan
##OWNER=RRUFF
##SOURCE=Wayne Thompson
##DESCRIPTION=Yellowish-brown to reddish-brown thin tabular crystal
##STATUS=The identification of this mineral has been confirmed by X-ray diffraction and chemical analysis
##URL=rruff.info/R050591
##MEASURED CHEMISTRY=Ti_1.00_O_2_
##PIN_ID=M00065
##ORIENTATION=Laser parallel to c* (0 0 1). Fiducial mark perpendicular to laser is parallel to a [1 0 0]
51.43100, 363.0000
52.67100, 383.0000
53.91000, 373.0000
55.14900, 369.0000
56.38700, 379.0000
57.62600, 376.0000
58.86400, 378.0000
60.10300, 391.0000
61.34100, 381.0000
62.57900, 384.0000
63.81700, 392.0000
65.05400, 400.0000
66.29200, 413.7700
67.52900, 427.0000
68.76700, 451.0000
70.00400, 466.0000
71.24100, 495.0000
72.47700, 490.0000
73.71400, 503.0000
74.95100, 524.0000
76.18700, 538.0000
77.42300, 571.0000
78.65900, 610.0000
79.89500, 627.0000
81.13100, 666.7068
82.36700, 677.0000
83.60200, 722.0000
84.83700, 733.0000
86.07200, 733.0000
87.30800, 789.0000
88.54200, 799.0000
89.77700, 831.0000
91.01200, 875.0000
92.24600, 963.0000
93.48000, 1030.000
94.71400, 1055.000
95.94800, 1075.000
97.18200, 1102.000
98.41600, 1142.000
99.64900, 1217.000
100.8830, 1275.000
102.1160, 1336.000
103.3490, 1412.000
104.5820, 1495.000
105.8150, 1592.000
107.0470, 1706.000
108.2800, 1850.000
109.5120, 1960.000
110.7440, 2133.000
111.9760, 2247.000
113.2080, 2471.000
114.4400, 2777.000
115.6710, 3194.000
116.9030, 3538.000
118.1340, 4151.000
119.3650, 4927.000
120.5960, 5548.000
121.8270, 6109.000
123.0580, 6955.000
124.2880, 8092.000
125.5190, 9531.000
126.7490, 11549.00
127.9790, 15115.00
129.2090, 18651.00
130.4390, 20190.00
131.6680, 18563.00
132.8980, 14447.00
134.1270, 10303.00
135.3560, 7974.000
136.5850, 7269.000
137.8140, 7455.000
139.0430, 8264.000
140.2710, 9528.000
141.5000, 11075.00
142.7280, 13075.00
143.9560, 15404.00
145.1840, 17911.00
146.4120, 21372.00
147.6390, 24953.00
148.8670, 29081.00
150.0940, 34180.00
151.3210, 40173.00
152.5490, 46384.00
153.7750, 52619.00
155.0020, 57304.00
156.2290, 59469.00
157.4550, 57611.00
158.6810, 52214.00
159.9080, 44948.00
161.1340, 36416.00
162.3590, 29134.00
163.5850, 23471.00
164.8110, 18766.00
166.0360, 15270.00
167.2610, 12558.00
168.4860, 10513.00
169.7110, 8757.000
170.9360, 7478.000
172.1610, 6492.000
173.3850, 5608.000
174.6100, 5055.000
175.8340, 4525.000
177.0580, 4025.000
178.2820, 3636.000
179.5050, 3375.000
180.7290, 3070.000
181.9520, 2927.000
183.1760, 2852.000
184.3990, 2649.000
185.6220, 2707.000
186.8450, 2704.000
188.0670, 2646.000
189.2900, 2756.000
190.5120, 2766.000
191.7340, 2975.000
192.9560, 3361.000
194.1780, 3915.000
195.4000, 4765.000
196.6220, 5584.000
197.8430, 5640.000
199.0640, 4995.000
200.2860, 3942.000
201.5070, 2931.000
202.7270, 2315.000
203.9480, 1973.000
205.1690, 1725.000
206.3890, 1639.000
207.6090, 1500.000
208.8290, 1447.000
210.0490, 1369.000
211.2690, 1324.000
212.4890, 1323.000
213.7080, 1322.000
214.9280, 1300.000
216.1470, 1279.000
217.3660, 1267.000
218.5850, 1238.000
219.8030, 1210.000
221.0220, 1154.000
222.2400, 1132.000
223.4590, 1167.000
224.6770, 1136.000
225.8950, 1187.000
227.1120, 1206.000
228.3300, 1261.000
229.5480, 1349.000
230.7650, 1483.000
231.9820, 1628.000
233.1990, 1860.000
234.4160, 2163.000
235.6330, 2582.000
236.8490, 3222.000
238.0660, 3992.000
239.2820, 4828.000
240.4980, 5843.000
241.7140, 7064.000
242.9300, 8623.000
244.1460, 10870.00
245.3610, 13763.00
246.5770, 17611.00
247.7920, 21619.00
249.0070, 24598.00
250.2220, 24939.00
251.4370, 22395.00
252.6510, 17950.00
253.8660, 13839.00
255.0800, 10546.00
256.2940, 8444.000
257.5080, 6895.000
258.7220, 5874.000
259.9360, 5158.000
261.1490, 4538.000
262.3630, 4110.000
263.5760, 3756.000
264.7890, 3462.000
266.0020, 3303.000
267.2150, 3072.000
268.4270, 2918.000
269.6400, 2711.000
270.8520, 2584.000
272.0640, 2529.000
273.2760, 2414.000
274.4880, 2380.000
275.7000, 2274.000
276.9120, 2233.000
278.1230, 2139.000
279.3340, 2099.000
280.5450, 2049.000
281.7560, 2022.000
282.9670, 1997.000
284.1780, 1969.152
285.3880, 1958.077
286.5980, 1931.000
287.8090, 1924.000
289.0190, 1908.000
290.2290, 1887.590
291.4380, 1851.000
292.6480, 1849.000
293.8570, 1838.000
295.0670, 1817.000
296.2760, 1864.000
297.4850, 1836.000
298.6930, 1899.000
299.9020, 1876.000
301.1110, 1866.000
302.3190, 1970.000
303.5270, 1916.000
304.7350, 1988.000
305.9430, 2019.000
307.1510, 2151.000
308.3580, 2179.000
309.5660, 2263.000
310.7730, 2254.000
311.9800, 2414.000
313.1870, 2488.000
314.3940, 2700.000
315.6010, 2734.000
316.8070, 2885.000
318.0130, 3017.000
319.2200, 3161.000
320.4260, 3336.000
321.6310, 3474.000
322.8370, 3530.000
324.0430, 3587.000
325.2480, 3656.000
326.4540, 3610.000
327.6590, 3565.000
328.8640, 3405.000
330.0680, 3355.000
331.2730, 3213.000
332.4780, 3093.000
333.6820, 2930.000
334.8860, 2674.000
336.0900, 2585.000
337.2940, 2427.000
338.4980, 2231.000
339.7010, 2168.000
340.9050, 2023.000
342.1080, 1872.000
343.3110, 1850.000
344.5140, 1767.000
345.7170, 1673.000
346.9200, 1682.000
348.1220, 1702.000
349.3240, 1634.000
350.5270, 1592.000
351.7290, 1592.000
352.9310, 1577.000
354.1320, 1576.000
355.3340, 1653.000
356.5350, 1681.000
357.7370, 1743.000
358.9380, 1738.000
360.1390, 1862.000
361.3400, 1929.000
362.5400, 2046.000
363.7410, 2172.000
364.9410, 2329.000
366.1410, 2532.000
367.3410, 2618.000
368.5410, 2624.000
369.7410, 2593.000
370.9400, 2479.000
372.1400, 2404.000
373.3390, 2234.000
374.5380, 2057.000
375.7370, 1911.000
376.9360, 1888.000
378.1350, 1796.000
379.3330, 1822.000
380.5310, 1737.000
381.7300, 1720.000
382.9280, 1780.000
384.1260, 1767.000
385.3230, 1777.000
386.5210, 1821.000
387.7180, 1919.000
388.9160, 1951.000
390.1130, 2091.000
391.3100, 2097.000
392.5060, 2191.000
393.7030, 2330.000
394.9000, 2420.000
396.0960, 2606.000
397.2920, 2683.000
398.4880, 2783.000
399.6840, 3066.000
400.8800, 3249.000
402.0750, 3304.000
403.2710, 3610.000
404.4660, 3977.000
405.6610, 4452.000
406.8560, 4797.000
408.0510, 5196.000
409.2450, 5676.000
410.4400, 6152.000
411.6340, 6494.000
412.8280, 6770.000
414.0220, 6778.000
415.2160, 6763.000
416.4100, 6493.000
417.6030, 6260.000
418.7970, 5856.000
419.9900, 5371.000
421.1830, 4905.000
422.3760, 4501.000
423.5690, 4163.000
424.7610, 3819.000
425.9540, 3591.000
427.1460, 3325.312
428.3380, 3087.000
429.5300, 2917.000
430.7220, 2742.000
431.9140, 2587.000
433.1050, 2497.000
434.2970, 2351.000
435.4880, 2328.000
436.6790, 2268.000
437.8700, 2205.000
439.0610, 2130.000
440.2510, 2086.000
441.4420, 2063.000
442.6320, 2000.000
443.8220, 1982.000
445.0120, 1979.000
446.2020, 1948.000
447.3910, 2000.000
448.5810, 1971.000
449.7700, 2001.000
450.9600, 1970.000
452.1490, 2043.000
453.3370, 2087.000
454.5260, 2076.000
455.7150, 2192.000
456.9030, 2308.000
458.0910, 2282.000
459.2800, 2302.000
460.4670, 2427.000
461.6550, 2526.000
462.8430, 2451.000
464.0300, 2574.000
465.2180, 2550.000
466.4050, 2495.000
467.5920, 2452.000
468.7790, 2431.000
469.9650, 2319.000
471.1520, 2298.000
472.3380, 2171.000
473.5250, 2102.000
474.7110, 2071.000
475.8970, 2009.000
477.0820, 1998.000
478.2680, 1986.000
479.4540, 1997.000
480.6390, 1971.000
481.8240, 1872.000
483.0090, 1914.000
484.1940, 1891.000
485.3780, 1967.000
486.5630, 1897.000
487.7470, 1920.000
488.9320, 1947.000
490.1160, 1932.000
491.3000, 2000.000
492.4830, 1970.000
493.6670, 1941.000
494.8500, 1943.000
496.0340, 2004.000
497.2170, 2042.000
498.4000, 2028.000
499.5820, 2050.000
500.7650, 2074.000
501.9480, 2091.070
503.1300, 2191.000
504.3120, 2154.000
505.4940, 2228.000
506.6760, 2273.000
507.8580, 2214.000
509.0390, 2259.000
510.2210, 2272.000
511.4020, 2293.000
512.5830, 2333.392
513.7640, 2370.278
514.9450, 2417.000
516.1250, 2465.000
517.3060, 2532.000
518.4860, 2575.000
519.6660, 2670.000
520.8460, 2695.000
522.0260, 2828.000
523.2060, 2885.000
524.3850, 3061.000
525.5650, 3205.000
526.7440, 3330.000
527.9230, 3582.000
529.1020, 3786.000
530.2810, 3920.000
531.4590, 4167.000
532.6380, 4426.000
533.8160, 4650.000
534.9940, 4928.777
536.1720, 5183.000
537.3500, 5461.000
538.5270, 5704.000
539.7050, 5941.000
540.8820, 6217.000
542.0590, 6326.000
543.2360, 6572.000
544.4130, 6716.000
545.5900, 6809.000
546.7660, 6767.000
547.9430, 6791.000
549.1190, 6739.000
550.2950, 6503.000
551.4710, 6226.000
552.6470, 6001.000
553.8220, 5651.000
554.9980, 5337.000
556.1730, 5011.000
557.3480, 4763.000
558.5230, 4493.466
559.6980, 4224.000
560.8730, 4029.000
562.0470, 3834.000
563.2220, 3628.000
564.3960, 3468.232
565.5700, 3362.000
566.7440, 3175.000
567.9170, 3110.000
569.0910, 3026.000
570.2640, 2936.000
571.4380, 2857.000
572.6110, 2830.000
573.7840, 2784.000
574.9570, 2745.000
576.1290, 2741.000
577.3020, 2798.000
578.4740, 2791.000
579.6460, 2780.000
580.8180, 2852.000
581.9900, 2871.000
583.1620, 2829.000
584.3330, 2853.000
585.5040, 2850.330
586.6760, 2838.000
587.8470, 2854.000
589.0180, 2857.000
590.1880, 2839.000
591.3590, 2780.000
592.5290, 2710.000
593.7000, 2680.000
594.8700, 2649.000
596.0400, 2596.000
597.2090, 2691.000
598.3790, 2701.000
599.5490, 2688.000
600.7180, 2714.000
601.8870, 2713.000
603.0560, 2825.000
604.2250, 2876.000
605.3940, 2999.000
606.5620, 2982.000
607.7300, 3164.000
608.8990, 3201.000
610.0670, 3404.000
611.2350, 3532.000
612.4020, 3656.000
613.5700, 3864.000
614.7370, 4030.000
615.9050, 4206.000
617.0720, 4423.000
618.2390, 4720.000
619.4060, 4976.000
620.5720, 5243.000
621.7390, 5641.000
622.9050, 5907.000
624.0710, 6388.000
625.2370, 6604.000
626.4030, 7059.000
627.5690, 7547.000
628.7340, 7898.000
629.9000, 8334.000
631.0650, 8711.000
632.2300, 9104.000
633.3950, 9464.759
634.5600, 9852.000
635.7240, 10171.00
636.8890, 10456.00
638.0530, 10839.00
639.2170, 10884.00
640.3810, 10992.00
641.5450, 10972.00
642.7080, 10871.00
643.8720, 10666.00
645.0350, 10554.00
646.1980, 10195.00
647.3610, 9868.000
648.5240, 9650.000
649.6870, 9284.000
650.8490, 8946.000
652.0120, 8415.000
653.1740, 8090.000
654.3360, 7728.000
655.4980, 7345.000
656.6600, 7068.000
657.8210, 6619.000
658.9830, 6361.000
660.1440, 6173.000
661.3050, 5782.000
662.4660, 5509.000
663.6270, 5238.000
664.7870, 4939.000
665.9480, 4858.000
667.1080, 4597.000
668.2680, 4396.000
669.4280, 4318.000
670.5880, 4167.000
671.7480, 4034.000
672.9070, 3909.563
674.0670, 3772.000
675.2260, 3656.000
676.3850, 3500.000
677.5440, 3423.000
678.7030, 3297.000
679.8610, 3306.000
681.0200, 3141.000
682.1780, 3082.000
683.3360, 3102.000
684.4940, 2909.000
685.6520, 2899.000
686.8090, 2825.000
687.9670, 2768.000
689.1240, 2782.000
690.2810, 2725.000
691.4380, 2654.000
692.5950, 2593.000
693.7520, 2553.000
694.9080, 2531.000
696.0650, 2535.000
697.2210, 2469.000
698.3770, 2455.000
699.5330, 2384.000
700.6880, 2332.000
701.8440, 2300.000
702.9990, 2307.000
704.1550, 2275.000
705.3100, 2250.536
706.4650, 2225.000
707.6190, 2181.000
708.7740, 2124.000
709.9290, 2066.000
711.0830, 2042.000
712.2370, 2085.000
713.3910, 2044.000
714.5450, 2019.000
715.6980, 1991.000
716.8520, 1966.000
718.0050, 1955.000
719.1580, 1934.434
720.3110, 1983.000
721.4640, 1889.000
722.6170, 1861.000
723.7700, 1799.000
724.9220, 1835.000
726.0740, 1798.000
727.2260, 1825.000
728.3780, 1812.000
729.5300, 1733.000
730.6810, 1776.000
731.8330, 1755.000
732.9840, 1740.000
734.1350, 1655.000
735.2860, 1743.000
736.4370, 1671.000
737.5880, 1649.000
738.7380, 1642.000
739.8880, 1614.957
741.0390, 1613.100
742.1890, 1604.000
743.3380, 1605.000
744.4880, 1600.000
745.6380, 1594.000
746.7870, 1596.000
747.9360, 1543.000
749.0850, 1542.000
750.2340, 1543.000
751.3830, 1580.000
752.5310, 1532.000
753.6800, 1545.000
754.8280, 1505.000
755.9760, 1479.000
757.1240, 1513.000
758.2720, 1473.000
759.4190, 1476.000
760.5670, 1433.000
761.7140, 1429.000
762.8610, 1450.000
764.0080, 1488.000
765.1550, 1419.000
766.3020, 1388.000
767.4480, 1426.000
768.5950, 1398.000
769.7410, 1422.000
770.8870, 1359.000
772.0330, 1400.000
773.1780, 1361.000
774.3240, 1351.000
775.4690, 1344.000
776.6140, 1268.000
777.7590, 1326.000
778.9040, 1322.000
780.0490, 1328.000
781.1940, 1273.000
782.3380, 1269.000
783.4820, 1279.000
784.6260, 1241.000
785.7700, 1257.000
786.9140, 1206.000
788.0580, 1219.000
789.2010, 1188.000
790.3450, 1184.000
791.4880, 1167.000
792.6310, 1166.000
793.7730, 1155.081
794.9160, 1147.797
796.0590, 1139.000
797.2010, 1140.000
798.3430, 1135.000
799.4850, 1131.061
800.6270, 1133.000
801.7690, 1124.000
802.9100, 1116.883
804.0520, 1113.000
805.1930, 1083.000
806.3340, 1085.000
807.4750, 1049.000
808.6160, 1068.000
809.7560, 1036.000
810.8970, 1068.000
812.0370, 1056.000
813.1770, 1052.000
814.3170, 1070.000
815.4570, 1040.000
816.5960, 1039.000
817.7360, 1026.000
818.8750, 1036.000
820.0140, 1023.191
821.1530, 992.0000
822.2920, 1005.000
823.4310, 1004.000
824.5690, 992.0000
825.7070, 996.6727
826.8460, 998.0000
827.9840, 990.0000
829.1220, 1002.000
830.2590, 1000.000
831.3970, 1005.000
832.5340, 1014.000
833.6710, 999.0120
834.8080, 999.6187
835.9450, 988.0000
837.0820, 979.0000
838.2190, 1009.000
839.3550, 992.0000
840.4910, 961.0000
841.6270, 993.0000
842.7630, 956.0000
843.8990, 962.0000
845.0350, 957.0000
846.1700, 945.0000
847.3060, 958.0000
848.4410, 919.0000
849.5760, 924.0000
850.7100, 942.0000
851.8450, 919.0000
852.9800, 930.0000
854.1140, 907.0000
855.2480, 924.0000
856.3820, 911.0000
857.5160, 908.0000
858.6500, 933.0000
859.7830, 895.0000
860.9170, 884.0000
862.0500, 890.0000
863.1830, 900.0000
864.3160, 868.0000
865.4480, 874.0000
866.5810, 905.0000
867.7130, 854.0000
868.8460, 867.0000
869.9780, 871.0000
871.1100, 871.0000
872.2410, 851.0000
873.3730, 875.0000
874.5050, 849.0000
875.6360, 855.0000
876.7670, 837.0000
877.8980, 841.0000
879.0290, 814.0000
880.1590, 830.0000
881.2900, 823.0000
882.4200, 819.5199
883.5500, 811.5055
884.6800, 821.0000
885.8100, 792.0000
886.9400, 794.0000
888.0690, 806.0000
889.1990, 792.0000
890.3280, 809.0000
891.4570, 806.0000
892.5860, 806.0000
893.7140, 760.0000
894.8430, 742.0000
895.9710, 771.0000
897.1000, 816.0000
898.2280, 774.0000
899.3560, 809.0000
900.4830, 761.0000
901.6110, 770.0000
902.7380, 757.0000
903.8660, 754.0000
904.9930, 769.0000
906.1200, 771.0000
907.2460, 777.0000
908.3730, 774.7727
909.5000, 770.0000
910.6260, 766.0000
911.7520, 750.0000
912.8780, 750.0000
914.0040, 772.0000
915.1290, 764.0000
916.2550, 785.0000
917.3800, 777.0000
918.5050, 773.0000
919.6300, 772.0000
920.7550, 773.0000
921.8800, 761.5930
923.0040, 797.0000
924.1290, 747.0000
925.2530, 742.0000
926.3770, 751.0000
927.5010, 784.0000
928.6250, 759.0000
929.7480, 774.0000
930.8720, 768.0000
931.9950, 770.0000
933.1180, 763.0000
934.2410, 776.0000
935.3640, 758.0000
936.4860, 748.0000
937.6090, 758.0000
938.7310, 751.0000
939.8530, 740.0000
940.9750, 737.0000
942.0970, 744.0000
943.2180, 741.0000
944.3400, 757.0000
945.4610, 709.0000
946.5820, 745.0000
947.7030, 736.0000
948.8240, 763.0000
949.9450, 764.0000
951.0650, 758.0000
952.1860, 727.0000
953.3060, 736.0000
954.4260, 727.0000
955.5460, 727.0000
956.6650, 745.0000
957.7850, 710.0000
958.9040, 730.0000
960.0230, 723.0000
961.1420, 723.0000
962.2610, 729.0000
963.3800, 734.0000
964.4990, 731.9825
965.6170, 707.0000
966.7350, 728.0000
967.8530, 709.0000
968.9710, 703.0000
970.0890, 718.0000
971.2070, 719.0000
972.3240, 708.0000
973.4410, 698.0000
974.5580, 689.0000
975.6750, 675.0000
976.7920, 709.0000
977.9090, 687.0000
979.0250, 706.0000
980.1410, 714.0000
981.2580, 692.0000
982.3740, 686.0000
983.4890, 680.0000
984.6050, 677.5311
985.7200, 707.0000
986.8360, 689.0000
987.9510, 691.0000
989.0660, 707.0000
990.1810, 676.0000
991.2950, 695.0000
992.4100, 712.0000
993.5240, 707.0000
994.6390, 700.0000
995.7530, 663.0000
996.8660, 672.0000
997.9800, 684.0000
999.0940, 683.0000
1000.207, 696.0000
1001.320, 675.0000
1002.433, 667.0000
1003.546, 680.0000
1004.659, 676.0000
1005.772, 676.0000
1006.884, 674.0000
1007.996, 682.0000
1009.108, 669.0000
1010.220, 670.0000
1011.332, 658.0000
1012.444, 675.0000
1013.555, 652.0000
1014.666, 644.0000
1015.777, 662.0000
1016.888, 682.0000
1017.999, 671.0000
1019.110, 669.0000
1020.220, 659.0000
1021.331, 674.0000
1022.441, 640.0000
1023.551, 654.0000
1024.661, 659.0000
1025.770, 627.0000
1026.880, 643.0000
1027.989, 641.0000
1029.098, 650.0000
1030.207, 658.0000
1031.316, 659.0000
1032.425, 638.0000
1033.533, 673.0000
1034.642, 658.0000
1035.750, 666.0000
1036.858, 638.0000
1037.966, 636.0000
1039.073, 653.0000
1040.181, 648.0000
1041.288, 628.0000
1042.396, 647.0000
1043.503, 642.0000
1044.610, 646.0000
1045.716, 646.0000
1046.823, 628.0000
1047.929, 638.0000
1049.036, 600.0000
1050.142, 640.0000
1051.248, 634.0000
1052.353, 626.0000
1053.459, 603.0000
1054.564, 619.0000
1055.670, 627.0000
1056.775, 627.0000
1057.880, 623.0000
1058.985, 625.0000
1060.089, 624.0000
1061.194, 630.0000
1062.298, 619.0000
1063.402, 620.0000
1064.506, 617.0000
1065.610, 613.7119
1066.713, 620.0000
1067.817, 610.0000
1068.920, 603.0000
1070.023, 598.3297
1071.126, 610.0000
1072.229, 595.0000
1073.332, 606.0000
1074.435, 602.0000
1075.537, 597.6154
1076.639, 607.0000
1077.741, 594.0000
1078.843, 600.0000
1079.945, 605.0000
1081.046, 570.0000
1082.148, 581.0000
1083.249, 573.0000
1084.350, 596.0000
1085.451, 592.0000
1086.551, 557.0000
1087.652, 590.0000
1088.752, 576.0000
1089.853, 589.0000
1090.953, 583.0000
1092.053, 582.0000
1093.152, 602.0000
1094.252, 603.0000
1095.351, 583.0000
1096.451, 571.0000
1097.550, 567.0000
1098.649, 562.0000
1099.748, 561.8743
1100.846, 563.0000
1101.945, 567.0000
1103.043, 568.0000
1104.141, 570.0000
1105.239, 572.1070
1106.337, 551.0000
1107.434, 571.0000
1108.532, 559.0000
1109.629, 548.0000
1110.726, 562.0000
1111.823, 558.0000
1112.920, 557.0000
1114.017, 555.0000
1115.113, 576.0000
1116.210, 560.0000
1117.306, 595.0000
1118.402, 593.0000
1119.498, 617.0000
1120.593, 616.0000
1121.689, 636.0000
1122.784, 639.0000
1123.879, 636.0000
1124.974, 636.0000
1126.069, 597.0000
1127.164, 597.0000
1128.259, 554.0000
1129.353, 557.0000
1130.447, 564.0000
1131.541, 549.0000
1132.635, 537.0000
1133.729, 545.0000
1134.822, 543.0000
1135.916, 530.0000
1137.009, 548.0000
1138.102, 547.0000
1139.195, 535.0000
1140.288, 518.0000
1141.380, 540.0000
1142.473, 528.0000
1143.565, 555.0000
1144.657, 535.0000
1145.749, 536.0000
1146.841, 509.0000
1147.932, 543.0000
1149.024, 518.0000
1150.115, 512.0000
1151.206, 543.0000
1152.297, 530.0000
1153.388, 524.0000
1154.479, 536.0000
1155.569, 517.0000
1156.659, 537.0000
1157.750, 508.0000
1158.839, 508.0000
1159.929, 504.0000
1161.019, 509.0000
1162.108, 509.6695
1163.198, 514.6266
1164.287, 516.0000
1165.376, 522.0000
1166.465, 525.0000
1167.553, 517.0000
1168.642, 509.0000
1169.730, 512.0000
1170.818, 517.0000
1171.906, 515.0000
1172.994, 509.0000
1174.082, 502.0000
1175.170, 530.0000
1176.257, 494.0000
1177.344, 527.0000
1178.431, 520.0000
1179.518, 497.0000
1180.605, 519.0000
1181.691, 505.0000
1182.778, 512.0000
1183.864, 506.0000
1184.950, 515.0000
1186.036, 513.0000
1187.122, 515.0000
1188.207, 500.0000
1189.292, 513.0000
1190.378, 505.0000
1191.463, 505.0000
1192.548, 507.0000
1193.632, 509.0000
1194.717, 490.0000
1195.801, 518.0000
1196.886, 497.0000
1197.970, 507.0000
1199.054, 496.0000
1200.137, 501.0000
1201.221, 503.0000
1202.305, 493.0000
1203.388, 491.5657
1204.471, 508.0000
1205.554, 485.0000
1206.637, 490.0000
1207.719, 505.0000
1208.802, 483.0000
1209.884, 506.0000
1210.966, 509.0000
1212.048, 497.0000
1213.130, 502.0000
1214.212, 498.0000
1215.293, 510.0000
1216.374, 512.0000
1217.456, 503.0000
1218.536, 507.6187
1219.617, 513.0000
1220.698, 500.0000
1221.778, 493.0000
1222.859, 483.0000
1223.939, 494.0000
1225.019, 501.0000
1226.099, 509.0000
1227.178, 510.0000
1228.258, 519.0000
1229.337, 494.0000
1230.417, 485.0000
1231.496, 496.0000
1232.574, 483.0000
1233.653, 486.5216
1234.732, 513.0000
1235.810, 491.0000
1236.888, 488.0000
1237.966, 498.0000
1239.044, 489.0000
