##NAMES=Brookite
##RRUFFID=R050363
##IDEAL CHEMISTRY=Ti^4+^O_2_
##LOCALITY=Magnet Cove, Arkansas, USA
##OWNER=RRUFF
##SOURCE=University of Arizona Mineral Museum
##DESCRIPTION=Black fragment of a prismatic crystal associated with quartz
##STATUS=The identification of this mineral has been confirmed by X-ray diffraction and chemical analysis
##URL=rruff.info/R050363
##MEASURED CHEMISTRY=(Ti_0.94_Nb^5+^_0.03_Fe^3+^_0.03_)_Î£=1_O_2_
##PIN_ID=L00226
##ORIENTATION=Laser parallel to -a* (-1 0 0). Fiducial mark perpendicular to laser is parallel to b [0 1 0]
51.43100, 851.0000
52.67100, 853.0000
53.91000, 829.0000
55.14900, 817.0000
56.38700, 809.0000
57.62600, 849.0000
58.86400, 863.0000
60.10300, 910.0000
61.34100, 923.0000
62.57900, 1008.000
63.81700, 1043.000
65.05400, 1108.000
66.29200, 1223.000
67.52900, 1432.416
68.76700, 1852.000
70.00400, 1878.000
71.24100, 2173.000
72.47700, 2256.000
73.71400, 2356.000
74.95100, 2702.000
76.18700, 3093.000
77.42300, 3251.000
78.65900, 3612.000
79.89500, 3839.296
81.13100, 3986.000
82.36700, 4284.000
83.60200, 4458.584
84.83700, 4624.579
86.07200, 4898.000
87.30800, 5009.000
88.54200, 5274.000
89.77700, 5639.000
91.01200, 6149.000
92.24600, 6540.000
93.48000, 6667.000
94.71400, 7045.000
95.94800, 7320.000
97.18200, 7448.000
98.41600, 7918.000
99.64900, 8375.000
100.8830, 8680.000
102.1160, 9068.000
103.3490, 9602.352
104.5820, 10221.60
105.8150, 10897.00
107.0470, 11781.00
108.2800, 12902.00
109.5120, 13926.00
110.7440, 13757.00
111.9760, 13874.00
113.2080, 14641.00
114.4400, 15490.00
115.6710, 16978.00
116.9030, 18284.00
118.1340, 19754.00
119.3650, 21487.00
120.5960, 23966.00
121.8270, 26048.00
123.0580, 28309.00
124.2880, 29576.00
125.5190, 29799.00
126.7490, 30108.00
127.9790, 30425.00
129.2090, 31202.00
130.4390, 32112.00
131.6680, 32458.00
132.8980, 33016.00
134.1270, 33110.00
135.3560, 33276.00
136.5850, 34264.00
137.8140, 35399.00
139.0430, 37794.00
140.2710, 40612.00
141.5000, 43879.00
142.7280, 47908.00
143.9560, 51487.00
145.1840, 55011.00
146.4120, 58328.00
147.6390, 61521.00
148.8670, 63839.00
150.0940, 65535.00
151.3210, 65535.00
152.5490, 64567.00
153.7750, 61509.00
155.0020, 56638.00
156.2290, 51039.00
157.4550, 45419.00
158.6810, 39676.00
159.9080, 34763.00
161.1340, 30447.00
162.3590, 27013.00
163.5850, 24135.00
164.8110, 21549.00
166.0360, 19507.00
167.2610, 17770.00
168.4860, 16403.00
169.7110, 15061.00
170.9360, 14108.00
172.1610, 13333.00
173.3850, 12279.00
174.6100, 11671.00
175.8340, 10973.00
177.0580, 10526.00
178.2820, 10141.33
179.5050, 9933.000
180.7290, 9687.000
181.9520, 9543.034
183.1760, 9436.000
184.3990, 9411.000
185.6220, 9464.000
186.8450, 9517.000
188.0670, 9746.000
189.2900, 10125.00
190.5120, 10654.00
191.7340, 10758.00
192.9560, 10600.00
194.1780, 10250.00
195.4000, 9846.000
196.6220, 9516.000
197.8430, 9103.000
199.0640, 9025.000
200.2860, 9078.000
201.5070, 9414.000
202.7270, 9604.000
203.9480, 9646.000
205.1690, 9935.364
206.3890, 9830.000
207.6090, 10321.00
208.8290, 10467.00
210.0490, 10631.00
211.2690, 10241.00
212.4890, 9662.000
213.7080, 8950.000
214.9280, 8451.403
216.1470, 7906.196
217.3660, 7328.000
218.5850, 7047.000
219.8030, 6679.000
221.0220, 6516.000
222.2400, 6518.000
223.4590, 6404.000
224.6770, 6402.000
225.8950, 6391.000
227.1120, 6409.000
228.3300, 6470.000
229.5480, 6592.000
230.7650, 6895.000
231.9820, 7017.000
233.1990, 7437.000
234.4160, 7750.000
235.6330, 8037.000
236.8490, 8963.000
238.0660, 9662.000
239.2820, 11042.00
240.4980, 12479.00
241.7140, 14341.91
242.9300, 16574.00
244.1460, 17950.00
245.3610, 18669.00
246.5770, 18774.00
247.7920, 18082.00
249.0070, 16705.00
250.2220, 15328.00
251.4370, 14216.00
252.6510, 13203.00
253.8660, 12391.32
255.0800, 11820.00
256.2940, 11274.00
257.5080, 10982.00
258.7220, 10839.00
259.9360, 10715.00
261.1490, 10313.00
262.3630, 9918.000
263.5760, 9679.000
264.7890, 9766.000
266.0020, 9671.000
267.2150, 9718.000
268.4270, 9586.000
269.6400, 9683.000
270.8520, 9747.000
272.0640, 9835.000
273.2760, 9928.391
274.4880, 9959.000
275.7000, 10097.00
276.9120, 10174.00
278.1230, 10211.00
279.3340, 10191.00
280.5450, 10230.00
281.7560, 10161.00
282.9670, 10255.00
284.1780, 10040.00
285.3880, 9928.000
286.5980, 9976.000
287.8090, 10006.00
289.0190, 10019.00
290.2290, 10232.00
291.4380, 10463.17
292.6480, 10706.00
293.8570, 11186.00
295.0670, 11570.00
296.2760, 12083.00
297.4850, 13040.00
298.6930, 13716.00
299.9020, 14540.00
301.1110, 15550.00
302.3190, 16474.00
303.5270, 17807.00
304.7350, 19108.00
305.9430, 20273.00
307.1510, 21853.00
308.3580, 22802.00
309.5660, 24392.00
310.7730, 25507.00
311.9800, 26491.00
313.1870, 27220.00
314.3940, 27565.00
315.6010, 27715.00
316.8070, 27570.00
318.0130, 26638.00
319.2200, 26021.00
320.4260, 24690.00
321.6310, 23482.00
322.8370, 22057.00
324.0430, 20384.00
325.2480, 18936.00
326.4540, 17617.00
327.6590, 16303.00
328.8640, 15089.00
330.0680, 14106.00
331.2730, 13183.00
332.4780, 12423.00
333.6820, 11710.00
334.8860, 11020.00
336.0900, 10565.00
337.2940, 10068.00
338.4980, 9571.000
339.7010, 9224.000
340.9050, 8936.000
342.1080, 8571.000
343.3110, 8343.000
344.5140, 8147.000
345.7170, 8060.000
346.9200, 7848.000
348.1220, 7684.000
349.3240, 7557.000
350.5270, 7463.000
351.7290, 7470.000
352.9310, 7437.000
354.1320, 7410.000
355.3340, 7373.000
356.5350, 7404.000
357.7370, 7499.000
358.9380, 7602.000
360.1390, 7646.000
361.3400, 7684.000
362.5400, 7649.347
363.7410, 7585.010
364.9410, 7462.000
366.1410, 7361.000
367.3410, 7148.000
368.5410, 7002.000
369.7410, 7023.000
370.9400, 6983.000
372.1400, 6955.000
373.3390, 7023.000
374.5380, 7006.000
375.7370, 7004.000
376.9360, 6993.000
378.1350, 7021.000
379.3330, 7115.000
380.5310, 7191.000
381.7300, 7252.000
382.9280, 7333.750
384.1260, 7388.380
385.3230, 7454.000
386.5210, 7503.000
387.7180, 7515.000
388.9160, 7572.000
390.1130, 7775.000
391.3100, 7656.000
392.5060, 7837.000
393.7030, 7896.000
394.9000, 7875.000
396.0960, 8038.000
397.2920, 8000.000
398.4880, 7998.000
399.6840, 8226.000
400.8800, 8244.000
402.0750, 8302.000
403.2710, 8372.000
404.4660, 8612.000
405.6610, 8588.000
406.8560, 8471.000
408.0510, 8742.000
409.2450, 8711.000
410.4400, 8594.000
411.6340, 8686.000
412.8280, 8607.000
414.0220, 8478.000
415.2160, 8548.000
416.4100, 8264.000
417.6030, 8208.000
418.7970, 8138.000
419.9900, 8164.000
421.1830, 7778.000
422.3760, 7710.000
423.5690, 7426.000
424.7610, 7336.000
425.9540, 7234.000
427.1460, 7148.000
428.3380, 6973.000
429.5300, 6988.000
430.7220, 6806.000
431.9140, 6862.000
433.1050, 6828.000
434.2970, 6676.000
435.4880, 6720.000
436.6790, 6736.000
437.8700, 6617.000
439.0610, 6715.000
440.2510, 6800.000
441.4420, 6861.000
442.6320, 6944.000
443.8220, 6955.000
445.0120, 7048.000
446.2020, 7106.000
447.3910, 7162.000
448.5810, 7372.000
449.7700, 7388.000
450.9600, 7532.000
452.1490, 7532.000
453.3370, 7755.000
454.5260, 7805.000
455.7150, 7687.000
456.9030, 7962.000
458.0910, 7881.000
459.2800, 7758.000
460.4670, 7951.000
461.6550, 8031.000
462.8430, 7940.000
464.0300, 8118.000
465.2180, 8075.000
466.4050, 8009.000
467.5920, 8085.000
468.7790, 8221.000
469.9650, 8200.000
471.1520, 8250.000
472.3380, 8314.543
473.5250, 8380.227
474.7110, 8453.000
475.8970, 8591.000
477.0820, 8753.000
478.2680, 8901.000
479.4540, 9278.000
480.6390, 9323.000
481.8240, 9640.000
483.0090, 9844.000
484.1940, 9929.000
485.3780, 10380.00
486.5630, 10675.00
487.7470, 11149.00
488.9320, 11552.00
490.1160, 11788.00
491.3000, 12235.00
492.4830, 12305.00
493.6670, 12575.00
494.8500, 12605.00
496.0340, 12727.00
497.2170, 12592.00
498.4000, 12610.00
499.5820, 12349.00
500.7650, 12039.00
501.9480, 11699.00
503.1300, 11414.00
504.3120, 11177.00
505.4940, 10904.00
506.6760, 10459.00
507.8580, 10148.00
509.0390, 9757.000
510.2210, 9562.000
511.4020, 9204.000
512.5830, 9153.000
513.7640, 8862.000
514.9450, 8643.000
516.1250, 8517.000
517.3060, 8390.000
518.4860, 8215.000
519.6660, 8122.000
520.8460, 8102.000
522.0260, 8026.000
523.2060, 8047.000
524.3850, 7987.000
525.5650, 7924.000
526.7440, 8052.000
527.9230, 7816.000
529.1020, 7914.000
530.2810, 8030.000
531.4590, 7986.000
532.6380, 8117.000
533.8160, 8020.000
534.9940, 8203.000
536.1720, 8098.000
537.3500, 8300.000
538.5270, 8248.000
539.7050, 8267.000
540.8820, 8264.000
542.0590, 8244.000
543.2360, 8363.000
544.4130, 8284.186
545.5900, 8208.915
546.7660, 8246.000
547.9430, 8069.000
549.1190, 8130.000
550.2950, 8013.536
551.4710, 7855.000
552.6470, 7827.000
553.8220, 7632.000
554.9980, 7525.000
556.1730, 7483.000
557.3480, 7535.000
558.5230, 7485.000
559.6980, 7338.000
560.8730, 7339.000
562.0470, 7261.000
563.2220, 7260.000
564.3960, 7210.000
565.5700, 7217.000
566.7440, 7109.000
567.9170, 7152.000
569.0910, 7177.000
570.2640, 7235.000
571.4380, 7179.000
572.6110, 7256.000
573.7840, 7259.000
574.9570, 7360.000
576.1290, 7366.000
577.3020, 7446.000
578.4740, 7313.000
579.6460, 7345.000
580.8180, 7469.000
581.9900, 7454.000
583.1620, 7621.000
584.3330, 7636.000
585.5040, 7683.000
586.6760, 7822.000
587.8470, 7806.000
589.0180, 7970.000
590.1880, 8082.000
591.3590, 8081.000
592.5290, 8160.000
593.7000, 8361.000
594.8700, 8311.000
596.0400, 8553.000
597.2090, 8699.000
598.3790, 8741.000
599.5490, 9038.000
600.7180, 9221.000
601.8870, 9410.000
603.0560, 9615.000
604.2250, 9827.000
605.3940, 9975.000
606.5620, 10253.80
607.7300, 10498.00
608.8990, 10786.00
610.0670, 10982.00
611.2350, 11243.00
612.4020, 11632.00
613.5700, 12076.00
614.7370, 12267.00
615.9050, 12617.00
617.0720, 12843.00
618.2390, 13430.00
619.4060, 13592.00
620.5720, 14167.00
621.7390, 14534.00
622.9050, 14872.91
624.0710, 15256.00
625.2370, 15563.00
626.4030, 16071.00
627.5690, 16322.00
628.7340, 16662.00
629.9000, 17041.00
631.0650, 17153.00
632.2300, 17879.00
633.3950, 18260.00
634.5600, 17983.00
635.7240, 17877.00
636.8890, 17877.00
638.0530, 17903.00
639.2170, 18121.00
640.3810, 17793.54
641.5450, 17672.00
642.7080, 17268.00
643.8720, 17041.00
645.0350, 16911.00
646.1980, 16494.00
647.3610, 16105.00
648.5240, 15971.00
649.6870, 15325.00
650.8490, 15135.00
652.0120, 14495.00
653.1740, 14362.00
654.3360, 13916.00
655.4980, 13525.00
656.6600, 13193.00
657.8210, 12765.00
658.9830, 12462.00
660.1440, 12110.00
661.3050, 11715.00
662.4660, 11410.00
663.6270, 11177.00
664.7870, 10754.00
665.9480, 10518.00
667.1080, 10341.00
668.2680, 10022.00
669.4280, 9912.000
670.5880, 9651.000
671.7480, 9458.000
672.9070, 9225.000
674.0670, 9151.000
675.2260, 8915.000
676.3850, 8834.000
677.5440, 8702.000
678.7030, 8492.000
679.8610, 8269.000
681.0200, 8267.000
682.1780, 8085.000
683.3360, 7945.000
684.4940, 7928.000
685.6520, 7801.000
686.8090, 7747.000
687.9670, 7565.000
689.1240, 7543.000
690.2810, 7342.000
691.4380, 7456.000
692.5950, 7346.000
693.7520, 7235.000
694.9080, 7150.000
696.0650, 7085.091
697.2210, 7043.000
698.3770, 6985.000
699.5330, 6949.000
700.6880, 6899.000
701.8440, 6849.847
702.9990, 6812.299
704.1550, 6752.192
705.3100, 6737.662
706.4650, 6691.000
707.6190, 6666.000
708.7740, 6707.000
709.9290, 6609.000
711.0830, 6498.000
712.2370, 6556.000
713.3910, 6471.000
714.5450, 6405.000
715.6980, 6345.000
716.8520, 6420.000
718.0050, 6443.000
719.1580, 6424.000
720.3110, 6329.000
721.4640, 6225.000
722.6170, 6259.000
723.7700, 6139.000
724.9220, 6099.000
726.0740, 6126.000
727.2260, 6036.000
728.3780, 6114.000
729.5300, 6026.000
730.6810, 5997.000
731.8330, 6058.000
732.9840, 6001.000
734.1350, 5963.000
735.2860, 6024.000
736.4370, 5939.000
737.5880, 5929.000
738.7380, 6008.000
739.8880, 5977.000
741.0390, 5880.000
742.1890, 5871.000
743.3380, 5747.000
744.4880, 5810.000
745.6380, 5869.000
746.7870, 5704.000
747.9360, 5746.000
749.0850, 5725.000
750.2340, 5772.000
751.3830, 5696.000
752.5310, 5689.000
753.6800, 5706.000
754.8280, 5608.000
755.9760, 5636.000
757.1240, 5526.000
758.2720, 5572.000
759.4190, 5641.000
760.5670, 5532.000
761.7140, 5584.000
762.8610, 5512.000
764.0080, 5484.000
765.1550, 5486.065
766.3020, 5453.000
767.4480, 5449.000
768.5950, 5419.000
769.7410, 5378.000
770.8870, 5452.000
772.0330, 5330.000
773.1780, 5361.000
774.3240, 5311.000
775.4690, 5218.000
776.6140, 5316.000
777.7590, 5296.000
778.9040, 5254.000
780.0490, 5379.000
781.1940, 5295.000
782.3380, 5257.000
783.4820, 5177.000
784.6260, 5172.160
785.7700, 5257.000
786.9140, 5181.000
788.0580, 5204.000
789.2010, 5233.000
790.3450, 5141.000
791.4880, 5139.000
792.6310, 5205.000
793.7730, 5134.000
794.9160, 5133.000
796.0590, 5092.000
797.2010, 5074.000
798.3430, 5062.000
799.4850, 5036.000
800.6270, 5069.000
801.7690, 5084.000
802.9100, 5067.000
804.0520, 5083.000
805.1930, 5071.000
806.3340, 5081.000
807.4750, 5045.000
808.6160, 5016.000
809.7560, 4995.000
810.8970, 4990.000
812.0370, 4942.000
813.1770, 4951.000
814.3170, 4975.000
815.4570, 4969.000
816.5960, 5009.000
817.7360, 4944.000
818.8750, 4945.000
820.0140, 4990.000
821.1530, 4888.000
822.2920, 4955.000
823.4310, 4825.000
824.5690, 4956.000
825.7070, 4935.000
826.8460, 4901.000
827.9840, 4858.000
829.1220, 4852.513
830.2590, 4856.000
831.3970, 4816.000
832.5340, 4849.000
833.6710, 4797.000
834.8080, 4853.000
835.9450, 4784.000
837.0820, 4759.000
838.2190, 4655.000
839.3550, 4667.000
840.4910, 4704.000
841.6270, 4621.000
842.7630, 4699.000
843.8990, 4628.000
845.0350, 4596.000
846.1700, 4574.000
847.3060, 4583.000
848.4410, 4580.000
849.5760, 4537.000
850.7100, 4592.000
851.8450, 4526.000
852.9800, 4507.000
854.1140, 4431.000
855.2480, 4478.000
856.3820, 4396.000
857.5160, 4357.000
858.6500, 4406.000
859.7830, 4304.000
860.9170, 4353.000
862.0500, 4275.000
863.1830, 4219.000
864.3160, 4209.000
865.4480, 4215.000
866.5810, 4142.000
867.7130, 4166.000
868.8460, 4154.000
869.9780, 3965.000
871.1100, 4034.000
872.2410, 3947.000
873.3730, 4011.000
874.5050, 3969.000
875.6360, 3915.000
876.7670, 3891.000
877.8980, 3859.749
879.0290, 3832.790
880.1590, 3812.000
881.2900, 3803.000
882.4200, 3769.000
883.5500, 3774.849
884.6800, 3789.000
885.8100, 3746.000
886.9400, 3694.000
888.0690, 3671.000
889.1990, 3641.492
890.3280, 3673.000
891.4570, 3615.914
892.5860, 3591.000
893.7140, 3604.000
894.8430, 3525.000
895.9710, 3547.000
897.1000, 3530.000
898.2280, 3452.000
899.3560, 3495.000
900.4830, 3472.000
901.6110, 3425.000
902.7380, 3469.000
903.8660, 3453.000
904.9930, 3415.000
906.1200, 3500.000
907.2460, 3424.000
908.3730, 3427.000
909.5000, 3463.000
910.6260, 3442.000
911.7520, 3336.000
912.8780, 3405.000
914.0040, 3321.000
915.1290, 3344.000
916.2550, 3342.000
917.3800, 3376.000
918.5050, 3339.000
919.6300, 3340.000
920.7550, 3322.000
921.8800, 3334.000
923.0040, 3347.000
924.1290, 3377.000
925.2530, 3358.000
926.3770, 3302.000
927.5010, 3366.000
928.6250, 3287.000
929.7480, 3308.000
930.8720, 3201.000
931.9950, 3268.000
933.1180, 3381.000
934.2410, 3280.000
935.3640, 3315.000
936.4860, 3293.000
937.6090, 3308.000
938.7310, 3224.000
939.8530, 3284.000
940.9750, 3238.000
942.0970, 3253.000
943.2180, 3281.000
944.3400, 3264.000
945.4610, 3260.000
946.5820, 3251.000
947.7030, 3239.000
948.8240, 3264.000
949.9450, 3241.746
951.0650, 3229.000
952.1860, 3237.000
953.3060, 3191.000
954.4260, 3222.000
955.5460, 3163.000
956.6650, 3204.000
957.7850, 3212.000
958.9040, 3170.000
960.0230, 3209.000
961.1420, 3199.000
962.2610, 3136.000
963.3800, 3169.000
964.4990, 3180.000
965.6170, 3160.000
966.7350, 3177.000
967.8530, 3175.000
968.9710, 3179.000
970.0890, 3153.000
971.2070, 3157.391
972.3240, 3153.000
973.4410, 3165.000
974.5580, 3128.000
975.6750, 3165.327
976.7920, 3174.000
977.9090, 3225.000
979.0250, 3220.623
980.1410, 3243.000
981.2580, 3208.000
982.3740, 3252.000
983.4890, 3222.000
984.6050, 3295.000
985.7200, 3408.000
986.8360, 3291.000
987.9510, 3336.000
989.0660, 3300.000
990.1810, 3237.000
991.2950, 3190.000
992.4100, 3214.000
993.5240, 3166.000
994.6390, 3150.000
995.7530, 3150.000
996.8660, 3070.000
997.9800, 3129.000
999.0940, 3105.000
1000.207, 3106.000
1001.320, 3063.000
1002.433, 3099.000
1003.546, 3093.000
1004.659, 3144.000
1005.772, 3115.000
1006.884, 3078.000
1007.996, 3045.000
1009.108, 3056.000
1010.220, 3033.192
1011.332, 3049.000
1012.444, 3033.000
1013.555, 3086.000
1014.666, 3107.000
1015.777, 3084.000
1016.888, 3116.000
1017.999, 3053.000
1019.110, 3109.000
1020.220, 3039.000
1021.331, 3034.000
1022.441, 3055.000
1023.551, 3116.000
1024.661, 3087.000
1025.770, 3110.995
1026.880, 2999.000
1027.989, 3099.000
1029.098, 3073.000
1030.207, 3042.000
1031.316, 3070.000
1032.425, 3014.000
1033.533, 3058.000
1034.642, 3030.000
1035.750, 2972.000
1036.858, 2977.000
1037.966, 2969.314
1039.073, 3064.000
1040.181, 2999.000
1041.288, 3058.000
1042.396, 3089.000
1043.503, 2984.000
1044.610, 3070.000
1045.716, 2991.000
1046.823, 2970.000
1047.929, 2987.000
1049.036, 2931.000
1050.142, 2996.000
1051.248, 2984.000
1052.353, 2977.000
1053.459, 3033.000
1054.564, 3074.000
1055.670, 3001.000
1056.775, 3034.000
1057.880, 2950.000
1058.985, 3009.000
1060.089, 2970.000
1061.194, 3031.000
1062.298, 2972.000
1063.402, 3008.000
1064.506, 2967.000
1065.610, 2981.000
1066.713, 3015.000
1067.817, 3011.000
1068.920, 3019.118
1070.023, 3016.000
1071.126, 3005.000
1072.229, 2996.836
1073.332, 2970.000
1074.435, 2983.000
1075.537, 2952.000
1076.639, 2958.000
1077.741, 2995.000
1078.843, 2955.000
1079.945, 2972.000
1081.046, 3020.000
1082.148, 3072.000
1083.249, 3143.000
1084.350, 3266.000
1085.451, 3331.000
1086.551, 3283.447
1087.652, 3227.000
1088.752, 3124.000
1089.853, 3077.964
1090.953, 3003.706
1092.053, 2957.000
1093.152, 2922.000
1094.252, 2883.000
1095.351, 2948.000
1096.451, 2930.000
1097.550, 2928.000
1098.649, 2880.000
1099.748, 2929.000
1100.846, 2928.000
1101.945, 2903.000
1103.043, 2906.000
1104.141, 2834.000
1105.239, 2926.000
1106.337, 2906.000
1107.434, 2839.000
1108.532, 2884.000
1109.629, 2831.000
1110.726, 2877.000
1111.823, 2814.000
1112.920, 2841.000
1114.017, 2937.000
1115.113, 2906.585
1116.210, 2949.000
1117.306, 2922.000
1118.402, 2996.000
1119.498, 2965.000
1120.593, 3005.000
1121.689, 2989.000
1122.784, 3007.000
1123.879, 3040.000
1124.974, 3033.000
1126.069, 3036.000
1127.164, 2998.000
1128.259, 2923.677
1129.353, 2931.184
1130.447, 2929.536
1131.541, 2919.226
1132.635, 2874.309
1133.729, 2874.079
1134.822, 2855.953
1135.916, 2837.080
1137.009, 2848.000
1138.102, 2853.000
1139.195, 2792.000
1140.288, 2806.000
1141.380, 2801.000
1142.473, 2797.000
1143.565, 2796.000
1144.657, 2756.000
1145.749, 2841.000
1146.841, 2804.000
1147.932, 2806.000
1149.024, 2746.000
1150.115, 2786.000
1151.206, 2774.000
1152.297, 2835.000
1153.388, 2786.000
1154.479, 2740.000
1155.569, 2705.000
1156.659, 2741.000
1157.750, 2739.000
1158.839, 2740.252
1159.929, 2765.000
1161.019, 2743.000
1162.108, 2778.000
1163.198, 2760.000
1164.287, 2720.000
1165.376, 2721.000
1166.465, 2777.000
1167.553, 2728.000
1168.642, 2754.000
1169.730, 2739.000
1170.818, 2741.000
1171.906, 2786.000
1172.994, 2732.000
1174.082, 2664.000
1175.170, 2738.000
1176.257, 2728.000
1177.344, 2730.000
1178.431, 2743.000
1179.518, 2713.000
1180.605, 2684.000
1181.691, 2712.000
1182.778, 2698.000
1183.864, 2762.000
1184.950, 2718.000
1186.036, 2752.000
1187.122, 2730.000
1188.207, 2779.000
1189.292, 2693.000
1190.378, 2800.000
1191.463, 2762.000
1192.548, 2726.000
1193.632, 2790.000
1194.717, 2725.000
1195.801, 2722.000
1196.886, 2695.000
1197.970, 2751.000
1199.054, 2741.000
1200.137, 2760.000
1201.221, 2757.000
1202.305, 2714.000
1203.388, 2707.000
1204.471, 2736.000
1205.554, 2752.000
1206.637, 2731.000
1207.719, 2736.000
1208.802, 2793.000
1209.884, 2708.000
1210.966, 2652.000
1212.048, 2804.000
1213.130, 2956.000
1214.212, 2793.000
1215.293, 2716.000
1216.374, 2749.000
1217.456, 2727.000
1218.536, 2716.230
1219.617, 2811.000
1220.698, 2726.000
1221.778, 2776.000
1222.859, 2806.000
1223.939, 2755.000
1225.019, 2712.000
1226.099, 2735.000
1227.178, 2768.000
1228.258, 2768.000
1229.337, 2695.000
1230.417, 2782.000
1231.496, 2725.000
1232.574, 2762.000
1233.653, 2739.000
1234.732, 2759.000
1235.810, 2749.198
1236.888, 2750.868
