##NAMES=Brookite
##RRUFFID=R050591
##IDEAL CHEMISTRY=Ti^4+^O_2_
##LOCALITY=Taftan, near Dalbandi, Baluchistan, Pakistan
##OWNER=RRUFF
##SOURCE=Wayne Thompson
##DESCRIPTION=Yellowish-brown to reddish-brown thin tabular crystal
##STATUS=The identification of this mineral has been confirmed by X-ray diffraction and chemical analysis
##URL=rruff.info/R050591
##MEASURED CHEMISTRY=Ti_1.00_O_2_
##PIN_ID=M00274
##ORIENTATION=Laser parallel to b* (0 1 0). Fiducial mark perpendicular to laser is parallel to c [0 0 1]
51.43100, 383.0000
52.67100, 384.0000
53.91000, 387.0000
55.14900, 379.0000
56.38700, 402.0000
57.62600, 400.0000
58.86400, 418.0000
60.10300, 415.0000
61.34100, 434.0000
62.57900, 450.0000
63.81700, 467.0000
65.05400, 495.0000
66.29200, 518.0000
67.52900, 536.0000
68.76700, 603.0000
70.00400, 665.0000
71.24100, 684.0000
72.47700, 742.0000
73.71400, 828.0000
74.95100, 903.0000
76.18700, 929.0000
77.42300, 986.0000
78.65900, 1086.000
79.89500, 1189.000
81.13100, 1215.000
82.36700, 1341.000
83.60200, 1389.000
84.83700, 1479.000
86.07200, 1533.000
87.30800, 1678.000
88.54200, 1715.000
89.77700, 1787.000
91.01200, 1848.000
92.24600, 1912.380
93.48000, 2008.000
94.71400, 2073.000
95.94800, 2178.000
97.18200, 2301.000
98.41600, 2401.000
99.64900, 2490.000
100.8830, 2633.000
102.1160, 2688.000
103.3490, 2790.000
104.5820, 2958.000
105.8150, 3147.000
107.0470, 3339.000
108.2800, 3610.000
109.5120, 3881.000
110.7440, 4257.000
111.9760, 4712.000
113.2080, 5319.000
114.4400, 6045.000
115.6710, 7350.000
116.9030, 8768.000
118.1340, 10192.00
119.3650, 11226.00
120.5960, 12023.00
121.8270, 13222.00
123.0580, 13651.33
124.2880, 14092.31
125.5190, 14447.00
126.7490, 14479.00
127.9790, 14607.00
129.2090, 14791.00
130.4390, 14879.00
131.6680, 14658.00
132.8980, 14998.00
134.1270, 15880.00
135.3560, 17370.00
136.5850, 19825.00
137.8140, 23060.00
139.0430, 27522.00
140.2710, 33643.00
141.5000, 40818.00
142.7280, 48050.00
143.9560, 54759.00
145.1840, 60207.00
146.4120, 62897.00
147.6390, 63484.00
148.8670, 62322.00
150.0940, 59358.00
151.3210, 53819.00
152.5490, 47670.00
153.7750, 40992.00
155.0020, 34766.00
156.2290, 29602.00
157.4550, 25034.00
158.6810, 20898.00
159.9080, 17451.00
161.1340, 14803.00
162.3590, 12357.00
163.5850, 10771.00
164.8110, 9288.000
166.0360, 8116.000
167.2610, 7210.000
168.4860, 6509.000
169.7110, 5893.000
170.9360, 5233.000
172.1610, 4763.000
173.3850, 4339.000
174.6100, 4043.000
175.8340, 3786.000
177.0580, 3525.000
178.2820, 3381.000
179.5050, 3228.000
180.7290, 3101.000
181.9520, 3078.000
183.1760, 3034.000
184.3990, 3088.000
185.6220, 3093.007
186.8450, 3241.000
188.0670, 3134.000
189.2900, 3199.000
190.5120, 3136.000
191.7340, 2967.000
192.9560, 2817.000
194.1780, 2700.000
195.4000, 2536.000
196.6220, 2579.000
197.8430, 2473.000
199.0640, 2518.000
200.2860, 2663.000
201.5070, 2883.000
202.7270, 3166.000
203.9480, 3516.000
205.1690, 3903.000
206.3890, 3968.000
207.6090, 4136.000
208.8290, 4077.000
210.0490, 3925.000
211.2690, 3691.000
212.4890, 3195.000
213.7080, 2690.000
214.9280, 2469.000
216.1470, 2271.000
217.3660, 2154.000
218.5850, 1994.000
219.8030, 1875.000
221.0220, 1836.000
222.2400, 1733.000
223.4590, 1678.000
224.6770, 1690.000
225.8950, 1669.000
227.1120, 1673.000
228.3300, 1791.000
229.5480, 1836.000
230.7650, 2025.000
231.9820, 2240.000
233.1990, 2681.834
234.4160, 3074.000
235.6330, 3884.000
236.8490, 4756.000
238.0660, 5684.000
239.2820, 6382.000
240.4980, 6752.000
241.7140, 7148.000
242.9300, 7087.000
244.1460, 6739.000
245.3610, 6188.000
246.5770, 5583.000
247.7920, 4977.000
249.0070, 4713.000
250.2220, 4331.000
251.4370, 4065.000
252.6510, 3827.000
253.8660, 3653.000
255.0800, 3487.000
256.2940, 3357.000
257.5080, 3240.000
258.7220, 3231.000
259.9360, 3161.000
261.1490, 3118.000
262.3630, 3107.000
263.5760, 3046.000
264.7890, 3054.000
266.0020, 3080.000
267.2150, 3053.000
268.4270, 3115.000
269.6400, 3202.000
270.8520, 3268.000
272.0640, 3314.000
273.2760, 3399.000
274.4880, 3545.000
275.7000, 3597.000
276.9120, 3702.000
278.1230, 3743.000
279.3340, 3875.000
280.5450, 3836.000
281.7560, 3918.000
282.9670, 3842.000
284.1780, 3805.000
285.3880, 3823.000
286.5980, 3847.000
287.8090, 3888.198
289.0190, 3944.235
290.2290, 4038.000
291.4380, 4107.000
292.6480, 4226.000
293.8570, 4367.000
295.0670, 4606.000
296.2760, 4933.000
297.4850, 5335.000
298.6930, 5800.000
299.9020, 6222.000
301.1110, 6748.000
302.3190, 7418.000
303.5270, 8262.000
304.7350, 9089.000
305.9430, 10229.00
307.1510, 11287.00
308.3580, 12609.00
309.5660, 13792.00
310.7730, 14716.00
311.9800, 15646.00
313.1870, 16276.00
314.3940, 16259.00
315.6010, 15905.00
316.8070, 15307.00
318.0130, 14436.00
319.2200, 13682.00
320.4260, 12273.00
321.6310, 11230.00
322.8370, 10054.00
324.0430, 9044.000
325.2480, 8220.000
326.4540, 7295.000
327.6590, 6542.000
328.8640, 5812.000
330.0680, 5317.000
331.2730, 4849.000
332.4780, 4494.000
333.6820, 4118.000
334.8860, 3866.000
336.0900, 3633.000
337.2940, 3460.000
338.4980, 3271.014
339.7010, 3102.000
340.9050, 2987.000
342.1080, 2890.000
343.3110, 2808.000
344.5140, 2732.330
345.7170, 2669.128
346.9200, 2616.000
348.1220, 2581.000
349.3240, 2539.000
350.5270, 2536.229
351.7290, 2420.000
352.9310, 2508.000
354.1320, 2477.000
355.3340, 2452.000
356.5350, 2540.000
357.7370, 2499.000
358.9380, 2516.000
360.1390, 2519.000
361.3400, 2500.000
362.5400, 2531.000
363.7410, 2548.000
364.9410, 2469.000
366.1410, 2416.000
367.3410, 2433.000
368.5410, 2386.000
369.7410, 2410.000
370.9400, 2405.000
372.1400, 2377.000
373.3390, 2418.000
374.5380, 2419.000
375.7370, 2359.000
376.9360, 2400.000
378.1350, 2426.000
379.3330, 2430.000
380.5310, 2501.000
381.7300, 2504.000
382.9280, 2566.000
384.1260, 2557.000
385.3230, 2626.000
386.5210, 2700.000
387.7180, 2773.000
388.9160, 2879.000
390.1130, 2960.000
391.3100, 3047.000
392.5060, 3187.000
393.7030, 3342.000
394.9000, 3534.000
396.0960, 3654.000
397.2920, 3927.000
398.4880, 4026.000
399.6840, 4257.000
400.8800, 4462.000
402.0750, 4681.000
403.2710, 4948.000
404.4660, 4974.000
405.6610, 5165.000
406.8560, 5188.000
408.0510, 5135.000
409.2450, 5033.000
410.4400, 4930.000
411.6340, 4687.000
412.8280, 4543.000
414.0220, 4239.000
415.2160, 3959.000
416.4100, 3729.000
417.6030, 3504.000
418.7970, 3315.000
419.9900, 3153.000
421.1830, 2945.000
422.3760, 2752.000
423.5690, 2681.000
424.7610, 2474.000
425.9540, 2352.000
427.1460, 2303.000
428.3380, 2231.000
429.5300, 2197.000
430.7220, 2060.000
431.9140, 2051.000
433.1050, 1987.000
434.2970, 2019.000
435.4880, 2045.000
436.6790, 1988.000
437.8700, 2055.000
439.0610, 2090.000
440.2510, 2149.000
441.4420, 2155.000
442.6320, 2230.000
443.8220, 2308.000
445.0120, 2361.000
446.2020, 2322.000
447.3910, 2372.000
448.5810, 2371.000
449.7700, 2439.000
450.9600, 2378.000
452.1490, 2422.000
453.3370, 2376.000
454.5260, 2332.000
455.7150, 2263.000
456.9030, 2307.000
458.0910, 2299.000
459.2800, 2218.000
460.4670, 2279.000
461.6550, 2241.000
462.8430, 2259.000
464.0300, 2250.000
465.2180, 2184.000
466.4050, 2249.000
467.5920, 2270.000
468.7790, 2227.000
469.9650, 2238.000
471.1520, 2253.000
472.3380, 2276.959
473.5250, 2325.993
474.7110, 2385.000
475.8970, 2462.000
477.0820, 2557.000
478.2680, 2671.000
479.4540, 2822.000
480.6390, 3002.000
481.8240, 3082.000
483.0090, 3340.000
484.1940, 3553.000
485.3780, 3827.000
486.5630, 4164.000
487.7470, 4528.000
488.9320, 4909.000
490.1160, 5233.000
491.3000, 5753.000
492.4830, 6102.000
493.6670, 6606.000
494.8500, 6913.000
496.0340, 7059.000
497.2170, 7083.000
498.4000, 6979.000
499.5820, 6759.000
500.7650, 6509.000
501.9480, 5953.000
503.1300, 5631.000
504.3120, 5271.000
505.4940, 4775.000
506.6760, 4430.000
507.8580, 4034.000
509.0390, 3820.000
510.2210, 3537.000
511.4020, 3297.000
512.5830, 3158.000
513.7640, 3000.000
514.9450, 2892.000
516.1250, 2794.253
517.3060, 2717.376
518.4860, 2657.000
519.6660, 2611.000
520.8460, 2585.000
522.0260, 2531.000
523.2060, 2547.000
524.3850, 2599.000
525.5650, 2596.000
526.7440, 2589.000
527.9230, 2673.000
529.1020, 2661.000
530.2810, 2692.000
531.4590, 2729.000
532.6380, 2759.000
533.8160, 2844.000
534.9940, 2785.000
536.1720, 2825.000
537.3500, 2849.000
538.5270, 2925.000
539.7050, 2940.000
540.8820, 2885.000
542.0590, 2885.000
543.2360, 2927.000
544.4130, 2851.000
545.5900, 2829.000
546.7660, 2766.000
547.9430, 2799.000
549.1190, 2752.000
550.2950, 2641.000
551.4710, 2674.000
552.6470, 2560.000
553.8220, 2615.000
554.9980, 2541.000
556.1730, 2536.000
557.3480, 2551.000
558.5230, 2576.000
559.6980, 2565.000
560.8730, 2542.000
562.0470, 2532.000
563.2220, 2589.000
564.3960, 2590.000
565.5700, 2702.000
566.7440, 2681.000
567.9170, 2670.000
569.0910, 2775.000
570.2640, 2798.000
571.4380, 2862.000
572.6110, 2960.000
573.7840, 2934.000
574.9570, 3013.000
576.1290, 3097.000
577.3020, 3135.000
578.4740, 3240.000
579.6460, 3312.000
580.8180, 3392.415
581.9900, 3477.000
583.1620, 3583.000
584.3330, 3641.000
585.5040, 3767.495
586.6760, 3737.000
587.8470, 3901.000
589.0180, 4012.000
590.1880, 3997.000
591.3590, 4199.000
592.5290, 4328.000
593.7000, 4480.000
594.8700, 4670.000
596.0400, 4741.000
597.2090, 5041.000
598.3790, 5151.000
599.5490, 5311.000
600.7180, 5599.000
601.8870, 5796.000
603.0560, 6076.000
604.2250, 6310.000
605.3940, 6708.000
606.5620, 6849.000
607.7300, 7207.000
608.8990, 7535.000
610.0670, 8033.000
611.2350, 8333.000
612.4020, 8786.000
613.5700, 9269.000
614.7370, 9726.000
615.9050, 10300.00
617.0720, 10776.00
618.2390, 11571.00
619.4060, 11973.00
620.5720, 12834.00
621.7390, 13203.00
622.9050, 13961.00
624.0710, 14728.00
625.2370, 15329.00
626.4030, 15957.00
627.5690, 16598.00
628.7340, 16989.00
629.9000, 17569.00
631.0650, 17927.00
632.2300, 18176.00
633.3950, 18291.00
634.5600, 18291.23
635.7240, 18009.00
636.8890, 17888.00
638.0530, 17573.00
639.2170, 16993.00
640.3810, 16526.00
641.5450, 16056.00
642.7080, 15447.00
643.8720, 14809.00
645.0350, 14126.00
646.1980, 13503.00
647.3610, 12871.70
648.5240, 12233.00
649.6870, 11655.00
650.8490, 11061.00
652.0120, 10494.00
653.1740, 9969.000
654.3360, 9446.000
655.4980, 8984.435
656.6600, 8554.424
657.8210, 8138.000
658.9830, 7812.000
660.1440, 7465.000
661.3050, 7199.000
662.4660, 6824.000
663.6270, 6710.000
664.7870, 6299.000
665.9480, 6109.000
667.1080, 5838.000
668.2680, 5646.000
669.4280, 5491.000
670.5880, 5211.000
671.7480, 5067.000
672.9070, 5015.000
674.0670, 4811.000
675.2260, 4695.000
676.3850, 4682.000
677.5440, 4409.000
678.7030, 4380.000
679.8610, 4271.000
681.0200, 4209.000
682.1780, 4152.000
683.3360, 3975.000
684.4940, 3938.000
685.6520, 3839.000
686.8090, 3778.000
687.9670, 3658.000
689.1240, 3662.000
690.2810, 3616.000
691.4380, 3534.000
692.5950, 3443.000
693.7520, 3425.000
694.9080, 3310.000
696.0650, 3322.000
697.2210, 3243.000
698.3770, 3262.000
699.5330, 3170.000
700.6880, 3140.000
701.8440, 3042.000
702.9990, 3090.000
704.1550, 3052.000
705.3100, 3024.000
706.4650, 2974.000
707.6190, 2936.000
708.7740, 2945.000
709.9290, 2903.000
711.0830, 2844.000
712.2370, 2847.000
713.3910, 2841.000
714.5450, 2816.000
715.6980, 2759.000
716.8520, 2754.000
718.0050, 2697.000
719.1580, 2659.000
720.3110, 2650.000
721.4640, 2602.000
722.6170, 2594.000
723.7700, 2578.048
724.9220, 2600.000
726.0740, 2563.000
727.2260, 2571.000
728.3780, 2576.000
729.5300, 2504.000
730.6810, 2538.000
731.8330, 2485.000
732.9840, 2447.000
734.1350, 2418.000
735.2860, 2426.000
736.4370, 2390.000
737.5880, 2424.000
738.7380, 2378.000
739.8880, 2397.000
741.0390, 2318.000
742.1890, 2338.000
743.3380, 2284.000
744.4880, 2306.000
745.6380, 2283.000
746.7870, 2226.000
747.9360, 2233.000
749.0850, 2221.000
750.2340, 2246.000
751.3830, 2160.000
752.5310, 2243.000
753.6800, 2195.000
754.8280, 2243.000
755.9760, 2173.000
757.1240, 2152.000
758.2720, 2139.000
759.4190, 2097.000
760.5670, 2095.834
761.7140, 2102.000
762.8610, 2070.000
764.0080, 2040.000
765.1550, 2003.000
766.3020, 2022.000
767.4480, 2040.000
768.5950, 2059.000
769.7410, 1991.000
770.8870, 1992.000
772.0330, 1958.000
773.1780, 1910.000
774.3240, 1970.000
775.4690, 1931.000
776.6140, 1895.000
777.7590, 1917.000
778.9040, 1841.000
780.0490, 1841.000
781.1940, 1845.000
782.3380, 1827.000
783.4820, 1845.000
784.6260, 1816.000
785.7700, 1830.000
786.9140, 1793.000
788.0580, 1795.000
789.2010, 1794.000
790.3450, 1747.000
791.4880, 1778.000
792.6310, 1750.000
793.7730, 1741.000
794.9160, 1689.000
796.0590, 1762.000
797.2010, 1732.000
798.3430, 1668.000
799.4850, 1720.000
800.6270, 1673.000
801.7690, 1705.000
802.9100, 1726.000
804.0520, 1691.000
805.1930, 1658.000
806.3340, 1689.000
807.4750, 1652.000
808.6160, 1688.000
809.7560, 1648.000
810.8970, 1634.000
812.0370, 1594.000
813.1770, 1603.000
814.3170, 1579.000
815.4570, 1563.000
816.5960, 1567.000
817.7360, 1543.000
818.8750, 1545.000
820.0140, 1530.369
821.1530, 1527.000
822.2920, 1500.000
823.4310, 1509.000
824.5690, 1487.000
825.7070, 1452.000
826.8460, 1467.000
827.9840, 1466.000
829.1220, 1427.000
830.2590, 1435.000
831.3970, 1420.000
832.5340, 1396.000
833.6710, 1365.000
834.8080, 1381.000
835.9450, 1395.000
837.0820, 1325.000
838.2190, 1297.000
839.3550, 1302.000
840.4910, 1336.000
841.6270, 1277.000
842.7630, 1309.000
843.8990, 1344.000
845.0350, 1315.000
846.1700, 1261.000
847.3060, 1317.000
848.4410, 1272.000
849.5760, 1283.000
850.7100, 1252.000
851.8450, 1243.000
852.9800, 1247.000
854.1140, 1230.668
855.2480, 1237.000
856.3820, 1226.000
857.5160, 1214.000
858.6500, 1223.000
859.7830, 1173.000
860.9170, 1165.000
862.0500, 1169.000
863.1830, 1171.000
864.3160, 1147.000
865.4480, 1158.000
866.5810, 1141.000
867.7130, 1132.622
868.8460, 1094.000
869.9780, 1107.000
871.1100, 1108.000
872.2410, 1082.000
873.3730, 1088.557
874.5050, 1097.000
875.6360, 1078.000
876.7670, 1072.000
877.8980, 1073.000
879.0290, 1058.581
880.1590, 1033.000
881.2900, 1048.000
882.4200, 1031.000
883.5500, 1039.000
884.6800, 1029.000
885.8100, 1037.000
886.9400, 985.0000
888.0690, 991.0000
889.1990, 1017.000
890.3280, 963.0000
891.4570, 978.0000
892.5860, 949.0000
893.7140, 989.0000
894.8430, 977.0000
895.9710, 948.0000
897.1000, 948.0000
898.2280, 955.0000
899.3560, 933.0000
900.4830, 942.3218
901.6110, 964.0000
902.7380, 944.0000
903.8660, 940.0000
904.9930, 938.7771
906.1200, 934.0000
907.2460, 950.0000
908.3730, 968.0000
909.5000, 977.0000
910.6260, 961.0000
911.7520, 936.0000
912.8780, 921.0000
914.0040, 948.0000
915.1290, 911.0000
916.2550, 886.0000
917.3800, 949.0000
918.5050, 946.0000
919.6300, 943.0000
920.7550, 931.0000
921.8800, 913.0000
923.0040, 934.0000
924.1290, 951.0000
925.2530, 929.0000
926.3770, 881.0000
927.5010, 901.0000
928.6250, 911.0000
929.7480, 929.0000
930.8720, 930.0000
931.9950, 897.0000
933.1180, 900.0000
934.2410, 892.0000
935.3640, 889.0000
936.4860, 891.0000
937.6090, 922.0000
938.7310, 900.0000
939.8530, 854.0000
940.9750, 871.0000
942.0970, 892.0000
943.2180, 870.0000
944.3400, 899.0000
945.4610, 858.0000
946.5820, 851.0000
947.7030, 871.0000
948.8240, 846.0000
949.9450, 835.0000
951.0650, 887.0000
952.1860, 875.0000
953.3060, 859.0000
954.4260, 813.0000
955.5460, 856.0000
956.6650, 857.0000
957.7850, 832.0000
958.9040, 827.0000
960.0230, 819.0000
961.1420, 809.1945
962.2610, 836.0000
963.3800, 810.0000
964.4990, 806.0000
965.6170, 829.0000
966.7350, 814.0000
967.8530, 796.0000
968.9710, 816.0000
970.0890, 827.0000
971.2070, 817.0000
972.3240, 790.0000
973.4410, 773.0000
974.5580, 817.0000
975.6750, 819.0000
976.7920, 781.0000
977.9090, 813.0000
979.0250, 805.0000
980.1410, 805.0000
981.2580, 805.0000
982.3740, 785.0000
983.4890, 783.0000
984.6050, 781.0000
985.7200, 780.0000
986.8360, 780.4931
987.9510, 783.2382
989.0660, 782.0000
990.1810, 784.0000
991.2950, 783.0000
992.4100, 767.0000
993.5240, 806.0000
994.6390, 760.0000
995.7530, 798.0000
996.8660, 775.0000
997.9800, 764.0000
999.0940, 764.0000
1000.207, 780.0000
1001.320, 758.0000
1002.433, 757.0000
1003.546, 765.0000
1004.659, 752.0000
1005.772, 733.0000
1006.884, 736.0000
1007.996, 761.0000
1009.108, 753.0000
1010.220, 775.0000
1011.332, 762.0000
1012.444, 722.0000
1013.555, 746.0000
1014.666, 729.0000
1015.777, 752.0000
1016.888, 764.0000
1017.999, 721.0000
1019.110, 736.0000
1020.220, 727.0000
1021.331, 720.0000
1022.441, 705.0000
1023.551, 739.0000
1024.661, 704.0000
1025.770, 716.0000
1026.880, 697.0000
1027.989, 730.0000
1029.098, 725.0000
1030.207, 696.0000
1031.316, 710.0000
1032.425, 716.0000
1033.533, 719.0000
1034.642, 706.0000
1035.750, 714.0000
1036.858, 714.0000
1037.966, 709.0000
1039.073, 720.0000
1040.181, 712.0000
1041.288, 699.0000
1042.396, 713.0000
1043.503, 705.0000
1044.610, 688.0000
1045.716, 683.0000
1046.823, 693.0000
1047.929, 688.0000
1049.036, 688.0000
1050.142, 694.0000
1051.248, 688.0000
1052.353, 702.0000
1053.459, 690.0000
1054.564, 687.0000
1055.670, 689.0000
1056.775, 681.0000
1057.880, 674.0000
1058.985, 681.0000
1060.089, 692.0000
1061.194, 670.0000
1062.298, 692.0000
1063.402, 659.0000
1064.506, 685.0000
1065.610, 697.0000
1066.713, 686.0000
1067.817, 638.0000
1068.920, 687.0000
1070.023, 662.0000
1071.126, 682.0000
1072.229, 678.0000
1073.332, 689.0000
1074.435, 631.0000
1075.537, 679.0000
1076.639, 645.0000
1077.741, 650.0000
1078.843, 667.0000
1079.945, 643.0000
1081.046, 655.0000
1082.148, 652.0000
1083.249, 658.0000
1084.350, 636.0000
1085.451, 651.0000
1086.551, 627.0000
1087.652, 657.0000
1088.752, 630.0000
1089.853, 647.0000
1090.953, 639.0000
1092.053, 626.0000
1093.152, 620.0000
1094.252, 620.0391
1095.351, 631.0000
1096.451, 625.0000
1097.550, 628.0523
1098.649, 630.0000
1099.748, 622.0000
1100.846, 614.0000
1101.945, 611.0000
1103.043, 608.2733
1104.141, 607.8866
1105.239, 609.0000
1106.337, 611.0000
1107.434, 614.0000
1108.532, 615.0000
1109.629, 622.6951
1110.726, 619.0000
1111.823, 634.0000
1112.920, 617.0000
1114.017, 611.0000
1115.113, 614.0000
1116.210, 594.0000
1117.306, 616.0000
1118.402, 634.0000
1119.498, 632.0000
1120.593, 636.0000
1121.689, 639.0000
1122.784, 636.0000
1123.879, 623.0000
1124.974, 608.0000
1126.069, 629.0000
1127.164, 607.0000
1128.259, 592.0000
1129.353, 606.0000
1130.447, 591.0000
1131.541, 589.0000
1132.635, 601.0000
1133.729, 576.0000
1134.822, 576.0000
1135.916, 599.0000
1137.009, 593.0000
1138.102, 614.0000
1139.195, 597.0000
1140.288, 589.0000
1141.380, 599.0000
1142.473, 575.0000
1143.565, 603.0000
1144.657, 582.0000
1145.749, 583.0000
1146.841, 577.0000
1147.932, 605.0000
1149.024, 599.0000
1150.115, 609.0000
1151.206, 573.0000
1152.297, 566.0000
1153.388, 579.0000
1154.479, 557.0000
1155.569, 576.0000
1156.659, 586.0000
1157.750, 590.0000
1158.839, 585.0000
1159.929, 574.0000
1161.019, 546.0000
1162.108, 616.0000
1163.198, 563.0000
1164.287, 582.0000
1165.376, 578.0000
1166.465, 544.0000
1167.553, 571.0000
1168.642, 563.0000
1169.730, 564.0000
1170.818, 569.0000
1171.906, 558.0000
1172.994, 561.0000
1174.082, 560.0000
1175.170, 557.0000
1176.257, 559.9965
1177.344, 561.6429
1178.431, 561.0000
1179.518, 568.0000
1180.605, 565.0000
1181.691, 565.0000
1182.778, 556.0000
1183.864, 571.0000
1184.950, 549.0000
1186.036, 562.0000
1187.122, 551.0000
1188.207, 545.0000
1189.292, 549.0000
1190.378, 545.0000
1191.463, 572.0000
1192.548, 583.0000
1193.632, 549.0000
1194.717, 565.0000
1195.801, 529.0000
1196.886, 556.0000
1197.970, 564.0000
1199.054, 551.0000
1200.137, 552.0000
1201.221, 551.0000
1202.305, 549.0000
1203.388, 549.0000
1204.471, 560.0000
1205.554, 574.0000
1206.637, 571.0000
1207.719, 556.0000
1208.802, 560.0000
1209.884, 540.0000
1210.966, 558.0000
1212.048, 556.0000
1213.130, 556.0000
1214.212, 552.0000
1215.293, 551.0000
1216.374, 554.0000
1217.456, 566.0000
1218.536, 551.0000
1219.617, 563.0000
1220.698, 542.0000
1221.778, 550.0000
1222.859, 566.0000
1223.939, 567.0000
1225.019, 570.0000
1226.099, 582.0000
1227.178, 559.0000
1228.258, 542.0000
1229.337, 573.0000
1230.417, 545.0000
1231.496, 559.0000
1232.574, 554.0000
1233.653, 570.0000
1234.732, 548.0000
1235.810, 546.0000
1236.888, 553.0000
1237.966, 520.0000
1239.044, 545.0000
