##NAMES=Brucite
##RRUFFID=R050455
##IDEAL CHEMISTRY=Mg(OH)_2_
##LOCALITY=Texas, Lancaster County, Pennsylvania, USA
##OWNER=RRUFF
##SOURCE=University of Arizona Mineral Museum
##DESCRIPTION=Group of green tabular crystals
##STATUS=The identification of this mineral has been confirmed by X-ray diffraction and chemical analysis
##URL=rruff.info/R050455
##MEASURED CHEMISTRY=(Mg_0.99_Mn_0.01_)(OH)_2_
##PIN_ID=M00147
##ORIENTATION=Laser parallel to c* (0 0 1). Fiducial mark perpendicular to laser is parallel to a [1 0 0]
158.6810, 17315.00
159.9080, 17422.00
161.1340, 17571.00
162.3590, 17447.00
163.5850, 17447.00
164.8110, 17750.00
166.0360, 17721.00
167.2610, 17771.00
168.4860, 17698.00
169.7110, 17909.00
170.9360, 17919.00
172.1610, 17983.00
173.3850, 17889.00
174.6100, 17831.00
175.8340, 17991.00
177.0580, 17946.00
178.2820, 17957.00
179.5050, 17888.00
180.7290, 17979.00
181.9520, 18185.00
183.1760, 18018.00
184.3990, 18077.00
185.6220, 18268.00
186.8450, 17995.00
188.0670, 18170.00
189.2900, 18282.00
190.5120, 18378.00
191.7340, 18363.00
192.9560, 18278.00
194.1780, 18429.00
195.4000, 18588.00
196.6220, 18328.00
197.8430, 18462.00
199.0640, 18543.00
200.2860, 18516.00
201.5070, 18694.00
202.7270, 18504.00
203.9480, 18922.00
205.1690, 18799.00
206.3890, 18695.00
207.6090, 18714.00
208.8290, 18751.00
210.0490, 18728.00
211.2690, 18841.00
212.4890, 18740.00
213.7080, 18959.00
214.9280, 18922.00
216.1470, 19028.00
217.3660, 18868.00
218.5850, 19039.00
219.8030, 19056.00
221.0220, 19094.00
222.2400, 19125.00
223.4590, 19163.00
224.6770, 19231.00
225.8950, 19203.00
227.1120, 19296.00
228.3300, 19391.00
229.5480, 19298.00
230.7650, 19311.00
231.9820, 19441.00
233.1990, 19472.00
234.4160, 19444.00
235.6330, 19268.00
236.8490, 19466.00
238.0660, 19555.00
239.2820, 19430.00
240.4980, 19592.00
241.7140, 19816.00
242.9300, 19667.00
244.1460, 19875.00
245.3610, 19666.00
246.5770, 19774.00
247.7920, 20003.00
249.0070, 19822.00
250.2220, 20129.00
251.4370, 19816.00
252.6510, 20041.00
253.8660, 20212.00
255.0800, 20020.00
256.2940, 20156.00
257.5080, 20235.00
258.7220, 20064.00
259.9360, 20344.00
261.1490, 20533.00
262.3630, 20651.00
263.5760, 20639.00
264.7890, 20727.00
266.0020, 20963.00
267.2150, 21116.00
268.4270, 21399.00
269.6400, 21727.00
270.8520, 22056.00
272.0640, 22430.00
273.2760, 22651.00
274.4880, 23081.00
275.7000, 23191.00
276.9120, 23200.00
278.1230, 23218.00
279.3340, 23022.00
280.5450, 22857.00
281.7560, 22395.00
282.9670, 22085.00
284.1780, 21815.00
285.3880, 21544.00
286.5980, 21459.00
287.8090, 21123.00
289.0190, 21100.00
290.2290, 20963.00
291.4380, 21010.00
292.6480, 20936.00
293.8570, 21117.00
295.0670, 20996.00
296.2760, 21066.00
297.4850, 21033.00
298.6930, 21062.00
299.9020, 20974.00
301.1110, 20890.00
302.3190, 20926.00
303.5270, 20888.00
304.7350, 21132.00
305.9430, 20967.00
307.1510, 20977.00
308.3580, 21120.00
309.5660, 20923.00
310.7730, 21148.00
311.9800, 21215.00
313.1870, 21261.00
314.3940, 21089.00
315.6010, 21302.00
316.8070, 21176.00
318.0130, 21190.00
319.2200, 21389.00
320.4260, 21241.00
321.6310, 21271.00
322.8370, 21331.00
324.0430, 21391.00
325.2480, 21322.00
326.4540, 21427.00
327.6590, 21496.00
328.8640, 21491.00
330.0680, 21451.00
331.2730, 21619.00
332.4780, 21486.00
333.6820, 21589.00
334.8860, 21659.00
336.0900, 21492.00
337.2940, 21674.00
338.4980, 21653.00
339.7010, 21727.00
340.9050, 21797.00
342.1080, 21816.00
343.3110, 21731.00
344.5140, 21908.00
345.7170, 21790.00
346.9200, 21774.00
348.1220, 21818.00
349.3240, 21914.00
350.5270, 22023.00
351.7290, 22033.00
352.9310, 21938.00
354.1320, 22009.00
355.3340, 22114.00
356.5350, 21929.00
357.7370, 22166.00
358.9380, 22192.00
360.1390, 22303.00
361.3400, 22152.00
362.5400, 22295.00
363.7410, 22297.00
364.9410, 22205.00
366.1410, 22325.00
367.3410, 22473.00
368.5410, 22225.00
369.7410, 22230.00
370.9400, 22360.00
372.1400, 22340.00
373.3390, 22509.00
374.5380, 22549.00
375.7370, 22257.00
376.9360, 22448.00
378.1350, 22378.00
379.3330, 22519.00
380.5310, 22435.00
381.7300, 22538.00
382.9280, 22544.00
384.1260, 22735.00
385.3230, 22664.00
386.5210, 22676.00
387.7180, 22727.00
388.9160, 22543.00
390.1130, 22656.00
391.3100, 22762.00
392.5060, 22898.00
393.7030, 22855.00
394.9000, 22854.00
396.0960, 22895.00
397.2920, 23062.00
398.4880, 23013.00
399.6840, 22987.00
400.8800, 23147.00
402.0750, 23024.00
403.2710, 23139.00
404.4660, 23074.00
405.6610, 23251.00
406.8560, 23246.00
408.0510, 23370.00
409.2450, 23333.00
410.4400, 23403.00
411.6340, 23413.00
412.8280, 23487.00
414.0220, 23571.00
415.2160, 23359.00
416.4100, 23671.00
417.6030, 23677.00
418.7970, 23940.00
419.9900, 24007.00
421.1830, 23970.00
422.3760, 24057.00
423.5690, 24200.00
424.7610, 24300.00
425.9540, 24276.00
427.1460, 24569.00
428.3380, 24654.00
429.5300, 25237.00
430.7220, 25579.00
431.9140, 26342.00
433.1050, 26913.00
434.2970, 27795.00
435.4880, 28986.00
436.6790, 29564.00
437.8700, 30766.00
439.0610, 31677.00
440.2510, 32455.00
441.4420, 32810.00
442.6320, 32597.00
443.8220, 31481.00
445.0120, 30606.00
446.2020, 29274.00
447.3910, 28498.00
448.5810, 27905.00
449.7700, 26879.00
450.9600, 26473.00
452.1490, 26007.00
453.3370, 25248.00
454.5260, 25500.00
455.7150, 25244.00
456.9030, 25059.00
458.0910, 24934.00
459.2800, 24968.00
460.4670, 24822.00
461.6550, 24760.00
462.8430, 24773.00
464.0300, 24825.00
465.2180, 24691.00
466.4050, 24885.00
467.5920, 24808.00
468.7790, 24721.00
469.9650, 24741.00
471.1520, 24802.00
472.3380, 24865.00
473.5250, 24638.00
474.7110, 24817.00
475.8970, 24626.00
477.0820, 24915.00
478.2680, 24822.00
479.4540, 24959.00
480.6390, 24856.00
481.8240, 24768.00
483.0090, 25043.00
484.1940, 24984.00
485.3780, 24963.00
486.5630, 24858.00
487.7470, 24981.00
488.9320, 24977.00
490.1160, 24874.00
491.3000, 24938.00
492.4830, 24947.00
493.6670, 24965.00
494.8500, 25167.00
496.0340, 25210.00
497.2170, 25081.00
498.4000, 25121.00
499.5820, 25141.00
500.7650, 25216.00
501.9480, 25240.00
503.1300, 25170.00
504.3120, 25145.00
505.4940, 25362.00
506.6760, 25399.00
507.8580, 25202.00
509.0390, 25302.00
510.2210, 25336.00
511.4020, 25406.00
512.5830, 25454.00
513.7640, 25616.00
514.9450, 25473.00
516.1250, 25430.00
517.3060, 25572.00
518.4860, 25515.00
519.6660, 25667.00
520.8460, 25815.00
522.0260, 25626.00
523.2060, 25710.00
524.3850, 25614.00
525.5650, 25603.00
526.7440, 25677.00
527.9230, 25695.00
529.1020, 25706.00
530.2810, 25734.00
531.4590, 25829.00
532.6380, 25926.00
533.8160, 25918.00
534.9940, 25821.00
536.1720, 25973.00
537.3500, 25969.00
538.5270, 26052.00
539.7050, 26198.00
540.8820, 26029.00
542.0590, 26043.00
543.2360, 26134.00
544.4130, 25914.00
545.5900, 26300.00
546.7660, 26094.00
547.9430, 26480.00
549.1190, 26187.00
550.2950, 26268.00
551.4710, 26205.00
552.6470, 26249.00
553.8220, 26449.00
554.9980, 26520.00
556.1730, 26390.00
557.3480, 26404.00
558.5230, 26205.00
559.6980, 26522.00
560.8730, 26525.00
562.0470, 26548.00
563.2220, 26412.00
564.3960, 26618.00
565.5700, 26715.00
566.7440, 26532.00
567.9170, 26518.00
569.0910, 26631.00
570.2640, 26652.00
571.4380, 26812.00
572.6110, 26798.00
573.7840, 26618.00
574.9570, 26692.00
576.1290, 26774.00
577.3020, 26766.00
578.4740, 26807.00
579.6460, 26788.00
580.8180, 26868.00
581.9900, 26736.00
583.1620, 26749.00
584.3330, 27079.00
585.5040, 27013.00
586.6760, 27171.00
587.8470, 26893.00
589.0180, 26876.00
590.1880, 26888.00
591.3590, 27167.00
592.5290, 27409.00
593.7000, 26992.00
594.8700, 27215.00
596.0400, 27307.00
597.2090, 27271.00
598.3790, 27286.00
599.5490, 27271.00
600.7180, 27331.00
601.8870, 27197.00
603.0560, 27403.00
604.2250, 27491.00
605.3940, 27585.00
606.5620, 27659.00
607.7300, 27408.00
608.8990, 27556.00
610.0670, 27526.00
611.2350, 27510.00
612.4020, 27530.00
613.5700, 27774.00
614.7370, 27559.00
615.9050, 27414.00
617.0720, 27635.00
618.2390, 27538.00
619.4060, 27810.00
620.5720, 27715.00
621.7390, 27595.00
622.9050, 27676.00
624.0710, 27842.00
625.2370, 27736.00
626.4030, 27950.00
627.5690, 27835.00
628.7340, 28116.00
629.9000, 27817.00
631.0650, 28073.00
632.2300, 27979.00
633.3950, 27872.00
634.5600, 27845.00
635.7240, 27953.00
636.8890, 27996.00
638.0530, 28149.00
639.2170, 28320.00
640.3810, 28110.00
641.5450, 28203.00
642.7080, 28142.00
643.8720, 28249.00
645.0350, 28395.00
646.1980, 28029.00
647.3610, 28519.00
648.5240, 28107.00
649.6870, 28380.00
650.8490, 28645.00
652.0120, 28547.00
653.1740, 28561.00
654.3360, 28289.00
655.4980, 28504.00
656.6600, 28606.00
657.8210, 28758.00
658.9830, 28517.00
660.1440, 28699.00
661.3050, 28615.00
662.4660, 28559.00
663.6270, 28713.00
664.7870, 28902.00
665.9480, 28757.00
667.1080, 28719.00
668.2680, 28685.00
669.4280, 28854.00
670.5880, 28652.00
671.7480, 28875.00
672.9070, 28819.00
674.0670, 29137.00
675.2260, 29007.00
676.3850, 29091.00
677.5440, 28923.00
678.7030, 28967.00
679.8610, 29210.00
681.0200, 29011.00
682.1780, 29008.00
683.3360, 29020.00
684.4940, 29350.00
685.6520, 29272.00
686.8090, 29318.00
687.9670, 29130.00
689.1240, 29235.00
690.2810, 29276.00
691.4380, 29437.00
692.5950, 29518.00
693.7520, 29441.00
694.9080, 29482.00
696.0650, 29570.00
697.2210, 29644.00
698.3770, 29529.00
699.5330, 29709.00
700.6880, 29661.00
701.8440, 29709.00
702.9990, 29566.00
704.1550, 29908.00
705.3100, 29656.00
706.4650, 30046.00
707.6190, 30060.00
708.7740, 29798.00
709.9290, 30038.00
711.0830, 30097.00
712.2370, 30165.00
713.3910, 29961.00
714.5450, 30371.00
715.6980, 30233.00
716.8520, 30270.00
718.0050, 30063.00
719.1580, 30290.00
720.3110, 30394.00
721.4640, 30491.00
722.6170, 30391.00
723.7700, 30369.00
724.9220, 30455.00
726.0740, 30418.00
727.2260, 30552.00
728.3780, 30494.00
729.5300, 30777.00
730.6810, 30691.00
731.8330, 30542.00
732.9840, 30553.00
734.1350, 30652.00
735.2860, 30541.00
736.4370, 30791.00
737.5880, 30714.00
738.7380, 30866.00
739.8880, 30491.00
741.0390, 30759.00
742.1890, 30616.00
743.3380, 30780.00
744.4880, 30721.00
745.6380, 30944.00
746.7870, 30737.00
747.9360, 30968.00
749.0850, 30645.00
750.2340, 30845.00
751.3830, 30727.00
752.5310, 30781.00
753.6800, 31022.00
754.8280, 30993.00
755.9760, 30854.00
757.1240, 31047.00
758.2720, 30907.00
759.4190, 31056.00
760.5670, 30832.00
761.7140, 30995.00
762.8610, 30953.00
764.0080, 31178.00
765.1550, 30958.00
766.3020, 30857.00
767.4480, 31182.00
768.5950, 31175.00
769.7410, 31145.00
770.8870, 31304.00
772.0330, 31197.00
773.1780, 31282.00
774.3240, 31230.00
775.4690, 31293.00
776.6140, 31230.00
777.7590, 31179.00
778.9040, 31344.00
780.0490, 31370.00
781.1940, 31601.00
782.3380, 31267.00
783.4820, 31196.00
784.6260, 31394.00
785.7700, 31488.00
786.9140, 31505.00
788.0580, 31584.00
789.2010, 31467.00
790.3450, 31406.00
791.4880, 31506.00
792.6310, 31615.00
793.7730, 31514.00
794.9160, 31695.00
796.0590, 31586.00
797.2010, 31662.00
798.3430, 31671.00
799.4850, 31986.00
800.6270, 31640.00
801.7690, 31767.00
802.9100, 31938.00
804.0520, 31774.00
805.1930, 31910.00
806.3340, 32101.00
807.4750, 32090.00
808.6160, 31954.00
809.7560, 32001.00
810.8970, 32025.00
812.0370, 31927.00
813.1770, 31894.00
814.3170, 32254.00
815.4570, 32109.00
816.5960, 32305.00
817.7360, 32393.00
818.8750, 32179.00
820.0140, 32278.00
821.1530, 32033.00
822.2920, 32314.00
823.4310, 32173.00
824.5690, 32476.00
825.7070, 32351.00
826.8460, 32402.00
827.9840, 32156.00
829.1220, 32481.00
830.2590, 32186.00
831.3970, 32472.00
832.5340, 32598.00
833.6710, 32393.00
834.8080, 32574.00
835.9450, 32366.00
837.0820, 32397.00
838.2190, 32789.00
839.3550, 32490.00
840.4910, 32843.00
841.6270, 32407.00
842.7630, 32510.00
843.8990, 32754.00
845.0350, 32739.00
846.1700, 32591.00
847.3060, 32789.00
848.4410, 32530.00
849.5760, 32865.00
850.7100, 32749.00
851.8450, 32500.00
852.9800, 32749.00
854.1140, 32709.00
855.2480, 32813.00
856.3820, 33213.00
857.5160, 32739.00
858.6500, 32728.00
859.7830, 33059.00
860.9170, 32951.00
862.0500, 33180.00
863.1830, 32934.00
864.3160, 32978.00
865.4480, 33062.00
866.5810, 33046.00
867.7130, 33072.00
868.8460, 33331.00
869.9780, 33075.00
871.1100, 33209.00
872.2410, 33027.00
873.3730, 33091.00
874.5050, 33281.00
875.6360, 33170.00
876.7670, 33155.00
877.8980, 33288.00
879.0290, 33213.00
880.1590, 33371.00
881.2900, 33260.00
882.4200, 33158.00
883.5500, 33242.00
884.6800, 33423.00
885.8100, 33151.00
886.9400, 33353.00
888.0690, 33345.00
889.1990, 33424.00
890.3280, 33412.00
891.4570, 33460.00
892.5860, 33409.00
893.7140, 33439.00
894.8430, 33317.00
895.9710, 33521.00
897.1000, 33356.00
898.2280, 33576.00
899.3560, 33390.00
900.4830, 33754.00
901.6110, 33767.00
902.7380, 33636.00
903.8660, 33729.00
904.9930, 33939.00
906.1200, 33798.00
907.2460, 33899.00
908.3730, 33714.00
909.5000, 33829.00
910.6260, 33824.00
911.7520, 33973.00
912.8780, 34059.00
914.0040, 33940.00
915.1290, 33839.00
916.2550, 33876.00
917.3800, 34104.00
918.5050, 34149.00
919.6300, 34084.00
920.7550, 34523.00
921.8800, 34038.00
923.0040, 34122.00
924.1290, 34079.00
925.2530, 34092.00
926.3770, 34106.00
927.5010, 34103.00
928.6250, 34089.00
929.7480, 34197.00
930.8720, 34194.00
931.9950, 34394.00
933.1180, 34621.00
934.2410, 34178.00
935.3640, 34140.00
936.4860, 34460.00
937.6090, 34630.00
938.7310, 34353.00
939.8530, 34384.00
940.9750, 34631.00
942.0970, 34859.00
943.2180, 34729.00
944.3400, 34607.00
945.4610, 34629.00
946.5820, 34895.00
947.7030, 34713.00
948.8240, 34641.00
949.9450, 34923.00
951.0650, 34958.00
952.1860, 34880.00
953.3060, 34806.00
954.4260, 34852.00
955.5460, 35133.00
956.6650, 35045.00
957.7850, 34916.00
958.9040, 34972.00
960.0230, 35167.00
961.1420, 35030.00
962.2610, 35086.00
963.3800, 34906.00
964.4990, 35097.00
965.6170, 35042.00
966.7350, 35430.00
967.8530, 35367.00
968.9710, 35278.00
970.0890, 35339.00
971.2070, 35289.00
972.3240, 35217.00
973.4410, 35422.00
974.5580, 35507.00
975.6750, 35430.00
976.7920, 35826.00
977.9090, 35443.00
979.0250, 35496.00
980.1410, 35590.00
981.2580, 35524.00
982.3740, 35614.00
983.4890, 35822.00
984.6050, 35982.00
985.7200, 35819.00
986.8360, 35490.00
987.9510, 35507.00
989.0660, 35744.00
990.1810, 35649.00
991.2950, 35736.00
992.4100, 36267.00
993.5240, 35843.00
994.6390, 35874.00
995.7530, 36064.00
996.8660, 35703.00
997.9800, 35745.00
999.0940, 35973.00
1000.207, 36310.00
1001.320, 35851.00
1002.433, 35935.00
1003.546, 35959.00
1004.659, 35940.00
1005.772, 36314.00
1006.884, 36181.00
1007.996, 36140.00
1009.108, 36120.00
1010.220, 36060.00
1011.332, 36294.00
1012.444, 36317.00
1013.555, 36009.00
1014.666, 36324.00
1015.777, 36236.00
1016.888, 36273.00
1017.999, 36473.00
1019.110, 36412.00
1020.220, 36652.00
1021.331, 36539.00
1022.441, 36676.00
1023.551, 36770.00
1024.661, 36620.00
1025.770, 36618.00
1026.880, 36405.00
1027.989, 36806.00
1029.098, 36675.00
1030.207, 36761.00
1031.316, 36780.00
1032.425, 36846.00
1033.533, 36775.00
1034.642, 36855.00
1035.750, 37116.00
1036.858, 36949.00
1037.966, 36866.00
1039.073, 36822.00
1040.181, 37117.00
1041.288, 37056.00
1042.396, 37198.00
1043.503, 37121.00
1044.610, 36917.00
1045.716, 37393.00
1046.823, 37061.00
1047.929, 37031.00
1049.036, 36973.00
1050.142, 37013.00
1051.248, 37455.00
1052.353, 36965.00
1053.459, 36988.00
1054.564, 37188.00
1055.670, 37147.00
1056.775, 37264.00
1057.880, 37371.00
1058.985, 37322.00
1060.089, 37456.00
1061.194, 37537.00
1062.298, 37433.00
1063.402, 37456.00
1064.506, 37427.00
1065.610, 37543.00
1066.713, 37525.00
1067.817, 37613.00
1068.920, 37470.00
1070.023, 37663.00
1071.126, 37602.00
1072.229, 37920.00
1073.332, 37435.00
1074.435, 37779.00
1075.537, 37805.00
1076.639, 37708.00
1077.741, 37663.00
1078.843, 37909.00
1079.945, 37912.00
1081.046, 37609.00
1082.148, 37777.00
1083.249, 37960.00
1084.350, 37976.00
1085.451, 37898.00
1086.551, 37936.00
1087.652, 38116.00
1088.752, 38221.00
1089.853, 38040.00
1090.953, 38115.00
1092.053, 38380.00
1093.152, 38114.00
1094.252, 38226.00
1095.351, 38274.00
1096.451, 38204.00
1097.550, 38463.00
1098.649, 38337.00
1099.748, 38282.00
1100.846, 38125.00
1101.945, 38599.00
1103.043, 38342.00
1104.141, 38339.00
1105.239, 38314.00
1106.337, 38384.00
1107.434, 38559.00
1108.532, 38518.00
1109.629, 38634.00
1110.726, 38435.00
1111.823, 38367.00
1112.920, 38577.00
1114.017, 38828.00
1115.113, 38667.00
1116.210, 38563.00
1117.306, 38825.00
1118.402, 38848.00
1119.498, 38831.00
1120.593, 38796.00
1121.689, 38660.00
1122.784, 39073.00
1123.879, 39064.00
1124.974, 38893.00
1126.069, 39173.00
1127.164, 39050.00
1128.259, 39045.00
1129.353, 39205.00
1130.447, 39031.00
1131.541, 39213.00
1132.635, 38987.00
1133.729, 39079.00
1134.822, 39066.00
1135.916, 39244.00
1137.009, 38984.00
1138.102, 39007.00
1139.195, 39467.00
1140.288, 39423.00
1141.380, 39555.00
1142.473, 39775.00
1143.565, 39309.00
1144.657, 39618.00
1145.749, 39737.00
1146.841, 39813.00
1147.932, 39590.00
1149.024, 39363.00
1150.115, 39513.00
1151.206, 39698.00
1152.297, 39830.00
1153.388, 39385.00
1154.479, 39512.00
1155.569, 39683.00
1156.659, 39626.00
1157.750, 39880.00
1158.839, 39925.00
1159.929, 39938.00
1161.019, 39666.00
1162.108, 39993.00
1163.198, 39906.00
1164.287, 40014.00
1165.376, 40064.00
1166.465, 39862.00
1167.553, 39948.00
1168.642, 39994.00
1169.730, 40230.00
1170.818, 40017.00
1171.906, 40251.00
1172.994, 40050.00
1174.082, 40315.00
1175.170, 40348.00
1176.257, 40190.00
1177.344, 40246.00
1178.431, 40563.00
1179.518, 40227.00
1180.605, 40366.00
1181.691, 40189.00
1182.778, 40509.00
1183.864, 40614.00
1184.950, 40491.00
1186.036, 40543.00
1187.122, 40648.00
1188.207, 40385.00
1189.292, 40694.00
1190.378, 40580.00
1191.463, 40549.00
1192.548, 40684.00
1193.632, 40662.00
1194.717, 40741.00
1195.801, 40855.00
1196.886, 40818.00
1197.970, 40859.00
1199.054, 41062.00
1200.137, 40766.00
1201.221, 41059.00
1202.305, 41078.00
1203.388, 40897.00
1204.471, 41062.00
1205.554, 41167.00
1206.637, 40874.00
1207.719, 41178.00
1208.802, 41052.00
1209.884, 41029.00
1210.966, 41360.00
1212.048, 41041.00
1213.130, 41504.00
1214.212, 41358.00
1215.293, 41114.00
1216.374, 41166.00
1217.456, 41511.00
1218.536, 41554.00
1219.617, 41280.00
1220.698, 41682.00
1221.778, 41405.00
1222.859, 41688.00
1223.939, 41413.00
1225.019, 41652.00
1226.099, 41255.00
1227.178, 41736.00
1228.258, 41761.00
1229.337, 41553.00
1230.417, 41756.00
1231.496, 41647.00
1232.574, 41409.00
1233.653, 41578.00
1234.732, 41934.00
1235.810, 41911.00
1236.888, 42075.00
1237.966, 41982.00
1239.044, 41940.00
1240.122, 42000.00
1241.199, 41869.00
1242.277, 42003.00
1243.354, 42145.00
1244.431, 42104.00
1245.508, 42149.00
1246.585, 41907.00
1247.661, 42354.00
1248.738, 42087.00
1249.814, 42106.00
1250.890, 42196.00
1251.966, 42201.00
1253.042, 42196.00
1254.117, 42382.00
1255.193, 42200.00
1256.268, 42379.00
1257.343, 42354.00
1258.418, 42330.00
1259.493, 42509.00
1260.567, 42533.00
1261.642, 42883.00
1262.716, 42762.00
1263.790, 42451.00
1264.864, 42374.00
1265.938, 42371.00
1267.011, 42612.00
1268.085, 42440.00
1269.158, 42626.00
1270.231, 42931.00
1271.304, 42721.00
1272.377, 42999.00
1273.450, 42715.00
1274.522, 43082.00
1275.594, 42918.00
1276.666, 42888.00
1277.738, 43092.00
1278.810, 43266.00
1279.882, 43068.00
1280.953, 43049.00
1282.025, 43157.00
1283.096, 43344.00
1284.167, 43008.00
1285.238, 43067.00
1286.308, 43455.00
1287.379, 42921.00
1288.449, 43149.00
1289.519, 43269.00
1290.589, 42967.00
1291.659, 43465.00
1292.729, 43080.00
1293.798, 43547.00
1294.868, 43530.00
1295.937, 43438.00
1297.006, 43803.00
1298.075, 43483.00
1299.143, 43526.00
1300.212, 43487.00
1301.280, 43626.00
1302.348, 43504.00
1303.416, 43745.00
1304.484, 43792.00
1305.552, 43851.00
1306.620, 43420.00
1307.687, 43829.00
1308.754, 44268.00
1309.821, 44033.00
1310.888, 44032.00
1311.955, 44012.00
1313.021, 43715.00
1314.088, 43709.00
1315.154, 43949.00
1316.220, 44168.00
1317.286, 44052.00
1318.352, 44097.00
1319.417, 44042.00
1320.483, 43900.00
1321.548, 44029.00
1322.613, 43994.00
1323.678, 44094.00
1324.743, 44384.00
1325.807, 44510.00
1326.872, 44359.00
1327.936, 44133.00
1329.000, 44539.00
1330.064, 44354.00
1331.128, 44667.00
1332.191, 44414.00
