##NAMES=Brucite
##RRUFFID=R050455
##IDEAL CHEMISTRY=Mg(OH)_2_
##LOCALITY=Texas, Lancaster County, Pennsylvania, USA
##OWNER=RRUFF
##SOURCE=University of Arizona Mineral Museum
##DESCRIPTION=Group of green tabular crystals
##STATUS=The identification of this mineral has been confirmed by X-ray diffraction and chemical analysis
##URL=rruff.info/R050455
##MEASURED CHEMISTRY=(Mg_0.99_Mn_0.01_)(OH)_2_
##PIN_ID=M00147
##ORIENTATION=Laser parallel to c* (0 0 1). Fiducial mark perpendicular to laser is parallel to a [1 0 0]
158.6810, 18324.00
159.9080, 18422.00
161.1340, 18582.00
162.3590, 18474.00
163.5850, 18429.00
164.8110, 18630.00
166.0360, 18520.00
167.2610, 18782.00
168.4860, 18806.00
169.7110, 18909.00
170.9360, 18808.00
172.1610, 18824.00
173.3850, 18963.00
174.6100, 19025.00
175.8340, 19075.00
177.0580, 18987.00
178.2820, 19024.00
179.5050, 19043.00
180.7290, 18950.00
181.9520, 18942.00
183.1760, 19107.00
184.3990, 19232.00
185.6220, 19118.00
186.8450, 19200.00
188.0670, 19386.00
189.2900, 19203.00
190.5120, 19276.00
191.7340, 19268.00
192.9560, 19503.00
194.1780, 19393.00
195.4000, 19577.00
196.6220, 19569.00
197.8430, 19530.00
199.0640, 19639.00
200.2860, 19515.00
201.5070, 19693.00
202.7270, 19505.00
203.9480, 19761.00
205.1690, 19646.00
206.3890, 19704.00
207.6090, 19870.00
208.8290, 19716.00
210.0490, 19745.00
211.2690, 19782.00
212.4890, 19944.00
213.7080, 19984.00
214.9280, 20010.00
216.1470, 20163.00
217.3660, 20105.00
218.5850, 20123.00
219.8030, 20043.00
221.0220, 20079.00
222.2400, 20057.36
223.4590, 20117.30
224.6770, 20088.00
225.8950, 20262.00
227.1120, 20375.00
228.3300, 20416.00
229.5480, 20328.00
230.7650, 20575.00
231.9820, 20293.00
233.1990, 20473.00
234.4160, 20480.00
235.6330, 20464.00
236.8490, 20551.00
238.0660, 20692.00
239.2820, 20625.00
240.4980, 20659.00
241.7140, 20566.00
242.9300, 20801.00
244.1460, 20843.00
245.3610, 20836.00
246.5770, 20858.00
247.7920, 20862.00
249.0070, 20954.00
250.2220, 21080.00
251.4370, 21152.00
252.6510, 21187.06
253.8660, 21264.00
255.0800, 21241.00
256.2940, 21166.00
257.5080, 21237.00
258.7220, 21283.00
259.9360, 21344.00
261.1490, 21445.00
262.3630, 21569.00
263.5760, 21706.00
264.7890, 21989.00
266.0020, 22020.00
267.2150, 22099.00
268.4270, 22201.00
269.6400, 22613.00
270.8520, 22734.00
272.0640, 23031.00
273.2760, 23333.00
274.4880, 23569.00
275.7000, 23913.00
276.9120, 23719.00
278.1230, 23602.00
279.3340, 23600.00
280.5450, 23160.00
281.7560, 23136.00
282.9670, 22850.00
284.1780, 22792.00
285.3880, 22657.00
286.5980, 22439.00
287.8090, 22029.00
289.0190, 22208.00
290.2290, 22096.00
291.4380, 22004.00
292.6480, 22200.00
293.8570, 22236.00
295.0670, 22129.00
296.2760, 22036.00
297.4850, 22125.00
298.6930, 22222.00
299.9020, 21918.00
301.1110, 22017.00
302.3190, 22251.00
303.5270, 22117.00
304.7350, 22163.00
305.9430, 22292.00
307.1510, 22237.00
308.3580, 22205.00
309.5660, 22195.00
310.7730, 22177.00
311.9800, 22268.00
313.1870, 22405.00
314.3940, 22312.00
315.6010, 22575.00
316.8070, 22285.00
318.0130, 22374.00
319.2200, 22380.00
320.4260, 22469.00
321.6310, 22625.00
322.8370, 22584.00
324.0430, 22427.00
325.2480, 22642.00
326.4540, 22477.00
327.6590, 22686.00
328.8640, 22655.00
330.0680, 22849.00
331.2730, 22838.00
332.4780, 22658.00
333.6820, 22639.00
334.8860, 22730.00
336.0900, 22846.00
337.2940, 22754.00
338.4980, 23007.00
339.7010, 23029.00
340.9050, 22974.00
342.1080, 22956.00
343.3110, 22970.00
344.5140, 23126.00
345.7170, 22977.00
346.9200, 23076.00
348.1220, 23149.00
349.3240, 23109.00
350.5270, 23186.00
351.7290, 23184.00
352.9310, 23178.00
354.1320, 23238.00
355.3340, 23345.00
356.5350, 23264.00
357.7370, 23418.00
358.9380, 23257.00
360.1390, 23277.00
361.3400, 23308.00
362.5400, 23436.00
363.7410, 23318.00
364.9410, 23504.00
366.1410, 23391.00
367.3410, 23621.00
368.5410, 23499.00
369.7410, 23734.00
370.9400, 23788.00
372.1400, 23803.00
373.3390, 23610.00
374.5380, 23809.00
375.7370, 23718.00
376.9360, 23568.00
378.1350, 23772.00
379.3330, 23695.00
380.5310, 23869.00
381.7300, 23822.00
382.9280, 23971.00
384.1260, 23871.00
385.3230, 23681.00
386.5210, 24106.00
387.7180, 24225.00
388.9160, 23850.00
390.1130, 24131.00
391.3100, 24126.00
392.5060, 24251.00
393.7030, 24222.00
394.9000, 24294.00
396.0960, 24171.00
397.2920, 24328.00
398.4880, 24357.00
399.6840, 24426.00
400.8800, 24165.00
402.0750, 24270.00
403.2710, 24370.00
404.4660, 24429.00
405.6610, 24713.00
406.8560, 24545.00
408.0510, 24471.00
409.2450, 24580.00
410.4400, 24829.00
411.6340, 24723.00
412.8280, 24990.00
414.0220, 24789.00
415.2160, 24768.00
416.4100, 24896.00
417.6030, 25003.00
418.7970, 25249.00
419.9900, 25148.00
421.1830, 25225.00
422.3760, 25363.00
423.5690, 25369.00
424.7610, 25399.00
425.9540, 25845.00
427.1460, 26156.00
428.3380, 26332.00
429.5300, 26532.00
430.7220, 27140.00
431.9140, 27882.00
433.1050, 28492.00
434.2970, 29335.00
435.4880, 30434.00
436.6790, 31489.00
437.8700, 32484.00
439.0610, 33384.00
440.2510, 34210.00
441.4420, 34403.00
442.6320, 33603.00
443.8220, 32896.00
445.0120, 31599.00
446.2020, 30824.00
447.3910, 29738.00
448.5810, 28893.00
449.7700, 28022.00
450.9600, 27661.00
452.1490, 27463.00
453.3370, 26912.00
454.5260, 26757.00
455.7150, 26605.00
456.9030, 26607.00
458.0910, 26487.00
459.2800, 26293.00
460.4670, 26214.00
461.6550, 26439.00
462.8430, 26144.00
464.0300, 26264.00
465.2180, 26149.00
466.4050, 26145.00
467.5920, 26164.00
468.7790, 26124.00
469.9650, 26148.00
471.1520, 26034.00
472.3380, 26139.00
473.5250, 26104.84
474.7110, 26138.00
475.8970, 26177.00
477.0820, 26170.00
478.2680, 26312.00
479.4540, 26189.00
480.6390, 26121.00
481.8240, 26242.00
483.0090, 26282.00
484.1940, 26531.00
485.3780, 26204.00
486.5630, 26358.00
487.7470, 26492.00
488.9320, 26219.00
490.1160, 26387.00
491.3000, 26417.00
492.4830, 26394.00
493.6670, 26503.00
494.8500, 26486.00
496.0340, 26545.00
497.2170, 26621.00
498.4000, 26785.00
499.5820, 26703.00
500.7650, 26716.00
501.9480, 26890.00
503.1300, 26665.00
504.3120, 26671.00
505.4940, 26688.00
506.6760, 26503.00
507.8580, 26846.00
509.0390, 26724.00
510.2210, 26697.00
511.4020, 26827.00
512.5830, 26697.00
513.7640, 26952.00
514.9450, 26745.00
516.1250, 26906.00
517.3060, 26920.00
518.4860, 27127.00
519.6660, 26916.00
520.8460, 27114.00
522.0260, 27022.00
523.2060, 27142.00
524.3850, 27047.00
525.5650, 27177.00
526.7440, 27231.00
527.9230, 27186.00
529.1020, 27234.00
530.2810, 27093.00
531.4590, 27390.00
532.6380, 27341.00
533.8160, 27378.00
534.9940, 27675.00
536.1720, 27632.00
537.3500, 27434.00
538.5270, 27351.00
539.7050, 27511.00
540.8820, 27387.00
542.0590, 27394.00
543.2360, 27608.00
544.4130, 27387.00
545.5900, 27575.00
546.7660, 27574.00
547.9430, 27559.00
549.1190, 27695.00
550.2950, 27901.00
551.4710, 27633.00
552.6470, 27655.00
553.8220, 27724.00
554.9980, 27952.00
556.1730, 27912.00
557.3480, 27914.00
558.5230, 27847.00
559.6980, 27793.00
560.8730, 27673.00
562.0470, 27741.60
563.2220, 28077.00
564.3960, 27988.00
565.5700, 27891.00
566.7440, 28254.00
567.9170, 28150.00
569.0910, 27977.00
570.2640, 28055.00
571.4380, 28358.00
572.6110, 28123.00
573.7840, 28127.00
574.9570, 28476.00
576.1290, 28334.00
577.3020, 28457.00
578.4740, 28356.00
579.6460, 28274.00
580.8180, 28608.00
581.9900, 28510.00
583.1620, 28216.00
584.3330, 28606.00
585.5040, 28474.00
586.6760, 28485.00
587.8470, 28268.00
589.0180, 28353.00
590.1880, 28658.00
591.3590, 28417.00
592.5290, 28765.00
593.7000, 28758.00
594.8700, 28844.00
596.0400, 28820.00
597.2090, 28850.00
598.3790, 28718.00
599.5490, 28657.00
600.7180, 28686.00
601.8870, 28834.00
603.0560, 28881.00
604.2250, 29003.00
605.3940, 28898.00
606.5620, 28904.00
607.7300, 28898.00
608.8990, 28818.00
610.0670, 28819.43
611.2350, 28866.98
612.4020, 28829.00
613.5700, 29055.00
614.7370, 29226.00
615.9050, 29435.00
617.0720, 29262.00
618.2390, 29216.00
619.4060, 29132.00
620.5720, 29159.00
621.7390, 29295.00
622.9050, 29543.00
624.0710, 29555.00
625.2370, 29267.00
626.4030, 29222.00
627.5690, 29463.00
628.7340, 29237.00
629.9000, 29543.00
631.0650, 29704.00
632.2300, 29578.00
633.3950, 29752.00
634.5600, 29731.00
635.7240, 29500.00
636.8890, 29706.00
638.0530, 29681.00
639.2170, 29820.00
640.3810, 29771.00
641.5450, 29826.00
642.7080, 29791.00
643.8720, 29782.00
645.0350, 29893.00
646.1980, 29883.00
647.3610, 29817.00
648.5240, 29896.00
649.6870, 29855.00
650.8490, 29772.00
652.0120, 30000.00
653.1740, 30018.00
654.3360, 29920.00
655.4980, 29951.00
656.6600, 29989.00
657.8210, 30098.00
658.9830, 30163.00
660.1440, 30248.00
661.3050, 30263.00
662.4660, 30411.00
663.6270, 30286.00
664.7870, 30072.00
665.9480, 30248.00
667.1080, 30245.00
668.2680, 30461.00
669.4280, 30525.00
670.5880, 30437.00
671.7480, 30521.00
672.9070, 30339.00
674.0670, 30323.00
675.2260, 30502.00
676.3850, 30614.00
677.5440, 30616.00
678.7030, 30812.00
679.8610, 30514.00
681.0200, 30693.00
682.1780, 30567.00
683.3360, 30543.00
684.4940, 30697.00
685.6520, 30720.00
686.8090, 30761.00
687.9670, 30916.00
689.1240, 30930.00
690.2810, 30751.00
691.4380, 31105.00
692.5950, 31077.00
693.7520, 31012.00
694.9080, 31183.00
696.0650, 31046.00
697.2210, 30989.00
698.3770, 31283.00
699.5330, 31365.00
700.6880, 31016.00
701.8440, 31307.00
702.9990, 31157.00
704.1550, 31495.00
705.3100, 31410.00
706.4650, 31289.00
707.6190, 31378.00
708.7740, 31301.75
709.9290, 31618.00
711.0830, 31400.00
712.2370, 31593.00
713.3910, 31890.00
714.5450, 31519.00
715.6980, 31875.00
716.8520, 31497.00
718.0050, 31719.00
719.1580, 31863.00
720.3110, 31725.00
721.4640, 31895.00
722.6170, 31820.00
723.7700, 31840.00
724.9220, 31940.00
726.0740, 32064.00
727.2260, 32041.00
728.3780, 32095.00
729.5300, 32152.00
730.6810, 32208.00
731.8330, 31915.00
732.9840, 31939.00
734.1350, 31975.00
735.2860, 32189.00
736.4370, 32060.00
737.5880, 32124.00
738.7380, 32375.00
739.8880, 32130.00
741.0390, 32376.00
742.1890, 31961.00
743.3380, 32380.00
744.4880, 32279.00
745.6380, 32579.00
746.7870, 32224.00
747.9360, 32351.00
749.0850, 32573.00
750.2340, 32402.00
751.3830, 32326.00
752.5310, 32227.00
753.6800, 32397.00
754.8280, 32622.00
755.9760, 32464.00
757.1240, 32423.00
758.2720, 32273.00
759.4190, 32315.00
760.5670, 32699.00
761.7140, 32521.00
762.8610, 32366.00
764.0080, 32707.00
765.1550, 32624.00
766.3020, 32675.00
767.4480, 32800.00
768.5950, 32669.00
769.7410, 32678.00
770.8870, 32743.00
772.0330, 32752.00
773.1780, 32906.00
774.3240, 32873.00
775.4690, 32799.00
776.6140, 32927.00
777.7590, 32900.38
778.9040, 32806.00
780.0490, 32986.00
781.1940, 33017.00
782.3380, 33069.00
783.4820, 33195.00
784.6260, 32914.00
785.7700, 33205.00
786.9140, 32769.00
788.0580, 33286.00
789.2010, 33256.00
790.3450, 33293.00
791.4880, 33239.00
792.6310, 33203.00
793.7730, 33115.00
794.9160, 33265.00
796.0590, 33305.00
797.2010, 33274.00
798.3430, 33469.00
799.4850, 33503.00
800.6270, 33561.00
801.7690, 33466.00
802.9100, 33560.00
804.0520, 33547.00
805.1930, 33413.00
806.3340, 33635.00
807.4750, 33667.00
808.6160, 33714.00
809.7560, 33891.00
810.8970, 33848.00
812.0370, 33784.00
813.1770, 33795.00
814.3170, 33728.00
815.4570, 33844.00
816.5960, 33857.00
817.7360, 33946.00
818.8750, 33713.00
820.0140, 33850.00
821.1530, 33749.00
822.2920, 33780.02
823.4310, 34012.00
824.5690, 33904.00
825.7070, 34075.00
826.8460, 34186.00
827.9840, 33902.00
829.1220, 34202.00
830.2590, 33910.00
831.3970, 34036.00
832.5340, 34332.00
833.6710, 34051.00
834.8080, 34098.00
835.9450, 34188.00
837.0820, 34136.00
838.2190, 34144.36
839.3550, 34333.00
840.4910, 34076.00
841.6270, 34172.00
842.7630, 34175.00
843.8990, 34472.00
845.0350, 34432.00
846.1700, 34565.00
847.3060, 34366.00
848.4410, 34496.00
849.5760, 34419.00
850.7100, 34738.00
851.8450, 34648.00
852.9800, 34700.71
854.1140, 34462.00
855.2480, 34601.00
856.3820, 34814.00
857.5160, 34570.00
858.6500, 34816.00
859.7830, 34568.00
860.9170, 34709.00
862.0500, 34856.00
863.1830, 34930.00
864.3160, 34824.00
865.4480, 34847.00
866.5810, 34769.00
867.7130, 34841.00
868.8460, 34987.00
869.9780, 34990.00
871.1100, 35041.00
872.2410, 34916.00
873.3730, 35075.00
874.5050, 34997.00
875.6360, 35165.00
876.7670, 35132.00
877.8980, 35115.00
879.0290, 35091.00
880.1590, 35165.00
881.2900, 35409.00
882.4200, 34941.00
883.5500, 35163.00
884.6800, 35495.00
885.8100, 35131.00
886.9400, 34966.00
888.0690, 35197.00
889.1990, 35279.00
890.3280, 35310.00
891.4570, 35146.00
892.5860, 35504.00
893.7140, 35391.00
894.8430, 35615.00
895.9710, 35368.00
897.1000, 35503.00
898.2280, 35463.00
899.3560, 35479.00
900.4830, 35492.00
901.6110, 35745.00
902.7380, 35476.00
903.8660, 35798.00
904.9930, 35593.00
906.1200, 35733.00
907.2460, 35633.00
908.3730, 35716.00
909.5000, 35608.00
910.6260, 35699.00
911.7520, 35826.04
912.8780, 35812.00
914.0040, 36079.00
915.1290, 36093.00
916.2550, 36034.00
917.3800, 36059.00
918.5050, 35923.00
919.6300, 36032.00
920.7550, 35971.00
921.8800, 36135.00
923.0040, 36196.00
924.1290, 35943.00
925.2530, 36155.00
926.3770, 36145.00
927.5010, 36181.00
928.6250, 36165.00
929.7480, 36287.00
930.8720, 36275.00
931.9950, 36312.00
933.1180, 36316.00
934.2410, 36342.00
935.3640, 36370.00
936.4860, 36382.71
937.6090, 36445.83
938.7310, 36455.00
939.8530, 36509.00
940.9750, 36621.00
942.0970, 36524.00
943.2180, 36769.00
944.3400, 36464.00
945.4610, 36508.00
946.5820, 36758.00
947.7030, 36741.00
948.8240, 36624.00
949.9450, 36825.00
951.0650, 36855.00
952.1860, 36894.00
953.3060, 37114.00
954.4260, 37188.00
955.5460, 37040.00
956.6650, 37029.00
957.7850, 36965.00
958.9040, 36978.00
960.0230, 37023.00
961.1420, 37025.00
962.2610, 37122.00
963.3800, 37160.93
964.4990, 37223.00
965.6170, 37303.00
966.7350, 37364.00
967.8530, 37463.00
968.9710, 37321.00
970.0890, 37429.00
971.2070, 37367.00
972.3240, 37462.00
973.4410, 37540.00
974.5580, 37517.02
975.6750, 37509.00
976.7920, 37545.00
977.9090, 37470.00
979.0250, 37502.00
980.1410, 37444.00
981.2580, 37564.59
982.3740, 37416.00
983.4890, 37775.00
984.6050, 37778.00
985.7200, 37748.00
986.8360, 38001.00
987.9510, 37993.00
989.0660, 38058.00
990.1810, 37820.00
991.2950, 37906.00
992.4100, 37886.00
993.5240, 37847.00
994.6390, 37964.00
995.7530, 37869.00
996.8660, 37801.00
997.9800, 38022.00
999.0940, 38198.00
1000.207, 38241.00
1001.320, 38080.00
1002.433, 38224.00
1003.546, 38145.00
1004.659, 38240.00
1005.772, 38374.00
1006.884, 38101.00
1007.996, 38138.00
1009.108, 38222.00
1010.220, 38195.00
1011.332, 38623.00
1012.444, 38471.00
1013.555, 38415.00
1014.666, 38641.00
1015.777, 38380.00
1016.888, 38557.00
1017.999, 38548.00
1019.110, 38628.00
1020.220, 38651.00
1021.331, 38711.07
1022.441, 38742.07
1023.551, 38859.00
1024.661, 38730.00
1025.770, 38821.00
1026.880, 38680.00
1027.989, 38710.00
1029.098, 38746.82
1030.207, 38822.00
1031.316, 38861.00
1032.425, 38887.00
1033.533, 38993.00
1034.642, 39032.00
1035.750, 39057.00
1036.858, 39112.00
1037.966, 39139.63
1039.073, 39115.00
1040.181, 39250.00
1041.288, 39176.00
1042.396, 39311.00
1043.503, 39078.00
1044.610, 39217.00
1045.716, 39276.00
1046.823, 38971.00
1047.929, 39252.00
1049.036, 39286.00
1050.142, 39234.00
1051.248, 39331.00
1052.353, 39557.00
1053.459, 39324.00
1054.564, 39430.00
1055.670, 39632.00
1056.775, 39353.00
1057.880, 39825.00
1058.985, 39276.00
1060.089, 39560.00
1061.194, 39576.00
1062.298, 39814.00
1063.402, 39511.00
1064.506, 39965.00
1065.610, 39674.00
1066.713, 39808.00
1067.817, 39715.00
1068.920, 39494.00
1070.023, 40011.00
1071.126, 39706.00
1072.229, 39912.00
1073.332, 39736.00
1074.435, 39911.00
1075.537, 39882.00
1076.639, 39755.00
1077.741, 39980.00
1078.843, 39902.00
1079.945, 40188.00
1081.046, 40263.00
1082.148, 40300.00
1083.249, 40182.00
1084.350, 40310.00
1085.451, 40241.00
1086.551, 40211.00
1087.652, 40318.00
1088.752, 40435.00
1089.853, 40253.00
1090.953, 40339.00
1092.053, 40409.00
1093.152, 40578.00
1094.252, 40538.00
1095.351, 40575.00
1096.451, 40633.38
1097.550, 40604.27
1098.649, 40607.00
1099.748, 40622.00
1100.846, 40686.60
1101.945, 40754.47
1103.043, 40813.00
1104.141, 40892.00
1105.239, 40850.00
1106.337, 40786.00
1107.434, 40915.00
1108.532, 40875.00
1109.629, 40950.00
1110.726, 40946.64
1111.823, 41059.00
1112.920, 40943.00
1114.017, 40817.00
1115.113, 40851.24
1116.210, 40834.49
1117.306, 41026.00
1118.402, 40923.00
1119.498, 41123.00
1120.593, 41142.00
1121.689, 40943.00
1122.784, 41322.00
1123.879, 41449.00
1124.974, 41394.00
1126.069, 41327.00
1127.164, 41248.00
1128.259, 41257.58
1129.353, 41255.51
1130.447, 41286.00
1131.541, 41373.00
1132.635, 41408.00
1133.729, 41562.00
1134.822, 41449.00
1135.916, 41524.00
1137.009, 41564.00
1138.102, 41692.00
1139.195, 41578.00
1140.288, 42037.00
1141.380, 41675.00
1142.473, 42014.00
1143.565, 41555.00
1144.657, 42087.00
1145.749, 41701.00
1146.841, 41830.00
1147.932, 41882.00
1149.024, 41749.00
1150.115, 42033.00
1151.206, 42217.00
1152.297, 42032.00
1153.388, 42216.00
1154.479, 41994.00
1155.569, 41990.00
1156.659, 42146.00
1157.750, 42149.00
1158.839, 41901.00
1159.929, 42181.00
1161.019, 42172.00
1162.108, 42368.00
1163.198, 42388.00
1164.287, 42424.00
1165.376, 42354.00
1166.465, 42180.00
1167.553, 42316.00
1168.642, 42522.00
1169.730, 42668.00
1170.818, 42339.00
1171.906, 42608.00
1172.994, 42676.00
1174.082, 42425.00
1175.170, 42717.00
1176.257, 42573.00
1177.344, 42343.00
1178.431, 42854.00
1179.518, 42753.00
1180.605, 42776.00
1181.691, 42649.00
1182.778, 42914.00
1183.864, 42916.00
1184.950, 43183.00
1186.036, 43345.00
1187.122, 42874.00
1188.207, 43055.00
1189.292, 43058.00
1190.378, 43306.00
1191.463, 43311.05
1192.548, 43356.20
1193.632, 43329.00
1194.717, 43396.00
1195.801, 43289.00
1196.886, 43336.00
1197.970, 43129.00
1199.054, 43130.00
1200.137, 43126.00
1201.221, 43117.14
1202.305, 43457.00
1203.388, 43302.00
1204.471, 43425.00
1205.554, 43673.00
1206.637, 43505.00
1207.719, 43535.00
1208.802, 43463.00
1209.884, 43750.00
1210.966, 43723.00
1212.048, 43849.00
1213.130, 43814.00
1214.212, 43840.00
1215.293, 43790.00
1216.374, 43810.00
1217.456, 43858.00
1218.536, 44153.00
1219.617, 44011.00
1220.698, 44279.00
1221.778, 44059.00
1222.859, 44211.00
1223.939, 44097.00
1225.019, 44105.00
1226.099, 43943.00
1227.178, 44079.00
1228.258, 43866.00
1229.337, 44274.00
1230.417, 44216.00
1231.496, 44390.00
1232.574, 44111.00
1233.653, 44124.00
1234.732, 44367.00
1235.810, 44447.00
1236.888, 44352.00
1237.966, 44607.00
1239.044, 44502.00
1240.122, 44440.00
1241.199, 44607.00
1242.277, 44523.00
1243.354, 44670.00
1244.431, 44576.00
1245.508, 44621.00
1246.585, 44720.00
1247.661, 44763.00
1248.738, 44900.00
1249.814, 45015.00
1250.890, 44880.00
1251.966, 45012.95
1253.042, 44872.00
1254.117, 45089.00
1255.193, 44955.00
1256.268, 44990.00
1257.343, 45143.00
1258.418, 45037.00
1259.493, 45040.00
1260.567, 45318.00
1261.642, 45193.00
1262.716, 45295.00
1263.790, 45390.00
1264.864, 45454.00
1265.938, 45547.00
1267.011, 45478.00
1268.085, 45513.68
1269.158, 45573.70
1270.231, 45441.00
1271.304, 45673.00
1272.377, 45596.00
1273.450, 45585.00
1274.522, 45836.00
1275.594, 45692.00
1276.666, 45463.00
1277.738, 45703.00
1278.810, 45792.00
1279.882, 45555.00
1280.953, 45629.00
1282.025, 45608.00
1283.096, 45991.00
1284.167, 45718.00
1285.238, 45970.00
1286.308, 46136.00
1287.379, 45865.00
1288.449, 46136.00
1289.519, 46040.00
1290.589, 45910.00
1291.659, 46122.00
1292.729, 46198.00
1293.798, 46071.00
1294.868, 46226.00
1295.937, 46403.00
1297.006, 46188.00
1298.075, 46146.00
1299.143, 46349.00
1300.212, 46069.00
1301.280, 46557.00
1302.348, 46395.00
1303.416, 46599.00
1304.484, 46633.00
1305.552, 46488.00
1306.620, 46153.00
1307.687, 46546.00
1308.754, 46490.00
1309.821, 46695.00
1310.888, 46595.00
1311.955, 46655.00
1313.021, 46668.00
1314.088, 46773.00
1315.154, 46805.00
1316.220, 46614.00
1317.286, 46843.00
1318.352, 47069.00
1319.417, 46835.00
1320.483, 46961.00
1321.548, 47191.00
1322.613, 46897.00
1323.678, 46753.00
1324.743, 46894.00
1325.807, 47305.00
1326.872, 47240.00
1327.936, 47109.00
1329.000, 47245.00
1330.064, 47280.00
1331.128, 46953.00
1332.191, 47266.00
