##NAMES=Brucite
##RRUFFID=R050455
##IDEAL CHEMISTRY=Mg(OH)_2_
##LOCALITY=Texas, Lancaster County, Pennsylvania, USA
##OWNER=RRUFF
##SOURCE=University of Arizona Mineral Museum
##DESCRIPTION=Group of green tabular crystals
##STATUS=The identification of this mineral has been confirmed by X-ray diffraction and chemical analysis
##URL=rruff.info/R050455
##MEASURED CHEMISTRY=(Mg_0.99_Mn_0.01_)(OH)_2_
##PIN_ID=M00147
##ORIENTATION=Laser parallel to c* (0 0 1). Fiducial mark perpendicular to laser is parallel to a [1 0 0]
158.6810, 18154.00
159.9080, 18145.00
161.1340, 18231.00
162.3590, 18196.00
163.5850, 18260.93
164.8110, 18467.00
166.0360, 18317.00
167.2610, 18360.00
168.4860, 18297.00
169.7110, 18431.00
170.9360, 18379.00
172.1610, 18421.00
173.3850, 18587.00
174.6100, 18643.00
175.8340, 18949.00
177.0580, 18749.00
178.2820, 18851.00
179.5050, 18692.00
180.7290, 18889.00
181.9520, 18779.00
183.1760, 18876.00
184.3990, 18933.00
185.6220, 18897.00
186.8450, 18802.00
188.0670, 19074.00
189.2900, 19115.00
190.5120, 18917.00
191.7340, 19188.00
192.9560, 19155.00
194.1780, 18910.00
195.4000, 19133.00
196.6220, 19361.00
197.8430, 19327.00
199.0640, 19290.00
200.2860, 19274.00
201.5070, 19361.00
202.7270, 19502.00
203.9480, 19505.00
205.1690, 19445.00
206.3890, 19400.00
207.6090, 19540.00
208.8290, 19482.00
210.0490, 19640.00
211.2690, 19640.00
212.4890, 19737.00
213.7080, 19718.00
214.9280, 19766.00
216.1470, 19688.00
217.3660, 19753.00
218.5850, 19775.00
219.8030, 19893.00
221.0220, 19840.00
222.2400, 19894.00
223.4590, 19937.00
224.6770, 20051.00
225.8950, 20044.00
227.1120, 20120.00
228.3300, 20133.00
229.5480, 19975.00
230.7650, 20212.00
231.9820, 20164.00
233.1990, 20357.00
234.4160, 20102.00
235.6330, 20427.00
236.8490, 20304.00
238.0660, 20424.00
239.2820, 20243.00
240.4980, 20476.00
241.7140, 20486.00
242.9300, 20405.00
244.1460, 20427.00
245.3610, 20514.00
246.5770, 20605.00
247.7920, 20591.71
249.0070, 20604.00
250.2220, 20661.00
251.4370, 20751.00
252.6510, 20954.00
253.8660, 21020.00
255.0800, 21059.00
256.2940, 21079.00
257.5080, 21179.39
258.7220, 21260.00
259.9360, 21382.00
261.1490, 21533.00
262.3630, 21678.49
263.5760, 21588.00
264.7890, 21963.00
266.0020, 22037.00
267.2150, 22312.00
268.4270, 22585.00
269.6400, 22898.46
270.8520, 23368.00
272.0640, 23683.00
273.2760, 24196.00
274.4880, 24632.00
275.7000, 24880.00
276.9120, 24823.00
278.1230, 24721.00
279.3340, 24456.00
280.5450, 23924.00
281.7560, 23687.00
282.9670, 23239.00
284.1780, 22929.00
285.3880, 22686.00
286.5980, 22435.00
287.8090, 22313.00
289.0190, 22163.00
290.2290, 22136.00
291.4380, 21929.00
292.6480, 21753.00
293.8570, 21849.00
295.0670, 21644.00
296.2760, 21730.00
297.4850, 21816.00
298.6930, 21874.00
299.9020, 21884.00
301.1110, 21720.00
302.3190, 21910.00
303.5270, 21752.00
304.7350, 21902.00
305.9430, 21744.00
307.1510, 22051.00
308.3580, 21954.00
309.5660, 21908.00
310.7730, 22048.00
311.9800, 21963.00
313.1870, 21989.00
314.3940, 22002.00
315.6010, 22063.00
316.8070, 22184.00
318.0130, 22163.00
319.2200, 22278.00
320.4260, 22102.00
321.6310, 22425.00
322.8370, 22348.00
324.0430, 22188.00
325.2480, 22349.00
326.4540, 22255.00
327.6590, 22388.00
328.8640, 22362.00
330.0680, 22211.00
331.2730, 22430.00
332.4780, 22487.00
333.6820, 22276.00
334.8860, 22395.00
336.0900, 22509.00
337.2940, 22415.00
338.4980, 22678.00
339.7010, 22562.00
340.9050, 22579.00
342.1080, 22587.00
343.3110, 22590.00
344.5140, 22636.69
345.7170, 22685.82
346.9200, 22737.00
348.1220, 22822.00
349.3240, 22890.00
350.5270, 22952.00
351.7290, 22985.00
352.9310, 23149.00
354.1320, 22866.00
355.3340, 23015.00
356.5350, 22819.00
357.7370, 23161.00
358.9380, 22879.00
360.1390, 22957.00
361.3400, 22939.00
362.5400, 22998.00
363.7410, 22970.00
364.9410, 23012.00
366.1410, 23054.00
367.3410, 23449.00
368.5410, 23440.00
369.7410, 23376.00
370.9400, 23259.00
372.1400, 23236.00
373.3390, 23468.00
374.5380, 23484.00
375.7370, 23468.00
376.9360, 23506.00
378.1350, 23508.05
379.3330, 23362.00
380.5310, 23527.00
381.7300, 23605.00
382.9280, 23602.00
384.1260, 23294.00
385.3230, 23593.00
386.5210, 23575.00
387.7180, 23542.00
388.9160, 23796.00
390.1130, 23783.00
391.3100, 23820.00
392.5060, 23895.00
393.7030, 23913.00
394.9000, 23967.00
396.0960, 24045.00
397.2920, 23968.00
398.4880, 23912.00
399.6840, 24041.00
400.8800, 23914.00
402.0750, 24126.00
403.2710, 24087.00
404.4660, 24102.00
405.6610, 24235.00
406.8560, 24042.00
408.0510, 24242.00
409.2450, 24251.00
410.4400, 24276.00
411.6340, 24310.00
412.8280, 24432.00
414.0220, 24497.00
415.2160, 24419.00
416.4100, 24676.00
417.6030, 24727.00
418.7970, 24845.00
419.9900, 24672.00
421.1830, 24691.00
422.3760, 24974.00
423.5690, 25072.00
424.7610, 25158.00
425.9540, 25196.00
427.1460, 25424.00
428.3380, 25785.00
429.5300, 26146.00
430.7220, 26373.00
431.9140, 26803.00
433.1050, 27519.00
434.2970, 28176.00
435.4880, 29127.00
436.6790, 30140.00
437.8700, 31059.00
439.0610, 32087.00
440.2510, 32724.00
441.4420, 33201.00
442.6320, 32727.00
443.8220, 31881.00
445.0120, 31329.00
446.2020, 30033.00
447.3910, 29079.00
448.5810, 28289.00
449.7700, 27622.00
450.9600, 27270.00
452.1490, 26720.00
453.3370, 26516.00
454.5260, 26074.00
455.7150, 26150.00
456.9030, 25881.00
458.0910, 26024.00
459.2800, 25903.00
460.4670, 25833.00
461.6550, 25688.00
462.8430, 25789.00
464.0300, 25703.00
465.2180, 25808.00
466.4050, 25755.00
467.5920, 25844.00
468.7790, 25740.00
469.9650, 25745.00
471.1520, 25668.00
472.3380, 25671.00
473.5250, 25692.20
474.7110, 25848.00
475.8970, 25788.00
477.0820, 25785.00
478.2680, 25881.00
479.4540, 25807.00
480.6390, 25849.45
481.8240, 25913.00
483.0090, 25876.00
484.1940, 25948.00
485.3780, 25999.00
486.5630, 25970.00
487.7470, 26086.00
488.9320, 25963.00
490.1160, 26076.00
491.3000, 26058.00
492.4830, 25891.00
493.6670, 26181.00
494.8500, 26082.00
496.0340, 25953.00
497.2170, 26302.00
498.4000, 26268.00
499.5820, 26295.00
500.7650, 26228.00
501.9480, 26392.00
503.1300, 26387.00
504.3120, 26255.00
505.4940, 26310.00
506.6760, 26483.00
507.8580, 26618.00
509.0390, 26555.00
510.2210, 26352.00
511.4020, 26304.00
512.5830, 26499.00
513.7640, 26614.00
514.9450, 26660.00
516.1250, 26743.00
517.3060, 26778.00
518.4860, 26717.00
519.6660, 26826.00
520.8460, 26702.00
522.0260, 26575.00
523.2060, 26725.00
524.3850, 26802.00
525.5650, 26792.00
526.7440, 26816.00
527.9230, 26933.00
529.1020, 26837.00
530.2810, 26982.00
531.4590, 26879.00
532.6380, 27124.00
533.8160, 26888.00
534.9940, 26944.00
536.1720, 27151.00
537.3500, 27072.00
538.5270, 27162.00
539.7050, 27258.00
540.8820, 27137.00
542.0590, 27021.00
543.2360, 27158.00
544.4130, 27292.00
545.5900, 27149.00
546.7660, 27343.00
547.9430, 27120.00
549.1190, 27380.00
550.2950, 27207.00
551.4710, 27575.00
552.6470, 27371.00
553.8220, 27381.00
554.9980, 27477.00
556.1730, 27538.00
557.3480, 27518.00
558.5230, 27505.00
559.6980, 27673.00
560.8730, 27582.00
562.0470, 27739.00
563.2220, 27799.00
564.3960, 27780.00
565.5700, 27658.00
566.7440, 27765.00
567.9170, 27662.00
569.0910, 27845.00
570.2640, 27755.00
571.4380, 27632.00
572.6110, 27859.00
573.7840, 27937.00
574.9570, 27816.00
576.1290, 27796.00
577.3020, 27921.00
578.4740, 28099.00
579.6460, 27890.00
580.8180, 27991.00
581.9900, 28201.00
583.1620, 27908.00
584.3330, 27906.00
585.5040, 28233.00
586.6760, 28199.00
587.8470, 28232.00
589.0180, 28118.00
590.1880, 28273.00
591.3590, 28111.00
592.5290, 28244.00
593.7000, 28206.00
594.8700, 28430.00
596.0400, 28243.00
597.2090, 28481.00
598.3790, 28627.00
599.5490, 28445.00
600.7180, 28473.00
601.8870, 28415.00
603.0560, 28664.00
604.2250, 28480.00
605.3940, 28872.00
606.5620, 28447.00
607.7300, 28615.00
608.8990, 28735.00
610.0670, 28619.00
611.2350, 28652.00
612.4020, 28659.00
613.5700, 28656.00
614.7370, 29029.00
615.9050, 28890.00
617.0720, 28907.00
618.2390, 28978.00
619.4060, 28814.00
620.5720, 29136.00
621.7390, 28905.00
622.9050, 28882.00
624.0710, 29012.00
625.2370, 28806.00
626.4030, 29235.00
627.5690, 29194.00
628.7340, 28838.00
629.9000, 29190.00
631.0650, 29206.00
632.2300, 29098.00
633.3950, 29135.00
634.5600, 29344.00
635.7240, 29190.00
636.8890, 29325.00
638.0530, 29314.00
639.2170, 29392.00
640.3810, 29222.00
641.5450, 29099.00
642.7080, 29401.00
643.8720, 29762.00
645.0350, 29497.00
646.1980, 29711.00
647.3610, 29467.00
648.5240, 29654.00
649.6870, 29368.00
650.8490, 29700.00
652.0120, 29688.00
653.1740, 29730.00
654.3360, 29811.00
655.4980, 29701.00
656.6600, 29787.00
657.8210, 29849.00
658.9830, 29921.00
660.1440, 29956.17
661.3050, 29902.00
662.4660, 30015.00
663.6270, 29965.00
664.7870, 29996.18
665.9480, 30056.00
667.1080, 30006.00
668.2680, 29980.00
669.4280, 30083.00
670.5880, 30142.00
671.7480, 30038.00
672.9070, 30119.00
674.0670, 30279.00
675.2260, 30135.00
676.3850, 30367.00
677.5440, 30200.00
678.7030, 30345.00
679.8610, 30530.00
681.0200, 30323.00
682.1780, 30727.00
683.3360, 30519.00
684.4940, 30365.00
685.6520, 30385.00
686.8090, 30449.00
687.9670, 30477.00
689.1240, 30577.00
690.2810, 30736.00
691.4380, 30785.00
692.5950, 30793.00
693.7520, 30807.00
694.9080, 30871.00
696.0650, 30789.00
697.2210, 30963.00
698.3770, 30736.00
699.5330, 31033.00
700.6880, 31137.00
701.8440, 31187.00
702.9990, 30831.00
704.1550, 31026.00
705.3100, 31126.00
706.4650, 31116.00
707.6190, 31428.00
708.7740, 31443.00
709.9290, 31265.00
711.0830, 31456.00
712.2370, 31325.00
713.3910, 31619.00
714.5450, 31677.00
715.6980, 31763.00
716.8520, 31681.00
718.0050, 31709.00
719.1580, 32013.00
720.3110, 31825.00
721.4640, 32012.00
722.6170, 31914.00
723.7700, 31840.00
724.9220, 31960.00
726.0740, 31859.00
727.2260, 31935.37
728.3780, 31938.95
729.5300, 32051.00
730.6810, 32007.00
731.8330, 32074.00
732.9840, 32221.00
734.1350, 32311.00
735.2860, 31931.00
736.4370, 32077.00
737.5880, 32085.00
738.7380, 32476.00
739.8880, 32292.00
741.0390, 32379.00
742.1890, 32303.00
743.3380, 32287.00
744.4880, 32341.59
745.6380, 32188.00
746.7870, 32373.00
747.9360, 32318.00
749.0850, 32226.00
750.2340, 32387.00
751.3830, 32373.00
752.5310, 32356.00
753.6800, 32386.00
754.8280, 32380.00
755.9760, 32376.79
757.1240, 32482.00
758.2720, 32387.00
759.4190, 32363.00
760.5670, 32410.00
761.7140, 32553.00
762.8610, 32384.00
764.0080, 32456.00
765.1550, 32461.00
766.3020, 32434.00
767.4480, 32456.00
768.5950, 32500.00
769.7410, 32472.00
770.8870, 32487.00
772.0330, 32479.00
773.1780, 32592.00
774.3240, 32663.00
775.4690, 32563.00
776.6140, 32715.00
777.7590, 32737.00
778.9040, 32829.00
780.0490, 32971.00
781.1940, 32842.00
782.3380, 32992.00
783.4820, 32970.00
784.6260, 32985.00
785.7700, 32611.00
786.9140, 32919.00
788.0580, 32846.00
789.2010, 32988.00
790.3450, 33094.00
791.4880, 32982.00
792.6310, 32958.00
793.7730, 33129.00
794.9160, 33225.00
796.0590, 33061.00
797.2010, 33152.00
798.3430, 33257.00
799.4850, 33400.00
800.6270, 33099.00
801.7690, 33353.00
802.9100, 33412.00
804.0520, 33330.00
805.1930, 33490.00
806.3340, 33443.00
807.4750, 33516.00
808.6160, 33308.00
809.7560, 33433.00
810.8970, 33635.00
812.0370, 33784.00
813.1770, 33409.00
814.3170, 33593.00
815.4570, 33664.00
816.5960, 33596.00
817.7360, 33711.00
818.8750, 33752.00
820.0140, 33683.00
821.1530, 33601.00
822.2920, 33559.00
823.4310, 33557.34
824.5690, 33925.00
825.7070, 33581.00
826.8460, 33811.00
827.9840, 33810.00
829.1220, 33722.00
830.2590, 33893.00
831.3970, 33944.00
832.5340, 33875.00
833.6710, 33821.00
834.8080, 33884.00
835.9450, 33691.00
837.0820, 34091.00
838.2190, 34062.00
839.3550, 34020.00
840.4910, 33918.00
841.6270, 34131.00
842.7630, 34175.00
843.8990, 34218.00
845.0350, 34162.00
846.1700, 34208.00
847.3060, 34193.65
848.4410, 34214.00
849.5760, 34191.00
850.7100, 34193.00
851.8450, 34205.00
852.9800, 34251.00
854.1140, 34380.00
855.2480, 34606.00
856.3820, 34316.00
857.5160, 34599.00
858.6500, 34480.00
859.7830, 34657.00
860.9170, 34453.00
862.0500, 34466.00
863.1830, 34354.00
864.3160, 34742.00
865.4480, 34687.00
866.5810, 34918.00
867.7130, 34501.00
868.8460, 34327.00
869.9780, 34420.00
871.1100, 34753.00
872.2410, 34606.00
873.3730, 34571.00
874.5050, 34708.00
875.6360, 34745.00
876.7670, 34710.00
877.8980, 34752.00
879.0290, 34749.18
880.1590, 34916.00
881.2900, 34768.00
882.4200, 34844.00
883.5500, 34875.00
884.6800, 34666.00
885.8100, 34904.00
886.9400, 34691.00
888.0690, 34804.00
889.1990, 35125.00
890.3280, 34998.00
891.4570, 34903.00
892.5860, 34931.00
893.7140, 35029.00
894.8430, 35358.00
895.9710, 35208.00
897.1000, 34999.00
898.2280, 35257.00
899.3560, 34970.00
900.4830, 35208.00
901.6110, 35184.00
902.7380, 35175.00
903.8660, 35238.00
904.9930, 35349.00
906.1200, 35147.00
907.2460, 35260.00
908.3730, 35485.00
909.5000, 35242.00
910.6260, 35346.00
911.7520, 35363.00
912.8780, 35470.00
914.0040, 35575.00
915.1290, 35687.00
916.2550, 35430.00
917.3800, 35770.00
918.5050, 35513.00
919.6300, 35543.00
920.7550, 35666.00
921.8800, 35659.00
923.0040, 35724.00
924.1290, 35847.00
925.2530, 35842.00
926.3770, 35862.00
927.5010, 35805.00
928.6250, 35825.00
929.7480, 35623.00
930.8720, 35772.00
931.9950, 35929.00
933.1180, 36163.00
934.2410, 35852.00
935.3640, 36017.00
936.4860, 36106.00
937.6090, 35938.00
938.7310, 36036.00
939.8530, 36289.00
940.9750, 36115.00
942.0970, 35969.00
943.2180, 36236.00
944.3400, 36044.00
945.4610, 36215.00
946.5820, 36132.00
947.7030, 36345.00
948.8240, 36208.00
949.9450, 36405.00
951.0650, 36237.00
952.1860, 36368.00
953.3060, 36356.00
954.4260, 36464.00
955.5460, 36577.00
956.6650, 36514.00
957.7850, 36644.00
958.9040, 36511.00
960.0230, 36607.00
961.1420, 36569.00
962.2610, 36686.00
963.3800, 36807.00
964.4990, 36846.00
965.6170, 36784.00
966.7350, 36605.00
967.8530, 36526.00
968.9710, 36817.00
970.0890, 37158.00
971.2070, 36868.00
972.3240, 36949.00
973.4410, 36920.00
974.5580, 36996.00
975.6750, 37077.00
976.7920, 37128.00
977.9090, 37084.00
979.0250, 37175.00
980.1410, 37180.00
981.2580, 37200.67
982.3740, 37251.00
983.4890, 37268.00
984.6050, 37365.00
985.7200, 37442.00
986.8360, 37362.00
987.9510, 37525.00
989.0660, 37295.00
990.1810, 37492.00
991.2950, 37509.00
992.4100, 37565.00
993.5240, 37581.00
994.6390, 37626.45
995.7530, 37600.50
996.8660, 37704.00
997.9800, 37562.00
999.0940, 37570.00
1000.207, 37616.00
1001.320, 37563.77
1002.433, 37638.00
1003.546, 37659.00
1004.659, 37729.00
1005.772, 37968.00
1006.884, 37825.00
1007.996, 37906.00
1009.108, 38055.00
1010.220, 37804.00
1011.332, 37969.00
1012.444, 37863.00
1013.555, 38116.00
1014.666, 37988.00
1015.777, 38137.00
1016.888, 38245.00
1017.999, 38141.00
1019.110, 38276.95
1020.220, 38449.00
1021.331, 38375.00
1022.441, 38244.00
1023.551, 38285.00
1024.661, 38388.00
1025.770, 38177.00
1026.880, 38058.00
1027.989, 38413.00
1029.098, 38430.00
1030.207, 38367.00
1031.316, 38255.00
1032.425, 38306.21
1033.533, 38584.00
1034.642, 38331.00
1035.750, 38423.00
1036.858, 38405.00
1037.966, 38856.00
1039.073, 38705.00
1040.181, 38813.00
1041.288, 38709.00
1042.396, 38867.00
1043.503, 38754.00
1044.610, 38901.00
1045.716, 38796.00
1046.823, 38747.00
1047.929, 38694.00
1049.036, 38824.00
1050.142, 39004.00
1051.248, 38934.00
1052.353, 38606.00
1053.459, 38806.00
1054.564, 38742.00
1055.670, 39012.00
1056.775, 38940.00
1057.880, 39159.00
1058.985, 38989.00
1060.089, 39051.00
1061.194, 39040.00
1062.298, 39130.00
1063.402, 39189.00
1064.506, 39205.40
1065.610, 39276.00
1066.713, 39265.00
1067.817, 39271.00
1068.920, 39301.00
1070.023, 39461.00
1071.126, 39370.00
1072.229, 39360.00
1073.332, 39584.00
1074.435, 39537.00
1075.537, 39445.00
1076.639, 39380.00
1077.741, 39373.00
1078.843, 39600.00
1079.945, 39529.00
1081.046, 39585.00
1082.148, 39452.00
1083.249, 39958.00
1084.350, 39531.00
1085.451, 39872.00
1086.551, 39583.00
1087.652, 40049.00
1088.752, 39644.00
1089.853, 39634.00
1090.953, 40062.00
1092.053, 39869.00
1093.152, 39810.00
1094.252, 40018.00
1095.351, 40017.00
1096.451, 39993.00
1097.550, 40208.00
1098.649, 39918.00
1099.748, 40151.00
1100.846, 40212.00
1101.945, 40099.00
1103.043, 40233.00
1104.141, 40220.00
1105.239, 40247.00
1106.337, 40415.00
1107.434, 40400.00
1108.532, 40017.00
1109.629, 40319.00
1110.726, 40201.00
1111.823, 40541.00
1112.920, 40418.00
1114.017, 40541.00
1115.113, 40648.00
1116.210, 40745.00
1117.306, 40601.00
1118.402, 40688.00
1119.498, 40488.00
1120.593, 40842.00
1121.689, 40883.00
1122.784, 40914.00
1123.879, 40901.00
1124.974, 40631.00
1126.069, 41047.00
1127.164, 40949.00
1128.259, 40733.00
1129.353, 41041.00
1130.447, 40867.00
1131.541, 40823.00
1132.635, 41304.00
1133.729, 40973.00
1134.822, 40954.00
1135.916, 41086.00
1137.009, 41493.00
1138.102, 41280.00
1139.195, 41270.00
1140.288, 41274.00
1141.380, 41227.00
1142.473, 41105.00
1143.565, 41281.00
1144.657, 41160.00
1145.749, 41211.00
1146.841, 41535.00
1147.932, 41386.00
1149.024, 41554.00
1150.115, 41505.00
1151.206, 41470.00
1152.297, 41569.07
1153.388, 41678.00
1154.479, 41661.00
1155.569, 41679.00
1156.659, 41702.00
1157.750, 41722.00
1158.839, 41654.00
1159.929, 41676.77
1161.019, 41817.00
1162.108, 41716.00
1163.198, 41726.00
1164.287, 41876.00
1165.376, 41953.00
1166.465, 41896.00
1167.553, 42013.00
1168.642, 41857.00
1169.730, 42214.00
1170.818, 41911.00
1171.906, 42201.00
1172.994, 42108.00
1174.082, 42107.00
1175.170, 42212.00
1176.257, 42060.00
1177.344, 42079.00
1178.431, 42132.00
1179.518, 42135.00
1180.605, 42279.00
1181.691, 42258.00
1182.778, 42305.52
1183.864, 42365.00
1184.950, 42344.00
1186.036, 42359.00
1187.122, 42369.00
1188.207, 42340.00
1189.292, 42422.00
1190.378, 42396.54
1191.463, 42668.00
1192.548, 42477.00
1193.632, 42725.00
1194.717, 42945.00
1195.801, 42849.00
1196.886, 42940.56
1197.970, 42728.00
1199.054, 42866.00
1200.137, 42812.00
1201.221, 42833.00
1202.305, 42834.00
1203.388, 42783.40
1204.471, 43010.00
1205.554, 42771.00
1206.637, 42690.00
1207.719, 42834.00
1208.802, 43034.00
1209.884, 43054.00
1210.966, 43069.00
1212.048, 43030.00
1213.130, 43291.00
1214.212, 43069.00
1215.293, 43335.00
1216.374, 43218.00
1217.456, 43383.00
1218.536, 43251.00
1219.617, 43243.00
1220.698, 43275.00
1221.778, 43161.00
1222.859, 43364.00
1223.939, 43194.00
1225.019, 43228.25
1226.099, 43427.00
1227.178, 43274.00
1228.258, 43502.00
1229.337, 43727.00
1230.417, 43707.00
1231.496, 43762.00
1232.574, 43424.00
1233.653, 43652.00
1234.732, 43648.00
1235.810, 43742.00
1236.888, 43857.00
1237.966, 43905.00
1239.044, 44152.00
1240.122, 43780.00
1241.199, 43822.00
1242.277, 43958.00
1243.354, 44275.00
1244.431, 44009.00
1245.508, 44244.00
1246.585, 44214.00
1247.661, 44173.00
1248.738, 44187.00
1249.814, 44141.86
1250.890, 44447.00
1251.966, 44159.00
1253.042, 44209.00
1254.117, 44385.00
1255.193, 44264.00
1256.268, 44626.00
1257.343, 44609.00
1258.418, 44602.00
1259.493, 44260.00
1260.567, 44564.00
1261.642, 44468.00
1262.716, 44554.00
1263.790, 44713.00
1264.864, 44799.00
1265.938, 44680.00
1267.011, 44626.00
1268.085, 44586.00
1269.158, 44746.00
1270.231, 44917.00
1271.304, 44927.00
1272.377, 44987.00
1273.450, 45213.00
1274.522, 44914.00
1275.594, 44690.00
1276.666, 45174.00
1277.738, 44983.00
1278.810, 45085.00
1279.882, 45162.00
1280.953, 45007.00
1282.025, 45325.00
1283.096, 45267.00
1284.167, 45093.00
1285.238, 45358.00
1286.308, 45330.00
1287.379, 45334.00
1288.449, 45547.00
1289.519, 45533.87
1290.589, 45418.00
1291.659, 45642.00
1292.729, 45512.00
1293.798, 45469.00
1294.868, 45500.00
1295.937, 45589.00
1297.006, 45601.00
1298.075, 45713.00
1299.143, 45903.00
1300.212, 45634.00
1301.280, 45557.00
1302.348, 45656.00
1303.416, 45861.00
1304.484, 45862.00
1305.552, 45870.00
1306.620, 45898.00
1307.687, 45782.00
1308.754, 46177.00
1309.821, 45800.00
1310.888, 45981.00
1311.955, 46189.00
1313.021, 45909.00
1314.088, 46046.00
1315.154, 46100.00
1316.220, 46354.00
1317.286, 46042.00
1318.352, 46016.00
1319.417, 46133.00
1320.483, 46095.00
1321.548, 46310.00
1322.613, 46126.00
1323.678, 46485.00
1324.743, 46413.00
1325.807, 46255.00
1326.872, 46516.00
1327.936, 46379.00
1329.000, 46580.00
1330.064, 46494.00
1331.128, 46724.00
1332.191, 46692.00
