##NAMES=Buseckite
##RRUFFID=R130007
##IDEAL CHEMISTRY=(Fe^2+^,Zn^2+^,Mn^2+^)S^2-^
##LOCALITY=Zakłodzie meteorite, Zakłodzie, Poland
##OWNER=Chi Ma
##SOURCE=Chi Ma
##DESCRIPTION=Black grains associated with enstatite, plagioclase, quartz, and tridymite. Data from Ma et al (2012)
##STATUS=The identification of this mineral is confirmed by electron back-scatter diffraction and chemical analysis
##URL=rruff.info/R130007
##MEASURED CHEMISTRY=(Fe_0.46_Zn_0.32_Mn_0.16_Mg_0.04_)_Σ=0.99_S_1.01_
827.903, -47.343
826.794, 595.169
825.685, 432.717
824.575, 673.66
823.465, 590.118
822.355, 650.735
821.244, 565.001
820.133, 670.597
819.022, 654.651
817.91, 508.273
816.798, 672.252
815.686, 645.083
814.573, 833.646
813.461, 925.508
812.347, 579.399
811.234, 698.224
810.12, 751.893
809.006, 641.734
807.891, 722.31
806.777, 583.069
805.661, 526.859
804.546, 593.955
803.43, 528.811
802.314, 680.996
801.198, 553.159
800.081, 709.735
798.964, 622.251
797.847, 631.037
796.73, 921.697
795.612, 516.641
794.494, 626.068
793.375, 431.428
792.257, 614.571
791.138, 614.413
790.019, 703.603
788.899, 797.215
787.779, 437.576
786.659, 852.614
785.539, 711.822
784.418, 455.096
783.297, 715.931
782.176, 597.578
781.055, 521.639
779.933, 639.633
778.811, 735.289
777.689, 641.553
776.566, 650.309
775.443, 632.342
774.32, 636.645
773.197, 574.182
772.073, 780.972
770.949, 653.996
769.825, 587.127
768.701, 755.974
767.576, 764.694
766.451, 680.068
765.326, 813.231
764.201, 784.17
763.075, 601.877
761.949, 743.852
760.823, 617.15
759.697, 663.624
758.57, 670.135
757.443, 789.789
756.316, 751.912
755.189, 789.449
754.061, 800.365
752.933, 766.945
751.805, 833.267
750.677, 489.663
749.548, 797.473
748.419, 728.65
747.29, 856.927
746.161, 664.147
745.032, 765.825
743.902, 681.578
742.772, 721.263
741.642, 785.266
740.511, 681.163
739.381, 888.872
738.25, 840.06
737.119, 718.329
735.987, 727.026
734.856, 766.652
733.724, 879.157
732.592, 799.48
731.46, 869.983
730.328, 649.049
729.195, 885.098
728.062, 710.591
726.929, 653.089
725.796, 882.385
724.662, 835.902
723.528, 1098.15
722.394, 859.84
721.26, 727.421
720.126, 905.801
718.991, 890.209
717.857, 861.405
716.722, 759.924
715.586, 742.167
714.451, 746.435
713.315, 946.634
712.18, 1192.98
711.044, 750.432
709.907, 772.301
708.771, 930.555
707.634, 787.422
706.498, 1154.54
705.361, 952.049
704.223, 868.344
703.086, 1041.83
701.948, 922.98
700.81, 747.045
699.672, 1083.03
698.534, 924.698
697.396, 1014.58
696.257, 926.576
695.118, 1005.45
693.979, 1110.63
692.84, 1163.12
691.701, 1066.38
690.561, 925.792
689.422, 978.279
688.282, 1006.63
687.142, 793.764
686.001, 971.213
684.861, 916.253
683.72, 1084.86
682.579, 1156.99
681.438, 924.564
680.297, 1049.27
679.155, 976.827
678.014, 1007.33
676.872, 853.899
675.73, 1125.21
674.588, 1000.27
673.445, 1127.04
672.303, 1203.44
671.16, 1010.73
670.017, 962.446
668.874, 1323.15
667.731, 933.714
666.587, 1165.32
665.444, 970.581
664.3, 1060.04
663.156, 1070.8
662.012, 1059.71
660.867, 1085.76
659.723, 1096.51
658.578, 1081.05
657.433, 1211.9
656.288, 1034.87
655.143, 1255.18
653.997, 1110.94
652.852, 997.291
651.706, 1082.23
650.56, 1195.51
649.414, 1036.1
648.267, 1247.49
647.121, 1094.66
645.974, 1101.03
644.828, 1113.94
643.681, 1020.05
642.533, 1362.04
641.386, 1191.88
640.238, 1226.56
639.091, 1154.49
637.943, 1176.09
636.795, 1184.63
635.647, 1223.64
634.498, 1188.63
633.35, 1290.75
632.201, 1303.62
631.052, 1161.98
629.903, 1268.42
628.754, 1281.28
627.604, 1300.67
626.455, 1346.14
625.305, 1087.19
624.155, 1224
623.005, 1334.68
621.855, 1206.25
620.704, 1360.36
619.554, 1360.16
618.403, 1253.51
617.252, 1003.53
616.101, 1101.12
614.95, 1159.58
613.798, 1278.83
612.647, 1391.53
611.495, 1263.26
610.343, 1176.27
609.191, 1330.16
608.038, 1173.75
606.886, 1472.94
605.733, 1271.01
604.581, 1281.67
603.428, 1376.89
602.275, 1103.52
601.121, 1166.22
599.968, 1419.64
598.814, 1521.28
597.66, 1391.06
596.506, 1280.37
595.352, 1265.02
594.198, 1262.67
593.043, 1299.3
591.889, 1374.89
590.734, 1359.53
589.579, 1426.44
588.424, 1155.7
587.269, 1149.04
586.113, 1291.67
584.957, 1166.01
583.802, 1284.81
582.646, 1397.08
581.49, 1262.81
580.333, 1169.66
579.177, 1175.97
578.02, 1322.78
576.863, 1426.32
575.706, 1218.68
574.549, 1237.94
573.392, 1637.39
572.234, 1356.37
571.077, 1358.33
569.919, 1355.98
568.761, 1325.55
567.603, 1454.87
566.444, 1355.38
565.286, 1191.18
564.127, 1275.15
562.968, 1331.06
561.809, 1074.18
560.65, 1231.46
559.491, 961.735
558.331, 1306.56
557.171, 1138.22
556.011, 1319.11
554.851, 1327.54
553.691, 1506.19
552.531, 1191.41
551.37, 1232.17
550.21, 1367.68
549.049, 1162.89
547.888, 1171.33
546.726, 1166.85
545.565, 1028.92
544.403, 1125.62
543.242, 1052.28
542.08, 1088.7
540.918, 1284.31
539.755, 1393.82
538.593, 1176.39
537.43, 1212.77
536.267, 1279.24
535.104, 1349.99
533.941, 962.908
532.778, 1203.45
531.614, 1263.44
530.451, 1448.01
529.287, 1280.24
528.123, 1320.86
526.959, 1316.36
525.794, 1165.87
524.63, 1148.52
523.465, 1251.38
522.3, 1206.12
521.135, 1371.16
519.97, 1197.17
518.804, 1467.28
517.639, 1177.5
516.473, 1301.71
515.307, 1365.83
514.141, 1284.16
512.975, 1168.21
511.808, 1191.61
510.642, 1268.57
509.475, 1332.65
508.308, 1253.19
507.14, 1385.79
505.973, 1436.97
504.806, 1340.4
503.638, 1404.42
502.47, 1282.19
501.302, 1408.26
500.133, 1470.1
498.965, 1322.24
497.796, 1570.19
496.627, 1604.17
495.458, 1310.93
494.289, 1347.08
493.12, 1413.14
491.95, 1222.68
490.781, 1553.76
489.611, 1294.95
488.441, 1711.38
487.27, 1315.91
486.1, 1646.76
484.929, 1392.37
483.758, 1398.56
482.587, 1287.32
481.416, 1613.7
480.245, 1368.01
479.073, 1165.08
477.901, 1514.79
476.729, 1499.62
475.557, 1571.9
474.385, 1401.05
473.212, 1368.84
472.04, 1091.49
470.867, 1590.07
469.694, 1363.92
468.52, 1408.45
467.347, 1648.96
466.173, 1339.83
464.999, 1301.28
463.825, 1688.62
462.651, 1688.34
461.477, 1628.47
460.302, 1479.22
459.127, 1568.35
457.952, 1470.22
456.777, 1533.8
455.602, 1790.92
454.426, 1443.98
453.25, 1445.87
452.074, 1337.21
450.898, 1515.54
449.722, 1364.4
448.545, 1413.05
447.369, 1427.69
446.192, 1465.69
445.015, 1584.38
443.837, 1603.23
442.66, 1732.48
441.482, 1362.83
440.304, 1513.29
439.126, 1638.24
437.948, 1578.56
436.769, 1444.65
435.591, 1851.64
434.412, 1541.72
433.233, 1543.58
432.053, 1507.28
430.874, 1430.73
429.694, 1718.7
428.514, 1521.36
427.334, 1514.74
426.154, 1972.01
424.974, 1726.01
423.793, 1588.09
422.612, 1583.59
421.431, 1606.6
420.25, 1788.34
419.068, 1622.98
417.887, 1815.23
416.705, 1817.04
415.523, 1624.27
414.34, 1894.66
413.158, 1691.37
411.975, 1817.91
410.792, 1859.87
409.609, 1728.54
408.426, 1819.09
407.243, 1888.49
406.059, 1567.14
404.875, 1965.97
403.691, 1790.4
402.507, 1863.97
401.322, 1796.11
400.137, 1911.86
398.952, 1879.89
397.767, 1885.89
396.582, 2128.11
395.396, 1988.57
394.211, 1779.49
393.025, 1903.56
391.839, 1993.85
390.652, 1681.63
389.466, 1959.45
388.279, 1931.72
387.092, 1986.15
385.905, 1956.32
384.717, 2027.57
383.53, 1999.85
382.342, 2016.34
381.154, 1933.91
379.966, 1971.45
378.777, 2084.7
377.589, 1991.79
376.4, 2123.93
375.211, 1915.4
374.022, 2070.63
372.832, 2091.28
371.643, 1969.03
370.453, 2134.67
369.263, 2254.04
368.072, 2060.41
366.882, 2160.85
365.691, 2246.55
364.5, 2279.74
363.309, 2214.28
362.118, 2335.6
360.926, 2033.06
359.734, 2114.52
358.542, 2388.9
357.35, 2027.8
356.158, 2094.53
354.965, 2060.62
353.772, 2464.77
352.579, 2430.8
351.386, 2151.72
350.193, 2312.64
348.999, 2345.74
347.805, 2307.64
346.611, 2361.67
345.417, 2505.69
344.222, 2406.88
343.028, 2580.14
341.833, 2391.39
340.638, 2539.49
339.442, 2300.61
338.247, 2536.5
337.051, 2835.03
335.855, 2763.46
334.659, 2742.07
333.462, 2902.49
332.266, 3046.14
331.069, 2859.7
329.872, 3118.17
328.675, 3161.48
327.477, 3313.33
326.28, 3279.35
325.082, 3608.53
323.884, 3555.73
322.686, 3838.85
321.487, 3763.09
320.288, 4315.12
319.089, 4185.08
317.89, 4384.5
316.691, 4281.59
315.491, 4618.48
314.292, 4807.3
313.092, 4806.46
311.892, 4659.81
310.691, 4996.4
309.491, 4789.38
308.29, 5069.62
307.089, 5362.25
305.888, 5783.82
304.686, 5888.94
303.485, 6046.05
302.283, 6188.54
301.081, 6000.29
299.879, 6238.4
298.676, 6276.83
297.474, 6427.5
296.271, 6461.74
295.068, 6425.3
293.864, 6484.46
292.661, 5951.56
291.457, 6164.47
290.253, 6202.88
289.049, 5938.14
287.845, 5580.08
286.641, 5521.02
285.436, 5414.25
284.231, 5143.61
283.026, 5007.9
281.821, 4679.34
280.615, 4595.6
279.409, 4310.76
278.203, 4322.48
276.997, 4182.89
275.791, 3927.28
274.585, 3990.86
273.378, 3673.23
272.171, 3629.12
270.964, 3406.92
269.757, 2975.64
268.549, 3014.49
267.341, 3053.33
266.133, 3023.86
264.925, 2919.9
263.717, 2809.76
262.509, 2736.9
261.3, 2771.62
260.091, 2719.48
258.882, 2446.1
257.673, 2751.68
256.463, 2637.56
255.254, 2785.94
254.044, 2659.45
252.834, 2898.69
251.624, 2598.7
250.413, 2505.35
249.203, 2699.08
247.992, 2465.34
246.781, 2436.05
245.57, 2512.04
244.358, 2794.4
243.147, 2550.48
241.935, 2688.32
240.723, 2574.45
239.511, 2481.24
238.299, 2503.55
237.086, 2585.65
235.874, 2772.87
234.661, 2690
233.448, 2681.36
232.235, 2538.77
231.021, 2678.5
229.808, 2702.83
228.594, 2871.33
227.38, 2772.06
226.166, 2658.4
224.952, 2948.32
223.737, 2692.63
222.523, 2684.65
221.308, 2672.61
220.093, 2742.92
218.878, 3131.39
217.663, 3093.92
216.447, 2836.39
215.231, 2975.84
214.016, 3117.31
212.8, 3147.72
211.584, 2935.56
210.367, 3130.42
209.151, 3086.84
207.934, 3293.97
206.717, 3096.29
205.501, 2921.27
204.283, 2949.64
203.066, 2926.66
201.849, 3240.47
200.631, 2962.86
199.413, 3274.54
198.196, 3666.2
196.978, 3242.93
195.759, 3070.13
194.541, 3211.34
193.323, 3132.98
192.104, 3118.23
190.885, 3429.64
189.666, 3259
188.447, 3377.55
187.228, 3342.29
186.009, 3487.47
184.789, 3228.76
183.569, 3320.63
182.35, 3424.77
181.13, 3588.33
179.91, 3309.25
178.689, 3521.97
177.469, 3505.19
176.249, 3537.58
175.028, 3313.95
173.807, 3753.91
172.586, 3579.45
171.365, 3718.31
170.144, 3330.98
168.923, 3690.93
167.702, 3620.96
166.48, 3428.21
165.259, 3425.83
164.037, 3353.87
162.815, 3419.03
161.593, 3207.97
160.371, 3058.34
159.149, 3587.84
157.927, 3012.78
156.704, 3225.2
155.482, 3116.53
##END=



