##NAMES=Calcite
##RRUFFID=R050307
##IDEAL CHEMISTRY=CaCO_3_
##LOCALITY=Zaire
##OWNER=RRUFF
##SOURCE=Eugene Schlepp
##DESCRIPTION=Group of pink prismatic crystals
##STATUS=The identification of this mineral has been confirmed by X-ray diffraction and chemical analysis
##URL=rruff.info/R050307
##MEASURED CHEMISTRY=Ca_1.00_CO_3_
##PIN_ID=L01569
##ORIENTATION=Laser parallel to -c* (0 0 -1). Fiducial mark perpendicular to laser is parallel to a [1 0 0]
116.9030, 7606.000
118.1340, 7610.000
119.3650, 7736.000
120.5960, 7739.000
121.8270, 7737.000
123.0580, 7880.000
124.2880, 7887.000
125.5190, 7921.000
126.7490, 7928.000
127.9790, 8101.000
129.2090, 8007.000
130.4390, 8165.000
131.6680, 8184.000
132.8980, 8241.000
134.1270, 8180.000
135.3560, 8169.000
136.5850, 8253.000
137.8140, 8230.000
139.0430, 8361.000
140.2710, 8424.000
141.5000, 8449.000
142.7280, 8503.000
143.9560, 8582.333
145.1840, 8663.000
146.4120, 8749.000
147.6390, 8901.000
148.8670, 8986.000
150.0940, 9127.000
151.3210, 9071.000
152.5490, 9135.000
153.7750, 9154.000
155.0020, 9327.000
156.2290, 9134.000
157.4550, 9151.000
158.6810, 9014.000
159.9080, 8951.000
161.1340, 8850.000
162.3590, 8980.000
163.5850, 8815.000
164.8110, 8804.000
166.0360, 8966.000
167.2610, 8960.000
168.4860, 8856.000
169.7110, 8856.000
170.9360, 8892.000
172.1610, 8890.000
173.3850, 8879.000
174.6100, 8978.000
175.8340, 8874.000
177.0580, 8952.000
178.2820, 9039.000
179.5050, 8994.000
180.7290, 9004.000
181.9520, 9045.000
183.1760, 9052.000
184.3990, 9091.000
185.6220, 9082.000
186.8450, 9220.000
188.0670, 9185.000
189.2900, 9206.000
190.5120, 9218.000
191.7340, 9130.000
192.9560, 9250.000
194.1780, 9343.000
195.4000, 9214.000
196.6220, 9156.000
197.8430, 9332.000
199.0640, 9361.000
200.2860, 9268.000
201.5070, 9350.000
202.7270, 9290.000
203.9480, 9326.000
205.1690, 9402.000
206.3890, 9387.000
207.6090, 9302.000
208.8290, 9323.000
210.0490, 9384.000
211.2690, 9554.000
212.4890, 9489.000
213.7080, 9469.000
214.9280, 9584.000
216.1470, 9451.000
217.3660, 9483.000
218.5850, 9527.000
219.8030, 9457.000
221.0220, 9580.000
222.2400, 9632.000
223.4590, 9634.000
224.6770, 9648.000
225.8950, 9702.915
227.1120, 9693.000
228.3300, 9776.000
229.5480, 9760.000
230.7650, 9736.000
231.9820, 9768.000
233.1990, 9781.498
234.4160, 9735.000
235.6330, 9835.000
236.8490, 9814.000
238.0660, 9795.000
239.2820, 9861.000
240.4980, 9930.000
241.7140, 9934.161
242.9300, 10014.00
244.1460, 9976.000
245.3610, 9977.000
246.5770, 9975.000
247.7920, 9992.000
249.0070, 10047.00
250.2220, 10032.00
251.4370, 10123.00
252.6510, 10176.00
253.8660, 10226.57
255.0800, 10140.00
256.2940, 10318.00
257.5080, 10305.00
258.7220, 10254.00
259.9360, 10454.00
261.1490, 10381.00
262.3630, 10582.00
263.5760, 10483.00
264.7890, 10661.00
266.0020, 10804.00
267.2150, 10923.00
268.4270, 10915.00
269.6400, 11165.00
270.8520, 11408.00
272.0640, 11743.00
273.2760, 11946.00
274.4880, 12162.85
275.7000, 12324.90
276.9120, 12497.00
278.1230, 12517.00
279.3340, 12599.00
280.5450, 12598.00
281.7560, 12488.00
282.9670, 12318.00
284.1780, 12143.00
285.3880, 11737.00
286.5980, 11472.00
287.8090, 11223.00
289.0190, 11140.00
290.2290, 10911.00
291.4380, 10767.00
292.6480, 10830.00
293.8570, 10860.00
295.0670, 10700.00
296.2760, 10741.00
297.4850, 10770.00
298.6930, 10764.00
299.9020, 10742.00
301.1110, 10752.03
302.3190, 10752.54
303.5270, 10751.00
304.7350, 10781.00
305.9430, 10804.96
307.1510, 10839.00
308.3580, 10852.00
309.5660, 10844.00
310.7730, 10892.00
311.9800, 10775.00
313.1870, 10833.00
314.3940, 10970.00
315.6010, 10786.00
316.8070, 10823.00
318.0130, 10914.00
319.2200, 10962.00
320.4260, 10861.00
321.6310, 10950.00
322.8370, 10893.00
324.0430, 10911.00
325.2480, 11055.00
326.4540, 10956.00
327.6590, 11013.00
328.8640, 10886.00
330.0680, 11046.00
331.2730, 11118.00
332.4780, 11036.00
333.6820, 10970.00
334.8860, 11046.00
336.0900, 11124.00
337.2940, 11105.00
338.4980, 11173.00
339.7010, 11213.00
340.9050, 11097.00
342.1080, 11217.00
343.3110, 11138.00
344.5140, 11228.00
345.7170, 11189.00
346.9200, 11279.00
348.1220, 11241.00
349.3240, 11357.00
350.5270, 11269.00
351.7290, 11171.00
352.9310, 11297.00
354.1320, 11230.00
355.3340, 11116.00
356.5350, 11323.00
357.7370, 11201.00
358.9380, 11436.00
360.1390, 11287.00
361.3400, 11385.00
362.5400, 11558.00
363.7410, 11547.00
364.9410, 11324.00
366.1410, 11389.00
367.3410, 11528.00
368.5410, 11482.00
369.7410, 11664.00
370.9400, 11498.00
372.1400, 11504.00
373.3390, 11547.00
374.5380, 11566.00
375.7370, 11400.00
376.9360, 11596.00
378.1350, 11515.00
379.3330, 11584.00
380.5310, 11713.00
381.7300, 11481.00
382.9280, 11755.00
384.1260, 11697.00
385.3230, 11802.00
386.5210, 11664.00
387.7180, 11721.00
388.9160, 11807.00
390.1130, 11854.00
391.3100, 11789.00
392.5060, 11801.00
393.7030, 11746.00
394.9000, 11758.00
396.0960, 11906.00
397.2920, 11932.00
398.4880, 12017.00
399.6840, 11904.00
400.8800, 11899.00
402.0750, 11847.00
403.2710, 11985.00
404.4660, 12083.00
405.6610, 11994.00
406.8560, 12025.00
408.0510, 11984.00
409.2450, 12037.00
410.4400, 12023.00
411.6340, 12098.00
412.8280, 11958.00
414.0220, 12058.00
415.2160, 12081.00
416.4100, 11992.00
417.6030, 12126.00
418.7970, 12124.00
419.9900, 12150.00
421.1830, 12143.00
422.3760, 12220.00
423.5690, 12181.00
424.7610, 12250.00
425.9540, 12251.00
427.1460, 12275.00
428.3380, 12087.00
429.5300, 12120.00
430.7220, 12189.00
431.9140, 12159.07
433.1050, 12296.00
434.2970, 12258.00
435.4880, 12342.00
436.6790, 12396.00
437.8700, 12370.00
439.0610, 12475.00
440.2510, 12409.00
441.4420, 12308.00
442.6320, 12372.00
443.8220, 12294.00
445.0120, 12589.00
446.2020, 12477.00
447.3910, 12595.00
448.5810, 12446.00
449.7700, 12410.00
450.9600, 12482.00
452.1490, 12722.00
453.3370, 12560.00
454.5260, 12449.00
455.7150, 12706.00
456.9030, 12638.00
458.0910, 12598.00
459.2800, 12557.00
460.4670, 12772.00
461.6550, 12722.00
462.8430, 12793.00
464.0300, 12767.00
465.2180, 12806.00
466.4050, 12683.00
467.5920, 12815.00
468.7790, 12868.00
469.9650, 12802.00
471.1520, 12887.00
472.3380, 12913.00
473.5250, 12807.00
474.7110, 12868.00
475.8970, 12788.00
477.0820, 12864.00
478.2680, 12894.00
479.4540, 12862.00
480.6390, 12947.00
481.8240, 12881.00
483.0090, 13100.00
484.1940, 12951.00
485.3780, 13081.00
486.5630, 13052.00
487.7470, 12929.00
488.9320, 13080.00
490.1160, 12980.00
491.3000, 13152.00
492.4830, 13043.00
493.6670, 13132.00
494.8500, 13294.00
496.0340, 13045.00
497.2170, 13099.00
498.4000, 13149.00
499.5820, 13048.00
500.7650, 13240.00
501.9480, 13079.00
503.1300, 13274.00
504.3120, 13312.00
505.4940, 13151.00
506.6760, 13305.00
507.8580, 13189.00
509.0390, 13423.00
510.2210, 13349.00
511.4020, 13431.00
512.5830, 13387.00
513.7640, 13470.00
514.9450, 13220.00
516.1250, 13351.00
517.3060, 13215.00
518.4860, 13524.00
519.6660, 13372.00
520.8460, 13379.00
522.0260, 13421.00
523.2060, 13454.00
524.3850, 13478.00
525.5650, 13481.00
526.7440, 13586.00
527.9230, 13583.50
529.1020, 13671.00
530.2810, 13614.00
531.4590, 13599.00
532.6380, 13558.00
533.8160, 13727.00
534.9940, 13666.00
536.1720, 13704.00
537.3500, 13667.00
538.5270, 13541.00
539.7050, 13539.00
540.8820, 13547.00
542.0590, 13786.00
543.2360, 13827.00
544.4130, 13824.00
545.5900, 13864.00
546.7660, 13778.00
547.9430, 13810.00
549.1190, 13806.00
550.2950, 13843.00
551.4710, 13853.00
552.6470, 13845.00
553.8220, 13875.00
554.9980, 13877.00
556.1730, 13870.00
557.3480, 13806.00
558.5230, 14073.00
559.6980, 13926.00
560.8730, 13828.00
562.0470, 14089.00
563.2220, 14137.00
564.3960, 13922.00
565.5700, 14050.00
566.7440, 14130.00
567.9170, 14067.00
569.0910, 14144.00
570.2640, 14048.00
571.4380, 14167.00
572.6110, 14114.00
573.7840, 14225.00
574.9570, 14245.00
576.1290, 14293.78
577.3020, 14180.00
578.4740, 14352.00
579.6460, 14299.00
580.8180, 14178.00
581.9900, 14279.00
583.1620, 14173.00
584.3330, 14167.00
585.5040, 14302.00
586.6760, 14312.00
587.8470, 14270.00
589.0180, 14393.00
590.1880, 14407.00
591.3590, 14367.00
592.5290, 14434.07
593.7000, 14402.00
594.8700, 14445.00
596.0400, 14391.00
597.2090, 14339.00
598.3790, 14521.00
599.5490, 14552.00
600.7180, 14526.00
601.8870, 14587.00
603.0560, 14359.00
604.2250, 14493.00
605.3940, 14507.00
606.5620, 14502.00
607.7300, 14629.00
608.8990, 14533.00
610.0670, 14642.00
611.2350, 14656.00
612.4020, 14755.00
613.5700, 14768.00
614.7370, 14668.00
615.9050, 14693.00
617.0720, 14695.00
618.2390, 14725.00
619.4060, 14776.00
620.5720, 14740.00
621.7390, 14768.00
622.9050, 14831.00
624.0710, 14956.00
625.2370, 14916.00
626.4030, 14943.00
627.5690, 14880.00
628.7340, 14836.00
629.9000, 14868.00
631.0650, 14815.00
632.2300, 14871.00
633.3950, 14887.00
634.5600, 15020.00
635.7240, 14940.00
636.8890, 14907.00
638.0530, 14996.00
639.2170, 14903.00
640.3810, 14989.00
641.5450, 15057.00
642.7080, 14945.00
643.8720, 15072.00
645.0350, 15141.00
646.1980, 15016.00
647.3610, 15176.00
648.5240, 15142.00
649.6870, 15278.00
650.8490, 15094.00
652.0120, 15105.00
653.1740, 15136.00
654.3360, 15303.00
655.4980, 15361.00
656.6600, 15384.86
657.8210, 15294.00
658.9830, 15359.00
660.1440, 15279.00
661.3050, 15157.00
662.4660, 15356.00
663.6270, 15349.00
664.7870, 15224.00
665.9480, 15279.00
667.1080, 15370.00
668.2680, 15398.00
669.4280, 15358.00
670.5880, 15368.00
671.7480, 15285.00
672.9070, 15499.00
674.0670, 15372.00
675.2260, 15367.00
676.3850, 15512.00
677.5440, 15323.00
678.7030, 15391.00
679.8610, 15577.00
681.0200, 15591.00
682.1780, 15525.00
683.3360, 15641.00
684.4940, 15565.00
685.6520, 15553.00
686.8090, 15531.00
687.9670, 15543.51
689.1240, 15647.00
690.2810, 15605.00
691.4380, 15662.00
692.5950, 15684.00
693.7520, 15643.00
694.9080, 15759.00
696.0650, 15746.00
697.2210, 15826.00
698.3770, 15871.00
699.5330, 15979.00
700.6880, 16045.00
701.8440, 16234.44
702.9990, 16573.00
704.1550, 16742.00
705.3100, 16985.00
706.4650, 17450.00
707.6190, 17773.00
708.7740, 18384.00
709.9290, 18679.00
711.0830, 18701.00
712.2370, 18607.00
713.3910, 17739.00
714.5450, 17239.00
715.6980, 16522.00
716.8520, 16399.00
718.0050, 16132.00
719.1580, 16223.00
720.3110, 16173.00
721.4640, 16024.00
722.6170, 16442.00
723.7700, 16069.00
724.9220, 16288.00
726.0740, 16225.00
727.2260, 16176.00
728.3780, 16225.00
729.5300, 16149.00
730.6810, 16306.00
731.8330, 16279.00
732.9840, 16220.00
734.1350, 16375.00
735.2860, 16229.00
736.4370, 16317.00
737.5880, 16175.00
738.7380, 16255.00
739.8880, 16263.00
741.0390, 16365.00
742.1890, 16252.00
743.3380, 16174.00
744.4880, 16258.00
745.6380, 16347.00
746.7870, 16290.00
747.9360, 16401.00
749.0850, 16209.00
750.2340, 16453.00
751.3830, 16538.00
752.5310, 16377.00
753.6800, 16519.00
754.8280, 16479.00
755.9760, 16354.00
757.1240, 16592.00
758.2720, 16554.00
759.4190, 16436.00
760.5670, 16662.00
761.7140, 16539.00
762.8610, 16549.00
764.0080, 16600.00
765.1550, 16613.00
766.3020, 16649.80
767.4480, 16766.00
768.5950, 16706.00
769.7410, 16738.00
770.8870, 16738.00
772.0330, 16542.00
773.1780, 16499.00
774.3240, 16696.00
775.4690, 16862.00
776.6140, 16767.00
777.7590, 16845.00
778.9040, 16867.00
780.0490, 16763.00
781.1940, 16868.00
782.3380, 16679.00
783.4820, 17000.00
784.6260, 16802.00
785.7700, 16915.00
786.9140, 16825.00
788.0580, 16849.00
789.2010, 17025.00
790.3450, 16895.00
791.4880, 16961.00
792.6310, 17129.00
793.7730, 16897.00
794.9160, 17056.00
796.0590, 16950.00
797.2010, 16974.00
798.3430, 17072.00
799.4850, 17090.00
800.6270, 17189.00
801.7690, 17105.00
802.9100, 17229.00
804.0520, 17174.00
805.1930, 17211.00
806.3340, 17210.00
807.4750, 17200.00
808.6160, 17178.00
809.7560, 17278.00
810.8970, 17243.00
812.0370, 17215.00
813.1770, 17164.00
814.3170, 17336.00
815.4570, 17236.00
816.5960, 17319.00
817.7360, 17276.00
818.8750, 17377.00
820.0140, 17280.00
821.1530, 17465.00
822.2920, 17335.00
823.4310, 17288.00
824.5690, 17309.00
825.7070, 17510.00
826.8460, 17547.00
827.9840, 17467.00
829.1220, 17483.00
830.2590, 17437.00
831.3970, 17475.00
832.5340, 17455.00
833.6710, 17458.00
834.8080, 17643.00
835.9450, 17644.00
837.0820, 17529.00
838.2190, 17526.00
839.3550, 17701.00
840.4910, 17709.00
841.6270, 17770.00
842.7630, 17555.00
843.8990, 17803.00
845.0350, 17638.00
846.1700, 17514.00
847.3060, 17799.00
848.4410, 17823.00
849.5760, 17875.00
850.7100, 17792.00
851.8450, 17853.00
852.9800, 17860.00
854.1140, 17763.00
855.2480, 17802.00
856.3820, 17876.00
857.5160, 17799.00
858.6500, 17906.00
859.7830, 18109.00
860.9170, 17946.00
862.0500, 18016.00
863.1830, 17956.00
864.3160, 17946.00
865.4480, 18020.00
866.5810, 17881.00
867.7130, 18114.00
868.8460, 17995.00
869.9780, 18166.00
871.1100, 18183.00
872.2410, 18147.00
873.3730, 18118.00
874.5050, 18039.00
875.6360, 18272.00
876.7670, 18110.00
877.8980, 18335.00
879.0290, 18118.00
880.1590, 18180.00
881.2900, 18318.00
882.4200, 18246.00
883.5500, 18295.00
884.6800, 18235.00
885.8100, 18166.00
886.9400, 18234.93
888.0690, 18191.00
889.1990, 18355.00
890.3280, 18272.00
891.4570, 18383.00
892.5860, 18374.00
893.7140, 18299.00
894.8430, 18301.00
895.9710, 18506.00
897.1000, 18476.00
898.2280, 18461.00
899.3560, 18425.00
900.4830, 18334.00
901.6110, 18374.00
902.7380, 18456.00
903.8660, 18601.00
904.9930, 18606.18
906.1200, 18418.00
907.2460, 18671.00
908.3730, 18623.00
909.5000, 18647.00
910.6260, 18725.62
911.7520, 18409.00
912.8780, 18690.00
914.0040, 18686.00
915.1290, 18500.00
916.2550, 18835.00
917.3800, 18597.00
918.5050, 18751.00
919.6300, 18822.00
920.7550, 18711.00
921.8800, 18739.00
923.0040, 18705.00
924.1290, 18701.94
925.2530, 18800.00
926.3770, 18744.00
927.5010, 18881.00
928.6250, 18932.00
929.7480, 18952.00
930.8720, 18855.00
931.9950, 19000.00
933.1180, 18869.00
934.2410, 18818.00
935.3640, 18988.00
936.4860, 19037.00
937.6090, 19094.00
938.7310, 19117.00
939.8530, 18972.00
940.9750, 18849.00
942.0970, 19124.00
943.2180, 19201.00
944.3400, 19013.00
945.4610, 19156.00
946.5820, 19051.00
947.7030, 19259.00
948.8240, 19385.00
949.9450, 19214.00
951.0650, 19106.00
952.1860, 19338.00
953.3060, 19313.00
954.4260, 19062.00
955.5460, 19234.00
956.6650, 19488.00
957.7850, 19240.00
958.9040, 19411.00
960.0230, 19508.00
961.1420, 19082.00
962.2610, 19371.00
963.3800, 19383.00
964.4990, 19298.00
965.6170, 19406.00
966.7350, 19428.00
967.8530, 19357.00
968.9710, 19460.00
970.0890, 19552.00
971.2070, 19420.00
972.3240, 19535.00
973.4410, 19569.00
974.5580, 19549.00
975.6750, 19512.00
976.7920, 19573.00
977.9090, 19617.00
979.0250, 19632.00
980.1410, 19660.00
981.2580, 19633.00
982.3740, 19690.00
983.4890, 19751.00
984.6050, 19684.00
985.7200, 19851.00
986.8360, 19774.00
987.9510, 19761.00
989.0660, 19839.00
990.1810, 19729.00
991.2950, 19903.00
992.4100, 19769.00
993.5240, 19868.00
994.6390, 19842.00
995.7530, 19909.00
996.8660, 19961.00
997.9800, 19970.00
999.0940, 19817.00
1000.207, 20120.00
1001.320, 20099.00
1002.433, 20240.00
1003.546, 19968.00
1004.659, 20064.00
1005.772, 20081.00
1006.884, 20253.00
1007.996, 19937.00
1009.108, 19939.00
1010.220, 20052.00
1011.332, 20245.00
1012.444, 20128.00
1013.555, 20026.00
1014.666, 20174.00
1015.777, 20103.00
1016.888, 20176.00
1017.999, 20376.00
1019.110, 20217.00
1020.220, 20332.00
1021.331, 20170.00
1022.441, 20257.00
1023.551, 20429.00
1024.661, 20113.00
1025.770, 20352.00
1026.880, 20432.00
1027.989, 20448.00
1029.098, 20420.00
1030.207, 20415.00
1031.316, 20576.00
1032.425, 20386.00
1033.533, 20569.00
1034.642, 20519.00
1035.750, 20532.00
1036.858, 20474.00
1037.966, 20657.00
1039.073, 20471.00
1040.181, 20574.00
1041.288, 20755.00
1042.396, 20520.00
1043.503, 20518.00
1044.610, 20667.00
1045.716, 20746.00
1046.823, 20764.07
1047.929, 20817.34
1049.036, 20807.00
1050.142, 20806.00
1051.248, 20806.00
1052.353, 20758.00
1053.459, 20937.00
1054.564, 20701.00
1055.670, 20965.00
1056.775, 20823.00
1057.880, 20877.00
1058.985, 20935.00
1060.089, 21117.00
1061.194, 21181.00
1062.298, 21298.00
1063.402, 21411.00
1064.506, 21146.00
1065.610, 21351.00
1066.713, 21362.00
1067.817, 21528.00
1068.920, 21356.00
1070.023, 21544.00
1071.126, 21393.00
1072.229, 21550.00
1073.332, 21618.00
1074.435, 21933.00
1075.537, 22693.00
1076.639, 23649.00
1077.741, 26114.00
1078.843, 30746.00
1079.945, 35869.00
1081.046, 39863.00
1082.148, 47263.00
1083.249, 54824.00
1084.350, 60128.00
1085.451, 59776.00
1086.551, 52895.00
1087.652, 41967.00
1088.752, 31626.00
1089.853, 26050.00
1090.953, 23628.00
1092.053, 22690.00
1093.152, 22362.00
1094.252, 21974.00
1095.351, 21901.00
1096.451, 21729.00
1097.550, 21770.00
1098.649, 21674.00
1099.748, 21776.00
1100.846, 21683.00
1101.945, 21832.00
1103.043, 21789.94
1104.141, 21751.00
1105.239, 21764.00
1106.337, 21779.00
1107.434, 21760.00
1108.532, 21775.00
1109.629, 21802.00
1110.726, 21936.00
1111.823, 21917.00
1112.920, 21770.00
1114.017, 21962.00
1115.113, 21828.00
1116.210, 21737.00
1117.306, 21999.00
1118.402, 21734.00
1119.498, 21978.00
1120.593, 21900.00
1121.689, 21993.00
1122.784, 21919.00
1123.879, 22021.00
1124.974, 21930.00
1126.069, 21921.00
1127.164, 22126.00
1128.259, 21870.00
1129.353, 22003.00
1130.447, 22049.00
1131.541, 21923.00
1132.635, 22095.00
1133.729, 21994.00
1134.822, 22041.00
1135.916, 22069.00
1137.009, 21907.00
1138.102, 22177.00
1139.195, 22225.00
1140.288, 22000.00
1141.380, 22253.00
1142.473, 22085.00
1143.565, 22045.00
1144.657, 22209.00
1145.749, 22183.00
1146.841, 22362.00
1147.932, 22157.00
1149.024, 22290.00
1150.115, 22264.00
1151.206, 22347.00
1152.297, 22321.00
1153.388, 22182.00
1154.479, 22387.00
1155.569, 22539.00
1156.659, 22287.00
1157.750, 22280.00
1158.839, 22256.00
1159.929, 22421.00
1161.019, 22388.00
1162.108, 22390.00
1163.198, 22462.00
1164.287, 22448.00
1165.376, 22471.00
1166.465, 22629.00
1167.553, 22568.00
1168.642, 22681.00
1169.730, 22609.00
1170.818, 22422.00
1171.906, 22577.00
1172.994, 22532.00
1174.082, 22661.00
1175.170, 22755.00
1176.257, 22604.00
1177.344, 22857.00
1178.431, 22692.00
1179.518, 22614.00
1180.605, 23053.00
1181.691, 22691.00
1182.778, 22819.00
1183.864, 22884.00
1184.950, 22826.00
1186.036, 22996.00
1187.122, 22877.00
1188.207, 23062.00
1189.292, 23118.00
1190.378, 22875.00
1191.463, 22936.00
1192.548, 22938.00
1193.632, 23034.00
1194.717, 23032.00
1195.801, 22963.00
1196.886, 23062.00
1197.970, 23022.00
1199.054, 23173.00
1200.137, 22972.00
1201.221, 23072.00
1202.305, 23246.00
1203.388, 23021.00
1204.471, 23233.00
1205.554, 23326.00
1206.637, 23047.00
1207.719, 23126.00
1208.802, 23264.00
1209.884, 23223.00
1210.966, 23348.00
1212.048, 23264.00
1213.130, 23328.00
1214.212, 23527.00
1215.293, 23384.00
1216.374, 23244.00
1217.456, 23414.00
1218.536, 23449.00
1219.617, 23334.00
1220.698, 23271.00
1221.778, 23515.00
1222.859, 23423.00
1223.939, 23508.00
1225.019, 23323.00
1226.099, 23462.00
1227.178, 23445.00
1228.258, 23694.00
1229.337, 23753.00
1230.417, 23712.00
1231.496, 23814.72
1232.574, 23595.00
1233.653, 23805.00
1234.732, 23690.00
1235.810, 23620.00
1236.888, 23819.00
1237.966, 23733.00
1239.044, 23658.00
1240.122, 23589.00
1241.199, 23849.00
1242.277, 23635.00
1243.354, 23910.00
1244.431, 23844.00
1245.508, 24012.00
1246.585, 23775.00
1247.661, 23813.00
1248.738, 23886.00
1249.814, 23932.00
1250.890, 24024.00
1251.966, 23846.00
1253.042, 23984.00
1254.117, 23899.00
1255.193, 24053.00
1256.268, 23957.00
1257.343, 23877.00
1258.418, 23825.00
1259.493, 24115.00
1260.567, 24146.00
1261.642, 24164.00
1262.716, 24072.00
1263.790, 24216.00
1264.864, 24121.00
1265.938, 24222.00
1267.011, 24199.00
1268.085, 24391.00
1269.158, 24379.00
1270.231, 24198.00
1271.304, 24408.00
1272.377, 24219.00
1273.450, 24304.00
1274.522, 24153.00
1275.594, 24545.00
1276.666, 24216.00
1277.738, 24264.00
1278.810, 24551.00
1279.882, 24164.00
1280.953, 24244.00
1282.025, 24447.00
1283.096, 24558.00
1284.167, 24524.00
1285.238, 24515.00
1286.308, 24513.00
1287.379, 24470.00
1288.449, 24725.00
1289.519, 24569.00
1290.589, 24502.00
1291.659, 24657.00
1292.729, 24534.00
1293.798, 24760.00
1294.868, 24809.00
1295.937, 24811.00
1297.006, 24767.00
1298.075, 24837.00
1299.143, 24757.90
