##NAMES=Calcite
##RRUFFID=R050009
##IDEAL CHEMISTRY=CaCO_3_
##LOCALITY=Amparo mine, Rodeo, Durango, Mexico
##OWNER=RRUFF
##SOURCE=Eugene Schlepp
##DESCRIPTION=Colorless cleavage rhomb
##STATUS=The identification of this mineral has been confirmed by X-ray diffraction and chemical analysis
##URL=rruff.info/R050009
##MEASURED CHEMISTRY=Ca_1.00_CO_3_; trace amounts of Mn
##PIN_ID=L00060
##ORIENTATION=Laser parallel to c* (0 0 1). Fiducial mark perpendicular to laser is parallel to a [1 0 0]
75.86200, 682.0000
77.10600, 724.0000
78.34900, 773.0000
79.59300, 749.0000
80.83600, 722.0000
82.07900, 736.0000
83.32100, 718.0000
84.56400, 720.0000
85.80600, 696.0000
87.04800, 687.0000
88.29000, 695.0000
89.53200, 733.0000
90.77400, 712.0000
92.01500, 719.0000
93.25700, 698.0000
94.49800, 724.0000
95.73900, 698.0000
96.98000, 719.0000
98.22000, 702.0000
99.46100, 675.0000
100.7010, 684.0000
101.9410, 712.0000
103.1810, 671.0000
104.4210, 727.0000
105.6600, 667.0000
106.9000, 699.0000
108.1390, 698.0000
109.3780, 691.0000
110.6170, 720.0000
111.8550, 726.0000
113.0940, 700.0000
114.3320, 713.0000
115.5700, 747.0000
116.8080, 803.0000
118.0460, 815.0000
119.2830, 750.0000
120.5210, 727.0000
121.7580, 717.0000
122.9950, 702.0000
124.2320, 697.6907
125.4690, 721.0000
126.7050, 686.0000
127.9410, 734.0000
129.1780, 712.0000
130.4140, 728.0000
131.6490, 716.0000
132.8850, 721.0000
134.1200, 737.0000
135.3560, 694.0000
136.5910, 719.0000
137.8260, 729.0000
139.0610, 715.0000
140.2950, 734.0000
141.5290, 739.8335
142.7640, 764.0000
143.9980, 768.0000
145.2320, 785.0000
146.4650, 806.0000
147.6990, 811.0000
148.9320, 870.0000
150.1650, 911.0000
151.3980, 1001.000
152.6310, 1098.000
153.8640, 1206.000
155.0960, 1231.000
156.3280, 1238.000
157.5600, 1157.000
158.7920, 1105.000
160.0240, 984.0000
161.2560, 914.0000
162.4870, 869.0000
163.7180, 809.0000
164.9490, 810.0000
166.1800, 787.0000
167.4110, 773.0000
168.6410, 784.0000
169.8720, 779.0000
171.1020, 748.0000
172.3320, 766.0000
173.5620, 751.0701
174.7910, 777.0000
176.0210, 747.0000
177.2500, 768.0000
178.4790, 774.0000
179.7080, 743.0000
180.9370, 735.0000
182.1650, 733.2565
183.3940, 765.0000
184.6220, 747.0000
185.8500, 730.0000
187.0780, 773.0000
188.3050, 764.0000
189.5330, 772.0000
190.7600, 758.0000
191.9870, 775.0000
193.2140, 791.0000
194.4410, 757.0000
195.6680, 779.0000
196.8940, 777.0000
198.1200, 771.0000
199.3470, 805.0000
200.5720, 788.0000
201.7980, 772.0000
203.0240, 784.0000
204.2490, 778.0000
205.4740, 775.0000
206.6990, 782.0000
207.9240, 789.0000
209.1490, 788.0000
210.3740, 765.0000
211.5980, 795.0000
212.8220, 769.0000
214.0460, 780.0000
215.2700, 791.0000
216.4930, 798.0000
217.7170, 788.0000
218.9400, 770.0000
220.1630, 816.0000
221.3860, 839.0000
222.6090, 787.0000
223.8320, 824.0000
225.0540, 801.0000
226.2760, 816.0000
227.4980, 779.0000
228.7200, 806.0000
229.9420, 773.0000
231.1630, 791.0000
232.3850, 799.0000
233.6060, 826.0000
234.8270, 833.0000
236.0480, 840.0000
237.2690, 828.0000
238.4890, 821.4579
239.7090, 833.0000
240.9290, 797.0000
242.1490, 807.0000
243.3690, 810.0000
244.5890, 849.0000
245.8080, 830.0000
247.0270, 894.0000
248.2470, 875.0000
249.4650, 835.0000
250.6840, 867.0000
251.9030, 845.0000
253.1210, 863.0000
254.3390, 842.0000
255.5570, 856.0000
256.7750, 870.0000
257.9930, 894.0000
259.2100, 895.0000
260.4280, 896.0000
261.6450, 923.0000
262.8620, 896.0000
264.0790, 929.0000
265.2950, 907.0000
266.5120, 930.8145
267.7280, 952.0000
268.9440, 983.0000
270.1600, 1025.000
271.3760, 1069.000
272.5920, 1072.000
273.8070, 1102.000
275.0220, 1233.000
276.2370, 1277.000
277.4520, 1391.000
278.6670, 1543.000
279.8820, 1671.000
281.0960, 1720.000
282.3100, 1766.000
283.5240, 1696.000
284.7380, 1591.000
285.9520, 1570.000
287.1650, 1331.000
288.3780, 1197.000
289.5920, 1135.000
290.8050, 1095.000
292.0170, 1026.000
293.2300, 1011.000
294.4430, 1013.000
295.6550, 975.0000
296.8670, 940.0000
298.0790, 940.0000
299.2910, 889.0000
300.5020, 962.0000
301.7140, 908.0000
302.9250, 857.0000
304.1360, 898.0000
305.3470, 865.0000
306.5580, 920.0000
307.7680, 886.0000
308.9780, 872.0000
310.1890, 885.0000
311.3990, 859.7169
312.6090, 890.0000
313.8180, 856.0000
315.0280, 855.0000
316.2370, 889.0000
317.4460, 901.0000
318.6550, 899.0000
319.8640, 912.0000
321.0730, 918.0000
322.2810, 889.0000
323.4890, 922.0000
324.6980, 924.0000
325.9060, 898.0000
327.1130, 910.0000
328.3210, 913.0000
329.5280, 902.0000
330.7360, 940.0000
331.9430, 903.0000
333.1500, 892.0000
334.3560, 909.0000
335.5630, 900.0000
336.7690, 879.0000
337.9760, 882.0000
339.1820, 894.0000
340.3870, 880.0000
341.5930, 922.0000
342.7990, 906.0000
344.0040, 922.0000
345.2090, 908.0000
346.4140, 910.0000
347.6190, 928.0000
348.8240, 918.0000
350.0280, 931.0000
351.2330, 910.0000
352.4370, 923.0293
353.6410, 949.0000
354.8440, 950.0000
356.0480, 917.0000
357.2520, 950.0000
358.4550, 979.0000
359.6580, 911.0000
360.8610, 951.0000
362.0640, 887.0000
363.2660, 918.0000
364.4690, 947.0000
365.6710, 904.0000
366.8730, 978.0000
368.0750, 955.0000
369.2770, 937.0000
370.4780, 925.0000
371.6800, 948.0000
372.8810, 934.0000
374.0820, 932.8798
375.2830, 944.0000
376.4830, 938.0000
377.6840, 931.0000
378.8840, 971.0000
380.0840, 997.0000
381.2840, 961.0000
382.4840, 945.0000
383.6840, 933.0000
384.8830, 979.0000
386.0830, 974.0000
387.2820, 1003.000
388.4810, 1019.000
389.6800, 966.0000
390.8780, 973.0000
392.0770, 956.0000
393.2750, 975.0000
394.4730, 995.0000
395.6710, 971.0000
396.8690, 984.0000
398.0660, 963.0000
399.2640, 995.0000
400.4610, 974.0000
401.6580, 979.0000
402.8550, 941.0000
404.0520, 950.5304
405.2490, 939.0000
406.4450, 965.0000
407.6410, 980.0000
408.8370, 1007.000
410.0330, 988.0000
411.2290, 940.0000
412.4240, 999.0000
413.6200, 954.0000
414.8150, 959.0000
416.0100, 1007.000
417.2050, 1022.000
418.4000, 980.0000
419.5940, 1001.000
420.7880, 1031.000
421.9830, 992.0000
423.1770, 993.0000
424.3700, 1043.000
425.5640, 1042.000
426.7580, 1035.000
427.9510, 1038.000
429.1440, 1055.000
430.3370, 1028.000
431.5300, 1026.000
432.7220, 999.0000
433.9150, 1040.000
435.1070, 1049.000
436.2990, 991.0000
437.4910, 1042.000
438.6830, 1028.000
439.8750, 1010.000
441.0660, 1024.000
442.2570, 1013.000
443.4480, 1041.000
444.6390, 1005.000
445.8300, 1045.000
447.0210, 1045.000
448.2110, 1013.000
449.4010, 1012.000
450.5910, 1058.000
451.7810, 1046.000
452.9710, 1055.000
454.1610, 1033.000
455.3500, 1022.000
456.5390, 1054.000
457.7280, 1069.000
458.9170, 1051.000
460.1060, 1078.000
461.2940, 1084.000
462.4830, 1098.000
463.6710, 1028.000
464.8590, 1047.000
466.0470, 1043.000
467.2350, 1058.000
468.4220, 1060.829
469.6090, 1056.000
470.7970, 1066.000
471.9840, 1056.000
473.1700, 1055.457
474.3570, 1069.000
475.5440, 1059.000
476.7300, 1074.000
477.9160, 1064.000
479.1020, 1080.000
480.2880, 1094.000
481.4740, 1104.000
482.6590, 1110.000
483.8440, 1112.668
485.0300, 1105.000
486.2140, 1105.000
487.3990, 1088.000
488.5840, 1071.000
489.7680, 1086.000
490.9530, 1110.000
492.1370, 1091.000
493.3210, 1114.000
494.5040, 1108.000
495.6880, 1105.000
496.8720, 1101.000
498.0550, 1082.000
499.2380, 1131.000
500.4210, 1128.000
501.6040, 1107.000
502.7860, 1122.000
503.9690, 1115.000
505.1510, 1145.000
506.3330, 1110.000
507.5150, 1156.000
508.6970, 1130.000
509.8780, 1108.000
511.0600, 1118.000
512.2410, 1135.000
513.4220, 1149.000
514.6030, 1163.000
515.7840, 1177.000
516.9640, 1143.000
518.1440, 1129.000
519.3250, 1152.000
520.5050, 1131.000
521.6850, 1175.000
522.8640, 1151.000
524.0440, 1151.000
525.2230, 1167.000
526.4020, 1137.000
527.5820, 1187.000
528.7600, 1165.823
529.9390, 1195.000
531.1180, 1151.000
532.2960, 1185.000
533.4740, 1174.000
534.6520, 1158.000
535.8300, 1161.000
537.0080, 1174.000
538.1850, 1151.000
539.3630, 1190.000
540.5400, 1207.000
541.7170, 1157.000
542.8940, 1226.000
544.0700, 1180.000
545.2470, 1239.000
546.4230, 1174.000
547.5990, 1192.000
548.7750, 1225.000
549.9510, 1209.000
551.1270, 1244.000
552.3020, 1221.000
553.4780, 1225.560
554.6530, 1198.000
555.8280, 1224.000
557.0030, 1197.000
558.1770, 1207.000
559.3520, 1232.000
560.5260, 1176.000
561.7000, 1222.000
562.8740, 1229.000
564.0480, 1193.000
565.2220, 1181.000
566.3950, 1249.000
567.5680, 1226.000
568.7420, 1259.000
569.9150, 1248.000
571.0870, 1262.000
572.2600, 1246.000
573.4320, 1285.000
574.6050, 1291.000
575.7770, 1256.000
576.9490, 1269.000
578.1210, 1247.000
579.2920, 1268.000
580.4640, 1250.000
581.6350, 1234.000
582.8060, 1283.000
583.9770, 1254.000
585.1480, 1236.000
586.3190, 1306.000
587.4890, 1292.000
588.6590, 1257.000
589.8290, 1286.000
590.9990, 1283.000
592.1690, 1294.000
593.3390, 1292.000
594.5080, 1321.000
595.6770, 1303.000
596.8470, 1323.000
598.0160, 1324.839
599.1840, 1303.000
600.3530, 1316.000
601.5210, 1320.000
602.6900, 1285.000
603.8580, 1270.000
605.0260, 1323.000
606.1930, 1299.000
607.3610, 1295.000
608.5280, 1343.000
609.6960, 1295.000
610.8630, 1326.000
612.0300, 1333.000
613.1970, 1325.000
614.3630, 1306.000
615.5300, 1344.000
616.6960, 1361.000
617.8620, 1329.000
619.0280, 1287.000
620.1940, 1295.000
621.3590, 1380.000
622.5250, 1317.000
623.6900, 1382.000
624.8550, 1358.000
626.0200, 1366.000
627.1850, 1337.000
628.3490, 1327.215
629.5140, 1332.078
630.6780, 1310.000
631.8420, 1342.000
633.0060, 1365.000
634.1700, 1376.000
635.3330, 1361.000
636.4970, 1351.000
637.6600, 1371.000
638.8230, 1324.000
639.9860, 1401.000
641.1490, 1379.000
642.3110, 1375.000
643.4740, 1352.000
644.6360, 1359.000
645.7980, 1393.000
646.9600, 1414.000
648.1220, 1439.000
649.2840, 1376.000
650.4450, 1369.000
651.6060, 1415.000
652.7670, 1451.000
653.9280, 1438.000
655.0890, 1445.000
656.2500, 1409.000
657.4100, 1433.000
658.5700, 1422.000
659.7300, 1409.000
660.8900, 1450.000
662.0500, 1390.000
663.2100, 1403.000
664.3690, 1422.000
665.5280, 1375.000
666.6880, 1457.000
667.8460, 1443.000
669.0050, 1445.000
670.1640, 1454.000
671.3220, 1433.000
672.4810, 1438.000
673.6390, 1473.000
674.7970, 1432.000
675.9540, 1422.000
677.1120, 1461.000
678.2690, 1452.000
679.4270, 1457.000
680.5840, 1462.000
681.7410, 1451.000
682.8980, 1440.000
684.0540, 1488.000
685.2110, 1407.000
686.3670, 1502.000
687.5230, 1481.000
688.6790, 1497.000
689.8350, 1510.000
690.9900, 1482.000
692.1460, 1510.000
693.3010, 1523.000
694.4560, 1523.559
695.6110, 1541.655
696.7660, 1551.000
697.9210, 1540.000
699.0750, 1567.000
700.2290, 1525.000
701.3840, 1545.000
702.5370, 1580.000
703.6910, 1600.000
704.8450, 1642.000
705.9980, 1671.000
707.1520, 1700.000
708.3050, 1895.000
709.4580, 2194.000
710.6110, 2677.000
711.7630, 3322.000
712.9160, 3494.000
714.0680, 3162.000
715.2200, 2604.000
716.3720, 2161.000
717.5240, 1920.000
718.6760, 1748.000
719.8270, 1692.000
720.9780, 1637.000
722.1300, 1602.000
723.2810, 1612.000
724.4310, 1628.000
725.5820, 1616.000
726.7330, 1578.000
727.8830, 1596.000
729.0330, 1588.000
730.1830, 1550.000
731.3330, 1595.000
732.4830, 1531.000
733.6320, 1641.000
734.7810, 1559.000
735.9310, 1616.000
737.0800, 1576.000
738.2290, 1604.000
739.3770, 1661.000
740.5260, 1627.000
741.6740, 1662.000
742.8220, 1641.000
743.9700, 1577.000
745.1180, 1630.000
746.2660, 1643.000
747.4130, 1659.000
748.5610, 1607.000
749.7080, 1695.000
750.8550, 1596.000
752.0020, 1629.000
753.1490, 1605.000
754.2950, 1654.000
755.4420, 1657.000
756.5880, 1657.000
757.7340, 1622.000
758.8800, 1674.000
760.0250, 1669.000
761.1710, 1683.000
762.3160, 1650.000
763.4620, 1633.000
764.6070, 1654.000
765.7520, 1685.000
766.8960, 1623.000
768.0410, 1649.000
769.1850, 1672.000
770.3300, 1674.000
771.4740, 1678.000
772.6180, 1677.000
773.7610, 1698.000
774.9050, 1648.000
776.0480, 1738.000
777.1920, 1670.000
778.3350, 1719.000
779.4780, 1700.000
780.6200, 1742.000
781.7630, 1706.000
782.9060, 1705.000
784.0480, 1780.000
785.1900, 1672.000
786.3320, 1755.000
787.4740, 1718.000
788.6150, 1708.000
789.7570, 1724.000
790.8980, 1754.000
792.0390, 1708.000
793.1800, 1716.000
794.3210, 1780.000
795.4620, 1752.000
796.6020, 1739.000
797.7420, 1743.000
798.8830, 1756.000
800.0230, 1760.000
801.1620, 1737.000
802.3020, 1756.000
803.4420, 1754.000
804.5810, 1774.000
805.7200, 1810.000
806.8590, 1784.000
807.9980, 1831.000
809.1370, 1828.000
810.2750, 1828.000
811.4140, 1808.000
812.5520, 1839.000
813.6900, 1827.000
814.8280, 1796.000
815.9650, 1806.000
817.1030, 1883.000
818.2400, 1796.000
819.3780, 1848.000
820.5150, 1815.000
821.6520, 1844.000
822.7880, 1837.000
823.9250, 1851.000
825.0610, 1869.803
826.1980, 1804.000
827.3340, 1881.000
828.4700, 1885.000
829.6050, 1837.000
830.7410, 1861.000
831.8760, 1848.000
833.0120, 1861.000
834.1470, 1842.000
835.2820, 1800.000
836.4160, 1870.000
837.5510, 1881.000
838.6860, 1953.000
839.8200, 1881.000
840.9540, 1926.000
842.0880, 1871.000
843.2220, 1903.000
844.3550, 1952.000
845.4890, 1932.000
846.6220, 1914.000
847.7550, 1934.000
848.8880, 1912.000
850.0210, 1912.000
851.1540, 1857.000
852.2860, 2016.000
853.4190, 1930.000
854.5510, 1952.000
855.6830, 1894.000
856.8150, 2013.000
857.9460, 1950.000
859.0780, 1896.000
860.2090, 1991.000
861.3410, 1992.000
862.4720, 2010.000
863.6020, 1995.000
864.7330, 1979.000
865.8640, 2032.000
866.9940, 2001.000
868.1240, 2059.000
869.2540, 1997.000
870.3840, 2011.000
871.5140, 2005.000
872.6440, 2058.000
873.7730, 1998.000
874.9020, 2080.000
876.0320, 2020.000
877.1600, 2015.000
878.2890, 2032.000
879.4180, 1979.000
880.5460, 2072.000
881.6750, 2051.000
882.8030, 2011.000
883.9310, 2061.000
885.0590, 2071.000
886.1860, 2076.000
887.3140, 2045.000
888.4410, 2055.000
889.5680, 2028.000
890.6950, 2006.000
891.8220, 2025.000
892.9490, 2070.000
894.0750, 2063.000
895.2020, 2066.000
896.3280, 2104.000
897.4540, 2111.000
898.5800, 2075.000
899.7050, 2091.000
900.8310, 2094.000
901.9560, 2068.000
903.0820, 2093.000
904.2070, 2143.000
905.3320, 2058.000
906.4560, 2165.000
907.5810, 2136.000
908.7050, 2137.000
909.8300, 2181.000
910.9540, 2119.000
912.0780, 2122.000
913.2010, 2174.000
914.3250, 2196.000
915.4480, 2142.000
916.5720, 2133.000
917.6950, 2164.000
918.8180, 2153.000
919.9410, 2166.421
921.0630, 2191.000
922.1860, 2194.000
923.3080, 2187.000
924.4300, 2220.000
925.5520, 2193.000
926.6740, 2198.000
927.7960, 2231.000
928.9170, 2232.000
930.0390, 2236.000
931.1600, 2208.000
932.2810, 2273.000
933.4020, 2237.000
934.5230, 2251.000
935.6430, 2338.000
936.7640, 2249.000
937.8840, 2271.000
939.0040, 2254.000
940.1240, 2231.000
941.2440, 2252.000
942.3630, 2258.000
943.4830, 2328.000
944.6020, 2361.000
945.7210, 2303.000
946.8400, 2284.000
947.9590, 2293.000
949.0770, 2270.000
950.1960, 2271.609
951.3140, 2339.000
952.4320, 2262.000
953.5500, 2302.000
954.6680, 2288.000
955.7860, 2380.000
956.9030, 2282.000
958.0210, 2391.000
959.1380, 2369.000
960.2550, 2427.000
961.3720, 2307.000
962.4890, 2338.000
963.6050, 2384.000
964.7220, 2353.000
965.8380, 2344.000
966.9540, 2358.000
968.0700, 2330.000
969.1860, 2429.000
970.3010, 2381.000
971.4170, 2425.000
972.5320, 2394.000
973.6470, 2393.000
974.7620, 2417.000
975.8770, 2412.000
976.9910, 2434.000
978.1060, 2439.919
979.2200, 2446.444
980.3340, 2453.000
981.4480, 2462.000
982.5620, 2464.000
983.6760, 2472.000
984.7890, 2481.000
985.9030, 2485.151
987.0160, 2513.000
988.1290, 2492.000
989.2420, 2507.000
990.3550, 2500.000
991.4670, 2535.000
992.5800, 2577.000
993.6920, 2582.000
994.8040, 2525.000
995.9160, 2574.000
997.0280, 2550.000
998.1390, 2535.000
999.2510, 2591.000
1000.362, 2554.000
1001.473, 2556.000
1002.584, 2565.000
1003.695, 2584.000
1004.805, 2611.000
1005.916, 2545.000
1007.026, 2624.000
1008.136, 2590.000
1009.246, 2591.000
1010.356, 2610.000
1011.466, 2592.000
1012.576, 2598.808
1013.685, 2588.000
1014.794, 2610.000
1015.903, 2620.000
1017.012, 2661.000
1018.121, 2648.000
1019.229, 2643.000
1020.338, 2740.000
1021.446, 2689.000
1022.554, 2722.000
1023.662, 2678.000
1024.770, 2737.000
1025.878, 2728.000
1026.985, 2706.000
1028.092, 2733.000
1029.200, 2700.000
1030.307, 2782.000
1031.413, 2695.000
1032.520, 2687.000
1033.627, 2772.000
1034.733, 2769.000
1035.839, 2807.000
1036.945, 2713.000
1038.051, 2843.000
1039.157, 2774.000
1040.262, 2802.000
1041.368, 2889.000
1042.473, 2721.000
1043.578, 2818.000
1044.683, 2807.000
1045.788, 2834.000
1046.893, 2737.000
1047.997, 2837.000
1049.101, 2799.000
1050.205, 2840.000
1051.309, 2826.000
1052.413, 2841.000
1053.517, 2878.000
1054.621, 2882.000
1055.724, 2848.000
1056.827, 2894.000
1057.930, 2850.000
1059.033, 2928.000
1060.136, 2870.000
1061.238, 2885.000
1062.341, 2921.000
1063.443, 2914.000
1064.545, 3059.000
1065.647, 3103.000
1066.749, 3191.000
1067.850, 3204.000
1068.952, 3094.000
1070.053, 3094.000
1071.154, 3069.000
1072.255, 3079.000
1073.356, 3147.000
1074.457, 3246.000
1075.557, 3321.000
1076.658, 3351.000
1077.758, 3488.000
1078.858, 3687.000
1079.958, 4166.000
1081.057, 4905.000
1082.157, 6362.000
1083.256, 9668.000
1084.356, 17186.00
1085.455, 30150.00
1086.554, 38730.00
1087.653, 29781.00
1088.751, 16615.00
1089.850, 8848.000
1090.948, 5713.000
1092.046, 4352.000
1093.144, 3936.000
1094.242, 3684.000
1095.340, 3512.000
1096.437, 3381.000
1097.534, 3384.000
1098.632, 3326.000
1099.729, 3225.000
1100.826, 3240.000
1101.922, 3239.000
1103.019, 3219.000
1104.115, 3231.000
1105.212, 3254.000
1106.308, 3299.000
1107.404, 3251.000
1108.499, 3223.000
1109.595, 3151.000
1110.691, 3217.000
1111.786, 3325.000
1112.881, 3197.000
1113.976, 3239.000
1115.071, 3231.000
1116.166, 3241.000
1117.260, 3272.000
1118.355, 3228.000
1119.449, 3271.000
1120.543, 3243.000
1121.637, 3286.000
1122.731, 3285.000
1123.824, 3222.000
1124.918, 3364.000
1126.011, 3310.000
1127.104, 3307.000
1128.197, 3269.000
1129.290, 3262.020
1130.382, 3290.000
1131.475, 3290.000
1132.567, 3303.000
1133.659, 3393.000
1134.751, 3357.000
1135.843, 3368.000
1136.935, 3333.000
1138.027, 3403.000
1139.118, 3430.000
1140.209, 3382.000
1141.300, 3359.000
1142.391, 3378.000
1143.482, 3385.000
1144.573, 3345.000
1145.663, 3488.000
1146.754, 3471.000
1147.844, 3471.000
1148.934, 3459.000
1150.024, 3410.000
1151.113, 3425.000
1152.203, 3427.000
1153.292, 3464.000
1154.381, 3491.000
1155.470, 3450.000
1156.559, 3452.000
1157.648, 3507.000
1158.737, 3565.000
1159.825, 3526.000
1160.913, 3473.000
1162.001, 3557.000
1163.089, 3514.000
1164.177, 3479.000
1165.265, 3520.000
1166.352, 3610.000
1167.440, 3565.000
1168.527, 3538.000
1169.614, 3607.000
1170.701, 3536.000
1171.788, 3602.000
1172.874, 3609.000
1173.961, 3556.000
1175.047, 3586.000
1176.133, 3655.000
1177.219, 3624.000
1178.305, 3668.000
1179.390, 3617.000
1180.476, 3698.000
1181.561, 3611.000
1182.646, 3617.000
1183.731, 3671.000
1184.816, 3732.000
1185.901, 3720.000
1186.985, 3682.000
1188.070, 3641.000
1189.154, 3715.000
1190.238, 3787.000
1191.322, 3636.000
1192.406, 3729.000
1193.489, 3696.000
1194.573, 3706.000
1195.656, 3767.000
1196.739, 3807.000
1197.822, 3736.000
1198.905, 3827.000
1199.988, 3769.000
1201.070, 3810.000
1202.153, 3861.000
1203.235, 3801.000
1204.317, 3795.000
1205.399, 3919.000
1206.481, 3865.000
1207.562, 3900.000
1208.644, 3920.000
1209.725, 3822.000
1210.806, 3872.000
1211.887, 3968.000
1212.968, 3881.000
1214.049, 3975.000
1215.129, 3887.000
1216.209, 3947.000
1217.290, 3990.000
1218.370, 3963.000
1219.450, 3950.000
1220.529, 3943.000
1221.609, 4027.000
1222.688, 4004.000
1223.768, 4006.000
1224.847, 3959.000
1225.926, 4054.000
1227.005, 4037.000
1228.083, 4018.000
1229.162, 3996.000
1230.240, 4037.000
1231.318, 4067.000
1232.396, 4023.000
1233.474, 4166.000
1234.552, 4075.000
1235.629, 4171.000
1236.707, 4149.000
1237.784, 4092.000
1238.861, 4111.000
1239.938, 4160.000
1241.015, 4069.000
1242.092, 4138.000
1243.168, 4114.000
1244.244, 4182.000
1245.321, 4262.000
1246.397, 4187.000
1247.473, 4172.000
1248.548, 4259.000
1249.624, 4232.000
1250.699, 4284.000
1251.775, 4251.000
1252.850, 4277.000
1253.925, 4224.000
1254.999, 4230.000
1256.074, 4249.000
1257.148, 4296.000
1258.223, 4379.000
1259.297, 4264.000
1260.371, 4400.000
1261.445, 4400.000
