##NAMES=Calcite
##RRUFFID=R050307
##IDEAL CHEMISTRY=CaCO_3_
##LOCALITY=Zaire
##OWNER=RRUFF
##SOURCE=Eugene Schlepp
##DESCRIPTION=Group of pink prismatic crystals
##STATUS=The identification of this mineral has been confirmed by X-ray diffraction and chemical analysis
##URL=rruff.info/R050307
##MEASURED CHEMISTRY=Ca_1.00_CO_3_
##PIN_ID=L01569
##ORIENTATION=Laser parallel to -c* (0 0 -1). Fiducial mark perpendicular to laser is parallel to a [1 0 0]
116.9030, 6517.000
118.1340, 6670.000
119.3650, 6617.000
120.5960, 6685.000
121.8270, 6775.000
123.0580, 6822.000
124.2880, 6769.000
125.5190, 6844.000
126.7490, 6844.000
127.9790, 6888.000
129.2090, 6924.000
130.4390, 6924.000
131.6680, 7015.000
132.8980, 7101.000
134.1270, 7099.000
135.3560, 7100.000
136.5850, 7147.000
137.8140, 7186.000
139.0430, 7254.000
140.2710, 7301.690
141.5000, 7385.009
142.7280, 7443.618
143.9560, 7547.000
145.1840, 7581.000
146.4120, 7630.000
147.6390, 7707.000
148.8670, 7874.000
150.0940, 8071.000
151.3210, 8010.000
152.5490, 8170.000
153.7750, 8215.000
155.0020, 8122.000
156.2290, 8098.000
157.4550, 7929.000
158.6810, 7947.000
159.9080, 7740.000
161.1340, 7689.000
162.3590, 7633.000
163.5850, 7716.000
164.8110, 7661.000
166.0360, 7729.000
167.2610, 7636.000
168.4860, 7670.000
169.7110, 7728.000
170.9360, 7613.000
172.1610, 7635.000
173.3850, 7680.000
174.6100, 7767.000
175.8340, 7709.000
177.0580, 7753.000
178.2820, 7787.000
179.5050, 7718.000
180.7290, 7687.000
181.9520, 7878.000
183.1760, 7938.000
184.3990, 7897.000
185.6220, 7770.000
186.8450, 7942.000
188.0670, 7936.000
189.2900, 7861.000
190.5120, 7887.000
191.7340, 7939.000
192.9560, 7870.000
194.1780, 7913.000
195.4000, 7972.000
196.6220, 8028.000
197.8430, 7910.000
199.0640, 7915.000
200.2860, 7966.000
201.5070, 7912.000
202.7270, 8113.000
203.9480, 7997.000
205.1690, 8154.000
206.3890, 8096.000
207.6090, 8111.000
208.8290, 8034.000
210.0490, 8099.000
211.2690, 8045.000
212.4890, 8133.000
213.7080, 8140.000
214.9280, 8189.000
216.1470, 8256.000
217.3660, 8217.000
218.5850, 8281.000
219.8030, 8289.592
221.0220, 8259.000
222.2400, 8339.000
223.4590, 8250.000
224.6770, 8297.000
225.8950, 8277.000
227.1120, 8250.000
228.3300, 8263.000
229.5480, 8322.000
230.7650, 8454.000
231.9820, 8402.000
233.1990, 8455.000
234.4160, 8318.000
235.6330, 8287.000
236.8490, 8433.000
238.0660, 8371.000
239.2820, 8506.000
240.4980, 8457.000
241.7140, 8531.000
242.9300, 8414.000
244.1460, 8488.000
245.3610, 8523.000
246.5770, 8543.000
247.7920, 8568.000
249.0070, 8575.581
250.2220, 8755.000
251.4370, 8572.000
252.6510, 8619.000
253.8660, 8601.000
255.0800, 8773.000
256.2940, 8858.000
257.5080, 8854.000
258.7220, 8910.000
259.9360, 8936.000
261.1490, 8987.000
262.3630, 8932.000
263.5760, 9054.000
264.7890, 9103.000
266.0020, 9204.285
267.2150, 9351.000
268.4270, 9481.000
269.6400, 9572.000
270.8520, 9740.000
272.0640, 9941.000
273.2760, 10040.00
274.4880, 10204.00
275.7000, 10352.00
276.9120, 10497.00
278.1230, 10653.00
279.3340, 10633.00
280.5450, 10653.43
281.7560, 10579.00
282.9670, 10481.00
284.1780, 10272.00
285.3880, 10053.00
286.5980, 9934.000
287.8090, 9747.000
289.0190, 9599.232
290.2290, 9334.000
291.4380, 9303.000
292.6480, 9326.000
293.8570, 9171.000
295.0670, 9269.000
296.2760, 9132.000
297.4850, 9206.000
298.6930, 9078.000
299.9020, 9113.000
301.1110, 9236.000
302.3190, 9103.000
303.5270, 9161.000
304.7350, 9124.000
305.9430, 9296.000
307.1510, 9225.000
308.3580, 9359.000
309.5660, 9150.000
310.7730, 9296.000
311.9800, 9246.000
313.1870, 9274.000
314.3940, 9381.000
315.6010, 9282.000
316.8070, 9359.000
318.0130, 9286.000
319.2200, 9374.000
320.4260, 9397.000
321.6310, 9335.000
322.8370, 9404.000
324.0430, 9400.000
325.2480, 9379.000
326.4540, 9440.000
327.6590, 9531.000
328.8640, 9411.000
330.0680, 9557.000
331.2730, 9494.000
332.4780, 9408.000
333.6820, 9452.000
334.8860, 9492.000
336.0900, 9451.000
337.2940, 9650.000
338.4980, 9422.000
339.7010, 9556.000
340.9050, 9624.000
342.1080, 9441.000
343.3110, 9642.000
344.5140, 9594.000
345.7170, 9627.000
346.9200, 9540.000
348.1220, 9509.000
349.3240, 9655.000
350.5270, 9636.000
351.7290, 9586.000
352.9310, 9667.000
354.1320, 9730.000
355.3340, 9766.000
356.5350, 9823.000
357.7370, 9728.000
358.9380, 9700.000
360.1390, 9585.000
361.3400, 9768.000
362.5400, 9782.000
363.7410, 9948.000
364.9410, 9886.000
366.1410, 9853.000
367.3410, 9836.000
368.5410, 9766.000
369.7410, 9928.000
370.9400, 10000.00
372.1400, 10018.00
373.3390, 9970.000
374.5380, 9937.000
375.7370, 9967.000
376.9360, 9936.000
378.1350, 9894.000
379.3330, 9911.000
380.5310, 9892.413
381.7300, 10081.00
382.9280, 9897.000
384.1260, 10063.00
385.3230, 10078.00
386.5210, 10053.00
387.7180, 9998.000
388.9160, 10114.00
390.1130, 10126.00
391.3100, 10143.00
392.5060, 10049.00
393.7030, 10161.00
394.9000, 10090.00
396.0960, 10168.00
397.2920, 10094.00
398.4880, 10217.00
399.6840, 10200.00
400.8800, 10192.00
402.0750, 10202.00
403.2710, 10179.00
404.4660, 10134.00
405.6610, 10200.21
406.8560, 10278.00
408.0510, 10302.00
409.2450, 10290.00
410.4400, 10303.00
411.6340, 10314.30
412.8280, 10272.00
414.0220, 10326.00
415.2160, 10306.05
416.4100, 10285.00
417.6030, 10348.00
418.7970, 10435.00
419.9900, 10510.00
421.1830, 10273.00
422.3760, 10581.00
423.5690, 10395.00
424.7610, 10297.00
425.9540, 10492.00
427.1460, 10512.00
428.3380, 10543.00
429.5300, 10505.00
430.7220, 10598.00
431.9140, 10514.00
433.1050, 10559.00
434.2970, 10480.00
435.4880, 10537.00
436.6790, 10606.00
437.8700, 10584.00
439.0610, 10631.42
440.2510, 10634.65
441.4420, 10646.00
442.6320, 10623.00
443.8220, 10594.00
445.0120, 10553.00
446.2020, 10632.00
447.3910, 10743.00
448.5810, 10578.00
449.7700, 10786.00
450.9600, 10710.00
452.1490, 10778.00
453.3370, 10661.00
454.5260, 10832.00
455.7150, 10731.00
456.9030, 10820.00
458.0910, 10844.00
459.2800, 10912.00
460.4670, 10868.00
461.6550, 10939.00
462.8430, 10891.00
464.0300, 10916.00
465.2180, 10985.00
466.4050, 10983.00
467.5920, 11029.00
468.7790, 11052.00
469.9650, 11019.00
471.1520, 11020.00
472.3380, 10985.00
473.5250, 10949.00
474.7110, 10948.00
475.8970, 10967.00
477.0820, 10986.00
478.2680, 11124.00
479.4540, 11062.00
480.6390, 11153.00
481.8240, 11118.00
483.0090, 11009.00
484.1940, 11191.00
485.3780, 11111.00
486.5630, 11163.00
487.7470, 11239.00
488.9320, 11209.00
490.1160, 11204.00
491.3000, 11156.00
492.4830, 11193.00
493.6670, 11100.00
494.8500, 11218.00
496.0340, 11338.00
497.2170, 11334.00
498.4000, 11336.00
499.5820, 11345.00
500.7650, 11304.46
501.9480, 11223.00
503.1300, 11260.00
504.3120, 11236.00
505.4940, 11297.00
506.6760, 11372.00
507.8580, 11315.00
509.0390, 11509.00
510.2210, 11349.00
511.4020, 11392.00
512.5830, 11398.00
513.7640, 11525.00
514.9450, 11634.00
516.1250, 11473.00
517.3060, 11660.00
518.4860, 11592.00
519.6660, 11636.00
520.8460, 11614.00
522.0260, 11597.00
523.2060, 11590.00
524.3850, 11573.00
525.5650, 11585.51
526.7440, 11656.00
527.9230, 11588.00
529.1020, 11615.00
530.2810, 11560.00
531.4590, 11554.00
532.6380, 11771.00
533.8160, 11722.00
534.9940, 11581.00
536.1720, 11775.00
537.3500, 11725.00
538.5270, 11744.00
539.7050, 11674.00
540.8820, 11688.00
542.0590, 11724.00
543.2360, 11656.00
544.4130, 11740.00
545.5900, 11764.00
546.7660, 11742.00
547.9430, 11877.00
549.1190, 11755.00
550.2950, 11799.00
551.4710, 11824.00
552.6470, 11982.00
553.8220, 11955.00
554.9980, 11954.00
556.1730, 12011.00
557.3480, 11891.00
558.5230, 11890.00
559.6980, 12008.00
560.8730, 12011.00
562.0470, 11951.00
563.2220, 11997.00
564.3960, 12030.00
565.5700, 12068.00
566.7440, 12010.00
567.9170, 11992.00
569.0910, 12054.00
570.2640, 12123.00
571.4380, 12065.00
572.6110, 12145.00
573.7840, 11990.00
574.9570, 12256.00
576.1290, 12176.00
577.3020, 12104.00
578.4740, 12243.00
579.6460, 12185.00
580.8180, 12233.00
581.9900, 12316.00
583.1620, 12304.00
584.3330, 12298.00
585.5040, 12306.00
586.6760, 12278.00
587.8470, 12388.00
589.0180, 12275.00
590.1880, 12146.00
591.3590, 12377.00
592.5290, 12382.00
593.7000, 12250.00
594.8700, 12481.00
596.0400, 12372.00
597.2090, 12372.00
598.3790, 12286.00
599.5490, 12439.00
600.7180, 12407.00
601.8870, 12330.00
603.0560, 12552.00
604.2250, 12528.00
605.3940, 12458.00
606.5620, 12391.00
607.7300, 12451.00
608.8990, 12503.00
610.0670, 12565.00
611.2350, 12553.00
612.4020, 12572.00
613.5700, 12632.00
614.7370, 12680.00
615.9050, 12658.73
617.0720, 12571.00
618.2390, 12657.00
619.4060, 12670.00
620.5720, 12764.00
621.7390, 12628.00
622.9050, 12718.00
624.0710, 12946.00
625.2370, 12774.00
626.4030, 12797.00
627.5690, 12791.00
628.7340, 12737.00
629.9000, 12791.00
631.0650, 12754.00
632.2300, 12724.00
633.3950, 12688.00
634.5600, 12722.00
635.7240, 12823.00
636.8890, 12902.00
638.0530, 12966.00
639.2170, 12959.00
640.3810, 12946.00
641.5450, 12953.00
642.7080, 12922.85
643.8720, 12829.00
645.0350, 12880.00
646.1980, 13030.00
647.3610, 13047.00
648.5240, 12988.00
649.6870, 12872.00
650.8490, 12949.00
652.0120, 12995.00
653.1740, 12893.00
654.3360, 13085.00
655.4980, 13033.00
656.6600, 13308.00
657.8210, 12977.00
658.9830, 12882.00
660.1440, 13075.00
661.3050, 13033.00
662.4660, 13189.00
663.6270, 13127.00
664.7870, 13080.00
665.9480, 13017.00
667.1080, 13070.00
668.2680, 13082.00
669.4280, 13081.00
670.5880, 13251.00
671.7480, 13150.00
672.9070, 13264.00
674.0670, 13402.00
675.2260, 13334.00
676.3850, 13373.00
677.5440, 13307.00
678.7030, 13362.00
679.8610, 13412.00
681.0200, 13314.00
682.1780, 13266.00
683.3360, 13357.00
684.4940, 13407.00
685.6520, 13381.00
686.8090, 13337.00
687.9670, 13413.00
689.1240, 13492.00
690.2810, 13476.00
691.4380, 13436.00
692.5950, 13408.00
693.7520, 13422.00
694.9080, 13552.00
696.0650, 13675.00
697.2210, 13608.00
698.3770, 13573.00
699.5330, 13675.00
700.6880, 13853.00
701.8440, 13929.00
702.9990, 14330.00
704.1550, 14542.00
705.3100, 14672.00
706.4650, 14882.00
707.6190, 15268.00
708.7740, 15848.00
709.9290, 16261.00
711.0830, 16339.00
712.2370, 16119.00
713.3910, 15449.00
714.5450, 14897.00
715.6980, 14320.00
716.8520, 14233.00
718.0050, 14067.00
719.1580, 13930.00
720.3110, 13887.26
721.4640, 13793.00
722.6170, 13826.00
723.7700, 13852.00
724.9220, 13879.00
726.0740, 13910.00
727.2260, 13950.00
728.3780, 13879.00
729.5300, 13951.00
730.6810, 13830.00
731.8330, 13877.00
732.9840, 13924.00
734.1350, 13923.00
735.2860, 13913.00
736.4370, 13973.00
737.5880, 13914.00
738.7380, 13932.00
739.8880, 13919.00
741.0390, 14047.00
742.1890, 13999.00
743.3380, 14056.00
744.4880, 14030.00
745.6380, 14030.84
746.7870, 14143.00
747.9360, 14032.00
749.0850, 14059.00
750.2340, 14073.00
751.3830, 14180.00
752.5310, 14070.00
753.6800, 14060.00
754.8280, 14132.00
755.9760, 14303.00
757.1240, 14257.00
758.2720, 14223.00
759.4190, 14184.00
760.5670, 14212.53
761.7140, 14215.00
762.8610, 14270.00
764.0080, 14291.00
765.1550, 14276.00
766.3020, 14371.00
767.4480, 14211.00
768.5950, 14387.00
769.7410, 14181.00
770.8870, 14325.00
772.0330, 14363.00
773.1780, 14418.00
774.3240, 14583.00
775.4690, 14334.00
776.6140, 14396.00
777.7590, 14527.00
778.9040, 14288.00
780.0490, 14457.00
781.1940, 14595.00
782.3380, 14441.00
783.4820, 14544.00
784.6260, 14544.00
785.7700, 14577.00
786.9140, 14569.00
788.0580, 14640.00
789.2010, 14528.00
790.3450, 14506.00
791.4880, 14740.00
792.6310, 14594.00
793.7730, 14528.00
794.9160, 14617.00
796.0590, 14513.00
797.2010, 14664.00
798.3430, 14736.00
799.4850, 14898.00
800.6270, 14694.00
801.7690, 14570.00
802.9100, 14681.00
804.0520, 14772.00
805.1930, 14771.00
806.3340, 14807.00
807.4750, 14656.00
808.6160, 14746.00
809.7560, 14666.00
810.8970, 14718.89
812.0370, 14807.00
813.1770, 14823.00
814.3170, 14889.00
815.4570, 14883.00
816.5960, 14936.30
817.7360, 14880.00
818.8750, 14968.00
820.0140, 14962.00
821.1530, 14863.00
822.2920, 14964.00
823.4310, 15047.00
824.5690, 15036.00
825.7070, 15009.00
826.8460, 14877.00
827.9840, 14968.00
829.1220, 15026.00
830.2590, 15196.00
831.3970, 14919.00
832.5340, 15042.00
833.6710, 15125.00
834.8080, 15004.00
835.9450, 15191.00
837.0820, 15024.00
838.2190, 15067.00
839.3550, 15064.00
840.4910, 15263.00
841.6270, 15390.00
842.7630, 15067.00
843.8990, 15221.00
845.0350, 15141.00
846.1700, 15079.00
847.3060, 15289.00
848.4410, 15213.00
849.5760, 15255.00
850.7100, 15310.00
851.8450, 15320.00
852.9800, 15371.00
854.1140, 15244.00
855.2480, 15269.00
856.3820, 15273.00
857.5160, 15373.00
858.6500, 15465.00
859.7830, 15435.00
860.9170, 15473.00
862.0500, 15476.00
863.1830, 15499.00
864.3160, 15510.80
865.4480, 15472.00
866.5810, 15528.00
867.7130, 15438.00
868.8460, 15438.00
869.9780, 15506.00
871.1100, 15609.00
872.2410, 15533.00
873.3730, 15520.00
874.5050, 15558.00
875.6360, 15585.00
876.7670, 15547.00
877.8980, 15536.00
879.0290, 15843.00
880.1590, 15697.00
881.2900, 15812.00
882.4200, 15777.00
883.5500, 15751.00
884.6800, 15747.00
885.8100, 15777.00
886.9400, 15789.00
888.0690, 15757.00
889.1990, 15700.00
890.3280, 15785.00
891.4570, 15756.00
892.5860, 15828.00
893.7140, 15940.00
894.8430, 15899.00
895.9710, 15843.00
897.1000, 15778.00
898.2280, 15837.00
899.3560, 15762.00
900.4830, 15757.48
901.6110, 15892.00
902.7380, 15730.00
903.8660, 15869.00
904.9930, 15899.00
906.1200, 16181.00
907.2460, 15950.00
908.3730, 16027.00
909.5000, 16058.00
910.6260, 15908.00
911.7520, 16082.00
912.8780, 16027.00
914.0040, 15975.00
915.1290, 16028.00
916.2550, 16143.00
917.3800, 16163.00
918.5050, 16143.00
919.6300, 16172.00
920.7550, 16210.00
921.8800, 16308.00
923.0040, 16168.00
924.1290, 16201.00
925.2530, 16152.00
926.3770, 16263.00
927.5010, 16222.00
928.6250, 16243.00
929.7480, 16204.00
930.8720, 16238.00
931.9950, 16270.00
933.1180, 16355.00
934.2410, 16232.00
935.3640, 16194.00
936.4860, 16249.00
937.6090, 16235.00
938.7310, 16411.00
939.8530, 16251.00
940.9750, 16459.00
942.0970, 16457.00
943.2180, 16324.00
944.3400, 16502.00
945.4610, 16400.00
946.5820, 16477.00
947.7030, 16568.00
948.8240, 16497.00
949.9450, 16551.00
951.0650, 16613.00
952.1860, 16544.00
953.3060, 16608.00
954.4260, 16434.00
955.5460, 16513.00
956.6650, 16537.00
957.7850, 16641.00
958.9040, 16807.00
960.0230, 16640.00
961.1420, 16757.00
962.2610, 16567.00
963.3800, 16705.00
964.4990, 16600.00
965.6170, 16653.00
966.7350, 16589.00
967.8530, 16804.00
968.9710, 16744.00
970.0890, 16742.00
971.2070, 16815.00
972.3240, 16649.00
973.4410, 16826.00
974.5580, 16814.00
975.6750, 16801.00
976.7920, 16691.00
977.9090, 16976.00
979.0250, 16860.00
980.1410, 17078.00
981.2580, 16832.00
982.3740, 16780.00
983.4890, 16995.00
984.6050, 16925.00
985.7200, 16938.00
986.8360, 17010.00
987.9510, 17000.00
989.0660, 16986.00
990.1810, 17037.00
991.2950, 17138.00
992.4100, 17288.00
993.5240, 17055.00
994.6390, 17228.00
995.7530, 17165.00
996.8660, 17109.00
997.9800, 17230.00
999.0940, 17267.00
1000.207, 17202.00
1001.320, 17133.00
1002.433, 17303.00
1003.546, 17470.00
1004.659, 17277.00
1005.772, 17288.00
1006.884, 17446.00
1007.996, 17323.00
1009.108, 17573.00
1010.220, 17260.00
1011.332, 17422.00
1012.444, 17408.00
1013.555, 17351.00
1014.666, 17298.00
1015.777, 17497.00
1016.888, 17469.00
1017.999, 17444.00
1019.110, 17613.00
1020.220, 17501.00
1021.331, 17505.00
1022.441, 17535.00
1023.551, 17540.32
1024.661, 17545.00
1025.770, 17641.00
1026.880, 17605.00
1027.989, 17633.00
1029.098, 17589.00
1030.207, 17649.00
1031.316, 17605.00
1032.425, 17692.00
1033.533, 17619.00
1034.642, 17688.00
1035.750, 17722.00
1036.858, 17775.00
1037.966, 17766.00
1039.073, 17744.00
1040.181, 17724.00
1041.288, 17758.00
1042.396, 17722.59
1043.503, 17788.00
1044.610, 17720.00
1045.716, 17766.00
1046.823, 17836.00
1047.929, 17831.00
1049.036, 17933.00
1050.142, 17953.41
1051.248, 17955.00
1052.353, 18018.00
1053.459, 17975.00
1054.564, 17975.00
1055.670, 18136.00
1056.775, 18057.00
1057.880, 18004.00
1058.985, 18263.00
1060.089, 18120.00
1061.194, 18100.00
1062.298, 18163.00
1063.402, 18431.00
1064.506, 18339.00
1065.610, 18554.00
1066.713, 18615.00
1067.817, 18431.00
1068.920, 18568.00
1070.023, 18438.00
1071.126, 18526.00
1072.229, 18711.00
1073.332, 18828.00
1074.435, 19257.00
1075.537, 19885.00
1076.639, 20776.00
1077.741, 23054.00
1078.843, 26528.54
1079.945, 33031.00
1081.046, 36451.00
1082.148, 43363.00
1083.249, 50929.00
1084.350, 56602.00
1085.451, 56268.00
1086.551, 49419.00
1087.652, 39125.00
1088.752, 28623.00
1089.853, 22858.00
1090.953, 20477.00
1092.053, 19762.00
1093.152, 19304.00
1094.252, 19015.00
1095.351, 18925.00
1096.451, 18902.00
1097.550, 18754.07
1098.649, 18588.00
1099.748, 18658.00
1100.846, 18809.00
1101.945, 18848.00
1103.043, 18729.00
1104.141, 18633.00
1105.239, 18609.00
1106.337, 18697.00
1107.434, 18696.00
1108.532, 18846.00
1109.629, 18846.00
1110.726, 18699.00
1111.823, 18614.00
1112.920, 19011.00
1114.017, 18826.00
1115.113, 18878.00
1116.210, 19045.00
1117.306, 18739.00
1118.402, 18736.00
1119.498, 18938.00
1120.593, 18709.00
1121.689, 18845.00
1122.784, 18970.00
1123.879, 19101.00
1124.974, 18948.00
1126.069, 18849.00
1127.164, 18963.00
1128.259, 18882.00
1129.353, 19043.00
1130.447, 18958.00
1131.541, 18919.00
1132.635, 18933.00
1133.729, 19053.00
1134.822, 19057.00
1135.916, 19056.00
1137.009, 19004.00
1138.102, 19171.00
1139.195, 19081.00
1140.288, 19051.00
1141.380, 19158.00
1142.473, 19139.00
1143.565, 19106.00
1144.657, 19106.00
1145.749, 19168.00
1146.841, 19182.00
1147.932, 19190.00
1149.024, 19380.00
1150.115, 19199.00
1151.206, 19276.00
1152.297, 19415.00
1153.388, 19323.00
1154.479, 19205.00
1155.569, 19064.00
1156.659, 19254.00
1157.750, 19468.00
1158.839, 19333.00
1159.929, 19373.00
1161.019, 19301.00
1162.108, 19400.00
1163.198, 19608.00
1164.287, 19411.00
1165.376, 19547.00
1166.465, 19590.00
1167.553, 19477.00
1168.642, 19478.00
1169.730, 19464.00
1170.818, 19433.41
1171.906, 19440.77
1172.994, 19434.00
1174.082, 19507.00
1175.170, 19524.00
1176.257, 19705.00
1177.344, 19749.00
1178.431, 19733.00
1179.518, 19588.00
1180.605, 19599.00
1181.691, 19566.17
1182.778, 19535.00
1183.864, 19553.00
1184.950, 19740.00
1186.036, 19738.00
1187.122, 19708.00
1188.207, 19927.00
1189.292, 19738.00
1190.378, 19872.00
1191.463, 19842.00
1192.548, 20098.00
1193.632, 19826.00
1194.717, 19770.00
1195.801, 19644.00
1196.886, 19865.00
1197.970, 19934.00
1199.054, 19891.00
1200.137, 19858.00
1201.221, 19747.00
1202.305, 19810.47
1203.388, 20118.00
1204.471, 19924.00
1205.554, 19997.00
1206.637, 20084.00
1207.719, 19864.00
1208.802, 20336.00
1209.884, 20097.00
1210.966, 20030.00
1212.048, 20138.00
1213.130, 20140.00
1214.212, 20131.00
1215.293, 20161.00
1216.374, 20276.00
1217.456, 20271.00
1218.536, 20359.00
1219.617, 20221.00
1220.698, 20216.00
1221.778, 20128.00
1222.859, 20345.00
1223.939, 20259.00
1225.019, 20379.00
1226.099, 20389.00
1227.178, 20367.00
1228.258, 20540.00
1229.337, 20375.00
1230.417, 20361.00
1231.496, 20460.00
1232.574, 20208.00
1233.653, 20602.00
1234.732, 20500.00
1235.810, 20326.00
1236.888, 20402.00
1237.966, 20449.00
1239.044, 20445.00
1240.122, 20495.00
1241.199, 20536.00
1242.277, 20622.00
1243.354, 20609.00
1244.431, 20575.00
1245.508, 20636.00
1246.585, 20681.00
1247.661, 20672.00
1248.738, 20705.15
1249.814, 20686.00
1250.890, 20733.00
1251.966, 20747.00
1253.042, 20794.00
1254.117, 20725.00
1255.193, 20591.00
1256.268, 20731.00
1257.343, 20786.00
1258.418, 20739.00
1259.493, 20880.00
1260.567, 20870.00
1261.642, 20799.00
1262.716, 21105.00
1263.790, 20809.00
1264.864, 20819.00
1265.938, 20910.00
1267.011, 21050.00
1268.085, 21051.00
1269.158, 20933.00
1270.231, 20911.00
1271.304, 21045.00
1272.377, 21064.00
1273.450, 21091.00
1274.522, 21134.04
1275.594, 21123.00
1276.666, 21183.00
1277.738, 21118.00
1278.810, 21195.00
1279.882, 21213.00
1280.953, 21253.00
1282.025, 21279.79
1283.096, 21184.00
1284.167, 21230.00
1285.238, 21255.00
1286.308, 21054.00
1287.379, 21065.00
1288.449, 21096.00
1289.519, 21159.00
1290.589, 21214.66
1291.659, 21297.74
1292.729, 21327.00
1293.798, 21444.00
1294.868, 21413.00
1295.937, 21388.00
1297.006, 21309.00
1298.075, 21376.00
1299.143, 21374.00
