##NAMES=Calcite
##RRUFFID=R040170
##IDEAL CHEMISTRY=CaCO_3_
##LOCALITY=Peramea, Lerida Province, Catalonia, Spain
##OWNER=RRUFF
##SOURCE=University of Arizona Mineral Museum
##DESCRIPTION=Pink fragment
##STATUS=The identification of this mineral has been confirmed by X-ray diffraction and chemical analysis
##URL=rruff.info/R040170
##MEASURED CHEMISTRY=(Ca_0.99_Mg_0.01_)CO_3_; trace amounts of Co
##PIN_ID=L00956
##ORIENTATION=Laser parallel to -a* (-1 0 0). Fiducial mark perpendicular to laser is parallel to c [0 0 1]
102.1160, 8249.000
103.3490, 8310.000
104.5820, 8526.000
105.8150, 8860.000
107.0470, 8856.000
108.2800, 8879.000
109.5120, 8698.000
110.7440, 8692.000
111.9760, 9044.000
113.2080, 8883.000
114.4400, 8975.000
115.6710, 9012.000
116.9030, 9049.000
118.1340, 9100.000
119.3650, 9314.000
120.5960, 9336.000
121.8270, 9432.000
123.0580, 9420.000
124.2880, 9436.000
125.5190, 9510.000
126.7490, 9639.000
127.9790, 9774.000
129.2090, 9891.000
130.4390, 10008.00
131.6680, 10124.00
132.8980, 10295.00
134.1270, 10480.00
135.3560, 10686.00
136.5850, 10997.00
137.8140, 11473.00
139.0430, 11776.00
140.2710, 12234.00
141.5000, 12853.00
142.7280, 13358.00
143.9560, 14073.00
145.1840, 14492.00
146.4120, 14963.00
147.6390, 15196.00
148.8670, 15515.00
150.0940, 15414.00
151.3210, 15210.00
152.5490, 14723.00
153.7750, 14166.00
155.0020, 13759.00
156.2290, 13243.00
157.4550, 12960.00
158.6810, 12322.00
159.9080, 11889.00
161.1340, 11510.00
162.3590, 11240.00
163.5850, 11001.00
164.8110, 10839.00
166.0360, 10804.00
167.2610, 10746.00
168.4860, 10594.00
169.7110, 10561.00
170.9360, 10451.00
172.1610, 10480.00
173.3850, 10446.00
174.6100, 10456.00
175.8340, 10427.00
177.0580, 10477.00
178.2820, 10373.00
179.5050, 10457.00
180.7290, 10488.00
181.9520, 10458.00
183.1760, 10547.00
184.3990, 10442.00
185.6220, 10452.00
186.8450, 10648.00
188.0670, 10566.00
189.2900, 10534.00
190.5120, 10597.00
191.7340, 10530.00
192.9560, 10766.00
194.1780, 10659.00
195.4000, 10665.00
196.6220, 10810.00
197.8430, 10720.00
199.0640, 10805.00
200.2860, 10746.00
201.5070, 10778.00
202.7270, 10734.00
203.9480, 10755.00
205.1690, 10752.00
206.3890, 10827.00
207.6090, 10880.00
208.8290, 10999.00
210.0490, 10854.00
211.2690, 10894.00
212.4890, 10859.00
213.7080, 10913.00
214.9280, 10972.00
216.1470, 11051.00
217.3660, 11130.00
218.5850, 11170.17
219.8030, 11191.00
221.0220, 11206.00
222.2400, 11200.00
223.4590, 11221.45
224.6770, 11183.00
225.8950, 11264.00
227.1120, 11329.00
228.3300, 11392.00
229.5480, 11292.00
230.7650, 11411.00
231.9820, 11534.00
233.1990, 11536.00
234.4160, 11677.00
235.6330, 11637.00
236.8490, 11738.00
238.0660, 11766.00
239.2820, 11861.68
240.4980, 11960.24
241.7140, 12086.00
242.9300, 12189.00
244.1460, 12316.84
245.3610, 12428.00
246.5770, 12580.00
247.7920, 12707.22
249.0070, 12850.78
250.2220, 12988.00
251.4370, 13154.00
252.6510, 13282.00
253.8660, 13494.00
255.0800, 13770.00
256.2940, 14170.00
257.5080, 14498.00
258.7220, 14815.00
259.9360, 15185.00
261.1490, 15749.00
262.3630, 16399.00
263.5760, 17184.00
264.7890, 18048.53
266.0020, 19033.00
267.2150, 20042.00
268.4270, 21191.00
269.6400, 22316.00
270.8520, 23549.00
272.0640, 24404.00
273.2760, 25266.00
274.4880, 25782.00
275.7000, 25885.00
276.9120, 25562.00
278.1230, 25003.00
279.3340, 24055.00
280.5450, 23032.00
281.7560, 21833.00
282.9670, 20854.00
284.1780, 19733.00
285.3880, 18529.00
286.5980, 17639.00
287.8090, 16764.00
289.0190, 15951.00
290.2290, 15501.00
291.4380, 15023.00
292.6480, 14524.00
293.8570, 14318.00
295.0670, 13942.00
296.2760, 13892.00
297.4850, 13548.00
298.6930, 13490.00
299.9020, 13307.00
301.1110, 13244.00
302.3190, 13098.00
303.5270, 13111.00
304.7350, 12984.00
305.9430, 12690.00
307.1510, 12743.00
308.3580, 12617.00
309.5660, 12745.00
310.7730, 12681.00
311.9800, 12674.00
313.1870, 12563.00
314.3940, 12579.00
315.6010, 12535.00
316.8070, 12551.00
318.0130, 12495.00
319.2200, 12546.00
320.4260, 12583.00
321.6310, 12563.00
322.8370, 12522.00
324.0430, 12516.00
325.2480, 12453.00
326.4540, 12462.00
327.6590, 12558.00
328.8640, 12510.00
330.0680, 12433.00
331.2730, 12552.00
332.4780, 12510.00
333.6820, 12384.00
334.8860, 12533.00
336.0900, 12477.00
337.2940, 12634.00
338.4980, 12492.00
339.7010, 12598.00
340.9050, 12495.00
342.1080, 12495.00
343.3110, 12490.00
344.5140, 12655.00
345.7170, 12674.00
346.9200, 12601.00
348.1220, 12603.00
349.3240, 12613.00
350.5270, 12636.00
351.7290, 12507.00
352.9310, 12687.00
354.1320, 12681.00
355.3340, 12621.00
356.5350, 12744.00
357.7370, 12707.00
358.9380, 12693.00
360.1390, 12715.00
361.3400, 12815.00
362.5400, 12686.00
363.7410, 12915.00
364.9410, 12798.00
366.1410, 12847.00
367.3410, 12809.00
368.5410, 12856.00
369.7410, 12763.00
370.9400, 12916.00
372.1400, 12769.00
373.3390, 12916.00
374.5380, 13001.00
375.7370, 12968.00
376.9360, 12983.00
378.1350, 12910.00
379.3330, 12982.00
380.5310, 12921.65
381.7300, 12945.64
382.9280, 12917.00
384.1260, 12964.00
385.3230, 13106.00
386.5210, 13091.00
387.7180, 13052.00
388.9160, 13024.00
390.1130, 13158.00
391.3100, 13141.00
392.5060, 13079.00
393.7030, 13185.00
394.9000, 13157.00
396.0960, 13074.00
397.2920, 12968.00
398.4880, 13130.00
399.6840, 13296.00
400.8800, 13284.00
402.0750, 13198.00
403.2710, 13233.00
404.4660, 13265.00
405.6610, 13321.00
406.8560, 13337.13
408.0510, 13289.00
409.2450, 13382.00
410.4400, 13377.00
411.6340, 13399.00
412.8280, 13452.00
414.0220, 13554.00
415.2160, 13349.00
416.4100, 13557.00
417.6030, 13517.00
418.7970, 13479.00
419.9900, 13562.00
421.1830, 13495.00
422.3760, 13495.00
423.5690, 13587.00
424.7610, 13706.00
425.9540, 13701.00
427.1460, 13733.00
428.3380, 13724.00
429.5300, 13695.00
430.7220, 13734.83
431.9140, 13841.00
433.1050, 13767.00
434.2970, 13765.00
435.4880, 13740.84
436.6790, 13856.00
437.8700, 13737.00
439.0610, 13930.00
440.2510, 13953.00
441.4420, 13712.00
442.6320, 13930.00
443.8220, 13919.00
445.0120, 14006.00
446.2020, 14101.00
447.3910, 13918.00
448.5810, 13957.00
449.7700, 14002.00
450.9600, 14049.00
452.1490, 13893.00
453.3370, 13948.00
454.5260, 13984.50
455.7150, 14181.00
456.9030, 14100.00
458.0910, 14138.00
459.2800, 14135.00
460.4670, 14121.00
461.6550, 14186.00
462.8430, 14209.00
464.0300, 14263.00
465.2180, 14313.00
466.4050, 14259.00
467.5920, 14332.06
468.7790, 14415.00
469.9650, 14408.00
471.1520, 14294.00
472.3380, 14327.00
473.5250, 14232.00
474.7110, 14477.00
475.8970, 14507.00
477.0820, 14456.00
478.2680, 14404.00
479.4540, 14528.00
480.6390, 14502.00
481.8240, 14624.00
483.0090, 14566.00
484.1940, 14620.00
485.3780, 14495.00
486.5630, 14474.00
487.7470, 14623.00
488.9320, 14533.00
490.1160, 14795.00
491.3000, 14611.00
492.4830, 14623.00
493.6670, 14804.00
494.8500, 14710.00
496.0340, 14714.00
497.2170, 14799.00
498.4000, 14791.00
499.5820, 14647.00
500.7650, 14907.00
501.9480, 14889.00
503.1300, 14816.00
504.3120, 15060.00
505.4940, 14856.00
506.6760, 14858.00
507.8580, 14933.00
509.0390, 14775.00
510.2210, 14998.00
511.4020, 14870.00
512.5830, 14971.00
513.7640, 14931.00
514.9450, 14977.00
516.1250, 14917.00
517.3060, 15129.00
518.4860, 15132.00
519.6660, 15138.00
520.8460, 15171.00
522.0260, 15131.00
523.2060, 15178.10
524.3850, 15179.42
525.5650, 15228.00
526.7440, 15205.00
527.9230, 15200.00
529.1020, 15204.00
530.2810, 15303.00
531.4590, 15325.00
532.6380, 15248.00
533.8160, 15370.00
534.9940, 15317.00
536.1720, 15265.00
537.3500, 15351.00
538.5270, 15357.00
539.7050, 15488.00
540.8820, 15357.00
542.0590, 15426.00
543.2360, 15475.00
544.4130, 15462.00
545.5900, 15515.67
546.7660, 15537.96
547.9430, 15547.00
549.1190, 15605.00
550.2950, 15585.00
551.4710, 15626.00
552.6470, 15594.00
553.8220, 15684.00
554.9980, 15490.00
556.1730, 15825.00
557.3480, 15778.00
558.5230, 15796.00
559.6980, 15617.00
560.8730, 15659.00
562.0470, 15601.00
563.2220, 15756.00
564.3960, 15881.00
565.5700, 15841.00
566.7440, 15769.00
567.9170, 15755.00
569.0910, 15915.00
570.2640, 15822.00
571.4380, 15969.00
572.6110, 15831.00
573.7840, 15879.00
574.9570, 16092.00
576.1290, 15822.00
577.3020, 16094.00
578.4740, 16061.00
579.6460, 16032.00
580.8180, 16020.00
581.9900, 16032.00
583.1620, 16112.00
584.3330, 16164.00
585.5040, 16039.00
586.6760, 16223.00
587.8470, 16280.00
589.0180, 16039.00
590.1880, 16275.00
591.3590, 16334.00
592.5290, 16221.00
593.7000, 16365.00
594.8700, 16296.00
596.0400, 16174.00
597.2090, 16239.00
598.3790, 16485.00
599.5490, 16459.00
600.7180, 16491.00
601.8870, 16489.00
603.0560, 16534.00
604.2250, 16498.00
605.3940, 16448.00
606.5620, 16575.00
607.7300, 16464.00
608.8990, 16672.00
610.0670, 16745.00
611.2350, 16679.00
612.4020, 16657.00
613.5700, 16707.00
614.7370, 16681.00
615.9050, 16571.00
617.0720, 16637.00
618.2390, 16656.00
619.4060, 16802.00
620.5720, 16724.00
621.7390, 16642.00
622.9050, 16854.00
624.0710, 16732.00
625.2370, 16781.00
626.4030, 17024.00
627.5690, 16811.00
628.7340, 16919.00
629.9000, 17076.00
631.0650, 16942.00
632.2300, 17020.00
633.3950, 17053.00
634.5600, 17037.00
635.7240, 17019.00
636.8890, 17022.00
638.0530, 16882.00
639.2170, 17119.00
640.3810, 17067.00
641.5450, 16894.00
642.7080, 17034.00
643.8720, 17126.00
645.0350, 17144.00
646.1980, 17212.00
647.3610, 17220.97
648.5240, 17118.00
649.6870, 17161.00
650.8490, 17300.00
652.0120, 17146.00
653.1740, 17425.00
654.3360, 17444.00
655.4980, 17330.00
656.6600, 17415.00
657.8210, 17422.00
658.9830, 17356.00
660.1440, 17262.00
661.3050, 17409.00
662.4660, 17675.00
663.6270, 17565.00
664.7870, 17573.00
665.9480, 17644.00
667.1080, 17471.00
668.2680, 17645.00
669.4280, 17609.00
670.5880, 17519.00
671.7480, 17632.00
672.9070, 17675.00
674.0670, 17626.00
675.2260, 17737.00
676.3850, 17759.00
677.5440, 17774.15
678.7030, 17769.00
679.8610, 17784.00
681.0200, 17882.00
682.1780, 17814.00
683.3360, 17698.00
684.4940, 17870.00
685.6520, 17797.00
686.8090, 17983.00
687.9670, 17888.00
689.1240, 17954.00
690.2810, 18033.00
691.4380, 18032.43
692.5950, 18090.54
693.7520, 18129.00
694.9080, 18141.00
696.0650, 18181.00
697.2210, 18185.00
698.3770, 18247.00
699.5330, 18627.00
700.6880, 18703.00
701.8440, 19034.00
702.9990, 19208.00
704.1550, 19649.00
705.3100, 19868.00
706.4650, 20304.00
707.6190, 20415.00
708.7740, 20151.00
709.9290, 20055.00
711.0830, 19839.00
712.2370, 19497.00
713.3910, 19405.00
714.5450, 19149.00
715.6980, 18674.00
716.8520, 18695.00
718.0050, 18610.00
719.1580, 18475.00
720.3110, 18521.00
721.4640, 18527.00
722.6170, 18476.00
723.7700, 18466.00
724.9220, 18506.66
726.0740, 18482.00
727.2260, 18600.00
728.3780, 18505.00
729.5300, 18532.00
730.6810, 18668.00
731.8330, 18626.00
732.9840, 18506.00
734.1350, 18740.00
735.2860, 18731.00
736.4370, 18670.00
737.5880, 18774.00
738.7380, 18808.00
739.8880, 18668.00
741.0390, 18690.00
742.1890, 18863.00
743.3380, 19008.00
744.4880, 18729.00
745.6380, 18906.00
746.7870, 18713.00
747.9360, 18813.00
749.0850, 18807.00
750.2340, 18846.00
751.3830, 19000.00
752.5310, 18949.00
753.6800, 18825.00
754.8280, 19099.00
755.9760, 18856.00
757.1240, 18932.00
758.2720, 19084.00
759.4190, 19145.00
760.5670, 19059.00
761.7140, 19152.00
762.8610, 19032.00
764.0080, 19134.00
765.1550, 19272.00
766.3020, 19415.00
767.4480, 19096.00
768.5950, 19225.00
769.7410, 19245.00
770.8870, 19316.00
772.0330, 19254.00
773.1780, 19385.00
774.3240, 19196.00
775.4690, 19221.00
776.6140, 19520.00
777.7590, 19541.00
778.9040, 19445.00
780.0490, 19389.00
781.1940, 19621.00
782.3380, 19363.00
783.4820, 19522.00
784.6260, 19725.00
785.7700, 19648.00
786.9140, 19718.00
788.0580, 19687.00
789.2010, 19599.00
790.3450, 19677.00
791.4880, 19541.00
792.6310, 19651.00
793.7730, 19687.00
794.9160, 19821.00
796.0590, 19802.23
797.2010, 19843.00
798.3430, 19758.00
799.4850, 19797.00
800.6270, 19745.00
801.7690, 19792.00
802.9100, 19761.00
804.0520, 19882.00
805.1930, 19841.00
806.3340, 19846.00
807.4750, 19912.00
808.6160, 19912.00
809.7560, 20012.00
810.8970, 19911.00
812.0370, 20018.00
813.1770, 20009.00
814.3170, 19979.00
815.4570, 20064.10
816.5960, 20114.00
817.7360, 20175.00
818.8750, 20234.00
820.0140, 20311.00
821.1530, 20240.00
822.2920, 20248.00
823.4310, 20332.00
824.5690, 20085.00
825.7070, 20285.00
826.8460, 20250.00
827.9840, 20333.00
829.1220, 20351.00
830.2590, 20448.00
831.3970, 20450.00
832.5340, 20538.00
833.6710, 20508.55
834.8080, 20543.45
835.9450, 20450.00
837.0820, 20538.00
838.2190, 20536.00
839.3550, 20463.00
840.4910, 20498.00
841.6270, 20685.00
842.7630, 20586.00
843.8990, 20642.00
845.0350, 20762.00
846.1700, 20660.00
847.3060, 20697.00
848.4410, 20603.00
849.5760, 20783.00
850.7100, 20763.00
851.8450, 20823.00
852.9800, 20810.00
854.1140, 21001.00
855.2480, 21003.00
856.3820, 21033.00
857.5160, 21044.00
858.6500, 20794.00
859.7830, 20914.00
860.9170, 20935.00
862.0500, 21074.00
863.1830, 20872.00
864.3160, 20965.00
865.4480, 20784.00
866.5810, 20999.00
867.7130, 21127.00
868.8460, 21272.00
869.9780, 21285.00
871.1100, 21233.00
872.2410, 21187.00
873.3730, 21176.37
874.5050, 21161.34
875.6360, 21164.00
876.7670, 21167.00
877.8980, 21243.00
879.0290, 21247.00
880.1590, 21326.00
881.2900, 21495.00
882.4200, 21329.00
883.5500, 21232.00
884.6800, 21301.00
885.8100, 21455.00
886.9400, 21493.00
888.0690, 21367.00
889.1990, 21430.00
890.3280, 21440.00
891.4570, 21645.00
892.5860, 21550.00
893.7140, 21541.00
894.8430, 21476.00
895.9710, 21680.00
897.1000, 21693.00
898.2280, 21727.00
899.3560, 21564.00
900.4830, 21778.00
901.6110, 21798.00
902.7380, 21614.00
903.8660, 21819.00
904.9930, 21767.00
906.1200, 21705.00
907.2460, 21744.00
908.3730, 21786.00
909.5000, 21887.00
910.6260, 21764.00
911.7520, 21978.00
912.8780, 21852.00
914.0040, 21932.00
915.1290, 22028.00
916.2550, 22093.00
917.3800, 22048.00
918.5050, 22005.00
919.6300, 22033.00
920.7550, 21986.52
921.8800, 21950.00
923.0040, 22009.00
924.1290, 22026.00
925.2530, 22174.00
926.3770, 22201.95
927.5010, 22361.00
928.6250, 22313.00
929.7480, 22258.00
930.8720, 22268.00
931.9950, 22301.00
933.1180, 22175.00
934.2410, 22301.00
935.3640, 22388.00
936.4860, 22439.00
937.6090, 22394.00
938.7310, 22396.00
939.8530, 22316.00
940.9750, 22577.00
942.0970, 22667.00
943.2180, 22471.00
944.3400, 22275.00
945.4610, 22558.00
946.5820, 22464.00
947.7030, 22567.00
948.8240, 22531.00
949.9450, 22705.00
951.0650, 22705.00
952.1860, 22787.00
953.3060, 22717.00
954.4260, 22838.00
955.5460, 22784.00
956.6650, 22885.00
957.7850, 22954.00
958.9040, 22709.00
960.0230, 22989.00
961.1420, 22839.00
962.2610, 22937.00
963.3800, 22934.00
964.4990, 22904.00
965.6170, 22942.41
966.7350, 22937.71
967.8530, 22981.00
968.9710, 22970.00
970.0890, 23071.00
971.2070, 23100.00
972.3240, 23029.00
973.4410, 22948.00
974.5580, 23149.00
975.6750, 23122.00
976.7920, 23304.00
977.9090, 23250.00
979.0250, 23325.13
980.1410, 23192.00
981.2580, 23417.00
982.3740, 23397.00
983.4890, 23446.00
984.6050, 23312.00
985.7200, 23625.00
986.8360, 23577.00
987.9510, 23551.00
989.0660, 23671.00
990.1810, 23754.00
991.2950, 23749.00
992.4100, 23942.00
993.5240, 23780.00
994.6390, 23763.00
995.7530, 24028.00
996.8660, 24031.00
997.9800, 23979.00
999.0940, 24272.00
1000.207, 24224.00
1001.320, 24223.00
1002.433, 24315.00
1003.546, 24371.00
1004.659, 24595.00
1005.772, 24749.00
1006.884, 24699.00
1007.996, 24926.00
1009.108, 25038.00
1010.220, 25213.00
1011.332, 25252.00
1012.444, 25673.00
1013.555, 25445.00
1014.666, 25392.00
1015.777, 25311.00
1016.888, 24914.00
1017.999, 24537.00
1019.110, 24673.00
1020.220, 24383.00
1021.331, 24397.00
1022.441, 24517.00
1023.551, 24033.00
1024.661, 24420.00
1025.770, 24024.00
1026.880, 24179.00
1027.989, 24286.00
1029.098, 24390.00
1030.207, 24426.00
1031.316, 24390.00
1032.425, 24379.00
1033.533, 24109.00
1034.642, 24230.00
1035.750, 24552.00
1036.858, 24128.00
1037.966, 24330.00
1039.073, 24224.00
1040.181, 24447.00
1041.288, 24426.00
1042.396, 24439.00
1043.503, 24606.00
1044.610, 24396.00
1045.716, 24566.00
1046.823, 24572.00
1047.929, 24749.00
1049.036, 24842.00
1050.142, 24749.00
1051.248, 24786.00
1052.353, 24832.00
1053.459, 24934.00
1054.564, 24904.00
1055.670, 24810.00
1056.775, 24822.00
1057.880, 25014.00
1058.985, 25034.00
1060.089, 25176.00
1061.194, 25454.00
1062.298, 25440.00
1063.402, 25363.00
1064.506, 25580.00
1065.610, 25455.00
1066.713, 25575.00
1067.817, 25913.00
1068.920, 25966.00
1070.023, 26285.00
1071.126, 26893.00
1072.229, 27325.00
1073.332, 28280.00
1074.435, 29835.00
1075.537, 31545.00
1076.639, 34679.00
1077.741, 38833.00
1078.843, 45264.00
1079.945, 51942.00
1081.046, 57214.00
1082.148, 60765.00
1083.249, 59582.00
1084.350, 54720.00
1085.451, 49643.00
1086.551, 44680.00
1087.652, 39063.00
1088.752, 34194.00
1089.853, 30952.00
1090.953, 28752.00
1092.053, 27858.00
1093.152, 27063.00
1094.252, 26558.00
1095.351, 26332.00
1096.451, 26174.00
1097.550, 25880.00
1098.649, 25800.00
1099.748, 25791.00
1100.846, 25744.00
1101.945, 25772.00
1103.043, 25589.00
1104.141, 25813.00
1105.239, 25746.00
1106.337, 25972.00
1107.434, 25885.00
1108.532, 25881.00
1109.629, 25886.00
1110.726, 25980.00
1111.823, 25986.00
1112.920, 25946.00
1114.017, 25967.00
1115.113, 25988.00
1116.210, 26245.00
1117.306, 26082.00
1118.402, 26213.00
1119.498, 26311.00
1120.593, 26183.00
1121.689, 26225.00
1122.784, 26218.00
1123.879, 26361.00
1124.974, 26259.00
1126.069, 26335.00
1127.164, 26292.00
1128.259, 26134.00
1129.353, 26235.00
1130.447, 26176.00
1131.541, 26339.00
1132.635, 26355.00
1133.729, 26248.00
1134.822, 26305.00
1135.916, 26362.00
1137.009, 26348.00
1138.102, 26475.00
1139.195, 26312.00
1140.288, 26230.00
1141.380, 26702.00
1142.473, 26513.00
1143.565, 26493.00
1144.657, 26483.00
1145.749, 26386.00
1146.841, 26443.99
1147.932, 26521.00
1149.024, 26539.00
1150.115, 26656.00
1151.206, 26752.00
1152.297, 26601.00
1153.388, 26674.00
1154.479, 26394.00
1155.569, 26890.00
1156.659, 26760.00
1157.750, 26382.00
1158.839, 27042.00
1159.929, 26514.00
1161.019, 26640.00
1162.108, 26734.00
1163.198, 26910.00
1164.287, 26938.00
1165.376, 26987.00
1166.465, 27008.00
1167.553, 26803.00
1168.642, 26944.00
1169.730, 26945.00
1170.818, 26899.00
1171.906, 27059.00
1172.994, 26891.00
1174.082, 27224.00
1175.170, 27208.00
1176.257, 27210.00
1177.344, 27204.00
1178.431, 27218.25
1179.518, 27233.69
1180.605, 27268.00
1181.691, 27282.00
1182.778, 27332.24
1183.864, 27363.67
1184.950, 27382.00
1186.036, 27367.00
1187.122, 27387.00
1188.207, 27321.00
1189.292, 27366.00
1190.378, 27236.00
1191.463, 27402.00
1192.548, 27372.00
1193.632, 27475.00
1194.717, 27458.00
1195.801, 27535.00
1196.886, 27668.00
1197.970, 27513.00
1199.054, 27406.00
1200.137, 27456.00
1201.221, 27459.00
1202.305, 27430.00
1203.388, 27576.00
1204.471, 27585.00
1205.554, 27753.00
1206.637, 27638.00
1207.719, 27642.00
1208.802, 27836.00
1209.884, 27737.00
1210.966, 27728.00
1212.048, 27811.00
1213.130, 27862.00
1214.212, 27783.00
1215.293, 27821.00
1216.374, 27702.00
1217.456, 27866.00
1218.536, 27854.00
1219.617, 27809.00
1220.698, 27924.00
1221.778, 27951.00
1222.859, 28060.00
1223.939, 27941.00
1225.019, 27910.00
1226.099, 28055.00
1227.178, 28114.00
1228.258, 28091.00
1229.337, 28359.00
1230.417, 28161.00
1231.496, 27972.00
1232.574, 28080.00
1233.653, 28231.00
1234.732, 28104.00
1235.810, 28329.00
1236.888, 28387.00
1237.966, 28087.00
1239.044, 28342.00
1240.122, 28488.00
1241.199, 28286.00
1242.277, 28347.00
1243.354, 28447.00
1244.431, 28409.00
1245.508, 28560.00
1246.585, 28556.16
1247.661, 28527.00
1248.738, 28585.00
1249.814, 28437.00
1250.890, 28394.00
1251.966, 28436.00
1253.042, 28395.00
1254.117, 28406.00
1255.193, 28379.00
1256.268, 28435.00
1257.343, 28501.00
1258.418, 28592.00
1259.493, 28749.00
1260.567, 28786.13
1261.642, 28736.00
1262.716, 28889.00
1263.790, 28780.00
1264.864, 28767.00
1265.938, 28850.00
1267.011, 28535.00
1268.085, 28814.00
1269.158, 28688.00
1270.231, 28644.00
1271.304, 28727.00
1272.377, 28855.00
1273.450, 28959.00
1274.522, 28661.00
1275.594, 29025.00
1276.666, 28849.00
1277.738, 28820.00
1278.810, 28974.00
1279.882, 29105.00
1280.953, 28870.00
1282.025, 29155.00
1283.096, 29286.00
