##NAMES=Calcite
##RRUFFID=R050009
##IDEAL CHEMISTRY=CaCO_3_
##LOCALITY=Amparo mine, Rodeo, Durango, Mexico
##OWNER=RRUFF
##SOURCE=Eugene Schlepp
##DESCRIPTION=Colorless cleavage rhomb
##STATUS=The identification of this mineral has been confirmed by X-ray diffraction and chemical analysis
##URL=rruff.info/R050009
##MEASURED CHEMISTRY=Ca_1.00_CO_3_; trace amounts of Mn
##PIN_ID=M00141
##ORIENTATION=Laser parallel to a* (1 0 0). Fiducial mark perpendicular to laser is parallel to -c [0 0 -1]
67.15200, 494.0000
68.39700, 512.0000
69.64100, 497.0000
70.88600, 533.0000
72.13000, 564.0000
73.37400, 682.0000
74.61800, 727.0000
75.86200, 732.0000
77.10600, 736.0000
78.34900, 659.0000
79.59300, 638.0000
80.83600, 562.0000
82.07900, 555.0000
83.32100, 524.0000
84.56400, 520.0000
85.80600, 520.0000
87.04800, 485.0000
88.29000, 519.0000
89.53200, 515.0000
90.77400, 490.0000
92.01500, 507.0000
93.25700, 497.0000
94.49800, 509.0000
95.73900, 507.0000
96.98000, 498.0000
98.22000, 507.0000
99.46100, 514.0000
100.7010, 518.0000
101.9410, 518.7165
103.1810, 510.0000
104.4210, 512.0000
105.6600, 508.8994
106.9000, 499.0000
108.1390, 512.0000
109.3780, 529.0000
110.6170, 539.0000
111.8550, 611.0000
113.0940, 697.0000
114.3320, 786.0000
115.5700, 844.0000
116.8080, 745.0000
118.0460, 786.0000
119.2830, 687.0000
120.5210, 581.0000
121.7580, 535.0000
122.9950, 536.0000
124.2320, 510.0000
125.4690, 535.0000
126.7050, 521.0000
127.9410, 541.0000
129.1780, 501.0000
130.4140, 511.0000
131.6490, 539.0000
132.8850, 562.0000
134.1200, 501.0000
135.3560, 526.0000
136.5910, 504.0000
137.8260, 517.0000
139.0610, 524.0000
140.2950, 559.0000
141.5290, 516.0000
142.7640, 534.0000
143.9980, 548.0000
145.2320, 501.0000
146.4650, 515.0000
147.6990, 564.0000
148.9320, 610.0000
150.1650, 601.0000
151.3980, 627.0000
152.6310, 685.0000
153.8640, 719.0000
155.0960, 709.0000
156.3280, 744.0000
157.5600, 670.0000
158.7920, 648.0000
160.0240, 649.0000
161.2560, 583.0000
162.4870, 613.0000
163.7180, 554.0000
164.9490, 544.0000
166.1800, 545.0000
167.4110, 508.0000
168.6410, 545.0000
169.8720, 543.0000
171.1020, 551.0000
172.3320, 532.0000
173.5620, 534.0000
174.7910, 510.0000
176.0210, 518.3414
177.2500, 522.0000
178.4790, 532.0000
179.7080, 525.0000
180.9370, 532.0000
182.1650, 538.9753
183.3940, 559.0000
184.6220, 552.0000
185.8500, 548.0000
187.0780, 546.0000
188.3050, 493.0000
189.5330, 560.0000
190.7600, 542.0000
191.9870, 588.0000
193.2140, 525.0000
194.4410, 569.0000
195.6680, 564.0000
196.8940, 588.0000
198.1200, 552.0000
199.3470, 564.0000
200.5720, 580.0000
201.7980, 567.0000
203.0240, 573.0000
204.2490, 585.0000
205.4740, 589.0000
206.6990, 557.0000
207.9240, 574.0000
209.1490, 593.0000
210.3740, 526.0000
211.5980, 588.0000
212.8220, 603.0000
214.0460, 550.0000
215.2700, 576.0000
216.4930, 574.0000
217.7170, 604.0000
218.9400, 577.0000
220.1630, 563.0000
221.3860, 582.0000
222.6090, 574.0000
223.8320, 596.0000
225.0540, 563.0000
226.2760, 610.0000
227.4980, 605.0000
228.7200, 579.0000
229.9420, 601.0000
231.1630, 572.0000
232.3850, 558.0000
233.6060, 587.0000
234.8270, 586.0000
236.0480, 595.0000
237.2690, 607.0000
238.4890, 574.0000
239.7090, 594.0000
240.9290, 587.0000
242.1490, 591.0000
243.3690, 595.0000
244.5890, 592.0000
245.8080, 588.0000
247.0270, 614.0000
248.2470, 611.0000
249.4650, 596.0000
250.6840, 579.0000
251.9030, 596.0000
253.1210, 602.0000
254.3390, 608.0000
255.5570, 606.0000
256.7750, 611.0000
257.9930, 606.0000
259.2100, 600.0000
260.4280, 641.0000
261.6450, 638.0000
262.8620, 630.0000
264.0790, 614.0000
265.2950, 621.0000
266.5120, 691.0000
267.7280, 689.0000
268.9440, 666.0000
270.1600, 731.0000
271.3760, 691.0000
272.5920, 682.0000
273.8070, 715.0000
275.0220, 773.0000
276.2370, 764.0000
277.4520, 858.0000
278.6670, 891.0000
279.8820, 913.0000
281.0960, 965.0000
282.3100, 943.0000
283.5240, 954.0000
284.7380, 912.0000
285.9520, 855.0000
287.1650, 823.0000
288.3780, 716.0000
289.5920, 714.0000
290.8050, 683.0000
292.0170, 683.0000
293.2300, 685.0000
294.4430, 635.0000
295.6550, 662.0000
296.8670, 659.0000
298.0790, 670.0000
299.2910, 645.0000
300.5020, 671.0000
301.7140, 628.0000
302.9250, 607.0000
304.1360, 625.0000
305.3470, 659.0000
306.5580, 661.0000
307.7680, 632.0000
308.9780, 629.0000
310.1890, 660.0000
311.3990, 662.0000
312.6090, 661.0000
313.8180, 637.0000
315.0280, 645.0000
316.2370, 654.0000
317.4460, 651.0000
318.6550, 657.0000
319.8640, 612.0000
321.0730, 628.0000
322.2810, 620.0000
323.4890, 661.0000
324.6980, 633.0000
325.9060, 661.0000
327.1130, 632.0000
328.3210, 619.0000
329.5280, 668.0000
330.7360, 654.0000
331.9430, 637.0000
333.1500, 626.0000
334.3560, 626.6806
335.5630, 644.0000
336.7690, 632.0000
337.9760, 656.0000
339.1820, 654.0000
340.3870, 666.0000
341.5930, 665.0000
342.7990, 664.0000
344.0040, 652.0000
345.2090, 651.0000
346.4140, 648.0000
347.6190, 676.0000
348.8240, 664.0000
350.0280, 668.0000
351.2330, 635.0000
352.4370, 657.0000
353.6410, 646.2487
354.8440, 679.0000
356.0480, 655.0000
357.2520, 658.0000
358.4550, 681.0000
359.6580, 661.0000
360.8610, 687.0000
362.0640, 669.0000
363.2660, 671.0000
364.4690, 685.0000
365.6710, 694.0000
366.8730, 694.0000
368.0750, 692.0000
369.2770, 672.0000
370.4780, 712.0000
371.6800, 692.0000
372.8810, 657.0000
374.0820, 703.0000
375.2830, 682.0000
376.4830, 705.0000
377.6840, 683.0000
378.8840, 745.0000
380.0840, 693.0000
381.2840, 646.0000
382.4840, 644.0000
383.6840, 691.0000
384.8830, 674.0000
386.0830, 691.0000
387.2820, 687.0000
388.4810, 689.0000
389.6800, 676.0000
390.8780, 681.0000
392.0770, 716.0000
393.2750, 696.0000
394.4730, 710.0000
395.6710, 745.0000
396.8690, 680.0000
398.0660, 705.0000
399.2640, 684.0000
400.4610, 711.0000
401.6580, 723.0000
402.8550, 704.0000
404.0520, 703.0000
405.2490, 730.0000
406.4450, 704.0000
407.6410, 711.0000
408.8370, 712.0000
410.0330, 722.0000
411.2290, 675.0000
412.4240, 709.0000
413.6200, 731.0000
414.8150, 687.0000
416.0100, 686.0000
417.2050, 728.0000
418.4000, 707.0000
419.5940, 726.0000
420.7880, 695.0000
421.9830, 702.0000
423.1770, 742.0000
424.3700, 722.0000
425.5640, 763.0000
426.7580, 760.0000
427.9510, 737.0000
429.1440, 739.0000
430.3370, 727.3363
431.5300, 757.0000
432.7220, 718.0000
433.9150, 745.0000
435.1070, 756.0000
436.2990, 734.0000
437.4910, 756.0000
438.6830, 740.0000
439.8750, 728.0000
441.0660, 779.0000
442.2570, 786.0000
443.4480, 747.0000
444.6390, 754.0000
445.8300, 732.0000
447.0210, 758.0000
448.2110, 773.0000
449.4010, 755.0000
450.5910, 739.0000
451.7810, 758.0000
452.9710, 779.0000
454.1610, 756.0000
455.3500, 742.0000
456.5390, 763.0000
457.7280, 748.0000
458.9170, 724.0000
460.1060, 733.0000
461.2940, 785.0000
462.4830, 764.0000
463.6710, 807.0000
464.8590, 768.0000
466.0470, 777.0000
467.2350, 748.0000
468.4220, 780.0000
469.6090, 780.0000
470.7970, 799.0000
471.9840, 801.7548
473.1700, 801.0000
474.3570, 791.0000
475.5440, 792.0000
476.7300, 766.0000
477.9160, 800.0000
479.1020, 777.0000
480.2880, 812.0000
481.4740, 800.0000
482.6590, 771.0000
483.8440, 758.0000
485.0300, 747.0000
486.2140, 818.0000
487.3990, 803.0000
488.5840, 799.0000
489.7680, 771.0000
490.9530, 809.0000
492.1370, 776.0000
493.3210, 816.0000
494.5040, 780.0000
495.6880, 816.0000
496.8720, 846.0000
498.0550, 820.0000
499.2380, 793.0000
500.4210, 814.0000
501.6040, 781.0000
502.7860, 813.0000
503.9690, 792.0000
505.1510, 848.0000
506.3330, 809.0000
507.5150, 807.0000
508.6970, 822.0000
509.8780, 783.0000
511.0600, 797.0000
512.2410, 833.0000
513.4220, 835.0000
514.6030, 842.0000
515.7840, 849.0629
516.9640, 810.0000
518.1440, 849.0000
519.3250, 830.0000
520.5050, 836.0000
521.6850, 852.0000
522.8640, 896.0000
524.0440, 838.0000
525.2230, 855.0000
526.4020, 863.0000
527.5820, 843.0000
528.7600, 828.0000
529.9390, 798.0000
531.1180, 837.0000
532.2960, 854.0000
533.4740, 837.0000
534.6520, 844.0000
535.8300, 853.0000
537.0080, 884.0000
538.1850, 820.0000
539.3630, 864.0000
540.5400, 835.0000
541.7170, 816.0000
542.8940, 882.0000
544.0700, 851.0000
545.2470, 887.0000
546.4230, 856.0000
547.5990, 858.0000
548.7750, 886.0000
549.9510, 888.0000
551.1270, 911.0000
552.3020, 865.0000
553.4780, 846.0000
554.6530, 877.0000
555.8280, 870.0000
557.0030, 859.0000
558.1770, 843.0000
559.3520, 882.0000
560.5260, 877.0000
561.7000, 873.0000
562.8740, 891.0000
564.0480, 891.0000
565.2220, 886.0000
566.3950, 883.0000
567.5680, 886.0000
568.7420, 896.0000
569.9150, 930.0000
571.0870, 905.0000
572.2600, 909.0000
573.4320, 951.0000
574.6050, 908.0000
575.7770, 921.0000
576.9490, 920.0000
578.1210, 893.0000
579.2920, 902.0000
580.4640, 931.0000
581.6350, 919.0000
582.8060, 917.0000
583.9770, 933.0000
585.1480, 900.0000
586.3190, 899.0000
587.4890, 906.0000
588.6590, 903.2425
589.8290, 920.3890
590.9990, 931.0000
592.1690, 945.0000
593.3390, 973.0000
594.5080, 964.0000
595.6770, 935.0000
596.8470, 957.0000
598.0160, 930.0000
599.1840, 933.0000
600.3530, 942.0000
601.5210, 948.0000
602.6900, 963.0000
603.8580, 958.0000
605.0260, 922.0000
606.1930, 948.0000
607.3610, 948.0000
608.5280, 985.0000
609.6960, 984.0000
610.8630, 993.6024
612.0300, 960.0000
613.1970, 995.0000
614.3630, 966.0000
615.5300, 948.0000
616.6960, 976.0000
617.8620, 949.0000
619.0280, 944.0000
620.1940, 993.0000
621.3590, 993.0000
622.5250, 974.0000
623.6900, 1032.000
624.8550, 989.0000
626.0200, 1034.000
627.1850, 984.0000
628.3490, 987.0000
629.5140, 1000.000
630.6780, 1016.000
631.8420, 970.0000
633.0060, 1038.000
634.1700, 989.0000
635.3330, 1027.000
636.4970, 1003.000
637.6600, 1010.000
638.8230, 1027.000
639.9860, 992.0000
641.1490, 1025.000
642.3110, 1032.000
643.4740, 1023.000
644.6360, 1029.000
645.7980, 1040.000
646.9600, 1017.000
648.1220, 1013.000
649.2840, 1016.000
650.4450, 1000.000
651.6060, 1033.000
652.7670, 1009.000
653.9280, 1024.000
655.0890, 1039.000
656.2500, 1047.000
657.4100, 1056.000
658.5700, 1020.000
659.7300, 1067.000
660.8900, 1058.000
662.0500, 1015.000
663.2100, 1028.000
664.3690, 1032.000
665.5280, 1034.000
666.6880, 1039.000
667.8460, 1046.000
669.0050, 1029.000
670.1640, 1067.000
671.3220, 1031.000
672.4810, 1066.000
673.6390, 1072.000
674.7970, 1038.000
675.9540, 1032.000
677.1120, 1081.000
678.2690, 1052.000
679.4270, 997.0000
680.5840, 1044.000
681.7410, 1078.000
682.8980, 1044.000
684.0540, 1093.000
685.2110, 1043.000
686.3670, 1061.000
687.5230, 1110.000
688.6790, 1093.000
689.8350, 1097.000
690.9900, 1065.000
692.1460, 1098.000
693.3010, 1135.000
694.4560, 1069.000
695.6110, 1111.000
696.7660, 1100.000
697.9210, 1084.000
699.0750, 1117.000
700.2290, 1091.000
701.3840, 1091.000
702.5370, 1079.000
703.6910, 1103.000
704.8450, 1117.000
705.9980, 1117.000
707.1520, 1135.000
708.3050, 1139.507
709.4580, 1159.000
710.6110, 1166.289
711.7630, 1168.000
712.9160, 1208.000
714.0680, 1197.000
715.2200, 1146.000
716.3720, 1170.000
717.5240, 1134.000
718.6760, 1191.000
719.8270, 1160.000
720.9780, 1149.000
722.1300, 1193.000
723.2810, 1143.000
724.4310, 1118.000
725.5820, 1173.000
726.7330, 1129.000
727.8830, 1162.000
729.0330, 1151.000
730.1830, 1150.000
731.3330, 1158.000
732.4830, 1189.000
733.6320, 1193.000
734.7810, 1188.554
735.9310, 1158.000
737.0800, 1176.000
738.2290, 1176.000
739.3770, 1192.000
740.5260, 1174.000
741.6740, 1159.000
742.8220, 1178.000
743.9700, 1179.000
745.1180, 1167.000
746.2660, 1193.000
747.4130, 1209.000
748.5610, 1194.000
749.7080, 1179.000
750.8550, 1201.000
752.0020, 1262.000
753.1490, 1132.000
754.2950, 1236.000
755.4420, 1161.000
756.5880, 1214.000
757.7340, 1215.000
758.8800, 1232.000
760.0250, 1249.000
761.1710, 1230.000
762.3160, 1178.000
763.4620, 1202.000
764.6070, 1191.000
765.7520, 1262.000
766.8960, 1215.000
768.0410, 1247.000
769.1850, 1232.000
770.3300, 1248.000
771.4740, 1253.000
772.6180, 1262.000
773.7610, 1272.000
774.9050, 1270.000
776.0480, 1258.000
777.1920, 1279.000
778.3350, 1230.000
779.4780, 1257.000
780.6200, 1224.000
781.7630, 1265.000
782.9060, 1258.000
784.0480, 1307.000
785.1900, 1258.000
786.3320, 1296.000
787.4740, 1306.000
788.6150, 1282.000
789.7570, 1258.000
790.8980, 1320.000
792.0390, 1280.000
793.1800, 1285.000
794.3210, 1326.000
795.4620, 1344.000
796.6020, 1270.000
797.7420, 1319.000
798.8830, 1333.000
800.0230, 1281.000
801.1620, 1300.000
802.3020, 1360.000
803.4420, 1338.000
804.5810, 1353.000
805.7200, 1330.000
806.8590, 1333.811
807.9980, 1299.000
809.1370, 1340.000
810.2750, 1323.000
811.4140, 1335.000
812.5520, 1349.000
813.6900, 1344.748
814.8280, 1357.521
815.9650, 1359.000
817.1030, 1362.000
818.2400, 1382.000
819.3780, 1367.000
820.5150, 1357.000
821.6520, 1367.000
822.7880, 1403.000
823.9250, 1380.000
825.0610, 1388.000
826.1980, 1362.000
827.3340, 1378.000
828.4700, 1407.000
829.6050, 1424.000
830.7410, 1386.000
831.8760, 1358.000
833.0120, 1393.000
834.1470, 1393.000
835.2820, 1449.000
836.4160, 1425.000
837.5510, 1447.000
838.6860, 1426.000
839.8200, 1435.000
840.9540, 1452.663
842.0880, 1437.000
843.2220, 1488.000
844.3550, 1465.000
845.4890, 1472.000
846.6220, 1447.000
847.7550, 1439.000
848.8880, 1441.000
850.0210, 1433.685
851.1540, 1457.000
852.2860, 1441.000
853.4190, 1465.000
854.5510, 1477.000
855.6830, 1478.000
856.8150, 1468.000
857.9460, 1439.000
859.0780, 1498.000
860.2090, 1424.000
861.3410, 1472.000
862.4720, 1494.000
863.6020, 1491.000
864.7330, 1550.000
865.8640, 1493.000
866.9940, 1510.000
868.1240, 1536.000
869.2540, 1497.000
870.3840, 1504.000
871.5140, 1492.000
872.6440, 1517.000
873.7730, 1519.861
874.9020, 1537.000
876.0320, 1531.000
877.1600, 1536.000
878.2890, 1513.000
879.4180, 1540.000
880.5460, 1517.000
881.6750, 1497.000
882.8030, 1523.000
883.9310, 1574.000
885.0590, 1596.000
886.1860, 1541.000
887.3140, 1547.000
888.4410, 1502.000
889.5680, 1528.000
890.6950, 1611.000
891.8220, 1569.000
892.9490, 1587.000
894.0750, 1567.000
895.2020, 1552.000
896.3280, 1579.000
897.4540, 1546.000
898.5800, 1570.000
899.7050, 1590.000
900.8310, 1590.000
901.9560, 1585.000
903.0820, 1597.000
904.2070, 1589.000
905.3320, 1573.000
906.4560, 1586.630
907.5810, 1563.000
908.7050, 1602.000
909.8300, 1612.000
910.9540, 1624.000
912.0780, 1594.000
913.2010, 1650.000
914.3250, 1656.000
915.4480, 1624.000
916.5720, 1695.000
917.6950, 1636.000
918.8180, 1635.000
919.9410, 1657.000
921.0630, 1688.000
922.1860, 1615.000
923.3080, 1672.000
924.4300, 1660.000
925.5520, 1701.000
926.6740, 1688.000
927.7960, 1704.728
928.9170, 1694.000
930.0390, 1722.000
931.1600, 1709.000
932.2810, 1704.000
933.4020, 1668.000
934.5230, 1721.000
935.6430, 1724.000
936.7640, 1726.000
937.8840, 1765.000
939.0040, 1700.000
940.1240, 1730.000
941.2440, 1753.000
942.3630, 1766.000
943.4830, 1732.000
944.6020, 1766.000
945.7210, 1723.000
946.8400, 1759.000
947.9590, 1760.000
949.0770, 1688.000
950.1960, 1763.000
951.3140, 1778.000
952.4320, 1828.000
953.5500, 1815.000
954.6680, 1833.000
955.7860, 1756.000
956.9030, 1823.000
958.0210, 1775.000
959.1380, 1766.000
960.2550, 1806.000
961.3720, 1751.000
962.4890, 1786.000
963.6050, 1815.000
964.7220, 1874.000
965.8380, 1865.792
966.9540, 1830.000
968.0700, 1848.000
969.1860, 1852.000
970.3010, 1822.000
971.4170, 1864.000
972.5320, 1846.000
973.6470, 1838.000
974.7620, 1898.000
975.8770, 1866.000
976.9910, 1852.000
978.1060, 1839.000
979.2200, 1868.000
980.3340, 1862.000
981.4480, 1899.000
982.5620, 1899.000
983.6760, 1899.000
984.7890, 1865.000
985.9030, 1916.000
987.0160, 1877.000
988.1290, 1937.000
989.2420, 1953.000
990.3550, 1907.000
991.4670, 1972.000
992.5800, 1927.000
993.6920, 1885.000
994.8040, 1950.000
995.9160, 1875.000
997.0280, 1948.000
998.1390, 1985.000
999.2510, 1948.000
1000.362, 1956.000
1001.473, 2011.000
1002.584, 1982.000
1003.695, 1989.000
1004.805, 1985.000
1005.916, 1995.000
1007.026, 1992.042
1008.136, 1991.429
1009.246, 1993.000
1010.356, 1990.000
1011.466, 1998.000
1012.576, 2004.000
1013.685, 1993.000
1014.794, 1987.000
1015.903, 2025.000
1017.012, 2058.000
1018.121, 2032.000
1019.229, 2038.000
1020.338, 2087.000
1021.446, 2025.000
1022.554, 2101.000
1023.662, 2078.000
1024.770, 2096.000
1025.878, 2086.000
1026.985, 2097.000
1028.092, 2108.000
1029.200, 2087.000
1030.307, 2007.000
1031.413, 2063.000
1032.520, 2065.000
1033.627, 2055.000
1034.733, 2136.000
1035.839, 2111.000
1036.945, 2129.000
1038.051, 2123.000
1039.157, 2088.000
1040.262, 2188.000
1041.368, 2109.000
1042.473, 2072.000
1043.578, 2185.000
1044.683, 2148.000
1045.788, 2168.000
1046.893, 2173.000
1047.997, 2075.000
1049.101, 2132.000
1050.205, 2110.000
1051.309, 2182.000
1052.413, 2178.000
1053.517, 2167.000
1054.621, 2213.000
1055.724, 2163.000
1056.827, 2200.000
1057.930, 2249.000
1059.033, 2233.000
1060.136, 2240.000
1061.238, 2254.000
1062.341, 2270.000
1063.443, 2229.000
1064.545, 2250.000
1065.647, 2209.000
1066.749, 2289.000
1067.850, 2250.000
1068.952, 2321.000
1070.053, 2314.000
1071.154, 2261.000
1072.255, 2335.000
1073.356, 2340.000
1074.457, 2291.000
1075.557, 2372.000
1076.658, 2391.000
1077.758, 2392.000
1078.858, 2449.000
1079.958, 2537.000
1081.057, 2722.000
1082.157, 2983.000
1083.256, 3766.000
1084.356, 5356.000
1085.455, 7760.000
1086.554, 8673.000
1087.653, 6437.000
1088.751, 4416.000
1089.850, 3288.000
1090.948, 2803.000
1092.046, 2563.000
1093.144, 2527.000
1094.242, 2468.000
1095.340, 2437.000
1096.437, 2442.000
1097.534, 2473.000
1098.632, 2450.000
1099.729, 2419.000
1100.826, 2396.000
1101.922, 2474.000
1103.019, 2505.000
1104.115, 2437.000
1105.212, 2393.000
1106.308, 2414.000
1107.404, 2457.000
1108.499, 2476.000
1109.595, 2488.000
1110.691, 2486.973
1111.786, 2467.000
1112.881, 2452.000
1113.976, 2447.000
1115.071, 2416.000
1116.166, 2522.000
1117.260, 2532.000
1118.355, 2463.000
1119.449, 2560.000
1120.543, 2529.000
1121.637, 2510.000
1122.731, 2491.000
1123.824, 2526.000
1124.918, 2549.000
1126.011, 2589.000
1127.104, 2591.184
1128.197, 2586.000
1129.290, 2593.000
1130.382, 2584.000
1131.475, 2580.000
1132.567, 2587.583
1133.659, 2614.000
1134.751, 2603.000
1135.843, 2619.000
1136.935, 2634.000
1138.027, 2625.230
1139.118, 2631.000
1140.209, 2602.000
1141.300, 2611.558
1142.391, 2620.000
1143.482, 2627.000
1144.573, 2651.000
1145.663, 2685.000
1146.754, 2656.000
1147.844, 2668.000
1148.934, 2699.000
1150.024, 2716.000
1151.113, 2669.000
1152.203, 2704.000
1153.292, 2658.000
1154.381, 2716.000
1155.470, 2768.000
1156.559, 2676.000
1157.648, 2756.000
1158.737, 2742.000
1159.825, 2752.000
1160.913, 2829.000
1162.001, 2789.000
1163.089, 2759.000
1164.177, 2748.000
1165.265, 2732.862
1166.352, 2767.000
1167.440, 2730.000
1168.527, 2824.000
1169.614, 2837.000
1170.701, 2858.000
1171.788, 2863.000
1172.874, 2817.000
1173.961, 2864.000
1175.047, 2882.000
1176.133, 2832.000
1177.219, 2904.000
1178.305, 2867.000
1179.390, 2928.000
1180.476, 2939.000
1181.561, 2953.000
1182.646, 2952.000
1183.731, 2890.000
1184.816, 2900.000
1185.901, 2911.000
1186.985, 2878.000
1188.070, 2957.000
1189.154, 2966.000
1190.238, 3034.000
1191.322, 3033.824
1192.406, 3049.036
1193.489, 3026.000
1194.573, 3053.000
1195.656, 3047.000
1196.739, 3044.000
1197.822, 3003.000
1198.905, 3043.000
1199.988, 3034.000
1201.070, 2975.000
1202.153, 3091.000
1203.235, 3090.000
1204.317, 3022.000
1205.399, 3085.000
1206.481, 3080.000
1207.562, 3023.000
1208.644, 3079.000
1209.725, 2998.000
1210.806, 3057.000
1211.887, 3149.000
1212.968, 3046.000
1214.049, 3126.000
1215.129, 3142.000
1216.209, 3183.000
1217.290, 3158.000
1218.370, 3065.000
1219.450, 3107.000
1220.529, 3103.000
1221.609, 3154.000
1222.688, 3140.000
1223.768, 3204.000
1224.847, 3204.000
1225.926, 3246.000
1227.005, 3206.000
1228.083, 3184.000
1229.162, 3219.000
1230.240, 3221.000
1231.318, 3196.000
1232.396, 3272.000
1233.474, 3312.000
1234.552, 3328.000
1235.629, 3322.000
1236.707, 3302.000
1237.784, 3281.000
1238.861, 3282.942
1239.938, 3282.239
1241.015, 3281.000
1242.092, 3318.000
1243.168, 3317.368
1244.244, 3368.000
1245.321, 3376.000
1246.397, 3367.000
1247.473, 3420.000
1248.548, 3400.000
1249.624, 3332.000
1250.699, 3390.000
1251.775, 3354.000
1252.850, 3348.000
1253.925, 3396.000
