##NAMES=Calcite
##RRUFFID=R050307
##IDEAL CHEMISTRY=CaCO_3_
##LOCALITY=Zaire
##OWNER=RRUFF
##SOURCE=Eugene Schlepp
##DESCRIPTION=Group of pink prismatic crystals
##STATUS=The identification of this mineral has been confirmed by X-ray diffraction and chemical analysis
##URL=rruff.info/R050307
##MEASURED CHEMISTRY=Ca_1.00_CO_3_
##PIN_ID=L01569
##ORIENTATION=Laser parallel to -c* (0 0 -1). Fiducial mark perpendicular to laser is parallel to a [1 0 0]
116.9030, 6914.000
118.1340, 6918.292
119.3650, 6961.000
120.5960, 6950.000
121.8270, 6997.000
123.0580, 7023.000
124.2880, 7061.943
125.5190, 7065.000
126.7490, 7184.000
127.9790, 7240.000
129.2090, 7351.000
130.4390, 7320.000
131.6680, 7295.000
132.8980, 7347.000
134.1270, 7370.000
135.3560, 7519.000
136.5850, 7542.000
137.8140, 7623.000
139.0430, 7647.000
140.2710, 7723.000
141.5000, 7629.000
142.7280, 7941.000
143.9560, 7742.000
145.1840, 8071.000
146.4120, 8140.000
147.6390, 8145.000
148.8670, 8364.000
150.0940, 8519.000
151.3210, 8693.000
152.5490, 8713.000
153.7750, 8662.000
155.0020, 8737.000
156.2290, 8575.000
157.4550, 8517.000
158.6810, 8447.000
159.9080, 8214.000
161.1340, 8070.000
162.3590, 8114.000
163.5850, 8124.000
164.8110, 8068.000
166.0360, 8036.000
167.2610, 7990.000
168.4860, 7978.000
169.7110, 7962.000
170.9360, 7957.493
172.1610, 8027.000
173.3850, 7963.000
174.6100, 8081.000
175.8340, 8078.000
177.0580, 8185.000
178.2820, 8231.416
179.5050, 8175.000
180.7290, 8317.000
181.9520, 8253.000
183.1760, 8242.000
184.3990, 8356.000
185.6220, 8215.000
186.8450, 8309.000
188.0670, 8180.000
189.2900, 8439.000
190.5120, 8324.000
191.7340, 8375.000
192.9560, 8282.000
194.1780, 8289.000
195.4000, 8321.617
196.6220, 8348.000
197.8430, 8411.000
199.0640, 8444.000
200.2860, 8519.000
201.5070, 8425.000
202.7270, 8517.000
203.9480, 8477.386
205.1690, 8456.000
206.3890, 8444.000
207.6090, 8442.000
208.8290, 8454.794
210.0490, 8482.996
211.2690, 8508.000
212.4890, 8554.000
213.7080, 8599.000
214.9280, 8612.000
216.1470, 8619.000
217.3660, 8663.000
218.5850, 8589.000
219.8030, 8752.000
221.0220, 8681.000
222.2400, 8678.000
223.4590, 8581.000
224.6770, 8747.000
225.8950, 8805.000
227.1120, 8759.000
228.3300, 8635.000
229.5480, 8840.000
230.7650, 8726.000
231.9820, 8879.000
233.1990, 8798.000
234.4160, 8902.000
235.6330, 8893.000
236.8490, 8751.000
238.0660, 8806.000
239.2820, 8866.000
240.4980, 8908.000
241.7140, 8943.000
242.9300, 8950.000
244.1460, 8949.000
245.3610, 9096.000
246.5770, 9038.000
247.7920, 9033.000
249.0070, 9045.000
250.2220, 9193.000
251.4370, 8973.000
252.6510, 9141.000
253.8660, 9121.000
255.0800, 9120.000
256.2940, 9194.000
257.5080, 9267.000
258.7220, 9438.000
259.9360, 9344.000
261.1490, 9393.000
262.3630, 9303.000
263.5760, 9464.000
264.7890, 9439.000
266.0020, 9592.000
267.2150, 9716.000
268.4270, 9797.000
269.6400, 9948.000
270.8520, 10063.00
272.0640, 10143.00
273.2760, 10293.00
274.4880, 10444.00
275.7000, 10735.00
276.9120, 10933.00
278.1230, 10857.00
279.3340, 11107.00
280.5450, 11031.00
281.7560, 10975.00
282.9670, 10839.00
284.1780, 10728.00
285.3880, 10524.00
286.5980, 10327.00
287.8090, 10140.00
289.0190, 10027.00
290.2290, 9948.000
291.4380, 9894.000
292.6480, 9752.000
293.8570, 9659.000
295.0670, 9705.000
296.2760, 9725.000
297.4850, 9684.000
298.6930, 9721.000
299.9020, 9709.935
301.1110, 9738.000
302.3190, 9713.000
303.5270, 9694.000
304.7350, 9695.000
305.9430, 9686.986
307.1510, 9670.000
308.3580, 9699.000
309.5660, 9704.000
310.7730, 9724.000
311.9800, 9787.000
313.1870, 9762.000
314.3940, 9823.000
315.6010, 9750.000
316.8070, 9829.000
318.0130, 9816.000
319.2200, 9876.000
320.4260, 9952.000
321.6310, 9935.533
322.8370, 9827.000
324.0430, 9896.000
325.2480, 9948.000
326.4540, 9830.000
327.6590, 9866.000
328.8640, 10029.00
330.0680, 9961.000
331.2730, 10111.00
332.4780, 9844.000
333.6820, 10088.00
334.8860, 10123.00
336.0900, 9927.000
337.2940, 10037.00
338.4980, 10089.00
339.7010, 10051.00
340.9050, 10050.00
342.1080, 10186.00
343.3110, 10100.00
344.5140, 10174.00
345.7170, 10196.00
346.9200, 10183.00
348.1220, 10152.00
349.3240, 10164.00
350.5270, 10239.00
351.7290, 10211.00
352.9310, 10257.17
354.1320, 10209.00
355.3340, 10300.00
356.5350, 10274.00
357.7370, 10274.00
358.9380, 10326.49
360.1390, 10315.99
361.3400, 10370.00
362.5400, 10339.00
363.7410, 10307.00
364.9410, 10294.00
366.1410, 10388.00
367.3410, 10499.00
368.5410, 10477.00
369.7410, 10305.00
370.9400, 10422.00
372.1400, 10397.00
373.3390, 10522.00
374.5380, 10443.00
375.7370, 10460.00
376.9360, 10436.00
378.1350, 10625.00
379.3330, 10586.00
380.5310, 10599.00
381.7300, 10646.75
382.9280, 10583.00
384.1260, 10626.00
385.3230, 10548.00
386.5210, 10478.00
387.7180, 10601.00
388.9160, 10469.00
390.1130, 10667.00
391.3100, 10746.00
392.5060, 10717.00
393.7030, 10656.00
394.9000, 10669.00
396.0960, 10896.00
397.2920, 10831.00
398.4880, 10824.00
399.6840, 10729.00
400.8800, 10775.00
402.0750, 10682.00
403.2710, 10836.00
404.4660, 10950.00
405.6610, 10882.00
406.8560, 10849.00
408.0510, 10912.00
409.2450, 10925.00
410.4400, 10964.00
411.6340, 10773.00
412.8280, 10920.00
414.0220, 10845.00
415.2160, 10908.00
416.4100, 11012.00
417.6030, 10957.00
418.7970, 10983.00
419.9900, 11083.00
421.1830, 11017.00
422.3760, 11051.00
423.5690, 10978.00
424.7610, 11055.00
425.9540, 11130.00
427.1460, 11053.00
428.3380, 11112.00
429.5300, 11197.00
430.7220, 11100.00
431.9140, 11236.00
433.1050, 11211.00
434.2970, 11362.00
435.4880, 11273.00
436.6790, 11194.00
437.8700, 11289.00
439.0610, 11199.00
440.2510, 11063.00
441.4420, 11423.00
442.6320, 11229.00
443.8220, 11252.00
445.0120, 11286.00
446.2020, 11252.00
447.3910, 11291.00
448.5810, 11348.00
449.7700, 11300.00
450.9600, 11429.00
452.1490, 11383.00
453.3370, 11433.00
454.5260, 11442.00
455.7150, 11410.00
456.9030, 11407.00
458.0910, 11460.00
459.2800, 11453.00
460.4670, 11471.00
461.6550, 11525.00
462.8430, 11562.00
464.0300, 11621.00
465.2180, 11638.00
466.4050, 11645.00
467.5920, 11543.00
468.7790, 11640.00
469.9650, 11552.00
471.1520, 11649.00
472.3380, 11666.00
473.5250, 11607.00
474.7110, 11727.00
475.8970, 11728.00
477.0820, 11644.00
478.2680, 11885.00
479.4540, 11724.00
480.6390, 11637.00
481.8240, 11880.00
483.0090, 11769.00
484.1940, 11787.00
485.3780, 11769.00
486.5630, 11758.21
487.7470, 11781.00
488.9320, 11774.00
490.1160, 11725.00
491.3000, 11696.00
492.4830, 11963.00
493.6670, 11911.00
494.8500, 11942.00
496.0340, 11916.00
497.2170, 11924.00
498.4000, 11950.73
499.5820, 11950.57
500.7650, 12002.00
501.9480, 12007.00
503.1300, 12025.00
504.3120, 12024.80
505.4940, 12008.88
506.6760, 12013.00
507.8580, 11988.00
509.0390, 12005.00
510.2210, 12050.00
511.4020, 12145.00
512.5830, 12102.00
513.7640, 12205.00
514.9450, 12065.00
516.1250, 12152.00
517.3060, 12193.00
518.4860, 12260.00
519.6660, 12298.18
520.8460, 12277.00
522.0260, 12316.00
523.2060, 12330.00
524.3850, 12330.70
525.5650, 12334.00
526.7440, 12352.00
527.9230, 12401.00
529.1020, 12432.28
530.2810, 12350.00
531.4590, 12393.00
532.6380, 12467.00
533.8160, 12289.00
534.9940, 12407.00
536.1720, 12460.00
537.3500, 12323.00
538.5270, 12459.00
539.7050, 12414.00
540.8820, 12378.00
542.0590, 12481.00
543.2360, 12447.76
544.4130, 12623.00
545.5900, 12483.00
546.7660, 12543.00
547.9430, 12547.00
549.1190, 12711.00
550.2950, 12545.00
551.4710, 12745.00
552.6470, 12782.00
553.8220, 12535.00
554.9980, 12573.00
556.1730, 12608.00
557.3480, 12682.00
558.5230, 12676.00
559.6980, 12721.00
560.8730, 12737.00
562.0470, 12799.00
563.2220, 12804.00
564.3960, 12872.00
565.5700, 12776.00
566.7440, 12836.00
567.9170, 12951.00
569.0910, 12784.00
570.2640, 12812.00
571.4380, 12940.00
572.6110, 12747.00
573.7840, 12861.00
574.9570, 12997.00
576.1290, 12999.00
577.3020, 12988.00
578.4740, 12945.00
579.6460, 13016.00
580.8180, 12982.00
581.9900, 12988.00
583.1620, 13059.00
584.3330, 13014.00
585.5040, 13043.00
586.6760, 12776.00
587.8470, 13163.00
589.0180, 12985.00
590.1880, 12994.00
591.3590, 13150.00
592.5290, 13043.00
593.7000, 13129.00
594.8700, 13228.00
596.0400, 13115.00
597.2090, 13293.00
598.3790, 13267.00
599.5490, 13185.00
600.7180, 13233.00
601.8870, 13230.00
603.0560, 13240.00
604.2250, 13078.00
605.3940, 13176.00
606.5620, 13167.00
607.7300, 13442.00
608.8990, 13211.00
610.0670, 13399.00
611.2350, 13327.00
612.4020, 13388.00
613.5700, 13422.00
614.7370, 13394.00
615.9050, 13355.00
617.0720, 13382.00
618.2390, 13453.00
619.4060, 13385.00
620.5720, 13330.00
621.7390, 13580.00
622.9050, 13496.00
624.0710, 13663.00
625.2370, 13535.00
626.4030, 13503.00
627.5690, 13632.00
628.7340, 13664.00
629.9000, 13484.00
631.0650, 13563.00
632.2300, 13550.00
633.3950, 13624.00
634.5600, 13586.00
635.7240, 13752.00
636.8890, 13729.00
638.0530, 13632.00
639.2170, 13737.00
640.3810, 13716.00
641.5450, 13694.00
642.7080, 13633.00
643.8720, 13634.00
645.0350, 13630.18
646.1980, 13698.00
647.3610, 13754.00
648.5240, 13758.00
649.6870, 14027.00
650.8490, 13926.00
652.0120, 14077.00
653.1740, 13831.00
654.3360, 13858.00
655.4980, 13909.00
656.6600, 13860.00
657.8210, 13901.00
658.9830, 14043.00
660.1440, 14007.00
661.3050, 14058.00
662.4660, 13933.00
663.6270, 13990.53
664.7870, 14015.00
665.9480, 14073.00
667.1080, 14029.00
668.2680, 14146.00
669.4280, 14054.00
670.5880, 14025.00
671.7480, 14062.00
672.9070, 14161.00
674.0670, 14145.00
675.2260, 14139.00
676.3850, 14124.00
677.5440, 14148.23
678.7030, 14169.23
679.8610, 14196.00
681.0200, 14236.00
682.1780, 14243.00
683.3360, 14258.00
684.4940, 14345.00
685.6520, 14285.00
686.8090, 14356.00
687.9670, 14160.00
689.1240, 14230.00
690.2810, 14369.00
691.4380, 14308.00
692.5950, 14529.00
693.7520, 14509.00
694.9080, 14424.00
696.0650, 14371.00
697.2210, 14376.00
698.3770, 14424.64
699.5330, 14543.00
700.6880, 14667.00
701.8440, 14783.00
702.9990, 15024.00
704.1550, 15199.69
705.3100, 15425.00
706.4650, 15747.00
707.6190, 16162.00
708.7740, 16652.00
709.9290, 17171.00
711.0830, 17094.00
712.2370, 16894.00
713.3910, 16092.00
714.5450, 15863.00
715.6980, 15287.00
716.8520, 15007.00
718.0050, 14986.00
719.1580, 14916.00
720.3110, 14769.00
721.4640, 14907.00
722.6170, 14618.00
723.7700, 14776.00
724.9220, 14833.00
726.0740, 14824.00
727.2260, 14927.00
728.3780, 14812.00
729.5300, 14899.00
730.6810, 14854.00
731.8330, 14926.00
732.9840, 14869.00
734.1350, 14947.00
735.2860, 14906.00
736.4370, 14933.00
737.5880, 15064.00
738.7380, 14919.00
739.8880, 14865.00
741.0390, 14914.00
742.1890, 15004.00
743.3380, 14954.00
744.4880, 14992.00
745.6380, 14955.00
746.7870, 15026.00
747.9360, 15091.00
749.0850, 15179.00
750.2340, 15187.97
751.3830, 15230.41
752.5310, 15236.00
753.6800, 15186.00
754.8280, 15272.00
755.9760, 15096.00
757.1240, 15208.00
758.2720, 15152.00
759.4190, 15378.00
760.5670, 15227.00
761.7140, 15315.00
762.8610, 15311.00
764.0080, 15220.00
765.1550, 15166.00
766.3020, 15253.00
767.4480, 15118.00
768.5950, 15325.00
769.7410, 15380.00
770.8870, 15272.00
772.0330, 15260.00
773.1780, 15361.00
774.3240, 15554.00
775.4690, 15349.00
776.6140, 15382.00
777.7590, 15452.00
778.9040, 15386.00
780.0490, 15585.00
781.1940, 15607.00
782.3380, 15413.00
783.4820, 15546.00
784.6260, 15491.00
785.7700, 15626.00
786.9140, 15613.00
788.0580, 15495.00
789.2010, 15616.00
790.3450, 15613.00
791.4880, 15623.00
792.6310, 15539.00
793.7730, 15629.00
794.9160, 15714.00
796.0590, 15815.00
797.2010, 15603.00
798.3430, 15643.00
799.4850, 15677.00
800.6270, 15799.00
801.7690, 15686.00
802.9100, 15744.00
804.0520, 15670.00
805.1930, 15827.00
806.3340, 15755.00
807.4750, 15854.00
808.6160, 15722.00
809.7560, 15909.00
810.8970, 16007.00
812.0370, 15965.00
813.1770, 16117.00
814.3170, 15848.00
815.4570, 15908.00
816.5960, 15967.00
817.7360, 16084.00
818.8750, 16063.00
820.0140, 15989.00
821.1530, 16075.00
822.2920, 15963.00
823.4310, 16215.00
824.5690, 16066.00
825.7070, 16265.00
826.8460, 16025.00
827.9840, 16174.00
829.1220, 16097.00
830.2590, 16089.00
831.3970, 16183.00
832.5340, 16128.00
833.6710, 16131.00
834.8080, 16060.00
835.9450, 16094.00
837.0820, 16323.00
838.2190, 16159.00
839.3550, 16285.00
840.4910, 16353.00
841.6270, 16305.00
842.7630, 16387.00
843.8990, 16337.00
845.0350, 16441.00
846.1700, 16317.00
847.3060, 16404.00
848.4410, 16466.00
849.5760, 16415.00
850.7100, 16384.00
851.8450, 16292.00
852.9800, 16314.00
854.1140, 16386.00
855.2480, 16613.00
856.3820, 16641.00
857.5160, 16526.00
858.6500, 16682.00
859.7830, 16486.00
860.9170, 16622.00
862.0500, 16475.00
863.1830, 16712.00
864.3160, 16755.00
865.4480, 16684.00
866.5810, 16665.00
867.7130, 16747.00
868.8460, 16653.00
869.9780, 16637.00
871.1100, 16688.00
872.2410, 16638.00
873.3730, 16726.00
874.5050, 16693.00
875.6360, 16633.00
876.7670, 16697.00
877.8980, 16834.00
879.0290, 16902.00
880.1590, 16697.00
881.2900, 16899.00
882.4200, 16666.00
883.5500, 16834.00
884.6800, 16900.00
885.8100, 16741.00
886.9400, 16914.00
888.0690, 17065.00
889.1990, 16914.00
890.3280, 17018.00
891.4570, 17031.00
892.5860, 16890.00
893.7140, 17089.00
894.8430, 17068.00
895.9710, 16971.00
897.1000, 16950.00
898.2280, 17187.00
899.3560, 17209.00
900.4830, 17104.00
901.6110, 17181.00
902.7380, 17070.00
903.8660, 17154.00
904.9930, 17095.00
906.1200, 17098.00
907.2460, 17286.00
908.3730, 17345.00
909.5000, 17341.00
910.6260, 17256.00
911.7520, 17218.00
912.8780, 17166.00
914.0040, 17186.04
915.1290, 17211.68
916.2550, 17288.00
917.3800, 17289.00
918.5050, 17393.00
919.6300, 17355.00
920.7550, 17513.00
921.8800, 17427.00
923.0040, 17460.00
924.1290, 17514.00
925.2530, 17585.00
926.3770, 17578.36
927.5010, 17451.00
928.6250, 17617.00
929.7480, 17457.00
930.8720, 17550.00
931.9950, 17484.00
933.1180, 17540.00
934.2410, 17691.00
935.3640, 17645.00
936.4860, 17746.00
937.6090, 17586.00
938.7310, 17575.00
939.8530, 17749.00
940.9750, 17482.00
942.0970, 17754.00
943.2180, 17777.00
944.3400, 17716.00
945.4610, 17865.00
946.5820, 17792.00
947.7030, 17747.00
948.8240, 17927.00
949.9450, 17859.00
951.0650, 17695.00
952.1860, 17630.00
953.3060, 17743.00
954.4260, 17855.00
955.5460, 17795.00
956.6650, 17936.00
957.7850, 17962.00
958.9040, 18074.00
960.0230, 18080.00
961.1420, 17955.00
962.2610, 18141.00
963.3800, 18175.00
964.4990, 17859.00
965.6170, 18020.00
966.7350, 18069.00
967.8530, 18020.00
968.9710, 18140.00
970.0890, 18138.00
971.2070, 18020.00
972.3240, 18007.00
973.4410, 18202.00
974.5580, 18051.00
975.6750, 18124.00
976.7920, 18135.00
977.9090, 18118.00
979.0250, 18244.00
980.1410, 18320.00
981.2580, 18370.00
982.3740, 18350.00
983.4890, 18337.00
984.6050, 18230.00
985.7200, 18399.00
986.8360, 18281.00
987.9510, 18374.00
989.0660, 18411.00
990.1810, 18504.00
991.2950, 18413.00
992.4100, 18494.00
993.5240, 18505.00
994.6390, 18614.00
995.7530, 18606.00
996.8660, 18596.00
997.9800, 18561.00
999.0940, 18508.00
1000.207, 18618.00
1001.320, 18575.09
1002.433, 18630.00
1003.546, 18646.00
1004.659, 18648.00
1005.772, 18780.00
1006.884, 18547.00
1007.996, 18604.00
1009.108, 18537.00
1010.220, 18808.00
1011.332, 18781.00
1012.444, 18833.00
1013.555, 18810.00
1014.666, 18649.00
1015.777, 18903.00
1016.888, 18746.00
1017.999, 18830.00
1019.110, 18881.00
1020.220, 18873.00
1021.331, 18938.00
1022.441, 18963.00
1023.551, 18936.00
1024.661, 18868.00
1025.770, 19010.00
1026.880, 18784.00
1027.989, 19103.00
1029.098, 18935.00
1030.207, 18951.00
1031.316, 19117.00
1032.425, 19009.00
1033.533, 19136.00
1034.642, 19138.00
1035.750, 19218.00
1036.858, 19219.00
1037.966, 19125.00
1039.073, 19251.00
1040.181, 19297.00
1041.288, 19278.00
1042.396, 19179.00
1043.503, 19096.00
1044.610, 19303.00
1045.716, 19180.00
1046.823, 19334.00
1047.929, 19304.00
1049.036, 19243.00
1050.142, 19383.00
1051.248, 19239.00
1052.353, 19520.00
1053.459, 19533.00
1054.564, 19477.00
1055.670, 19421.00
1056.775, 19659.00
1057.880, 19450.00
1058.985, 19498.00
1060.089, 19484.00
1061.194, 19776.00
1062.298, 19691.00
1063.402, 19872.00
1064.506, 20015.00
1065.610, 19948.00
1066.713, 20093.00
1067.817, 19949.00
1068.920, 20021.00
1070.023, 19987.00
1071.126, 19883.00
1072.229, 20102.00
1073.332, 20390.00
1074.435, 20519.00
1075.537, 20902.00
1076.639, 21915.00
1077.741, 23991.00
1078.843, 27503.00
1079.945, 32200.00
1081.046, 35777.00
1082.148, 42697.00
1083.249, 50756.00
1084.350, 56253.00
1085.451, 56571.00
1086.551, 50059.00
1087.652, 39241.00
1088.752, 29770.00
1089.853, 24167.00
1090.953, 22130.00
1092.053, 21254.00
1093.152, 20634.00
1094.252, 20544.00
1095.351, 20526.00
1096.451, 20568.00
1097.550, 20326.00
1098.649, 20148.00
1099.748, 20204.00
1100.846, 20314.00
1101.945, 20129.00
1103.043, 20249.00
1104.141, 20249.00
1105.239, 20359.00
1106.337, 20363.00
1107.434, 20360.98
1108.532, 20376.00
1109.629, 20272.00
1110.726, 20369.00
1111.823, 20224.00
1112.920, 20379.00
1114.017, 20560.00
1115.113, 20607.00
1116.210, 20471.00
1117.306, 20412.00
1118.402, 20512.00
1119.498, 20526.00
1120.593, 20569.00
1121.689, 20561.00
1122.784, 20528.00
1123.879, 20526.00
1124.974, 20412.00
1126.069, 20593.00
1127.164, 20646.00
1128.259, 20568.00
1129.353, 20708.00
1130.447, 20568.00
1131.541, 20590.00
1132.635, 20692.00
1133.729, 20508.00
1134.822, 20674.00
1135.916, 20634.00
1137.009, 20626.00
1138.102, 20810.00
1139.195, 20693.00
1140.288, 20715.00
1141.380, 20773.00
1142.473, 20699.00
1143.565, 20859.00
1144.657, 20754.00
1145.749, 20812.00
1146.841, 20794.00
1147.932, 20796.43
1149.024, 20924.00
1150.115, 20792.00
1151.206, 20912.00
1152.297, 20816.00
1153.388, 20812.00
1154.479, 20895.00
1155.569, 20874.00
1156.659, 21124.00
1157.750, 20903.00
1158.839, 21112.00
1159.929, 20941.00
1161.019, 20951.00
1162.108, 21200.00
1163.198, 21274.00
1164.287, 21171.00
1165.376, 21097.00
1166.465, 21204.00
1167.553, 21032.00
1168.642, 21152.00
1169.730, 21202.00
1170.818, 21253.00
1171.906, 21358.00
1172.994, 21241.00
1174.082, 21235.00
1175.170, 21336.00
1176.257, 21044.00
1177.344, 21337.00
1178.431, 21328.00
1179.518, 21477.00
1180.605, 21408.00
1181.691, 21185.00
1182.778, 21439.00
1183.864, 21306.00
1184.950, 21362.00
1186.036, 21401.00
1187.122, 21533.00
1188.207, 21575.00
1189.292, 21603.00
1190.378, 21612.00
1191.463, 21650.00
1192.548, 21654.71
1193.632, 21654.30
1194.717, 21682.00
1195.801, 21627.00
1196.886, 21657.00
1197.970, 21622.00
1199.054, 21837.00
1200.137, 21665.00
1201.221, 21771.00
1202.305, 21814.00
1203.388, 21765.00
1204.471, 21710.00
1205.554, 21953.00
1206.637, 21778.00
1207.719, 22044.00
1208.802, 21998.00
1209.884, 21854.00
1210.966, 21844.00
1212.048, 21842.00
1213.130, 22056.00
1214.212, 21980.10
1215.293, 22102.00
1216.374, 22035.00
1217.456, 21862.00
1218.536, 22004.00
1219.617, 22130.00
1220.698, 22048.00
1221.778, 22000.00
1222.859, 22263.00
1223.939, 21975.00
1225.019, 22072.00
1226.099, 22323.00
1227.178, 22027.00
1228.258, 22105.00
1229.337, 22292.00
1230.417, 22307.00
1231.496, 22375.00
1232.574, 22343.00
1233.653, 22402.00
1234.732, 22243.00
1235.810, 22369.00
1236.888, 22305.00
1237.966, 22439.00
1239.044, 22420.00
1240.122, 22252.00
1241.199, 22594.00
1242.277, 22633.00
1243.354, 22481.00
1244.431, 22534.00
1245.508, 22455.00
1246.585, 22709.00
1247.661, 22584.00
1248.738, 22525.00
1249.814, 22587.00
1250.890, 22476.00
1251.966, 22484.00
1253.042, 22499.00
1254.117, 22471.85
1255.193, 22501.25
1256.268, 22537.00
1257.343, 22567.00
1258.418, 22695.00
1259.493, 22801.00
1260.567, 22840.00
1261.642, 22888.00
1262.716, 23009.00
1263.790, 22908.00
1264.864, 22910.00
1265.938, 23009.00
1267.011, 22874.00
1268.085, 22917.00
1269.158, 22831.00
1270.231, 22969.00
1271.304, 22971.00
1272.377, 22970.89
1273.450, 23014.96
1274.522, 22977.00
1275.594, 23029.00
1276.666, 23020.00
1277.738, 23042.00
1278.810, 23048.00
1279.882, 23079.00
1280.953, 23082.58
1282.025, 23134.00
1283.096, 23101.00
1284.167, 23063.00
1285.238, 23077.00
1286.308, 23167.00
1287.379, 23303.00
1288.449, 23202.00
1289.519, 23322.00
1290.589, 23250.00
1291.659, 23159.00
1292.729, 23321.00
1293.798, 23274.21
1294.868, 23515.00
1295.937, 23273.00
1297.006, 23398.00
1298.075, 23204.00
1299.143, 23448.00
