##NAMES=Cancrinite
##RRUFFID=R050352
##IDEAL CHEMISTRY=(Na,Ca,[box])_8_(Al_6_Si_6_)O_24_(CO_3_,S^6+^O_4_)_2_&#183;2H_2_O
##LOCALITY=York River, quarry #2, Dungannon Township, Ontario, Canada
##OWNER=RRUFF
##SOURCE=California Institute of Technology
##DESCRIPTION=Pink fragment
##STATUS=The identification of this mineral has been confirmed by X-ray diffraction and chemical analysis
##URL=rruff.info/R050352
##MEASURED CHEMISTRY=(Na_6.07_Ca_1.62_[box]_0.31_)_Σ=8_(Al_0.99_Si_1.01_O_4_)_6_((CO_3_)_0.84_[box]_0.16_)_Σ=2_·2H_2_O
##PIN_ID=M00367
##ORIENTATION=Laser parallel to a* (1 0 0). Fiducial mark perpendicular to laser is parallel to c [0 0 1]
170.9360, 15860.95
172.1610, 15960.00
173.3850, 15905.00
174.6100, 15925.00
175.8340, 16006.00
177.0580, 16125.00
178.2820, 16138.00
179.5050, 16474.00
180.7290, 16403.00
181.9520, 16625.00
183.1760, 16832.00
184.3990, 16870.00
185.6220, 17023.00
186.8450, 17042.00
188.0670, 17445.00
189.2900, 17438.00
190.5120, 17614.00
191.7340, 17831.00
192.9560, 17943.00
194.1780, 18341.00
195.4000, 18399.00
196.6220, 18791.00
197.8430, 18918.00
199.0640, 19404.00
200.2860, 19871.00
201.5070, 20262.00
202.7270, 20765.00
203.9480, 21254.00
205.1690, 21856.00
206.3890, 22383.00
207.6090, 23109.00
208.8290, 23911.00
210.0490, 24501.00
211.2690, 25422.00
212.4890, 26270.00
213.7080, 27143.00
214.9280, 28088.00
216.1470, 28968.00
217.3660, 29514.00
218.5850, 30275.00
219.8030, 30707.00
221.0220, 31024.00
222.2400, 31646.00
223.4590, 31734.00
224.6770, 31601.00
225.8950, 31596.00
227.1120, 31316.00
228.3300, 31213.00
229.5480, 30611.00
230.7650, 30211.00
231.9820, 29689.00
233.1990, 29047.00
234.4160, 28723.00
235.6330, 28097.00
236.8490, 27108.00
238.0660, 26793.00
239.2820, 26361.00
240.4980, 25852.00
241.7140, 25485.00
242.9300, 25145.00
244.1460, 25064.00
245.3610, 24824.00
246.5770, 25056.00
247.7920, 25239.00
249.0070, 25462.00
250.2220, 26131.00
251.4370, 26530.00
252.6510, 27210.00
253.8660, 28131.00
255.0800, 29112.00
256.2940, 30470.00
257.5080, 31867.00
258.7220, 33585.90
259.9360, 35759.00
261.1490, 37662.00
262.3630, 39932.00
263.5760, 42572.00
264.7890, 45141.00
266.0020, 48102.00
267.2150, 51056.00
268.4270, 53922.00
269.6400, 56249.00
270.8520, 58442.00
272.0640, 60084.00
273.2760, 60616.00
274.4880, 60332.00
275.7000, 59360.00
276.9120, 56826.00
278.1230, 53777.00
279.3340, 49845.00
280.5450, 46068.00
281.7560, 42480.00
282.9670, 39218.00
284.1780, 36679.00
285.3880, 34540.00
286.5980, 33218.00
287.8090, 32130.00
289.0190, 32024.00
290.2290, 32183.00
291.4380, 32374.00
292.6480, 32852.00
293.8570, 33123.00
295.0670, 33422.00
296.2760, 33793.00
297.4850, 33707.00
298.6930, 33870.00
299.9020, 33680.00
301.1110, 33051.00
302.3190, 32160.00
303.5270, 31206.00
304.7350, 29851.00
305.9430, 28744.00
307.1510, 27467.00
308.3580, 26299.00
309.5660, 25377.00
310.7730, 24508.00
311.9800, 23462.00
313.1870, 22712.00
314.3940, 22001.00
315.6010, 21672.00
316.8070, 21204.00
318.0130, 20716.00
319.2200, 20720.00
320.4260, 20411.42
321.6310, 20470.00
322.8370, 20367.00
324.0430, 20485.00
325.2480, 20860.00
326.4540, 21214.00
327.6590, 21630.00
328.8640, 22065.00
330.0680, 22721.00
331.2730, 23240.00
332.4780, 24094.00
333.6820, 24657.00
334.8860, 25440.00
336.0900, 26330.00
337.2940, 27403.00
338.4980, 28727.00
339.7010, 30131.00
340.9050, 31674.00
342.1080, 33310.00
343.3110, 34655.00
344.5140, 36315.00
345.7170, 37344.00
346.9200, 37622.00
348.1220, 37655.00
349.3240, 36875.00
350.5270, 35765.00
351.7290, 34307.00
352.9310, 32173.00
354.1320, 30601.00
355.3340, 28514.00
356.5350, 26725.00
357.7370, 25025.00
358.9380, 23627.00
360.1390, 22337.00
361.3400, 21253.00
362.5400, 20328.00
363.7410, 19511.00
364.9410, 19000.00
366.1410, 18267.00
367.3410, 17961.00
368.5410, 17541.00
369.7410, 17263.00
370.9400, 17002.00
372.1400, 17023.00
373.3390, 16566.00
374.5380, 16649.00
375.7370, 16455.00
376.9360, 16377.00
378.1350, 16350.00
379.3330, 16226.00
380.5310, 16231.00
381.7300, 16357.00
382.9280, 16230.00
384.1260, 16352.00
385.3230, 16563.00
386.5210, 16395.00
387.7180, 16633.00
388.9160, 16738.00
390.1130, 16904.00
391.3100, 16965.00
392.5060, 17159.00
393.7030, 17347.00
394.9000, 17479.00
396.0960, 17911.00
397.2920, 18174.00
398.4880, 18470.00
399.6840, 18819.00
400.8800, 19244.00
402.0750, 19871.00
403.2710, 20481.00
404.4660, 21205.92
405.6610, 22141.00
406.8560, 22930.00
408.0510, 23838.00
409.2450, 24982.00
410.4400, 26156.00
411.6340, 27511.00
412.8280, 29014.00
414.0220, 30050.00
415.2160, 30879.00
416.4100, 32062.00
417.6030, 32249.00
418.7970, 32003.00
419.9900, 31432.00
421.1830, 30550.00
422.3760, 29314.00
423.5690, 28168.00
424.7610, 26719.00
425.9540, 25351.00
427.1460, 24344.00
428.3380, 23434.00
429.5300, 22418.00
430.7220, 21743.00
431.9140, 21193.00
433.1050, 20539.00
434.2970, 20486.00
435.4880, 20150.00
436.6790, 19834.00
437.8700, 19546.00
439.0610, 19434.00
440.2510, 19354.00
441.4420, 19187.00
442.6320, 19188.00
443.8220, 19274.00
445.0120, 19446.45
446.2020, 19747.44
447.3910, 20139.00
448.5810, 20691.00
449.7700, 21337.00
450.9600, 22187.00
452.1490, 23530.00
453.3370, 25014.00
454.5260, 26439.00
455.7150, 28299.00
456.9030, 30105.00
458.0910, 31933.00
459.2800, 33108.00
460.4670, 33648.00
461.6550, 33144.00
462.8430, 32679.00
464.0300, 31366.00
465.2180, 30377.00
466.4050, 28676.00
467.5920, 27345.00
468.7790, 26440.00
469.9650, 25452.00
471.1520, 24902.00
472.3380, 24354.00
473.5250, 24246.00
474.7110, 24028.00
475.8970, 24134.00
477.0820, 24319.00
478.2680, 24636.00
479.4540, 24892.00
480.6390, 25624.00
481.8240, 26277.00
483.0090, 26958.00
484.1940, 28097.00
485.3780, 28970.00
486.5630, 30352.00
487.7470, 31670.00
488.9320, 32654.00
490.1160, 34164.00
491.3000, 35612.00
492.4830, 36484.00
493.6670, 37704.00
494.8500, 38196.00
496.0340, 38604.00
497.2170, 39009.00
498.4000, 38630.00
499.5820, 38324.00
500.7650, 37783.00
501.9480, 36617.00
503.1300, 35630.00
504.3120, 34518.00
505.4940, 33311.00
506.6760, 32141.00
507.8580, 31079.00
509.0390, 29904.00
510.2210, 29031.00
511.4020, 27932.00
512.5830, 27125.00
513.7640, 26595.00
514.9450, 25538.00
516.1250, 24950.00
517.3060, 24282.00
518.4860, 23601.00
519.6660, 23038.00
520.8460, 22478.00
522.0260, 22052.00
523.2060, 21649.00
524.3850, 21251.00
525.5650, 21018.00
526.7440, 20598.00
527.9230, 20309.00
529.1020, 20075.00
530.2810, 19746.00
531.4590, 19536.00
532.6380, 19362.00
533.8160, 19264.00
534.9940, 19242.00
536.1720, 19112.00
537.3500, 18957.00
538.5270, 18779.00
539.7050, 18757.00
540.8820, 18600.00
542.0590, 18572.00
543.2360, 18481.00
544.4130, 18457.06
545.5900, 18509.00
546.7660, 18443.00
547.9430, 18441.00
549.1190, 18420.00
550.2950, 18252.00
551.4710, 18305.00
552.6470, 18126.00
553.8220, 18170.00
554.9980, 18291.00
556.1730, 18279.00
557.3480, 18419.00
558.5230, 18228.00
559.6980, 18125.00
560.8730, 18311.00
562.0470, 18059.00
563.2220, 18175.00
564.3960, 18050.00
565.5700, 18284.00
566.7440, 18160.00
567.9170, 18293.00
569.0910, 18439.00
570.2640, 18163.00
571.4380, 17948.00
572.6110, 18032.00
573.7840, 18282.00
574.9570, 18072.00
576.1290, 18098.00
577.3020, 18261.00
578.4740, 18088.00
579.6460, 18203.00
580.8180, 18120.00
581.9900, 18233.00
583.1620, 18122.00
584.3330, 18249.00
585.5040, 18224.00
586.6760, 18250.00
587.8470, 18209.00
589.0180, 18284.00
590.1880, 18246.00
591.3590, 18276.00
592.5290, 18206.00
593.7000, 18213.00
594.8700, 18134.00
596.0400, 18199.00
597.2090, 18244.00
598.3790, 18158.00
599.5490, 18242.00
600.7180, 18271.00
601.8870, 18323.00
603.0560, 18273.00
604.2250, 18332.00
605.3940, 18243.00
606.5620, 18334.00
607.7300, 18451.00
608.8990, 18410.00
610.0670, 18325.00
611.2350, 18392.00
612.4020, 18549.00
613.5700, 18418.00
614.7370, 18514.00
615.9050, 18714.00
617.0720, 18522.00
618.2390, 18420.00
619.4060, 18478.00
620.5720, 18543.00
621.7390, 18506.99
622.9050, 18623.00
624.0710, 18527.00
625.2370, 18477.00
626.4030, 18490.61
627.5690, 18499.44
628.7340, 18609.00
629.9000, 18601.00
631.0650, 18691.00
632.2300, 18726.00
633.3950, 18585.00
634.5600, 18713.00
635.7240, 18822.00
636.8890, 18550.00
638.0530, 18756.00
639.2170, 18982.00
640.3810, 18738.00
641.5450, 18913.00
642.7080, 18831.00
643.8720, 18946.00
645.0350, 18921.00
646.1980, 19005.00
647.3610, 19043.00
648.5240, 19107.00
649.6870, 19061.00
650.8490, 19092.00
652.0120, 19210.00
653.1740, 19160.00
654.3360, 19099.00
655.4980, 19292.00
656.6600, 19118.00
657.8210, 19321.00
658.9830, 19471.00
660.1440, 19593.00
661.3050, 19671.00
662.4660, 19532.00
663.6270, 19734.00
664.7870, 19765.43
665.9480, 19756.00
667.1080, 20025.00
668.2680, 19979.00
669.4280, 20050.00
670.5880, 19892.00
671.7480, 20319.00
672.9070, 20443.00
674.0670, 20631.00
675.2260, 20571.00
676.3850, 20623.00
677.5440, 20873.00
678.7030, 20863.00
679.8610, 20972.00
681.0200, 20889.00
682.1780, 20959.00
683.3360, 21009.00
684.4940, 20781.00
685.6520, 21036.00
686.8090, 20429.00
687.9670, 20641.00
689.1240, 20635.00
690.2810, 20660.00
691.4380, 20357.00
692.5950, 20404.00
693.7520, 20385.00
694.9080, 20346.00
696.0650, 20458.00
697.2210, 20348.00
698.3770, 20439.00
699.5330, 20480.00
700.6880, 20254.00
701.8440, 20418.00
702.9990, 20413.00
704.1550, 20177.00
705.3100, 20473.00
706.4650, 20355.00
707.6190, 20386.00
708.7740, 20457.00
709.9290, 20469.00
711.0830, 20545.00
712.2370, 20296.00
713.3910, 20359.00
714.5450, 20453.00
715.6980, 20422.00
716.8520, 20511.00
718.0050, 20606.00
719.1580, 20517.00
720.3110, 20743.00
721.4640, 20606.00
722.6170, 20528.00
723.7700, 20596.00
724.9220, 20594.00
726.0740, 20682.00
727.2260, 20631.00
728.3780, 20758.00
729.5300, 20857.00
730.6810, 21071.00
731.8330, 20907.00
732.9840, 20963.00
734.1350, 21174.00
735.2860, 21016.00
736.4370, 21145.00
737.5880, 21148.00
738.7380, 21442.00
739.8880, 21204.00
741.0390, 21145.00
742.1890, 21380.00
743.3380, 21548.00
744.4880, 21434.00
745.6380, 21488.00
746.7870, 21869.00
747.9360, 21915.00
749.0850, 21964.00
750.2340, 22031.00
751.3830, 22186.00
752.5310, 22238.00
753.6800, 22342.00
754.8280, 22530.00
755.9760, 22821.00
757.1240, 23052.00
758.2720, 23191.00
759.4190, 23635.00
760.5670, 23824.00
761.7140, 24532.00
762.8610, 25145.00
764.0080, 25715.00
765.1550, 26606.00
766.3020, 27621.00
767.4480, 28560.00
768.5950, 29540.00
769.7410, 30616.00
770.8870, 31360.00
772.0330, 31908.00
773.1780, 31776.00
774.3240, 31574.00
775.4690, 30792.00
776.6140, 29817.00
777.7590, 28719.00
778.9040, 27624.00
780.0490, 26644.00
781.1940, 25998.00
782.3380, 25207.00
783.4820, 24700.00
784.6260, 24304.00
785.7700, 23697.00
786.9140, 23526.00
788.0580, 23397.00
789.2010, 23092.00
790.3450, 23081.00
791.4880, 22938.00
792.6310, 22754.00
793.7730, 22900.00
794.9160, 22641.00
796.0590, 22719.00
797.2010, 22625.00
798.3430, 22807.00
799.4850, 22619.00
800.6270, 22780.00
801.7690, 22525.00
802.9100, 22585.00
804.0520, 22557.00
805.1930, 22477.00
806.3340, 22613.00
807.4750, 22527.00
808.6160, 22743.00
809.7560, 22599.00
810.8970, 22450.00
812.0370, 22829.00
813.1770, 22857.00
814.3170, 22586.00
815.4570, 22610.00
816.5960, 22577.00
817.7360, 22766.00
818.8750, 22794.00
820.0140, 22580.00
821.1530, 22983.00
822.2920, 22860.00
823.4310, 22993.00
824.5690, 22858.00
825.7070, 22776.00
826.8460, 22822.00
827.9840, 22970.00
829.1220, 23026.00
830.2590, 23090.00
831.3970, 22905.00
832.5340, 23098.00
833.6710, 23053.00
834.8080, 23163.00
835.9450, 23090.00
837.0820, 23144.00
838.2190, 23240.00
839.3550, 23276.00
840.4910, 23105.00
841.6270, 23228.13
842.7630, 23614.00
843.8990, 23331.00
845.0350, 23418.00
846.1700, 23533.00
847.3060, 23471.00
848.4410, 23508.00
849.5760, 23564.00
850.7100, 23432.00
851.8450, 23625.00
852.9800, 23804.00
854.1140, 23791.00
855.2480, 23859.00
856.3820, 23857.00
857.5160, 23909.00
858.6500, 23823.00
859.7830, 24053.00
860.9170, 23970.00
862.0500, 24101.00
863.1830, 23817.00
864.3160, 24050.00
865.4480, 24123.00
866.5810, 24260.00
867.7130, 24244.00
868.8460, 24201.00
869.9780, 24154.00
871.1100, 24327.00
872.2410, 24520.00
873.3730, 24392.00
874.5050, 24578.00
875.6360, 24329.00
876.7670, 24390.00
877.8980, 24406.00
879.0290, 24465.00
880.1590, 24486.00
881.2900, 24564.61
882.4200, 24620.09
883.5500, 24706.00
884.6800, 24741.00
885.8100, 24762.04
886.9400, 24784.00
888.0690, 24835.00
889.1990, 24959.00
890.3280, 24987.00
891.4570, 24998.00
892.5860, 25140.00
893.7140, 25144.00
894.8430, 25136.00
895.9710, 24967.00
897.1000, 25413.00
898.2280, 25464.00
899.3560, 25366.00
900.4830, 25349.00
901.6110, 25482.00
902.7380, 25602.00
903.8660, 25784.00
904.9930, 25600.00
906.1200, 25759.00
907.2460, 25897.00
908.3730, 26149.00
909.5000, 26375.00
910.6260, 26353.00
911.7520, 26636.00
912.8780, 26745.00
914.0040, 26974.00
915.1290, 27332.00
916.2550, 27393.00
917.3800, 27858.00
918.5050, 28137.00
919.6300, 28408.00
920.7550, 28934.00
921.8800, 29408.00
923.0040, 29712.00
924.1290, 30350.00
925.2530, 30760.00
926.3770, 31424.00
927.5010, 31683.00
928.6250, 32011.00
929.7480, 32613.00
930.8720, 32423.00
931.9950, 32656.00
933.1180, 32711.00
934.2410, 32591.00
935.3640, 32078.00
936.4860, 32135.00
937.6090, 31869.00
938.7310, 31819.00
939.8530, 31487.00
940.9750, 31633.00
942.0970, 31594.00
943.2180, 32124.00
944.3400, 32588.00
945.4610, 32968.00
946.5820, 33789.00
947.7030, 34543.00
948.8240, 35240.00
949.9450, 36221.00
951.0650, 37319.00
952.1860, 37769.00
953.3060, 38613.00
954.4260, 38697.00
955.5460, 38818.00
956.6650, 38596.00
957.7850, 38033.00
958.9040, 37434.00
960.0230, 37166.00
961.1420, 36781.00
962.2610, 36334.00
963.3800, 35988.00
964.4990, 35978.00
965.6170, 35888.00
966.7350, 35730.00
967.8530, 35626.00
968.9710, 35786.00
970.0890, 35686.84
971.2070, 35976.00
972.3240, 35756.00
973.4410, 35925.00
974.5580, 36047.00
975.6750, 36294.00
976.7920, 35961.00
977.9090, 35860.00
979.0250, 36045.00
980.1410, 35949.00
981.2580, 36049.00
982.3740, 36091.00
983.4890, 36337.00
984.6050, 36386.00
985.7200, 36644.00
986.8360, 36721.00
987.9510, 36944.00
989.0660, 36571.00
990.1810, 36898.00
991.2950, 36330.00
992.4100, 36311.00
993.5240, 36180.00
994.6390, 36008.00
995.7530, 35919.87
996.8660, 35668.00
997.9800, 35651.00
999.0940, 35660.00
1000.207, 35541.00
1001.320, 35348.00
1002.433, 35238.00
1003.546, 34974.00
1004.659, 34899.00
1005.772, 34974.00
1006.884, 34747.00
1007.996, 34552.00
1009.108, 34734.00
1010.220, 34317.00
1011.332, 34008.00
1012.444, 33633.00
1013.555, 33460.00
1014.666, 33316.00
1015.777, 33105.00
1016.888, 32947.00
1017.999, 32635.00
1019.110, 32275.00
1020.220, 32295.00
1021.331, 32167.00
1022.441, 32153.00
1023.551, 32066.00
1024.661, 31777.00
1025.770, 31673.00
1026.880, 31623.00
1027.989, 31393.00
1029.098, 31397.00
1030.207, 31333.00
1031.316, 31381.82
1032.425, 31553.52
1033.533, 31699.00
1034.642, 32114.00
1035.750, 32518.00
1036.858, 33069.00
1037.966, 33635.00
1039.073, 34607.00
1040.181, 35256.00
1041.288, 36224.00
1042.396, 36088.00
1043.503, 35997.00
1044.610, 35760.00
1045.716, 36248.00
1046.823, 37105.00
1047.929, 38533.00
1049.036, 40648.00
1050.142, 43192.00
1051.248, 45536.00
1052.353, 47490.00
1053.459, 48945.00
1054.564, 49341.00
1055.670, 49363.00
1056.775, 48983.00
1057.880, 47352.00
1058.985, 45214.00
1060.089, 42277.00
1061.194, 39696.00
1062.298, 36927.00
1063.402, 34942.00
1064.506, 33610.00
1065.610, 32606.00
1066.713, 32085.00
1067.817, 31714.00
1068.920, 31391.00
1070.023, 31339.00
1071.126, 31361.00
1072.229, 31332.00
1073.332, 31176.00
1074.435, 31326.00
1075.537, 31246.00
1076.639, 31214.00
1077.741, 31008.00
1078.843, 31212.00
1079.945, 31219.00
1081.046, 31428.00
1082.148, 31286.00
1083.249, 31413.00
1084.350, 31162.00
1085.451, 31379.00
1086.551, 31388.00
1087.652, 31650.00
1088.752, 31680.00
1089.853, 31653.00
1090.953, 31560.00
1092.053, 31374.00
1093.152, 31544.00
1094.252, 31542.00
1095.351, 31549.87
1096.451, 31662.00
1097.550, 31653.00
1098.649, 31637.00
1099.748, 31723.00
1100.846, 31733.00
1101.945, 31664.00
1103.043, 31842.00
1104.141, 31895.00
1105.239, 31973.00
1106.337, 31878.00
1107.434, 32010.00
1108.532, 32024.00
1109.629, 31832.00
1110.726, 32097.00
1111.823, 32075.00
1112.920, 32032.00
1114.017, 32163.00
1115.113, 32349.00
1116.210, 32319.00
1117.306, 32628.00
1118.402, 32673.00
1119.498, 32692.00
1120.593, 32692.00
1121.689, 32856.00
1122.784, 32996.00
1123.879, 33249.00
1124.974, 33011.00
1126.069, 33060.00
1127.164, 33073.00
1128.259, 32847.00
1129.353, 32743.00
1130.447, 32742.00
1131.541, 32921.00
1132.635, 33076.00
1133.729, 33056.00
1134.822, 33096.00
1135.916, 33124.00
1137.009, 33030.00
1138.102, 33035.00
1139.195, 33074.00
1140.288, 33170.00
1141.380, 33214.00
1142.473, 33237.00
1143.565, 33027.00
1144.657, 33336.00
1145.749, 33282.00
1146.841, 33384.00
1147.932, 33545.00
1149.024, 33617.00
1150.115, 33580.88
1151.206, 33618.46
1152.297, 33540.00
1153.388, 33509.00
1154.479, 33723.00
1155.569, 33611.00
1156.659, 33390.00
1157.750, 33873.00
1158.839, 33655.00
1159.929, 33913.00
1161.019, 33831.00
1162.108, 34035.00
1163.198, 33957.00
1164.287, 34031.00
1165.376, 34283.00
1166.465, 33981.00
1167.553, 34227.00
1168.642, 34171.00
1169.730, 34357.00
1170.818, 34323.00
1171.906, 34188.00
1172.994, 34424.00
1174.082, 34452.00
1175.170, 34654.00
1176.257, 34678.00
1177.344, 34536.00
1178.431, 34881.00
1179.518, 34694.00
1180.605, 34668.00
1181.691, 34758.00
1182.778, 34827.00
1183.864, 34841.00
1184.950, 34944.00
1186.036, 35108.00
1187.122, 35039.00
1188.207, 34958.00
1189.292, 34816.00
1190.378, 35210.00
1191.463, 35300.00
1192.548, 35295.00
1193.632, 35346.00
1194.717, 35336.00
1195.801, 35309.00
1196.886, 35429.00
1197.970, 35618.00
1199.054, 35494.00
1200.137, 35512.00
1201.221, 35426.00
1202.305, 35673.00
1203.388, 35714.00
1204.471, 35774.00
1205.554, 35759.00
1206.637, 35908.00
1207.719, 36037.00
1208.802, 36096.00
1209.884, 36166.98
1210.966, 36197.14
1212.048, 36220.00
1213.130, 36264.00
1214.212, 36272.00
1215.293, 36416.00
1216.374, 36377.00
1217.456, 36341.00
1218.536, 36214.00
1219.617, 36549.00
1220.698, 36624.00
1221.778, 36352.00
1222.859, 36674.00
1223.939, 36639.00
1225.019, 36826.00
1226.099, 36724.00
1227.178, 36676.00
1228.258, 36585.00
1229.337, 36763.00
1230.417, 37071.00
1231.496, 37065.00
1232.574, 37011.00
1233.653, 37066.00
1234.732, 37020.00
1235.810, 37276.00
1236.888, 36890.00
1237.966, 37072.00
1239.044, 37341.00
1240.122, 37293.00
1241.199, 36992.00
1242.277, 37454.00
1243.354, 37183.00
1244.431, 37483.00
1245.508, 37413.00
1246.585, 37436.00
1247.661, 37463.00
1248.738, 37481.33
1249.814, 37340.00
1250.890, 37587.00
1251.966, 37851.00
1253.042, 37933.00
1254.117, 37883.00
1255.193, 37921.21
1256.268, 37922.32
1257.343, 37792.00
1258.418, 37979.00
1259.493, 37989.00
1260.567, 38156.00
1261.642, 38474.00
1262.716, 38440.00
1263.790, 38609.87
1264.864, 38600.54
1265.938, 38615.00
1267.011, 38561.00
1268.085, 38259.00
1269.158, 38339.00
1270.231, 38380.00
1271.304, 38490.00
1272.377, 38528.34
1273.450, 38414.00
1274.522, 38586.00
1275.594, 38651.00
1276.666, 38588.00
1277.738, 38967.00
1278.810, 39336.00
1279.882, 38880.00
1280.953, 38934.00
1282.025, 39173.00
1283.096, 39025.00
1284.167, 39126.00
1285.238, 39126.00
1286.308, 39174.00
1287.379, 39274.00
1288.449, 39372.00
1289.519, 39298.00
1290.589, 39472.00
1291.659, 39283.00
1292.729, 39678.00
1293.798, 39475.00
1294.868, 39930.00
1295.937, 39897.00
1297.006, 39942.00
1298.075, 39917.00
1299.143, 39933.86
1300.212, 39822.00
1301.280, 39995.00
1302.348, 39984.00
1303.416, 40086.00
1304.484, 40235.00
1305.552, 40381.00
1306.620, 40365.85
1307.687, 40503.00
1308.754, 40351.00
1309.821, 40339.00
1310.888, 40392.00
1311.955, 40514.00
1313.021, 40646.00
1314.088, 40447.00
1315.154, 40958.00
1316.220, 40770.00
1317.286, 41057.00
1318.352, 41085.00
1319.417, 40738.00
1320.483, 41045.00
1321.548, 41017.00
1322.613, 41484.00
1323.678, 41222.00
1324.743, 41311.00
1325.807, 41165.00
1326.872, 41344.00
1327.936, 41408.00
1329.000, 41457.89
1330.064, 41579.00
1331.128, 41658.00
1332.191, 41721.00
1333.255, 41821.00
1334.318, 41698.00
1335.381, 41678.00
