##NAMES=Cancrinite
##RRUFFID=R050352
##IDEAL CHEMISTRY=(Na,Ca,[box])_8_(Al_6_Si_6_)O_24_(CO_3_,S^6+^O_4_)_2_&#183;2H_2_O
##LOCALITY=York River, quarry #2, Dungannon Township, Ontario, Canada
##OWNER=RRUFF
##SOURCE=California Institute of Technology
##DESCRIPTION=Pink fragment
##STATUS=The identification of this mineral has been confirmed by X-ray diffraction and chemical analysis
##URL=rruff.info/R050352
##MEASURED CHEMISTRY=(Na_6.07_Ca_1.62_[box]_0.31_)_Σ=8_(Al_0.99_Si_1.01_O_4_)_6_((CO_3_)_0.84_[box]_0.16_)_Σ=2_·2H_2_O
##PIN_ID=M00367
##ORIENTATION=Laser parallel to a* (1 0 0). Fiducial mark perpendicular to laser is parallel to c [0 0 1]
170.9360, 16038.00
172.1610, 15858.00
173.3850, 15832.00
174.6100, 15913.00
175.8340, 15894.00
177.0580, 15978.73
178.2820, 16093.00
179.5050, 16155.00
180.7290, 16280.29
181.9520, 16494.00
183.1760, 16534.00
184.3990, 16731.00
185.6220, 16906.00
186.8450, 16932.00
188.0670, 17192.00
189.2900, 17404.00
190.5120, 17375.00
191.7340, 17336.00
192.9560, 17572.00
194.1780, 17707.00
195.4000, 17751.00
196.6220, 17946.00
197.8430, 17997.00
199.0640, 18183.00
200.2860, 18321.06
201.5070, 18515.00
202.7270, 18610.00
203.9480, 18757.00
205.1690, 18873.00
206.3890, 19029.00
207.6090, 19302.00
208.8290, 19642.00
210.0490, 19928.00
211.2690, 20295.00
212.4890, 20649.93
213.7080, 20925.84
214.9280, 21357.00
216.1470, 21485.00
217.3660, 21723.00
218.5850, 21967.00
219.8030, 21932.00
221.0220, 21955.00
222.2400, 21962.00
223.4590, 22059.00
224.6770, 21990.00
225.8950, 21773.00
227.1120, 21730.00
228.3300, 21509.00
229.5480, 21506.00
230.7650, 20966.00
231.9820, 20915.00
233.1990, 20497.00
234.4160, 20305.00
235.6330, 19904.00
236.8490, 19756.00
238.0660, 19479.00
239.2820, 19188.00
240.4980, 19225.00
241.7140, 18987.00
242.9300, 18933.00
244.1460, 18961.00
245.3610, 19030.00
246.5770, 19101.00
247.7920, 19205.00
249.0070, 19410.00
250.2220, 19637.00
251.4370, 19925.00
252.6510, 20117.00
253.8660, 20463.00
255.0800, 20936.00
256.2940, 21510.00
257.5080, 22149.00
258.7220, 22972.63
259.9360, 23878.43
261.1490, 24880.00
262.3630, 25958.00
263.5760, 27100.00
264.7890, 28193.00
266.0020, 29656.00
267.2150, 30827.00
268.4270, 32290.00
269.6400, 33437.00
270.8520, 34476.00
272.0640, 35320.00
273.2760, 35879.00
274.4880, 35763.00
275.7000, 34855.00
276.9120, 33835.00
278.1230, 32105.00
279.3340, 30408.00
280.5450, 28574.00
281.7560, 26831.00
282.9670, 25473.00
284.1780, 24311.00
285.3880, 23282.00
286.5980, 22570.00
287.8090, 22314.00
289.0190, 22311.00
290.2290, 22220.00
291.4380, 22433.00
292.6480, 22653.00
293.8570, 22952.00
295.0670, 22836.00
296.2760, 23302.00
297.4850, 23509.00
298.6930, 23389.00
299.9020, 22932.00
301.1110, 22586.00
302.3190, 22257.00
303.5270, 21583.00
304.7350, 21097.00
305.9430, 20475.00
307.1510, 19866.00
308.3580, 19374.00
309.5660, 18708.00
310.7730, 18163.00
311.9800, 17861.00
313.1870, 17422.00
314.3940, 17272.00
315.6010, 17186.00
316.8070, 16815.00
318.0130, 16642.00
319.2200, 16622.00
320.4260, 16657.00
321.6310, 16611.00
322.8370, 16664.00
324.0430, 16763.01
325.2480, 16970.00
326.4540, 17117.00
327.6590, 17385.00
328.8640, 17788.00
330.0680, 18061.00
331.2730, 18469.00
332.4780, 18672.00
333.6820, 19145.00
334.8860, 19401.00
336.0900, 19598.00
337.2940, 19809.00
338.4980, 20104.00
339.7010, 20450.23
340.9050, 21043.00
342.1080, 21271.00
343.3110, 21709.00
344.5140, 22171.00
345.7170, 22432.00
346.9200, 22616.00
348.1220, 22535.00
349.3240, 22152.00
350.5270, 21673.00
351.7290, 21203.00
352.9310, 20539.00
354.1320, 19741.00
355.3340, 19046.00
356.5350, 18240.00
357.7370, 17744.00
358.9380, 17075.00
360.1390, 16577.00
361.3400, 16165.00
362.5400, 15840.00
363.7410, 15724.00
364.9410, 15304.00
366.1410, 15281.00
367.3410, 15202.00
368.5410, 15082.00
369.7410, 15027.00
370.9400, 14966.44
372.1400, 14936.00
373.3390, 14903.51
374.5380, 14899.28
375.7370, 14905.70
376.9360, 14927.00
378.1350, 14967.00
379.3330, 15007.00
380.5310, 15080.00
381.7300, 15120.00
382.9280, 15139.00
384.1260, 15261.00
385.3230, 15375.39
386.5210, 15605.00
387.7180, 15670.00
388.9160, 15839.00
390.1130, 15943.22
391.3100, 16031.00
392.5060, 16241.00
393.7030, 16399.00
394.9000, 16519.00
396.0960, 16677.00
397.2920, 16877.00
398.4880, 16946.00
399.6840, 17248.00
400.8800, 17440.00
402.0750, 17811.00
403.2710, 17921.00
404.4660, 18397.00
405.6610, 18676.00
406.8560, 18940.00
408.0510, 19571.00
409.2450, 20146.00
410.4400, 20943.00
411.6340, 21515.00
412.8280, 22395.00
414.0220, 23008.00
415.2160, 23555.00
416.4100, 24166.00
417.6030, 24573.00
418.7970, 24528.00
419.9900, 24388.00
421.1830, 23771.00
422.3760, 23220.00
423.5690, 22474.00
424.7610, 21809.00
425.9540, 21197.00
427.1460, 20709.00
428.3380, 20033.00
429.5300, 19807.00
430.7220, 19631.00
431.9140, 19223.00
433.1050, 18812.00
434.2970, 18781.00
435.4880, 18427.00
436.6790, 18379.00
437.8700, 18159.00
439.0610, 17983.00
440.2510, 17812.00
441.4420, 17700.00
442.6320, 17660.00
443.8220, 17695.00
445.0120, 17729.00
446.2020, 17772.00
447.3910, 17796.00
448.5810, 18018.00
449.7700, 18228.00
450.9600, 18673.00
452.1490, 18908.00
453.3370, 19354.00
454.5260, 20109.00
455.7150, 20912.00
456.9030, 21433.00
458.0910, 22072.00
459.2800, 22796.00
460.4670, 22699.00
461.6550, 22864.00
462.8430, 22519.00
464.0300, 21906.00
465.2180, 21477.00
466.4050, 20652.00
467.5920, 20363.00
468.7790, 19653.00
469.9650, 19637.00
471.1520, 19346.00
472.3380, 19327.00
473.5250, 19310.00
474.7110, 19277.00
475.8970, 19523.00
477.0820, 19577.00
478.2680, 19723.00
479.4540, 20121.00
480.6390, 20598.00
481.8240, 20770.00
483.0090, 21254.00
484.1940, 21784.00
485.3780, 22469.00
486.5630, 22897.00
487.7470, 23805.00
488.9320, 24439.00
490.1160, 25368.00
491.3000, 26002.00
492.4830, 26746.00
493.6670, 27254.00
494.8500, 27560.00
496.0340, 27747.00
497.2170, 27606.00
498.4000, 27512.00
499.5820, 27210.00
500.7650, 26927.00
501.9480, 26351.00
503.1300, 25632.00
504.3120, 25203.00
505.4940, 24569.00
506.6760, 23873.00
507.8580, 23401.00
509.0390, 22722.00
510.2210, 22107.00
511.4020, 21565.00
512.5830, 21140.00
513.7640, 20811.00
514.9450, 20239.00
516.1250, 19981.00
517.3060, 19768.00
518.4860, 19122.00
519.6660, 18945.00
520.8460, 18735.00
522.0260, 18341.00
523.2060, 18243.00
524.3850, 17868.00
525.5650, 17955.00
526.7440, 17677.00
527.9230, 17562.00
529.1020, 17431.00
530.2810, 17244.00
531.4590, 17166.38
532.6380, 17086.29
533.8160, 16980.00
534.9940, 17005.00
536.1720, 16938.00
537.3500, 16913.00
538.5270, 16770.00
539.7050, 16864.00
540.8820, 16797.00
542.0590, 16846.00
543.2360, 16701.00
544.4130, 16817.00
545.5900, 16688.00
546.7660, 16648.00
547.9430, 16594.00
549.1190, 16582.58
550.2950, 16574.00
551.4710, 16626.00
552.6470, 16628.00
553.8220, 16670.00
554.9980, 16682.00
556.1730, 16575.00
557.3480, 16716.00
558.5230, 16573.00
559.6980, 16497.00
560.8730, 16609.00
562.0470, 16582.00
563.2220, 16565.00
564.3960, 16508.00
565.5700, 16553.83
566.7440, 16664.00
567.9170, 16658.00
569.0910, 16808.00
570.2640, 16911.00
571.4380, 16885.21
572.6110, 16667.00
573.7840, 16844.00
574.9570, 16764.00
576.1290, 16707.00
577.3020, 16853.00
578.4740, 16840.00
579.6460, 16815.00
580.8180, 16781.00
581.9900, 16757.00
583.1620, 16731.00
584.3330, 16711.00
585.5040, 16808.00
586.6760, 16680.00
587.8470, 16715.00
589.0180, 16833.00
590.1880, 16953.00
591.3590, 16748.00
592.5290, 16869.00
593.7000, 16812.00
594.8700, 16815.00
596.0400, 16928.00
597.2090, 16783.00
598.3790, 16913.00
599.5490, 17009.00
600.7180, 17002.00
601.8870, 16869.00
603.0560, 16921.00
604.2250, 17003.00
605.3940, 17006.00
606.5620, 17022.00
607.7300, 17125.00
608.8990, 17089.00
610.0670, 17191.00
611.2350, 17145.00
612.4020, 17087.00
613.5700, 17165.00
614.7370, 17169.00
615.9050, 17260.00
617.0720, 17260.34
618.2390, 17205.00
619.4060, 17266.00
620.5720, 17271.00
621.7390, 17254.00
622.9050, 17283.02
624.0710, 17196.00
625.2370, 17310.00
626.4030, 17342.00
627.5690, 17393.00
628.7340, 17255.00
629.9000, 17254.00
631.0650, 17320.00
632.2300, 17435.00
633.3950, 17462.00
634.5600, 17345.00
635.7240, 17491.00
636.8890, 17411.00
638.0530, 17512.00
639.2170, 17525.00
640.3810, 17624.00
641.5450, 17562.00
642.7080, 17576.00
643.8720, 17541.00
645.0350, 17723.00
646.1980, 17679.00
647.3610, 17633.00
648.5240, 17710.00
649.6870, 17640.00
650.8490, 17577.00
652.0120, 17711.00
653.1740, 17782.00
654.3360, 17840.00
655.4980, 17732.00
656.6600, 17739.00
657.8210, 17901.00
658.9830, 18036.00
660.1440, 17965.00
661.3050, 18159.00
662.4660, 18062.00
663.6270, 18216.00
664.7870, 18065.00
665.9480, 18151.00
667.1080, 18157.00
668.2680, 18363.00
669.4280, 18424.00
670.5880, 18508.00
671.7480, 18514.00
672.9070, 18720.00
674.0670, 18720.00
675.2260, 18845.00
676.3850, 19013.00
677.5440, 19173.00
678.7030, 19172.00
679.8610, 19233.00
681.0200, 19284.00
682.1780, 19262.00
683.3360, 19331.00
684.4940, 19343.19
685.6520, 19333.00
686.8090, 19364.00
687.9670, 19364.00
689.1240, 19306.00
690.2810, 19219.00
691.4380, 19177.00
692.5950, 19093.00
693.7520, 19235.00
694.9080, 19205.00
696.0650, 19378.00
697.2210, 19340.00
698.3770, 19240.00
699.5330, 19452.00
700.6880, 19487.00
701.8440, 19474.00
702.9990, 19218.00
704.1550, 19358.00
705.3100, 19229.00
706.4650, 19319.00
707.6190, 19180.00
708.7740, 19379.00
709.9290, 19199.00
711.0830, 19290.00
712.2370, 19392.00
713.3910, 19633.00
714.5450, 19530.00
715.6980, 19594.00
716.8520, 19943.00
718.0050, 19796.00
719.1580, 19793.00
720.3110, 19673.00
721.4640, 19493.00
722.6170, 19400.00
723.7700, 19638.00
724.9220, 19648.00
726.0740, 19481.00
727.2260, 19490.00
728.3780, 19490.00
729.5300, 19395.00
730.6810, 19516.00
731.8330, 19404.00
732.9840, 19438.00
734.1350, 19551.00
735.2860, 19671.00
736.4370, 19727.00
737.5880, 19823.00
738.7380, 19721.00
739.8880, 19864.00
741.0390, 19787.00
742.1890, 19823.00
743.3380, 19936.00
744.4880, 19821.00
745.6380, 19936.00
746.7870, 19878.00
747.9360, 20034.00
749.0850, 20119.00
750.2340, 20164.00
751.3830, 20153.00
752.5310, 20354.00
753.6800, 20404.00
754.8280, 20343.00
755.9760, 20487.00
757.1240, 20520.00
758.2720, 20703.00
759.4190, 20932.00
760.5670, 20961.00
761.7140, 21202.00
762.8610, 21524.00
764.0080, 21837.00
765.1550, 22137.54
766.3020, 22460.00
767.4480, 22821.00
768.5950, 23257.00
769.7410, 23695.00
770.8870, 24086.00
772.0330, 24412.00
773.1780, 24125.00
774.3240, 24398.00
775.4690, 24040.00
776.6140, 23499.00
777.7590, 23225.00
778.9040, 22792.70
780.0490, 22444.00
781.1940, 22082.00
782.3380, 21816.00
783.4820, 21579.00
784.6260, 21351.00
785.7700, 21325.00
786.9140, 21417.00
788.0580, 21301.00
789.2010, 21222.82
790.3450, 21064.00
791.4880, 20952.00
792.6310, 21065.00
793.7730, 20959.00
794.9160, 21095.00
796.0590, 20984.00
797.2010, 20948.00
798.3430, 21203.00
799.4850, 21013.00
800.6270, 21137.00
801.7690, 21105.00
802.9100, 21106.00
804.0520, 21078.00
805.1930, 21049.20
806.3340, 21215.00
807.4750, 21070.00
808.6160, 21224.00
809.7560, 21433.00
810.8970, 21439.00
812.0370, 21400.00
813.1770, 21386.00
814.3170, 21393.44
815.4570, 21463.00
816.5960, 21394.00
817.7360, 21508.00
818.8750, 21486.00
820.0140, 21496.00
821.1530, 21586.00
822.2920, 21599.00
823.4310, 21608.00
824.5690, 21790.00
825.7070, 21684.00
826.8460, 21646.00
827.9840, 21657.00
829.1220, 21813.00
830.2590, 21761.00
831.3970, 21843.00
832.5340, 21814.00
833.6710, 21918.00
834.8080, 21934.00
835.9450, 21946.18
837.0820, 22026.00
838.2190, 21989.00
839.3550, 21998.00
840.4910, 22058.00
841.6270, 22225.00
842.7630, 22174.00
843.8990, 22205.00
845.0350, 22259.00
846.1700, 22188.00
847.3060, 22225.00
848.4410, 22190.00
849.5760, 22316.00
850.7100, 22296.26
851.8450, 22416.00
852.9800, 22330.00
854.1140, 22384.00
855.2480, 22400.00
856.3820, 22443.00
857.5160, 22498.37
858.6500, 22755.00
859.7830, 22643.00
860.9170, 22677.00
862.0500, 22810.00
863.1830, 22709.00
864.3160, 22887.00
865.4480, 22907.00
866.5810, 22829.00
867.7130, 22801.00
868.8460, 23087.00
869.9780, 23106.00
871.1100, 23103.00
872.2410, 23016.00
873.3730, 23184.00
874.5050, 23012.00
875.6360, 22985.00
876.7670, 23480.00
877.8980, 23197.00
879.0290, 23344.00
880.1590, 23406.00
881.2900, 23428.00
882.4200, 23413.00
883.5500, 23659.00
884.6800, 23383.00
885.8100, 23454.00
886.9400, 23753.00
888.0690, 23750.00
889.1990, 23753.00
890.3280, 23847.00
891.4570, 23598.00
892.5860, 23781.00
893.7140, 23776.00
894.8430, 23969.00
895.9710, 23948.00
897.1000, 23908.00
898.2280, 24204.00
899.3560, 24019.00
900.4830, 24285.00
901.6110, 24096.00
902.7380, 24307.00
903.8660, 24282.00
904.9930, 24532.00
906.1200, 24580.00
907.2460, 24482.00
908.3730, 24742.00
909.5000, 24855.00
910.6260, 24868.00
911.7520, 24990.00
912.8780, 24983.00
914.0040, 25146.00
915.1290, 25491.00
916.2550, 25899.00
917.3800, 25935.87
918.5050, 26144.73
919.6300, 26195.00
920.7550, 26361.00
921.8800, 26702.00
923.0040, 27008.00
924.1290, 27154.00
925.2530, 27653.00
926.3770, 27968.00
927.5010, 28153.00
928.6250, 28345.00
929.7480, 28340.00
930.8720, 28619.00
931.9950, 28719.00
933.1180, 28720.00
934.2410, 28459.00
935.3640, 28344.00
936.4860, 28295.00
937.6090, 28321.00
938.7310, 28073.00
939.8530, 28106.00
940.9750, 27867.00
942.0970, 28288.00
943.2180, 27986.00
944.3400, 28273.00
945.4610, 28790.00
946.5820, 28865.00
947.7030, 29128.00
948.8240, 29883.00
949.9450, 29963.00
951.0650, 30443.00
952.1860, 30809.00
953.3060, 30977.00
954.4260, 31119.00
955.5460, 31482.00
956.6650, 31277.00
957.7850, 30863.00
958.9040, 31009.00
960.0230, 30887.00
961.1420, 30663.00
962.2610, 30557.00
963.3800, 30430.00
964.4990, 30449.00
965.6170, 30495.00
966.7350, 30167.00
967.8530, 30401.00
968.9710, 30409.00
970.0890, 30709.00
971.2070, 30587.00
972.3240, 30548.00
973.4410, 30734.00
974.5580, 30817.00
975.6750, 31130.00
976.7920, 31120.00
977.9090, 30670.00
979.0250, 31244.00
980.1410, 31137.00
981.2580, 31512.00
982.3740, 31309.00
983.4890, 31397.00
984.6050, 31263.00
985.7200, 31559.00
986.8360, 31713.00
987.9510, 31839.00
989.0660, 31882.95
990.1810, 31828.00
991.2950, 31770.00
992.4100, 31812.00
993.5240, 31638.00
994.6390, 31773.00
995.7530, 31756.00
996.8660, 31728.00
997.9800, 31551.00
999.0940, 31661.00
1000.207, 31480.00
1001.320, 31680.00
1002.433, 31722.00
1003.546, 31583.00
1004.659, 31785.00
1005.772, 31639.00
1006.884, 31644.00
1007.996, 31511.00
1009.108, 31508.00
1010.220, 31341.00
1011.332, 31491.00
1012.444, 30961.00
1013.555, 31099.00
1014.666, 31117.00
1015.777, 30826.00
1016.888, 31054.00
1017.999, 30776.00
1019.110, 30738.00
1020.220, 30838.00
1021.331, 30807.00
1022.441, 30788.00
1023.551, 30974.00
1024.661, 30915.00
1025.770, 30791.00
1026.880, 30897.00
1027.989, 30879.00
1029.098, 30922.00
1030.207, 31028.00
1031.316, 31259.00
1032.425, 31508.00
1033.533, 31865.00
1034.642, 32401.00
1035.750, 32837.00
1036.858, 33583.00
1037.966, 34711.00
1039.073, 36156.00
1040.181, 37669.00
1041.288, 39016.00
1042.396, 39628.00
1043.503, 38733.00
1044.610, 38458.00
1045.716, 38725.00
1046.823, 39787.00
1047.929, 42571.00
1049.036, 46016.00
1050.142, 50189.00
1051.248, 53810.00
1052.353, 57683.00
1053.459, 60244.00
1054.564, 62363.00
1055.670, 62278.00
1056.775, 62030.00
1057.880, 59939.00
1058.985, 56246.00
1060.089, 51568.00
1061.194, 46281.00
1062.298, 41510.00
1063.402, 37733.00
1064.506, 35447.00
1065.610, 33859.00
1066.713, 32909.00
1067.817, 32162.00
1068.920, 31940.00
1070.023, 31565.00
1071.126, 31404.00
1072.229, 31323.00
1073.332, 30985.00
1074.435, 30948.00
1075.537, 31098.00
1076.639, 31327.00
1077.741, 31244.00
1078.843, 31368.00
1079.945, 31316.00
1081.046, 31215.00
1082.148, 31188.00
1083.249, 31475.00
1084.350, 31289.00
1085.451, 31328.00
1086.551, 31740.00
1087.652, 31735.00
1088.752, 31702.00
1089.853, 31683.00
1090.953, 31659.00
1092.053, 31680.20
1093.152, 31697.26
1094.252, 31726.00
1095.351, 31764.00
1096.451, 31761.00
1097.550, 31774.00
1098.649, 31961.00
1099.748, 31928.00
1100.846, 31771.00
1101.945, 31906.00
1103.043, 31609.00
1104.141, 31945.00
1105.239, 31670.00
1106.337, 31827.00
1107.434, 31912.00
1108.532, 31985.00
1109.629, 31825.00
1110.726, 32036.00
1111.823, 31914.00
1112.920, 32144.00
1114.017, 31901.00
1115.113, 32245.00
1116.210, 32093.00
1117.306, 32153.00
1118.402, 32598.00
1119.498, 32477.00
1120.593, 32763.00
1121.689, 32542.00
1122.784, 32715.00
1123.879, 32618.00
1124.974, 32738.00
1126.069, 32639.00
1127.164, 32921.00
1128.259, 32602.00
1129.353, 32506.00
1130.447, 32663.00
1131.541, 32683.00
1132.635, 32786.00
1133.729, 32727.00
1134.822, 32869.00
1135.916, 32840.80
1137.009, 32888.00
1138.102, 32869.00
1139.195, 32935.87
1140.288, 32838.00
1141.380, 33033.00
1142.473, 33047.00
1143.565, 32999.00
1144.657, 33157.00
1145.749, 33313.00
1146.841, 33258.00
1147.932, 33226.00
1149.024, 33093.00
1150.115, 33238.00
1151.206, 33206.09
1152.297, 33300.75
1153.388, 33344.00
1154.479, 33481.00
1155.569, 33638.00
1156.659, 33623.00
1157.750, 33865.00
1158.839, 33749.00
1159.929, 33777.00
1161.019, 33765.00
1162.108, 33716.00
1163.198, 33875.00
1164.287, 33895.00
1165.376, 33821.00
1166.465, 33991.00
1167.553, 34192.00
1168.642, 34120.00
1169.730, 34101.00
1170.818, 34235.00
1171.906, 34174.00
1172.994, 34546.00
1174.082, 34361.00
1175.170, 34555.00
1176.257, 34343.00
1177.344, 34494.00
1178.431, 34163.00
1179.518, 34759.00
1180.605, 34634.00
1181.691, 34960.00
1182.778, 34808.00
1183.864, 34940.00
1184.950, 35017.00
1186.036, 35109.00
1187.122, 35158.70
1188.207, 35112.00
1189.292, 35101.00
1190.378, 35179.00
1191.463, 34887.00
1192.548, 35435.00
1193.632, 35386.00
1194.717, 35510.00
1195.801, 35323.00
1196.886, 35539.00
1197.970, 35507.00
1199.054, 35445.00
1200.137, 35423.00
1201.221, 35544.00
1202.305, 35693.00
1203.388, 35853.00
1204.471, 35964.00
1205.554, 35883.00
1206.637, 35904.00
1207.719, 35885.00
1208.802, 35903.36
1209.884, 36215.00
1210.966, 36043.00
1212.048, 36123.00
1213.130, 36336.00
1214.212, 36100.00
1215.293, 36231.00
1216.374, 36356.00
1217.456, 36322.00
1218.536, 36314.00
1219.617, 36458.00
1220.698, 36488.72
1221.778, 36564.00
1222.859, 36690.00
1223.939, 36850.00
1225.019, 36956.00
1226.099, 36875.00
1227.178, 36882.00
1228.258, 36825.00
1229.337, 36869.00
1230.417, 37050.00
1231.496, 36913.00
1232.574, 37010.00
1233.653, 37070.00
1234.732, 37314.00
1235.810, 37366.00
1236.888, 37391.00
1237.966, 37631.00
1239.044, 37417.00
1240.122, 37253.00
1241.199, 37449.00
1242.277, 37549.00
1243.354, 37680.00
1244.431, 37713.00
1245.508, 37817.00
1246.585, 37839.00
1247.661, 37832.00
1248.738, 37954.00
1249.814, 38002.00
1250.890, 37883.00
1251.966, 38017.00
1253.042, 37840.00
1254.117, 37870.00
1255.193, 38008.00
1256.268, 38074.00
1257.343, 38143.00
1258.418, 38363.00
1259.493, 38497.00
1260.567, 38306.00
1261.642, 38636.00
1262.716, 38529.00
1263.790, 38741.00
1264.864, 38549.00
1265.938, 38622.00
1267.011, 38871.00
1268.085, 38912.00
1269.158, 38914.00
1270.231, 38735.00
1271.304, 38962.00
1272.377, 38742.00
1273.450, 38951.00
1274.522, 39312.00
1275.594, 39194.00
1276.666, 39423.00
1277.738, 39176.00
1278.810, 39411.00
1279.882, 39467.00
1280.953, 39481.00
1282.025, 39574.00
1283.096, 39527.00
1284.167, 39738.00
1285.238, 39667.00
1286.308, 39706.00
1287.379, 39785.00
1288.449, 40059.00
1289.519, 40045.00
1290.589, 40254.00
1291.659, 40173.00
1292.729, 40102.00
1293.798, 40212.34
1294.868, 40499.00
1295.937, 40287.00
1297.006, 40483.00
1298.075, 40515.00
1299.143, 40540.00
1300.212, 40535.00
1301.280, 40695.00
1302.348, 40573.00
1303.416, 40906.00
1304.484, 40869.00
1305.552, 40748.00
1306.620, 40945.00
1307.687, 41126.00
1308.754, 41069.00
1309.821, 41283.00
1310.888, 41131.00
1311.955, 41238.00
1313.021, 41327.00
1314.088, 41440.00
1315.154, 41410.00
1316.220, 41509.48
1317.286, 41572.00
1318.352, 41589.00
1319.417, 41647.00
1320.483, 41631.00
1321.548, 41633.00
1322.613, 41728.00
1323.678, 41911.00
1324.743, 42035.00
1325.807, 41821.00
1326.872, 42095.00
1327.936, 41986.00
1329.000, 42370.00
1330.064, 42402.00
1331.128, 42350.00
1332.191, 42285.00
1333.255, 42602.00
1334.318, 42497.00
1335.381, 42591.00
