##NAMES=Cancrinite
##RRUFFID=R050352
##IDEAL CHEMISTRY=(Na,Ca,[box])_8_(Al_6_Si_6_)O_24_(CO_3_,S^6+^O_4_)_2_&#183;2H_2_O
##LOCALITY=York River, quarry #2, Dungannon Township, Ontario, Canada
##OWNER=RRUFF
##SOURCE=California Institute of Technology
##DESCRIPTION=Pink fragment
##STATUS=The identification of this mineral has been confirmed by X-ray diffraction and chemical analysis
##URL=rruff.info/R050352
##MEASURED CHEMISTRY=(Na_6.07_Ca_1.62_[box]_0.31_)_Σ=8_(Al_0.99_Si_1.01_O_4_)_6_((CO_3_)_0.84_[box]_0.16_)_Σ=2_·2H_2_O
##PIN_ID=M00367
##ORIENTATION=Laser parallel to a* (1 0 0). Fiducial mark perpendicular to laser is parallel to c [0 0 1]
170.9360, 14510.00
172.1610, 14694.00
173.3850, 14711.00
174.6100, 14536.00
175.8340, 14587.00
177.0580, 14793.00
178.2820, 14884.00
179.5050, 14975.00
180.7290, 15039.00
181.9520, 15181.00
183.1760, 15498.00
184.3990, 15517.00
185.6220, 15744.00
186.8450, 15885.00
188.0670, 15933.00
189.2900, 16054.00
190.5120, 16342.00
191.7340, 16233.00
192.9560, 16486.00
194.1780, 16556.00
195.4000, 16659.00
196.6220, 16889.00
197.8430, 16889.00
199.0640, 16986.00
200.2860, 16935.00
201.5070, 17108.00
202.7270, 17169.00
203.9480, 17319.00
205.1690, 17448.64
206.3890, 17499.00
207.6090, 17719.00
208.8290, 18037.00
210.0490, 18193.00
211.2690, 18644.00
212.4890, 19192.00
213.7080, 19560.00
214.9280, 19824.00
216.1470, 20060.00
217.3660, 20382.00
218.5850, 20661.00
219.8030, 20844.00
221.0220, 20905.00
222.2400, 21084.00
223.4590, 21180.00
224.6770, 21280.00
225.8950, 21049.00
227.1120, 21144.00
228.3300, 20718.00
229.5480, 20671.00
230.7650, 20432.00
231.9820, 20409.00
233.1990, 19990.00
234.4160, 19833.00
235.6330, 19808.00
236.8490, 19372.00
238.0660, 19146.00
239.2820, 19206.00
240.4980, 18976.00
241.7140, 18894.00
242.9300, 18652.00
244.1460, 18700.00
245.3610, 18814.00
246.5770, 18936.00
247.7920, 19012.00
249.0070, 19195.00
250.2220, 19451.00
251.4370, 19749.00
252.6510, 20193.00
253.8660, 20667.00
255.0800, 21320.00
256.2940, 21906.00
257.5080, 22633.00
258.7220, 23594.00
259.9360, 24427.08
261.1490, 25436.00
262.3630, 26566.00
263.5760, 27734.00
264.7890, 29202.00
266.0020, 30610.00
267.2150, 32211.00
268.4270, 33514.00
269.6400, 35166.00
270.8520, 36124.00
272.0640, 36995.00
273.2760, 37437.00
274.4880, 37340.00
275.7000, 36700.00
276.9120, 35100.00
278.1230, 33765.00
279.3340, 31900.00
280.5450, 29982.00
281.7560, 28187.00
282.9670, 26357.00
284.1780, 24987.00
285.3880, 24360.00
286.5980, 23421.00
287.8090, 23114.00
289.0190, 23087.00
290.2290, 22853.00
291.4380, 23185.00
292.6480, 23329.00
293.8570, 23744.00
295.0670, 23670.00
296.2760, 23996.00
297.4850, 23983.00
298.6930, 23837.00
299.9020, 23720.00
301.1110, 23370.00
302.3190, 22808.00
303.5270, 22434.00
304.7350, 21733.00
305.9430, 20906.00
307.1510, 20379.00
308.3580, 19566.00
309.5660, 19223.00
310.7730, 18664.00
311.9800, 18085.00
313.1870, 17768.00
314.3940, 17393.00
315.6010, 17223.00
316.8070, 16952.00
318.0130, 16588.00
319.2200, 16484.00
320.4260, 16371.00
321.6310, 16449.00
322.8370, 16580.00
324.0430, 16688.00
325.2480, 16754.00
326.4540, 16966.00
327.6590, 17261.00
328.8640, 17666.00
330.0680, 17898.00
331.2730, 18051.00
332.4780, 18406.00
333.6820, 18478.00
334.8860, 18950.00
336.0900, 18998.00
337.2940, 19424.00
338.4980, 19843.00
339.7010, 20147.00
340.9050, 20636.00
342.1080, 21178.00
343.3110, 21588.00
344.5140, 22047.00
345.7170, 22315.00
346.9200, 22475.00
348.1220, 22620.00
349.3240, 22081.00
350.5270, 21922.00
351.7290, 21423.00
352.9310, 20512.00
354.1320, 19837.00
355.3340, 19099.00
356.5350, 18426.00
357.7370, 17808.00
358.9380, 17391.00
360.1390, 16963.00
361.3400, 16299.00
362.5400, 16114.00
363.7410, 15727.00
364.9410, 15301.00
366.1410, 15289.00
367.3410, 15078.00
368.5410, 15053.00
369.7410, 15019.00
370.9400, 14739.00
372.1400, 15091.00
373.3390, 14795.00
374.5380, 14669.00
375.7370, 14949.00
376.9360, 14793.00
378.1350, 14814.00
379.3330, 14885.00
380.5310, 14934.00
381.7300, 14828.00
382.9280, 14895.00
384.1260, 15071.00
385.3230, 15086.00
386.5210, 15390.00
387.7180, 15427.00
388.9160, 15450.00
390.1130, 15490.00
391.3100, 15798.00
392.5060, 15729.00
393.7030, 16032.00
394.9000, 16163.00
396.0960, 16506.00
397.2920, 16866.00
398.4880, 16837.00
399.6840, 17360.00
400.8800, 17518.00
402.0750, 17564.00
403.2710, 17963.00
404.4660, 18266.00
405.6610, 18674.00
406.8560, 19298.00
408.0510, 19954.00
409.2450, 20439.00
410.4400, 21309.00
411.6340, 22170.00
412.8280, 23057.00
414.0220, 23848.00
415.2160, 24513.00
416.4100, 25173.00
417.6030, 25798.00
418.7970, 25715.00
419.9900, 25680.00
421.1830, 25246.00
422.3760, 24307.00
423.5690, 23648.00
424.7610, 22855.00
425.9540, 22044.00
427.1460, 21223.00
428.3380, 20662.00
429.5300, 20114.00
430.7220, 19747.00
431.9140, 19206.00
433.1050, 18867.00
434.2970, 18599.00
435.4880, 18484.00
436.6790, 18143.00
437.8700, 18140.00
439.0610, 18092.00
440.2510, 17757.00
441.4420, 17776.00
442.6320, 17686.00
443.8220, 17556.00
445.0120, 17589.00
446.2020, 17532.00
447.3910, 17789.00
448.5810, 17762.00
449.7700, 18047.00
450.9600, 18265.00
452.1490, 18775.00
453.3370, 19459.00
454.5260, 19939.00
455.7150, 20730.00
456.9030, 21182.00
458.0910, 22008.00
459.2800, 22650.00
460.4670, 22850.00
461.6550, 23028.00
462.8430, 22855.00
464.0300, 22506.00
465.2180, 21955.00
466.4050, 21367.00
467.5920, 20796.00
468.7790, 20526.00
469.9650, 20004.00
471.1520, 19786.00
472.3380, 19796.00
473.5250, 19852.00
474.7110, 19960.00
475.8970, 19911.00
477.0820, 20198.00
478.2680, 20455.00
479.4540, 20669.00
480.6390, 21194.00
481.8240, 21488.00
483.0090, 21876.00
484.1940, 22491.00
485.3780, 23069.00
486.5630, 23758.55
487.7470, 24523.00
488.9320, 25342.00
490.1160, 26240.00
491.3000, 27175.00
492.4830, 27521.00
493.6670, 28483.00
494.8500, 28794.00
496.0340, 29105.00
497.2170, 28874.00
498.4000, 28611.00
499.5820, 28622.00
500.7650, 28108.00
501.9480, 27345.00
503.1300, 26793.00
504.3120, 26295.00
505.4940, 25574.00
506.6760, 24897.00
507.8580, 24151.00
509.0390, 23580.00
510.2210, 22971.08
511.4020, 22391.00
512.5830, 21919.00
513.7640, 21337.00
514.9450, 20910.00
516.1250, 20441.82
517.3060, 19940.00
518.4860, 19642.00
519.6660, 19409.00
520.8460, 19168.00
522.0260, 18767.00
523.2060, 18618.00
524.3850, 18209.00
525.5650, 18070.00
526.7440, 17878.00
527.9230, 17858.00
529.1020, 17678.00
530.2810, 17655.00
531.4590, 17509.09
532.6380, 17343.00
533.8160, 17270.00
534.9940, 17092.00
536.1720, 17043.00
537.3500, 17011.19
538.5270, 16900.00
539.7050, 16972.00
540.8820, 16913.00
542.0590, 16807.00
543.2360, 16878.00
544.4130, 16859.00
545.5900, 16848.00
546.7660, 16847.38
547.9430, 16867.00
549.1190, 16809.00
550.2950, 16818.00
551.4710, 16828.00
552.6470, 16777.00
553.8220, 16695.00
554.9980, 16653.00
556.1730, 16768.00
557.3480, 16706.47
558.5230, 16614.00
559.6980, 16758.00
560.8730, 16703.00
562.0470, 16802.00
563.2220, 16838.00
564.3960, 16798.00
565.5700, 16866.00
566.7440, 16845.38
567.9170, 16983.00
569.0910, 16886.00
570.2640, 16747.00
571.4380, 16858.00
572.6110, 16935.00
573.7840, 16915.00
574.9570, 16950.93
576.1290, 17047.00
577.3020, 16921.00
578.4740, 16981.00
579.6460, 16979.00
580.8180, 16938.00
581.9900, 17110.00
583.1620, 16820.00
584.3330, 16810.00
585.5040, 16842.00
586.6760, 17068.00
587.8470, 16927.00
589.0180, 17016.00
590.1880, 16993.00
591.3590, 16851.00
592.5290, 16886.00
593.7000, 16930.00
594.8700, 17043.00
596.0400, 17043.00
597.2090, 17158.00
598.3790, 17185.00
599.5490, 17207.75
600.7180, 17121.00
601.8870, 17249.00
603.0560, 17209.00
604.2250, 17241.00
605.3940, 17220.00
606.5620, 17095.00
607.7300, 17329.00
608.8990, 17193.00
610.0670, 17269.00
611.2350, 17412.00
612.4020, 17350.00
613.5700, 17286.00
614.7370, 17278.00
615.9050, 17190.00
617.0720, 17522.00
618.2390, 17444.00
619.4060, 17343.00
620.5720, 17603.00
621.7390, 17458.00
622.9050, 17601.00
624.0710, 17489.00
625.2370, 17360.00
626.4030, 17562.00
627.5690, 17402.00
628.7340, 17498.00
629.9000, 17404.00
631.0650, 17492.00
632.2300, 17594.00
633.3950, 17630.00
634.5600, 17594.00
635.7240, 17478.00
636.8890, 17685.00
638.0530, 17681.00
639.2170, 17787.00
640.3810, 17664.00
641.5450, 17902.00
642.7080, 17668.00
643.8720, 17947.00
645.0350, 17849.00
646.1980, 17881.00
647.3610, 17814.00
648.5240, 17986.00
649.6870, 17733.00
650.8490, 17991.00
652.0120, 17884.00
653.1740, 18102.00
654.3360, 17984.00
655.4980, 18236.00
656.6600, 18098.00
657.8210, 18048.00
658.9830, 18194.00
660.1440, 18097.00
661.3050, 18201.00
662.4660, 18223.00
663.6270, 18305.00
664.7870, 18377.00
665.9480, 18460.00
667.1080, 18492.55
668.2680, 18576.00
669.4280, 18576.00
670.5880, 18649.00
671.7480, 18752.00
672.9070, 18732.00
674.0670, 18951.00
675.2260, 19015.00
676.3850, 19105.00
677.5440, 19246.00
678.7030, 19444.00
679.8610, 19508.00
681.0200, 19465.00
682.1780, 19632.00
683.3360, 19447.00
684.4940, 19672.00
685.6520, 19589.00
686.8090, 19455.00
687.9670, 19542.00
689.1240, 19281.00
690.2810, 19501.00
691.4380, 19297.00
692.5950, 19407.00
693.7520, 19406.00
694.9080, 19743.00
696.0650, 19522.00
697.2210, 19630.00
698.3770, 19520.00
699.5330, 19594.00
700.6880, 19498.00
701.8440, 19511.00
702.9990, 19541.00
704.1550, 19496.00
705.3100, 19521.00
706.4650, 19502.00
707.6190, 19503.23
708.7740, 19584.00
709.9290, 19502.00
711.0830, 19648.00
712.2370, 19634.00
713.3910, 19763.00
714.5450, 19829.00
715.6980, 19692.00
716.8520, 20030.00
718.0050, 20175.00
719.1580, 19831.00
720.3110, 19916.00
721.4640, 19714.00
722.6170, 19747.00
723.7700, 19435.00
724.9220, 19622.00
726.0740, 19569.00
727.2260, 19565.00
728.3780, 19672.00
729.5300, 19507.00
730.6810, 19497.00
731.8330, 19639.00
732.9840, 19786.00
734.1350, 19587.00
735.2860, 19811.00
736.4370, 19693.00
737.5880, 19653.00
738.7380, 19900.00
739.8880, 19812.00
741.0390, 19807.00
742.1890, 19828.00
743.3380, 19808.00
744.4880, 19751.00
745.6380, 19897.60
746.7870, 19894.00
747.9360, 20156.00
749.0850, 20243.00
750.2340, 20320.00
751.3830, 20032.00
752.5310, 20320.00
753.6800, 20315.00
754.8280, 20463.00
755.9760, 20551.00
757.1240, 20616.00
758.2720, 20922.00
759.4190, 20983.00
760.5670, 21142.00
761.7140, 21322.00
762.8610, 21659.00
764.0080, 21934.00
765.1550, 22095.00
766.3020, 22590.00
767.4480, 22853.00
768.5950, 23465.00
769.7410, 23803.00
770.8870, 24183.00
772.0330, 24186.00
773.1780, 24367.00
774.3240, 24239.00
775.4690, 24010.00
776.6140, 23674.00
777.7590, 23482.00
778.9040, 23084.00
780.0490, 22373.00
781.1940, 22208.00
782.3380, 21671.00
783.4820, 21756.00
784.6260, 21507.00
785.7700, 21207.00
786.9140, 21126.00
788.0580, 21237.00
789.2010, 21426.00
790.3450, 21093.00
791.4880, 21052.00
792.6310, 20965.00
793.7730, 20788.00
794.9160, 21135.00
796.0590, 21168.00
797.2010, 20975.00
798.3430, 21046.00
799.4850, 21066.00
800.6270, 20933.00
801.7690, 21044.00
802.9100, 21121.00
804.0520, 21087.00
805.1930, 21110.00
806.3340, 21201.00
807.4750, 21198.00
808.6160, 21220.75
809.7560, 21244.00
810.8970, 21230.00
812.0370, 21345.00
813.1770, 21370.42
814.3170, 21391.64
815.4570, 21355.00
816.5960, 21422.00
817.7360, 21395.00
818.8750, 21389.00
820.0140, 21416.00
821.1530, 21422.00
822.2920, 21440.00
823.4310, 21475.02
824.5690, 21560.00
825.7070, 21502.00
826.8460, 21556.00
827.9840, 21474.00
829.1220, 21659.00
830.2590, 21478.00
831.3970, 21697.00
832.5340, 21778.00
833.6710, 21784.00
834.8080, 21730.00
835.9450, 21703.00
837.0820, 21745.67
838.2190, 21820.00
839.3550, 21812.00
840.4910, 21858.00
841.6270, 21841.00
842.7630, 21920.00
843.8990, 22122.00
845.0350, 22114.00
846.1700, 22238.00
847.3060, 22116.00
848.4410, 22192.00
849.5760, 22251.00
850.7100, 22215.00
851.8450, 22300.00
852.9800, 22376.00
854.1140, 22257.00
855.2480, 22317.00
856.3820, 22275.00
857.5160, 22399.00
858.6500, 22422.00
859.7830, 22442.00
860.9170, 22494.00
862.0500, 22515.00
863.1830, 22479.00
864.3160, 22609.00
865.4480, 22649.00
866.5810, 22724.00
867.7130, 22665.00
868.8460, 22855.00
869.9780, 22954.00
871.1100, 22915.00
872.2410, 22788.00
873.3730, 22812.00
874.5050, 22885.00
875.6360, 22904.00
876.7670, 22945.34
877.8980, 23031.00
879.0290, 23062.00
880.1590, 23074.00
881.2900, 23112.14
882.4200, 23051.00
883.5500, 23130.00
884.6800, 23158.68
885.8100, 23148.00
886.9400, 23231.00
888.0690, 23218.00
889.1990, 23243.00
890.3280, 23397.00
891.4570, 23389.00
892.5860, 23621.00
893.7140, 23451.00
894.8430, 23626.00
895.9710, 23707.00
897.1000, 23664.00
898.2280, 23628.00
899.3560, 23539.00
900.4830, 23675.00
901.6110, 23935.00
902.7380, 23851.00
903.8660, 23964.00
904.9930, 23855.00
906.1200, 23863.00
907.2460, 24209.00
908.3730, 24281.00
909.5000, 24353.00
910.6260, 24324.00
911.7520, 24447.00
912.8780, 24444.00
914.0040, 24591.00
915.1290, 24966.00
916.2550, 24927.00
917.3800, 25139.00
918.5050, 25579.00
919.6300, 25405.00
920.7550, 25798.00
921.8800, 25969.00
923.0040, 26148.00
924.1290, 26599.00
925.2530, 27029.00
926.3770, 26997.00
927.5010, 27280.00
928.6250, 27363.00
929.7480, 27485.00
930.8720, 27562.00
931.9950, 27723.00
933.1180, 27928.00
934.2410, 27924.00
935.3640, 27819.00
936.4860, 27631.00
937.6090, 27498.00
938.7310, 27925.00
939.8530, 27359.00
940.9750, 27554.00
942.0970, 27286.00
943.2180, 27770.00
944.3400, 27712.00
945.4610, 27986.00
946.5820, 28154.00
947.7030, 28415.00
948.8240, 28846.00
949.9450, 29220.00
951.0650, 29552.00
952.1860, 30077.00
953.3060, 30189.00
954.4260, 30438.00
955.5460, 30345.00
956.6650, 30338.00
957.7850, 30471.00
958.9040, 29989.00
960.0230, 29964.00
961.1420, 29797.00
962.2610, 29789.00
963.3800, 29643.00
964.4990, 29570.00
965.6170, 29748.00
966.7350, 29481.00
967.8530, 29442.00
968.9710, 29754.00
970.0890, 29651.00
971.2070, 29705.00
972.3240, 29825.00
973.4410, 29919.00
974.5580, 30046.00
975.6750, 30019.00
976.7920, 30320.00
977.9090, 30156.00
979.0250, 30112.00
980.1410, 30276.00
981.2580, 30218.00
982.3740, 30546.00
983.4890, 30486.00
984.6050, 30638.00
985.7200, 30939.00
986.8360, 30891.00
987.9510, 30859.00
989.0660, 30953.00
990.1810, 30969.00
991.2950, 31054.00
992.4100, 30809.00
993.5240, 31007.00
994.6390, 30867.00
995.7530, 30797.00
996.8660, 30927.00
997.9800, 30724.00
999.0940, 31035.00
1000.207, 31076.00
1001.320, 30724.00
1002.433, 30912.00
1003.546, 30932.00
1004.659, 30735.00
1005.772, 30648.00
1006.884, 30769.00
1007.996, 30981.00
1009.108, 30827.00
1010.220, 30743.00
1011.332, 30812.00
1012.444, 30381.00
1013.555, 30197.00
1014.666, 30301.00
1015.777, 30285.00
1016.888, 30276.00
1017.999, 30227.00
1019.110, 30018.00
1020.220, 30007.00
1021.331, 29945.00
1022.441, 29842.00
1023.551, 29818.00
1024.661, 29806.15
1025.770, 29826.47
1026.880, 29912.00
1027.989, 29949.00
1029.098, 30165.00
1030.207, 30259.00
1031.316, 30331.00
1032.425, 30551.00
1033.533, 31128.00
1034.642, 31405.00
1035.750, 31933.00
1036.858, 33209.00
1037.966, 34457.00
1039.073, 35759.00
1040.181, 37308.00
1041.288, 38625.00
1042.396, 38795.00
1043.503, 38500.00
1044.610, 38133.00
1045.716, 38527.00
1046.823, 39992.00
1047.929, 42495.00
1049.036, 46282.00
1050.142, 50622.00
1051.248, 54688.00
1052.353, 58798.00
1053.459, 61721.00
1054.564, 63413.00
1055.670, 63753.00
1056.775, 63420.00
1057.880, 61503.00
1058.985, 57690.00
1060.089, 52062.00
1061.194, 46326.00
1062.298, 41347.00
1063.402, 37329.00
1064.506, 34680.00
1065.610, 32841.00
1066.713, 31762.00
1067.817, 31213.00
1068.920, 30610.00
1070.023, 30610.00
1071.126, 30228.00
1072.229, 30224.00
1073.332, 30018.00
1074.435, 30082.00
1075.537, 29903.00
1076.639, 30062.00
1077.741, 30053.00
1078.843, 30079.00
1079.945, 30082.00
1081.046, 30161.00
1082.148, 30237.00
1083.249, 30463.00
1084.350, 30578.00
1085.451, 30743.00
1086.551, 30572.00
1087.652, 30423.00
1088.752, 30336.00
1089.853, 30626.00
1090.953, 30437.00
1092.053, 30584.00
1093.152, 30304.00
1094.252, 30521.00
1095.351, 30830.00
1096.451, 30599.00
1097.550, 30764.00
1098.649, 30637.00
1099.748, 30455.00
1100.846, 30511.00
1101.945, 30563.00
1103.043, 30542.00
1104.141, 30479.00
1105.239, 30433.00
1106.337, 30466.00
1107.434, 30536.00
1108.532, 30625.00
1109.629, 30563.00
1110.726, 30450.00
1111.823, 30513.00
1112.920, 30807.00
1114.017, 30536.00
1115.113, 30802.00
1116.210, 30821.00
1117.306, 30777.00
1118.402, 30953.00
1119.498, 31228.00
1120.593, 31158.00
1121.689, 31285.00
1122.784, 31407.00
1123.879, 31426.00
1124.974, 31445.00
1126.069, 31308.00
1127.164, 31202.00
1128.259, 31132.00
1129.353, 31010.48
1130.447, 31111.00
1131.541, 30846.00
1132.635, 31101.00
1133.729, 31124.00
1134.822, 30996.00
1135.916, 31142.00
1137.009, 31097.57
1138.102, 31158.98
1139.195, 31112.00
1140.288, 31303.00
1141.380, 31282.00
1142.473, 31348.00
1143.565, 31483.00
1144.657, 31484.00
1145.749, 31360.00
1146.841, 31476.00
1147.932, 31831.00
1149.024, 31542.00
1150.115, 31806.00
1151.206, 31696.00
1152.297, 31684.00
1153.388, 31506.00
1154.479, 31813.00
1155.569, 31928.00
1156.659, 31745.00
1157.750, 32014.00
1158.839, 31723.00
1159.929, 31857.00
1161.019, 31978.00
1162.108, 31900.00
1163.198, 31993.00
1164.287, 31998.00
1165.376, 31999.00
1166.465, 32057.00
1167.553, 32206.00
1168.642, 32068.00
1169.730, 32340.00
1170.818, 32385.00
1171.906, 32482.00
1172.994, 32367.00
1174.082, 32361.00
1175.170, 32554.00
1176.257, 32480.00
1177.344, 32717.00
1178.431, 32448.00
1179.518, 32556.00
1180.605, 32948.00
1181.691, 32790.00
1182.778, 32816.00
1183.864, 33109.00
1184.950, 32793.00
1186.036, 32879.00
1187.122, 33042.00
1188.207, 32834.00
1189.292, 33306.00
1190.378, 33237.00
1191.463, 33198.00
1192.548, 33195.00
1193.632, 33222.00
1194.717, 33271.00
1195.801, 33331.00
1196.886, 33443.00
1197.970, 33346.00
1199.054, 33448.00
1200.137, 33582.00
1201.221, 33671.00
1202.305, 33420.00
1203.388, 33595.00
1204.471, 33673.00
1205.554, 33602.00
1206.637, 33855.00
1207.719, 33741.00
1208.802, 33961.00
1209.884, 33870.00
1210.966, 33798.00
1212.048, 34250.00
1213.130, 33967.00
1214.212, 34199.00
1215.293, 34244.00
1216.374, 34245.81
1217.456, 34395.00
1218.536, 34397.00
1219.617, 34218.00
1220.698, 34274.00
1221.778, 34306.00
1222.859, 34453.00
1223.939, 34309.00
1225.019, 34634.00
1226.099, 34804.00
1227.178, 34580.00
1228.258, 34851.00
1229.337, 34653.00
1230.417, 34548.00
1231.496, 34706.00
1232.574, 34783.00
1233.653, 34782.00
1234.732, 34985.00
1235.810, 34955.00
1236.888, 34740.00
1237.966, 34959.00
1239.044, 34897.00
1240.122, 35144.00
1241.199, 34960.00
1242.277, 35093.00
1243.354, 35077.00
1244.431, 35195.00
1245.508, 35314.00
1246.585, 35430.00
1247.661, 35500.10
1248.738, 35546.31
1249.814, 35612.00
1250.890, 35579.00
1251.966, 35596.00
1253.042, 35599.00
1254.117, 35593.39
1255.193, 35803.00
1256.268, 35649.00
1257.343, 35618.00
1258.418, 35749.00
1259.493, 35648.00
1260.567, 35923.00
1261.642, 36135.00
1262.716, 35793.00
1263.790, 35959.00
1264.864, 36226.00
1265.938, 36146.00
1267.011, 36117.00
1268.085, 36362.00
1269.158, 36271.00
1270.231, 36218.00
1271.304, 36249.00
1272.377, 36352.00
1273.450, 36366.00
1274.522, 36379.00
1275.594, 36417.00
1276.666, 36634.00
1277.738, 36616.60
1278.810, 36808.00
1279.882, 36687.00
1280.953, 36677.00
1282.025, 36643.00
1283.096, 36861.00
1284.167, 36893.00
1285.238, 36991.00
1286.308, 37134.18
1287.379, 37030.00
1288.449, 37285.00
1289.519, 37147.00
1290.589, 37011.00
1291.659, 37265.00
1292.729, 37366.00
1293.798, 37658.00
1294.868, 37570.60
1295.937, 37434.00
1297.006, 37496.00
1298.075, 37345.00
1299.143, 37535.00
1300.212, 37416.00
1301.280, 37634.00
1302.348, 37673.00
1303.416, 37941.00
1304.484, 37845.00
1305.552, 37819.00
1306.620, 37901.66
1307.687, 38130.00
1308.754, 37939.00
1309.821, 38075.00
1310.888, 38142.00
1311.955, 38115.00
1313.021, 38159.00
1314.088, 38100.00
1315.154, 38232.00
1316.220, 38385.00
1317.286, 38510.00
1318.352, 38473.00
1319.417, 38715.00
1320.483, 38820.00
1321.548, 38581.00
1322.613, 38588.00
1323.678, 38912.00
1324.743, 38753.00
1325.807, 38673.00
1326.872, 39000.00
1327.936, 38987.00
1329.000, 39022.00
1330.064, 39282.00
1331.128, 39120.00
1332.191, 39166.00
1333.255, 39251.00
1334.318, 39292.00
1335.381, 39287.00
