##NAMES=Cancrinite
##RRUFFID=R050352
##IDEAL CHEMISTRY=(Na,Ca,[box])_8_(Al_6_Si_6_)O_24_(CO_3_,S^6+^O_4_)_2_&#183;2H_2_O
##LOCALITY=York River, quarry #2, Dungannon Township, Ontario, Canada
##OWNER=RRUFF
##SOURCE=California Institute of Technology
##DESCRIPTION=Pink fragment
##STATUS=The identification of this mineral has been confirmed by X-ray diffraction and chemical analysis
##URL=rruff.info/R050352
##MEASURED CHEMISTRY=(Na_6.07_Ca_1.62_[box]_0.31_)_Σ=8_(Al_0.99_Si_1.01_O_4_)_6_((CO_3_)_0.84_[box]_0.16_)_Σ=2_·2H_2_O
##PIN_ID=M00367
##ORIENTATION=Laser parallel to a* (1 0 0). Fiducial mark perpendicular to laser is parallel to c [0 0 1]
170.9360, 8854.000
172.1610, 8911.000
173.3850, 9001.000
174.6100, 9128.000
175.8340, 9170.000
177.0580, 9248.000
178.2820, 9377.000
179.5050, 9534.000
180.7290, 9638.000
181.9520, 9806.000
183.1760, 9859.000
184.3990, 9903.000
185.6220, 10039.00
186.8450, 10064.00
188.0670, 10244.00
189.2900, 10424.00
190.5120, 10528.00
191.7340, 10695.00
192.9560, 10698.00
194.1780, 10775.00
195.4000, 10767.00
196.6220, 10842.00
197.8430, 10761.00
199.0640, 10572.00
200.2860, 10620.00
201.5070, 10375.00
202.7270, 10269.00
203.9480, 10106.00
205.1690, 10027.00
206.3890, 9940.000
207.6090, 10003.00
208.8290, 9964.000
210.0490, 10085.00
211.2690, 10193.00
212.4890, 10334.00
213.7080, 10428.58
214.9280, 10510.00
216.1470, 10636.00
217.3660, 10745.00
218.5850, 10862.00
219.8030, 10949.00
221.0220, 11135.00
222.2400, 11030.00
223.4590, 11072.00
224.6770, 11168.00
225.8950, 11072.00
227.1120, 11196.00
228.3300, 11290.00
229.5480, 11263.00
230.7650, 11078.00
231.9820, 11213.00
233.1990, 11121.00
234.4160, 10999.00
235.6330, 11009.00
236.8490, 11060.00
238.0660, 10974.00
239.2820, 10971.00
240.4980, 10897.00
241.7140, 11065.00
242.9300, 11162.00
244.1460, 11325.00
245.3610, 11298.00
246.5770, 11394.00
247.7920, 11396.00
249.0070, 11735.00
250.2220, 11959.00
251.4370, 12221.00
252.6510, 12417.00
253.8660, 12718.00
255.0800, 13161.00
256.2940, 13581.00
257.5080, 14194.00
258.7220, 14744.00
259.9360, 15217.00
261.1490, 15653.00
262.3630, 16337.00
263.5760, 17046.00
264.7890, 18136.00
266.0020, 18716.00
267.2150, 19723.00
268.4270, 20561.00
269.6400, 21326.00
270.8520, 22090.00
272.0640, 22505.00
273.2760, 22710.00
274.4880, 22518.00
275.7000, 22113.00
276.9120, 21215.00
278.1230, 19908.00
279.3340, 18656.00
280.5450, 17432.00
281.7560, 16522.00
282.9670, 15900.00
284.1780, 15043.00
285.3880, 14519.00
286.5980, 14374.00
287.8090, 14453.00
289.0190, 14435.00
290.2290, 14572.00
291.4380, 14547.00
292.6480, 14800.00
293.8570, 14993.00
295.0670, 14970.00
296.2760, 15242.00
297.4850, 15286.00
298.6930, 15078.00
299.9020, 14916.00
301.1110, 14484.00
302.3190, 14316.00
303.5270, 13716.00
304.7350, 13253.00
305.9430, 12844.00
307.1510, 12257.00
308.3580, 11918.00
309.5660, 11524.00
310.7730, 11227.00
311.9800, 11063.00
313.1870, 10878.00
314.3940, 10639.00
315.6010, 10442.00
316.8070, 10234.00
318.0130, 10097.00
319.2200, 10023.00
320.4260, 10156.00
321.6310, 10026.00
322.8370, 10046.00
324.0430, 9966.000
325.2480, 10122.00
326.4540, 10133.00
327.6590, 10379.00
328.8640, 10501.00
330.0680, 10572.00
331.2730, 10767.00
332.4780, 10799.00
333.6820, 10741.00
334.8860, 10826.00
336.0900, 10795.00
337.2940, 10674.00
338.4980, 10767.00
339.7010, 10679.00
340.9050, 10629.00
342.1080, 10573.00
343.3110, 10770.00
344.5140, 10636.00
345.7170, 10671.00
346.9200, 10547.00
348.1220, 10522.00
349.3240, 10400.00
350.5270, 10291.00
351.7290, 10130.00
352.9310, 10089.00
354.1320, 9813.000
355.3340, 9828.000
356.5350, 9666.000
357.7370, 9446.000
358.9380, 9377.000
360.1390, 9134.000
361.3400, 9167.000
362.5400, 9171.000
363.7410, 9082.000
364.9410, 8990.000
366.1410, 8865.000
367.3410, 9018.000
368.5410, 9047.000
369.7410, 9019.000
370.9400, 9184.000
372.1400, 8858.000
373.3390, 9013.000
374.5380, 9060.000
375.7370, 9066.000
376.9360, 9136.000
378.1350, 9162.000
379.3330, 9085.000
380.5310, 9226.000
381.7300, 9200.000
382.9280, 9230.000
384.1260, 9332.000
385.3230, 9295.000
386.5210, 9452.000
387.7180, 9429.000
388.9160, 9466.000
390.1130, 9635.000
391.3100, 9732.000
392.5060, 9864.000
393.7030, 10073.00
394.9000, 10252.00
396.0960, 10531.00
397.2920, 10790.00
398.4880, 10857.00
399.6840, 11254.00
400.8800, 11518.00
402.0750, 11635.00
403.2710, 11840.00
404.4660, 12133.00
405.6610, 12450.00
406.8560, 12816.67
408.0510, 13294.57
409.2450, 13729.00
410.4400, 14406.00
411.6340, 15064.00
412.8280, 15764.00
414.0220, 16684.00
415.2160, 17335.00
416.4100, 17759.00
417.6030, 18020.00
418.7970, 18104.78
419.9900, 17763.00
421.1830, 17661.00
422.3760, 17010.00
423.5690, 16194.00
424.7610, 15409.00
425.9540, 14659.00
427.1460, 14251.00
428.3380, 13662.00
429.5300, 13295.00
430.7220, 12881.00
431.9140, 12609.00
433.1050, 12321.43
434.2970, 12163.00
435.4880, 11873.00
436.6790, 11738.92
437.8700, 11568.00
439.0610, 11431.00
440.2510, 11245.00
441.4420, 11120.00
442.6320, 10982.00
443.8220, 10893.00
445.0120, 10834.50
446.2020, 10783.00
447.3910, 10788.00
448.5810, 10762.25
449.7700, 10789.35
450.9600, 10775.00
452.1490, 10913.00
453.3370, 10955.00
454.5260, 11122.00
455.7150, 11126.00
456.9030, 11445.00
458.0910, 11707.00
459.2800, 11849.00
460.4670, 12160.00
461.6550, 12394.00
462.8430, 12447.00
464.0300, 12413.00
465.2180, 12276.00
466.4050, 12171.00
467.5920, 12092.00
468.7790, 12067.97
469.9650, 12076.21
471.1520, 12135.00
472.3380, 12223.00
473.5250, 12379.00
474.7110, 12569.00
475.8970, 12575.00
477.0820, 12822.00
478.2680, 12964.00
479.4540, 13306.00
480.6390, 13686.00
481.8240, 13878.00
483.0090, 14478.00
484.1940, 14898.00
485.3780, 15598.00
486.5630, 16129.00
487.7470, 16710.00
488.9320, 17291.00
490.1160, 18084.00
491.3000, 18599.00
492.4830, 19082.00
493.6670, 19475.00
494.8500, 19702.00
496.0340, 19818.00
497.2170, 19662.00
498.4000, 19367.00
499.5820, 19081.00
500.7650, 18611.00
501.9480, 18030.00
503.1300, 17324.00
504.3120, 16908.00
505.4940, 16430.00
506.6760, 15933.00
507.8580, 15358.00
509.0390, 14876.00
510.2210, 14464.00
511.4020, 14124.00
512.5830, 13611.00
513.7640, 13493.00
514.9450, 13017.00
516.1250, 12693.00
517.3060, 12381.00
518.4860, 12020.00
519.6660, 11908.00
520.8460, 11615.00
522.0260, 11447.00
523.2060, 11203.00
524.3850, 11245.00
525.5650, 11055.00
526.7440, 11001.00
527.9230, 10930.00
529.1020, 10809.00
530.2810, 10643.00
531.4590, 10635.00
532.6380, 10461.00
533.8160, 10402.00
534.9940, 10311.00
536.1720, 10255.00
537.3500, 10411.00
538.5270, 10248.00
539.7050, 10281.00
540.8820, 10304.00
542.0590, 10191.00
543.2360, 10171.00
544.4130, 10129.00
545.5900, 10140.00
546.7660, 10214.00
547.9430, 10230.00
549.1190, 10230.00
550.2950, 10091.00
551.4710, 10172.00
552.6470, 10179.00
553.8220, 10148.00
554.9980, 10266.00
556.1730, 10106.00
557.3480, 10175.00
558.5230, 10145.00
559.6980, 10135.00
560.8730, 10195.00
562.0470, 10156.00
563.2220, 10160.00
564.3960, 10130.00
565.5700, 10165.00
566.7440, 10186.00
567.9170, 10214.72
569.0910, 10163.00
570.2640, 10292.00
571.4380, 10278.00
572.6110, 10287.00
573.7840, 10155.00
574.9570, 10148.00
576.1290, 10362.00
577.3020, 10254.00
578.4740, 10341.00
579.6460, 10265.00
580.8180, 10228.00
581.9900, 10193.00
583.1620, 10221.00
584.3330, 10207.00
585.5040, 10224.00
586.6760, 10345.00
587.8470, 10148.00
589.0180, 10209.00
590.1880, 10385.00
591.3590, 10184.00
592.5290, 10138.00
593.7000, 10205.00
594.8700, 10176.00
596.0400, 10249.00
597.2090, 10327.00
598.3790, 10309.00
599.5490, 10262.00
600.7180, 10396.00
601.8870, 10395.00
603.0560, 10275.00
604.2250, 10361.00
605.3940, 10318.00
606.5620, 10304.85
607.7300, 10391.00
608.8990, 10311.00
610.0670, 10405.00
611.2350, 10450.00
612.4020, 10457.00
613.5700, 10541.00
614.7370, 10444.00
615.9050, 10443.00
617.0720, 10516.00
618.2390, 10510.00
619.4060, 10418.00
620.5720, 10487.00
621.7390, 10465.59
622.9050, 10498.00
624.0710, 10504.00
625.2370, 10517.00
626.4030, 10539.00
627.5690, 10536.00
628.7340, 10632.00
629.9000, 10610.00
631.0650, 10454.00
632.2300, 10551.00
633.3950, 10611.00
634.5600, 10496.00
635.7240, 10589.00
636.8890, 10579.00
638.0530, 10646.00
639.2170, 10691.00
640.3810, 10746.00
641.5450, 10751.00
642.7080, 10764.75
643.8720, 10701.00
645.0350, 10762.00
646.1980, 10742.00
647.3610, 10762.00
648.5240, 10760.23
649.6870, 10676.00
650.8490, 10773.00
652.0120, 10718.00
653.1740, 10798.00
654.3360, 10887.00
655.4980, 10960.00
656.6600, 10983.60
657.8210, 11121.00
658.9830, 10973.10
660.1440, 10901.00
661.3050, 10813.00
662.4660, 10890.00
663.6270, 10875.00
664.7870, 10888.00
665.9480, 11100.00
667.1080, 10997.00
668.2680, 11024.00
669.4280, 11199.00
670.5880, 11157.00
671.7480, 11165.00
672.9070, 11316.00
674.0670, 11325.00
675.2260, 11474.00
676.3850, 11487.00
677.5440, 11688.00
678.7030, 11674.00
679.8610, 11841.00
681.0200, 11905.00
682.1780, 12193.00
683.3360, 12187.00
684.4940, 12183.00
685.6520, 12203.00
686.8090, 12038.00
687.9670, 12027.00
689.1240, 11995.46
690.2810, 11989.00
691.4380, 11946.00
692.5950, 11985.00
693.7520, 11942.00
694.9080, 12107.00
696.0650, 12191.00
697.2210, 11983.00
698.3770, 12155.00
699.5330, 11978.00
700.6880, 12041.00
701.8440, 11931.00
702.9990, 11890.00
704.1550, 12015.00
705.3100, 11895.00
706.4650, 11904.00
707.6190, 11883.00
708.7740, 11811.00
709.9290, 11767.00
711.0830, 11864.00
712.2370, 11965.00
713.3910, 12135.00
714.5450, 12397.00
715.6980, 12564.00
716.8520, 12498.00
718.0050, 12661.00
719.1580, 12366.00
720.3110, 12162.00
721.4640, 12217.00
722.6170, 11943.00
723.7700, 11812.00
724.9220, 11855.00
726.0740, 11856.00
727.2260, 11835.00
728.3780, 11822.76
729.5300, 11681.00
730.6810, 11739.00
731.8330, 11737.00
732.9840, 11673.00
734.1350, 11815.00
735.2860, 11733.00
736.4370, 11742.00
737.5880, 11780.00
738.7380, 11725.00
739.8880, 11867.00
741.0390, 11895.00
742.1890, 11797.00
743.3380, 11885.00
744.4880, 11913.00
745.6380, 11801.00
746.7870, 11810.00
747.9360, 11894.00
749.0850, 11868.76
750.2340, 11909.00
751.3830, 11938.00
752.5310, 12013.00
753.6800, 12034.00
754.8280, 12067.00
755.9760, 12159.00
757.1240, 12168.00
758.2720, 12159.00
759.4190, 12174.00
760.5670, 12223.00
761.7140, 12372.00
762.8610, 12238.00
764.0080, 12439.00
765.1550, 12482.00
766.3020, 12724.00
767.4480, 12553.00
768.5950, 12755.00
769.7410, 12824.00
770.8870, 12987.00
772.0330, 13043.00
773.1780, 12995.00
774.3240, 12942.00
775.4690, 12872.00
776.6140, 12848.00
777.7590, 12738.67
778.9040, 12662.00
780.0490, 12572.00
781.1940, 12438.00
782.3380, 12436.00
783.4820, 12458.00
784.6260, 12365.00
785.7700, 12338.00
786.9140, 12345.00
788.0580, 12335.00
789.2010, 12327.00
790.3450, 12294.00
791.4880, 12377.00
792.6310, 12373.00
793.7730, 12575.00
794.9160, 12324.00
796.0590, 12289.00
797.2010, 12431.00
798.3430, 12416.00
799.4850, 12455.00
800.6270, 12426.00
801.7690, 12578.00
802.9100, 12571.00
804.0520, 12558.00
805.1930, 12605.00
806.3340, 12523.00
807.4750, 12452.00
808.6160, 12512.00
809.7560, 12556.00
810.8970, 12594.00
812.0370, 12674.00
813.1770, 12700.00
814.3170, 12593.00
815.4570, 12629.00
816.5960, 12668.00
817.7360, 12586.00
818.8750, 12764.00
820.0140, 12805.00
821.1530, 12645.00
822.2920, 12761.00
823.4310, 12729.00
824.5690, 12674.00
825.7070, 12696.00
826.8460, 12907.00
827.9840, 12670.00
829.1220, 12936.00
830.2590, 12882.00
831.3970, 12765.00
832.5340, 12907.00
833.6710, 12888.00
834.8080, 12884.00
835.9450, 12853.00
837.0820, 12881.00
838.2190, 12942.00
839.3550, 12973.00
840.4910, 13015.00
841.6270, 12956.00
842.7630, 13051.00
843.8990, 13136.00
845.0350, 13088.00
846.1700, 13012.00
847.3060, 12976.00
848.4410, 13061.00
849.5760, 13107.00
850.7100, 13128.00
851.8450, 13162.00
852.9800, 13179.84
854.1140, 13168.00
855.2480, 13208.00
856.3820, 13201.00
857.5160, 13214.00
858.6500, 13228.00
859.7830, 13251.31
860.9170, 13375.00
862.0500, 13297.00
863.1830, 13410.00
864.3160, 13402.00
865.4480, 13400.00
866.5810, 13429.00
867.7130, 13395.00
868.8460, 13384.00
869.9780, 13340.00
871.1100, 13477.00
872.2410, 13551.00
873.3730, 13475.00
874.5050, 13530.00
875.6360, 13519.00
876.7670, 13599.00
877.8980, 13549.00
879.0290, 13527.00
880.1590, 13504.00
881.2900, 13672.00
882.4200, 13606.00
883.5500, 13618.00
884.6800, 13652.00
885.8100, 13580.00
886.9400, 13590.00
888.0690, 13553.00
889.1990, 13691.00
890.3280, 13820.00
891.4570, 13708.00
892.5860, 13886.00
893.7140, 13875.00
894.8430, 13821.00
895.9710, 13809.00
897.1000, 13957.00
898.2280, 13788.00
899.3560, 13997.00
900.4830, 13894.00
901.6110, 14018.00
902.7380, 13960.00
903.8660, 14067.00
904.9930, 14109.00
906.1200, 14045.00
907.2460, 14170.00
908.3730, 14218.00
909.5000, 14283.00
910.6260, 14165.00
911.7520, 14225.00
912.8780, 14396.00
914.0040, 14286.00
915.1290, 14606.00
916.2550, 14483.00
917.3800, 14522.00
918.5050, 14529.00
919.6300, 14682.00
920.7550, 14897.00
921.8800, 14965.00
923.0040, 15061.00
924.1290, 15235.00
925.2530, 15153.00
926.3770, 15293.00
927.5010, 15279.00
928.6250, 15461.00
929.7480, 15517.00
930.8720, 15730.00
931.9950, 15680.00
933.1180, 15787.00
934.2410, 15834.00
935.3640, 15660.00
936.4860, 15818.00
937.6090, 15675.00
938.7310, 15596.00
939.8530, 15841.00
940.9750, 15743.00
942.0970, 15543.00
943.2180, 15775.00
944.3400, 15616.00
945.4610, 15588.00
946.5820, 15737.00
947.7030, 15854.00
948.8240, 15929.00
949.9450, 16139.00
951.0650, 16196.00
952.1860, 16305.00
953.3060, 16403.00
954.4260, 16383.29
955.5460, 16426.48
956.6650, 16306.00
957.7850, 16388.00
958.9040, 16290.00
960.0230, 16228.00
961.1420, 16171.00
962.2610, 16166.58
963.3800, 16240.00
964.4990, 16208.00
965.6170, 16310.00
966.7350, 16355.00
967.8530, 16297.00
968.9710, 16351.00
970.0890, 16376.70
971.2070, 16528.00
972.3240, 16460.00
973.4410, 16530.00
974.5580, 16566.35
975.6750, 16746.00
976.7920, 16751.00
977.9090, 16853.00
979.0250, 16987.00
980.1410, 16968.00
981.2580, 17078.00
982.3740, 17032.00
983.4890, 17220.00
984.6050, 17251.57
985.7200, 17512.00
986.8360, 17421.00
987.9510, 17543.00
989.0660, 17669.00
990.1810, 17576.00
991.2950, 17701.00
992.4100, 17597.00
993.5240, 17749.00
994.6390, 17954.00
995.7530, 17892.00
996.8660, 17973.00
997.9800, 17949.00
999.0940, 18116.00
1000.207, 18296.00
1001.320, 18160.00
1002.433, 18204.00
1003.546, 18324.00
1004.659, 18213.00
1005.772, 18258.00
1006.884, 18307.00
1007.996, 18148.00
1009.108, 18361.00
1010.220, 18438.00
1011.332, 18192.00
1012.444, 18399.00
1013.555, 18224.00
1014.666, 18113.00
1015.777, 18210.00
1016.888, 18151.00
1017.999, 18139.00
1019.110, 18061.00
1020.220, 18133.00
1021.331, 18168.00
1022.441, 18149.00
1023.551, 18199.00
1024.661, 18267.47
1025.770, 18265.00
1026.880, 18469.00
1027.989, 18558.00
1029.098, 18717.55
1030.207, 18768.00
1031.316, 18954.00
1032.425, 19304.00
1033.533, 19527.00
1034.642, 20185.00
1035.750, 20947.00
1036.858, 22081.00
1037.966, 23802.00
1039.073, 25656.00
1040.181, 27795.00
1041.288, 28980.00
1042.396, 29053.00
1043.503, 28275.00
1044.610, 27772.00
1045.716, 27974.00
1046.823, 30037.00
1047.929, 33326.00
1049.036, 38388.00
1050.142, 43812.00
1051.248, 49335.00
1052.353, 53789.00
1053.459, 58297.00
1054.564, 60347.00
1055.670, 60918.00
1056.775, 60377.00
1057.880, 57690.00
1058.985, 52056.00
1060.089, 44691.00
1061.194, 37360.00
1062.298, 31005.00
1063.402, 26211.00
1064.506, 23498.00
1065.610, 21744.00
1066.713, 20577.00
1067.817, 19428.00
1068.920, 18977.00
1070.023, 18833.00
1071.126, 18441.00
1072.229, 18357.00
1073.332, 18092.00
1074.435, 18107.00
1075.537, 17931.00
1076.639, 18040.00
1077.741, 17812.00
1078.843, 17950.00
1079.945, 18100.00
1081.046, 18059.00
1082.148, 18091.00
1083.249, 18004.00
1084.350, 18163.00
1085.451, 18147.38
1086.551, 18427.00
1087.652, 18202.00
1088.752, 18289.00
1089.853, 18245.00
1090.953, 18132.00
1092.053, 18167.65
1093.152, 18413.00
1094.252, 18227.00
1095.351, 18284.00
1096.451, 18548.00
1097.550, 18348.00
1098.649, 18331.00
1099.748, 18322.00
1100.846, 18086.00
1101.945, 18233.00
1103.043, 18146.00
1104.141, 18018.00
1105.239, 18073.00
1106.337, 18047.00
1107.434, 18050.00
1108.532, 18034.00
1109.629, 17922.00
1110.726, 18034.12
1111.823, 17904.00
1112.920, 17923.96
1114.017, 17978.00
1115.113, 17966.00
1116.210, 17954.00
1117.306, 18093.00
1118.402, 18247.00
1119.498, 18189.00
1120.593, 18203.00
1121.689, 18316.00
1122.784, 18257.00
1123.879, 18353.00
1124.974, 18404.00
1126.069, 18072.00
1127.164, 18084.00
1128.259, 18301.00
1129.353, 18090.00
1130.447, 18134.00
1131.541, 18091.00
1132.635, 18074.00
1133.729, 18031.00
1134.822, 18139.00
1135.916, 18055.00
1137.009, 18276.00
1138.102, 18148.00
1139.195, 18206.00
1140.288, 18130.00
1141.380, 18085.00
1142.473, 18244.00
1143.565, 18294.00
1144.657, 18236.00
1145.749, 18277.00
1146.841, 18423.00
1147.932, 18298.00
1149.024, 18452.00
1150.115, 18479.00
1151.206, 18212.00
1152.297, 18334.00
1153.388, 18447.00
1154.479, 18522.00
1155.569, 18489.00
1156.659, 18367.00
1157.750, 18493.00
1158.839, 18406.00
1159.929, 18675.00
1161.019, 18498.00
1162.108, 18652.00
1163.198, 18609.00
1164.287, 18532.00
1165.376, 18559.00
1166.465, 18653.00
1167.553, 18634.00
1168.642, 18708.00
1169.730, 18598.00
1170.818, 18669.00
1171.906, 18770.00
1172.994, 18611.00
1174.082, 18781.00
1175.170, 18697.00
1176.257, 18949.00
1177.344, 18981.00
1178.431, 18982.00
1179.518, 18948.00
1180.605, 18759.00
1181.691, 18897.00
1182.778, 19170.00
1183.864, 19079.00
1184.950, 18953.00
1186.036, 19246.00
1187.122, 19039.00
1188.207, 19079.00
1189.292, 19102.00
1190.378, 19124.00
1191.463, 19151.54
1192.548, 19229.00
1193.632, 19225.00
1194.717, 19194.00
1195.801, 19289.00
1196.886, 19292.45
1197.970, 19326.39
1199.054, 19394.00
1200.137, 19361.00
1201.221, 19428.00
1202.305, 19375.00
1203.388, 19377.00
1204.471, 19394.27
1205.554, 19502.00
1206.637, 19453.00
1207.719, 19493.00
1208.802, 19623.00
1209.884, 19798.00
1210.966, 19767.61
1212.048, 19810.09
1213.130, 19703.00
1214.212, 19775.00
1215.293, 19628.00
1216.374, 19677.00
1217.456, 19759.00
1218.536, 19832.00
1219.617, 19928.00
1220.698, 19793.00
1221.778, 19979.00
1222.859, 19825.00
1223.939, 20088.00
1225.019, 20046.00
1226.099, 19966.00
1227.178, 19816.00
1228.258, 19874.00
1229.337, 19987.00
1230.417, 19917.00
1231.496, 20135.00
1232.574, 20238.00
1233.653, 20065.00
1234.732, 20159.00
1235.810, 20053.00
1236.888, 20240.00
1237.966, 20091.00
1239.044, 20355.00
1240.122, 20220.00
1241.199, 20412.00
1242.277, 20275.00
1243.354, 20388.00
1244.431, 20300.00
1245.508, 20496.00
1246.585, 20438.00
1247.661, 20415.00
1248.738, 20406.00
1249.814, 20655.00
1250.890, 20385.00
1251.966, 20582.00
1253.042, 20480.00
1254.117, 20537.00
1255.193, 20583.00
1256.268, 20664.00
1257.343, 20638.00
1258.418, 20736.00
1259.493, 20732.00
1260.567, 20770.00
1261.642, 20835.00
1262.716, 20792.00
1263.790, 20846.00
1264.864, 20974.00
1265.938, 20948.00
1267.011, 20811.00
1268.085, 21113.00
1269.158, 20967.12
1270.231, 21067.00
1271.304, 20875.00
1272.377, 21056.00
1273.450, 20922.00
1274.522, 20982.00
1275.594, 21099.00
1276.666, 21153.00
1277.738, 21231.00
1278.810, 21115.00
1279.882, 21156.00
1280.953, 21094.00
1282.025, 21175.00
1283.096, 21303.00
1284.167, 21037.00
1285.238, 21212.00
1286.308, 21157.00
1287.379, 21342.00
1288.449, 21526.00
1289.519, 21516.29
1290.589, 21619.05
1291.659, 21599.00
1292.729, 21603.00
1293.798, 21624.00
1294.868, 21596.28
1295.937, 21592.38
1297.006, 21551.00
1298.075, 21593.00
1299.143, 21553.00
1300.212, 21636.00
1301.280, 21632.00
1302.348, 21556.00
1303.416, 21987.00
1304.484, 21694.00
1305.552, 21720.00
1306.620, 21977.00
1307.687, 21822.00
1308.754, 21933.00
1309.821, 21907.00
1310.888, 22007.00
1311.955, 21920.00
1313.021, 21991.00
1314.088, 22172.00
1315.154, 22028.00
1316.220, 22193.00
1317.286, 22193.00
1318.352, 22429.00
1319.417, 22235.00
1320.483, 22292.00
1321.548, 22179.00
1322.613, 22390.00
1323.678, 22146.00
1324.743, 22205.00
1325.807, 22527.00
1326.872, 22511.00
1327.936, 22477.00
1329.000, 22583.00
1330.064, 22551.00
1331.128, 22628.00
1332.191, 22681.00
1333.255, 22738.00
1334.318, 22845.00
1335.381, 22793.74
