##NAMES=Carrollite
##RRUFFID=R050089
##IDEAL CHEMISTRY=Cu^1+^Co^3+^_2_S_4_
##LOCALITY=Kambove, Katanga, Democratic Republic of the Congo
##OWNER=RRUFF
##SOURCE=Rock Currier
##DESCRIPTION=Steel-gray octahedral crystal associated with calcite
##STATUS=The identification of this mineral has been confirmed by X-ray diffraction and chemical analysis
##URL=rruff.info/R050089
##MEASURED CHEMISTRY=(Cu_0.96_Fe^2+^_0.04_)_Σ=1_Co_2.00_S_4.00_ ; the vein is pyrite: (Fe_0.99_Co_0.01_)_Σ=1_S_2.00_
##PIN_ID=L00215
##ORIENTATION=Laser parallel to a* (1 0 0). Fiducial mark perpendicular to laser is parallel to b [0 1 0]
95.38000, 42608.00
96.62100, 42219.00
97.86200, 42552.00
99.10300, 42805.00
100.3440, 42942.00
101.5850, 43441.00
102.8250, 44735.00
104.0650, 45473.00
105.3050, 46769.47
106.5450, 47339.99
107.7850, 47834.34
109.0250, 48256.61
110.2640, 48390.57
111.5030, 48896.42
112.7420, 50998.00
113.9810, 52711.00
115.2200, 55493.00
116.4580, 60497.00
117.6970, 64144.00
118.9350, 64679.00
120.1730, 62707.00
121.4100, 55172.00
122.6480, 47423.00
123.8850, 44833.00
125.1230, 43750.00
126.3600, 43498.00
127.5960, 43991.00
128.8330, 43867.00
130.0700, 44163.00
131.3060, 43583.00
132.5420, 43200.00
133.7780, 43640.00
135.0140, 43438.00
136.2500, 43798.00
137.4850, 43854.00
138.7200, 44286.00
139.9550, 43979.00
141.1900, 43485.00
142.4250, 43183.00
143.6600, 43096.00
144.8940, 42956.00
146.1280, 43127.00
147.3620, 43320.00
148.5960, 43051.00
149.8300, 43519.00
151.0630, 43722.00
152.2960, 43693.00
153.5300, 43719.00
154.7620, 43579.00
155.9950, 43166.00
157.2280, 43302.00
158.4600, 43228.00
159.6920, 43779.00
160.9250, 43825.00
162.1560, 44162.00
163.3880, 44472.00
164.6200, 44269.00
165.8510, 43896.00
167.0820, 43965.00
168.3130, 43862.00
169.5440, 44121.00
170.7750, 44049.00
172.0050, 44192.00
173.2350, 44084.00
174.4650, 44255.00
175.6950, 44226.00
176.9250, 43914.00
178.1550, 44190.00
179.3840, 44093.00
180.6130, 44153.00
181.8420, 44107.00
183.0710, 44292.00
184.3000, 44456.00
185.5280, 45031.00
186.7570, 45153.00
187.9850, 45559.00
189.2130, 45698.00
190.4400, 45769.00
191.6680, 46173.00
192.8960, 46011.00
194.1230, 46125.00
195.3500, 46464.00
196.5770, 46499.00
197.8030, 46810.00
199.0300, 46823.00
200.2560, 47338.00
201.4830, 47273.00
202.7090, 46473.00
203.9340, 45311.00
205.1600, 44350.00
206.3860, 43965.00
207.6110, 43943.00
208.8360, 43794.00
210.0610, 43898.00
211.2860, 43876.91
212.5100, 44095.00
213.7350, 44028.00
214.9590, 44011.00
216.1830, 44206.00
217.4070, 43949.00
218.6310, 44431.00
219.8540, 44291.00
221.0780, 44382.00
222.3010, 44281.00
223.5240, 44295.00
224.7470, 44753.00
225.9690, 44487.00
227.1920, 44558.00
228.4140, 44437.00
229.6360, 44236.00
230.8580, 44508.00
232.0800, 44363.00
233.3020, 44374.00
234.5230, 44468.00
235.7440, 44569.00
236.9650, 44551.00
238.1860, 44953.00
239.4070, 44949.00
240.6280, 44727.00
241.8480, 44917.00
243.0680, 45252.00
244.2880, 45154.00
245.5080, 45188.00
246.7280, 45267.00
247.9470, 45437.00
249.1660, 45489.03
250.3860, 45584.14
251.6040, 45663.00
252.8230, 45775.00
254.0420, 45690.29
255.2600, 45903.96
256.4790, 46041.49
257.6970, 46106.91
258.9150, 45884.33
260.1320, 46033.60
261.3500, 46033.87
262.5670, 46027.99
263.7840, 46229.60
265.0010, 45997.00
266.2180, 46033.00
267.4350, 46015.00
268.6510, 46165.00
269.8680, 46025.00
271.0840, 46067.00
272.3000, 45958.00
273.5160, 45836.00
274.7310, 46005.00
275.9470, 46330.00
277.1620, 46218.00
278.3770, 46226.00
279.5920, 45901.00
280.8070, 45908.00
282.0210, 46149.00
283.2360, 46081.00
284.4500, 46224.00
285.6640, 46245.00
286.8780, 46147.00
288.0920, 46204.00
289.3050, 46155.00
290.5180, 46136.00
291.7320, 46208.00
292.9450, 46277.00
294.1570, 46226.00
295.3700, 46450.00
296.5830, 46573.00
297.7950, 46479.00
299.0070, 46520.00
300.2190, 46319.00
301.4310, 46445.00
302.6420, 46700.00
303.8540, 46654.00
305.0650, 46580.00
306.2760, 46792.00
307.4870, 46684.00
308.6980, 46662.00
309.9080, 46825.08
311.1190, 46962.00
312.3290, 47072.00
313.5390, 47286.00
314.7490, 47421.00
315.9580, 47219.00
317.1680, 47155.00
318.3770, 47009.00
319.5860, 47189.00
320.7950, 47134.00
322.0040, 47150.00
323.2130, 47402.00
324.4210, 47132.00
325.6290, 47534.00
326.8380, 47167.00
328.0460, 47539.00
329.2530, 47507.00
330.4610, 47492.00
331.6680, 47626.00
332.8760, 47545.00
334.0830, 47674.00
335.2890, 47470.00
336.4960, 47583.00
337.7030, 47755.00
338.9090, 47624.00
340.1150, 48036.00
341.3210, 47448.00
342.5270, 47978.00
343.7330, 47833.00
344.9380, 48007.00
346.1440, 47913.00
347.3490, 47818.00
348.5540, 48220.00
349.7590, 48055.00
350.9630, 48396.00
352.1680, 48302.00
353.3720, 48596.00
354.5760, 48114.00
355.7800, 48431.00
356.9840, 48367.00
358.1870, 48236.00
359.3910, 48521.00
360.5940, 48707.00
361.7970, 48490.00
363.0000, 48595.00
364.2030, 48610.00
365.4050, 48688.00
366.6080, 48606.00
367.8100, 48523.00
369.0120, 48663.00
370.2140, 48546.16
371.4150, 48634.00
372.6170, 48535.00
373.8180, 48684.00
375.0190, 48837.00
376.2200, 48898.00
377.4210, 48996.58
378.6220, 48798.00
379.8220, 48989.00
381.0230, 49080.00
382.2230, 48810.00
383.4230, 48839.00
384.6220, 49151.00
385.8220, 48866.00
387.0220, 49005.00
388.2210, 49180.00
389.4200, 49191.00
390.6190, 49084.00
391.8180, 48964.00
393.0160, 49074.00
394.2150, 49150.00
395.4130, 49212.00
396.6110, 49126.00
397.8090, 49299.00
399.0060, 49580.00
400.2040, 49416.00
401.4010, 49497.00
402.5980, 49591.00
403.7950, 49430.00
404.9920, 49443.00
406.1890, 49603.00
407.3860, 49614.00
408.5820, 49591.00
409.7780, 49837.00
410.9740, 49425.00
412.1700, 50028.00
413.3650, 50145.00
414.5610, 49819.00
415.7560, 49775.00
416.9510, 49979.00
418.1460, 49999.00
419.3410, 50097.00
420.5360, 49941.00
421.7300, 50045.00
422.9240, 50072.28
424.1180, 50032.00
425.3120, 50209.00
426.5060, 50314.00
427.7000, 50413.00
428.8930, 50315.00
430.0860, 50111.00
431.2790, 50385.00
432.4720, 50189.00
433.6650, 50511.00
434.8580, 50815.00
436.0500, 50652.00
437.2420, 50540.00
438.4340, 50573.00
439.6260, 50672.00
440.8180, 50844.00
442.0090, 50618.00
443.2010, 50881.00
444.3920, 50775.00
445.5830, 50581.00
446.7740, 50669.00
447.9640, 50684.00
449.1550, 50939.00
450.3450, 50941.35
451.5350, 50698.00
452.7250, 51136.00
453.9150, 50897.00
455.1050, 51106.00
456.2940, 50940.00
457.4830, 51045.00
458.6720, 51106.00
459.8610, 51119.00
461.0500, 50982.00
462.2390, 51108.00
463.4270, 51283.00
464.6150, 51033.00
465.8040, 51263.00
466.9910, 51167.00
468.1790, 51185.00
469.3670, 51270.00
470.5540, 51311.00
471.7410, 51493.00
472.9280, 51217.00
474.1150, 51735.00
475.3020, 51122.00
476.4890, 51809.00
477.6750, 51430.00
478.8610, 51628.00
480.0470, 51544.00
481.2330, 51944.00
482.4190, 51529.00
483.6040, 51971.00
484.7900, 51869.00
485.9750, 52020.00
487.1600, 52088.00
488.3450, 52193.00
489.5290, 51854.00
490.7140, 52094.00
491.8980, 52078.00
493.0820, 52094.00
494.2660, 52394.00
495.4500, 52164.00
496.6340, 52310.21
497.8170, 52301.00
499.0010, 52301.00
500.1840, 52406.00
501.3670, 52280.00
502.5500, 52548.00
503.7320, 52569.00
504.9150, 52670.00
506.0970, 52579.00
507.2790, 52611.75
508.4610, 52605.16
509.6430, 52584.00
510.8250, 52618.00
512.0060, 52636.00
513.1870, 52733.00
514.3680, 52746.00
515.5490, 52770.00
516.7300, 52781.00
517.9110, 52903.00
519.0910, 52917.62
520.2710, 52975.00
521.4510, 53029.00
522.6310, 53052.00
523.8110, 53121.77
524.9910, 53149.24
526.1700, 53121.00
527.3490, 53216.00
528.5280, 53142.00
529.7070, 53159.00
530.8860, 53135.00
532.0650, 53254.00
533.2430, 53456.00
534.4210, 53429.00
535.5990, 53426.00
536.7770, 53453.00
537.9550, 53307.00
539.1320, 53214.00
540.3100, 53304.00
541.4870, 53392.00
542.6640, 53607.00
543.8410, 53725.00
545.0170, 53887.00
546.1940, 53727.00
547.3700, 54053.00
548.5470, 53879.00
549.7230, 53931.00
550.8980, 54295.00
552.0740, 53738.00
553.2500, 53807.00
554.4250, 54090.00
555.6000, 53986.00
556.7750, 54300.00
557.9500, 54304.00
559.1250, 54244.00
560.2990, 54232.00
561.4730, 54167.00
562.6480, 54261.00
563.8220, 54367.00
564.9950, 54114.00
566.1690, 54099.00
567.3430, 54545.00
568.5160, 54026.00
569.6890, 54331.00
570.8620, 54303.00
572.0350, 53900.00
573.2070, 54083.00
574.3800, 53780.00
575.5520, 53862.00
576.7240, 53591.00
577.8960, 53532.66
579.0680, 53219.00
580.2400, 53385.00
581.4110, 53287.00
582.5830, 53231.00
583.7540, 52901.00
584.9250, 52558.00
586.0950, 52684.00
587.2660, 52661.00
588.4370, 52708.00
589.6070, 52688.00
590.7770, 52692.99
591.9470, 52658.00
593.1170, 52724.00
594.2860, 52634.00
595.4560, 52716.00
596.6250, 52492.00
597.7940, 52735.00
598.9630, 52574.00
600.1320, 52587.00
601.3000, 52563.00
602.4690, 52847.00
603.6370, 53006.00
604.8050, 52967.31
605.9730, 52782.00
607.1410, 52926.00
608.3090, 52929.00
609.4760, 52921.00
610.6430, 52908.00
611.8100, 52845.00
612.9770, 52775.00
614.1440, 52670.00
615.3110, 52694.00
616.4770, 53097.00
617.6430, 52754.00
618.8090, 52958.00
619.9750, 52651.00
621.1410, 53010.00
622.3070, 52742.00
623.4720, 52905.00
624.6370, 52689.00
625.8020, 52710.50
626.9670, 52738.16
628.1320, 52734.00
629.2970, 52825.00
630.4610, 52864.00
631.6250, 53009.00
632.7890, 52932.00
633.9530, 53014.64
635.1170, 53114.00
636.2810, 53111.00
637.4440, 53106.00
638.6070, 53238.00
639.7700, 53161.00
640.9330, 52836.00
642.0960, 52984.00
643.2590, 52858.00
644.4210, 53189.00
645.5830, 52900.00
646.7450, 52998.00
647.9070, 53050.00
649.0690, 52821.00
650.2310, 53113.00
651.3920, 52850.00
652.5530, 52805.00
653.7140, 53805.00
654.8750, 53085.00
656.0360, 52900.00
657.1970, 53450.00
658.3570, 52777.00
659.5170, 52985.00
660.6770, 52904.00
661.8370, 52697.00
662.9970, 53006.00
664.1570, 52997.00
665.3160, 52821.00
666.4750, 53167.00
667.6340, 53019.00
668.7930, 52900.00
669.9520, 53152.00
671.1110, 52938.00
672.2690, 52794.00
673.4270, 52922.00
674.5850, 52498.00
675.7430, 52906.00
676.9010, 52879.00
678.0590, 52737.00
679.2160, 52994.00
680.3730, 53066.00
681.5300, 53151.00
682.6870, 52915.00
683.8440, 52826.00
685.0010, 52857.00
686.1570, 53220.00
687.3130, 53030.00
688.4690, 53197.00
689.6250, 53338.00
690.7810, 52962.00
691.9370, 53106.00
693.0920, 53085.00
694.2470, 53315.00
695.4020, 53027.00
696.5570, 53084.00
697.7120, 53134.00
698.8670, 53091.00
700.0210, 53246.00
701.1750, 53052.00
702.3290, 53418.00
703.4830, 52950.00
704.6370, 53401.00
705.7910, 53083.00
706.9440, 53242.00
708.0970, 53258.00
709.2510, 53182.00
710.4030, 53015.00
711.5560, 53274.00
712.7090, 53069.00
713.8610, 53225.00
715.0140, 53227.00
716.1660, 53176.00
717.3180, 53099.00
718.4690, 53204.00
719.6210, 53346.00
720.7730, 53169.00
721.9240, 53600.00
723.0750, 53117.00
724.2260, 53019.00
725.3770, 52933.00
726.5270, 53635.00
727.6780, 53611.00
728.8280, 53456.00
729.9780, 53416.00
731.1280, 53253.00
732.2780, 53500.00
733.4280, 53217.00
734.5770, 53587.00
735.7260, 53298.00
736.8760, 53721.00
738.0250, 53557.00
739.1730, 53595.00
740.3220, 53878.00
741.4700, 53547.00
742.6190, 53556.00
743.7670, 53663.00
744.9150, 53614.00
746.0630, 53598.00
747.2100, 53509.00
748.3580, 53703.00
749.5050, 53892.00
750.6520, 53634.00
751.7990, 53921.00
752.9460, 53706.00
754.0930, 53452.00
755.2390, 53827.00
756.3860, 53725.00
757.5320, 53671.00
758.6780, 53627.00
759.8240, 53841.00
760.9690, 53841.00
762.1150, 53583.00
763.2600, 53822.00
764.4060, 53582.00
765.5510, 53957.00
766.6950, 53689.00
767.8400, 53631.00
768.9850, 53880.00
770.1290, 54041.00
771.2730, 53592.00
772.4170, 53754.00
773.5610, 53823.00
774.7050, 53762.00
775.8480, 54099.00
776.9920, 53985.00
778.1350, 53974.00
779.2780, 53834.00
780.4210, 53823.00
781.5640, 54173.00
782.7060, 53826.00
783.8490, 54025.00
784.9910, 53996.00
786.1330, 53857.00
787.2750, 53774.00
788.4170, 53784.65
789.5580, 53815.00
790.7000, 53804.00
791.8410, 53894.00
792.9820, 53893.00
794.1230, 54070.00
795.2640, 54023.00
796.4040, 53952.00
797.5450, 53851.00
798.6850, 53916.00
799.8250, 53952.00
800.9650, 54140.00
802.1050, 53736.00
803.2450, 54039.93
804.3840, 53985.50
805.5230, 54233.00
806.6630, 54115.00
807.8020, 53959.00
808.9400, 54050.00
810.0790, 54128.00
811.2170, 54149.00
812.3560, 54061.00
813.4940, 54145.00
814.6320, 53911.00
815.7700, 54053.25
816.9070, 54306.00
818.0450, 54247.00
819.1820, 54191.00
820.3190, 54308.00
821.4560, 54140.00
822.5930, 54200.00
823.7300, 54291.00
824.8670, 54199.00
826.0030, 54236.00
827.1390, 54254.05
828.2750, 54163.00
829.4110, 54355.00
830.5470, 54452.00
831.6820, 54645.00
832.8180, 54666.00
833.9530, 54202.00
835.0880, 54359.00
836.2230, 54555.00
837.3580, 54131.00
838.4920, 54705.00
839.6270, 54395.00
840.7610, 54371.00
841.8950, 54555.00
843.0290, 54388.00
844.1630, 54573.00
845.2960, 54261.00
846.4300, 54280.00
847.5630, 54390.00
848.6960, 54333.00
849.8290, 54321.80
850.9620, 54417.00
852.0940, 54202.00
853.2270, 54302.00
854.3590, 54247.21
855.4910, 54350.00
856.6230, 54442.00
857.7550, 54537.00
858.8870, 54752.00
860.0180, 54399.00
861.1500, 54601.00
862.2810, 54368.00
863.4120, 54521.00
864.5430, 54361.00
865.6730, 54818.00
866.8040, 54352.00
867.9340, 54776.00
869.0640, 54651.00
870.1940, 54895.00
871.3240, 54787.00
872.4540, 54569.00
873.5830, 54930.00
874.7130, 54660.00
875.8420, 54868.00
876.9710, 54798.00
878.1000, 54625.00
879.2290, 54642.00
880.3570, 54574.00
881.4860, 54537.00
882.6140, 54834.00
883.7420, 54774.00
884.8700, 54679.00
885.9980, 54989.00
887.1250, 54536.00
888.2530, 55036.00
889.3800, 54674.00
890.5070, 55142.00
891.6340, 55531.00
892.7610, 55313.00
893.8880, 54901.00
895.0140, 54867.00
896.1400, 54920.00
897.2670, 55103.00
898.3930, 54956.00
899.5180, 54966.00
900.6440, 54881.00
901.7700, 54950.00
902.8950, 55097.00
904.0200, 55088.00
905.1450, 55262.00
906.2700, 54860.00
907.3950, 55223.00
908.5190, 54856.00
909.6440, 55230.00
910.7680, 55031.00
911.8920, 54973.00
913.0160, 54866.00
914.1400, 55108.00
915.2630, 55350.00
916.3870, 55209.00
917.5100, 55344.00
918.6330, 55041.00
919.7560, 55248.00
920.8790, 55208.00
922.0010, 55351.00
923.1240, 55403.00
924.2460, 55162.00
925.3680, 55222.00
926.4900, 55382.00
927.6120, 55287.00
928.7340, 55714.00
929.8550, 55194.00
930.9760, 55245.00
932.0980, 55406.00
933.2190, 55552.00
934.3390, 55390.00
935.4600, 55465.00
936.5810, 55460.00
937.7010, 55134.00
938.8210, 55673.00
939.9410, 55602.00
941.0610, 55199.00
942.1810, 55269.00
943.3010, 55625.00
944.4200, 55837.00
945.5390, 55467.00
946.6580, 55359.00
947.7770, 55705.00
948.8960, 55528.00
950.0150, 55949.00
951.1330, 55396.00
952.2510, 55849.00
953.3690, 55600.00
954.4870, 55521.00
955.6050, 55670.00
956.7230, 55981.00
957.8400, 55841.00
958.9580, 55814.00
960.0750, 55865.00
961.1920, 55881.00
962.3090, 55701.00
963.4250, 55560.00
964.5420, 55636.00
965.6580, 55945.00
966.7740, 55773.00
967.8900, 55782.00
969.0060, 56067.00
970.1220, 55738.00
971.2380, 55695.00
972.3530, 55806.00
973.4680, 55972.00
974.5830, 56047.00
975.6980, 55855.00
976.8130, 56185.00
977.9280, 56504.00
979.0420, 56194.00
980.1560, 56000.00
981.2710, 56069.00
982.3850, 55933.00
983.4980, 56150.00
984.6120, 56297.00
985.7260, 55997.00
986.8390, 56303.00
987.9520, 56014.00
989.0650, 56127.00
990.1780, 56300.00
991.2910, 56316.00
992.4030, 56336.00
993.5160, 56407.00
994.6280, 56040.00
995.7400, 56067.00
996.8520, 56230.00
997.9640, 56459.00
999.0750, 56370.00
1000.187, 56346.00
1001.298, 56214.00
1002.409, 56404.00
1003.520, 56220.00
1004.631, 56538.00
1005.741, 56537.00
1006.852, 56173.00
1007.962, 56299.00
1009.072, 56214.00
1010.182, 56582.00
1011.292, 56141.00
1012.402, 56516.00
1013.511, 56541.00
1014.621, 56144.00
1015.730, 56632.00
1016.839, 56429.00
1017.948, 56314.00
1019.056, 56317.00
1020.165, 56391.00
1021.273, 56771.00
1022.382, 56259.00
1023.490, 57121.00
1024.598, 57386.00
1025.706, 57430.00
1026.813, 57084.00
1027.921, 56450.00
1029.028, 56738.00
1030.135, 56625.00
1031.242, 56745.00
1032.349, 56713.00
1033.456, 56751.00
1034.562, 56754.00
1035.668, 56599.00
1036.775, 56967.00
1037.881, 56891.00
1038.987, 56754.00
1040.092, 56897.00
1041.198, 56791.00
1042.303, 57058.00
1043.408, 56937.00
1044.514, 57174.00
1045.618, 56976.00
1046.723, 57035.00
1047.828, 56991.00
1048.932, 57341.00
1050.037, 57087.00
1051.141, 57197.00
1052.245, 57255.00
1053.349, 57033.00
1054.452, 57189.00
1055.556, 57246.00
1056.659, 57390.00
1057.762, 57276.00
1058.865, 57291.00
1059.968, 56998.00
1061.071, 57321.00
1062.174, 56992.00
1063.276, 57067.00
1064.378, 57280.00
1065.480, 57225.00
1066.582, 57160.00
1067.684, 57427.00
1068.786, 57241.00
1069.887, 57481.00
1070.988, 57457.00
1072.090, 57758.00
1073.191, 57356.00
1074.291, 57168.00
1075.392, 57283.00
1076.493, 57604.00
1077.593, 57504.00
1078.693, 57487.00
1079.793, 57334.00
1080.893, 57380.00
1081.993, 57245.00
1083.092, 57476.00
1084.192, 57489.00
1085.291, 57733.00
1086.390, 57567.00
1087.489, 57407.00
1088.588, 57433.00
1089.686, 57387.55
1090.785, 57377.28
1091.883, 57490.00
1092.981, 57403.00
1094.079, 57492.00
1095.177, 57477.00
1096.275, 57376.00
1097.373, 57579.00
1098.470, 57513.00
1099.567, 57508.00
1100.664, 57273.00
1101.761, 57488.00
1102.858, 57465.00
1103.954, 57226.00
1105.051, 57306.00
1106.147, 57361.00
1107.243, 57459.00
1108.339, 57485.00
1109.435, 57655.00
1110.531, 57488.00
1111.626, 57571.00
1112.722, 57503.00
1113.817, 57210.00
1114.912, 57732.00
1116.007, 57248.00
1117.101, 57492.00
1118.196, 57542.00
1119.290, 57583.00
1120.385, 57429.00
1121.479, 57416.00
1122.573, 57390.00
1123.666, 57582.00
1124.760, 57371.00
1125.853, 57259.00
1126.947, 57610.00
1128.040, 57014.00
1129.133, 57172.00
1130.226, 57031.00
1131.318, 57073.00
1132.411, 56898.00
1133.503, 57223.00
1134.596, 56827.00
1135.688, 57078.00
1136.780, 57214.00
1137.871, 56958.00
1138.963, 57136.00
1140.054, 56980.00
1141.146, 56849.00
1142.237, 56854.00
1143.328, 57023.00
1144.419, 57130.00
1145.509, 57007.00
1146.600, 56772.00
1147.690, 56817.00
1148.780, 56930.00
1149.870, 57037.00
1150.960, 56595.00
1152.050, 56980.00
1153.139, 56814.00
1154.229, 57061.00
1155.318, 56709.00
1156.407, 56723.00
1157.496, 56695.00
1158.585, 56907.00
1159.674, 56591.00
1160.762, 56827.00
1161.850, 57034.00
1162.939, 56914.00
1164.027, 57053.00
1165.114, 57085.00
1166.202, 57099.00
1167.290, 57115.34
1168.377, 56884.00
1169.464, 57007.00
1170.551, 56866.00
1171.638, 56690.00
1172.725, 56639.00
1173.812, 56790.00
1174.898, 56800.00
1175.984, 56814.23
1177.071, 56936.29
1178.157, 56831.00
1179.242, 56660.00
1180.328, 56637.00
1181.414, 56626.45
1182.499, 56724.00
1183.584, 56635.00
1184.669, 56843.00
1185.754, 56697.00
1186.839, 56699.00
1187.924, 56890.00
1189.008, 56917.00
1190.092, 56766.00
1191.177, 57065.00
1192.260, 56622.00
1193.344, 56840.00
1194.428, 56752.00
1195.512, 56854.00
1196.595, 56891.00
1197.678, 56663.00
1198.761, 56734.00
1199.844, 56826.00
1200.927, 56612.00
1202.009, 56563.00
1203.092, 56678.00
1204.174, 56827.00
1205.256, 56912.00
1206.338, 56585.00
1207.420, 56914.00
1208.502, 56809.65
1209.583, 56690.00
1210.665, 56861.00
1211.746, 56840.00
1212.827, 56846.00
1213.908, 56509.00
1214.988, 57078.00
1216.069, 56825.00
1217.149, 56646.00
1218.230, 56892.00
1219.310, 56893.00
1220.390, 56652.00
1221.470, 56644.00
1222.549, 56783.00
1223.629, 56918.00
1224.708, 56907.00
1225.787, 56853.00
1226.866, 56764.00
1227.945, 56687.00
1229.024, 56805.00
1230.103, 56567.00
1231.181, 56703.00
1232.259, 56571.00
1233.337, 56767.00
1234.415, 56648.00
1235.493, 56420.00
1236.571, 56951.00
1237.648, 56577.00
1238.726, 56802.00
1239.803, 56547.00
1240.880, 56591.00
1241.957, 56559.00
1243.034, 56578.00
1244.110, 56496.00
1245.187, 56945.00
1246.263, 56697.00
1247.339, 56988.00
1248.415, 56803.00
1249.491, 56973.00
1250.566, 56750.00
1251.642, 56876.00
1252.717, 56538.00
1253.793, 56857.00
1254.868, 56824.00
1255.943, 56780.00
1257.017, 56790.04
1258.092, 56739.26
1259.166, 56508.00
1260.241, 56811.00
1261.315, 56554.00
1262.389, 56876.00
1263.462, 56749.00
1264.536, 56942.00
1265.610, 56870.00
1266.683, 56789.00
1267.756, 56699.00
1268.829, 56580.00
1269.902, 56584.00
1270.975, 56628.24
1272.048, 56721.00
