##NAMES=Carrollite
##RRUFFID=R040165
##IDEAL CHEMISTRY=Cu^1+^Co^3+^_2_S_4_
##LOCALITY=Katanga, Democratic Republic of the Congo
##OWNER=RRUFF
##SOURCE=University of Arizona Mineral Museum
##DESCRIPTION=Steel gray octahedral crystals that have a tarnished exterior
##STATUS=The identification of this mineral has been confirmed by X-ray diffraction and chemical analysis
##URL=rruff.info/R040165
##MEASURED CHEMISTRY=(Cu_0.97_Fe_0.03_)Co_1.98_S_4_
##PIN_ID=M00105
##ORIENTATION=Laser parallel to -a* (-1 0 0). Fiducial mark perpendicular to laser is parallel to -c [0 0 -1]
96.62100, 45213.59
97.86200, 45052.00
99.10300, 45430.00
100.3440, 45491.00
101.5850, 45560.00
102.8250, 46788.00
104.0650, 48198.00
105.3050, 50163.00
106.5450, 53095.00
107.7850, 56310.00
109.0250, 53724.00
110.2640, 52979.00
111.5030, 52987.00
112.7420, 54413.00
113.9810, 55078.00
115.2200, 54590.00
116.4580, 54005.00
117.6970, 53987.00
118.9350, 51600.00
120.1730, 49280.00
121.4100, 47614.00
122.6480, 46949.00
123.8850, 46870.00
125.1230, 45780.00
126.3600, 45526.00
127.5960, 45999.00
128.8330, 46033.00
130.0700, 46297.00
131.3060, 46224.00
132.5420, 45947.00
133.7780, 45386.00
135.0140, 45720.00
136.2500, 45732.00
137.4850, 45996.00
138.7200, 45822.29
139.9550, 46128.00
141.1900, 45424.00
142.4250, 45251.00
143.6600, 45107.00
144.8940, 44964.00
146.1280, 45024.25
147.3620, 45071.41
148.5960, 45286.00
149.8300, 45376.00
151.0630, 45655.00
152.2960, 45842.00
153.5300, 45715.00
154.7620, 45825.00
155.9950, 45404.00
157.2280, 45329.00
158.4600, 45007.00
159.6920, 45331.00
160.9250, 45327.00
162.1560, 45679.00
163.3880, 45803.00
164.6200, 46062.00
165.8510, 46021.00
167.0820, 45881.00
168.3130, 45855.00
169.5440, 45824.43
170.7750, 45767.96
172.0050, 45824.00
173.2350, 45780.00
174.4650, 45808.00
175.6950, 45947.00
176.9250, 46027.00
178.1550, 46050.00
179.3840, 46117.00
180.6130, 46141.07
181.8420, 45942.00
183.0710, 46201.00
184.3000, 46197.00
185.5280, 46261.00
186.7570, 46773.00
187.9850, 47042.00
189.2130, 47166.00
190.4400, 47577.00
191.6680, 47631.00
192.8960, 47749.00
194.1230, 47967.00
195.3500, 48170.00
196.5770, 48481.00
197.8030, 48215.00
199.0300, 48242.00
200.2560, 48417.00
201.4830, 48604.00
202.7090, 48325.00
203.9340, 47313.00
205.1600, 46544.00
206.3860, 46228.00
207.6110, 45595.00
208.8360, 45970.00
210.0610, 45943.00
211.2860, 46018.00
212.5100, 45932.00
213.7350, 45935.60
214.9590, 46208.00
216.1830, 45959.00
217.4070, 45815.00
218.6310, 46000.00
219.8540, 46175.00
221.0780, 46153.00
222.3010, 46409.00
223.5240, 46343.57
224.7470, 46244.00
225.9690, 46196.00
227.1920, 46203.00
228.4140, 45961.00
229.6360, 46285.00
230.8580, 46140.00
232.0800, 46509.00
233.3020, 46630.00
234.5230, 46413.00
235.7440, 46845.00
236.9650, 47072.00
238.1860, 47190.00
239.4070, 47151.00
240.6280, 47402.00
241.8480, 47455.00
243.0680, 47583.00
244.2880, 47633.00
245.5080, 47926.00
246.7280, 48115.00
247.9470, 48200.00
249.1660, 48466.00
250.3860, 48675.78
251.6040, 48787.96
252.8230, 49041.00
254.0420, 49084.00
255.2600, 48926.00
256.4790, 49117.00
257.6970, 50164.00
258.9150, 50041.48
260.1320, 49919.22
261.3500, 50304.00
262.5670, 49175.00
263.7840, 48590.00
265.0010, 48399.00
266.2180, 48220.00
267.4350, 48263.00
268.6510, 48071.00
269.8680, 47993.00
271.0840, 48055.00
272.3000, 47682.00
273.5160, 47533.00
274.7310, 47739.00
275.9470, 47976.00
277.1620, 47981.00
278.3770, 48136.00
279.5920, 47924.00
280.8070, 47708.00
282.0210, 47888.00
283.2360, 47718.00
284.4500, 47783.00
285.6640, 47927.00
286.8780, 48105.00
288.0920, 47789.00
289.3050, 48255.00
290.5180, 48226.00
291.7320, 47826.00
292.9450, 47965.00
294.1570, 47932.00
295.3700, 48366.00
296.5830, 48340.00
297.7950, 48114.00
299.0070, 48448.00
300.2190, 49053.00
301.4310, 48818.28
302.6420, 48833.00
303.8540, 48821.00
305.0650, 48852.00
306.2760, 48948.00
307.4870, 48851.00
308.6980, 48959.00
309.9080, 49160.00
311.1190, 49124.00
312.3290, 49477.00
313.5390, 49063.00
314.7490, 49107.00
315.9580, 48702.00
317.1680, 49157.00
318.3770, 49045.00
319.5860, 49031.00
320.7950, 48826.00
322.0040, 48701.00
323.2130, 48776.91
324.4210, 48782.00
325.6290, 49053.00
326.8380, 49229.00
328.0460, 49635.00
329.2530, 49191.00
330.4610, 49328.00
331.6680, 49041.00
332.8760, 49157.00
334.0830, 49524.00
335.2890, 49529.00
336.4960, 49413.00
337.7030, 49571.00
338.9090, 49494.00
340.1150, 49636.00
341.3210, 49982.00
342.5270, 49993.00
343.7330, 50193.00
344.9380, 50319.00
346.1440, 50214.00
347.3490, 50522.00
348.5540, 50757.00
349.7590, 50632.00
350.9630, 51161.00
352.1680, 51334.00
353.3720, 51234.00
354.5760, 51371.00
355.7800, 51242.00
356.9840, 51747.00
358.1870, 51894.00
359.3910, 51411.00
360.5940, 51786.00
361.7970, 51243.00
363.0000, 51221.00
364.2030, 51588.00
365.4050, 51252.00
366.6080, 50909.00
367.8100, 50791.00
369.0120, 50969.00
370.2140, 50788.00
371.4150, 50670.00
372.6170, 50347.00
373.8180, 50384.00
375.0190, 50334.00
376.2200, 50501.00
377.4210, 50288.00
378.6220, 50171.00
379.8220, 50425.00
381.0230, 50326.20
382.2230, 50636.00
383.4230, 50435.00
384.6220, 50442.00
385.8220, 50412.00
387.0220, 50449.00
388.2210, 50674.00
389.4200, 50352.00
390.6190, 50266.00
391.8180, 50579.00
393.0160, 50737.00
394.2150, 50262.00
395.4130, 50671.00
396.6110, 50492.00
397.8090, 50636.00
399.0060, 50665.00
400.2040, 50625.00
401.4010, 50656.00
402.5980, 50645.00
403.7950, 50812.00
404.9920, 50839.00
406.1890, 50710.00
407.3860, 50580.00
408.5820, 50867.00
409.7780, 51242.00
410.9740, 50957.00
412.1700, 51107.00
413.3650, 50907.00
414.5610, 50992.00
415.7560, 51283.00
416.9510, 50944.00
418.1460, 51205.00
419.3410, 51030.00
420.5360, 51080.00
421.7300, 51549.00
422.9240, 51210.00
424.1180, 51419.00
425.3120, 51253.00
426.5060, 51177.00
427.7000, 51556.00
428.8930, 51294.00
430.0860, 51410.00
431.2790, 51577.00
432.4720, 51622.00
433.6650, 51712.00
434.8580, 51494.00
436.0500, 51723.00
437.2420, 51605.00
438.4340, 51629.00
439.6260, 51712.00
440.8180, 51720.00
442.0090, 51830.00
443.2010, 51775.00
444.3920, 51840.00
445.5830, 52053.00
446.7740, 51973.00
447.9640, 52099.00
449.1550, 51911.00
450.3450, 51985.00
451.5350, 52108.00
452.7250, 52140.00
453.9150, 52156.00
455.1050, 52189.90
456.2940, 52227.07
457.4830, 52180.00
458.6720, 52204.00
459.8610, 52189.00
461.0500, 52183.20
462.2390, 52135.00
463.4270, 52208.00
464.6150, 52242.00
465.8040, 52311.56
466.9910, 52178.00
468.1790, 52298.00
469.3670, 52397.00
470.5540, 52298.00
471.7410, 52395.00
472.9280, 52558.00
474.1150, 52682.00
475.3020, 52537.00
476.4890, 52831.00
477.6750, 52390.00
478.8610, 52832.00
480.0470, 52646.00
481.2330, 52771.00
482.4190, 52801.00
483.6040, 52966.00
484.7900, 52780.00
485.9750, 52847.00
487.1600, 52882.00
488.3450, 52930.00
489.5290, 53226.00
490.7140, 53064.00
491.8980, 53052.00
493.0820, 52894.00
494.2660, 53241.00
495.4500, 53264.00
496.6340, 53113.00
497.8170, 53445.00
499.0010, 53271.00
500.1840, 53423.00
501.3670, 53411.00
502.5500, 53501.00
503.7320, 53494.00
504.9150, 53268.00
506.0970, 53426.00
507.2790, 53536.00
508.4610, 53635.00
509.6430, 53310.00
510.8250, 53558.00
512.0060, 53499.82
513.1870, 53566.00
514.3680, 53717.00
515.5490, 53452.00
516.7300, 53801.00
517.9110, 54197.00
519.0910, 54004.00
520.2710, 53943.00
521.4510, 53793.00
522.6310, 53864.68
523.8110, 54203.00
524.9910, 54115.00
526.1700, 54288.00
527.3490, 54529.00
528.5280, 54098.00
529.7070, 54210.00
530.8860, 54334.00
532.0650, 54597.00
533.2430, 54499.68
534.4210, 54521.27
535.5990, 54296.00
536.7770, 54354.00
537.9550, 54126.00
539.1320, 54084.00
540.3100, 54237.00
541.4870, 54454.00
542.6640, 54443.00
543.8410, 54525.00
545.0170, 54712.00
546.1940, 54733.00
547.3700, 54716.00
548.5470, 54712.00
549.7230, 54645.00
550.8980, 54751.00
552.0740, 55011.00
553.2500, 54849.00
554.4250, 54975.00
555.6000, 54835.00
556.7750, 55176.00
557.9500, 54610.00
559.1250, 54742.00
560.2990, 54887.00
561.4730, 55308.00
562.6480, 55072.00
563.8220, 55164.00
564.9950, 55187.00
566.1690, 55349.00
567.3430, 55186.00
568.5160, 55114.00
569.6890, 55291.00
570.8620, 55070.00
572.0350, 55247.00
573.2070, 55186.00
574.3800, 54920.00
575.5520, 54714.00
576.7240, 54650.00
577.8960, 54698.00
579.0680, 54651.00
580.2400, 54448.00
581.4110, 54696.00
582.5830, 54323.00
583.7540, 53952.00
584.9250, 53869.00
586.0950, 53951.00
587.2660, 53861.00
588.4370, 53510.00
589.6070, 53772.00
590.7770, 53553.00
591.9470, 53702.00
593.1170, 53590.00
594.2860, 53905.00
595.4560, 53500.00
596.6250, 53855.00
597.7940, 53463.00
598.9630, 53801.00
600.1320, 53739.00
601.3000, 53708.00
602.4690, 53658.00
603.6370, 53715.00
604.8050, 53846.00
605.9730, 53814.00
607.1410, 53900.00
608.3090, 53871.00
609.4760, 53912.55
610.6430, 54006.00
611.8100, 53919.00
612.9770, 54008.41
614.1440, 53890.00
615.3110, 53983.00
616.4770, 53993.00
617.6430, 53933.00
618.8090, 54020.00
619.9750, 53999.89
621.1410, 53928.00
622.3070, 54014.00
623.4720, 53987.00
624.6370, 53952.00
625.8020, 54071.00
626.9670, 53844.00
628.1320, 53811.00
629.2970, 53855.00
630.4610, 53805.15
631.6250, 54068.17
632.7890, 54217.95
633.9530, 54260.59
635.1170, 53875.15
636.2810, 54042.48
637.4440, 53988.29
638.6070, 53925.00
639.7700, 54170.13
640.9330, 53846.95
642.0960, 54087.19
643.2590, 54102.52
644.4210, 54220.78
645.5830, 54116.15
646.7450, 54080.37
647.9070, 54267.54
649.0690, 54331.26
650.2310, 54200.97
651.3920, 54325.77
652.5530, 53994.80
653.7140, 54063.78
654.8750, 54305.32
656.0360, 54186.23
657.1970, 54315.11
658.3570, 54349.54
659.5170, 53914.00
660.6770, 54034.00
661.8370, 54188.00
662.9970, 54048.00
664.1570, 54212.00
665.3160, 54145.00
666.4750, 54264.00
667.6340, 54090.00
668.7930, 53955.00
669.9520, 54083.00
671.1110, 53932.90
672.2690, 53989.86
673.4270, 53943.00
674.5850, 53971.00
675.7430, 54182.00
676.9010, 54007.00
678.0590, 53849.00
679.2160, 54020.00
680.3730, 54049.00
681.5300, 54121.00
682.6870, 54492.00
683.8440, 54331.17
685.0010, 54459.00
686.1570, 54201.00
687.3130, 54221.00
688.4690, 54164.00
689.6250, 54128.00
690.7810, 54257.00
691.9370, 54311.00
693.0920, 54379.44
694.2470, 54120.00
695.4020, 54476.00
696.5570, 54410.00
697.7120, 54275.00
698.8670, 54525.00
700.0210, 54364.00
701.1750, 54142.00
702.3290, 54450.00
703.4830, 54348.00
704.6370, 54177.00
705.7910, 54331.00
706.9440, 54501.00
708.0970, 54664.00
709.2510, 54136.00
710.4030, 54459.00
711.5560, 54320.00
712.7090, 54185.00
713.8610, 54357.00
715.0140, 54215.00
716.1660, 54521.00
717.3180, 54164.00
718.4690, 54460.00
719.6210, 54324.00
720.7730, 54486.00
721.9240, 54693.00
723.0750, 54541.00
724.2260, 54494.00
725.3770, 54359.00
726.5270, 54465.00
727.6780, 54706.00
728.8280, 54742.00
729.9780, 54463.00
731.1280, 54702.00
732.2780, 54422.00
733.4280, 54643.00
734.5770, 54394.00
735.7260, 54657.00
736.8760, 54505.00
738.0250, 54403.00
739.1730, 54494.00
740.3220, 54781.00
741.4700, 54592.00
742.6190, 54556.00
743.7670, 55007.00
744.9150, 54877.00
746.0630, 54899.00
747.2100, 54818.00
748.3580, 54543.00
749.5050, 54638.00
750.6520, 55068.00
751.7990, 54881.00
752.9460, 55008.00
754.0930, 55079.00
755.2390, 54800.00
756.3860, 54525.00
757.5320, 54751.00
758.6780, 54775.00
759.8240, 55116.00
760.9690, 54810.00
762.1150, 55097.00
763.2600, 54934.00
764.4060, 55093.00
765.5510, 54843.00
766.6950, 55061.00
767.8400, 55281.00
768.9850, 54986.00
770.1290, 55110.00
771.2730, 54999.00
772.4170, 55045.00
773.5610, 55176.00
774.7050, 54716.00
775.8480, 55241.00
776.9920, 54760.00
778.1350, 54723.00
779.2780, 55066.00
780.4210, 55164.00
781.5640, 55199.00
782.7060, 54980.00
783.8490, 54742.00
784.9910, 55008.00
786.1330, 55080.00
787.2750, 54999.00
788.4170, 55412.00
789.5580, 54993.00
790.7000, 55247.00
791.8410, 55185.00
792.9820, 55265.00
794.1230, 55211.00
795.2640, 55195.00
796.4040, 55351.00
797.5450, 55424.00
798.6850, 55376.30
799.8250, 55209.00
800.9650, 55356.00
802.1050, 55209.69
803.2450, 55348.30
804.3840, 55252.00
805.5230, 55341.00
806.6630, 55475.00
807.8020, 55429.00
808.9400, 55569.00
810.0790, 55435.00
811.2170, 55326.00
812.3560, 55411.00
813.4940, 55305.00
814.6320, 55210.00
815.7700, 55215.00
816.9070, 55517.00
818.0450, 55435.00
819.1820, 55462.00
820.3190, 55693.00
821.4560, 55538.00
822.5930, 55340.00
823.7300, 55505.00
824.8670, 55573.00
826.0030, 55643.00
827.1390, 55305.00
828.2750, 55570.00
829.4110, 55583.00
830.5470, 55474.00
831.6820, 55678.00
832.8180, 55795.00
833.9530, 55591.00
835.0880, 55436.00
836.2230, 55725.00
837.3580, 55597.00
838.4920, 55550.00
839.6270, 55508.00
840.7610, 55451.21
841.8950, 55451.00
843.0290, 55379.00
844.1630, 55597.00
845.2960, 55552.00
846.4300, 55679.00
847.5630, 55652.00
848.6960, 55683.00
849.8290, 55801.00
850.9620, 55720.42
852.0940, 55982.00
853.2270, 55689.00
854.3590, 55601.00
855.4910, 55699.00
856.6230, 55681.00
857.7550, 55575.00
858.8870, 55913.00
860.0180, 56051.00
861.1500, 55770.00
862.2810, 55720.00
863.4120, 55801.00
864.5430, 55647.00
865.6730, 55854.00
866.8040, 55548.00
867.9340, 55634.00
869.0640, 55679.00
870.1940, 55783.00
871.3240, 55892.00
872.4540, 55771.00
873.5830, 56057.00
874.7130, 56148.00
875.8420, 55689.00
876.9710, 55791.00
878.1000, 55888.00
879.2290, 56028.00
880.3570, 56085.00
881.4860, 55932.00
882.6140, 56097.00
883.7420, 55738.00
884.8700, 55866.00
885.9980, 55995.00
887.1250, 56135.00
888.2530, 55999.00
889.3800, 55769.00
890.5070, 56303.00
891.6340, 56306.00
892.7610, 56016.00
893.8880, 56108.00
895.0140, 56156.00
896.1400, 56133.00
897.2670, 56306.00
898.3930, 56260.45
899.5180, 56101.00
900.6440, 56139.00
901.7700, 56256.00
902.8950, 55943.00
904.0200, 56345.00
905.1450, 56320.00
906.2700, 56200.00
907.3950, 56149.00
908.5190, 56692.00
909.6440, 56206.00
910.7680, 56634.00
911.8920, 56209.00
913.0160, 56443.00
914.1400, 56512.00
915.2630, 56445.00
916.3870, 56474.00
917.5100, 56530.00
918.6330, 56844.00
919.7560, 56703.00
920.8790, 57054.00
922.0010, 56551.00
923.1240, 56539.00
924.2460, 56767.00
925.3680, 56678.00
926.4900, 56604.00
927.6120, 56812.00
928.7340, 56730.00
929.8550, 56704.00
930.9760, 56695.00
932.0980, 56487.00
933.2190, 56745.00
934.3390, 56698.00
935.4600, 56925.00
936.5810, 56645.00
937.7010, 57009.00
938.8210, 56475.00
939.9410, 56863.00
941.0610, 56823.00
942.1810, 56686.00
943.3010, 56940.00
944.4200, 56716.00
945.5390, 56771.00
946.6580, 57003.00
947.7770, 57358.00
948.8960, 57062.67
950.0150, 57338.00
951.1330, 56810.00
952.2510, 56712.00
953.3690, 57161.00
954.4870, 56813.00
955.6050, 57145.00
956.7230, 57147.00
957.8400, 57138.00
958.9580, 57257.52
960.0750, 57158.00
961.1920, 57172.00
962.3090, 57122.00
963.4250, 56803.00
964.5420, 56795.00
965.6580, 57034.00
966.7740, 56875.00
967.8900, 57068.05
969.0060, 57445.00
970.1220, 57165.00
971.2380, 57308.00
972.3530, 57042.00
973.4680, 57187.00
974.5830, 56937.00
975.6980, 56784.00
976.8130, 56945.71
977.9280, 57246.00
979.0420, 57189.00
980.1560, 57261.00
981.2710, 57394.00
982.3850, 57553.00
983.4980, 57555.76
984.6120, 57583.14
985.7260, 57544.00
986.8390, 57580.00
987.9520, 57481.00
989.0650, 57632.00
990.1780, 57743.00
991.2910, 57814.00
992.4030, 57601.00
993.5160, 57546.00
994.6280, 57610.00
995.7400, 57413.00
996.8520, 57571.00
997.9640, 57383.00
999.0750, 57481.38
1000.187, 57629.00
1001.298, 57873.00
1002.409, 57292.00
1003.520, 57923.00
1004.631, 57539.00
1005.741, 57806.00
1006.852, 57766.00
1007.962, 57749.00
1009.072, 57769.00
1010.182, 57947.00
1011.292, 57774.00
1012.402, 57881.00
1013.511, 57899.00
1014.621, 57790.82
1015.730, 58003.00
1016.839, 57690.00
1017.948, 57723.00
1019.056, 57787.00
1020.165, 57722.00
1021.273, 57639.00
1022.382, 57758.00
1023.490, 57609.00
1024.598, 57742.00
1025.706, 57825.00
1026.813, 57922.00
1027.921, 57834.00
1029.028, 58037.00
1030.135, 57881.00
1031.242, 58220.00
1032.349, 57733.00
1033.456, 57710.00
1034.562, 58160.00
1035.668, 58065.00
1036.775, 58298.00
1037.881, 58265.00
1038.987, 57873.00
1040.092, 58012.00
1041.198, 58318.00
1042.303, 58655.00
1043.408, 58450.00
1044.514, 58193.00
1045.618, 58475.00
1046.723, 58362.00
1047.828, 58352.00
1048.932, 58417.00
1050.037, 58253.00
1051.141, 58299.00
1052.245, 58325.00
1053.349, 58338.00
1054.452, 58206.00
1055.556, 58461.00
1056.659, 58526.00
1057.762, 58343.00
1058.865, 58405.00
1059.968, 58332.00
1061.071, 58493.00
1062.174, 58257.00
1063.276, 58660.00
1064.378, 58541.00
1065.480, 58663.00
1066.582, 58558.00
1067.684, 58440.00
1068.786, 58705.00
1069.887, 58299.00
1070.988, 58432.00
1072.090, 58438.00
1073.191, 58612.00
1074.291, 58742.00
1075.392, 58397.00
1076.493, 58832.00
1077.593, 58755.00
1078.693, 58564.00
1079.793, 58700.00
1080.893, 58741.00
1081.993, 58689.00
1083.092, 58831.00
1084.192, 58801.00
1085.291, 58892.00
1086.390, 58863.51
1087.489, 58688.00
1088.588, 58842.00
1089.686, 58635.00
1090.785, 58739.00
1091.883, 58679.00
1092.981, 58443.00
1094.079, 58682.00
1095.177, 58761.00
1096.275, 58863.00
1097.373, 58480.00
1098.470, 58696.00
1099.567, 58657.00
1100.664, 58440.00
1101.761, 58465.00
1102.858, 58778.00
1103.954, 58622.07
1105.051, 58861.00
1106.147, 58743.00
1107.243, 58559.00
1108.339, 58826.00
1109.435, 58911.00
1110.531, 58447.00
1111.626, 58631.00
1112.722, 58696.00
1113.817, 58781.00
1114.912, 58448.00
1116.007, 58625.00
1117.101, 58494.00
1118.196, 58579.00
1119.290, 58743.00
1120.385, 58524.00
1121.479, 58759.00
1122.573, 58923.00
1123.666, 58451.00
1124.760, 58432.00
1125.853, 58844.00
1126.947, 58525.86
1128.040, 58572.00
1129.133, 58449.00
1130.226, 58477.00
1131.318, 58475.00
1132.411, 58271.00
1133.503, 58407.00
1134.596, 58523.00
1135.688, 58517.00
1136.780, 58206.00
1137.871, 58648.00
1138.963, 58214.00
1140.054, 58594.00
1141.146, 58312.00
1142.237, 58216.00
1143.328, 57904.00
1144.419, 58094.00
1145.509, 58398.00
1146.600, 58274.00
1147.690, 58101.00
1148.780, 58195.00
1149.870, 58640.00
1150.960, 58463.00
1152.050, 58221.00
1153.139, 58350.00
1154.229, 58128.00
1155.318, 58232.00
1156.407, 58072.00
1157.496, 58319.00
1158.585, 58222.47
1159.674, 58352.00
1160.762, 58172.00
1161.850, 58141.00
1162.939, 58118.00
1164.027, 58247.00
1165.114, 58141.00
1166.202, 58117.00
1167.290, 58071.00
1168.377, 58027.17
1169.464, 58406.00
1170.551, 58020.00
1171.638, 58251.00
1172.725, 58370.00
1173.812, 58236.00
1174.898, 58050.00
1175.984, 58174.00
1177.071, 58394.00
1178.157, 57916.00
1179.242, 58094.00
1180.328, 57906.00
1181.414, 58376.00
1182.499, 58442.00
1183.584, 58397.00
1184.669, 58258.00
1185.754, 58029.00
1186.839, 58245.00
1187.924, 58071.00
1189.008, 58463.00
1190.092, 58367.00
1191.177, 58156.00
1192.260, 58185.00
1193.344, 58073.00
1194.428, 58364.00
1195.512, 58206.00
1196.595, 58209.00
1197.678, 58079.00
1198.761, 57848.00
1199.844, 58267.00
1200.927, 58146.00
1202.009, 58175.00
1203.092, 57961.00
1204.174, 58129.00
1205.256, 58427.00
1206.338, 58236.00
1207.420, 58060.00
1208.502, 58149.00
1209.583, 58541.00
1210.665, 58366.00
1211.746, 58128.00
1212.827, 58496.00
1213.908, 58043.00
1214.988, 58311.00
1216.069, 58212.00
1217.149, 58154.00
1218.230, 58207.00
1219.310, 58503.00
1220.390, 57843.00
1221.470, 58110.00
1222.549, 58309.00
1223.629, 58644.00
1224.708, 58186.00
1225.787, 57958.00
1226.866, 58118.00
1227.945, 57958.00
1229.024, 58336.00
1230.103, 58241.00
1231.181, 58214.00
1232.259, 58166.00
1233.337, 58156.00
1234.415, 58251.00
1235.493, 58292.00
1236.571, 58243.00
1237.648, 58365.00
1238.726, 58344.00
1239.803, 58406.00
1240.880, 58143.00
1241.957, 58504.00
1243.034, 58133.00
1244.110, 58237.00
1245.187, 58472.00
1246.263, 58368.00
1247.339, 58415.00
1248.415, 58446.00
1249.491, 58607.00
1250.566, 58364.00
1251.642, 58549.00
1252.717, 58220.00
1253.793, 58047.00
1254.868, 58363.00
1255.943, 58287.00
1257.017, 58504.00
1258.092, 58757.00
1259.166, 58542.00
1260.241, 58172.00
1261.315, 58242.00
1262.389, 58464.00
1263.462, 58624.00
1264.536, 58601.00
1265.610, 58678.46
1266.683, 58276.00
1267.756, 58561.00
1268.829, 58455.00
1269.902, 58229.00
1270.975, 58417.00
1272.048, 58388.00
1273.120, 58497.00
1274.192, 58260.00
1275.264, 58465.00
