##NAMES=Cassiterite
##RRUFFID=R050502
##IDEAL CHEMISTRY=SnO_2_
##LOCALITY=Redruth, Cornwall, England
##OWNER=RRUFF
##SOURCE=California Institute of Technology
##DESCRIPTION=Black crystals associated with colorless quartz and grey stannite.
##STATUS=The identification of this mineral has been confirmed by X-ray diffraction and chemical analysis
##URL=rruff.info/R050502
##MEASURED CHEMISTRY=SnO_2_
##PIN_ID=M00499
##ORIENTATION=Laser parallel to a* (1 0 0). Fiducial mark perpendicular to laser is parallel to -c [0 0 -1]
185.7910, 8493.000
187.0220, 8531.000
188.2540, 8580.887
189.4840, 8643.064
190.7150, 8730.646
191.9460, 8820.000
193.1760, 8948.000
194.4060, 9090.000
195.6360, 9235.601
196.8660, 9382.803
198.0960, 9529.000
199.3250, 9683.000
200.5540, 9778.000
201.7830, 9907.000
203.0120, 10191.00
204.2400, 10301.00
205.4690, 10331.00
206.6970, 10424.00
207.9250, 10755.00
209.1530, 10987.00
210.3800, 11302.00
211.6080, 11527.00
212.8350, 11965.00
214.0620, 12409.00
215.2880, 12868.00
216.5150, 13247.00
217.7410, 13689.00
218.9680, 14114.00
220.1940, 14722.00
221.4190, 15251.00
222.6450, 15663.00
223.8700, 16120.00
225.0960, 16691.00
226.3210, 17220.00
227.5450, 17603.00
228.7700, 18088.00
229.9940, 18551.00
231.2190, 18815.00
232.4430, 19131.00
233.6660, 19148.00
234.8900, 19226.59
236.1140, 19382.00
237.3370, 19016.00
238.5600, 18871.00
239.7830, 18498.00
241.0050, 17887.00
242.2280, 17217.00
243.4500, 16418.00
244.6720, 15575.00
245.8940, 14871.00
247.1160, 14059.00
248.3370, 13149.00
249.5580, 12189.00
250.7790, 11745.00
252.0000, 11011.00
253.2210, 10352.00
254.4410, 9908.000
255.6620, 9388.000
256.8820, 8853.000
258.1020, 8599.000
259.3210, 8539.000
260.5410, 8303.000
261.7600, 7936.000
262.9790, 7630.000
264.1980, 7555.000
265.4170, 7465.000
266.6360, 7373.000
267.8540, 7168.000
269.0720, 7135.000
270.2900, 7148.000
271.5080, 7228.000
272.7260, 7319.000
273.9430, 7573.000
275.1600, 7908.000
276.3770, 8351.000
277.5940, 8747.000
278.8100, 9239.000
280.0270, 9731.000
281.2430, 10013.00
282.4590, 10220.00
283.6750, 10186.00
284.8910, 10022.00
286.1060, 9964.000
287.3210, 9429.000
288.5360, 9125.000
289.7510, 8833.000
290.9660, 8598.000
292.1800, 8175.000
293.3950, 7929.000
294.6090, 7666.000
295.8230, 7387.000
297.0360, 7218.000
298.2500, 6870.000
299.4630, 6862.000
300.6760, 6564.000
301.8890, 6492.000
303.1020, 6347.000
304.3150, 6232.000
305.5270, 6209.000
306.7390, 6148.000
307.9510, 6079.000
309.1630, 5840.000
310.3750, 5844.000
311.5860, 5758.000
312.7970, 5648.000
314.0080, 5666.000
315.2190, 5530.000
316.4300, 5573.000
317.6400, 5480.000
318.8510, 5441.000
320.0610, 5489.000
321.2710, 5390.000
322.4800, 5458.000
323.6900, 5414.000
324.8990, 5376.000
326.1080, 5313.000
327.3170, 5351.000
328.5260, 5326.071
329.7340, 5302.000
330.9430, 5334.000
332.1510, 5323.000
333.3590, 5304.000
334.5670, 5360.000
335.7740, 5308.000
336.9820, 5311.000
338.1890, 5467.000
339.3960, 5432.000
340.6030, 5469.000
341.8100, 5438.000
343.0160, 5499.000
344.2220, 5529.000
345.4280, 5640.000
346.6340, 5662.000
347.8400, 5676.000
349.0460, 5727.583
350.2510, 5742.000
351.4560, 5769.000
352.6610, 5766.000
353.8660, 5776.000
355.0700, 5744.000
356.2750, 5636.000
357.4790, 5507.000
358.6830, 5277.000
359.8870, 5154.000
361.0910, 4890.000
362.2940, 4792.000
363.4970, 4534.000
364.7000, 4350.000
365.9030, 4327.000
367.1060, 4264.000
368.3080, 4201.000
369.5110, 4087.000
370.7130, 4096.000
371.9150, 4120.000
373.1170, 4171.000
374.3180, 4059.000
375.5200, 4013.000
376.7210, 4126.000
377.9220, 4064.000
379.1230, 4098.000
380.3230, 4096.000
381.5240, 4086.000
382.7240, 4112.000
383.9240, 4019.000
385.1240, 3999.000
386.3240, 3979.000
387.5230, 3935.000
388.7230, 3921.000
389.9220, 3913.000
391.1210, 3933.000
392.3200, 3914.000
393.5180, 3954.000
394.7170, 3890.000
395.9150, 3880.000
397.1130, 3868.000
398.3110, 3890.000
399.5080, 3868.000
400.7060, 3939.000
401.9030, 3861.000
403.1000, 3910.000
404.2970, 3883.000
405.4940, 4034.000
406.6910, 4066.000
407.8870, 3960.000
409.0830, 4080.000
410.2790, 4096.000
411.4750, 4049.000
412.6710, 4157.000
413.8660, 4186.000
415.0610, 4265.000
416.2560, 4214.000
417.4510, 4244.000
418.6460, 4259.000
419.8410, 4270.000
421.0350, 4289.000
422.2290, 4471.000
423.4230, 4467.000
424.6170, 4531.000
425.8100, 4536.000
427.0040, 4788.000
428.1970, 4820.000
429.3900, 4816.000
430.5830, 5003.000
431.7760, 5002.000
432.9680, 5053.000
434.1610, 5080.000
435.3530, 5212.000
436.5450, 5205.000
437.7360, 5247.000
438.9280, 5207.000
440.1190, 5294.000
441.3110, 5262.000
442.5020, 5334.000
443.6930, 5337.000
444.8830, 5477.000
446.0740, 5477.000
447.2640, 5521.000
448.4540, 5682.000
449.6440, 5816.000
450.8340, 6033.000
452.0240, 6189.000
453.2130, 6569.000
454.4020, 6733.000
455.5910, 6911.000
456.7800, 7385.000
457.9690, 7708.000
459.1570, 8128.000
460.3460, 8390.000
461.5340, 8762.000
462.7220, 9213.000
463.9090, 9633.000
465.0970, 9906.000
466.2840, 10231.00
467.4720, 10310.00
468.6590, 10452.00
469.8460, 10570.00
471.0320, 10430.00
472.2190, 10203.00
473.4050, 10121.00
474.5910, 9896.000
475.7770, 9557.000
476.9630, 9334.000
478.1490, 9199.000
479.3340, 9069.000
480.5190, 8961.000
481.7040, 8886.835
482.8890, 8911.000
484.0740, 8811.000
485.2580, 8860.000
486.4430, 8914.000
487.6270, 8885.000
488.8110, 8919.000
489.9950, 9043.000
491.1780, 9075.000
492.3620, 9070.000
493.5450, 9161.000
494.7280, 9252.000
495.9110, 9316.000
497.0940, 9364.000
498.2760, 9242.000
499.4590, 9221.000
500.6410, 9221.000
501.8230, 9188.000
503.0050, 9178.000
504.1860, 9109.000
505.3680, 9091.000
506.5490, 8926.000
507.7300, 9055.000
508.9110, 9150.000
510.0920, 8996.000
511.2730, 8896.000
512.4530, 8805.000
513.6330, 8764.000
514.8130, 8855.000
515.9930, 8923.000
517.1730, 8742.000
518.3520, 8743.000
519.5320, 8687.000
520.7110, 8728.000
521.8900, 8762.000
523.0690, 8731.000
524.2470, 8731.000
525.4260, 8813.000
526.6040, 8763.000
527.7820, 8842.000
528.9600, 8813.000
530.1380, 8917.000
531.3150, 8988.000
532.4930, 9087.000
533.6700, 9161.000
534.8470, 9289.000
536.0240, 9305.000
537.2000, 9309.000
538.3770, 9501.000
539.5530, 9619.000
540.7290, 9588.000
541.9050, 9737.000
543.0810, 9726.000
544.2570, 9780.000
545.4320, 9843.000
546.6080, 9791.000
547.7830, 9880.000
548.9580, 10028.00
550.1320, 10029.00
551.3070, 10115.54
552.4810, 10250.00
553.6550, 10233.00
554.8300, 10234.00
556.0030, 10352.00
557.1770, 10427.00
558.3510, 10492.00
559.5240, 10547.99
560.6970, 10523.00
561.8700, 10612.00
563.0430, 10626.00
564.2160, 10641.00
565.3880, 10556.00
566.5600, 10652.00
567.7320, 10543.00
568.9040, 10485.00
570.0760, 10541.00
571.2480, 10330.00
572.4190, 10350.00
573.5900, 10327.00
574.7610, 10272.00
575.9320, 10258.00
577.1030, 10247.00
578.2740, 10266.00
579.4440, 10427.00
580.6140, 10424.00
581.7840, 10472.00
582.9540, 10649.00
584.1240, 10587.00
585.2930, 10702.00
586.4630, 10835.94
587.6320, 11049.14
588.8010, 11204.00
589.9700, 11526.00
591.1380, 11894.00
592.3070, 11911.00
593.4750, 12250.00
594.6430, 12395.00
595.8110, 12698.00
596.9790, 12928.00
598.1460, 13027.00
599.3140, 13436.00
600.4810, 13664.00
601.6480, 13894.00
602.8150, 14316.00
603.9820, 14697.00
605.1480, 15078.00
606.3150, 15474.00
607.4810, 15912.41
608.6470, 16372.00
609.8130, 16862.00
610.9790, 17352.00
612.1440, 17931.00
613.3100, 18562.00
614.4750, 19505.00
615.6400, 20170.00
616.8050, 21246.00
617.9690, 22743.00
619.1340, 24291.00
620.2980, 26404.00
621.4620, 29091.00
622.6260, 32211.00
623.7900, 36204.00
624.9540, 40621.00
626.1170, 45712.00
627.2810, 51099.00
628.4440, 56020.00
629.6070, 60290.00
630.7690, 63269.00
631.9320, 64069.00
633.0950, 63536.00
634.2570, 60309.00
635.4190, 55897.00
636.5810, 50906.00
637.7430, 44819.00
638.9040, 39999.00
640.0660, 34745.00
641.2270, 30569.00
642.3880, 27080.00
643.5490, 24466.00
644.7100, 21953.00
645.8700, 20207.00
647.0310, 18682.00
648.1910, 17519.00
649.3510, 16550.00
650.5110, 15640.00
651.6710, 14932.00
652.8300, 14044.00
653.9900, 13433.00
655.1490, 12770.00
656.3080, 12421.00
657.4670, 11933.00
658.6250, 11482.00
659.7840, 11048.00
660.9420, 10747.00
662.1010, 10365.00
663.2590, 10124.00
664.4170, 9918.000
665.5740, 9632.000
666.7320, 9366.000
667.8890, 9241.000
669.0460, 8946.000
670.2030, 8918.000
671.3600, 8687.000
672.5170, 8582.000
673.6740, 8484.000
674.8300, 8419.000
675.9860, 8263.000
677.1420, 8317.000
678.2980, 8289.000
679.4540, 8272.000
680.6090, 8160.000
681.7650, 8288.000
682.9200, 8300.000
684.0750, 8290.000
685.2300, 8466.000
686.3840, 8319.000
687.5390, 8583.000
688.6930, 8634.000
689.8470, 8623.000
691.0010, 8688.000
692.1550, 8748.000
693.3090, 8735.000
694.4620, 8753.597
695.6160, 8835.000
696.7690, 8727.000
697.9220, 8660.000
699.0750, 8651.000
700.2280, 8460.000
701.3800, 8329.000
702.5320, 8245.000
703.6850, 8224.000
704.8370, 8054.000
705.9880, 8163.000
707.1400, 8172.000
708.2920, 8126.000
709.4430, 8325.000
710.5940, 8349.000
711.7450, 8469.000
712.8960, 8561.000
714.0470, 8640.000
715.1970, 8731.000
716.3480, 8751.000
717.4980, 8716.000
718.6480, 8928.000
719.7980, 8986.000
720.9470, 9172.000
722.0970, 9232.000
723.2460, 9172.000
724.3960, 9352.000
725.5450, 9277.000
726.6940, 9444.000
727.8420, 9444.784
728.9910, 9364.000
730.1390, 9420.000
731.2870, 9428.000
732.4350, 9298.000
733.5830, 9412.000
734.7310, 9307.000
735.8790, 9285.000
737.0260, 9368.000
738.1730, 9320.000
739.3200, 9249.000
740.4670, 9112.000
741.6140, 9290.000
742.7610, 9230.000
743.9070, 9248.000
745.0530, 9277.000
746.1990, 9216.000
747.3450, 9307.000
748.4910, 9246.000
749.6370, 9244.000
750.7820, 9212.000
751.9270, 9219.000
753.0720, 9088.000
754.2170, 9017.000
755.3620, 8950.000
756.5070, 8923.000
757.6510, 8802.000
758.7950, 8670.000
759.9400, 8707.000
761.0840, 8528.000
762.2270, 8527.000
763.3710, 8621.000
764.5140, 8580.000
765.6580, 8710.000
766.8010, 8966.000
767.9440, 9091.000
769.0870, 9422.000
770.2290, 9532.000
771.3720, 9951.000
772.5140, 10116.00
773.6560, 10069.00
774.7990, 10113.00
775.9400, 9769.000
777.0820, 9660.000
778.2240, 9147.000
779.3650, 8844.000
780.5060, 8471.000
781.6470, 7999.000
782.7880, 7472.000
783.9290, 7143.000
785.0690, 6765.000
786.2100, 6612.000
787.3500, 6212.000
788.4900, 6150.000
789.6300, 5805.000
790.7700, 5746.000
791.9090, 5676.000
793.0490, 5507.000
794.1880, 5397.000
795.3270, 5283.000
796.4660, 5168.537
797.6050, 5078.225
798.7440, 4974.000
799.8820, 4914.000
801.0200, 4818.000
802.1590, 4764.000
803.2970, 4705.000
804.4340, 4634.000
805.5720, 4553.000
806.7100, 4569.000
807.8470, 4467.000
808.9840, 4431.000
810.1210, 4387.000
811.2580, 4300.000
812.3950, 4228.000
813.5310, 4262.000
814.6680, 4218.000
815.8040, 4204.000
816.9400, 4117.000
818.0760, 4055.000
819.2120, 4033.000
820.3470, 4065.000
821.4830, 3999.000
822.6180, 3969.000
823.7530, 3926.000
824.8880, 3914.000
826.0230, 3883.000
827.1580, 3885.000
828.2920, 3859.000
829.4270, 3808.000
830.5610, 3827.476
831.6950, 3806.000
832.8290, 3851.000
833.9620, 3838.000
835.0960, 3870.000
836.2290, 3765.000
837.3620, 3781.000
838.4950, 3883.000
839.6280, 3793.000
840.7610, 3916.000
841.8940, 3887.000
843.0260, 3842.000
844.1580, 3947.000
845.2910, 4008.000
846.4230, 3991.000
847.5540, 3989.000
848.6860, 3987.000
849.8170, 3966.000
850.9490, 4021.000
852.0800, 4069.000
853.2110, 3942.000
854.3420, 4077.000
855.4730, 3988.000
856.6030, 4068.000
857.7340, 3955.000
858.8640, 4058.000
859.9940, 3981.000
861.1240, 4164.000
862.2540, 4070.000
863.3830, 4093.000
864.5130, 4053.000
865.6420, 4092.000
866.7710, 4007.000
867.9000, 4014.000
869.0290, 3961.000
870.1570, 4013.000
871.2860, 3882.000
872.4140, 3938.000
873.5430, 3823.000
874.6710, 3869.000
875.7980, 3773.000
876.9260, 3781.000
878.0540, 3778.000
879.1810, 3709.000
880.3080, 3676.000
881.4360, 3668.000
882.5630, 3593.000
883.6890, 3629.000
884.8160, 3533.000
885.9420, 3492.000
887.0690, 3458.000
888.1950, 3479.000
889.3210, 3411.000
890.4470, 3308.000
891.5730, 3333.000
892.6980, 3396.000
893.8240, 3278.000
894.9490, 3321.000
896.0740, 3304.000
897.1990, 3336.000
898.3240, 3262.000
899.4480, 3195.000
900.5730, 3299.000
901.6970, 3146.000
902.8210, 3166.000
903.9450, 3199.000
905.0690, 3155.000
906.1930, 3167.000
907.3160, 3143.000
908.4400, 3121.000
909.5630, 3122.000
910.6860, 3092.000
911.8090, 3158.000
912.9320, 3164.000
914.0550, 3175.000
915.1770, 3169.587
916.2990, 3141.000
917.4210, 3122.000
918.5440, 3116.000
919.6650, 3099.000
920.7870, 3092.000
921.9090, 3074.000
923.0300, 3073.298
924.1510, 3054.000
925.2720, 3068.000
926.3930, 3094.000
927.5140, 3085.000
928.6350, 3086.000
929.7550, 3130.000
930.8760, 3095.000
931.9960, 3080.000
933.1160, 3081.000
934.2360, 3048.000
935.3550, 3072.000
936.4750, 3103.000
937.5940, 3081.000
938.7140, 3108.690
939.8330, 3175.000
940.9520, 3136.000
942.0710, 3142.000
943.1890, 3171.000
944.3080, 3114.000
945.4260, 3128.000
946.5440, 3138.000
947.6620, 3218.000
948.7800, 3225.000
949.8980, 3234.000
951.0160, 3171.000
952.1330, 3248.000
953.2500, 3175.000
954.3680, 3214.000
955.4850, 3253.000
956.6010, 3265.000
957.7180, 3226.000
958.8350, 3314.000
959.9510, 3326.000
961.0670, 3408.000
962.1830, 3416.000
963.2990, 3399.000
964.4150, 3444.000
965.5310, 3388.000
966.6460, 3375.000
967.7620, 3411.000
968.8770, 3430.000
969.9920, 3471.000
971.1070, 3450.000
972.2210, 3511.000
973.3360, 3464.000
974.4500, 3470.000
975.5650, 3387.000
976.6790, 3494.000
977.7930, 3407.000
978.9070, 3397.000
980.0200, 3347.000
981.1340, 3340.000
982.2470, 3339.000
983.3610, 3327.599
984.4740, 3318.009
985.5870, 3304.491
986.6990, 3294.000
987.8120, 3267.000
988.9250, 3256.000
990.0370, 3228.451
991.1490, 3270.000
992.2610, 3218.000
993.3730, 3184.000
994.4850, 3241.000
995.5960, 3233.000
996.7080, 3234.000
997.8190, 3254.000
998.9300, 3215.000
1000.041, 3223.000
1001.152, 3287.000
1002.263, 3231.000
1003.373, 3266.000
1004.484, 3249.000
1005.594, 3308.000
1006.704, 3290.000
1007.814, 3211.000
1008.924, 3325.000
1010.034, 3334.000
1011.143, 3286.000
1012.253, 3225.000
1013.362, 3298.000
1014.471, 3326.000
1015.580, 3276.000
1016.689, 3314.000
1017.797, 3349.000
1018.906, 3214.000
1020.014, 3347.000
1021.122, 3275.000
1022.230, 3305.000
1023.338, 3284.000
1024.446, 3256.000
1025.554, 3353.000
1026.661, 3286.000
1027.768, 3353.000
1028.875, 3330.000
1029.983, 3345.000
1031.089, 3386.000
1032.196, 3434.000
1033.303, 3370.000
1034.409, 3417.000
1035.515, 3411.000
1036.622, 3418.000
1037.728, 3388.000
1038.833, 3404.000
1039.939, 3621.000
1041.045, 3493.101
1042.150, 3500.308
1043.255, 3388.000
1044.360, 3368.000
1045.465, 3335.000
1046.570, 3332.000
1047.675, 3257.000
1048.779, 3255.247
1049.884, 3254.000
1050.988, 3223.000
1052.092, 3253.000
1053.196, 3250.000
1054.300, 3237.000
1055.404, 3235.708
1056.507, 3227.000
1057.610, 3215.000
1058.714, 3189.000
1059.817, 3201.000
1060.920, 3180.873
1062.022, 3182.000
1063.125, 3165.000
1064.228, 3145.000
1065.330, 3145.000
1066.432, 3131.968
1067.534, 3136.000
1068.636, 3121.000
1069.738, 3155.000
1070.840, 3154.000
1071.941, 3198.000
1073.042, 3218.000
1074.144, 3237.000
1075.245, 3214.487
1076.346, 3232.000
1077.446, 3192.000
1078.547, 3145.000
1079.647, 3240.000
1080.748, 3246.000
1081.848, 3221.000
1082.948, 3173.000
1084.048, 3248.000
1085.148, 3231.000
1086.247, 3247.000
1087.347, 3226.000
1088.446, 3260.000
1089.545, 3294.000
1090.644, 3244.000
1091.743, 3200.000
1092.842, 3247.000
1093.940, 3216.000
1095.039, 3258.000
1096.137, 3235.000
1097.235, 3406.000
1098.333, 3306.000
1099.431, 3349.000
1100.529, 3283.000
1101.627, 3312.000
1102.724, 3346.000
1103.822, 3363.000
1104.919, 3369.000
1106.016, 3342.000
1107.113, 3401.000
1108.209, 3323.000
1109.306, 3420.000
1110.402, 3391.000
1111.499, 3368.000
1112.595, 3387.000
1113.691, 3335.000
1114.787, 3392.000
1115.883, 3370.000
1116.978, 3456.000
1118.074, 3504.000
1119.169, 3433.000
1120.264, 3439.000
1121.359, 3493.000
1122.454, 3451.000
1123.549, 3567.000
1124.644, 3424.000
1125.738, 3484.000
1126.832, 3529.000
1127.927, 3441.000
1129.021, 3448.000
1130.115, 3444.000
1131.208, 3470.000
1132.302, 3440.000
1133.396, 3413.000
1134.489, 3451.000
1135.582, 3379.000
1136.675, 3432.000
1137.768, 3378.000
1138.861, 3433.000
1139.954, 3396.000
1141.046, 3432.000
1142.138, 3451.000
1143.231, 3360.000
1144.323, 3434.000
1145.415, 3412.000
1146.507, 3436.000
1147.598, 3405.000
1148.690, 3440.000
1149.781, 3431.000
1150.872, 3439.000
1151.964, 3428.000
1153.054, 3409.000
1154.145, 3396.000
1155.236, 3430.000
1156.327, 3451.000
1157.417, 3346.000
1158.507, 3365.000
1159.597, 3396.000
1160.687, 3348.000
1161.777, 3390.000
1162.867, 3384.000
1163.956, 3348.000
1165.046, 3418.000
1166.135, 3359.000
1167.224, 3324.000
1168.313, 3415.000
1169.402, 3417.000
1170.491, 3363.000
1171.580, 3415.000
1172.668, 3388.000
1173.756, 3378.000
1174.845, 3403.000
1175.933, 3379.000
1177.020, 3430.000
1178.108, 3472.000
1179.196, 3368.000
1180.283, 3411.000
1181.371, 3406.000
1182.458, 3373.000
1183.545, 3384.000
1184.632, 3465.000
1185.719, 3460.000
1186.805, 3474.000
1187.892, 3500.753
1188.978, 3406.000
1190.065, 3507.000
1191.151, 3417.000
1192.237, 3386.000
1193.323, 3402.000
1194.408, 3428.000
1195.494, 3407.000
1196.579, 3413.000
1197.664, 3450.000
1198.750, 3441.000
1199.835, 3517.000
1200.919, 3511.000
1202.004, 3410.000
1203.089, 3499.000
1204.173, 3451.000
1205.258, 3511.000
1206.342, 3480.000
1207.426, 3431.000
1208.510, 3458.000
1209.594, 3429.395
1210.677, 3419.000
1211.761, 3437.000
1212.844, 3412.000
1213.927, 3447.000
1215.010, 3476.000
1216.093, 3509.000
1217.176, 3513.000
1218.259, 3503.000
1219.341, 3522.000
1220.424, 3499.000
1221.506, 3487.000
1222.588, 3500.000
1223.670, 3547.000
1224.752, 3577.000
1225.834, 3543.000
1226.915, 3471.000
1227.997, 3509.000
1229.078, 3546.000
1230.159, 3499.000
1231.240, 3564.000
1232.321, 3579.000
1233.402, 3627.000
1234.483, 3518.000
1235.563, 3596.000
1236.644, 3571.000
1237.724, 3643.000
1238.804, 3551.000
1239.884, 3638.000
1240.964, 3591.000
1242.044, 3530.000
1243.123, 3586.000
1244.203, 3590.000
1245.282, 3643.000
1246.361, 3602.000
1247.440, 3628.056
1248.519, 3570.000
1249.598, 3611.000
1250.676, 3651.000
1251.755, 3591.000
1252.833, 3588.000
1253.911, 3603.000
1254.989, 3611.000
1256.067, 3673.000
1257.145, 3630.000
1258.223, 3632.000
1259.300, 3670.000
1260.378, 3623.000
1261.455, 3617.000
1262.532, 3598.000
1263.609, 3618.000
1264.686, 3615.000
1265.763, 3607.000
1266.840, 3587.000
1267.916, 3596.731
1268.992, 3661.000
1270.069, 3602.000
1271.145, 3646.000
1272.221, 3638.000
1273.296, 3624.000
1274.372, 3623.000
1275.448, 3639.000
1276.523, 3624.000
1277.598, 3580.000
1278.673, 3623.000
1279.749, 3645.000
1280.823, 3577.000
1281.898, 3597.000
1282.973, 3661.000
1284.047, 3562.000
1285.122, 3574.000
1286.196, 3564.000
1287.270, 3538.000
1288.344, 3533.000
1289.418, 3609.000
1290.491, 3628.000
1291.565, 3612.000
1292.638, 3593.000
1293.712, 3569.000
1294.785, 3646.000
1295.858, 3606.000
1296.931, 3627.000
1298.003, 3614.000
1299.076, 3601.000
1300.149, 3581.000
1301.221, 3564.000
1302.293, 3624.000
1303.365, 3613.000
1304.437, 3560.000
1305.509, 3613.000
1306.581, 3586.000
1307.652, 3594.000
1308.724, 3670.000
1309.795, 3648.000
1310.866, 3620.000
1311.937, 3643.000
1313.008, 3608.000
1314.079, 3575.000
1315.150, 3529.000
1316.220, 3491.000
1317.291, 3517.000
1318.361, 3563.000
1319.431, 3511.000
1320.501, 3562.000
1321.571, 3566.000
1322.641, 3562.243
1323.710, 3591.752
1324.780, 3534.000
1325.849, 3616.000
1326.918, 3521.000
1327.987, 3515.000
1329.056, 3538.000
1330.125, 3547.000
1331.194, 3487.000
1332.263, 3552.000
1333.331, 3467.000
1334.399, 3492.000
1335.467, 3572.000
1336.535, 3533.000
1337.603, 3560.000
1338.671, 3526.000
1339.739, 3542.000
1340.806, 3567.000
1341.874, 3473.000
1342.941, 3526.000
1344.008, 3559.000
1345.075, 3553.000
1346.142, 3504.000
1347.209, 3603.000
1348.275, 3528.000
1349.342, 3581.000
1350.408, 3537.000
1351.475, 3531.000
1352.541, 3578.000
1353.607, 3521.000
1354.673, 3605.000
1355.738, 3529.000
