##NAMES=Cassiterite
##RRUFFID=R050502
##IDEAL CHEMISTRY=SnO_2_
##LOCALITY=Redruth, Cornwall, England
##OWNER=RRUFF
##SOURCE=California Institute of Technology
##DESCRIPTION=Black crystals associated with colorless quartz and grey stannite.
##STATUS=The identification of this mineral has been confirmed by X-ray diffraction and chemical analysis
##URL=rruff.info/R050502
##MEASURED CHEMISTRY=SnO_2_
##PIN_ID=M00088
##ORIENTATION=Laser parallel to -c* (0 0 -1). Fiducial mark perpendicular to laser is parallel to b [0 1 0]
201.1900, 7691.000
202.4130, 7709.000
203.6360, 7532.000
204.8590, 7588.000
206.0820, 7712.000
207.3050, 7728.000
208.5270, 7632.000
209.7490, 7820.000
210.9710, 7888.000
212.1930, 8000.000
213.4150, 8215.000
214.6370, 8240.341
215.8580, 8372.143
217.0790, 8478.000
218.3010, 8520.000
219.5210, 8858.000
220.7420, 8904.000
221.9630, 8913.000
223.1830, 9131.000
224.4040, 9163.000
225.6240, 9175.000
226.8440, 9226.000
228.0640, 9347.000
229.2840, 9661.000
230.5030, 9711.000
231.7230, 10035.00
232.9420, 10478.00
234.1610, 10766.00
235.3800, 11231.00
236.5990, 11050.00
237.8170, 10827.00
239.0360, 10901.00
240.2540, 11187.00
241.4720, 11247.00
242.6900, 11394.00
243.9080, 11328.00
245.1250, 11141.00
246.3430, 10796.00
247.5600, 10150.00
248.7770, 9464.000
249.9940, 9040.000
251.2110, 8734.000
252.4280, 8488.000
253.6450, 8401.000
254.8610, 8300.000
256.0770, 8375.000
257.2930, 8434.000
258.5090, 8683.000
259.7250, 8611.000
260.9400, 8375.000
262.1560, 8147.000
263.3710, 8155.000
264.5860, 8250.000
265.8010, 8040.000
267.0160, 7962.000
268.2310, 7848.000
269.4450, 7788.000
270.6600, 7724.000
271.8740, 7666.000
273.0880, 7685.000
274.3020, 7673.000
275.5150, 7751.000
276.7290, 7764.000
277.9420, 7817.000
279.1550, 7871.000
280.3680, 7926.312
281.5810, 7894.000
282.7940, 8083.000
284.0070, 8148.000
285.2190, 8264.650
286.4310, 8237.535
287.6430, 8207.448
288.8550, 8125.000
290.0670, 8029.000
291.2790, 7990.000
292.4900, 7885.000
293.7020, 7871.104
294.9130, 7781.000
296.1240, 7834.000
297.3350, 7781.000
298.5450, 7749.000
299.7560, 7753.000
300.9660, 7603.000
302.1760, 7623.000
303.3860, 7619.000
304.5960, 7518.000
305.8060, 7418.000
307.0150, 7441.000
308.2250, 7381.000
309.4340, 7345.000
310.6430, 7315.000
311.8520, 7250.000
313.0610, 7188.000
314.2700, 7207.000
315.4780, 7139.000
316.6860, 7210.000
317.8940, 7116.000
319.1020, 7075.000
320.3100, 7097.000
321.5180, 7069.000
322.7250, 7128.000
323.9330, 7032.000
325.1400, 6999.000
326.3470, 6909.000
327.5540, 7082.000
328.7600, 7024.000
329.9670, 7069.000
331.1730, 6999.000
332.3800, 7126.000
333.5860, 7098.000
334.7920, 7120.000
335.9970, 7161.000
337.2030, 7206.000
338.4080, 7321.000
339.6140, 7273.000
340.8190, 7289.000
342.0240, 7281.000
343.2290, 7488.000
344.4330, 7462.000
345.6380, 7419.000
346.8420, 7606.000
348.0460, 7513.000
349.2500, 7613.000
350.4540, 7621.000
351.6580, 7639.000
352.8610, 7561.000
354.0650, 7414.000
355.2680, 7424.000
356.4710, 7260.000
357.6740, 7158.000
358.8760, 7040.000
360.0790, 6856.000
361.2810, 6613.000
362.4840, 6542.000
363.6860, 6315.000
364.8880, 6169.000
366.0900, 6339.000
367.2910, 6156.407
368.4930, 6402.000
369.6940, 6086.000
370.8950, 6180.000
372.0960, 6191.000
373.2970, 6165.000
374.4980, 6236.000
375.6980, 6187.000
376.8980, 6292.000
378.0990, 6287.000
379.2990, 6218.000
380.4980, 6342.000
381.6980, 6332.000
382.8980, 6399.000
384.0970, 6421.000
385.2960, 6418.000
386.4950, 6567.000
387.6940, 6673.000
388.8930, 6733.000
390.0920, 6793.434
391.2900, 6836.448
392.4880, 6834.000
393.6860, 6913.000
394.8840, 6925.000
396.0820, 7016.000
397.2800, 7068.000
398.4770, 7206.000
399.6750, 7199.000
400.8720, 7421.000
402.0690, 7512.000
403.2660, 7636.000
404.4620, 7865.000
405.6590, 7976.000
406.8550, 8180.000
408.0510, 8400.000
409.2480, 8530.000
410.4430, 8684.000
411.6390, 8926.574
412.8350, 9277.000
414.0300, 9320.000
415.2250, 9654.000
416.4200, 9692.000
417.6150, 9977.000
418.8100, 10171.00
420.0050, 10346.00
421.1990, 10641.00
422.3940, 10810.14
423.5880, 11052.00
424.7820, 11208.00
425.9750, 11348.00
427.1690, 11509.00
428.3630, 11607.00
429.5560, 11688.96
430.7490, 11847.00
431.9420, 11764.00
433.1350, 11857.00
434.3280, 11820.00
435.5200, 11899.00
436.7130, 11805.00
437.9050, 11774.00
439.0970, 11722.00
440.2890, 11943.00
441.4810, 11993.00
442.6720, 12210.00
443.8640, 12313.00
445.0550, 12622.00
446.2460, 12970.00
447.4370, 13395.00
448.6280, 13592.00
449.8180, 13980.00
451.0090, 14312.00
452.1990, 14481.00
453.3890, 14665.00
454.5790, 14782.00
455.7690, 15025.00
456.9590, 15028.00
458.1480, 15236.00
459.3380, 15078.00
460.5270, 15143.00
461.7160, 15180.00
462.9050, 15100.00
464.0940, 15060.00
465.2820, 15021.44
466.4700, 15044.00
467.6590, 14861.00
468.8470, 14703.00
470.0350, 14517.00
471.2220, 14234.72
472.4100, 14000.00
473.5970, 13585.00
474.7850, 13228.00
475.9720, 12792.00
477.1590, 12529.00
478.3460, 12275.00
479.5320, 12134.00
480.7190, 11846.00
481.9050, 11666.00
483.0910, 11523.00
484.2770, 11580.00
485.4630, 11441.00
486.6490, 11543.00
487.8340, 11385.00
489.0200, 11426.00
490.2050, 11224.00
491.3900, 11242.00
492.5750, 11106.00
493.7600, 11133.00
494.9440, 11104.00
496.1290, 10889.00
497.3130, 10916.00
498.4970, 10796.00
499.6810, 10856.00
500.8650, 10627.00
502.0480, 10535.00
503.2320, 10506.00
504.4150, 10496.00
505.5980, 10336.00
506.7810, 10243.00
507.9640, 10126.00
509.1460, 10004.00
510.3290, 9917.557
511.5110, 9816.000
512.6930, 9732.000
513.8750, 9584.000
515.0570, 9485.000
516.2390, 9433.000
517.4210, 9341.000
518.6020, 9376.000
519.7830, 9250.000
520.9640, 9247.000
522.1450, 9180.188
523.3260, 9039.000
524.5060, 9046.000
525.6870, 9020.000
526.8670, 8958.000
528.0470, 8924.000
529.2270, 8957.000
530.4070, 8819.000
531.5870, 8920.000
532.7660, 8966.000
533.9450, 8917.000
535.1240, 8984.000
536.3030, 9075.000
537.4820, 9047.000
538.6610, 9078.000
539.8390, 9076.000
541.0180, 9123.000
542.1960, 9132.000
543.3740, 9154.000
544.5520, 9184.000
545.7290, 9092.000
546.9070, 9240.000
548.0840, 9137.000
549.2620, 9216.000
550.4390, 9283.000
551.6160, 9140.000
552.7920, 9287.000
553.9690, 9287.000
555.1450, 9266.000
556.3220, 9373.000
557.4980, 9375.000
558.6740, 9296.000
559.8490, 9210.000
561.0250, 9162.000
562.2000, 9264.000
563.3760, 9103.000
564.5510, 9235.000
565.7260, 9244.000
566.9010, 9228.510
568.0750, 9178.416
569.2500, 9224.000
570.4240, 8993.000
571.5980, 8883.000
572.7720, 8854.000
573.9460, 8903.000
575.1200, 8888.000
576.2930, 8935.000
577.4670, 8911.000
578.6400, 9101.000
579.8130, 9289.000
580.9860, 9274.000
582.1590, 9603.000
583.3310, 9633.000
584.5040, 9752.000
585.6760, 10094.00
586.8480, 10329.00
588.0200, 10638.00
589.1920, 10716.00
590.3630, 11092.00
591.5350, 11467.00
592.7060, 11556.00
593.8770, 11897.00
595.0480, 12111.00
596.2190, 12450.00
597.3900, 12748.00
598.5600, 13067.00
599.7310, 13505.00
600.9010, 13762.00
602.0710, 14286.00
603.2410, 14769.00
604.4100, 15300.00
605.5800, 15745.00
606.7490, 16275.00
607.9190, 16758.54
609.0880, 17198.00
610.2570, 17744.00
611.4250, 18244.00
612.5940, 18744.00
613.7620, 19513.00
614.9310, 20168.00
616.0990, 21110.00
617.2670, 22690.00
618.4340, 24481.00
619.6020, 26433.00
620.7690, 28733.00
621.9370, 31738.00
623.1040, 35199.00
624.2710, 38794.00
625.4380, 42141.00
626.6040, 45536.00
627.7710, 47662.00
628.9370, 49714.00
630.1030, 50811.00
631.2690, 51228.00
632.4350, 50684.00
633.6010, 48683.00
634.7660, 46050.00
635.9320, 42389.00
637.0970, 38479.00
638.2620, 34447.00
639.4270, 30549.00
640.5920, 27365.00
641.7560, 24627.00
642.9210, 22497.00
644.0850, 20953.00
645.2490, 19519.00
646.4130, 18304.00
647.5770, 17297.00
648.7400, 16429.00
649.9040, 15881.00
651.0670, 15175.00
652.2300, 14666.00
653.3930, 13906.00
654.5560, 13660.00
655.7190, 13140.00
656.8810, 12653.00
658.0440, 12342.00
659.2060, 11948.82
660.3680, 11669.00
661.5300, 11377.00
662.6910, 11089.00
663.8530, 10887.00
665.0140, 10674.47
666.1750, 10609.00
667.3360, 10330.00
668.4970, 10250.00
669.6580, 10075.00
670.8190, 9916.000
671.9790, 9848.000
673.1390, 9763.000
674.2990, 9812.000
675.4590, 9697.000
676.6190, 9619.000
677.7790, 9645.000
678.9380, 9812.000
680.0970, 9752.000
681.2570, 9817.000
682.4160, 9750.000
683.5740, 9791.000
684.7330, 9852.000
685.8920, 9999.000
687.0500, 10090.00
688.2080, 10240.00
689.3660, 10183.00
690.5240, 10292.00
691.6820, 10229.00
692.8390, 10323.00
693.9960, 10375.00
695.1540, 10265.00
696.3110, 10347.00
697.4680, 10176.00
698.6240, 10138.00
699.7810, 9991.000
700.9370, 10060.00
702.0940, 10038.00
703.2500, 9924.000
704.4060, 9802.000
705.5610, 9947.000
706.7170, 10056.00
707.8720, 9992.000
709.0280, 10081.00
710.1830, 10226.00
711.3380, 10232.00
712.4920, 10370.00
713.6470, 10486.00
714.8020, 10631.00
715.9560, 10730.98
717.1100, 10801.81
718.2640, 10892.00
719.4180, 10943.00
720.5720, 10930.00
721.7250, 11064.00
722.8780, 11056.00
724.0320, 10973.00
725.1850, 11134.00
726.3380, 11094.00
727.4900, 11230.00
728.6430, 11315.00
729.7950, 11250.00
730.9470, 11243.00
732.1000, 11251.00
733.2510, 11232.00
734.4030, 11233.35
735.5550, 11219.04
736.7060, 11220.00
737.8570, 11193.00
739.0090, 11175.00
740.1600, 11171.00
741.3100, 11264.00
742.4610, 11307.00
743.6110, 11312.00
744.7620, 11315.00
745.9120, 11326.00
747.0620, 11262.00
748.2120, 11300.00
749.3610, 11168.00
750.5110, 11239.00
751.6600, 11159.00
752.8090, 11334.00
753.9580, 11170.00
755.1070, 10982.00
756.2560, 11083.00
757.4050, 11096.00
758.5530, 10934.00
759.7010, 11236.00
760.8490, 11266.00
761.9970, 11526.00
763.1450, 11964.00
764.2920, 12157.00
765.4400, 12848.00
766.5870, 13462.00
767.7340, 13780.00
768.8810, 14459.00
770.0280, 14898.00
771.1740, 15211.00
772.3210, 15588.00
773.4670, 15606.00
774.6130, 15444.00
775.7590, 15056.00
776.9050, 14718.00
778.0510, 14134.00
779.1960, 13334.00
780.3420, 12456.00
781.4870, 11972.00
782.6320, 11425.00
783.7770, 10784.00
784.9210, 10227.00
786.0660, 9673.000
787.2100, 9372.000
788.3540, 9012.000
789.4980, 8773.000
790.6420, 8584.000
791.7860, 8281.000
792.9300, 8168.000
794.0730, 8015.000
795.2160, 7810.000
796.3590, 7732.000
797.5020, 7539.000
798.6450, 7449.000
799.7880, 7328.000
800.9300, 7142.000
802.0720, 6968.000
803.2150, 6915.000
804.3560, 6797.000
805.4980, 6655.000
806.6400, 6537.000
807.7810, 6410.000
808.9230, 6305.000
810.0640, 6189.000
811.2050, 6079.000
812.3460, 5928.000
813.4860, 5854.000
814.6270, 5748.000
815.7670, 5806.000
816.9070, 5702.000
818.0470, 5620.000
819.1870, 5644.000
820.3270, 5427.000
821.4670, 5514.000
822.6060, 5381.287
823.7450, 5320.639
824.8840, 5217.000
826.0230, 5222.000
827.1620, 5181.000
828.3010, 5176.000
829.4390, 5148.592
830.5770, 5026.000
831.7150, 5114.000
832.8530, 5036.000
833.9910, 5059.000
835.1290, 5161.000
836.2660, 5105.000
837.4030, 5020.000
838.5410, 5020.000
839.6780, 5093.000
840.8140, 5080.000
841.9510, 5107.000
843.0870, 5121.445
844.2240, 5084.000
845.3600, 5160.000
846.4960, 5123.000
847.6320, 5204.000
848.7680, 5151.000
849.9030, 5253.000
851.0380, 5204.000
852.1740, 5105.000
853.3090, 5147.000
854.4440, 5193.000
855.5780, 5193.000
856.7130, 5233.000
857.8470, 5181.000
858.9820, 5269.000
860.1160, 5209.000
861.2500, 5244.000
862.3830, 5360.000
863.5170, 5184.000
864.6500, 5160.000
865.7840, 5165.000
866.9170, 5176.000
868.0500, 5138.000
869.1830, 5126.000
870.3150, 5079.000
871.4480, 5065.772
872.5800, 5038.763
873.7120, 5028.000
874.8440, 4988.000
875.9760, 4962.000
877.1080, 4929.000
878.2390, 4893.208
879.3710, 4863.000
880.5020, 4824.000
881.6330, 4776.000
882.7640, 4741.786
883.8940, 4699.981
885.0250, 4684.000
886.1550, 4630.000
887.2850, 4605.000
888.4160, 4588.000
889.5450, 4486.000
890.6750, 4569.000
891.8050, 4567.000
892.9340, 4509.000
894.0630, 4376.000
895.1930, 4364.000
896.3220, 4411.000
897.4500, 4412.000
898.5790, 4308.000
899.7070, 4356.000
900.8360, 4262.000
901.9640, 4306.000
903.0920, 4248.000
904.2200, 4281.000
905.3470, 4310.000
906.4750, 4252.000
907.6020, 4229.000
908.7290, 4206.000
909.8560, 4236.000
910.9830, 4232.000
912.1100, 4227.000
913.2360, 4216.178
914.3630, 4170.000
915.4890, 4183.000
916.6150, 4170.142
917.7410, 4183.556
918.8670, 4213.000
919.9920, 4121.000
921.1180, 4156.000
922.2430, 4016.000
923.3680, 4158.000
924.4930, 4180.000
925.6180, 4157.000
926.7420, 4118.000
927.8670, 4112.000
928.9910, 4093.000
930.1150, 4085.000
931.2390, 4030.000
932.3630, 4062.000
933.4860, 4073.000
934.6100, 4104.000
935.7330, 4144.000
936.8560, 4136.000
937.9790, 4148.000
939.1020, 4134.000
940.2250, 4101.000
941.3470, 4128.000
942.4700, 4123.000
943.5920, 4159.000
944.7140, 4188.000
945.8360, 4136.000
946.9570, 4166.000
948.0790, 4206.000
949.2000, 4211.000
950.3220, 4239.000
951.4430, 4231.792
952.5640, 4241.795
953.6840, 4209.000
954.8050, 4247.000
955.9250, 4242.000
957.0460, 4245.000
958.1660, 4301.000
959.2860, 4339.000
960.4050, 4395.000
961.5250, 4298.000
962.6440, 4337.000
963.7640, 4307.000
964.8830, 4378.000
966.0020, 4346.000
967.1210, 4441.000
968.2390, 4483.000
969.3580, 4497.000
970.4760, 4535.892
971.5940, 4462.000
972.7120, 4529.000
973.8300, 4469.000
974.9480, 4400.000
976.0650, 4419.000
977.1830, 4371.000
978.3000, 4432.000
979.4170, 4415.000
980.5340, 4309.000
981.6500, 4396.000
982.7670, 4321.000
983.8830, 4332.000
985.0000, 4342.000
986.1160, 4292.000
987.2320, 4219.000
988.3470, 4375.000
989.4630, 4227.000
990.5780, 4256.000
991.6940, 4171.000
992.8090, 4165.000
993.9240, 4294.000
995.0380, 4271.000
996.1530, 4241.000
997.2680, 4243.000
998.3820, 4253.000
999.4960, 4231.899
1000.610, 4233.000
1001.724, 4237.000
1002.837, 4203.000
1003.951, 4259.000
1005.064, 4169.000
1006.177, 4212.000
1007.291, 4178.000
1008.403, 4253.000
1009.516, 4206.000
1010.629, 4270.000
1011.741, 4160.000
1012.853, 4277.000
1013.965, 4240.000
1015.077, 4237.000
1016.189, 4263.000
1017.300, 4253.000
1018.412, 4156.000
1019.523, 4152.000
1020.634, 4195.000
1021.745, 4266.000
1022.856, 4154.000
1023.966, 4292.000
1025.077, 4264.000
1026.187, 4131.000
1027.297, 4247.000
1028.407, 4247.000
1029.517, 4202.000
1030.627, 4272.000
1031.736, 4264.000
1032.845, 4300.000
1033.955, 4247.000
1035.064, 4239.000
1036.172, 4251.000
1037.281, 4204.000
1038.390, 4209.000
1039.498, 4304.000
1040.606, 4248.000
1041.714, 4108.000
1042.822, 4240.000
1043.930, 4171.000
1045.037, 4251.000
1046.145, 4192.000
1047.252, 4172.000
1048.359, 4169.000
1049.466, 4115.000
1050.573, 4104.000
1051.679, 4130.000
1052.786, 4198.000
1053.892, 4087.000
1054.998, 4129.000
1056.104, 4076.000
1057.210, 4040.000
1058.315, 4089.000
1059.421, 3956.000
1060.526, 4079.000
1061.631, 4058.000
1062.736, 3981.000
1063.841, 4052.000
1064.946, 4042.000
1066.050, 3995.000
1067.154, 4077.000
1068.258, 4093.000
1069.362, 3963.000
1070.466, 4002.000
1071.570, 3993.000
1072.674, 4082.000
1073.777, 4009.000
1074.880, 3961.000
1075.983, 4041.000
1077.086, 4089.000
1078.189, 4014.000
1079.291, 4029.000
1080.394, 3986.000
1081.496, 4033.000
1082.598, 4032.000
1083.700, 4077.000
1084.802, 3983.000
1085.903, 4036.000
1087.005, 3934.000
1088.106, 3987.000
1089.207, 3969.000
1090.308, 4003.000
1091.409, 3985.000
1092.509, 3969.000
1093.610, 4080.000
1094.710, 3915.000
1095.810, 4036.000
1096.910, 4043.000
1098.010, 4021.000
1099.110, 4072.778
1100.209, 4047.000
1101.309, 4094.000
1102.408, 4023.000
1103.507, 4035.000
1104.606, 4082.000
1105.704, 3999.000
1106.803, 4085.000
1107.901, 4026.000
1108.999, 4030.000
1110.097, 4132.000
1111.195, 4042.000
1112.293, 4067.000
1113.391, 4119.000
1114.488, 4086.000
1115.585, 4131.000
1116.682, 4119.000
1117.779, 4250.000
1118.876, 4300.000
1119.973, 4376.000
1121.069, 4361.000
1122.165, 4327.000
1123.261, 4286.000
1124.357, 4273.000
1125.453, 4254.000
1126.549, 4195.000
1127.644, 4198.000
1128.739, 4151.000
1129.835, 4133.000
1130.930, 4156.000
1132.024, 4126.000
1133.119, 4046.000
1134.214, 4039.000
1135.308, 4070.000
1136.402, 4114.000
1137.496, 4048.000
1138.590, 4044.000
1139.684, 4172.000
1140.777, 4107.992
1141.871, 4097.000
1142.964, 4070.000
1144.057, 4017.000
1145.150, 3921.300
1146.243, 3971.230
1147.335, 4155.000
1148.428, 4027.000
1149.520, 4060.000
1150.612, 4042.000
1151.704, 4014.000
1152.796, 3965.000
1153.887, 4026.000
1154.979, 4032.000
1156.070, 4010.000
1157.161, 4031.000
1158.252, 4040.000
1159.343, 4065.000
1160.433, 4000.000
1161.524, 4018.000
1162.614, 3972.000
1163.704, 3937.000
1164.794, 4006.000
1165.884, 3951.000
1166.974, 3865.000
1168.063, 3973.000
1169.153, 3922.000
1170.242, 3970.000
1171.331, 3977.000
1172.420, 3999.000
1173.508, 4020.000
1174.597, 3984.000
1175.685, 4033.000
1176.774, 3974.000
1177.862, 4074.000
1178.950, 4053.000
1180.037, 4011.000
1181.125, 4089.000
1182.212, 3947.000
1183.300, 3997.000
1184.387, 4010.000
1185.474, 4019.000
1186.560, 4037.293
1187.647, 4032.490
1188.733, 4045.000
1189.820, 4023.000
1190.906, 4019.000
1191.992, 4013.000
1193.078, 4033.000
1194.163, 4068.000
1195.249, 4065.000
1196.334, 3983.000
1197.419, 4023.000
1198.504, 4037.000
1199.589, 3937.000
1200.674, 4039.000
1201.758, 4091.000
1202.843, 3997.000
1203.927, 4031.000
1205.011, 4057.000
1206.095, 4073.000
1207.179, 4049.000
1208.262, 4037.000
1209.345, 4053.000
1210.429, 4080.000
1211.512, 4085.000
1212.595, 4109.000
1213.677, 4053.000
1214.760, 4055.000
1215.842, 4071.000
1216.925, 4083.000
1218.007, 4078.324
1219.089, 4099.000
1220.171, 4067.000
1221.252, 4055.000
1222.334, 4042.000
1223.415, 4106.000
1224.496, 4179.000
1225.577, 4115.000
1226.658, 4174.000
1227.738, 4164.000
1228.819, 4195.000
1229.899, 4183.000
1230.979, 4157.000
1232.060, 4131.000
1233.139, 4167.000
1234.219, 4112.000
1235.299, 4212.000
1236.378, 4226.000
1237.457, 4174.000
1238.536, 4125.000
1239.615, 4248.000
1240.694, 4197.000
1241.772, 4252.000
1242.851, 4234.000
1243.929, 4212.000
1245.007, 4170.000
1246.085, 4177.000
1247.163, 4151.000
1248.240, 4174.000
1249.318, 4203.000
1250.395, 4257.000
1251.472, 4223.000
1252.549, 4177.000
1253.626, 4284.000
1254.703, 4246.000
1255.779, 4207.000
1256.855, 4308.000
1257.931, 4211.000
1259.007, 4249.000
1260.083, 4225.957
1261.159, 4258.000
1262.234, 4224.000
1263.310, 4169.000
1264.385, 4289.000
1265.460, 4287.000
1266.535, 4228.000
1267.610, 4259.000
1268.684, 4197.000
1269.758, 4310.000
1270.833, 4169.000
1271.907, 4260.000
1272.981, 4185.000
1274.054, 4235.000
1275.128, 4242.000
1276.201, 4287.000
1277.275, 4300.000
1278.348, 4360.000
1279.421, 4227.000
1280.493, 4251.000
1281.566, 4257.000
1282.638, 4272.000
1283.711, 4266.171
1284.783, 4262.000
1285.855, 4246.000
1286.927, 4218.000
1287.998, 4206.000
1289.070, 4316.000
1290.141, 4271.000
1291.212, 4354.000
1292.283, 4247.000
1293.354, 4303.000
1294.425, 4286.000
1295.495, 4309.000
1296.566, 4360.000
1297.636, 4315.000
1298.706, 4279.000
1299.776, 4312.000
1300.845, 4312.000
1301.915, 4426.000
1302.984, 4269.000
1304.054, 4380.000
1305.123, 4335.000
1306.191, 4256.000
1307.260, 4319.000
1308.329, 4315.000
1309.397, 4320.000
1310.465, 4348.000
1311.534, 4344.000
1312.602, 4368.000
1313.669, 4335.000
1314.737, 4313.000
1315.804, 4319.000
1316.872, 4328.000
1317.939, 4359.000
1319.006, 4321.000
1320.073, 4358.000
1321.139, 4356.000
1322.206, 4356.000
1323.272, 4394.000
1324.338, 4384.287
1325.404, 4364.000
1326.470, 4375.000
1327.536, 4364.000
1328.601, 4362.789
1329.667, 4366.000
1330.732, 4361.000
1331.797, 4381.000
1332.862, 4380.000
1333.926, 4328.000
1334.991, 4452.000
1336.055, 4355.000
1337.120, 4391.000
1338.184, 4470.000
1339.248, 4404.000
1340.311, 4540.000
1341.375, 4434.000
1342.438, 4391.000
1343.502, 4380.000
1344.565, 4447.000
1345.628, 4431.000
1346.691, 4419.000
1347.753, 4412.000
1348.816, 4413.000
1349.878, 4470.000
1350.940, 4371.000
1352.002, 4473.000
1353.064, 4507.000
1354.126, 4447.000
1355.187, 4520.000
1356.248, 4442.000
1357.310, 4451.000
1358.371, 4569.000
1359.431, 4556.000
1360.492, 4563.000
1361.553, 4444.000
1362.613, 4550.000
1363.673, 4568.000
1364.733, 4567.328
1365.793, 4638.000
1366.853, 4651.000
1367.912, 4502.000
1368.972, 4587.000
1370.031, 4580.000
