##NAMES=Catapleiite
##RRUFFID=R040005
##IDEAL CHEMISTRY=Na_2_Zr^4+^Si_3_O_9_&#183;2H_2_O
##LOCALITY=Langesundsfjord Eikaholmen Vestfold, Norway
##OWNER=RRUFF
##SOURCE=University of Arizona Mineral Museum
##DESCRIPTION=Brown thin tabular crystal
##STATUS=The identification of this mineral has been confirmed by X-ray diffraction and chemical analysis
##URL=rruff.info/R040005
##MEASURED CHEMISTRY=(Na_1.28_Ca_0.36_[box]_0.36_)_Σ=2_Zr_1.00_Si_3.00_O_9_·2H_2_O
##PIN_ID=L01591
##ORIENTATION=Laser parallel to b* (0 1 0). Fiducial mark perpendicular to laser is parallel to -c [0 0 -1]
120.5960, 23056.00
121.8270, 22945.00
123.0580, 22943.00
124.2880, 22563.00
125.5190, 22433.00
126.7490, 22313.00
127.9790, 22550.00
129.2090, 22444.00
130.4390, 22633.00
131.6680, 22486.00
132.8980, 22379.00
134.1270, 22365.00
135.3560, 22423.00
136.5850, 22613.00
137.8140, 22607.00
139.0430, 22900.00
140.2710, 22744.00
141.5000, 22818.00
142.7280, 22687.00
143.9560, 22724.00
145.1840, 22760.00
146.4120, 22872.00
147.6390, 22725.00
148.8670, 22731.00
150.0940, 22932.00
151.3210, 22990.00
152.5490, 22614.00
153.7750, 22672.00
155.0020, 22658.00
156.2290, 22644.00
157.4550, 22617.91
158.6810, 22365.00
159.9080, 22470.00
161.1340, 22367.00
162.3590, 22193.00
163.5850, 22593.00
164.8110, 22659.00
166.0360, 22536.00
167.2610, 22552.00
168.4860, 22410.00
169.7110, 22461.00
170.9360, 22596.00
172.1610, 22502.00
173.3850, 22727.00
174.6100, 22692.00
175.8340, 22675.00
177.0580, 22719.00
178.2820, 22881.00
179.5050, 22981.00
180.7290, 23053.00
181.9520, 22613.00
183.1760, 23008.00
184.3990, 23030.00
185.6220, 23097.00
186.8450, 23505.00
188.0670, 23580.00
189.2900, 23685.00
190.5120, 23756.00
191.7340, 23844.00
192.9560, 23980.85
194.1780, 24069.43
195.4000, 24296.00
196.6220, 24339.00
197.8430, 24563.00
199.0640, 24803.00
200.2860, 24870.00
201.5070, 25020.00
202.7270, 25134.00
203.9480, 25143.00
205.1690, 25094.00
206.3890, 25097.00
207.6090, 25163.00
208.8290, 25131.00
210.0490, 25230.00
211.2690, 25352.00
212.4890, 24937.00
213.7080, 24980.00
214.9280, 24655.00
216.1470, 24298.00
217.3660, 23912.00
218.5850, 23729.00
219.8030, 23206.00
221.0220, 23005.00
222.2400, 22698.00
223.4590, 22329.00
224.6770, 22245.00
225.8950, 21705.00
227.1120, 21394.00
228.3300, 21274.00
229.5480, 21071.00
230.7650, 20817.00
231.9820, 20697.00
233.1990, 20585.00
234.4160, 20476.00
235.6330, 20401.00
236.8490, 20298.72
238.0660, 20089.00
239.2820, 20074.00
240.4980, 20026.00
241.7140, 19812.00
242.9300, 19876.00
244.1460, 19744.00
245.3610, 19800.00
246.5770, 19698.00
247.7920, 19621.00
249.0070, 19714.00
250.2220, 19489.00
251.4370, 19408.00
252.6510, 19607.00
253.8660, 19329.00
255.0800, 19384.00
256.2940, 19243.00
257.5080, 19662.00
258.7220, 19837.00
259.9360, 19636.00
261.1490, 19428.00
262.3630, 19208.00
263.5760, 19227.00
264.7890, 19073.00
266.0020, 19013.00
267.2150, 19012.00
268.4270, 19128.00
269.6400, 19128.00
270.8520, 19035.00
272.0640, 18936.00
273.2760, 18909.00
274.4880, 18995.00
275.7000, 18809.00
276.9120, 18877.00
278.1230, 18717.00
279.3340, 18858.00
280.5450, 18887.00
281.7560, 18915.00
282.9670, 18986.00
284.1780, 18801.00
285.3880, 18922.00
286.5980, 18801.00
287.8090, 18816.00
289.0190, 18741.00
290.2290, 18827.00
291.4380, 18897.89
292.6480, 19088.00
293.8570, 19143.00
295.0670, 19084.00
296.2760, 19207.00
297.4850, 19260.00
298.6930, 19240.00
299.9020, 19377.00
301.1110, 19344.00
302.3190, 19338.00
303.5270, 19568.00
304.7350, 19479.00
305.9430, 19444.00
307.1510, 19764.00
308.3580, 19594.00
309.5660, 19554.00
310.7730, 19789.00
311.9800, 19773.00
313.1870, 19875.00
314.3940, 20111.00
315.6010, 20030.00
316.8070, 20071.00
318.0130, 19928.00
319.2200, 19950.00
320.4260, 20053.00
321.6310, 20038.00
322.8370, 20054.00
324.0430, 20174.00
325.2480, 20090.00
326.4540, 20174.00
327.6590, 20057.00
328.8640, 19987.00
330.0680, 20070.00
331.2730, 20034.00
332.4780, 19924.00
333.6820, 20015.00
334.8860, 20137.00
336.0900, 20117.00
337.2940, 20060.00
338.4980, 20125.65
339.7010, 20054.00
340.9050, 20160.00
342.1080, 20172.00
343.3110, 20196.15
344.5140, 20147.00
345.7170, 20154.00
346.9200, 20214.00
348.1220, 20262.00
349.3240, 20260.00
350.5270, 20382.00
351.7290, 20413.00
352.9310, 20461.50
354.1320, 20600.00
355.3340, 20547.00
356.5350, 20628.00
357.7370, 20656.00
358.9380, 20834.00
360.1390, 20745.00
361.3400, 20915.00
362.5400, 20879.00
363.7410, 21012.00
364.9410, 21079.00
366.1410, 21099.00
367.3410, 21060.00
368.5410, 20971.00
369.7410, 21121.00
370.9400, 21215.00
372.1400, 21125.00
373.3390, 20974.00
374.5380, 20887.00
375.7370, 20833.00
376.9360, 20986.00
378.1350, 20873.00
379.3330, 20936.00
380.5310, 20785.00
381.7300, 20839.00
382.9280, 20868.00
384.1260, 20922.00
385.3230, 20966.00
386.5210, 21043.00
387.7180, 20952.00
388.9160, 21118.00
390.1130, 21156.00
391.3100, 21345.00
392.5060, 21294.00
393.7030, 21400.00
394.9000, 21481.00
396.0960, 21471.00
397.2920, 21500.00
398.4880, 21572.45
399.6840, 21660.00
400.8800, 21687.00
402.0750, 21841.00
403.2710, 21864.00
404.4660, 22235.00
405.6610, 22304.00
406.8560, 22420.00
408.0510, 22698.00
409.2450, 22736.00
410.4400, 22994.00
411.6340, 23167.00
412.8280, 23316.00
414.0220, 23538.00
415.2160, 23984.00
416.4100, 24188.00
417.6030, 24891.00
418.7970, 25187.00
419.9900, 25736.00
421.1830, 26059.00
422.3760, 26830.00
423.5690, 27300.00
424.7610, 28302.00
425.9540, 28717.00
427.1460, 29203.00
428.3380, 29798.00
429.5300, 30265.00
430.7220, 30816.00
431.9140, 31227.00
433.1050, 31302.00
434.2970, 31516.00
435.4880, 31090.00
436.6790, 31090.00
437.8700, 30907.00
439.0610, 30495.00
440.2510, 30240.00
441.4420, 29953.00
442.6320, 29066.00
443.8220, 28816.00
445.0120, 28208.00
446.2020, 27552.34
447.3910, 26996.67
448.5810, 26260.00
449.7700, 25700.00
450.9600, 24978.00
452.1490, 24488.00
453.3370, 24175.00
454.5260, 23656.00
455.7150, 23516.00
456.9030, 23117.00
458.0910, 22769.00
459.2800, 22632.00
460.4670, 22439.00
461.6550, 22164.00
462.8430, 22193.00
464.0300, 21825.00
465.2180, 21874.00
466.4050, 21625.00
467.5920, 21602.00
468.7790, 21428.00
469.9650, 21292.00
471.1520, 21156.00
472.3380, 21250.00
473.5250, 21327.00
474.7110, 21240.00
475.8970, 21126.00
477.0820, 21334.00
478.2680, 21165.00
479.4540, 21171.00
480.6390, 21019.00
481.8240, 21146.00
483.0090, 20816.00
484.1940, 21065.00
485.3780, 20910.00
486.5630, 20898.00
487.7470, 20865.00
488.9320, 20836.69
490.1160, 20798.00
491.3000, 20897.00
492.4830, 20877.00
493.6670, 20993.00
494.8500, 20970.00
496.0340, 20989.00
497.2170, 20923.00
498.4000, 20979.00
499.5820, 21205.00
500.7650, 21021.00
501.9480, 21258.00
503.1300, 21227.00
504.3120, 21297.00
505.4940, 21330.00
506.6760, 21458.00
507.8580, 21421.00
509.0390, 21657.00
510.2210, 21601.00
511.4020, 21577.00
512.5830, 21904.00
513.7640, 22003.00
514.9450, 22064.00
516.1250, 22078.00
517.3060, 22058.00
518.4860, 22412.00
519.6660, 22238.00
520.8460, 22235.00
522.0260, 21983.00
523.2060, 22014.00
524.3850, 22042.00
525.5650, 21967.00
526.7440, 21921.00
527.9230, 21907.85
529.1020, 21830.00
530.2810, 21784.00
531.4590, 21652.00
532.6380, 21440.00
533.8160, 21593.00
534.9940, 21433.00
536.1720, 21261.00
537.3500, 21311.00
538.5270, 21300.00
539.7050, 21054.00
540.8820, 21264.00
542.0590, 21164.00
543.2360, 21069.00
544.4130, 21195.00
545.5900, 20930.00
546.7660, 21003.00
547.9430, 20910.00
549.1190, 20946.00
550.2950, 20948.00
551.4710, 21148.00
552.6470, 20851.00
553.8220, 21067.00
554.9980, 21033.00
556.1730, 21234.00
557.3480, 21222.00
558.5230, 21185.00
559.6980, 21190.00
560.8730, 21217.00
562.0470, 21091.00
563.2220, 21454.00
564.3960, 21575.00
565.5700, 21639.00
566.7440, 21565.00
567.9170, 21704.00
569.0910, 22086.00
570.2640, 21917.00
571.4380, 22081.00
572.6110, 22279.00
573.7840, 22059.00
574.9570, 22024.00
576.1290, 22163.00
577.3020, 22304.00
578.4740, 22194.00
579.6460, 22121.00
580.8180, 22073.00
581.9900, 22133.00
583.1620, 22010.25
584.3330, 22058.00
585.5040, 21822.00
586.6760, 21784.00
587.8470, 21650.00
589.0180, 21571.00
590.1880, 21683.00
591.3590, 21703.00
592.5290, 21676.00
593.7000, 21736.00
594.8700, 21860.00
596.0400, 21733.00
597.2090, 21910.00
598.3790, 21960.00
599.5490, 22123.00
600.7180, 22071.00
601.8870, 22139.13
603.0560, 22349.00
604.2250, 22197.00
605.3940, 22296.00
606.5620, 22395.00
607.7300, 22612.00
608.8990, 22837.00
610.0670, 22970.00
611.2350, 23185.00
612.4020, 23475.00
613.5700, 23626.00
614.7370, 23967.00
615.9050, 24500.00
617.0720, 24847.00
618.2390, 25585.00
619.4060, 26043.00
620.5720, 26820.00
621.7390, 27424.00
622.9050, 28744.00
624.0710, 29634.00
625.2370, 30761.00
626.4030, 32178.00
627.5690, 33126.00
628.7340, 34096.00
629.9000, 34983.00
631.0650, 35390.00
632.2300, 35137.00
633.3950, 34429.00
634.5600, 33369.00
635.7240, 32324.00
636.8890, 30841.00
638.0530, 29545.00
639.2170, 28538.00
640.3810, 27097.00
641.5450, 26115.00
642.7080, 25004.00
643.8720, 24349.00
645.0350, 23939.00
646.1980, 23401.00
647.3610, 22922.00
648.5240, 22722.00
649.6870, 22385.00
650.8490, 22218.00
652.0120, 22130.00
653.1740, 22041.00
654.3360, 21956.00
655.4980, 21943.00
656.6600, 21607.00
657.8210, 21728.00
658.9830, 21545.00
660.1440, 21529.00
661.3050, 21549.00
662.4660, 21605.00
663.6270, 21336.00
664.7870, 21319.00
665.9480, 21236.00
667.1080, 21383.00
668.2680, 21482.00
669.4280, 21505.00
670.5880, 21538.00
671.7480, 21331.00
672.9070, 21469.00
674.0670, 21285.00
675.2260, 21364.00
676.3850, 21210.00
677.5440, 21330.00
678.7030, 21499.00
679.8610, 21388.00
681.0200, 21254.00
682.1780, 21576.00
683.3360, 21402.72
684.4940, 21729.00
685.6520, 21365.00
686.8090, 21361.00
687.9670, 21336.00
689.1240, 21428.00
690.2810, 21474.00
691.4380, 21491.00
692.5950, 21595.00
693.7520, 21565.87
694.9080, 21591.00
696.0650, 21523.00
697.2210, 21404.00
698.3770, 21335.00
699.5330, 21350.00
700.6880, 21350.37
701.8440, 21327.35
702.9990, 21469.00
704.1550, 21388.00
705.3100, 21446.00
706.4650, 21634.00
707.6190, 21710.00
708.7740, 21655.00
709.9290, 21507.00
711.0830, 21586.00
712.2370, 21590.00
713.3910, 21725.00
714.5450, 21669.00
715.6980, 21701.00
716.8520, 21744.00
718.0050, 21684.00
719.1580, 21722.00
720.3110, 21765.00
721.4640, 21780.00
722.6170, 21633.00
723.7700, 21764.00
724.9220, 21869.00
726.0740, 22005.00
727.2260, 21892.00
728.3780, 21962.00
729.5300, 22056.00
730.6810, 21893.00
731.8330, 22040.00
732.9840, 21938.00
734.1350, 21953.00
735.2860, 21844.00
736.4370, 21900.00
737.5880, 22102.00
738.7380, 22069.00
739.8880, 22095.00
741.0390, 22207.00
742.1890, 22240.00
743.3380, 22235.00
744.4880, 21996.00
745.6380, 22107.00
746.7870, 22205.00
747.9360, 22175.00
749.0850, 22321.00
750.2340, 22207.00
751.3830, 22199.00
752.5310, 22112.00
753.6800, 22027.00
754.8280, 22301.00
755.9760, 22078.00
757.1240, 22019.00
758.2720, 22252.00
759.4190, 22110.00
760.5670, 22006.00
761.7140, 22113.00
762.8610, 22188.00
764.0080, 22067.00
765.1550, 22328.00
766.3020, 22076.00
767.4480, 22122.00
768.5950, 22278.00
769.7410, 22289.00
770.8870, 22341.00
772.0330, 22300.00
773.1780, 22372.00
774.3240, 22116.00
775.4690, 22043.00
776.6140, 22246.00
777.7590, 22171.00
778.9040, 22283.00
780.0490, 22178.00
781.1940, 22341.00
782.3380, 22136.00
783.4820, 22120.00
784.6260, 22260.00
785.7700, 22380.00
786.9140, 22427.00
788.0580, 22228.00
789.2010, 22359.00
790.3450, 22309.00
791.4880, 22436.00
792.6310, 22371.00
793.7730, 22350.00
794.9160, 22258.00
796.0590, 22477.00
797.2010, 22318.00
798.3430, 22193.00
799.4850, 22369.00
800.6270, 22302.00
801.7690, 22576.00
802.9100, 22303.00
804.0520, 22572.00
805.1930, 22330.00
806.3340, 22720.00
807.4750, 22513.00
808.6160, 22547.00
809.7560, 22323.00
810.8970, 22647.00
812.0370, 22624.00
813.1770, 22659.00
814.3170, 22452.00
815.4570, 22619.00
816.5960, 22690.00
817.7360, 22850.00
818.8750, 22759.00
820.0140, 22492.00
821.1530, 22863.00
822.2920, 22665.00
823.4310, 22786.00
824.5690, 22857.00
825.7070, 22810.00
826.8460, 22983.00
827.9840, 22798.00
829.1220, 22761.00
830.2590, 22887.00
831.3970, 22987.00
832.5340, 22919.00
833.6710, 23025.64
834.8080, 23035.00
835.9450, 23067.00
837.0820, 23134.11
838.2190, 23119.25
839.3550, 23141.98
840.4910, 23094.00
841.6270, 23126.00
842.7630, 23063.00
843.8990, 23022.00
845.0350, 23157.00
846.1700, 23263.00
847.3060, 23176.00
848.4410, 22979.00
849.5760, 23245.00
850.7100, 23319.00
851.8450, 23131.00
852.9800, 23336.00
854.1140, 23124.00
855.2480, 22994.00
856.3820, 23253.00
857.5160, 23187.00
858.6500, 23194.00
859.7830, 23275.00
860.9170, 23253.00
862.0500, 23303.49
863.1830, 23296.00
864.3160, 23380.00
865.4480, 23414.00
866.5810, 23474.00
867.7130, 23365.00
868.8460, 23335.00
869.9780, 23509.00
871.1100, 23324.00
872.2410, 23244.00
873.3730, 23322.00
874.5050, 23249.53
875.6360, 23410.00
876.7670, 23316.00
877.8980, 23344.00
879.0290, 23426.00
880.1590, 23364.00
881.2900, 23495.00
882.4200, 23578.00
883.5500, 23323.00
884.6800, 23505.00
885.8100, 23342.00
886.9400, 23562.00
888.0690, 23513.00
889.1990, 23400.00
890.3280, 23529.00
891.4570, 23468.00
892.5860, 23487.05
893.7140, 23669.00
894.8430, 23557.00
895.9710, 23793.00
897.1000, 23930.00
898.2280, 23648.00
899.3560, 23934.00
900.4830, 24052.00
901.6110, 24040.00
902.7380, 24137.00
903.8660, 24057.00
904.9930, 24239.00
906.1200, 24119.00
907.2460, 24447.00
908.3730, 24543.00
909.5000, 24557.00
910.6260, 24573.00
911.7520, 24556.00
912.8780, 24704.00
914.0040, 24716.46
915.1290, 24778.86
916.2550, 24897.00
917.3800, 24938.00
918.5050, 25129.00
919.6300, 25319.00
920.7550, 25360.00
921.8800, 25605.00
923.0040, 25708.09
924.1290, 25581.00
925.2530, 25975.00
926.3770, 26074.00
927.5010, 26190.00
928.6250, 26441.00
929.7480, 26562.00
930.8720, 26755.00
931.9950, 26894.00
933.1180, 27011.00
934.2410, 26930.00
935.3640, 27020.00
936.4860, 27016.00
937.6090, 26944.00
938.7310, 26997.04
939.8530, 26846.00
940.9750, 27001.00
942.0970, 26835.00
943.2180, 26815.00
944.3400, 26541.00
945.4610, 26303.00
946.5820, 26225.00
947.7030, 26082.00
948.8240, 26069.00
949.9450, 25919.00
951.0650, 25936.00
952.1860, 25925.00
953.3060, 25861.00
954.4260, 25643.00
955.5460, 25805.00
956.6650, 26028.00
957.7850, 25847.00
958.9040, 25773.00
960.0230, 25883.00
961.1420, 26178.00
962.2610, 26128.00
963.3800, 26305.00
964.4990, 26362.00
965.6170, 26601.00
966.7350, 26699.00
967.8530, 26846.00
968.9710, 27216.00
970.0890, 27405.00
971.2070, 27816.00
972.3240, 28375.00
973.4410, 28735.00
974.5580, 29211.00
975.6750, 29810.00
976.7920, 30469.00
977.9090, 31039.00
979.0250, 32025.00
980.1410, 32770.00
981.2580, 33856.00
982.3740, 35403.00
983.4890, 36219.00
984.6050, 38626.00
985.7200, 39697.00
986.8360, 41828.00
987.9510, 43906.00
989.0660, 46098.00
990.1810, 48182.00
991.2950, 50335.00
992.4100, 52784.00
993.5240, 54932.00
994.6390, 57201.00
995.7530, 58994.00
996.8660, 60577.00
997.9800, 62296.00
999.0940, 62876.00
1000.207, 63546.00
1001.320, 63683.00
1002.433, 63121.00
1003.546, 62652.00
1004.659, 61318.00
1005.772, 60192.00
1006.884, 58791.00
1007.996, 56942.00
1009.108, 55187.00
1010.220, 53370.00
1011.332, 51620.00
1012.444, 49633.00
1013.555, 52355.00
1014.666, 46305.00
1015.777, 47551.00
1016.888, 42777.00
1017.999, 41342.00
1019.110, 40016.00
1020.220, 38601.00
1021.331, 37295.00
1022.441, 36583.00
1023.551, 35310.00
1024.661, 34840.00
1025.770, 33701.00
1026.880, 33139.00
1027.989, 32662.00
1029.098, 32106.00
1030.207, 31665.00
1031.316, 31336.00
1032.425, 31129.00
1033.533, 30738.00
1034.642, 30517.00
1035.750, 30389.00
1036.858, 30570.00
1037.966, 30162.00
1039.073, 30122.00
1040.181, 30123.00
1041.288, 29809.00
1042.396, 29795.67
1043.503, 29913.00
1044.610, 29508.00
1045.716, 29773.00
1046.823, 29551.00
1047.929, 29332.00
1049.036, 29214.00
1050.142, 28968.00
1051.248, 29029.00
1052.353, 28934.00
1053.459, 28668.00
1054.564, 28577.00
1055.670, 28425.00
1056.775, 28304.00
1057.880, 28260.00
1058.985, 28322.00
1060.089, 28218.13
1061.194, 28249.17
1062.298, 28129.00
1063.402, 28226.00
1064.506, 28202.00
1065.610, 28134.00
1066.713, 28451.00
1067.817, 28686.00
1068.920, 28669.00
1070.023, 29109.00
1071.126, 29205.00
1072.229, 29768.00
1073.332, 30329.00
1074.435, 30809.00
1075.537, 31585.00
1076.639, 32379.00
1077.741, 33408.00
1078.843, 34463.00
1079.945, 35711.00
1081.046, 37263.00
1082.148, 38639.00
1083.249, 40136.00
1084.350, 41621.00
1085.451, 43305.00
1086.551, 44172.00
1087.652, 44888.00
1088.752, 45511.00
1089.853, 45264.00
1090.953, 44557.00
1092.053, 43644.00
1093.152, 42824.00
1094.252, 41019.00
1095.351, 40053.00
1096.451, 38718.00
1097.550, 37190.00
1098.649, 35996.00
1099.748, 34811.00
1100.846, 33654.00
1101.945, 32914.00
1103.043, 31932.00
1104.141, 31089.00
1105.239, 30353.00
1106.337, 29719.00
1107.434, 29390.00
1108.532, 28740.00
1109.629, 28379.00
1110.726, 27980.00
1111.823, 27582.00
1112.920, 27508.00
1114.017, 27117.00
1115.113, 27054.00
1116.210, 26965.00
1117.306, 26834.00
1118.402, 26578.00
1119.498, 26776.00
1120.593, 26855.00
1121.689, 26956.00
1122.784, 26553.00
1123.879, 26673.00
1124.974, 26257.00
1126.069, 26035.00
1127.164, 25984.00
1128.259, 25671.00
1129.353, 25465.00
1130.447, 25381.00
1131.541, 25121.00
1132.635, 25124.15
1133.729, 25123.53
1134.822, 25129.00
1135.916, 25216.00
1137.009, 25281.00
1138.102, 25221.00
1139.195, 25351.00
1140.288, 25106.00
1141.380, 25202.00
1142.473, 25192.00
1143.565, 25181.00
1144.657, 25122.00
1145.749, 25413.00
1146.841, 25116.00
1147.932, 25258.00
1149.024, 25164.00
1150.115, 25110.00
1151.206, 25282.00
1152.297, 25108.00
1153.388, 25228.00
1154.479, 25085.00
1155.569, 25327.00
1156.659, 25236.00
1157.750, 25157.00
1158.839, 25185.00
1159.929, 25115.00
1161.019, 24994.00
1162.108, 24967.00
1163.198, 24946.11
1164.287, 25095.00
1165.376, 24915.00
1166.465, 25069.00
1167.553, 24958.00
1168.642, 25145.00
1169.730, 25038.00
1170.818, 24936.00
1171.906, 25019.00
1172.994, 25178.00
1174.082, 25164.00
1175.170, 25050.00
1176.257, 24908.00
1177.344, 24961.00
1178.431, 24751.00
1179.518, 24835.00
1180.605, 24831.00
1181.691, 24822.00
1182.778, 24844.00
1183.864, 24812.00
1184.950, 24672.00
1186.036, 24435.00
1187.122, 24543.00
1188.207, 24347.00
1189.292, 24371.00
1190.378, 24455.00
1191.463, 24349.00
1192.548, 24369.93
1193.632, 24411.00
1194.717, 24332.00
1195.801, 24226.00
1196.886, 24280.00
1197.970, 24231.00
1199.054, 24301.00
1200.137, 24246.00
1201.221, 24232.00
1202.305, 24197.93
1203.388, 24121.00
1204.471, 24094.00
1205.554, 23981.00
1206.637, 23949.77
1207.719, 24228.00
1208.802, 24062.00
1209.884, 24091.00
1210.966, 24225.00
1212.048, 24114.00
1213.130, 24134.00
1214.212, 24242.00
1215.293, 24312.00
1216.374, 24080.00
1217.456, 24227.00
1218.536, 24153.00
1219.617, 24114.00
1220.698, 24071.00
1221.778, 24025.02
1222.859, 24254.00
1223.939, 23997.00
1225.019, 24067.00
1226.099, 24159.00
1227.178, 23929.00
1228.258, 23964.00
1229.337, 24182.00
1230.417, 24199.00
1231.496, 24250.00
1232.574, 24233.88
1233.653, 24244.00
1234.732, 24112.00
1235.810, 24013.00
1236.888, 24009.00
1237.966, 23987.00
1239.044, 24153.00
1240.122, 24155.00
1241.199, 24076.00
1242.277, 23906.00
1243.354, 24064.00
1244.431, 23898.00
1245.508, 23988.00
1246.585, 23892.00
1247.661, 24078.00
1248.738, 23983.00
1249.814, 24165.00
1250.890, 23891.00
1251.966, 23958.00
1253.042, 24150.00
1254.117, 23956.00
1255.193, 23862.00
1256.268, 23847.00
1257.343, 23730.00
1258.418, 23735.36
1259.493, 24025.00
1260.567, 23733.00
1261.642, 24042.00
1262.716, 24077.00
1263.790, 24130.00
1264.864, 23950.00
1265.938, 23972.00
1267.011, 23828.00
1268.085, 23903.00
1269.158, 23977.00
1270.231, 24021.00
1271.304, 23930.00
1272.377, 23850.00
1273.450, 23802.00
1274.522, 23993.00
1275.594, 24042.00
1276.666, 23947.00
1277.738, 23834.00
1278.810, 24019.00
1279.882, 23980.00
1280.953, 23871.00
1282.025, 24099.00
1283.096, 23965.00
1284.167, 23846.00
1285.238, 23851.00
1286.308, 23919.00
1287.379, 23994.00
1288.449, 24044.00
1289.519, 23875.00
1290.589, 23755.00
1291.659, 24028.00
1292.729, 23692.00
1293.798, 24043.00
1294.868, 24058.00
