##NAMES=Catapleiite
##RRUFFID=R040005
##IDEAL CHEMISTRY=Na_2_Zr^4+^Si_3_O_9_&#183;2H_2_O
##LOCALITY=Langesundsfjord Eikaholmen Vestfold, Norway
##OWNER=RRUFF
##SOURCE=University of Arizona Mineral Museum
##DESCRIPTION=Brown thin tabular crystal
##STATUS=The identification of this mineral has been confirmed by X-ray diffraction and chemical analysis
##URL=rruff.info/R040005
##MEASURED CHEMISTRY=(Na_1.28_Ca_0.36_[box]_0.36_)_Σ=2_Zr_1.00_Si_3.00_O_9_·2H_2_O
##PIN_ID=L01206
##ORIENTATION=Laser parallel to c* (0 0 1). Fiducial mark perpendicular to laser is parallel to a [1 0 0]
120.5960, 21534.00
121.8270, 21695.00
123.0580, 21770.00
124.2880, 22051.00
125.5190, 22037.00
126.7490, 22100.00
127.9790, 22362.00
129.2090, 22588.00
130.4390, 22629.00
131.6680, 23013.00
132.8980, 23019.00
134.1270, 23209.00
135.3560, 23498.00
136.5850, 23810.00
137.8140, 24284.00
139.0430, 24875.00
140.2710, 25305.00
141.5000, 25818.00
142.7280, 25707.00
143.9560, 25251.00
145.1840, 25275.00
146.4120, 24988.00
147.6390, 24828.00
148.8670, 24739.00
150.0940, 24397.00
151.3210, 24802.00
152.5490, 24612.00
153.7750, 24593.00
155.0020, 24472.00
156.2290, 24568.00
157.4550, 24450.00
158.6810, 24524.00
159.9080, 24449.00
161.1340, 24308.00
162.3590, 24216.00
163.5850, 24604.00
164.8110, 24628.00
166.0360, 24437.00
167.2610, 24457.00
168.4860, 24441.00
169.7110, 24475.00
170.9360, 24467.00
172.1610, 24539.00
173.3850, 24425.00
174.6100, 24391.00
175.8340, 24406.00
177.0580, 24428.00
178.2820, 24463.15
179.5050, 24649.00
180.7290, 24579.00
181.9520, 24654.00
183.1760, 24719.00
184.3990, 24611.00
185.6220, 24736.00
186.8450, 24789.00
188.0670, 24959.00
189.2900, 24992.87
190.5120, 24852.00
191.7340, 25067.00
192.9560, 25006.00
194.1780, 24975.00
195.4000, 25225.00
196.6220, 25132.00
197.8430, 25271.00
199.0640, 25357.00
200.2860, 25250.00
201.5070, 25329.00
202.7270, 25416.00
203.9480, 25288.00
205.1690, 25291.00
206.3890, 25304.00
207.6090, 25630.00
208.8290, 25406.00
210.0490, 25578.00
211.2690, 25548.00
212.4890, 25545.00
213.7080, 25784.00
214.9280, 25604.00
216.1470, 25767.00
217.3660, 25535.00
218.5850, 25670.00
219.8030, 25663.00
221.0220, 25525.00
222.2400, 25535.00
223.4590, 25634.00
224.6770, 25703.00
225.8950, 25643.00
227.1120, 25448.00
228.3300, 25604.00
229.5480, 25766.00
230.7650, 25440.00
231.9820, 25494.00
233.1990, 25302.00
234.4160, 25621.00
235.6330, 25520.00
236.8490, 25698.00
238.0660, 25629.00
239.2820, 25633.00
240.4980, 25695.00
241.7140, 25727.00
242.9300, 25729.00
244.1460, 25526.00
245.3610, 25743.00
246.5770, 25888.00
247.7920, 25563.00
249.0070, 25780.00
250.2220, 25614.00
251.4370, 25551.00
252.6510, 25918.00
253.8660, 25738.00
255.0800, 25583.00
256.2940, 25752.00
257.5080, 25941.00
258.7220, 26060.00
259.9360, 26000.00
261.1490, 25900.00
262.3630, 25880.00
263.5760, 25799.00
264.7890, 26115.00
266.0020, 26035.00
267.2150, 26077.00
268.4270, 25936.00
269.6400, 26260.00
270.8520, 26078.00
272.0640, 26193.00
273.2760, 25927.00
274.4880, 26261.00
275.7000, 26186.00
276.9120, 26225.00
278.1230, 26215.00
279.3340, 26270.00
280.5450, 26548.00
281.7560, 26366.00
282.9670, 26663.00
284.1780, 26446.00
285.3880, 26511.00
286.5980, 26350.00
287.8090, 26723.00
289.0190, 26531.00
290.2290, 26739.00
291.4380, 26910.00
292.6480, 26738.00
293.8570, 26916.00
295.0670, 26855.00
296.2760, 26982.00
297.4850, 27146.00
298.6930, 27082.00
299.9020, 27020.00
301.1110, 27221.00
302.3190, 27290.00
303.5270, 27363.00
304.7350, 27266.00
305.9430, 27416.00
307.1510, 27608.00
308.3580, 27343.00
309.5660, 27436.00
310.7730, 27583.00
311.9800, 27455.00
313.1870, 27544.00
314.3940, 27655.00
315.6010, 27677.00
316.8070, 27744.00
318.0130, 27797.15
319.2200, 27770.00
320.4260, 27885.00
321.6310, 27903.00
322.8370, 27944.00
324.0430, 27840.00
325.2480, 28002.00
326.4540, 27842.00
327.6590, 27769.00
328.8640, 27726.00
330.0680, 28045.00
331.2730, 28023.00
332.4780, 28032.00
333.6820, 28300.00
334.8860, 28214.00
336.0900, 27990.00
337.2940, 28090.00
338.4980, 27937.00
339.7010, 28162.00
340.9050, 28214.00
342.1080, 28512.00
343.3110, 28249.00
344.5140, 28286.00
345.7170, 28377.00
346.9200, 28245.00
348.1220, 28444.00
349.3240, 28322.00
350.5270, 28445.00
351.7290, 28436.00
352.9310, 28524.00
354.1320, 28555.10
355.3340, 28593.00
356.5350, 28600.00
357.7370, 28411.00
358.9380, 28391.00
360.1390, 28438.02
361.3400, 28394.00
362.5400, 28593.00
363.7410, 28739.00
364.9410, 28837.00
366.1410, 28715.00
367.3410, 28761.00
368.5410, 28746.00
369.7410, 28671.00
370.9400, 28974.00
372.1400, 28799.00
373.3390, 29082.00
374.5380, 28877.00
375.7370, 29153.00
376.9360, 29100.00
378.1350, 29223.00
379.3330, 29195.00
380.5310, 29171.00
381.7300, 29084.00
382.9280, 29116.34
384.1260, 29199.00
385.3230, 29171.00
386.5210, 29255.00
387.7180, 29330.00
388.9160, 29396.00
390.1130, 29473.89
391.3100, 29484.83
392.5060, 29594.00
393.7030, 29546.00
394.9000, 29545.00
396.0960, 29683.00
397.2920, 29678.00
398.4880, 29569.00
399.6840, 29500.00
400.8800, 29723.00
402.0750, 29744.00
403.2710, 29756.00
404.4660, 29933.00
405.6610, 29881.00
406.8560, 29856.00
408.0510, 29938.14
409.2450, 29959.72
410.4400, 29992.00
411.6340, 30122.00
412.8280, 30132.00
414.0220, 30229.00
415.2160, 30268.00
416.4100, 30232.00
417.6030, 30587.00
418.7970, 30745.00
419.9900, 30666.00
421.1830, 30801.00
422.3760, 30693.00
423.5690, 30916.00
424.7610, 31066.00
425.9540, 31261.00
427.1460, 31342.00
428.3380, 31589.00
429.5300, 31686.00
430.7220, 31819.00
431.9140, 31965.00
433.1050, 31960.00
434.2970, 32183.00
435.4880, 32409.00
436.6790, 32439.00
437.8700, 32606.00
439.0610, 32778.00
440.2510, 32614.00
441.4420, 32643.00
442.6320, 32558.00
443.8220, 32640.00
445.0120, 32568.19
446.2020, 32338.00
447.3910, 32403.00
448.5810, 32415.00
449.7700, 32182.00
450.9600, 31972.00
452.1490, 31747.00
453.3370, 31771.00
454.5260, 31686.00
455.7150, 31668.00
456.9030, 31474.00
458.0910, 31440.00
459.2800, 31250.00
460.4670, 31241.77
461.6550, 31336.00
462.8430, 31235.00
464.0300, 31176.00
465.2180, 31194.00
466.4050, 31318.00
467.5920, 31238.00
468.7790, 31265.39
469.9650, 31348.00
471.1520, 31237.00
472.3380, 31295.00
473.5250, 31334.00
474.7110, 31300.00
475.8970, 31462.00
477.0820, 31409.00
478.2680, 31653.00
479.4540, 31197.00
480.6390, 31435.00
481.8240, 31354.00
483.0090, 31231.00
484.1940, 31453.00
485.3780, 31428.00
486.5630, 31384.00
487.7470, 31458.00
488.9320, 31538.00
490.1160, 31425.00
491.3000, 31375.00
492.4830, 31475.00
493.6670, 31381.00
494.8500, 31690.00
496.0340, 31758.00
497.2170, 31672.00
498.4000, 31800.00
499.5820, 31678.00
500.7650, 31865.00
501.9480, 31741.00
503.1300, 31811.00
504.3120, 32111.00
505.4940, 31965.00
506.6760, 32201.00
507.8580, 32265.00
509.0390, 32256.00
510.2210, 32298.00
511.4020, 32315.00
512.5830, 32357.00
513.7640, 32452.00
514.9450, 32552.00
516.1250, 32606.00
517.3060, 32557.00
518.4860, 32616.00
519.6660, 32538.00
520.8460, 32642.00
522.0260, 32667.00
523.2060, 32700.00
524.3850, 32723.50
525.5650, 32854.00
526.7440, 32671.00
527.9230, 32866.00
529.1020, 32744.00
530.2810, 32984.00
531.4590, 32907.00
532.6380, 32963.00
533.8160, 32759.00
534.9940, 32968.00
536.1720, 32987.00
537.3500, 33066.00
538.5270, 32922.00
539.7050, 33082.00
540.8820, 32971.00
542.0590, 33166.00
543.2360, 32996.00
544.4130, 33156.00
545.5900, 33320.00
546.7660, 33055.00
547.9430, 33270.00
549.1190, 33257.00
550.2950, 33092.00
551.4710, 33524.00
552.6470, 33303.00
553.8220, 33444.00
554.9980, 33407.00
556.1730, 33918.00
557.3480, 34049.00
558.5230, 34049.00
559.6980, 34061.00
560.8730, 34202.00
562.0470, 34408.00
563.2220, 34680.00
564.3960, 34862.00
565.5700, 35115.00
566.7440, 35314.00
567.9170, 35725.00
569.0910, 35827.00
570.2640, 36073.00
571.4380, 36617.00
572.6110, 36590.00
573.7840, 36995.00
574.9570, 37136.00
576.1290, 37245.00
577.3020, 37226.00
578.4740, 37028.00
579.6460, 37224.00
580.8180, 36674.00
581.9900, 36375.00
583.1620, 36291.00
584.3330, 36291.00
585.5040, 35798.00
586.6760, 35868.00
587.8470, 35462.00
589.0180, 35275.00
590.1880, 34988.00
591.3590, 34954.00
592.5290, 34700.00
593.7000, 34724.00
594.8700, 34480.00
596.0400, 34641.00
597.2090, 34644.00
598.3790, 34622.00
599.5490, 34463.00
600.7180, 34538.00
601.8870, 34477.00
603.0560, 34539.00
604.2250, 34764.00
605.3940, 34713.00
606.5620, 34847.00
607.7300, 34659.00
608.8990, 34740.00
610.0670, 34902.00
611.2350, 35008.00
612.4020, 35149.00
613.5700, 35147.00
614.7370, 35076.00
615.9050, 35265.76
617.0720, 35286.00
618.2390, 35585.00
619.4060, 35548.00
620.5720, 35773.00
621.7390, 35972.00
622.9050, 36287.00
624.0710, 36581.20
625.2370, 36772.00
626.4030, 37233.00
627.5690, 37643.00
628.7340, 37912.16
629.9000, 38330.00
631.0650, 38383.00
632.2300, 38694.00
633.3950, 38907.00
634.5600, 38693.00
635.7240, 39118.00
636.8890, 38762.00
638.0530, 38332.00
639.2170, 37686.00
640.3810, 37325.00
641.5450, 37251.00
642.7080, 36846.00
643.8720, 36656.00
645.0350, 36120.00
646.1980, 36132.00
647.3610, 35842.00
648.5240, 35916.00
649.6870, 35915.00
650.8490, 35795.00
652.0120, 35703.00
653.1740, 35722.00
654.3360, 35553.00
655.4980, 35703.00
656.6600, 35549.00
657.8210, 35471.00
658.9830, 35442.00
660.1440, 35332.00
661.3050, 35346.18
662.4660, 35772.00
663.6270, 35364.00
664.7870, 35533.00
665.9480, 35568.00
667.1080, 35325.00
668.2680, 35633.00
669.4280, 35618.00
670.5880, 35547.00
671.7480, 35781.00
672.9070, 35530.00
674.0670, 35620.00
675.2260, 35676.00
676.3850, 35788.00
677.5440, 35880.00
678.7030, 35999.00
679.8610, 35953.00
681.0200, 35915.00
682.1780, 35866.00
683.3360, 35918.00
684.4940, 36015.00
685.6520, 35987.00
686.8090, 36038.58
687.9670, 36101.00
689.1240, 36036.00
690.2810, 36054.00
691.4380, 35985.00
692.5950, 36067.00
693.7520, 36203.00
694.9080, 35985.00
696.0650, 36101.00
697.2210, 36303.00
698.3770, 36359.00
699.5330, 36113.00
700.6880, 36108.00
701.8440, 36344.00
702.9990, 36263.00
704.1550, 36620.00
705.3100, 36449.00
706.4650, 36483.00
707.6190, 36742.00
708.7740, 36680.00
709.9290, 36510.00
711.0830, 36693.00
712.2370, 36695.00
713.3910, 36454.00
714.5450, 36820.00
715.6980, 36831.00
716.8520, 36670.00
718.0050, 37126.00
719.1580, 36948.00
720.3110, 37165.00
721.4640, 36805.00
722.6170, 37241.00
723.7700, 37055.00
724.9220, 37348.00
726.0740, 37215.00
727.2260, 37409.00
728.3780, 37492.00
729.5300, 37434.63
730.6810, 37401.00
731.8330, 37390.00
732.9840, 37237.00
734.1350, 37199.00
735.2860, 37713.00
736.4370, 37721.00
737.5880, 37742.00
738.7380, 37668.00
739.8880, 37870.00
741.0390, 37621.00
742.1890, 37845.00
743.3380, 38024.00
744.4880, 37717.00
745.6380, 37705.00
746.7870, 37868.00
747.9360, 37809.00
749.0850, 37811.00
750.2340, 37913.00
751.3830, 37974.00
752.5310, 37868.00
753.6800, 37981.00
754.8280, 38016.00
755.9760, 38040.00
757.1240, 38102.00
758.2720, 37977.00
759.4190, 38092.00
760.5670, 38121.00
761.7140, 37997.00
762.8610, 38161.00
764.0080, 38369.00
765.1550, 38192.00
766.3020, 38099.00
767.4480, 38476.00
768.5950, 38319.00
769.7410, 38296.00
770.8870, 38260.00
772.0330, 38284.00
773.1780, 38237.00
774.3240, 38338.00
775.4690, 38320.00
776.6140, 38588.00
777.7590, 38298.00
778.9040, 38484.00
780.0490, 38446.00
781.1940, 38331.00
782.3380, 38494.00
783.4820, 38515.00
784.6260, 38458.00
785.7700, 38681.00
786.9140, 38710.00
788.0580, 38794.00
789.2010, 38543.00
790.3450, 38991.00
791.4880, 38717.00
792.6310, 38816.00
793.7730, 38744.00
794.9160, 38850.00
796.0590, 38844.00
797.2010, 38898.00
798.3430, 38981.00
799.4850, 39068.00
800.6270, 38987.00
801.7690, 39151.00
802.9100, 38891.00
804.0520, 38973.00
805.1930, 39289.00
806.3340, 39563.00
807.4750, 39116.00
808.6160, 39465.00
809.7560, 39272.00
810.8970, 39481.00
812.0370, 39556.00
813.1770, 39368.00
814.3170, 39526.00
815.4570, 39557.00
816.5960, 39366.00
817.7360, 39406.00
818.8750, 39751.00
820.0140, 39471.00
821.1530, 39586.00
822.2920, 39465.00
823.4310, 39560.00
824.5690, 39775.00
825.7070, 39683.00
826.8460, 39509.00
827.9840, 39936.00
829.1220, 39845.00
830.2590, 39936.00
831.3970, 40007.00
832.5340, 39772.00
833.6710, 40054.00
834.8080, 39904.00
835.9450, 40053.00
837.0820, 39755.00
838.2190, 40311.00
839.3550, 40362.00
840.4910, 39981.00
841.6270, 40212.00
842.7630, 40130.00
843.8990, 40103.00
845.0350, 40223.00
846.1700, 40178.00
847.3060, 40413.00
848.4410, 40331.00
849.5760, 40245.00
850.7100, 40464.00
851.8450, 40599.00
852.9800, 40562.00
854.1140, 40502.00
855.2480, 40445.00
856.3820, 40628.00
857.5160, 40819.00
858.6500, 40839.00
859.7830, 40835.00
860.9170, 40828.00
862.0500, 40787.00
863.1830, 40921.00
864.3160, 40828.00
865.4480, 40991.00
866.5810, 41168.00
867.7130, 41052.00
868.8460, 41319.00
869.9780, 40959.00
871.1100, 41083.00
872.2410, 40780.00
873.3730, 41308.00
874.5050, 41334.00
875.6360, 41256.00
876.7670, 41130.00
877.8980, 41308.00
879.0290, 41156.00
880.1590, 41616.00
881.2900, 41611.00
882.4200, 41615.00
883.5500, 41417.00
884.6800, 41297.00
885.8100, 41537.00
886.9400, 41550.00
888.0690, 41718.00
889.1990, 41664.00
890.3280, 41786.00
891.4570, 41615.00
892.5860, 41885.00
893.7140, 41852.00
894.8430, 41970.00
895.9710, 41784.00
897.1000, 42227.00
898.2280, 42112.00
899.3560, 42249.00
900.4830, 42309.00
901.6110, 42805.00
902.7380, 42682.00
903.8660, 42947.00
904.9930, 42819.00
906.1200, 43013.00
907.2460, 43164.32
908.3730, 43574.00
909.5000, 43488.00
910.6260, 43697.00
911.7520, 43806.00
912.8780, 44157.00
914.0040, 44296.00
915.1290, 44420.00
916.2550, 44447.00
917.3800, 44465.00
918.5050, 44684.00
919.6300, 44745.66
920.7550, 45007.66
921.8800, 45101.00
923.0040, 45594.00
924.1290, 45969.00
925.2530, 46343.00
926.3770, 46700.00
927.5010, 46996.24
928.6250, 47204.00
929.7480, 47535.00
930.8720, 47758.00
931.9950, 47978.00
933.1180, 48423.00
934.2410, 48310.00
935.3640, 48374.00
936.4860, 48779.00
937.6090, 48702.00
938.7310, 48599.00
939.8530, 48180.00
940.9750, 48216.00
942.0970, 47923.00
943.2180, 47392.00
944.3400, 46861.00
945.4610, 46868.00
946.5820, 46459.00
947.7030, 46158.00
948.8240, 45900.00
949.9450, 45593.00
951.0650, 45365.00
952.1860, 45108.00
953.3060, 44943.00
954.4260, 44743.00
955.5460, 44573.00
956.6650, 44593.00
957.7850, 44365.00
958.9040, 44716.00
960.0230, 44562.00
961.1420, 44483.00
962.2610, 44721.00
963.3800, 44653.00
964.4990, 44696.00
965.6170, 44378.00
966.7350, 44739.00
967.8530, 44417.00
968.9710, 44508.00
970.0890, 44502.00
971.2070, 44785.00
972.3240, 44770.00
973.4410, 44831.00
974.5580, 45066.00
975.6750, 45149.00
976.7920, 45143.00
977.9090, 45418.00
979.0250, 45349.00
980.1410, 45657.00
981.2580, 45823.86
982.3740, 46311.00
983.4890, 46265.00
984.6050, 46590.00
985.7200, 46815.00
986.8360, 47386.00
987.9510, 47276.00
989.0660, 47746.00
990.1810, 48038.00
991.2950, 48264.00
992.4100, 48387.00
993.5240, 49031.00
994.6390, 49430.00
995.7530, 49516.00
996.8660, 50031.00
997.9800, 50029.00
999.0940, 49911.00
1000.207, 50625.00
1001.320, 50540.00
1002.433, 50312.00
1003.546, 50425.00
1004.659, 50145.00
1005.772, 49785.00
1006.884, 49844.00
1007.996, 49472.00
1009.108, 49398.00
1010.220, 49072.00
1011.332, 48865.00
1012.444, 48652.00
1013.555, 48258.00
1014.666, 48260.00
1015.777, 48141.00
1016.888, 47587.00
1017.999, 47493.00
1019.110, 47615.00
1020.220, 47294.00
1021.331, 47348.00
1022.441, 47070.00
1023.551, 46927.00
1024.661, 47176.00
1025.770, 47159.00
1026.880, 47032.00
1027.989, 46729.00
1029.098, 46654.00
1030.207, 46500.00
1031.316, 46482.00
1032.425, 46464.93
1033.533, 46515.00
1034.642, 46524.00
1035.750, 46595.00
1036.858, 46651.00
1037.966, 46529.00
1039.073, 46680.00
1040.181, 46641.00
1041.288, 46453.00
1042.396, 46645.00
1043.503, 46480.00
1044.610, 46622.00
1045.716, 46743.00
1046.823, 46540.00
1047.929, 46651.00
1049.036, 46741.00
1050.142, 46724.00
1051.248, 46684.00
1052.353, 46484.00
1053.459, 46744.00
1054.564, 46933.00
1055.670, 46864.00
1056.775, 46712.00
1057.880, 46598.00
1058.985, 46739.00
1060.089, 46388.00
1061.194, 46942.00
1062.298, 46600.00
1063.402, 46830.00
1064.506, 46721.00
1065.610, 46785.00
1066.713, 46986.00
1067.817, 46740.00
1068.920, 46963.00
1070.023, 46815.00
1071.126, 46932.00
1072.229, 47000.00
1073.332, 46927.00
1074.435, 47182.00
1075.537, 47151.00
1076.639, 47182.00
1077.741, 47315.00
1078.843, 46954.00
1079.945, 47169.00
1081.046, 47106.00
1082.148, 47565.00
1083.249, 47619.00
1084.350, 47726.00
1085.451, 47948.00
1086.551, 47795.00
1087.652, 47896.00
1088.752, 48081.00
1089.853, 47994.00
1090.953, 48081.00
1092.053, 47999.00
1093.152, 48031.00
1094.252, 48006.30
1095.351, 47976.76
1096.451, 47952.00
1097.550, 47923.00
1098.649, 47915.00
1099.748, 47861.00
1100.846, 47862.58
1101.945, 47797.00
1103.043, 47824.00
1104.141, 47900.00
1105.239, 47836.00
1106.337, 48058.00
1107.434, 47767.00
1108.532, 48095.00
1109.629, 48141.00
1110.726, 47841.00
1111.823, 47803.00
1112.920, 47765.00
1114.017, 47966.00
1115.113, 48134.00
1116.210, 48256.00
1117.306, 48371.00
1118.402, 48457.00
1119.498, 48512.00
1120.593, 48500.00
1121.689, 48470.00
1122.784, 48478.36
1123.879, 48597.00
1124.974, 48497.00
1126.069, 48509.00
1127.164, 48638.00
1128.259, 48380.00
1129.353, 48518.00
1130.447, 48534.00
1131.541, 48654.00
1132.635, 48640.00
1133.729, 48589.00
1134.822, 48806.00
1135.916, 48719.00
1137.009, 48671.00
1138.102, 48589.00
1139.195, 48737.00
1140.288, 48763.00
1141.380, 48604.00
1142.473, 48646.00
1143.565, 48915.00
1144.657, 48974.00
1145.749, 48729.00
1146.841, 49088.00
1147.932, 48750.00
1149.024, 49183.00
1150.115, 48886.00
1151.206, 49263.00
1152.297, 49169.00
1153.388, 49146.00
1154.479, 49076.00
1155.569, 49051.89
1156.659, 49061.35
1157.750, 49063.00
1158.839, 49078.00
1159.929, 49187.00
1161.019, 49149.00
1162.108, 49179.00
1163.198, 49038.00
1164.287, 49032.00
1165.376, 49409.00
1166.465, 49368.00
1167.553, 49711.00
1168.642, 49753.00
1169.730, 49556.00
1170.818, 49616.00
1171.906, 49534.00
1172.994, 49657.00
1174.082, 49596.00
1175.170, 49827.00
1176.257, 49940.00
1177.344, 49642.00
1178.431, 49569.00
1179.518, 49851.00
1180.605, 49708.00
1181.691, 49778.00
1182.778, 49681.00
1183.864, 50124.00
1184.950, 49762.00
1186.036, 50311.00
1187.122, 50191.00
1188.207, 49968.00
1189.292, 50193.00
1190.378, 50227.00
1191.463, 50067.00
1192.548, 50033.00
1193.632, 49958.00
1194.717, 50189.00
1195.801, 50029.00
1196.886, 50118.00
1197.970, 50256.00
1199.054, 50067.00
1200.137, 50093.00
1201.221, 50402.00
1202.305, 50259.00
1203.388, 50249.00
1204.471, 50495.00
1205.554, 50386.00
1206.637, 50344.00
1207.719, 50482.00
1208.802, 50556.00
1209.884, 50635.00
1210.966, 50662.00
1212.048, 50363.00
1213.130, 50620.00
1214.212, 50571.00
1215.293, 50865.00
1216.374, 50536.00
1217.456, 50708.00
1218.536, 50763.00
1219.617, 50943.00
1220.698, 50853.00
1221.778, 50901.00
1222.859, 50686.00
1223.939, 50846.00
1225.019, 50892.00
1226.099, 51021.00
1227.178, 51105.00
1228.258, 51200.00
1229.337, 51219.78
1230.417, 51201.00
1231.496, 51199.45
1232.574, 51223.00
1233.653, 51168.00
1234.732, 51372.00
1235.810, 51250.00
1236.888, 51333.00
1237.966, 51295.00
1239.044, 51258.00
1240.122, 51196.00
1241.199, 51542.00
1242.277, 51518.00
1243.354, 51274.00
1244.431, 51150.00
1245.508, 51519.00
1246.585, 51659.00
1247.661, 51589.00
1248.738, 51696.00
1249.814, 51720.00
1250.890, 51655.00
1251.966, 51514.00
1253.042, 51581.00
1254.117, 51555.00
1255.193, 51594.00
1256.268, 51627.00
1257.343, 51708.00
1258.418, 51837.00
1259.493, 51864.00
1260.567, 51953.54
1261.642, 51951.00
1262.716, 52032.00
1263.790, 52033.00
1264.864, 51966.00
1265.938, 52241.00
1267.011, 52147.00
1268.085, 51904.00
1269.158, 52094.00
1270.231, 51907.00
1271.304, 52262.00
1272.377, 52317.00
1273.450, 51976.00
1274.522, 52275.00
1275.594, 52612.00
1276.666, 51730.00
1277.738, 52421.00
1278.810, 52338.00
1279.882, 52177.00
1280.953, 52355.00
1282.025, 52309.00
1283.096, 52385.00
1284.167, 52525.00
1285.238, 52526.00
1286.308, 52410.00
1287.379, 52367.00
1288.449, 52407.00
1289.519, 52405.16
1290.589, 52744.00
1291.659, 52561.00
1292.729, 52722.00
1293.798, 52892.00
1294.868, 52852.00
1295.937, 52915.00
