##NAMES=Catapleiite
##RRUFFID=R040005
##IDEAL CHEMISTRY=Na_2_Zr^4+^Si_3_O_9_&#183;2H_2_O
##LOCALITY=Langesundsfjord Eikaholmen Vestfold, Norway
##OWNER=RRUFF
##SOURCE=University of Arizona Mineral Museum
##DESCRIPTION=Brown thin tabular crystal
##STATUS=The identification of this mineral has been confirmed by X-ray diffraction and chemical analysis
##URL=rruff.info/R040005
##MEASURED CHEMISTRY=(Na_1.28_Ca_0.36_[box]_0.36_)_Σ=2_Zr_1.00_Si_3.00_O_9_·2H_2_O
##PIN_ID=L01206
##ORIENTATION=Laser parallel to c* (0 0 1). Fiducial mark perpendicular to laser is parallel to a [1 0 0]
120.5960, 22675.00
121.8270, 22451.00
123.0580, 22844.00
124.2880, 22845.00
125.5190, 23071.00
126.7490, 23160.00
127.9790, 23140.00
129.2090, 23445.00
130.4390, 23593.00
131.6680, 23939.00
132.8980, 24083.00
134.1270, 24300.00
135.3560, 24615.00
136.5850, 24825.00
137.8140, 25530.00
139.0430, 25936.00
140.2710, 26880.00
141.5000, 27155.00
142.7280, 27273.00
143.9560, 26904.00
145.1840, 26782.00
146.4120, 26228.00
147.6390, 26046.00
148.8670, 25788.00
150.0940, 25901.00
151.3210, 25822.00
152.5490, 25791.00
153.7750, 25794.00
155.0020, 25638.00
156.2290, 25644.00
157.4550, 25697.00
158.6810, 25571.00
159.9080, 25728.00
161.1340, 25672.00
162.3590, 25702.00
163.5850, 25825.00
164.8110, 25597.00
166.0360, 25754.00
167.2610, 25610.00
168.4860, 25594.00
169.7110, 25734.00
170.9360, 25823.00
172.1610, 25754.00
173.3850, 25671.00
174.6100, 25871.00
175.8340, 25761.00
177.0580, 25674.00
178.2820, 26010.00
179.5050, 25837.00
180.7290, 25631.00
181.9520, 25741.00
183.1760, 25911.00
184.3990, 26027.00
185.6220, 25950.00
186.8450, 25916.00
188.0670, 25921.00
189.2900, 25896.00
190.5120, 26017.00
191.7340, 26163.00
192.9560, 26465.00
194.1780, 26223.00
195.4000, 26161.00
196.6220, 26590.00
197.8430, 26444.00
199.0640, 26501.00
200.2860, 26754.00
201.5070, 26642.00
202.7270, 26731.00
203.9480, 26939.00
205.1690, 26516.00
206.3890, 26878.00
207.6090, 26741.00
208.8290, 26846.00
210.0490, 26910.00
211.2690, 27031.00
212.4890, 27048.00
213.7080, 27081.00
214.9280, 27081.00
216.1470, 26990.00
217.3660, 26883.00
218.5850, 26994.00
219.8030, 26994.00
221.0220, 27040.00
222.2400, 27018.00
223.4590, 26854.00
224.6770, 26849.00
225.8950, 26746.00
227.1120, 26821.00
228.3300, 26954.00
229.5480, 26714.00
230.7650, 26976.00
231.9820, 26743.00
233.1990, 26825.00
234.4160, 26780.00
235.6330, 27061.00
236.8490, 26910.00
238.0660, 26989.00
239.2820, 27119.00
240.4980, 26965.00
241.7140, 27037.00
242.9300, 26930.00
244.1460, 27006.00
245.3610, 26798.00
246.5770, 26844.00
247.7920, 26911.00
249.0070, 27153.00
250.2220, 26995.00
251.4370, 27042.00
252.6510, 27089.00
253.8660, 27004.00
255.0800, 27321.00
256.2940, 27046.00
257.5080, 27094.00
258.7220, 27390.00
259.9360, 27429.00
261.1490, 27349.00
262.3630, 27147.00
263.5760, 27144.00
264.7890, 27226.00
266.0020, 27306.00
267.2150, 27451.00
268.4270, 27525.00
269.6400, 27439.00
270.8520, 27574.00
272.0640, 27434.00
273.2760, 27242.00
274.4880, 27375.00
275.7000, 27532.00
276.9120, 27639.00
278.1230, 27724.06
279.3340, 27603.00
280.5450, 27825.00
281.7560, 27745.00
282.9670, 27719.00
284.1780, 27805.15
285.3880, 27918.00
286.5980, 27849.00
287.8090, 28014.00
289.0190, 28028.00
290.2290, 28173.00
291.4380, 28070.00
292.6480, 28152.00
293.8570, 28151.00
295.0670, 28626.00
296.2760, 28457.00
297.4850, 28505.00
298.6930, 28725.00
299.9020, 28416.00
301.1110, 28712.00
302.3190, 28685.00
303.5270, 28726.00
304.7350, 28826.00
305.9430, 28833.00
307.1510, 28733.00
308.3580, 28977.00
309.5660, 28969.00
310.7730, 28857.00
311.9800, 28933.00
313.1870, 29029.00
314.3940, 29213.00
315.6010, 29115.00
316.8070, 29270.00
318.0130, 29012.00
319.2200, 29142.00
320.4260, 29209.00
321.6310, 29110.00
322.8370, 29371.00
324.0430, 29288.00
325.2480, 29357.00
326.4540, 29528.00
327.6590, 29263.00
328.8640, 29513.00
330.0680, 29503.00
331.2730, 29591.00
332.4780, 29494.00
333.6820, 29520.00
334.8860, 29661.00
336.0900, 29661.00
337.2940, 29749.00
338.4980, 29779.64
339.7010, 29720.00
340.9050, 29832.00
342.1080, 29743.00
343.3110, 29786.00
344.5140, 29770.00
345.7170, 29893.00
346.9200, 29948.00
348.1220, 30000.00
349.3240, 29968.00
350.5270, 30136.00
351.7290, 30036.00
352.9310, 29931.00
354.1320, 30254.00
355.3340, 30100.00
356.5350, 30122.00
357.7370, 30044.00
358.9380, 30047.94
360.1390, 30165.00
361.3400, 30208.00
362.5400, 30067.00
363.7410, 30376.00
364.9410, 30079.00
366.1410, 30226.00
367.3410, 30697.00
368.5410, 30692.00
369.7410, 30475.00
370.9400, 30473.00
372.1400, 30646.00
373.3390, 30632.00
374.5380, 30754.00
375.7370, 30697.00
376.9360, 30775.00
378.1350, 30804.00
379.3330, 30827.75
380.5310, 30635.00
381.7300, 30908.00
382.9280, 30874.00
384.1260, 30892.00
385.3230, 31077.00
386.5210, 30746.00
387.7180, 30999.00
388.9160, 30854.00
390.1130, 30990.00
391.3100, 31144.00
392.5060, 30924.00
393.7030, 31206.00
394.9000, 31267.00
396.0960, 31034.00
397.2920, 31120.00
398.4880, 31331.00
399.6840, 31173.00
400.8800, 31264.00
402.0750, 31246.00
403.2710, 31450.00
404.4660, 31339.00
405.6610, 31483.00
406.8560, 31406.00
408.0510, 31332.00
409.2450, 31442.15
410.4400, 31790.00
411.6340, 31601.00
412.8280, 31756.00
414.0220, 31921.00
415.2160, 31775.00
416.4100, 32002.00
417.6030, 32001.00
418.7970, 31909.00
419.9900, 32336.00
421.1830, 32499.00
422.3760, 32479.00
423.5690, 32642.00
424.7610, 32905.00
425.9540, 32875.00
427.1460, 33138.00
428.3380, 33209.00
429.5300, 33600.00
430.7220, 33484.00
431.9140, 33533.00
433.1050, 33999.00
434.2970, 33842.00
435.4880, 34010.00
436.6790, 34327.00
437.8700, 34286.00
439.0610, 34432.00
440.2510, 34357.00
441.4420, 34374.00
442.6320, 34242.00
443.8220, 34464.00
445.0120, 34452.00
446.2020, 34320.00
447.3910, 34127.00
448.5810, 33960.00
449.7700, 33955.00
450.9600, 33717.00
452.1490, 33732.00
453.3370, 33424.00
454.5260, 33441.00
455.7150, 33236.00
456.9030, 33252.00
458.0910, 33167.00
459.2800, 33218.00
460.4670, 33148.00
461.6550, 33089.00
462.8430, 33110.00
464.0300, 32988.00
465.2180, 32800.00
466.4050, 32832.00
467.5920, 33009.00
468.7790, 32919.00
469.9650, 33046.00
471.1520, 33081.00
472.3380, 33048.00
473.5250, 33009.00
474.7110, 33082.00
475.8970, 32982.00
477.0820, 32983.00
478.2680, 33051.00
479.4540, 33110.00
480.6390, 33308.00
481.8240, 33036.00
483.0090, 33157.00
484.1940, 33097.00
485.3780, 33422.00
486.5630, 33466.00
487.7470, 33329.00
488.9320, 33415.00
490.1160, 33654.00
491.3000, 33385.00
492.4830, 33536.00
493.6670, 33544.00
494.8500, 33394.00
496.0340, 33425.00
497.2170, 33522.00
498.4000, 33655.00
499.5820, 33675.00
500.7650, 33573.00
501.9480, 33930.00
503.1300, 33914.00
504.3120, 33685.00
505.4940, 33828.00
506.6760, 34002.00
507.8580, 34090.00
509.0390, 34149.79
510.2210, 34217.00
511.4020, 34162.00
512.5830, 34161.00
513.7640, 34089.00
514.9450, 34308.00
516.1250, 34208.00
517.3060, 34529.00
518.4860, 34503.00
519.6660, 34407.00
520.8460, 34539.00
522.0260, 34430.00
523.2060, 34410.00
524.3850, 34678.00
525.5650, 34613.00
526.7440, 34516.00
527.9230, 34734.00
529.1020, 34864.00
530.2810, 34654.00
531.4590, 34933.00
532.6380, 34972.00
533.8160, 34865.00
534.9940, 34930.00
536.1720, 34902.00
537.3500, 34954.00
538.5270, 34968.54
539.7050, 35038.00
540.8820, 35021.00
542.0590, 35121.00
543.2360, 35187.00
544.4130, 35247.00
545.5900, 34995.00
546.7660, 35021.00
547.9430, 35114.00
549.1190, 35266.00
550.2950, 35256.00
551.4710, 35504.00
552.6470, 35238.00
553.8220, 35312.00
554.9980, 35674.00
556.1730, 35631.00
557.3480, 36173.00
558.5230, 36048.00
559.6980, 36104.00
560.8730, 36198.00
562.0470, 36435.00
563.2220, 36595.00
564.3960, 36819.00
565.5700, 37368.00
566.7440, 37514.00
567.9170, 37954.00
569.0910, 38194.00
570.2640, 38406.00
571.4380, 38527.00
572.6110, 38908.00
573.7840, 38985.43
574.9570, 39333.00
576.1290, 39240.00
577.3020, 39233.00
578.4740, 39303.00
579.6460, 38960.00
580.8180, 38664.00
581.9900, 38506.00
583.1620, 38416.00
584.3330, 37913.00
585.5040, 37844.00
586.6760, 37790.00
587.8470, 37297.00
589.0180, 37178.00
590.1880, 37148.00
591.3590, 37018.00
592.5290, 36870.00
593.7000, 36822.00
594.8700, 36500.00
596.0400, 36709.00
597.2090, 36449.00
598.3790, 36826.00
599.5490, 36675.00
600.7180, 36615.00
601.8870, 36539.00
603.0560, 36445.00
604.2250, 36603.00
605.3940, 36672.00
606.5620, 36563.00
607.7300, 36548.00
608.8990, 36770.00
610.0670, 36810.00
611.2350, 37054.00
612.4020, 37192.00
613.5700, 37002.00
614.7370, 37229.00
615.9050, 37140.00
617.0720, 37246.00
618.2390, 37323.00
619.4060, 37543.00
620.5720, 37662.00
621.7390, 38070.00
622.9050, 38333.00
624.0710, 38586.00
625.2370, 38919.00
626.4030, 39309.00
627.5690, 39555.00
628.7340, 40087.00
629.9000, 40620.00
631.0650, 40902.00
632.2300, 41094.00
633.3950, 41095.00
634.5600, 41118.47
635.7240, 41020.00
636.8890, 40826.00
638.0530, 40533.00
639.2170, 40166.00
640.3810, 39889.00
641.5450, 39406.00
642.7080, 39193.00
643.8720, 38669.00
645.0350, 38444.00
646.1980, 38228.00
647.3610, 38121.00
648.5240, 37994.00
649.6870, 37773.00
650.8490, 37815.00
652.0120, 37739.00
653.1740, 37730.00
654.3360, 37571.00
655.4980, 37677.00
656.6600, 37696.00
657.8210, 37870.00
658.9830, 37568.00
660.1440, 37860.00
661.3050, 37564.00
662.4660, 37949.00
663.6270, 37541.00
664.7870, 37710.00
665.9480, 37746.00
667.1080, 37675.00
668.2680, 37772.88
669.4280, 37620.00
670.5880, 37817.00
671.7480, 37813.00
672.9070, 37834.00
674.0670, 38065.00
675.2260, 37835.00
676.3850, 37746.00
677.5440, 37772.00
678.7030, 38198.00
679.8610, 37981.00
681.0200, 38094.00
682.1780, 38110.00
683.3360, 38066.00
684.4940, 38183.00
685.6520, 38144.00
686.8090, 38220.00
687.9670, 38248.00
689.1240, 38290.00
690.2810, 38231.00
691.4380, 38276.40
692.5950, 38211.00
693.7520, 38282.00
694.9080, 38384.00
696.0650, 38350.00
697.2210, 38492.00
698.3770, 38533.00
699.5330, 38541.00
700.6880, 38762.00
701.8440, 38660.00
702.9990, 38715.24
704.1550, 38661.00
705.3100, 38653.00
706.4650, 38750.00
707.6190, 38656.00
708.7740, 38748.00
709.9290, 38837.00
711.0830, 38959.00
712.2370, 38972.00
713.3910, 38900.00
714.5450, 39139.00
715.6980, 39301.00
716.8520, 39115.00
718.0050, 39301.00
719.1580, 39317.00
720.3110, 39147.00
721.4640, 39259.00
722.6170, 39337.00
723.7700, 39427.00
724.9220, 39470.00
726.0740, 39291.00
727.2260, 39688.00
728.3780, 39641.00
729.5300, 39512.00
730.6810, 39811.00
731.8330, 39816.00
732.9840, 39669.00
734.1350, 39652.00
735.2860, 39818.00
736.4370, 39904.00
737.5880, 40060.00
738.7380, 39988.00
739.8880, 39909.00
741.0390, 39986.00
742.1890, 40064.00
743.3380, 40160.00
744.4880, 40223.84
745.6380, 40265.00
746.7870, 40344.00
747.9360, 40121.00
749.0850, 40118.00
750.2340, 40258.00
751.3830, 40031.00
752.5310, 40266.00
753.6800, 40151.00
754.8280, 40260.00
755.9760, 40289.00
757.1240, 40209.00
758.2720, 40340.00
759.4190, 40359.41
760.5670, 40329.00
761.7140, 40510.00
762.8610, 40561.00
764.0080, 40641.00
765.1550, 40379.00
766.3020, 40620.00
767.4480, 40316.00
768.5950, 40692.00
769.7410, 40505.00
770.8870, 40517.00
772.0330, 40815.00
773.1780, 40736.00
774.3240, 40541.00
775.4690, 40725.00
776.6140, 40750.00
777.7590, 40912.00
778.9040, 40976.00
780.0490, 40886.00
781.1940, 40820.00
782.3380, 41026.00
783.4820, 41120.00
784.6260, 41070.00
785.7700, 40956.00
786.9140, 40942.00
788.0580, 41009.00
789.2010, 41229.00
790.3450, 41200.00
791.4880, 41248.00
792.6310, 41410.00
793.7730, 41347.00
794.9160, 41432.00
796.0590, 41344.00
797.2010, 41148.00
798.3430, 41595.00
799.4850, 41235.00
800.6270, 41355.00
801.7690, 41708.00
802.9100, 41615.00
804.0520, 41357.00
805.1930, 41713.00
806.3340, 41631.00
807.4750, 41506.00
808.6160, 41756.00
809.7560, 41860.00
810.8970, 41856.00
812.0370, 41948.00
813.1770, 41744.00
814.3170, 41989.00
815.4570, 41986.00
816.5960, 41973.00
817.7360, 42150.00
818.8750, 41809.00
820.0140, 42112.00
821.1530, 41836.00
822.2920, 42218.00
823.4310, 42123.00
824.5690, 42302.00
825.7070, 42279.00
826.8460, 42197.00
827.9840, 42410.00
829.1220, 42202.00
830.2590, 42212.00
831.3970, 42512.00
832.5340, 42636.00
833.6710, 42529.00
834.8080, 42515.00
835.9450, 42477.00
837.0820, 42654.00
838.2190, 42546.00
839.3550, 42889.00
840.4910, 42654.00
841.6270, 42966.00
842.7630, 42766.00
843.8990, 42873.00
845.0350, 43029.00
846.1700, 42931.00
847.3060, 42796.00
848.4410, 42870.00
849.5760, 43009.00
850.7100, 42877.00
851.8450, 43006.00
852.9800, 43068.00
854.1140, 43116.00
855.2480, 43080.00
856.3820, 43236.00
857.5160, 43136.00
858.6500, 43175.00
859.7830, 43326.00
860.9170, 43202.00
862.0500, 43540.00
863.1830, 43380.00
864.3160, 43683.00
865.4480, 43259.00
866.5810, 43416.00
867.7130, 43694.00
868.8460, 43440.00
869.9780, 43923.00
871.1100, 43697.00
872.2410, 43674.00
873.3730, 43652.00
874.5050, 44135.00
875.6360, 43954.00
876.7670, 44018.00
877.8980, 43964.00
879.0290, 43952.00
880.1590, 43910.00
881.2900, 44038.00
882.4200, 43839.00
883.5500, 44054.00
884.6800, 44206.00
885.8100, 43952.00
886.9400, 44274.00
888.0690, 43902.00
889.1990, 44493.00
890.3280, 44296.00
891.4570, 44326.00
892.5860, 44655.00
893.7140, 44429.00
894.8430, 44624.00
895.9710, 44746.00
897.1000, 44944.00
898.2280, 44687.00
899.3560, 44698.00
900.4830, 44945.00
901.6110, 45129.00
902.7380, 45334.00
903.8660, 45522.07
904.9930, 45659.00
906.1200, 45829.00
907.2460, 46033.00
908.3730, 46095.00
909.5000, 46590.00
910.6260, 46273.00
911.7520, 46421.00
912.8780, 46773.00
914.0040, 46760.00
915.1290, 46937.00
916.2550, 46973.00
917.3800, 47227.00
918.5050, 47471.00
919.6300, 47597.00
920.7550, 47951.00
921.8800, 47986.00
923.0040, 48676.00
924.1290, 48768.00
925.2530, 49361.00
926.3770, 49642.00
927.5010, 49674.00
928.6250, 50419.00
929.7480, 50614.00
930.8720, 50870.00
931.9950, 51008.00
933.1180, 51612.00
934.2410, 51485.00
935.3640, 51841.00
936.4860, 51918.00
937.6090, 51681.00
938.7310, 51635.00
939.8530, 51643.00
940.9750, 51317.00
942.0970, 51226.00
943.2180, 50608.00
944.3400, 50314.00
945.4610, 50021.00
946.5820, 49413.00
947.7030, 48975.00
948.8240, 48892.00
949.9450, 48710.00
951.0650, 48315.00
952.1860, 48079.00
953.3060, 47903.00
954.4260, 47822.00
955.5460, 47894.00
956.6650, 47541.00
957.7850, 47246.00
958.9040, 47415.00
960.0230, 47391.00
961.1420, 47176.00
962.2610, 47206.00
963.3800, 47276.00
964.4990, 47286.00
965.6170, 47200.00
966.7350, 47431.00
967.8530, 47154.00
968.9710, 47489.00
970.0890, 47600.00
971.2070, 47705.00
972.3240, 47588.00
973.4410, 47717.00
974.5580, 48155.00
975.6750, 47772.00
976.7920, 48029.00
977.9090, 48490.00
979.0250, 48748.00
980.1410, 48633.00
981.2580, 48871.00
982.3740, 48734.00
983.4890, 49453.00
984.6050, 49693.00
985.7200, 49890.00
986.8360, 49952.00
987.9510, 50530.00
989.0660, 50875.00
990.1810, 51025.00
991.2950, 51493.00
992.4100, 51891.00
993.5240, 52150.00
994.6390, 52533.27
995.7530, 52779.00
996.8660, 53094.00
997.9800, 53321.00
999.0940, 53482.00
1000.207, 53723.00
1001.320, 53711.73
1002.433, 53674.00
1003.546, 53663.00
1004.659, 53397.00
1005.772, 53357.00
1006.884, 53062.00
1007.996, 52667.00
1009.108, 52440.00
1010.220, 52278.00
1011.332, 52021.00
1012.444, 51550.00
1013.555, 51658.00
1014.666, 51429.00
1015.777, 51156.00
1016.888, 51238.00
1017.999, 50648.00
1019.110, 50660.00
1020.220, 50259.00
1021.331, 50444.00
1022.441, 50246.00
1023.551, 50159.00
1024.661, 49943.00
1025.770, 50079.00
1026.880, 49721.00
1027.989, 49990.00
1029.098, 49679.00
1030.207, 49752.00
1031.316, 49533.00
1032.425, 49658.00
1033.533, 49527.00
1034.642, 49791.00
1035.750, 49644.00
1036.858, 49630.00
1037.966, 49477.00
1039.073, 49599.00
1040.181, 49491.00
1041.288, 49484.00
1042.396, 49632.00
1043.503, 49846.00
1044.610, 49774.00
1045.716, 50028.00
1046.823, 49606.00
1047.929, 49489.00
1049.036, 50018.00
1050.142, 49667.00
1051.248, 49892.00
1052.353, 49802.00
1053.459, 49539.00
1054.564, 49985.00
1055.670, 49791.00
1056.775, 49880.00
1057.880, 50179.00
1058.985, 49644.00
1060.089, 49851.00
1061.194, 49926.00
1062.298, 49754.00
1063.402, 49916.00
1064.506, 50021.00
1065.610, 49778.00
1066.713, 50025.00
1067.817, 49808.00
1068.920, 50070.00
1070.023, 49952.00
1071.126, 50023.00
1072.229, 49949.00
1073.332, 49969.00
1074.435, 50117.00
1075.537, 49993.00
1076.639, 50320.00
1077.741, 50428.00
1078.843, 50238.00
1079.945, 50307.00
1081.046, 50440.00
1082.148, 50563.00
1083.249, 50805.00
1084.350, 50861.60
1085.451, 50842.00
1086.551, 51078.00
1087.652, 50885.00
1088.752, 51052.00
1089.853, 50807.00
1090.953, 51154.00
1092.053, 51252.00
1093.152, 51150.00
1094.252, 51156.00
1095.351, 51034.00
1096.451, 51137.00
1097.550, 50846.00
1098.649, 51098.00
1099.748, 51096.00
1100.846, 50958.00
1101.945, 51164.00
1103.043, 50902.00
1104.141, 51071.00
1105.239, 50706.00
1106.337, 50930.00
1107.434, 50952.00
1108.532, 51002.00
1109.629, 51085.24
1110.726, 51256.00
1111.823, 51097.00
1112.920, 51116.00
1114.017, 51000.00
1115.113, 51199.00
1116.210, 51208.00
1117.306, 51078.00
1118.402, 51147.00
1119.498, 51605.00
1120.593, 51639.00
1121.689, 51635.00
1122.784, 51763.00
1123.879, 51461.00
1124.974, 51559.00
1126.069, 51638.00
1127.164, 51913.00
1128.259, 51712.00
1129.353, 51634.00
1130.447, 51512.00
1131.541, 51449.00
1132.635, 51602.00
1133.729, 51692.00
1134.822, 51761.00
1135.916, 51881.50
1137.009, 51912.36
1138.102, 52064.00
1139.195, 51963.00
1140.288, 52019.00
1141.380, 51991.00
1142.473, 51912.00
1143.565, 51993.00
1144.657, 51999.00
1145.749, 51996.00
1146.841, 52041.00
1147.932, 52364.00
1149.024, 52127.00
1150.115, 52129.00
1151.206, 52294.00
1152.297, 51967.00
1153.388, 52360.00
1154.479, 52309.00
1155.569, 52388.00
1156.659, 52177.00
1157.750, 52305.00
1158.839, 52238.00
1159.929, 52583.00
1161.019, 52442.00
1162.108, 52676.00
1163.198, 52694.00
1164.287, 52426.00
1165.376, 52321.00
1166.465, 52635.00
1167.553, 52815.00
1168.642, 52725.00
1169.730, 52856.00
1170.818, 52776.00
1171.906, 52993.00
1172.994, 52486.00
1174.082, 52785.00
1175.170, 52920.00
1176.257, 52875.00
1177.344, 53310.00
1178.431, 53110.00
1179.518, 52860.00
1180.605, 52997.00
1181.691, 52758.00
1182.778, 53053.00
1183.864, 53165.00
1184.950, 52995.00
1186.036, 53169.00
1187.122, 53394.00
1188.207, 53269.00
1189.292, 53117.00
1190.378, 53394.00
1191.463, 53225.00
1192.548, 53387.00
1193.632, 53332.00
1194.717, 53432.00
1195.801, 53350.00
1196.886, 53775.00
1197.970, 53564.00
1199.054, 53522.00
1200.137, 53395.00
1201.221, 53732.00
1202.305, 53775.00
1203.388, 53781.00
1204.471, 53609.00
1205.554, 53479.00
1206.637, 53680.00
1207.719, 53612.00
1208.802, 54062.00
1209.884, 53634.00
1210.966, 54096.00
1212.048, 53738.00
1213.130, 53798.00
1214.212, 54037.00
1215.293, 53833.00
1216.374, 54032.00
1217.456, 54056.00
1218.536, 54033.00
1219.617, 53976.00
1220.698, 54267.00
1221.778, 54158.00
1222.859, 54308.00
1223.939, 54469.00
1225.019, 54209.00
1226.099, 54368.00
1227.178, 54250.00
1228.258, 54389.00
1229.337, 54564.00
1230.417, 54468.00
1231.496, 54727.00
1232.574, 54502.00
1233.653, 54712.00
1234.732, 54650.00
1235.810, 54652.00
1236.888, 54331.00
1237.966, 54568.00
1239.044, 54515.00
1240.122, 54936.00
1241.199, 54743.00
1242.277, 54757.00
1243.354, 54640.00
1244.431, 54819.00
1245.508, 55101.00
1246.585, 55023.00
1247.661, 54784.00
1248.738, 54900.00
1249.814, 55246.00
1250.890, 54623.00
1251.966, 55065.00
1253.042, 54890.00
1254.117, 55057.00
1255.193, 54818.00
1256.268, 55194.00
1257.343, 54768.00
1258.418, 55084.00
1259.493, 55366.00
1260.567, 55295.00
1261.642, 55376.00
1262.716, 55254.00
1263.790, 55518.00
1264.864, 55105.00
1265.938, 55628.00
1267.011, 55639.00
1268.085, 55201.00
1269.158, 55323.00
1270.231, 55642.00
1271.304, 55616.00
1272.377, 55524.00
1273.450, 55610.00
1274.522, 55681.00
1275.594, 55881.00
1276.666, 55837.00
1277.738, 55554.00
1278.810, 55879.00
1279.882, 55802.00
1280.953, 56057.00
1282.025, 55670.00
1283.096, 55946.00
1284.167, 56001.00
1285.238, 55856.00
1286.308, 56098.00
1287.379, 55908.00
1288.449, 56043.00
1289.519, 55963.00
1290.589, 56182.00
1291.659, 56187.00
1292.729, 56146.00
1293.798, 56201.00
1294.868, 56260.00
1295.937, 56434.00
