##NAMES=Catapleiite
##RRUFFID=R040005
##IDEAL CHEMISTRY=Na_2_Zr^4+^Si_3_O_9_&#183;2H_2_O
##LOCALITY=Langesundsfjord Eikaholmen Vestfold, Norway
##OWNER=RRUFF
##SOURCE=University of Arizona Mineral Museum
##DESCRIPTION=Brown thin tabular crystal
##STATUS=The identification of this mineral has been confirmed by X-ray diffraction and chemical analysis
##URL=rruff.info/R040005
##MEASURED CHEMISTRY=(Na_1.28_Ca_0.36_[box]_0.36_)_Σ=2_Zr_1.00_Si_3.00_O_9_·2H_2_O
##PIN_ID=L00558
##ORIENTATION=Laser parallel to a* (1 0 0). Fiducial mark perpendicular to laser is parallel to -b [0 -1 0]
120.5960, 26506.07
121.8270, 26482.00
123.0580, 26453.00
124.2880, 26479.00
125.5190, 26382.00
126.7490, 26360.00
127.9790, 26759.00
129.2090, 26674.00
130.4390, 26786.00
131.6680, 26780.00
132.8980, 26746.00
134.1270, 26753.00
135.3560, 26890.00
136.5850, 27060.00
137.8140, 27159.00
139.0430, 27317.00
140.2710, 27427.00
141.5000, 27481.39
142.7280, 27599.00
143.9560, 27617.00
145.1840, 27575.00
146.4120, 27741.00
147.6390, 28033.00
148.8670, 27677.00
150.0940, 27722.00
151.3210, 28175.00
152.5490, 28145.00
153.7750, 28246.00
155.0020, 28231.00
156.2290, 28279.00
157.4550, 28185.00
158.6810, 28342.00
159.9080, 28288.00
161.1340, 28596.00
162.3590, 28400.00
163.5850, 28561.00
164.8110, 28555.00
166.0360, 28680.00
167.2610, 28630.00
168.4860, 28754.23
169.7110, 28824.00
170.9360, 28905.00
172.1610, 29045.00
173.3850, 29005.00
174.6100, 29219.00
175.8340, 29173.00
177.0580, 29569.00
178.2820, 29408.00
179.5050, 29606.00
180.7290, 29791.00
181.9520, 29892.00
183.1760, 29902.00
184.3990, 29945.00
185.6220, 30088.00
186.8450, 30185.00
188.0670, 30313.38
189.2900, 30618.00
190.5120, 30704.00
191.7340, 30895.00
192.9560, 31319.00
194.1780, 31418.00
195.4000, 31410.00
196.6220, 31747.00
197.8430, 31825.31
199.0640, 31976.00
200.2860, 32249.00
201.5070, 32420.00
202.7270, 32762.00
203.9480, 32780.00
205.1690, 32827.00
206.3890, 33107.00
207.6090, 33013.00
208.8290, 33417.00
210.0490, 33306.00
211.2690, 33275.00
212.4890, 33518.00
213.7080, 33282.00
214.9280, 32936.00
216.1470, 32755.00
217.3660, 32281.00
218.5850, 31725.00
219.8030, 31697.00
221.0220, 31048.00
222.2400, 30593.00
223.4590, 30499.00
224.6770, 30045.00
225.8950, 29813.00
227.1120, 29431.00
228.3300, 29443.00
229.5480, 29010.00
230.7650, 28837.00
231.9820, 28831.00
233.1990, 28636.00
234.4160, 28444.00
235.6330, 28350.00
236.8490, 28265.00
238.0660, 28248.00
239.2820, 28192.00
240.4980, 27996.00
241.7140, 27968.00
242.9300, 27882.21
244.1460, 27712.00
245.3610, 27784.00
246.5770, 27801.00
247.7920, 27789.00
249.0070, 27902.00
250.2220, 27729.00
251.4370, 27570.00
252.6510, 27668.00
253.8660, 27448.00
255.0800, 27492.00
256.2940, 27733.00
257.5080, 27742.00
258.7220, 27843.00
259.9360, 27733.00
261.1490, 27673.00
262.3630, 27560.00
263.5760, 27490.00
264.7890, 27422.00
266.0020, 27534.00
267.2150, 27505.00
268.4270, 27443.00
269.6400, 27582.00
270.8520, 27263.00
272.0640, 27379.00
273.2760, 27326.00
274.4880, 27335.00
275.7000, 27110.00
276.9120, 27227.00
278.1230, 27251.00
279.3340, 27329.00
280.5450, 27324.43
281.7560, 27284.00
282.9670, 27326.00
284.1780, 27321.55
285.3880, 27312.00
286.5980, 27355.00
287.8090, 27343.19
289.0190, 27349.00
290.2290, 27361.00
291.4380, 27553.00
292.6480, 27525.00
293.8570, 27681.00
295.0670, 27519.00
296.2760, 27667.00
297.4850, 27528.00
298.6930, 27803.00
299.9020, 27957.00
301.1110, 27807.00
302.3190, 27943.00
303.5270, 27905.00
304.7350, 27789.00
305.9430, 27954.00
307.1510, 28110.00
308.3580, 28048.00
309.5660, 27982.00
310.7730, 28062.00
311.9800, 28145.00
313.1870, 28239.00
314.3940, 28208.00
315.6010, 28259.00
316.8070, 28241.00
318.0130, 28332.00
319.2200, 28131.00
320.4260, 28361.00
321.6310, 28455.00
322.8370, 28300.00
324.0430, 28614.00
325.2480, 28350.00
326.4540, 28621.00
327.6590, 28187.00
328.8640, 28392.00
330.0680, 28621.00
331.2730, 28576.00
332.4780, 28414.00
333.6820, 28446.00
334.8860, 28593.00
336.0900, 28813.00
337.2940, 28677.00
338.4980, 28603.00
339.7010, 28636.00
340.9050, 28673.00
342.1080, 28658.01
343.3110, 28748.00
344.5140, 28749.00
345.7170, 28796.00
346.9200, 28970.00
348.1220, 28848.00
349.3240, 29056.00
350.5270, 29022.00
351.7290, 29136.00
352.9310, 29227.04
354.1320, 29146.00
355.3340, 29347.00
356.5350, 29309.00
357.7370, 29269.00
358.9380, 29325.00
360.1390, 29341.64
361.3400, 29479.00
362.5400, 29434.00
363.7410, 29497.00
364.9410, 29490.00
366.1410, 29517.00
367.3410, 29425.00
368.5410, 29416.00
369.7410, 29428.00
370.9400, 29302.00
372.1400, 29448.00
373.3390, 29377.00
374.5380, 29230.00
375.7370, 29330.00
376.9360, 29141.00
378.1350, 29181.00
379.3330, 29205.00
380.5310, 29215.00
381.7300, 29125.00
382.9280, 29131.00
384.1260, 29107.43
385.3230, 29088.00
386.5210, 29095.00
387.7180, 29157.00
388.9160, 29186.00
390.1130, 29231.77
391.3100, 29102.00
392.5060, 29307.00
393.7030, 29331.00
394.9000, 29314.00
396.0960, 29101.00
397.2920, 29360.00
398.4880, 29347.00
399.6840, 29186.00
400.8800, 29233.00
402.0750, 29262.72
403.2710, 29337.00
404.4660, 29398.00
405.6610, 29406.00
406.8560, 29408.00
408.0510, 29525.00
409.2450, 29533.00
410.4400, 29336.00
411.6340, 29655.00
412.8280, 29486.00
414.0220, 29871.00
415.2160, 29735.00
416.4100, 29805.00
417.6030, 29913.00
418.7970, 29981.00
419.9900, 30170.00
421.1830, 30086.00
422.3760, 30551.00
423.5690, 30353.00
424.7610, 30240.00
425.9540, 30510.00
427.1460, 30789.00
428.3380, 31191.00
429.5300, 31086.00
430.7220, 31634.00
431.9140, 31424.00
433.1050, 31816.00
434.2970, 31909.00
435.4880, 32296.00
436.6790, 32457.00
437.8700, 32586.00
439.0610, 32745.00
440.2510, 32689.00
441.4420, 32791.00
442.6320, 32725.00
443.8220, 32763.00
445.0120, 32331.00
446.2020, 32521.00
447.3910, 32346.00
448.5810, 31892.00
449.7700, 31807.00
450.9600, 31549.00
452.1490, 31037.00
453.3370, 31137.00
454.5260, 30979.00
455.7150, 30574.00
456.9030, 30703.00
458.0910, 30462.00
459.2800, 30454.00
460.4670, 30128.00
461.6550, 30004.00
462.8430, 30231.00
464.0300, 30248.00
465.2180, 30274.00
466.4050, 29953.00
467.5920, 30099.00
468.7790, 30117.00
469.9650, 29861.00
471.1520, 29997.00
472.3380, 30060.00
473.5250, 29922.00
474.7110, 29877.00
475.8970, 29892.00
477.0820, 30271.00
478.2680, 29879.00
479.4540, 29930.00
480.6390, 29998.00
481.8240, 29764.00
483.0090, 29823.00
484.1940, 29883.00
485.3780, 30052.00
486.5630, 30092.00
487.7470, 29938.00
488.9320, 30027.00
490.1160, 29856.00
491.3000, 29971.00
492.4830, 30034.00
493.6670, 30121.00
494.8500, 30208.51
496.0340, 30237.00
497.2170, 30361.00
498.4000, 30410.89
499.5820, 30459.00
500.7650, 30551.00
501.9480, 30487.00
503.1300, 30513.00
504.3120, 30419.00
505.4940, 30521.00
506.6760, 30626.00
507.8580, 30902.00
509.0390, 30948.42
510.2210, 31060.00
511.4020, 31188.00
512.5830, 31215.00
513.7640, 31399.00
514.9450, 31560.00
516.1250, 31604.00
517.3060, 31693.00
518.4860, 31685.00
519.6660, 31685.49
520.8460, 31560.00
522.0260, 31632.00
523.2060, 31517.00
524.3850, 31504.00
525.5650, 31553.00
526.7440, 31381.00
527.9230, 31391.00
529.1020, 31513.00
530.2810, 31198.00
531.4590, 31243.00
532.6380, 31171.00
533.8160, 31252.00
534.9940, 31106.00
536.1720, 31038.00
537.3500, 30889.00
538.5270, 30966.00
539.7050, 30731.00
540.8820, 30700.00
542.0590, 30961.00
543.2360, 30708.00
544.4130, 31023.00
545.5900, 30863.00
546.7660, 30788.00
547.9430, 30652.00
549.1190, 30601.00
550.2950, 30816.00
551.4710, 30944.00
552.6470, 30958.00
553.8220, 30909.00
554.9980, 30904.00
556.1730, 30725.00
557.3480, 31150.00
558.5230, 30923.00
559.6980, 31141.00
560.8730, 31258.00
562.0470, 31372.00
563.2220, 31535.00
564.3960, 31868.00
565.5700, 31949.00
566.7440, 32049.00
567.9170, 32133.00
569.0910, 32567.00
570.2640, 32658.00
571.4380, 32924.00
572.6110, 33146.00
573.7840, 33291.00
574.9570, 33269.00
576.1290, 33117.00
577.3020, 33309.00
578.4740, 33075.00
579.6460, 33099.00
580.8180, 32684.00
581.9900, 32572.00
583.1620, 32421.00
584.3330, 32058.00
585.5040, 31928.00
586.6760, 31918.00
587.8470, 31722.00
589.0180, 31384.00
590.1880, 31399.00
591.3590, 31378.00
592.5290, 31524.00
593.7000, 31237.00
594.8700, 31229.00
596.0400, 31345.00
597.2090, 31230.00
598.3790, 31360.00
599.5490, 31331.00
600.7180, 31227.00
601.8870, 31397.00
603.0560, 31135.00
604.2250, 31361.00
605.3940, 31548.00
606.5620, 31474.00
607.7300, 31529.00
608.8990, 31620.00
610.0670, 31604.00
611.2350, 31634.00
612.4020, 31820.00
613.5700, 31903.00
614.7370, 32159.00
615.9050, 32058.00
617.0720, 32362.00
618.2390, 32438.00
619.4060, 32434.00
620.5720, 32775.00
621.7390, 32991.00
622.9050, 33523.00
624.0710, 33499.00
625.2370, 33965.00
626.4030, 34546.00
627.5690, 34867.00
628.7340, 35431.00
629.9000, 35698.25
631.0650, 35953.00
632.2300, 36290.00
633.3950, 36274.00
634.5600, 36684.00
635.7240, 35824.00
636.8890, 35310.00
638.0530, 35359.00
639.2170, 34553.00
640.3810, 34181.00
641.5450, 33399.00
642.7080, 33472.00
643.8720, 33152.00
645.0350, 32993.00
646.1980, 32508.00
647.3610, 32643.00
648.5240, 32219.00
649.6870, 32235.00
650.8490, 32060.00
652.0120, 32071.00
653.1740, 32038.32
654.3360, 32092.00
655.4980, 32024.00
656.6600, 31934.00
657.8210, 31930.00
658.9830, 32053.00
660.1440, 31927.00
661.3050, 31916.00
662.4660, 31854.00
663.6270, 32051.00
664.7870, 31924.00
665.9480, 31931.00
667.1080, 31787.00
668.2680, 31987.00
669.4280, 32161.00
670.5880, 31836.00
671.7480, 31991.00
672.9070, 31923.00
674.0670, 31907.00
675.2260, 31996.00
676.3850, 31840.00
677.5440, 31692.00
678.7030, 31980.00
679.8610, 31931.00
681.0200, 32210.00
682.1780, 32025.00
683.3360, 32118.00
684.4940, 32131.00
685.6520, 32218.00
686.8090, 32141.00
687.9670, 32080.00
689.1240, 32187.00
690.2810, 32149.00
691.4380, 32157.00
692.5950, 32334.00
693.7520, 32133.00
694.9080, 32488.00
696.0650, 32348.00
697.2210, 32078.00
698.3770, 32367.00
699.5330, 32301.00
700.6880, 32507.00
701.8440, 32412.00
702.9990, 32609.00
704.1550, 32404.00
705.3100, 32564.00
706.4650, 32581.00
707.6190, 32633.00
708.7740, 32531.00
709.9290, 32512.00
711.0830, 32722.00
712.2370, 32825.00
713.3910, 32827.00
714.5450, 32747.00
715.6980, 32923.00
716.8520, 32599.00
718.0050, 32721.00
719.1580, 32977.00
720.3110, 32809.00
721.4640, 33004.00
722.6170, 33066.00
723.7700, 33035.00
724.9220, 32837.00
726.0740, 32986.00
727.2260, 33143.00
728.3780, 33324.00
729.5300, 33363.12
730.6810, 33256.00
731.8330, 33450.00
732.9840, 33375.00
734.1350, 33442.00
735.2860, 33226.00
736.4370, 33255.00
737.5880, 33460.00
738.7380, 33418.00
739.8880, 33606.00
741.0390, 33719.00
742.1890, 33685.00
743.3380, 33420.00
744.4880, 33642.00
745.6380, 33472.00
746.7870, 33358.00
747.9360, 33559.00
749.0850, 33657.00
750.2340, 33510.00
751.3830, 33548.00
752.5310, 33688.00
753.6800, 33612.00
754.8280, 33609.00
755.9760, 33683.00
757.1240, 33598.00
758.2720, 33598.00
759.4190, 33579.00
760.5670, 33542.00
761.7140, 33574.18
762.8610, 33674.00
764.0080, 33632.00
765.1550, 33684.00
766.3020, 33729.00
767.4480, 33711.00
768.5950, 33807.00
769.7410, 33862.00
770.8870, 33880.00
772.0330, 33839.00
773.1780, 33933.88
774.3240, 33873.00
775.4690, 34061.00
776.6140, 34036.00
777.7590, 34062.00
778.9040, 34011.00
780.0490, 33859.00
781.1940, 33958.00
782.3380, 33751.00
783.4820, 34089.00
784.6260, 33900.00
785.7700, 33995.00
786.9140, 33903.00
788.0580, 34080.00
789.2010, 34163.00
790.3450, 33919.00
791.4880, 34366.00
792.6310, 34134.00
793.7730, 34194.00
794.9160, 34043.00
796.0590, 34288.00
797.2010, 34299.00
798.3430, 34071.00
799.4850, 34488.00
800.6270, 34070.00
801.7690, 34099.00
802.9100, 34285.00
804.0520, 34546.00
805.1930, 34350.00
806.3340, 34319.00
807.4750, 34285.00
808.6160, 34487.00
809.7560, 34368.00
810.8970, 34165.00
812.0370, 34725.00
813.1770, 34477.00
814.3170, 34444.00
815.4570, 34858.00
816.5960, 34600.00
817.7360, 34628.00
818.8750, 34731.00
820.0140, 34483.00
821.1530, 34541.00
822.2920, 34719.00
823.4310, 34726.00
824.5690, 35067.00
825.7070, 34794.00
826.8460, 34693.00
827.9840, 34998.00
829.1220, 34627.00
830.2590, 34687.00
831.3970, 34792.00
832.5340, 34763.00
833.6710, 34707.00
834.8080, 34880.00
835.9450, 34848.00
837.0820, 34803.00
838.2190, 34898.00
839.3550, 34869.00
840.4910, 34856.00
841.6270, 34942.00
842.7630, 35064.00
843.8990, 34859.00
845.0350, 34851.00
846.1700, 34926.00
847.3060, 35062.00
848.4410, 35153.00
849.5760, 35180.18
850.7100, 35134.00
851.8450, 35191.00
852.9800, 35133.00
854.1140, 35082.00
855.2480, 35208.00
856.3820, 35325.00
857.5160, 35199.00
858.6500, 35275.00
859.7830, 35151.00
860.9170, 35143.04
862.0500, 35268.00
863.1830, 35162.00
864.3160, 35276.00
865.4480, 35446.00
866.5810, 35119.00
867.7130, 35571.00
868.8460, 35166.00
869.9780, 35277.00
871.1100, 35480.00
872.2410, 35386.00
873.3730, 35330.00
874.5050, 35611.00
875.6360, 35652.00
876.7670, 35492.00
877.8980, 35565.00
879.0290, 35509.00
880.1590, 35528.00
881.2900, 35740.00
882.4200, 35586.00
883.5500, 35457.00
884.6800, 35660.00
885.8100, 35664.00
886.9400, 35665.00
888.0690, 35592.00
889.1990, 35740.00
890.3280, 35831.00
891.4570, 35808.00
892.5860, 35832.00
893.7140, 35878.00
894.8430, 35900.00
895.9710, 36064.00
897.1000, 35891.00
898.2280, 35891.00
899.3560, 36017.38
900.4830, 36150.00
901.6110, 36305.00
902.7380, 36409.00
903.8660, 36539.04
904.9930, 36583.00
906.1200, 36811.00
907.2460, 36906.00
908.3730, 37128.00
909.5000, 37263.00
910.6260, 37273.00
911.7520, 37354.00
912.8780, 37633.00
914.0040, 37417.00
915.1290, 37339.00
916.2550, 37616.00
917.3800, 37738.00
918.5050, 37840.00
919.6300, 37961.00
920.7550, 38276.00
921.8800, 38379.00
923.0040, 38264.00
924.1290, 38654.00
925.2530, 38877.00
926.3770, 39045.00
927.5010, 39374.00
928.6250, 39440.00
929.7480, 39836.00
930.8720, 39850.00
931.9950, 40154.00
933.1180, 40160.00
934.2410, 40297.00
935.3640, 40491.00
936.4860, 40447.00
937.6090, 40411.00
938.7310, 40406.23
939.8530, 40325.00
940.9750, 40161.00
942.0970, 40021.00
943.2180, 39694.00
944.3400, 39367.00
945.4610, 39465.00
946.5820, 38846.00
947.7030, 38898.00
948.8240, 38836.00
949.9450, 38648.00
951.0650, 38356.00
952.1860, 38436.00
953.3060, 38227.00
954.4260, 38236.00
955.5460, 38312.00
956.6650, 38222.00
957.7850, 38362.00
958.9040, 38201.00
960.0230, 38242.00
961.1420, 38238.00
962.2610, 38495.00
963.3800, 38467.00
964.4990, 38410.00
965.6170, 38724.00
966.7350, 38724.00
967.8530, 38999.00
968.9710, 39346.00
970.0890, 39379.00
971.2070, 39624.00
972.3240, 39998.00
973.4410, 40422.00
974.5580, 40859.00
975.6750, 40892.00
976.7920, 41595.00
977.9090, 42005.00
979.0250, 42770.00
980.1410, 43585.00
981.2580, 44484.00
982.3740, 45293.00
983.4890, 46473.00
984.6050, 47521.31
985.7200, 48535.00
986.8360, 50010.00
987.9510, 51272.00
989.0660, 52773.00
990.1810, 54283.00
991.2950, 55453.00
992.4100, 56842.00
993.5240, 58058.00
994.6390, 59467.00
995.7530, 60472.00
996.8660, 61634.00
997.9800, 62506.00
999.0940, 62889.00
1000.207, 63060.00
1001.320, 63011.00
1002.433, 62542.00
1003.546, 62087.00
1004.659, 61319.29
1005.772, 60155.00
1006.884, 59268.00
1007.996, 57997.00
1009.108, 56578.00
1010.220, 55485.32
1011.332, 54247.29
1012.444, 52994.00
1013.555, 52048.00
1014.666, 50859.00
1015.777, 49944.00
1016.888, 49013.00
1017.999, 47828.00
1019.110, 47089.00
1020.220, 46566.00
1021.331, 45256.00
1022.441, 44986.00
1023.551, 43906.00
1024.661, 43672.00
1025.770, 43116.00
1026.880, 42400.00
1027.989, 42496.00
1029.098, 41931.00
1030.207, 41445.00
1031.316, 41499.00
1032.425, 40815.00
1033.533, 40792.00
1034.642, 40446.00
1035.750, 40508.00
1036.858, 40245.00
1037.966, 40104.00
1039.073, 39951.00
1040.181, 39827.00
1041.288, 39819.99
1042.396, 39855.00
1043.503, 39807.00
1044.610, 39853.00
1045.716, 39743.00
1046.823, 39819.00
1047.929, 39488.00
1049.036, 39441.00
1050.142, 39409.00
1051.248, 39373.00
1052.353, 39374.00
1053.459, 38988.00
1054.564, 39112.00
1055.670, 38837.00
1056.775, 38730.00
1057.880, 38646.00
1058.985, 38479.00
1060.089, 38525.00
1061.194, 38270.00
1062.298, 38217.00
1063.402, 38234.00
1064.506, 38271.00
1065.610, 38185.00
1066.713, 38183.49
1067.817, 38107.00
1068.920, 38034.00
1070.023, 38074.00
1071.126, 37880.00
1072.229, 37943.00
1073.332, 38092.00
1074.435, 38010.00
1075.537, 38339.00
1076.639, 38295.00
1077.741, 38491.00
1078.843, 38647.00
1079.945, 38950.00
1081.046, 39168.00
1082.148, 39594.00
1083.249, 39615.00
1084.350, 40056.00
1085.451, 40282.00
1086.551, 40278.00
1087.652, 40595.00
1088.752, 40670.00
1089.853, 40631.00
1090.953, 40463.00
1092.053, 40277.00
1093.152, 40077.00
1094.252, 40059.00
1095.351, 39938.00
1096.451, 39745.00
1097.550, 39646.00
1098.649, 39440.00
1099.748, 39071.00
1100.846, 38776.00
1101.945, 38444.00
1103.043, 38321.00
1104.141, 38126.00
1105.239, 37957.00
1106.337, 37850.00
1107.434, 37787.00
1108.532, 37630.00
1109.629, 37343.00
1110.726, 37219.00
1111.823, 37334.00
1112.920, 36990.00
1114.017, 37128.00
1115.113, 36958.00
1116.210, 36915.00
1117.306, 37018.00
1118.402, 37090.00
1119.498, 36906.00
1120.593, 36941.00
1121.689, 37032.00
1122.784, 36942.00
1123.879, 36931.00
1124.974, 36950.00
1126.069, 37014.00
1127.164, 36677.00
1128.259, 36590.00
1129.353, 36905.00
1130.447, 36677.00
1131.541, 36907.00
1132.635, 36960.00
1133.729, 36568.00
1134.822, 36780.00
1135.916, 36729.00
1137.009, 36927.00
1138.102, 37135.00
1139.195, 36868.00
1140.288, 36777.00
1141.380, 36818.00
1142.473, 36478.00
1143.565, 36873.00
1144.657, 36846.00
1145.749, 36643.00
1146.841, 36835.00
1147.932, 36755.00
1149.024, 36491.00
1150.115, 36546.00
1151.206, 36650.00
1152.297, 36849.00
1153.388, 36676.00
1154.479, 36590.00
1155.569, 36547.00
1156.659, 36517.78
1157.750, 36776.00
1158.839, 36633.00
1159.929, 36475.00
1161.019, 36666.00
1162.108, 36510.00
1163.198, 36608.00
1164.287, 36632.00
1165.376, 36557.00
1166.465, 36587.00
1167.553, 36689.00
1168.642, 36687.00
1169.730, 36363.00
1170.818, 36602.00
1171.906, 36482.00
1172.994, 36183.00
1174.082, 36584.00
1175.170, 36650.00
1176.257, 36316.00
1177.344, 36281.00
1178.431, 36301.00
1179.518, 36477.00
1180.605, 36637.00
1181.691, 36414.00
1182.778, 36453.00
1183.864, 36418.00
1184.950, 36329.00
1186.036, 36411.00
1187.122, 36495.00
1188.207, 36559.00
1189.292, 36021.00
1190.378, 36061.00
1191.463, 36099.00
1192.548, 36539.00
1193.632, 36366.00
1194.717, 36198.00
1195.801, 35979.00
1196.886, 36257.00
1197.970, 36351.00
1199.054, 36257.00
1200.137, 36183.00
1201.221, 36108.00
1202.305, 36107.00
1203.388, 36096.36
1204.471, 36192.00
1205.554, 36146.00
1206.637, 36279.00
1207.719, 36314.00
1208.802, 36287.96
1209.884, 36322.34
1210.966, 36195.00
1212.048, 36257.00
1213.130, 36116.00
1214.212, 36023.00
1215.293, 36027.21
1216.374, 36150.00
1217.456, 35985.00
1218.536, 35832.00
1219.617, 35826.77
1220.698, 36228.00
1221.778, 35942.00
1222.859, 35911.00
1223.939, 36170.00
1225.019, 36030.00
1226.099, 36472.00
1227.178, 36164.00
1228.258, 36175.00
1229.337, 36098.00
1230.417, 35970.00
1231.496, 36079.00
1232.574, 36171.00
1233.653, 36025.00
1234.732, 35973.00
1235.810, 35949.00
1236.888, 35808.00
1237.966, 36070.00
1239.044, 36128.00
1240.122, 36011.00
1241.199, 36099.00
1242.277, 36014.00
1243.354, 36009.06
1244.431, 36010.00
1245.508, 35994.00
1246.585, 35920.00
1247.661, 35928.00
1248.738, 35859.00
1249.814, 35898.41
1250.890, 35779.00
1251.966, 35917.00
1253.042, 36075.00
1254.117, 35953.00
1255.193, 35972.00
1256.268, 35715.00
1257.343, 35885.00
1258.418, 35685.00
1259.493, 35699.00
1260.567, 35714.00
1261.642, 35960.00
1262.716, 35919.00
1263.790, 35865.00
1264.864, 35710.00
1265.938, 36090.00
1267.011, 35977.00
1268.085, 35940.00
1269.158, 35632.00
1270.231, 35923.00
1271.304, 35682.00
1272.377, 35780.00
1273.450, 35604.00
1274.522, 35915.00
1275.594, 35691.00
1276.666, 35714.00
1277.738, 35726.00
1278.810, 35742.00
1279.882, 35717.00
1280.953, 35822.00
1282.025, 35805.00
1283.096, 35855.00
1284.167, 35699.00
1285.238, 35851.00
1286.308, 35727.00
1287.379, 35855.00
1288.449, 35735.00
1289.519, 35862.00
1290.589, 35846.30
1291.659, 35803.00
1292.729, 35831.00
1293.798, 35780.00
1294.868, 35708.00
