##NAMES=Catapleiite
##RRUFFID=R060198
##IDEAL CHEMISTRY=Na_2_Zr^4+^Si_3_O_9_&#183;2H_2_O
##LOCALITY=Mont Saint-Hilaire, Rouville County, Quebec, Canada
##OWNER=RRUFF
##SOURCE=Royal Ontario Museum
##DESCRIPTION=Tan colored pseudohexagonal tabular crystals
##STATUS=The identification of this mineral has been confirmed by X-ray diffraction and chemical analysis
##URL=rruff.info/R060198
##MEASURED CHEMISTRY=(Na_1.92_Ca_0.04_[box]_0.04_)_Σ=2_Zr_1.00_Si_3.00_O_9_·2H_2_O
##PIN_ID=L01561
##ORIENTATION=Laser parallel to b* (0 1 0). Fiducial mark perpendicular to laser is parallel to c [0 0 1]
95.94800, 9353.000
97.18200, 9325.000
98.41600, 9210.000
99.64900, 9302.000
100.8830, 9231.000
102.1160, 9387.000
103.3490, 9326.000
104.5820, 9624.000
105.8150, 9710.000
107.0470, 10059.00
108.2800, 10642.00
109.5120, 11118.00
110.7440, 10713.00
111.9760, 10298.00
113.2080, 10352.00
114.4400, 10455.00
115.6710, 10677.00
116.9030, 10736.00
118.1340, 10665.00
119.3650, 10586.00
120.5960, 10399.00
121.8270, 10278.00
123.0580, 10473.00
124.2880, 10287.00
125.5190, 10316.00
126.7490, 10256.00
127.9790, 10427.00
129.2090, 10602.00
130.4390, 10513.00
131.6680, 10699.00
132.8980, 10752.00
134.1270, 10648.00
135.3560, 10955.00
136.5850, 11197.00
137.8140, 11130.00
139.0430, 11430.00
140.2710, 11570.00
141.5000, 11666.00
142.7280, 11726.00
143.9560, 11787.00
145.1840, 12143.00
146.4120, 12303.00
147.6390, 12536.00
148.8670, 12587.00
150.0940, 12658.00
151.3210, 12860.00
152.5490, 13095.00
153.7750, 13057.00
155.0020, 13056.00
156.2290, 13000.00
157.4550, 12919.00
158.6810, 12750.00
159.9080, 12678.00
161.1340, 12414.00
162.3590, 12211.00
163.5850, 12184.00
164.8110, 11693.00
166.0360, 11560.00
167.2610, 11332.00
168.4860, 10882.00
169.7110, 10545.00
170.9360, 10391.00
172.1610, 9981.000
173.3850, 9802.000
174.6100, 9458.000
175.8340, 9224.000
177.0580, 9107.000
178.2820, 9022.000
179.5050, 8683.000
180.7290, 8604.000
181.9520, 8523.000
183.1760, 8455.000
184.3990, 8409.000
185.6220, 8422.000
186.8450, 8358.000
188.0670, 8417.000
189.2900, 8409.000
190.5120, 8506.000
191.7340, 8581.000
192.9560, 8625.000
194.1780, 8642.000
195.4000, 8901.000
196.6220, 8968.000
197.8430, 9011.000
199.0640, 9066.000
200.2860, 9269.000
201.5070, 9517.000
202.7270, 9688.000
203.9480, 9654.000
205.1690, 9344.000
206.3890, 9300.000
207.6090, 9217.000
208.8290, 9038.000
210.0490, 9090.000
211.2690, 9084.000
212.4890, 8868.000
213.7080, 8804.000
214.9280, 8620.328
216.1470, 8473.000
217.3660, 8236.000
218.5850, 8104.000
219.8030, 7922.000
221.0220, 7905.000
222.2400, 7576.000
223.4590, 7561.000
224.6770, 7432.000
225.8950, 7222.000
227.1120, 7168.000
228.3300, 7100.000
229.5480, 7075.000
230.7650, 7012.000
231.9820, 6952.762
233.1990, 6908.461
234.4160, 6851.518
235.6330, 6803.000
236.8490, 6758.000
238.0660, 6708.000
239.2820, 6674.545
240.4980, 6616.000
241.7140, 6616.000
242.9300, 6599.000
244.1460, 6614.000
245.3610, 6517.000
246.5770, 6562.000
247.7920, 6423.000
249.0070, 6471.000
250.2220, 6425.000
251.4370, 6525.000
252.6510, 6540.000
253.8660, 6509.000
255.0800, 6569.000
256.2940, 6538.000
257.5080, 6644.000
258.7220, 6890.000
259.9360, 6784.293
261.1490, 6915.000
262.3630, 6682.000
263.5760, 6661.000
264.7890, 6542.000
266.0020, 6642.000
267.2150, 6472.000
268.4270, 6521.000
269.6400, 6457.000
270.8520, 6424.000
272.0640, 6473.000
273.2760, 6459.000
274.4880, 6576.000
275.7000, 6616.000
276.9120, 6699.000
278.1230, 6685.000
279.3340, 6787.000
280.5450, 6807.000
281.7560, 6904.000
282.9670, 7027.000
284.1780, 7079.000
285.3880, 7442.000
286.5980, 7392.000
287.8090, 7604.000
289.0190, 7835.000
290.2290, 7944.000
291.4380, 8029.000
292.6480, 8192.000
293.8570, 8330.000
295.0670, 8455.000
296.2760, 8374.000
297.4850, 8358.000
298.6930, 8320.000
299.9020, 8323.000
301.1110, 8225.696
302.3190, 8034.000
303.5270, 8060.000
304.7350, 7932.000
305.9430, 7907.000
307.1510, 7929.000
308.3580, 7675.000
309.5660, 7722.000
310.7730, 7652.006
311.9800, 7762.000
313.1870, 7562.000
314.3940, 7591.000
315.6010, 7475.000
316.8070, 7373.000
318.0130, 7372.000
319.2200, 7397.000
320.4260, 7383.000
321.6310, 7358.000
322.8370, 7341.337
324.0430, 7344.000
325.2480, 7262.000
326.4540, 7212.000
327.6590, 7147.000
328.8640, 7189.000
330.0680, 7053.000
331.2730, 7117.000
332.4780, 7004.000
333.6820, 6840.000
334.8860, 6865.000
336.0900, 6822.000
337.2940, 6826.000
338.4980, 6745.000
339.7010, 6697.000
340.9050, 6627.000
342.1080, 6593.865
343.3110, 6660.000
344.5140, 6578.000
345.7170, 6577.000
346.9200, 6659.000
348.1220, 6585.000
349.3240, 6704.000
350.5270, 6703.000
351.7290, 6674.000
352.9310, 6754.000
354.1320, 6916.000
355.3340, 6956.000
356.5350, 7031.000
357.7370, 6978.000
358.9380, 7209.000
360.1390, 7171.000
361.3400, 7213.000
362.5400, 7270.000
363.7410, 7373.000
364.9410, 7390.000
366.1410, 7464.000
367.3410, 7455.000
368.5410, 7442.000
369.7410, 7534.000
370.9400, 7412.000
372.1400, 7365.000
373.3390, 7409.000
374.5380, 7450.000
375.7370, 7437.000
376.9360, 7454.000
378.1350, 7328.000
379.3330, 7373.000
380.5310, 7290.000
381.7300, 7368.000
382.9280, 7391.000
384.1260, 7346.000
385.3230, 7340.000
386.5210, 7289.000
387.7180, 7282.000
388.9160, 7286.000
390.1130, 7281.033
391.3100, 7354.000
392.5060, 7339.000
393.7030, 7326.000
394.9000, 7416.736
396.0960, 7578.000
397.2920, 7473.000
398.4880, 7638.000
399.6840, 7625.000
400.8800, 7662.000
402.0750, 7683.000
403.2710, 7883.000
404.4660, 8154.000
405.6610, 8230.000
406.8560, 8499.000
408.0510, 8887.000
409.2450, 9237.000
410.4400, 9530.000
411.6340, 10103.00
412.8280, 10740.00
414.0220, 11454.00
415.2160, 12287.00
416.4100, 13329.00
417.6030, 14364.00
418.7970, 15836.00
419.9900, 17299.00
421.1830, 19050.00
422.3760, 20606.00
423.5690, 21943.00
424.7610, 23128.00
425.9540, 24186.00
427.1460, 24634.00
428.3380, 24771.00
429.5300, 23842.00
430.7220, 23394.00
431.9140, 22213.00
433.1050, 20733.00
434.2970, 19373.00
435.4880, 17931.00
436.6790, 16603.00
437.8700, 15413.00
439.0610, 14380.00
440.2510, 13506.00
441.4420, 12685.16
442.6320, 11811.00
443.8220, 11345.00
445.0120, 10847.00
446.2020, 10247.00
447.3910, 10148.00
448.5810, 9687.000
449.7700, 9458.000
450.9600, 9094.000
452.1490, 8952.000
453.3370, 8755.000
454.5260, 8641.000
455.7150, 8503.792
456.9030, 8350.000
458.0910, 8261.000
459.2800, 8169.000
460.4670, 8032.000
461.6550, 7972.456
462.8430, 7862.993
464.0300, 7837.000
465.2180, 7712.000
466.4050, 7662.842
467.5920, 7663.000
468.7790, 7619.000
469.9650, 7587.000
471.1520, 7600.000
472.3380, 7506.000
473.5250, 7520.000
474.7110, 7510.000
475.8970, 7488.000
477.0820, 7485.000
478.2680, 7391.000
479.4540, 7410.000
480.6390, 7400.000
481.8240, 7461.000
483.0090, 7444.000
484.1940, 7367.000
485.3780, 7379.000
486.5630, 7405.000
487.7470, 7319.000
488.9320, 7369.000
490.1160, 7279.000
491.3000, 7327.000
492.4830, 7340.000
493.6670, 7310.745
494.8500, 7451.000
496.0340, 7311.000
497.2170, 7349.000
498.4000, 7379.000
499.5820, 7464.000
500.7650, 7525.000
501.9480, 7506.000
503.1300, 7677.000
504.3120, 7685.000
505.4940, 7983.000
506.6760, 8010.089
507.8580, 7913.000
509.0390, 8204.000
510.2210, 8015.000
511.4020, 8151.000
512.5830, 8394.000
513.7640, 8507.000
514.9450, 8648.000
516.1250, 8770.000
517.3060, 8912.000
518.4860, 9051.000
519.6660, 9242.000
520.8460, 9363.000
522.0260, 9276.000
523.2060, 9556.000
524.3850, 9442.000
525.5650, 9632.000
526.7440, 9499.000
527.9230, 9687.000
529.1020, 9584.000
530.2810, 9546.000
531.4590, 9642.000
532.6380, 9576.000
533.8160, 9568.000
534.9940, 9648.000
536.1720, 9476.000
537.3500, 9502.000
538.5270, 9652.000
539.7050, 9503.000
540.8820, 9596.000
542.0590, 9747.000
543.2360, 9728.000
544.4130, 9703.000
545.5900, 9839.000
546.7660, 10023.00
547.9430, 9969.000
549.1190, 10287.00
550.2950, 10510.00
551.4710, 10961.00
552.6470, 11289.00
553.8220, 11725.00
554.9980, 12304.00
556.1730, 12927.00
557.3480, 13513.00
558.5230, 14466.00
559.6980, 15580.00
560.8730, 16959.00
562.0470, 18458.00
563.2220, 20187.00
564.3960, 21532.00
565.5700, 23162.00
566.7440, 24653.00
567.9170, 26035.00
569.0910, 27158.00
570.2640, 27780.00
571.4380, 27677.00
572.6110, 27170.00
573.7840, 25973.00
574.9570, 25110.00
576.1290, 23234.00
577.3020, 21540.00
578.4740, 19470.00
579.6460, 17723.00
580.8180, 16195.00
581.9900, 14651.00
583.1620, 13335.00
584.3330, 12420.00
585.5040, 11610.00
586.6760, 10956.00
587.8470, 10265.00
589.0180, 9804.764
590.1880, 9203.000
591.3590, 9132.000
592.5290, 8688.000
593.7000, 8609.000
594.8700, 8426.000
596.0400, 8312.000
597.2090, 8199.000
598.3790, 8069.000
599.5490, 8120.000
600.7180, 8055.000
601.8870, 8104.000
603.0560, 8050.000
604.2250, 8121.000
605.3940, 8113.000
606.5620, 8178.000
607.7300, 8372.000
608.8990, 8552.000
610.0670, 8765.000
611.2350, 9008.000
612.4020, 9492.000
613.5700, 9791.000
614.7370, 10388.00
615.9050, 11215.00
617.0720, 12003.00
618.2390, 13204.00
619.4060, 14600.00
620.5720, 16075.00
621.7390, 18044.00
622.9050, 20243.00
624.0710, 22057.00
625.2370, 23790.00
626.4030, 25375.00
627.5690, 25951.00
628.7340, 25827.00
629.9000, 25020.00
631.0650, 23744.00
632.2300, 21843.00
633.3950, 19952.00
634.5600, 17727.00
635.7240, 15890.00
636.8890, 14191.00
638.0530, 12724.00
639.2170, 11546.00
640.3810, 10593.00
641.5450, 9937.000
642.7080, 9364.000
643.8720, 8919.000
645.0350, 8409.000
646.1980, 8252.000
647.3610, 7930.000
648.5240, 7784.000
649.6870, 7606.000
650.8490, 7459.000
652.0120, 7407.000
653.1740, 7373.000
654.3360, 7179.000
655.4980, 7146.000
656.6600, 6997.000
657.8210, 6953.000
658.9830, 6920.000
660.1440, 6906.000
661.3050, 6847.000
662.4660, 6848.000
663.6270, 6859.000
664.7870, 6741.000
665.9480, 6925.000
667.1080, 6705.000
668.2680, 6773.000
669.4280, 6721.000
670.5880, 6740.000
671.7480, 6744.000
672.9070, 6675.000
674.0670, 6702.000
675.2260, 6926.000
676.3850, 6785.858
677.5440, 6825.000
678.7030, 6703.000
679.8610, 6698.000
681.0200, 6725.000
682.1780, 6614.000
683.3360, 6638.000
684.4940, 6767.000
685.6520, 6703.000
686.8090, 6662.000
687.9670, 6640.000
689.1240, 6660.000
690.2810, 6628.488
691.4380, 6615.029
692.5950, 6619.000
693.7520, 6604.000
694.9080, 6625.000
696.0650, 6617.485
697.2210, 6699.000
698.3770, 6626.000
699.5330, 6607.000
700.6880, 6626.000
701.8440, 6500.000
702.9990, 6548.000
704.1550, 6618.000
705.3100, 6703.000
706.4650, 6691.000
707.6190, 6754.608
708.7740, 6802.000
709.9290, 6800.000
711.0830, 6790.000
712.2370, 6778.000
713.3910, 6840.000
714.5450, 6872.000
715.6980, 7009.000
716.8520, 6994.000
718.0050, 7029.000
719.1580, 7076.000
720.3110, 7261.000
721.4640, 7232.000
722.6170, 7395.000
723.7700, 7439.000
724.9220, 7615.000
726.0740, 7724.000
727.2260, 7746.000
728.3780, 7925.000
729.5300, 7981.000
730.6810, 8167.000
731.8330, 8222.000
732.9840, 8162.000
734.1350, 8366.000
735.2860, 8314.000
736.4370, 8375.000
737.5880, 8127.000
738.7380, 8119.000
739.8880, 8047.000
741.0390, 7890.000
742.1890, 7811.000
743.3380, 7794.000
744.4880, 7569.000
745.6380, 7453.000
746.7870, 7451.000
747.9360, 7211.000
749.0850, 7195.000
750.2340, 7070.000
751.3830, 7047.000
752.5310, 6997.000
753.6800, 6923.167
754.8280, 6741.000
755.9760, 6780.000
757.1240, 6762.000
758.2720, 6628.000
759.4190, 6656.000
760.5670, 6671.000
761.7140, 6611.000
762.8610, 6555.000
764.0080, 6719.000
765.1550, 6609.000
766.3020, 6559.000
767.4480, 6653.000
768.5950, 6539.000
769.7410, 6577.000
770.8870, 6484.000
772.0330, 6432.000
773.1780, 6508.000
774.3240, 6541.000
775.4690, 6550.000
776.6140, 6505.000
777.7590, 6504.000
778.9040, 6405.000
780.0490, 6518.000
781.1940, 6532.000
782.3380, 6453.000
783.4820, 6526.000
784.6260, 6511.000
785.7700, 6527.000
786.9140, 6535.000
788.0580, 6509.000
789.2010, 6514.000
790.3450, 6591.000
791.4880, 6643.000
792.6310, 6545.000
793.7730, 6562.000
794.9160, 6665.000
796.0590, 6523.000
797.2010, 6570.000
798.3430, 6601.000
799.4850, 6679.000
800.6270, 6673.000
801.7690, 6707.322
802.9100, 6661.000
804.0520, 6733.000
805.1930, 6752.000
806.3340, 6763.000
807.4750, 6790.521
808.6160, 6657.000
809.7560, 6780.000
810.8970, 6811.000
812.0370, 6751.000
813.1770, 6898.000
814.3170, 6864.000
815.4570, 6923.000
816.5960, 6896.000
817.7360, 6958.000
818.8750, 7005.000
820.0140, 7104.000
821.1530, 7040.000
822.2920, 7139.000
823.4310, 7092.000
824.5690, 7167.000
825.7070, 7275.000
826.8460, 7309.000
827.9840, 7430.000
829.1220, 7494.000
830.2590, 7393.000
831.3970, 7530.000
832.5340, 7721.000
833.6710, 7794.000
834.8080, 7653.000
835.9450, 7775.000
837.0820, 7743.000
838.2190, 7681.000
839.3550, 7754.000
840.4910, 7689.000
841.6270, 7750.000
842.7630, 7639.000
843.8990, 7731.000
845.0350, 7573.000
846.1700, 7620.000
847.3060, 7574.000
848.4410, 7595.000
849.5760, 7513.000
850.7100, 7631.000
851.8450, 7598.000
852.9800, 7741.000
854.1140, 7522.000
855.2480, 7716.000
856.3820, 7595.000
857.5160, 7634.000
858.6500, 7518.000
859.7830, 7439.000
860.9170, 7591.000
862.0500, 7502.000
863.1830, 7597.000
864.3160, 7622.000
865.4480, 7747.000
866.5810, 7662.000
867.7130, 7610.000
868.8460, 7667.000
869.9780, 7678.000
871.1100, 7665.000
872.2410, 7736.000
873.3730, 7706.198
874.5050, 7781.000
875.6360, 7708.000
876.7670, 7751.000
877.8980, 7798.000
879.0290, 7784.000
880.1590, 7876.000
881.2900, 7905.000
882.4200, 7994.000
883.5500, 8050.000
884.6800, 8028.000
885.8100, 8117.000
886.9400, 8122.000
888.0690, 8161.000
889.1990, 8238.000
890.3280, 8401.000
891.4570, 8293.000
892.5860, 8568.000
893.7140, 8554.000
894.8430, 8708.000
895.9710, 8833.000
897.1000, 8889.000
898.2280, 9107.000
899.3560, 9303.000
900.4830, 9475.000
901.6110, 9785.000
902.7380, 9994.000
903.8660, 10473.00
904.9930, 11027.00
906.1200, 11541.00
907.2460, 12288.00
908.3730, 12848.00
909.5000, 13600.00
910.6260, 14302.00
911.7520, 14914.00
912.8780, 15700.00
914.0040, 16366.00
915.1290, 17318.00
916.2550, 18392.00
917.3800, 19857.00
918.5050, 21632.00
919.6300, 24160.00
920.7550, 26808.00
921.8800, 30331.00
923.0040, 34297.00
924.1290, 38584.00
925.2530, 43652.00
926.3770, 48627.00
927.5010, 53709.00
928.6250, 58526.00
929.7480, 62066.00
930.8720, 64190.00
931.9950, 64854.00
933.1180, 64520.00
934.2410, 62435.00
935.3640, 58951.00
936.4860, 55000.00
937.6090, 50604.00
938.7310, 45446.00
939.8530, 40929.00
940.9750, 36863.00
942.0970, 33335.00
943.2180, 30298.00
944.3400, 27708.00
945.4610, 25865.00
946.5820, 24148.00
947.7030, 22626.00
948.8240, 21102.00
949.9450, 19570.00
951.0650, 17754.00
952.1860, 16558.00
953.3060, 15046.00
954.4260, 13825.00
955.5460, 12868.00
956.6650, 12281.00
957.7850, 11654.00
958.9040, 11307.00
960.0230, 10878.00
961.1420, 10425.00
962.2610, 10356.00
963.3800, 10132.00
964.4990, 9968.000
965.6170, 9735.000
966.7350, 9825.000
967.8530, 9602.648
968.9710, 9589.000
970.0890, 9350.000
971.2070, 9501.000
972.3240, 9390.000
973.4410, 9523.000
974.5580, 9344.000
975.6750, 9368.000
976.7920, 9493.000
977.9090, 9642.000
979.0250, 9800.000
980.1410, 9945.000
981.2580, 9923.000
982.3740, 10220.00
983.4890, 10289.00
984.6050, 10577.00
985.7200, 10818.00
986.8360, 11135.00
987.9510, 11786.00
989.0660, 12483.00
990.1810, 12998.00
991.2950, 13890.00
992.4100, 14898.00
993.5240, 16093.00
994.6390, 17338.00
995.7530, 18760.00
996.8660, 20137.00
997.9800, 21535.00
999.0940, 22885.00
1000.207, 23982.00
1001.320, 25035.00
1002.433, 25854.00
1003.546, 26199.00
1004.659, 26521.00
1005.772, 26539.00
1006.884, 26221.00
1007.996, 25719.00
1009.108, 24999.00
1010.220, 24394.00
1011.332, 23412.00
1012.444, 22509.00
1013.555, 21217.00
1014.666, 20231.00
1015.777, 19148.00
1016.888, 18035.00
1017.999, 17197.00
1019.110, 16146.00
1020.220, 15358.00
1021.331, 14611.00
1022.441, 13887.00
1023.551, 13145.00
1024.661, 12545.00
1025.770, 12117.00
1026.880, 11822.00
1027.989, 11547.00
1029.098, 11201.00
1030.207, 11004.00
1031.316, 10733.00
1032.425, 10514.00
1033.533, 10363.00
1034.642, 10237.00
1035.750, 10211.00
1036.858, 10228.00
1037.966, 10189.00
1039.073, 9983.000
1040.181, 9899.000
1041.288, 10018.00
1042.396, 9826.000
1043.503, 9826.000
1044.610, 9608.000
1045.716, 9574.000
1046.823, 9470.000
1047.929, 9337.000
1049.036, 9216.000
1050.142, 9245.000
1051.248, 9180.000
1052.353, 9077.000
1053.459, 9040.000
1054.564, 8998.000
1055.670, 8854.000
1056.775, 8965.000
1057.880, 8931.000
1058.985, 8786.000
1060.089, 8863.000
1061.194, 8810.000
1062.298, 8819.000
1063.402, 8774.000
1064.506, 8810.000
1065.610, 8802.000
1066.713, 8826.189
1067.817, 8888.723
1068.920, 8891.000
1070.023, 9042.000
1071.126, 9080.000
1072.229, 9188.000
1073.332, 9167.000
1074.435, 9275.000
1075.537, 9262.000
1076.639, 9454.000
1077.741, 9618.000
1078.843, 9880.000
1079.945, 10023.00
1081.046, 10281.00
1082.148, 10715.00
1083.249, 10818.00
1084.350, 11286.00
1085.451, 11656.00
1086.551, 11836.00
1087.652, 12078.00
1088.752, 12016.00
1089.853, 11869.00
1090.953, 11641.00
1092.053, 11422.00
1093.152, 11114.00
1094.252, 10754.00
1095.351, 10584.00
1096.451, 10361.00
1097.550, 9999.000
1098.649, 9648.000
1099.748, 9443.000
1100.846, 9337.000
1101.945, 9089.000
1103.043, 8997.000
1104.141, 8859.000
1105.239, 8870.000
1106.337, 8745.000
1107.434, 8636.000
1108.532, 8519.000
1109.629, 8553.000
1110.726, 8567.000
1111.823, 8509.000
1112.920, 8558.000
1114.017, 8541.000
1115.113, 8597.000
1116.210, 8614.000
1117.306, 8556.000
1118.402, 8692.000
1119.498, 8769.000
1120.593, 8654.000
1121.689, 8764.000
1122.784, 8861.000
1123.879, 8780.000
1124.974, 8730.000
1126.069, 8791.000
1127.164, 8777.000
1128.259, 8733.000
1129.353, 8555.000
1130.447, 8579.000
1131.541, 8457.000
1132.635, 8472.376
1133.729, 8549.000
1134.822, 8535.000
1135.916, 8548.000
1137.009, 8594.000
1138.102, 8507.000
1139.195, 8649.000
1140.288, 8604.000
1141.380, 8616.000
1142.473, 8564.000
1143.565, 8507.000
1144.657, 8676.000
1145.749, 8650.000
1146.841, 8611.000
1147.932, 8608.000
1149.024, 8551.000
1150.115, 8474.000
1151.206, 8555.000
1152.297, 8476.000
1153.388, 8489.000
1154.479, 8583.000
1155.569, 8494.000
1156.659, 8557.000
1157.750, 8574.000
1158.839, 8474.000
1159.929, 8500.000
1161.019, 8468.000
1162.108, 8487.000
1163.198, 8430.000
1164.287, 8597.000
1165.376, 8397.000
1166.465, 8363.000
1167.553, 8494.000
1168.642, 8564.000
1169.730, 8465.000
1170.818, 8369.000
1171.906, 8345.000
1172.994, 8378.000
1174.082, 8317.000
1175.170, 8310.279
1176.257, 8440.000
1177.344, 8283.000
1178.431, 8364.000
1179.518, 8419.000
1180.605, 8261.000
1181.691, 8249.000
1182.778, 8357.000
1183.864, 8260.000
1184.950, 8409.000
1186.036, 8332.000
1187.122, 8320.000
1188.207, 8186.000
1189.292, 8300.000
1190.378, 8170.000
1191.463, 8254.000
1192.548, 8249.000
1193.632, 8179.000
1194.717, 8330.000
1195.801, 8245.000
1196.886, 8242.000
1197.970, 8271.000
1199.054, 8282.000
1200.137, 8259.791
1201.221, 8257.000
1202.305, 8197.000
1203.388, 8186.000
1204.471, 8127.000
1205.554, 8165.000
1206.637, 8120.000
1207.719, 8179.000
1208.802, 8068.000
1209.884, 8084.000
1210.966, 8178.000
1212.048, 8191.000
1213.130, 8132.000
1214.212, 8103.000
1215.293, 8065.000
1216.374, 8013.000
1217.456, 8145.000
1218.536, 8051.000
1219.617, 8173.000
1220.698, 8121.000
1221.778, 8067.000
1222.859, 8164.000
1223.939, 8048.000
1225.019, 8241.000
1226.099, 8221.000
1227.178, 8170.000
1228.258, 8052.000
1229.337, 8169.000
1230.417, 8260.000
1231.496, 8298.000
1232.574, 8154.000
1233.653, 8161.000
1234.732, 8183.000
1235.810, 8296.000
1236.888, 8180.000
1237.966, 8298.000
1239.044, 8214.000
1240.122, 8219.000
1241.199, 8254.000
1242.277, 8266.000
1243.354, 8248.000
1244.431, 8260.000
1245.508, 8307.000
1246.585, 8283.000
1247.661, 8291.000
1248.738, 8361.000
1249.814, 8266.000
1250.890, 8319.000
1251.966, 8321.000
1253.042, 8436.000
1254.117, 8319.000
1255.193, 8326.000
1256.268, 8298.000
1257.343, 8312.000
1258.418, 8374.000
1259.493, 8354.000
1260.567, 8402.000
1261.642, 8435.000
1262.716, 8348.000
1263.790, 8415.000
1264.864, 8489.000
1265.938, 8325.000
1267.011, 8460.000
1268.085, 8399.000
1269.158, 8405.000
1270.231, 8512.000
1271.304, 8486.000
1272.377, 8388.000
1273.450, 8375.000
