##NAMES=Catapleiite
##RRUFFID=R060208
##IDEAL CHEMISTRY=Na_2_Zr^4+^Si_3_O_9_&#183;2H_2_O
##LOCALITY=Mont Saint-Hilaire, Rouville County, Quebec, Canada
##OWNER=RRUFF
##SOURCE=Royal Ontario Museum
##DESCRIPTION=Colorless transparent thin tabular pseudohexagonal crystal
##STATUS=The identification of this mineral is confirmed by single-crystal X-ray diffraction and chemical analysis.
##URL=rruff.info/R060208
##MEASURED CHEMISTRY=Na_2.00_Zr_1.00_Si_3.00_O_9_Â·2H_2_O
##PIN_ID=M01705
##ORIENTATION=Laser parallel to a* (1 0 0). Fiducial mark perpendicular to laser is parallel to -b [0 -1 0]
106.0990, 8687.000
107.3350, 8950.533
108.5700, 9201.000
109.8050, 9637.000
111.0400, 9584.000
112.2750, 10042.00
113.5100, 10325.00
114.7440, 10419.00
115.9780, 10539.00
117.2130, 10812.00
118.4470, 10956.00
119.6810, 11063.00
120.9140, 11065.00
122.1480, 11193.00
123.3810, 11526.00
124.6150, 11534.00
125.8480, 11413.00
127.0810, 11740.00
128.3130, 11759.00
129.5460, 11932.00
130.7790, 11896.00
132.0110, 11886.00
133.2430, 11951.00
134.4750, 11991.00
135.7070, 12329.00
136.9380, 12066.00
138.1700, 12135.00
139.4010, 11952.00
140.6330, 12162.00
141.8640, 12240.00
143.0950, 12194.00
144.3250, 12418.00
145.5560, 12241.00
146.7860, 12265.00
148.0160, 12376.00
149.2470, 12596.00
150.4760, 12513.00
151.7060, 12549.00
152.9360, 12713.00
154.1650, 12582.00
155.3950, 12707.00
156.6240, 12628.00
157.8530, 12533.00
159.0820, 12836.00
160.3100, 12884.00
161.5390, 12825.00
162.7670, 12743.00
163.9950, 12909.00
165.2230, 12864.00
166.4510, 12982.00
167.6790, 12937.00
168.9060, 12963.00
170.1340, 12980.00
171.3610, 13034.00
172.5880, 13054.00
173.8150, 13172.00
175.0420, 13167.00
176.2690, 13234.00
177.4950, 13282.00
178.7210, 13274.00
179.9470, 13309.00
181.1730, 13424.41
182.3990, 13464.89
183.6250, 13696.00
184.8500, 13694.00
186.0760, 13851.00
187.3010, 14097.00
188.5260, 14141.00
189.7510, 14255.00
190.9750, 14524.00
192.2000, 14591.00
193.4240, 14685.00
194.6490, 14878.00
195.8730, 15090.00
197.0970, 15348.00
198.3200, 15451.00
199.5440, 15522.00
200.7670, 15495.00
201.9910, 15633.00
203.2140, 15733.00
204.4370, 15651.00
205.6590, 15793.00
206.8820, 15673.00
208.1050, 15735.00
209.3270, 15907.00
210.5490, 15865.00
211.7710, 15569.00
212.9930, 15631.00
214.2150, 15245.00
215.4360, 15118.00
216.6570, 14784.00
217.8790, 14601.00
219.1000, 14271.00
220.3210, 13990.00
221.5410, 13697.00
222.7620, 13668.00
223.9820, 13392.00
225.2030, 13169.00
226.4230, 13172.00
227.6430, 12788.00
228.8620, 12834.00
230.0820, 12695.00
231.3010, 12599.00
232.5210, 12650.00
233.7400, 12606.00
234.9590, 12462.00
236.1780, 12445.00
237.3960, 12447.00
238.6150, 12371.00
239.8330, 12407.00
241.0510, 12415.00
242.2690, 12291.00
243.4870, 12378.00
244.7050, 12297.00
245.9230, 12314.00
247.1400, 12296.00
248.3570, 12334.00
249.5740, 12339.00
250.7910, 12465.00
252.0080, 12375.00
253.2240, 12526.00
254.4410, 12325.00
255.6570, 12450.00
256.8730, 12480.00
258.0890, 12528.00
259.3050, 12561.91
260.5210, 12602.00
261.7360, 12571.00
262.9510, 12536.00
264.1670, 12516.00
265.3820, 12498.32
266.5960, 12487.50
267.8110, 12475.00
269.0260, 12468.00
270.2400, 12455.00
271.4540, 12419.00
272.6680, 12595.00
273.8820, 12439.00
275.0960, 12550.00
276.3090, 12384.00
277.5230, 12589.00
278.7360, 12582.00
279.9490, 12666.00
281.1620, 12668.00
282.3750, 12626.00
283.5880, 12742.00
284.8000, 12751.00
286.0120, 12745.00
287.2240, 12777.00
288.4360, 12790.00
289.6480, 12941.00
290.8600, 12957.00
292.0710, 13040.00
293.2830, 13213.00
294.4940, 13103.00
295.7050, 13074.00
296.9160, 13114.00
298.1260, 13197.00
299.3370, 13134.00
300.5470, 13245.00
301.7580, 13117.00
302.9680, 13226.00
304.1770, 13213.00
305.3870, 13223.00
306.5970, 13161.00
307.8060, 13218.00
309.0150, 13293.00
310.2250, 13316.00
311.4340, 13287.00
312.6420, 13435.00
313.8510, 13337.00
315.0590, 13400.00
316.2680, 13523.00
317.4760, 13548.00
318.6840, 13607.23
319.8920, 13683.10
321.0990, 13663.00
322.3070, 13735.00
323.5140, 13736.00
324.7210, 13731.30
325.9280, 13766.00
327.1350, 13732.00
328.3420, 13773.00
329.5490, 13821.91
330.7550, 13769.00
331.9610, 13831.00
333.1670, 13795.00
334.3730, 13725.00
335.5790, 13725.00
336.7840, 13674.71
337.9900, 13656.00
339.1950, 13617.00
340.4000, 13657.00
341.6050, 13653.00
342.8100, 13615.00
344.0150, 13716.00
345.2190, 13747.00
346.4230, 13585.00
347.6280, 13906.00
348.8320, 13854.00
350.0350, 13799.00
351.2390, 14115.00
352.4430, 14002.00
353.6460, 14008.00
354.8490, 14181.00
356.0520, 14157.00
357.2550, 14252.00
358.4580, 14343.00
359.6600, 14399.00
360.8630, 14496.00
362.0650, 14599.00
363.2670, 14643.00
364.4690, 14612.00
365.6710, 14583.00
366.8720, 14593.00
368.0740, 14502.00
369.2750, 14591.00
370.4760, 14626.00
371.6770, 14499.00
372.8780, 14607.00
374.0780, 14412.00
375.2790, 14430.00
376.4790, 14504.00
377.6790, 14451.00
378.8790, 14519.00
380.0790, 14395.00
381.2790, 14522.00
382.4780, 14490.00
383.6780, 14558.00
384.8770, 14484.00
386.0760, 14412.00
387.2750, 14513.00
388.4730, 14534.00
389.6720, 14562.00
390.8700, 14611.00
392.0690, 14706.00
393.2670, 14788.00
394.4650, 14802.00
395.6620, 14763.00
396.8600, 14875.00
398.0570, 14854.00
399.2550, 14898.00
400.4520, 15039.00
401.6490, 15055.00
402.8450, 15136.00
404.0420, 15298.00
405.2390, 15372.00
406.4350, 15576.00
407.6310, 15540.00
408.8270, 15761.00
410.0230, 15837.00
411.2190, 16078.19
412.4140, 16450.00
413.6090, 16659.00
414.8050, 16993.00
416.0000, 17351.00
417.1940, 17701.00
418.3890, 18387.00
419.5840, 18880.00
420.7780, 19647.00
421.9720, 20381.00
423.1660, 21194.00
424.3600, 21844.00
425.5540, 22866.00
426.7480, 23290.00
427.9410, 23696.00
429.1340, 24035.00
430.3270, 23688.00
431.5200, 23144.00
432.7130, 22452.00
433.9060, 21655.00
435.0980, 20876.00
436.2900, 20183.00
437.4830, 19349.00
438.6750, 18840.00
439.8660, 18202.00
441.0580, 17768.00
442.2500, 17626.00
443.4410, 17229.00
444.6320, 16956.00
445.8230, 16950.00
447.0140, 16390.00
448.2050, 16586.00
449.3950, 16572.00
450.5860, 16355.00
451.7760, 16271.00
452.9660, 16210.00
454.1560, 16028.00
455.3450, 16105.00
456.5350, 15991.00
457.7240, 16037.00
458.9140, 15817.00
460.1030, 15857.00
461.2920, 15875.00
462.4810, 16148.00
463.6690, 16041.00
464.8580, 15956.00
466.0460, 15921.00
467.2340, 15919.00
468.4220, 16034.00
469.6100, 16108.00
470.7970, 16008.00
471.9850, 16045.00
473.1720, 16014.00
474.3590, 16007.00
475.5460, 16094.00
476.7330, 15998.00
477.9200, 16116.00
479.1060, 16036.00
480.2930, 16235.00
481.4790, 16090.00
482.6650, 16213.00
483.8510, 16291.00
485.0370, 16208.00
486.2220, 16304.00
487.4080, 16343.00
488.5930, 16121.00
489.7780, 16322.00
490.9630, 16289.00
492.1480, 16217.00
493.3320, 16461.00
494.5170, 16240.00
495.7010, 16377.00
496.8850, 16402.00
498.0690, 16362.00
499.2530, 16564.00
500.4360, 16495.00
501.6200, 16735.00
502.8030, 16734.00
503.9860, 16668.00
505.1690, 16771.00
506.3520, 16860.00
507.5350, 17030.00
508.7170, 16958.00
509.9000, 17004.00
511.0820, 17344.00
512.2640, 17186.00
513.4460, 17445.00
514.6270, 17638.00
515.8090, 17718.00
516.9900, 17816.00
518.1710, 17651.00
519.3530, 18050.00
520.5330, 17858.00
521.7140, 18028.00
522.8950, 18186.00
524.0750, 18025.00
525.2550, 18026.00
526.4350, 18131.00
527.6150, 17918.00
528.7950, 17971.00
529.9750, 17910.64
531.1540, 17737.00
532.3340, 17809.00
533.5130, 17705.00
534.6920, 17640.00
535.8700, 17630.00
537.0490, 17556.00
538.2280, 17581.00
539.4060, 17591.00
540.5840, 17457.00
541.7620, 17673.00
542.9400, 17503.00
544.1180, 17515.00
545.2950, 17446.00
546.4720, 17437.58
547.6500, 17781.00
548.8270, 17572.00
550.0040, 17595.00
551.1800, 17866.00
552.3570, 17833.00
553.5330, 17840.00
554.7090, 17849.00
555.8850, 18058.00
557.0610, 18208.00
558.2370, 18294.00
559.4130, 18591.00
560.5880, 18678.00
561.7630, 19031.00
562.9380, 19320.00
564.1130, 19721.00
565.2880, 19915.00
566.4630, 20080.00
567.6370, 20643.00
568.8120, 20842.00
569.9860, 21153.00
571.1600, 21462.00
572.3330, 21539.00
573.5070, 21482.00
574.6810, 21335.00
575.8540, 21167.00
577.0270, 20823.00
578.2000, 20445.00
579.3730, 20011.00
580.5460, 19804.00
581.7180, 19212.00
582.8910, 19080.00
584.0630, 18611.00
585.2350, 18530.00
586.4070, 18298.00
587.5780, 18402.00
588.7500, 18161.00
589.9210, 18033.00
591.0930, 18155.00
592.2640, 18016.00
593.4350, 18109.00
594.6050, 17992.00
595.7760, 17884.00
596.9460, 17693.00
598.1170, 18204.00
599.2870, 18007.00
600.4570, 18178.00
601.6260, 18192.00
602.7960, 18295.00
603.9650, 18400.00
605.1350, 18267.00
606.3040, 18291.00
607.4730, 18479.00
608.6420, 18634.00
609.8100, 18680.00
610.9790, 18979.00
612.1470, 18846.00
613.3150, 19091.00
614.4830, 19435.00
615.6510, 19605.00
616.8190, 20112.00
617.9860, 20495.01
619.1540, 20816.00
620.3210, 21517.00
621.4880, 22196.00
622.6550, 22871.00
623.8220, 23549.00
624.9880, 24698.00
626.1550, 25275.00
627.3210, 25772.00
628.4870, 26271.00
629.6530, 26508.00
630.8190, 25918.00
631.9840, 25031.00
633.1500, 24009.00
634.3150, 22961.00
635.4800, 22056.00
636.6450, 21289.00
637.8100, 20609.00
638.9740, 20315.00
640.1390, 19896.00
641.3030, 19749.00
642.4670, 19438.00
643.6310, 19272.00
644.7950, 19150.00
645.9590, 19012.21
647.1220, 18976.00
648.2850, 18903.00
649.4490, 19004.00
650.6120, 19028.00
651.7740, 18904.00
652.9370, 18760.00
654.1000, 18696.00
655.2620, 18860.00
656.4240, 18862.00
657.5860, 18575.00
658.7480, 18917.00
659.9100, 18755.00
661.0710, 18855.00
662.2330, 18718.00
663.3940, 18843.00
664.5550, 18791.00
665.7160, 18845.00
666.8770, 18828.00
668.0370, 18890.00
669.1980, 18911.00
670.3580, 18886.00
671.5180, 18906.00
672.6780, 18929.69
673.8380, 18870.00
674.9970, 19034.00
676.1570, 18994.00
677.3160, 19130.00
678.4750, 19090.00
679.6340, 19129.87
680.7930, 19055.00
681.9520, 19181.00
683.1100, 19059.00
684.2680, 19091.00
685.4270, 18938.00
686.5850, 19102.00
687.7420, 19133.00
688.9000, 19097.00
690.0580, 19159.00
691.2150, 19260.00
692.3720, 19238.00
693.5290, 19117.00
694.6860, 19343.00
695.8430, 19146.00
696.9990, 19272.00
698.1560, 19212.00
699.3120, 19228.00
700.4680, 19375.00
701.6240, 19369.00
702.7800, 19395.00
703.9350, 19302.00
705.0900, 19384.00
706.2460, 19470.00
707.4010, 19597.00
708.5560, 19471.00
709.7110, 19469.00
710.8650, 19535.00
712.0200, 19499.98
713.1740, 19711.00
714.3280, 19610.00
715.4820, 19582.00
716.6360, 19751.00
717.7890, 19855.00
718.9430, 19667.00
720.0960, 19769.00
721.2490, 19951.00
722.4020, 19871.00
723.5550, 19777.00
724.7080, 20131.00
725.8600, 19982.00
727.0130, 19973.00
728.1650, 20249.00
729.3170, 19898.00
730.4690, 20098.00
731.6200, 20126.00
732.7720, 20240.00
733.9230, 20141.00
735.0740, 20292.00
736.2250, 20203.00
737.3760, 20311.00
738.5270, 20272.00
739.6780, 20427.00
740.8280, 20437.00
741.9780, 20389.00
743.1280, 20397.00
744.2780, 20446.00
745.4280, 20410.90
746.5770, 20445.93
747.7270, 20411.00
748.8760, 20440.00
750.0250, 20472.00
751.1740, 20390.00
752.3230, 20493.00
753.4720, 20514.00
754.6200, 20440.00
755.7680, 20316.00
756.9160, 20409.00
758.0640, 20429.00
759.2120, 20280.00
760.3600, 20540.00
761.5070, 20804.00
762.6550, 20678.00
763.8020, 20721.00
764.9490, 20586.00
766.0960, 20525.00
767.2420, 20811.00
768.3890, 20601.00
769.5350, 20611.00
770.6810, 20803.00
771.8270, 20708.00
772.9730, 20609.00
774.1190, 20781.00
775.2640, 20795.00
776.4100, 20757.00
777.5550, 20909.00
778.7000, 20813.00
779.8450, 20851.00
780.9900, 20711.00
782.1340, 20869.00
783.2790, 20906.00
784.4230, 20733.00
785.5670, 20882.00
786.7110, 20979.00
787.8550, 20888.00
788.9980, 21111.00
790.1420, 21011.00
791.2850, 20992.00
792.4280, 20916.00
793.5710, 21086.00
794.7140, 21167.00
795.8560, 21214.76
796.9990, 21122.00
798.1410, 21285.00
799.2830, 21354.00
800.4250, 21190.00
801.5670, 21190.00
802.7090, 21232.00
803.8500, 21422.00
804.9920, 21193.00
806.1330, 21386.00
807.2740, 21457.00
808.4150, 21420.00
809.5550, 21424.00
810.6960, 21677.00
811.8360, 21567.00
812.9760, 21748.00
814.1160, 21635.00
815.2560, 21521.00
816.3960, 21681.00
817.5350, 21575.00
818.6750, 21731.00
819.8140, 21686.00
820.9530, 21603.00
822.0920, 21829.00
823.2310, 21786.00
824.3690, 21724.00
825.5080, 21649.00
826.6460, 21730.49
827.7840, 22037.00
828.9220, 21891.00
830.0600, 22123.00
831.1970, 22180.00
832.3350, 21893.00
833.4720, 22215.00
834.6090, 22031.00
835.7460, 22173.00
836.8830, 21954.00
838.0190, 21960.00
839.1560, 22088.00
840.2920, 22039.00
841.4280, 22243.00
842.5640, 22119.00
843.7000, 22229.00
844.8360, 22401.00
845.9710, 22268.00
847.1070, 22264.00
848.2420, 22234.00
849.3770, 22287.68
850.5120, 22376.69
851.6460, 22523.00
852.7810, 22518.00
853.9150, 22591.18
855.0490, 22566.00
856.1830, 22629.00
857.3170, 22678.00
858.4510, 22664.00
859.5840, 22712.04
860.7180, 22808.00
861.8510, 22768.00
862.9840, 22784.00
864.1170, 22846.00
865.2500, 22729.00
866.3820, 22780.00
867.5150, 23022.00
868.6470, 22985.00
869.7790, 22993.00
870.9110, 23057.00
872.0430, 23021.96
873.1740, 22987.00
874.3060, 22990.00
875.4370, 22998.00
876.5680, 22935.00
877.6990, 23085.00
878.8300, 23102.00
879.9600, 22956.00
881.0910, 23248.00
882.2210, 23104.00
883.3510, 23115.00
884.4810, 23483.00
885.6110, 23057.00
886.7410, 23304.00
887.8700, 23079.00
888.9990, 23221.00
890.1290, 23175.00
891.2580, 23241.00
892.3860, 23276.17
893.5150, 23377.00
894.6440, 23325.00
895.7720, 23335.00
896.9000, 23359.00
898.0280, 23576.00
899.1560, 23482.00
900.2840, 23872.00
901.4110, 23751.00
902.5390, 23701.00
903.6660, 24019.00
904.7930, 23974.00
905.9200, 23898.00
907.0470, 24034.00
908.1730, 24238.00
909.3000, 24231.00
910.4260, 24332.00
911.5520, 24329.00
912.6780, 24461.03
913.8030, 24614.00
914.9290, 24751.00
916.0540, 25095.00
917.1800, 25307.00
918.3050, 25389.00
919.4300, 25914.00
920.5550, 26208.00
921.6790, 26496.00
922.8040, 26971.00
923.9280, 27441.00
925.0520, 28244.00
926.1760, 28765.00
927.3000, 29870.00
928.4230, 30084.00
929.5470, 30945.00
930.6700, 31150.00
931.7930, 31552.00
932.9160, 31666.00
934.0390, 31341.00
935.1620, 31020.00
936.2840, 30538.00
937.4070, 29697.00
938.5290, 29061.00
939.6510, 28153.00
940.7730, 27727.00
941.8940, 27397.00
943.0160, 26904.00
944.1370, 26836.00
945.2580, 26416.00
946.3800, 26309.00
947.5000, 26182.00
948.6210, 26233.00
949.7420, 26061.00
950.8620, 25815.00
951.9820, 25726.00
953.1020, 25572.00
954.2220, 25594.00
955.3420, 25503.21
956.4620, 25675.00
957.5810, 25454.00
958.7000, 25576.00
959.8190, 25628.00
960.9380, 25568.00
962.0570, 25789.00
963.1760, 25747.00
964.2940, 25949.00
965.4120, 25857.00
966.5300, 25901.00
967.6480, 26030.00
968.7660, 26102.00
969.8840, 26297.00
971.0010, 26361.00
972.1190, 26509.00
973.2360, 26631.00
974.3530, 26800.00
975.4690, 26930.00
976.5860, 27050.00
977.7030, 27239.00
978.8190, 27630.00
979.9350, 27843.00
981.0510, 28222.00
982.1670, 28648.00
983.2830, 28876.00
984.3980, 29747.00
985.5130, 30093.00
986.6290, 30977.00
987.7440, 31840.00
988.8590, 32974.00
989.9730, 34340.73
991.0880, 35861.00
992.2020, 37693.00
993.3160, 39613.00
994.4300, 41975.00
995.5440, 44273.00
996.6580, 46466.00
997.7720, 48724.00
998.8850, 50776.00
999.9980, 52482.00
1001.111, 53921.00
1002.224, 54413.00
1003.337, 54796.00
1004.450, 54592.00
1005.562, 54455.00
1006.674, 53332.00
1007.786, 52538.00
1008.898, 51699.00
1010.010, 50300.00
1011.122, 48954.00
1012.233, 47710.00
1013.344, 45711.00
1014.455, 44397.00
1015.566, 42478.00
1016.677, 40980.00
1017.788, 39592.00
1018.898, 37939.00
1020.009, 36306.00
1021.119, 35417.00
1022.229, 33947.00
1023.339, 33207.00
1024.448, 32165.00
1025.558, 31610.00
1026.667, 31188.00
1027.776, 30836.00
1028.885, 30319.00
1029.994, 30040.00
1031.103, 29872.00
1032.211, 29741.00
1033.320, 29598.00
1034.428, 29840.00
1035.536, 29702.00
1036.644, 29858.00
1037.751, 29698.00
1038.859, 29669.00
1039.966, 29730.00
1041.074, 29560.00
1042.181, 29146.00
1043.288, 29303.00
1044.394, 29239.00
1045.501, 28887.00
1046.607, 29008.00
1047.713, 28512.00
1048.820, 28748.00
1049.925, 28475.00
1051.031, 28420.00
1052.137, 28466.00
1053.242, 28289.00
1054.348, 28349.00
1055.453, 28186.00
1056.558, 28158.46
1057.662, 28261.00
1058.767, 28184.00
1059.871, 28037.00
1060.976, 28276.00
1062.080, 28292.00
1063.184, 28302.00
1064.288, 28491.00
1065.391, 28578.00
1066.495, 28774.00
1067.598, 28738.00
1068.701, 28887.00
1069.804, 28889.00
1070.907, 29057.00
1072.010, 29361.00
1073.112, 29507.00
1074.214, 29824.00
1075.317, 30178.00
1076.419, 30665.00
1077.521, 31015.00
1078.622, 31349.00
1079.724, 32121.00
1080.825, 32538.00
1081.926, 33148.00
1083.027, 34317.00
1084.128, 34880.00
1085.229, 35461.00
1086.329, 36129.00
1087.430, 36715.00
1088.530, 37326.00
1089.630, 36852.00
1090.730, 36801.00
1091.830, 36111.00
1092.929, 35624.00
1094.029, 34593.00
1095.128, 33908.00
1096.227, 33177.00
1097.326, 32517.66
1098.425, 31999.51
1099.523, 31505.00
1100.622, 31078.00
1101.720, 30803.00
1102.818, 30442.00
1103.916, 30253.00
1105.014, 30126.00
1106.111, 30011.00
1107.209, 29718.00
1108.306, 29442.00
1109.403, 29541.00
1110.500, 29477.00
1111.597, 29230.00
1112.694, 29327.00
1113.790, 29369.00
1114.887, 29118.00
1115.983, 29364.00
1117.079, 29109.00
1118.174, 29222.00
1119.270, 29326.00
1120.366, 29165.00
1121.461, 29317.00
1122.556, 29276.00
1123.651, 29187.00
1124.746, 29267.00
1125.841, 29202.00
1126.935, 29054.00
1128.030, 29374.00
1129.124, 29287.00
1130.218, 29371.00
1131.312, 29270.00
1132.405, 29205.00
1133.499, 29533.00
1134.592, 29422.00
1135.686, 29463.00
1136.779, 29497.00
1137.871, 29493.00
1138.964, 29537.85
1140.057, 29349.00
1141.149, 29500.00
1142.241, 29575.00
1143.334, 29351.00
1144.425, 29502.00
1145.517, 29679.00
1146.609, 29470.00
1147.700, 29427.00
1148.791, 29471.00
1149.883, 29427.00
1150.974, 29439.00
1152.064, 29511.00
1153.155, 29554.00
1154.245, 29686.00
1155.336, 29741.00
1156.426, 29561.00
1157.516, 29826.00
1158.606, 29754.00
1159.695, 29591.00
1160.785, 29737.00
1161.874, 29551.00
1162.963, 29599.00
1164.052, 29959.00
1165.141, 29592.00
1166.230, 30043.00
1167.318, 29966.00
1168.406, 30006.00
1169.495, 30007.00
1170.583, 30119.00
1171.670, 29981.00
1172.758, 30068.00
1173.846, 29889.00
1174.933, 30215.00
1176.020, 30125.00
1177.107, 30381.00
1178.194, 30134.00
1179.281, 30205.00
1180.367, 30206.00
1181.454, 30099.00
1182.540, 30354.00
1183.626, 30269.00
1184.712, 30387.00
1185.798, 30411.00
1186.883, 30307.00
1187.969, 30448.00
1189.054, 30387.00
1190.139, 30380.00
1191.224, 30491.00
1192.309, 30535.00
1193.393, 30351.00
1194.478, 30554.00
1195.562, 30664.00
1196.646, 30512.00
1197.730, 30473.00
1198.814, 30372.00
1199.897, 30833.00
1200.981, 30650.00
1202.064, 30734.00
1203.147, 30595.00
1204.230, 30622.00
1205.313, 30834.00
1206.396, 30783.00
1207.478, 30796.00
1208.560, 30725.00
1209.642, 30708.00
1210.724, 30830.00
1211.806, 30959.00
1212.888, 30941.00
1213.969, 30948.00
1215.051, 31037.00
1216.132, 31036.00
1217.213, 31056.00
1218.294, 31112.45
1219.374, 31054.00
1220.455, 31168.00
1221.535, 31257.00
1222.616, 31230.00
1223.696, 31157.00
1224.775, 31340.00
1225.855, 31205.00
1226.935, 31114.00
1228.014, 31071.00
1229.093, 31301.00
1230.172, 31422.00
1231.251, 31441.00
1232.330, 31358.00
1233.408, 31386.00
1234.487, 31271.00
1235.565, 31565.00
1236.643, 31560.00
1237.721, 31670.00
1238.799, 31588.00
1239.876, 31706.00
1240.954, 31722.00
1242.031, 31655.00
1243.108, 31581.00
1244.185, 31518.00
1245.262, 31510.00
1246.338, 31625.00
1247.415, 31585.56
1248.491, 31843.00
1249.567, 31641.00
1250.643, 31841.00
1251.719, 31915.00
1252.795, 31838.00
1253.870, 32068.00
1254.945, 31830.00
1256.021, 32123.00
1257.096, 32103.00
1258.170, 32010.00
1259.245, 31930.00
1260.320, 32092.00
1261.394, 32273.00
1262.468, 32132.00
1263.542, 32079.00
1264.616, 32287.00
1265.690, 32259.00
1266.763, 32000.00
1267.836, 32366.00
1268.910, 32163.00
1269.983, 32362.00
1271.055, 32274.00
1272.128, 32447.00
1273.201, 32104.00
1274.273, 32144.00
1275.345, 32456.00
1276.417, 32236.00
1277.489, 32506.00
1278.561, 32524.00
1279.632, 32506.00
1280.704, 32539.00
1281.775, 32681.00
1282.846, 32648.55
