##NAMES=Catapleiite
##RRUFFID=R060208
##IDEAL CHEMISTRY=Na_2_Zr^4+^Si_3_O_9_&#183;2H_2_O
##LOCALITY=Mont Saint-Hilaire, Rouville County, Quebec, Canada
##OWNER=RRUFF
##SOURCE=Royal Ontario Museum
##DESCRIPTION=Colorless transparent thin tabular pseudohexagonal crystal
##STATUS=The identification of this mineral is confirmed by single-crystal X-ray diffraction and chemical analysis.
##URL=rruff.info/R060208
##MEASURED CHEMISTRY=Na_2.00_Zr_1.00_Si_3.00_O_9_Â·2H_2_O
##PIN_ID=M01705
##ORIENTATION=Laser parallel to a* (1 0 0). Fiducial mark perpendicular to laser is parallel to -b [0 -1 0]
97.44600, 6614.000
98.68300, 7203.000
99.91900, 7671.000
101.1560, 8297.000
102.3920, 8711.000
103.6280, 9291.000
104.8630, 9723.000
106.0990, 10327.00
107.3350, 10899.00
108.5700, 11275.00
109.8050, 11547.00
111.0400, 11942.00
112.2750, 12318.00
113.5100, 12577.00
114.7440, 12927.00
115.9780, 12937.00
117.2130, 13050.00
118.4470, 12897.00
119.6810, 13078.00
120.9140, 13157.00
122.1480, 13292.00
123.3810, 13474.00
124.6150, 13306.00
125.8480, 13389.00
127.0810, 13346.00
128.3130, 13497.00
129.5460, 13534.00
130.7790, 13516.00
132.0110, 13596.00
133.2430, 13298.00
134.4750, 13276.00
135.7070, 13157.00
136.9380, 13022.00
138.1700, 12896.00
139.4010, 12752.00
140.6330, 12659.61
141.8640, 12514.00
143.0950, 12510.00
144.3250, 12431.00
145.5560, 12430.00
146.7860, 12443.00
148.0160, 12320.00
149.2470, 12340.00
150.4760, 12132.00
151.7060, 12265.00
152.9360, 12403.00
154.1650, 12232.00
155.3950, 12290.00
156.6240, 12202.00
157.8530, 12230.00
159.0820, 12292.00
160.3100, 12058.00
161.5390, 12110.00
162.7670, 12196.00
163.9950, 12139.00
165.2230, 12307.00
166.4510, 12357.00
167.6790, 12352.00
168.9060, 12358.00
170.1340, 12420.00
171.3610, 12460.00
172.5880, 12617.00
173.8150, 12494.00
175.0420, 12693.00
176.2690, 12627.00
177.4950, 12642.00
178.7210, 12761.00
179.9470, 12927.00
181.1730, 13066.00
182.3990, 13151.00
183.6250, 13180.00
184.8500, 13235.00
186.0760, 13212.00
187.3010, 13441.00
188.5260, 13715.00
189.7510, 13787.00
190.9750, 13992.00
192.2000, 14091.00
193.4240, 14377.00
194.6490, 14642.00
195.8730, 14859.00
197.0970, 15063.60
198.3200, 15136.00
199.5440, 15319.00
200.7670, 15324.00
201.9910, 15247.00
203.2140, 15392.00
204.4370, 15420.00
205.6590, 15376.00
206.8820, 15385.00
208.1050, 15424.00
209.3270, 15298.00
210.5490, 15330.00
211.7710, 15195.00
212.9930, 15055.00
214.2150, 14843.54
215.4360, 14545.65
216.6570, 14223.00
217.8790, 13822.00
219.1000, 13366.00
220.3210, 12927.00
221.5410, 12859.00
222.7620, 12416.00
223.9820, 12150.00
225.2030, 12071.00
226.4230, 11787.00
227.6430, 11890.00
228.8620, 11632.00
230.0820, 11370.00
231.3010, 11426.00
232.5210, 11253.00
233.7400, 11195.00
234.9590, 11007.00
236.1780, 11120.00
237.3960, 11045.00
238.6150, 11008.00
239.8330, 10923.00
241.0510, 10898.00
242.2690, 10713.00
243.4870, 10745.00
244.7050, 10953.00
245.9230, 10895.00
247.1400, 10746.00
248.3570, 10659.00
249.5740, 10916.00
250.7910, 10796.00
252.0080, 10835.00
253.2240, 10789.00
254.4410, 10729.00
255.6570, 10938.00
256.8730, 10794.00
258.0890, 10983.00
259.3050, 10873.00
260.5210, 10889.00
261.7360, 10874.00
262.9510, 10788.00
264.1670, 10757.00
265.3820, 10776.00
266.5960, 10890.00
267.8110, 10690.00
269.0260, 10796.00
270.2400, 10691.00
271.4540, 10780.00
272.6680, 10774.00
273.8820, 10629.00
275.0960, 10600.00
276.3090, 10726.00
277.5230, 10712.00
278.7360, 10721.00
279.9490, 10796.00
281.1620, 10728.00
282.3750, 10765.70
283.5880, 10656.00
284.8000, 10782.00
286.0120, 10758.00
287.2240, 10790.00
288.4360, 10841.00
289.6480, 10905.00
290.8600, 10956.00
292.0710, 10824.00
293.2830, 10927.00
294.4940, 10937.00
295.7050, 11037.00
296.9160, 11202.00
298.1260, 11062.00
299.3370, 11037.00
300.5470, 10955.00
301.7580, 11133.00
302.9680, 11079.00
304.1770, 11372.00
305.3870, 11121.00
306.5970, 11278.00
307.8060, 11275.00
309.0150, 11410.00
310.2250, 11327.00
311.4340, 11330.00
312.6420, 11345.00
313.8510, 11525.00
315.0590, 11619.00
316.2680, 11645.00
317.4760, 11601.00
318.6840, 11661.00
319.8920, 11724.04
321.0990, 11884.00
322.3070, 11897.00
323.5140, 12049.00
324.7210, 12118.00
325.9280, 12045.00
327.1350, 12220.00
328.3420, 11910.00
329.5490, 12064.00
330.7550, 12029.00
331.9610, 12008.00
333.1670, 11905.00
334.3730, 11849.00
335.5790, 11800.00
336.7840, 11795.00
337.9900, 11676.00
339.1950, 11768.00
340.4000, 11629.00
341.6050, 11708.00
342.8100, 11553.00
344.0150, 11655.00
345.2190, 11670.00
346.4230, 11687.00
347.6280, 11711.00
348.8320, 11720.00
350.0350, 11804.00
351.2390, 11867.00
352.4430, 11933.00
353.6460, 12052.00
354.8490, 12183.00
356.0520, 12267.00
357.2550, 12294.00
358.4580, 12432.00
359.6600, 12369.00
360.8630, 12465.00
362.0650, 12592.00
363.2670, 12623.00
364.4690, 12704.00
365.6710, 12652.00
366.8720, 12552.00
368.0740, 12534.00
369.2750, 12471.69
370.4760, 12425.54
371.6770, 12393.00
372.8780, 12350.00
374.0780, 12327.17
375.2790, 12295.00
376.4790, 12265.00
377.6790, 12250.00
378.8790, 12243.00
380.0790, 12240.00
381.2790, 12342.00
382.4780, 12182.00
383.6780, 12464.00
384.8770, 12320.00
386.0760, 12251.00
387.2750, 12308.00
388.4730, 12431.00
389.6720, 12565.00
390.8700, 12587.00
392.0690, 12677.14
393.2670, 12842.00
394.4650, 12788.00
395.6620, 12748.00
396.8600, 12833.00
398.0570, 12988.00
399.2550, 13078.00
400.4520, 13162.00
401.6490, 13212.00
402.8450, 13389.00
404.0420, 13561.27
405.2390, 13755.00
406.4350, 14002.00
407.6310, 14352.00
408.8270, 14570.00
410.0230, 14769.00
411.2190, 15117.00
412.4140, 15640.00
413.6090, 16116.00
414.8050, 16804.00
416.0000, 17517.09
417.1940, 18368.37
418.3890, 19239.00
419.5840, 20415.00
420.7780, 21543.00
421.9720, 22887.00
423.1660, 24334.00
424.3600, 26007.00
425.5540, 27238.00
426.7480, 28328.00
427.9410, 28967.00
429.1340, 29024.00
430.3270, 28472.00
431.5200, 27262.00
432.7130, 25913.00
433.9060, 24248.00
435.0980, 22685.00
436.2900, 21134.00
437.4830, 20023.00
438.6750, 18751.00
439.8660, 17863.00
441.0580, 17196.00
442.2500, 16517.00
443.4410, 16055.00
444.6320, 15493.00
445.8230, 15271.00
447.0140, 14978.00
448.2050, 14925.00
449.3950, 14526.00
450.5860, 14489.00
451.7760, 14146.00
452.9660, 14151.00
454.1560, 14153.00
455.3450, 13752.00
456.5350, 13833.00
457.7240, 13631.00
458.9140, 13623.00
460.1030, 13639.00
461.2920, 13581.00
462.4810, 13497.00
463.6690, 13512.00
464.8580, 13573.00
466.0460, 13394.00
467.2340, 13543.00
468.4220, 13367.00
469.6100, 13454.00
470.7970, 13585.00
471.9850, 13552.00
473.1720, 13599.48
474.3590, 13417.00
475.5460, 13528.00
476.7330, 13457.00
477.9200, 13302.00
479.1060, 13520.00
480.2930, 13373.00
481.4790, 13611.00
482.6650, 13455.00
483.8510, 13443.00
485.0370, 13462.00
486.2220, 13549.00
487.4080, 13481.00
488.5930, 13443.00
489.7780, 13521.00
490.9630, 13628.00
492.1480, 13561.00
493.3320, 13658.73
494.5170, 13534.00
495.7010, 13720.00
496.8850, 13742.00
498.0690, 13723.00
499.2530, 13785.00
500.4360, 13747.00
501.6200, 13856.00
502.8030, 13875.00
503.9860, 13968.00
505.1690, 13863.00
506.3520, 14174.00
507.5350, 14048.00
508.7170, 14163.00
509.9000, 14319.00
511.0820, 14459.00
512.2640, 14639.00
513.4460, 14484.00
514.6270, 14646.00
515.8090, 14794.00
516.9900, 14905.00
518.1710, 15041.00
519.3530, 15104.00
520.5330, 14972.00
521.7140, 15196.00
522.8950, 15056.00
524.0750, 15165.00
525.2550, 14987.00
526.4350, 15071.00
527.6150, 14756.00
528.7950, 14558.00
529.9750, 14778.00
531.1540, 14628.00
532.3340, 14513.00
533.5130, 14560.00
534.6920, 14516.00
535.8700, 14471.00
537.0490, 14492.00
538.2280, 14389.00
539.4060, 14255.00
540.5840, 14369.00
541.7620, 14233.00
542.9400, 14351.00
544.1180, 14264.00
545.2950, 14254.00
546.4720, 14246.00
547.6500, 14048.00
548.8270, 14312.00
550.0040, 14463.00
551.1800, 14266.00
552.3570, 13998.00
553.5330, 14278.00
554.7090, 14203.00
555.8850, 14490.00
557.0610, 14262.00
558.2370, 14370.00
559.4130, 14482.00
560.5880, 14747.00
561.7630, 14749.00
562.9380, 14882.00
564.1130, 14968.00
565.2880, 15192.00
566.4630, 14999.00
567.6370, 15367.00
568.8120, 15328.00
569.9860, 15328.00
571.1600, 15500.00
572.3330, 15627.00
573.5070, 15439.00
574.6810, 15275.00
575.8540, 15264.00
577.0270, 15326.00
578.2000, 15112.00
579.3730, 14928.00
580.5460, 14923.00
581.7180, 14709.00
582.8910, 14898.00
584.0630, 14804.00
585.2350, 14639.00
586.4070, 14581.00
587.5780, 14676.00
588.7500, 14810.00
589.9210, 14661.00
591.0930, 14705.00
592.2640, 14823.00
593.4350, 14866.00
594.6050, 14862.00
595.7760, 14920.00
596.9460, 14954.00
598.1170, 15067.00
599.2870, 15164.00
600.4570, 15143.00
601.6260, 15351.00
602.7960, 15300.00
603.9650, 15389.00
605.1350, 15599.00
606.3040, 15625.00
607.4730, 15813.00
608.6420, 15796.00
609.8100, 16151.00
610.9790, 16200.00
612.1470, 16512.00
613.3150, 16859.00
614.4830, 17282.00
615.6510, 17642.00
616.8190, 18198.00
617.9860, 18856.00
619.1540, 19684.00
620.3210, 20623.39
621.4880, 21794.00
622.6550, 22883.00
623.8220, 24196.00
624.9880, 25594.00
626.1550, 27061.00
627.3210, 27909.00
628.4870, 28690.00
629.6530, 28275.00
630.8190, 27340.00
631.9840, 26079.00
633.1500, 24231.00
634.3150, 22392.00
635.4800, 20849.00
636.6450, 19580.00
637.8100, 18728.00
638.9740, 18069.00
640.1390, 17442.00
641.3030, 16968.00
642.4670, 16647.00
643.6310, 16441.00
644.7950, 16253.00
645.9590, 16162.00
647.1220, 15928.00
648.2850, 15896.00
649.4490, 15811.00
650.6120, 15651.00
651.7740, 15741.00
652.9370, 15661.00
654.1000, 15503.00
655.2620, 15731.00
656.4240, 15495.00
657.5860, 15527.00
658.7480, 15428.00
659.9100, 15550.00
661.0710, 15438.00
662.2330, 15394.00
663.3940, 15453.00
664.5550, 15444.00
665.7160, 15424.59
666.8770, 15570.00
668.0370, 15404.00
669.1980, 15432.00
670.3580, 15468.00
671.5180, 15585.00
672.6780, 15494.00
673.8380, 15456.00
674.9970, 15487.00
676.1570, 15630.00
677.3160, 15564.00
678.4750, 15579.00
679.6340, 15503.00
680.7930, 15637.00
681.9520, 15554.00
683.1100, 15665.00
684.2680, 15519.00
685.4270, 15475.00
686.5850, 15689.00
687.7420, 15593.00
688.9000, 15585.00
690.0580, 15593.00
691.2150, 15714.00
692.3720, 15782.00
693.5290, 15710.00
694.6860, 15633.00
695.8430, 15773.00
696.9990, 15678.00
698.1560, 15902.00
699.3120, 15759.00
700.4680, 15764.00
701.6240, 15825.00
702.7800, 15724.00
703.9350, 15751.26
705.0900, 15836.00
706.2460, 15743.00
707.4010, 15743.00
708.5560, 15801.00
709.7110, 15820.00
710.8650, 15792.00
712.0200, 16002.00
713.1740, 15672.00
714.3280, 15912.00
715.4820, 16001.00
716.6360, 16201.00
717.7890, 16232.00
718.9430, 16266.40
720.0960, 15998.00
721.2490, 16223.00
722.4020, 16174.00
723.5550, 16108.00
724.7080, 16160.00
725.8600, 16221.00
727.0130, 16255.00
728.1650, 16324.00
729.3170, 16313.00
730.4690, 16388.42
731.6200, 16279.00
732.7720, 16482.00
733.9230, 16452.00
735.0740, 16442.00
736.2250, 16224.00
737.3760, 16527.00
738.5270, 16454.00
739.6780, 16384.00
740.8280, 16552.00
741.9780, 16466.00
743.1280, 16656.00
744.2780, 16639.00
745.4280, 16521.00
746.5770, 16593.00
747.7270, 16478.00
748.8760, 16478.00
750.0250, 16643.00
751.1740, 16459.00
752.3230, 16531.00
753.4720, 16621.00
754.6200, 16526.00
755.7680, 16654.00
756.9160, 16547.00
758.0640, 16709.00
759.2120, 16587.00
760.3600, 16722.00
761.5070, 16709.00
762.6550, 16846.00
763.8020, 16589.00
764.9490, 16654.00
766.0960, 16740.00
767.2420, 16822.00
768.3890, 16830.41
769.5350, 16879.00
770.6810, 16866.00
771.8270, 16771.00
772.9730, 16839.00
774.1190, 16852.00
775.2640, 16774.00
776.4100, 16860.00
777.5550, 17069.00
778.7000, 17176.00
779.8450, 16903.00
780.9900, 17185.00
782.1340, 16872.00
783.2790, 17056.00
784.4230, 16935.00
785.5670, 17039.00
786.7110, 16991.00
787.8550, 16982.00
788.9980, 17151.00
790.1420, 17105.00
791.2850, 17035.00
792.4280, 16922.00
793.5710, 17125.00
794.7140, 16991.00
795.8560, 17229.00
796.9990, 17136.00
798.1410, 17305.00
799.2830, 17312.00
800.4250, 17251.00
801.5670, 17140.00
802.7090, 17283.00
803.8500, 17344.00
804.9920, 17376.00
806.1330, 17309.00
807.2740, 17434.00
808.4150, 17386.00
809.5550, 17488.00
810.6960, 17403.00
811.8360, 17309.00
812.9760, 17665.00
814.1160, 17310.00
815.2560, 17545.00
816.3960, 17732.00
817.5350, 17587.00
818.6750, 17746.00
819.8140, 17738.00
820.9530, 17833.00
822.0920, 17748.00
823.2310, 17712.00
824.3690, 17673.00
825.5080, 17782.00
826.6460, 17990.00
827.7840, 17847.00
828.9220, 18022.00
830.0600, 17912.00
831.1970, 17882.00
832.3350, 17999.00
833.4720, 17937.00
834.6090, 18009.00
835.7460, 18159.00
836.8830, 18138.00
838.0190, 18031.00
839.1560, 18179.00
840.2920, 17968.00
841.4280, 18092.00
842.5640, 18159.00
843.7000, 18259.00
844.8360, 18168.00
845.9710, 18419.00
847.1070, 18163.00
848.2420, 18371.00
849.3770, 18429.00
850.5120, 18577.00
851.6460, 18416.00
852.7810, 18482.00
853.9150, 18403.00
855.0490, 18407.00
856.1830, 18511.00
857.3170, 18606.00
858.4510, 18581.43
859.5840, 18683.00
860.7180, 18599.00
861.8510, 18614.00
862.9840, 18709.00
864.1170, 18607.00
865.2500, 18643.00
866.3820, 18612.00
867.5150, 18721.00
868.6470, 18819.00
869.7790, 18632.00
870.9110, 18685.00
872.0430, 18687.00
873.1740, 18743.00
874.3060, 18874.00
875.4370, 18868.00
876.5680, 18884.18
877.6990, 18839.00
878.8300, 18900.00
879.9600, 18749.00
881.0910, 18883.00
882.2210, 18798.00
883.3510, 18853.00
884.4810, 18897.00
885.6110, 18826.00
886.7410, 18975.00
887.8700, 18825.00
888.9990, 19028.00
890.1290, 19031.00
891.2580, 19109.00
892.3860, 18954.00
893.5150, 19039.00
894.6440, 19163.00
895.7720, 18960.00
896.9000, 19177.00
898.0280, 19127.00
899.1560, 19140.00
900.2840, 19103.00
901.4110, 19305.00
902.5390, 19153.00
903.6660, 19326.00
904.7930, 19266.00
905.9200, 19239.00
907.0470, 19371.00
908.1730, 19388.00
909.3000, 19574.00
910.4260, 19531.00
911.5520, 19782.00
912.6780, 19800.00
913.8030, 19860.00
914.9290, 19830.00
916.0540, 19845.00
917.1800, 19961.00
918.3050, 19986.29
919.4300, 20322.00
920.5550, 20188.00
921.6790, 20569.00
922.8040, 20789.00
923.9280, 20881.00
925.0520, 21292.00
926.1760, 21318.00
927.3000, 21756.00
928.4230, 22066.00
929.5470, 22244.00
930.6700, 22285.00
931.7930, 22460.00
932.9160, 22691.00
934.0390, 22458.00
935.1620, 22493.00
936.2840, 22085.00
937.4070, 22101.00
938.5290, 21722.00
939.6510, 21654.00
940.7730, 21368.00
941.8940, 21569.00
943.0160, 21193.00
944.1370, 21008.00
945.2580, 21223.00
946.3800, 21212.00
947.5000, 21172.00
948.6210, 21128.00
949.7420, 21080.00
950.8620, 21050.16
951.9820, 21028.00
953.1020, 20976.00
954.2220, 21037.00
955.3420, 20981.00
956.4620, 21184.00
957.5810, 21063.00
958.7000, 20787.00
959.8190, 21107.00
960.9380, 20989.00
962.0570, 21203.00
963.1760, 21290.00
964.2940, 21409.00
965.4120, 21455.00
966.5300, 21588.78
967.6480, 21702.80
968.7660, 21837.00
969.8840, 21984.00
971.0010, 22131.00
972.1190, 22315.00
973.2360, 22390.00
974.3530, 22486.00
975.4690, 22779.00
976.5860, 23092.00
977.7030, 23402.00
978.8190, 23733.00
979.9350, 23985.00
981.0510, 24456.00
982.1670, 24957.00
983.2830, 25536.00
984.3980, 26347.00
985.5130, 26868.00
986.6290, 28032.00
987.7440, 29261.00
988.8590, 30733.00
989.9730, 32641.00
991.0880, 34685.00
992.2020, 37034.00
993.3160, 39777.00
994.4300, 42807.00
995.5440, 45636.00
996.6580, 49147.00
997.7720, 52145.00
998.8850, 54654.00
999.9980, 57131.00
1001.111, 58890.00
1002.224, 59806.00
1003.337, 60332.00
1004.450, 60163.00
1005.562, 59623.00
1006.674, 58715.00
1007.786, 57189.00
1008.898, 55982.00
1010.010, 53800.00
1011.122, 52097.00
1012.233, 49835.00
1013.344, 48110.00
1014.455, 46039.00
1015.566, 43653.00
1016.677, 41764.00
1017.788, 39301.00
1018.898, 37091.00
1020.009, 35234.00
1021.119, 33551.00
1022.229, 31774.00
1023.339, 30804.00
1024.448, 29520.00
1025.558, 28697.00
1026.667, 28354.00
1027.776, 27438.00
1028.885, 26813.00
1029.994, 26672.00
1031.103, 26350.00
1032.211, 26309.00
1033.320, 26287.00
1034.428, 26340.00
1035.536, 26318.34
1036.644, 26237.00
1037.751, 26348.00
1038.859, 26314.00
1039.966, 26335.00
1041.074, 25932.00
1042.181, 25840.00
1043.288, 25591.00
1044.394, 25269.00
1045.501, 25281.00
1046.607, 24907.00
1047.713, 24723.00
1048.820, 24557.00
1049.925, 24443.00
1051.031, 24283.00
1052.137, 24289.96
1053.242, 24221.45
1054.348, 24341.00
1055.453, 24209.00
1056.558, 24234.00
1057.662, 24249.00
1058.767, 24480.00
1059.871, 24529.00
1060.976, 24589.00
1062.080, 24718.00
1063.184, 24701.00
1064.288, 25094.00
1065.391, 25076.00
1066.495, 25279.00
1067.598, 25637.00
1068.701, 26126.00
1069.804, 26264.00
1070.907, 26812.00
1072.010, 27323.00
1073.112, 27865.00
1074.214, 28313.00
1075.317, 28940.00
1076.419, 30144.00
1077.521, 31164.00
1078.622, 32438.00
1079.724, 33766.00
1080.825, 35569.00
1081.926, 37713.00
1083.027, 39455.00
1084.128, 42013.00
1085.229, 43799.00
1086.329, 45550.00
1087.430, 46993.00
1088.530, 47616.00
1089.630, 47618.00
1090.730, 46537.00
1091.830, 45266.00
1092.929, 42960.00
1094.029, 41082.00
1095.128, 38663.00
1096.227, 36615.00
1097.326, 35023.00
1098.425, 33539.00
1099.523, 32067.00
1100.622, 30797.00
1101.720, 29834.58
1102.818, 29002.00
1103.916, 28319.00
1105.014, 27843.00
1106.111, 27377.00
1107.209, 27087.00
1108.306, 26705.00
1109.403, 26192.00
1110.500, 26151.00
1111.597, 25741.00
1112.694, 25463.00
1113.790, 25501.00
1114.887, 25387.00
1115.983, 24944.00
1117.079, 25045.00
1118.174, 24979.00
1119.270, 24979.00
1120.366, 24856.00
1121.461, 24677.00
1122.556, 24900.00
1123.651, 24703.00
1124.746, 24642.00
1125.841, 24820.00
1126.935, 24673.00
1128.030, 24714.00
1129.124, 24601.00
1130.218, 24682.00
1131.312, 24579.00
1132.405, 24542.00
1133.499, 24679.00
1134.592, 24805.00
1135.686, 24689.00
1136.779, 24626.00
1137.871, 24437.00
1138.964, 24718.00
1140.057, 24646.00
1141.149, 24559.00
1142.241, 24494.00
1143.334, 24600.00
1144.425, 24751.00
1145.517, 24839.00
1146.609, 24573.00
1147.700, 24637.00
1148.791, 24483.00
1149.883, 24595.00
1150.974, 24577.00
1152.064, 24610.00
1153.155, 24559.00
1154.245, 24670.00
1155.336, 24602.00
1156.426, 24583.00
1157.516, 24535.00
1158.606, 24646.00
1159.695, 24640.00
1160.785, 24778.00
1161.874, 24774.79
1162.963, 24819.14
1164.052, 24770.00
1165.141, 24837.00
1166.230, 24780.00
1167.318, 24699.00
1168.406, 24911.00
1169.495, 24910.00
1170.583, 24977.00
1171.670, 24788.00
1172.758, 25016.00
1173.846, 24825.00
1174.933, 24964.00
1176.020, 25019.00
1177.107, 24922.00
1178.194, 25063.00
1179.281, 25069.00
1180.367, 25190.00
1181.454, 25205.00
1182.540, 25227.00
1183.626, 25326.00
1184.712, 25138.00
1185.798, 25332.00
1186.883, 25135.00
1187.969, 25300.00
1189.054, 25069.00
1190.139, 25374.00
1191.224, 25402.00
1192.309, 25363.00
1193.393, 25383.00
1194.478, 25355.95
1195.562, 25419.00
1196.646, 25325.00
1197.730, 25314.94
1198.814, 25346.00
1199.897, 25277.00
1200.981, 25328.00
1202.064, 25367.00
1203.147, 25351.36
1204.230, 25426.64
1205.313, 25397.00
1206.396, 25464.00
1207.478, 25540.00
1208.560, 25402.00
1209.642, 25333.00
1210.724, 25526.00
1211.806, 25351.00
1212.888, 25522.00
1213.969, 25516.00
1215.051, 25485.00
1216.132, 25754.00
1217.213, 25506.00
1218.294, 25602.00
1219.374, 25721.00
1220.455, 25515.00
1221.535, 25589.00
1222.616, 25522.00
1223.696, 25601.00
1224.775, 25777.00
1225.855, 25934.00
1226.935, 25898.00
1228.014, 25926.00
1229.093, 25884.00
1230.172, 25805.00
1231.251, 25884.00
1232.330, 26025.00
1233.408, 26075.00
1234.487, 26028.00
1235.565, 26083.00
1236.643, 25993.00
1237.721, 26113.00
1238.799, 25961.00
1239.876, 26201.00
1240.954, 26090.00
1242.031, 26121.00
1243.108, 25995.00
1244.185, 26070.00
1245.262, 26278.00
1246.338, 26227.00
1247.415, 26249.00
1248.491, 26380.00
1249.567, 26067.00
1250.643, 26357.00
1251.719, 26266.00
1252.795, 26402.00
1253.870, 26516.00
1254.945, 26491.00
1256.021, 26429.00
1257.096, 26451.99
1258.170, 26396.00
1259.245, 26435.00
1260.320, 26432.00
1261.394, 26522.00
1262.468, 26496.00
1263.542, 26556.00
1264.616, 26525.00
1265.690, 26633.00
1266.763, 26497.00
1267.836, 26588.00
1268.910, 26689.00
1269.983, 26729.00
1271.055, 26809.00
1272.128, 26656.00
1273.201, 26688.00
1274.273, 26551.00
1275.345, 26783.00
