##NAMES=Catapleiite
##RRUFFID=R040005
##IDEAL CHEMISTRY=Na_2_Zr^4+^Si_3_O_9_&#183;2H_2_O
##LOCALITY=Langesundsfjord Eikaholmen Vestfold, Norway
##OWNER=RRUFF
##SOURCE=University of Arizona Mineral Museum
##DESCRIPTION=Brown thin tabular crystal
##STATUS=The identification of this mineral has been confirmed by X-ray diffraction and chemical analysis
##URL=rruff.info/R040005
##MEASURED CHEMISTRY=(Na_1.28_Ca_0.36_[box]_0.36_)_Σ=2_Zr_1.00_Si_3.00_O_9_·2H_2_O
##PIN_ID=L01206
##ORIENTATION=Laser parallel to c* (0 0 1). Fiducial mark perpendicular to laser is parallel to a [1 0 0]
125.5190, 16999.00
126.7490, 17065.00
127.9790, 17076.00
129.2090, 17197.00
130.4390, 17330.00
131.6680, 17473.00
132.8980, 17478.00
134.1270, 17710.00
135.3560, 17836.00
136.5850, 18041.00
137.8140, 18099.00
139.0430, 18471.00
140.2710, 18667.00
141.5000, 18842.00
142.7280, 18790.00
143.9560, 18920.00
145.1840, 19017.00
146.4120, 18852.00
147.6390, 19224.00
148.8670, 19149.00
150.0940, 19077.00
151.3210, 19062.00
152.5490, 19143.00
153.7750, 19050.00
155.0020, 19093.00
156.2290, 19253.00
157.4550, 19218.95
158.6810, 19056.00
159.9080, 19310.00
161.1340, 19302.00
162.3590, 19346.00
163.5850, 19148.00
164.8110, 19291.00
166.0360, 19220.00
167.2610, 19384.00
168.4860, 19495.00
169.7110, 19542.00
170.9360, 19436.00
172.1610, 19490.00
173.3850, 19345.00
174.6100, 19558.00
175.8340, 19434.00
177.0580, 19565.00
178.2820, 19559.00
179.5050, 19726.00
180.7290, 19474.00
181.9520, 19678.00
183.1760, 19640.00
184.3990, 19451.00
185.6220, 19656.00
186.8450, 19591.00
188.0670, 19690.00
189.2900, 19614.00
190.5120, 19953.00
191.7340, 20073.00
192.9560, 20050.00
194.1780, 19963.00
195.4000, 20134.00
196.6220, 20083.00
197.8430, 20202.00
199.0640, 20065.00
200.2860, 20257.00
201.5070, 20222.00
202.7270, 20445.00
203.9480, 20340.00
205.1690, 20424.00
206.3890, 20561.00
207.6090, 20380.00
208.8290, 20529.00
210.0490, 20515.00
211.2690, 20412.00
212.4890, 20693.00
213.7080, 20596.00
214.9280, 20708.00
216.1470, 20822.00
217.3660, 20548.00
218.5850, 20640.00
219.8030, 20603.00
221.0220, 20630.00
222.2400, 20495.00
223.4590, 20661.00
224.6770, 20452.00
225.8950, 20423.00
227.1120, 20451.00
228.3300, 20373.00
229.5480, 20346.00
230.7650, 20364.00
231.9820, 20316.94
233.1990, 20241.00
234.4160, 20305.00
235.6330, 20458.00
236.8490, 20509.00
238.0660, 20434.00
239.2820, 20420.00
240.4980, 20405.39
241.7140, 20505.00
242.9300, 20331.00
244.1460, 20382.00
245.3610, 20305.00
246.5770, 20568.00
247.7920, 20499.00
249.0070, 20414.00
250.2220, 20529.00
251.4370, 20510.00
252.6510, 20662.00
253.8660, 20552.00
255.0800, 20635.00
256.2940, 20650.00
257.5080, 20718.00
258.7220, 20750.20
259.9360, 20846.00
261.1490, 20822.00
262.3630, 20741.00
263.5760, 20787.00
264.7890, 20785.00
266.0020, 20711.00
267.2150, 20710.00
268.4270, 20755.00
269.6400, 20821.00
270.8520, 20821.00
272.0640, 20779.00
273.2760, 20813.00
274.4880, 20933.00
275.7000, 21033.00
276.9120, 20950.00
278.1230, 20917.00
279.3340, 20845.00
280.5450, 21125.00
281.7560, 21086.00
282.9670, 21148.00
284.1780, 21244.00
285.3880, 21234.72
286.5980, 21185.00
287.8090, 21264.00
289.0190, 21214.00
290.2290, 21165.00
291.4380, 21423.00
292.6480, 21367.00
293.8570, 21305.00
295.0670, 21547.00
296.2760, 21427.00
297.4850, 21600.00
298.6930, 21593.00
299.9020, 21555.00
301.1110, 21781.00
302.3190, 21914.00
303.5270, 21653.00
304.7350, 21785.00
305.9430, 21720.00
307.1510, 21876.00
308.3580, 21919.00
309.5660, 21913.00
310.7730, 21958.00
311.9800, 21861.00
313.1870, 21891.00
314.3940, 21982.00
315.6010, 22199.00
316.8070, 22027.00
318.0130, 22155.00
319.2200, 22135.00
320.4260, 22227.00
321.6310, 22270.28
322.8370, 22241.00
324.0430, 22362.00
325.2480, 22318.00
326.4540, 22367.00
327.6590, 22268.00
328.8640, 22488.00
330.0680, 22522.00
331.2730, 22430.00
332.4780, 22535.85
333.6820, 22425.00
334.8860, 22598.00
336.0900, 22450.00
337.2940, 22574.00
338.4980, 22560.00
339.7010, 22545.00
340.9050, 22495.00
342.1080, 22674.00
343.3110, 22606.00
344.5140, 22735.00
345.7170, 22743.00
346.9200, 22598.00
348.1220, 22786.00
349.3240, 22894.00
350.5270, 22639.00
351.7290, 22856.00
352.9310, 22923.00
354.1320, 22852.00
355.3340, 22909.00
356.5350, 22889.00
357.7370, 22816.00
358.9380, 22980.00
360.1390, 22950.00
361.3400, 23058.00
362.5400, 23073.00
363.7410, 23067.00
364.9410, 23052.00
366.1410, 23357.00
367.3410, 23238.00
368.5410, 23429.00
369.7410, 23124.00
370.9400, 23275.00
372.1400, 23467.00
373.3390, 23381.00
374.5380, 23515.00
375.7370, 23379.00
376.9360, 23386.00
378.1350, 23271.00
379.3330, 23314.00
380.5310, 23493.00
381.7300, 23487.00
382.9280, 23475.00
384.1260, 23642.00
385.3230, 23412.00
386.5210, 23457.00
387.7180, 23453.00
388.9160, 23535.00
390.1130, 23692.00
391.3100, 23492.00
392.5060, 23768.00
393.7030, 23698.00
394.9000, 23738.00
396.0960, 23755.00
397.2920, 23801.00
398.4880, 23910.00
399.6840, 23757.00
400.8800, 23994.00
402.0750, 24039.00
403.2710, 23905.00
404.4660, 23757.00
405.6610, 23809.00
406.8560, 23841.00
408.0510, 23746.00
409.2450, 23940.00
410.4400, 23852.00
411.6340, 23976.00
412.8280, 23981.00
414.0220, 24003.00
415.2160, 24105.00
416.4100, 24118.00
417.6030, 24333.00
418.7970, 24263.00
419.9900, 24377.00
421.1830, 24506.00
422.3760, 24519.00
423.5690, 24502.00
424.7610, 24543.00
425.9540, 24542.00
427.1460, 24485.00
428.3380, 24541.00
429.5300, 24764.00
430.7220, 24972.00
431.9140, 24880.00
433.1050, 24903.00
434.2970, 25215.00
435.4880, 25393.00
436.6790, 25493.00
437.8700, 25671.80
439.0610, 25638.00
440.2510, 25848.00
441.4420, 25929.00
442.6320, 25941.00
443.8220, 26072.00
445.0120, 26027.00
446.2020, 26164.00
447.3910, 26083.00
448.5810, 26010.00
449.7700, 25848.00
450.9600, 25772.00
452.1490, 25804.00
453.3370, 25761.00
454.5260, 25491.00
455.7150, 25553.00
456.9030, 25356.00
458.0910, 25494.00
459.2800, 25500.00
460.4670, 25214.00
461.6550, 25234.00
462.8430, 25250.00
464.0300, 25320.00
465.2180, 25279.00
466.4050, 25267.62
467.5920, 25210.00
468.7790, 25137.00
469.9650, 25180.00
471.1520, 25034.00
472.3380, 25092.00
473.5250, 25277.00
474.7110, 25173.00
475.8970, 25166.00
477.0820, 25310.00
478.2680, 25103.00
479.4540, 25275.00
480.6390, 25392.00
481.8240, 25645.00
483.0090, 25625.00
484.1940, 25540.00
485.3780, 25303.00
486.5630, 25361.00
487.7470, 25258.00
488.9320, 25414.00
490.1160, 25622.00
491.3000, 25615.00
492.4830, 25358.00
493.6670, 25532.00
494.8500, 25484.00
496.0340, 25559.00
497.2170, 25525.00
498.4000, 25721.00
499.5820, 25609.00
500.7650, 25781.00
501.9480, 25510.00
503.1300, 25448.00
504.3120, 25589.00
505.4940, 25780.00
506.6760, 26034.00
507.8580, 25759.00
509.0390, 25903.00
510.2210, 25764.00
511.4020, 25966.00
512.5830, 26258.00
513.7640, 26010.00
514.9450, 26095.00
516.1250, 26121.00
517.3060, 26267.00
518.4860, 26453.00
519.6660, 26419.26
520.8460, 26254.00
522.0260, 26423.00
523.2060, 26409.00
524.3850, 26425.00
525.5650, 26495.00
526.7440, 26493.41
527.9230, 26508.00
529.1020, 26538.00
530.2810, 26485.00
531.4590, 26484.00
532.6380, 26644.00
533.8160, 26618.00
534.9940, 26530.00
536.1720, 26737.00
537.3500, 26622.00
538.5270, 26553.00
539.7050, 26642.00
540.8820, 26588.00
542.0590, 26528.00
543.2360, 26588.00
544.4130, 26558.00
545.5900, 26810.00
546.7660, 26698.00
547.9430, 26614.00
549.1190, 26862.00
550.2950, 26903.00
551.4710, 26955.00
552.6470, 26931.00
553.8220, 27032.00
554.9980, 27026.00
556.1730, 27126.00
557.3480, 27245.00
558.5230, 27436.00
559.6980, 27456.00
560.8730, 27537.00
562.0470, 27602.00
563.2220, 27637.00
564.3960, 27793.00
565.5700, 27953.00
566.7440, 28092.00
567.9170, 28381.00
569.0910, 28487.00
570.2640, 28529.00
571.4380, 28589.00
572.6110, 28930.00
573.7840, 29289.00
574.9570, 29268.00
576.1290, 29467.00
577.3020, 29632.00
578.4740, 29674.00
579.6460, 29670.00
580.8180, 29540.00
581.9900, 29440.00
583.1620, 29258.00
584.3330, 29081.00
585.5040, 28966.00
586.6760, 28867.00
587.8470, 28582.00
589.0180, 28426.00
590.1880, 28370.00
591.3590, 28231.00
592.5290, 28252.00
593.7000, 28265.00
594.8700, 27972.00
596.0400, 27911.00
597.2090, 27925.00
598.3790, 28066.00
599.5490, 27985.77
600.7180, 28000.00
601.8870, 27964.00
603.0560, 28077.00
604.2250, 28117.00
605.3940, 28032.00
606.5620, 28001.00
607.7300, 28051.00
608.8990, 28287.00
610.0670, 28264.00
611.2350, 28273.00
612.4020, 28279.00
613.5700, 28303.28
614.7370, 28351.00
615.9050, 28341.00
617.0720, 28372.00
618.2390, 28318.00
619.4060, 28638.00
620.5720, 28628.00
621.7390, 28785.00
622.9050, 28762.00
624.0710, 29098.00
625.2370, 29364.00
626.4030, 29271.00
627.5690, 29912.00
628.7340, 29960.00
629.9000, 29913.00
631.0650, 30287.00
632.2300, 30656.00
633.3950, 30816.00
634.5600, 31104.00
635.7240, 31076.64
636.8890, 31219.00
638.0530, 30897.00
639.2170, 30697.00
640.3810, 30526.00
641.5450, 30336.00
642.7080, 30103.00
643.8720, 29801.82
645.0350, 29523.00
646.1980, 29203.00
647.3610, 29130.00
648.5240, 29016.00
649.6870, 29161.00
650.8490, 29170.00
652.0120, 28772.00
653.1740, 28846.00
654.3360, 28691.00
655.4980, 28953.00
656.6600, 28987.00
657.8210, 28773.00
658.9830, 28778.00
660.1440, 28810.00
661.3050, 29006.00
662.4660, 28777.00
663.6270, 28951.00
664.7870, 29043.00
665.9480, 29107.00
667.1080, 29151.17
668.2680, 28948.00
669.4280, 29102.00
670.5880, 29099.00
671.7480, 28967.00
672.9070, 29032.00
674.0670, 28986.00
675.2260, 29258.00
676.3850, 29231.00
677.5440, 29146.00
678.7030, 29329.00
679.8610, 29137.00
681.0200, 29037.00
682.1780, 29239.00
683.3360, 29338.00
684.4940, 29219.00
685.6520, 29162.00
686.8090, 29249.00
687.9670, 29346.00
689.1240, 29533.00
690.2810, 29392.00
691.4380, 29553.00
692.5950, 29345.00
693.7520, 29435.00
694.9080, 29597.00
696.0650, 29443.00
697.2210, 29462.00
698.3770, 29539.00
699.5330, 29480.00
700.6880, 29530.00
701.8440, 29700.00
702.9990, 29581.00
704.1550, 29856.00
705.3100, 29664.00
706.4650, 29737.00
707.6190, 29730.00
708.7740, 29964.00
709.9290, 29909.00
711.0830, 30012.00
712.2370, 29824.00
713.3910, 30543.00
714.5450, 31067.00
715.6980, 30825.00
716.8520, 30873.00
718.0050, 30877.00
719.1580, 30639.01
720.3110, 30576.11
721.4640, 30336.00
722.6170, 30266.00
723.7700, 30306.00
724.9220, 30257.00
726.0740, 30565.00
727.2260, 30496.00
728.3780, 30614.00
729.5300, 30411.00
730.6810, 30509.00
731.8330, 30564.00
732.9840, 30637.00
734.1350, 30531.00
735.2860, 30592.00
736.4370, 30545.00
737.5880, 30699.00
738.7380, 30689.89
739.8880, 30765.00
741.0390, 30752.00
742.1890, 30806.93
743.3380, 30931.00
744.4880, 30895.00
745.6380, 30944.22
746.7870, 30972.00
747.9360, 30876.00
749.0850, 30953.00
750.2340, 30835.00
751.3830, 30880.00
752.5310, 30906.00
753.6800, 30896.00
754.8280, 30975.98
755.9760, 31054.00
757.1240, 31138.00
758.2720, 31119.00
759.4190, 31252.00
760.5670, 31433.00
761.7140, 31271.00
762.8610, 31009.00
764.0080, 31330.00
765.1550, 31203.00
766.3020, 31263.00
767.4480, 31233.00
768.5950, 31303.00
769.7410, 31444.00
770.8870, 31203.00
772.0330, 31252.00
773.1780, 31467.00
774.3240, 31482.00
775.4690, 31572.00
776.6140, 31550.00
777.7590, 31554.00
778.9040, 31619.45
780.0490, 31435.00
781.1940, 31661.00
782.3380, 31607.00
783.4820, 31499.00
784.6260, 31715.00
785.7700, 31788.00
786.9140, 31705.00
788.0580, 31785.00
789.2010, 31799.00
790.3450, 31644.00
791.4880, 31761.00
792.6310, 31933.00
793.7730, 31889.00
794.9160, 31874.00
796.0590, 31928.00
797.2010, 32017.00
798.3430, 31992.00
799.4850, 32015.00
800.6270, 32034.00
801.7690, 32026.00
802.9100, 32003.00
804.0520, 32269.00
805.1930, 32129.00
806.3340, 32377.00
807.4750, 32193.00
808.6160, 32048.00
809.7560, 32259.00
810.8970, 32159.00
812.0370, 32412.00
813.1770, 32313.00
814.3170, 32438.00
815.4570, 32409.00
816.5960, 32554.00
817.7360, 32527.00
818.8750, 32501.00
820.0140, 32361.00
821.1530, 32399.00
822.2920, 32448.00
823.4310, 32415.00
824.5690, 32666.00
825.7070, 32832.00
826.8460, 32935.00
827.9840, 32823.00
829.1220, 32798.00
830.2590, 32841.00
831.3970, 32797.31
832.5340, 32727.00
833.6710, 32821.00
834.8080, 32891.00
835.9450, 32924.00
837.0820, 33064.00
838.2190, 33044.00
839.3550, 33131.00
840.4910, 33154.00
841.6270, 33052.00
842.7630, 33115.00
843.8990, 33262.00
845.0350, 33063.00
846.1700, 33155.00
847.3060, 33141.00
848.4410, 33373.00
849.5760, 33137.00
850.7100, 33411.00
851.8450, 33406.00
852.9800, 33340.00
854.1140, 33556.00
855.2480, 33605.00
856.3820, 33535.00
857.5160, 33700.00
858.6500, 33469.00
859.7830, 33609.00
860.9170, 33633.00
862.0500, 33841.00
863.1830, 33741.00
864.3160, 33749.00
865.4480, 33938.00
866.5810, 33837.00
867.7130, 33904.00
868.8460, 33885.00
869.9780, 33891.76
871.1100, 33824.00
872.2410, 34041.00
873.3730, 33966.00
874.5050, 34252.00
875.6360, 34055.00
876.7670, 33937.00
877.8980, 34244.00
879.0290, 34278.00
880.1590, 34213.00
881.2900, 34060.00
882.4200, 34165.00
883.5500, 34304.00
884.6800, 34235.00
885.8100, 34261.00
886.9400, 34310.00
888.0690, 34466.00
889.1990, 34321.00
890.3280, 34668.00
891.4570, 34656.00
892.5860, 34586.00
893.7140, 34659.00
894.8430, 34706.00
895.9710, 34787.00
897.1000, 34772.00
898.2280, 34643.00
899.3560, 34945.00
900.4830, 34875.00
901.6110, 35106.00
902.7380, 35078.00
903.8660, 35168.00
904.9930, 35435.00
906.1200, 35482.29
907.2460, 35655.00
908.3730, 35736.00
909.5000, 35898.00
910.6260, 35941.00
911.7520, 36097.00
912.8780, 36054.00
914.0040, 36298.00
915.1290, 36438.00
916.2550, 36657.00
917.3800, 36661.00
918.5050, 36527.00
919.6300, 36463.00
920.7550, 36827.00
921.8800, 37062.00
923.0040, 37322.00
924.1290, 37241.00
925.2530, 37255.00
926.3770, 37496.51
927.5010, 38143.00
928.6250, 38051.00
929.7480, 38259.00
930.8720, 38851.00
931.9950, 38917.00
933.1180, 39071.00
934.2410, 39451.00
935.3640, 39431.00
936.4860, 39814.00
937.6090, 39769.00
938.7310, 39794.00
939.8530, 39973.00
940.9750, 39914.00
942.0970, 39572.00
943.2180, 39144.00
944.3400, 39158.00
945.4610, 38955.00
946.5820, 38528.00
947.7030, 38164.00
948.8240, 37993.00
949.9450, 37892.00
951.0650, 37808.00
952.1860, 37596.00
953.3060, 37389.00
954.4260, 37582.00
955.5460, 37381.00
956.6650, 37471.00
957.7850, 37208.00
958.9040, 36945.00
960.0230, 36917.00
961.1420, 36960.00
962.2610, 37319.00
963.3800, 36998.00
964.4990, 37106.00
965.6170, 37204.00
966.7350, 37063.00
967.8530, 37246.00
968.9710, 37227.00
970.0890, 37237.00
971.2070, 37428.00
972.3240, 37466.00
973.4410, 37549.89
974.5580, 37579.00
975.6750, 37676.00
976.7920, 37858.00
977.9090, 37883.00
979.0250, 38078.00
980.1410, 38416.00
981.2580, 38574.00
982.3740, 38636.00
983.4890, 38977.00
984.6050, 39010.00
985.7200, 39292.00
986.8360, 39509.00
987.9510, 39884.00
989.0660, 40307.00
990.1810, 40588.00
991.2950, 40861.00
992.4100, 41362.00
993.5240, 41564.00
994.6390, 42121.00
995.7530, 42351.00
996.8660, 42875.00
997.9800, 42508.00
999.0940, 43076.00
1000.207, 43172.00
1001.320, 43019.00
1002.433, 43228.00
1003.546, 43066.00
1004.659, 42776.00
1005.772, 42732.00
1006.884, 42425.00
1007.996, 42047.00
1009.108, 41708.00
1010.220, 41561.00
1011.332, 41194.00
1012.444, 40919.00
1013.555, 40934.00
1014.666, 40709.00
1015.777, 40227.00
1016.888, 40318.00
1017.999, 40709.00
1019.110, 40071.00
1020.220, 40130.00
1021.331, 39964.00
1022.441, 39575.00
1023.551, 39695.00
1024.661, 39434.00
1025.770, 39383.00
1026.880, 39259.00
1027.989, 39173.00
1029.098, 39295.00
1030.207, 38962.00
1031.316, 39328.00
1032.425, 38949.00
1033.533, 39032.00
1034.642, 39196.00
1035.750, 38857.00
1036.858, 39359.00
1037.966, 39307.00
1039.073, 39048.00
1040.181, 38777.00
1041.288, 39209.00
1042.396, 39134.00
1043.503, 39380.00
1044.610, 39248.00
1045.716, 39379.00
1046.823, 39332.00
1047.929, 39259.00
1049.036, 39304.00
1050.142, 39312.26
1051.248, 39317.00
1052.353, 39451.00
1053.459, 39385.00
1054.564, 39512.00
1055.670, 39106.00
1056.775, 39299.00
1057.880, 39356.00
1058.985, 39542.00
1060.089, 39269.00
1061.194, 39211.00
1062.298, 39368.00
1063.402, 39242.00
1064.506, 39202.00
1065.610, 39503.00
1066.713, 39414.00
1067.817, 39476.00
1068.920, 39321.00
1070.023, 39477.00
1071.126, 39684.00
1072.229, 39690.00
1073.332, 39444.00
1074.435, 39313.00
1075.537, 39622.00
1076.639, 39561.00
1077.741, 39705.00
1078.843, 39825.00
1079.945, 39805.02
1081.046, 39828.00
1082.148, 39866.00
1083.249, 39863.00
1084.350, 39942.00
1085.451, 39977.00
1086.551, 40094.91
1087.652, 40166.00
1088.752, 40334.00
1089.853, 40444.00
1090.953, 40500.00
1092.053, 40309.00
1093.152, 40386.00
1094.252, 40335.00
1095.351, 40256.00
1096.451, 40390.00
1097.550, 40956.00
1098.649, 40419.00
1099.748, 40566.00
1100.846, 40046.00
1101.945, 40941.00
1103.043, 40598.00
1104.141, 40390.00
1105.239, 40492.00
1106.337, 40383.00
1107.434, 40164.00
1108.532, 40347.00
1109.629, 40378.00
1110.726, 40157.00
1111.823, 40383.00
1112.920, 40570.00
1114.017, 40649.00
1115.113, 40330.00
1116.210, 40559.00
1117.306, 40712.00
1118.402, 40830.00
1119.498, 41194.00
1120.593, 41131.00
1121.689, 41264.00
1122.784, 41344.00
1123.879, 41178.00
1124.974, 41372.00
1126.069, 40866.00
1127.164, 40859.00
1128.259, 40979.00
1129.353, 40905.00
1130.447, 40995.00
1131.541, 40951.00
1132.635, 40949.71
1133.729, 41006.00
1134.822, 40955.00
1135.916, 41076.00
1137.009, 41134.00
1138.102, 41177.00
1139.195, 41183.40
1140.288, 41064.00
1141.380, 41175.00
1142.473, 41160.00
1143.565, 41253.00
1144.657, 41352.00
1145.749, 41235.00
1146.841, 41199.00
1147.932, 41523.00
1149.024, 41213.00
1150.115, 41281.00
1151.206, 41455.00
1152.297, 41362.00
1153.388, 41486.00
1154.479, 41321.00
1155.569, 41370.00
1156.659, 41609.00
1157.750, 41543.00
1158.839, 41460.00
1159.929, 41591.00
1161.019, 41521.00
1162.108, 41453.00
1163.198, 41580.00
1164.287, 41584.00
1165.376, 41801.00
1166.465, 41709.00
1167.553, 41806.00
1168.642, 41848.47
1169.730, 41850.18
1170.818, 41947.00
1171.906, 41879.00
1172.994, 42018.00
1174.082, 41964.00
1175.170, 41836.00
1176.257, 42019.00
1177.344, 42252.00
1178.431, 42048.00
1179.518, 42117.00
1180.605, 42101.00
1181.691, 41930.00
1182.778, 42175.00
1183.864, 42274.00
1184.950, 42488.00
1186.036, 42487.93
1187.122, 42282.00
1188.207, 42464.00
1189.292, 42174.00
1190.378, 42168.00
1191.463, 42550.00
1192.548, 42605.00
1193.632, 42603.00
1194.717, 42485.00
1195.801, 42382.00
1196.886, 42502.00
1197.970, 42657.00
1199.054, 42607.00
1200.137, 42371.00
1201.221, 42595.00
1202.305, 42506.00
1203.388, 42758.00
1204.471, 42769.00
1205.554, 42771.00
1206.637, 43007.00
1207.719, 42758.00
1208.802, 42980.00
1209.884, 42945.00
1210.966, 42986.00
1212.048, 43003.00
1213.130, 42982.41
1214.212, 43000.39
1215.293, 42938.00
1216.374, 43001.00
1217.456, 42941.00
1218.536, 42954.00
1219.617, 43159.00
1220.698, 43218.00
1221.778, 43276.00
1222.859, 43149.00
1223.939, 43266.00
1225.019, 43160.00
1226.099, 43493.00
1227.178, 43244.00
1228.258, 43211.00
1229.337, 43470.00
1230.417, 43154.00
1231.496, 43469.00
1232.574, 43875.00
1233.653, 43613.00
1234.732, 43513.00
1235.810, 43432.00
1236.888, 43420.00
1237.966, 43529.00
1239.044, 43718.00
1240.122, 43635.66
1241.199, 43872.00
1242.277, 43588.00
1243.354, 43695.00
1244.431, 43738.00
1245.508, 43924.00
1246.585, 44002.00
1247.661, 43715.00
1248.738, 43736.00
1249.814, 43723.56
1250.890, 43915.00
1251.966, 43781.00
1253.042, 44092.00
1254.117, 44206.00
1255.193, 44006.00
1256.268, 43931.00
1257.343, 43878.00
1258.418, 43892.88
1259.493, 44032.00
1260.567, 44045.00
1261.642, 44193.00
1262.716, 44275.00
1263.790, 44444.00
1264.864, 44514.00
1265.938, 44423.00
1267.011, 44381.00
1268.085, 44532.00
1269.158, 44226.00
1270.231, 44472.00
1271.304, 44569.00
1272.377, 44288.00
1273.450, 44311.00
1274.522, 44567.00
1275.594, 44836.00
1276.666, 44769.00
1277.738, 44606.00
1278.810, 44550.00
1279.882, 44739.00
1280.953, 44504.00
1282.025, 44686.00
1283.096, 44882.00
1284.167, 44786.00
1285.238, 44758.00
1286.308, 44794.00
1287.379, 44648.38
1288.449, 44749.00
1289.519, 44534.00
1290.589, 44814.00
1291.659, 45034.00
1292.729, 44722.00
1293.798, 45110.00
1294.868, 45027.00
1295.937, 45288.00
1297.006, 44990.00
1298.075, 45140.00
1299.143, 45140.00
1300.212, 45310.00
