##NAMES=Catapleiite
##RRUFFID=R060208
##IDEAL CHEMISTRY=Na_2_Zr^4+^Si_3_O_9_&#183;2H_2_O
##LOCALITY=Mont Saint-Hilaire, Rouville County, Quebec, Canada
##OWNER=RRUFF
##SOURCE=Royal Ontario Museum
##DESCRIPTION=Colorless transparent thin tabular pseudohexagonal crystal
##STATUS=The identification of this mineral is confirmed by single-crystal X-ray diffraction and chemical analysis.
##URL=rruff.info/R060208
##MEASURED CHEMISTRY=Na_2.00_Zr_1.00_Si_3.00_O_9_Â·2H_2_O
##PIN_ID=M01568
##ORIENTATION=Laser parallel to b* (0 1 0). Fiducial mark perpendicular to laser is parallel to c [0 0 1]
113.5100, 7318.000
114.7440, 7613.000
115.9780, 7856.000
117.2130, 7821.000
118.4470, 7893.000
119.6810, 8012.000
120.9140, 8087.000
122.1480, 8256.000
123.3810, 8274.000
124.6150, 8449.000
125.8480, 8466.000
127.0810, 8577.000
128.3130, 8609.000
129.5460, 8742.000
130.7790, 8865.000
132.0110, 8909.000
133.2430, 8949.000
134.4750, 9056.000
135.7070, 8988.000
136.9380, 9076.000
138.1700, 9110.000
139.4010, 9239.000
140.6330, 9211.000
141.8640, 9313.000
143.0950, 9267.000
144.3250, 9377.000
145.5560, 9518.000
146.7860, 9626.000
148.0160, 9725.690
149.2470, 9780.000
150.4760, 9889.000
151.7060, 10031.00
152.9360, 10070.00
154.1650, 10099.64
155.3950, 10069.00
156.6240, 10035.00
157.8530, 10079.00
159.0820, 9963.000
160.3100, 9861.000
161.5390, 9765.000
162.7670, 9844.000
163.9950, 9760.000
165.2230, 9538.000
166.4510, 9393.000
167.6790, 9216.000
168.9060, 8962.000
170.1340, 8852.000
171.3610, 8690.000
172.5880, 8609.000
173.8150, 8541.000
175.0420, 8360.000
176.2690, 8241.000
177.4950, 8090.000
178.7210, 7994.000
179.9470, 8037.000
181.1730, 8008.000
182.3990, 8015.000
183.6250, 7954.000
184.8500, 7944.000
186.0760, 7999.000
187.3010, 8101.000
188.5260, 8165.610
189.7510, 8317.000
190.9750, 8370.000
192.2000, 8479.000
193.4240, 8570.000
194.6490, 8800.000
195.8730, 8979.000
197.0970, 8810.000
198.3200, 9092.000
199.5440, 9188.000
200.7670, 9303.000
201.9910, 9456.000
203.2140, 9351.000
204.4370, 9227.000
205.6590, 9229.000
206.8820, 9287.000
208.1050, 9336.000
209.3270, 9207.000
210.5490, 9048.000
211.7710, 9003.000
212.9930, 8880.000
214.2150, 8790.000
215.4360, 8474.000
216.6570, 8301.000
217.8790, 8118.000
219.1000, 7921.000
220.3210, 7562.000
221.5410, 7386.000
222.7620, 7103.000
223.9820, 6932.000
225.2030, 6740.000
226.4230, 6570.000
227.6430, 6454.025
228.8620, 6309.000
230.0820, 6239.000
231.3010, 6162.000
232.5210, 6047.000
233.7400, 6042.000
234.9590, 5896.000
236.1780, 5834.000
237.3960, 5818.000
238.6150, 5779.000
239.8330, 5777.000
241.0510, 5741.000
242.2690, 5737.000
243.4870, 5686.000
244.7050, 5690.000
245.9230, 5699.000
247.1400, 5592.000
248.3570, 5647.000
249.5740, 5681.000
250.7910, 5556.000
252.0080, 5592.000
253.2240, 5671.000
254.4410, 5563.000
255.6570, 5650.000
256.8730, 5719.000
258.0890, 5663.000
259.3050, 5788.000
260.5210, 5734.000
261.7360, 5629.000
262.9510, 5670.000
264.1670, 5614.000
265.3820, 5596.000
266.5960, 5602.000
267.8110, 5591.000
269.0260, 5607.000
270.2400, 5535.000
271.4540, 5571.000
272.6680, 5608.000
273.8820, 5521.000
275.0960, 5636.000
276.3090, 5606.000
277.5230, 5650.000
278.7360, 5622.000
279.9490, 5726.000
281.1620, 5880.000
282.3750, 5879.000
283.5880, 6006.000
284.8000, 6007.000
286.0120, 6137.000
287.2240, 6270.000
288.4360, 6411.000
289.6480, 6481.000
290.8600, 6617.275
292.0710, 6631.000
293.2830, 6830.000
294.4940, 6884.000
295.7050, 6961.000
296.9160, 6975.000
298.1260, 6854.000
299.3370, 6893.000
300.5470, 6878.000
301.7580, 6649.000
302.9680, 6747.000
304.1770, 6667.000
305.3870, 6655.000
306.5970, 6714.000
307.8060, 6596.000
309.0150, 6508.000
310.2250, 6548.000
311.4340, 6597.000
312.6420, 6541.000
313.8510, 6526.000
315.0590, 6550.000
316.2680, 6487.476
317.4760, 6466.000
318.6840, 6410.000
319.8920, 6375.000
321.0990, 6344.000
322.3070, 6312.000
323.5140, 6277.000
324.7210, 6228.000
325.9280, 6349.000
327.1350, 6288.000
328.3420, 6217.000
329.5490, 6229.000
330.7550, 6087.000
331.9610, 6014.000
333.1670, 6128.000
334.3730, 5979.000
335.5790, 5887.000
336.7840, 5941.000
337.9900, 5827.000
339.1950, 5920.000
340.4000, 5839.000
341.6050, 5791.000
342.8100, 5780.000
344.0150, 5778.000
345.2190, 5800.000
346.4230, 5893.000
347.6280, 5855.000
348.8320, 5794.000
350.0350, 5941.000
351.2390, 5946.000
352.4430, 5970.000
353.6460, 6005.000
354.8490, 6030.000
356.0520, 6093.000
357.2550, 6161.472
358.4580, 6223.603
359.6600, 6331.000
360.8630, 6380.000
362.0650, 6462.000
363.2670, 6547.000
364.4690, 6570.000
365.6710, 6550.000
366.8720, 6592.000
368.0740, 6528.000
369.2750, 6546.000
370.4760, 6513.000
371.6770, 6600.000
372.8780, 6529.000
374.0780, 6519.000
375.2790, 6464.000
376.4790, 6443.089
377.6790, 6496.000
378.8790, 6454.000
380.0790, 6453.000
381.2790, 6563.000
382.4780, 6377.000
383.6780, 6560.000
384.8770, 6506.000
386.0760, 6546.000
387.2750, 6513.000
388.4730, 6495.000
389.6720, 6552.000
390.8700, 6619.000
392.0690, 6623.000
393.2670, 6551.000
394.4650, 6690.000
395.6620, 6662.000
396.8600, 6742.000
398.0570, 6755.000
399.2550, 6881.000
400.4520, 6956.000
401.6490, 7122.000
402.8450, 7277.000
404.0420, 7324.000
405.2390, 7504.000
406.4350, 7779.000
407.6310, 8129.000
408.8270, 8221.000
410.0230, 8704.000
411.2190, 9205.000
412.4140, 9731.000
413.6090, 10478.00
414.8050, 11174.00
416.0000, 12009.00
417.1940, 13155.00
418.3890, 14406.00
419.5840, 15769.00
420.7780, 17529.00
421.9720, 18877.00
423.1660, 20533.00
424.3600, 22069.00
425.5540, 23714.00
426.7480, 24930.00
427.9410, 25700.00
429.1340, 25989.00
430.3270, 25833.00
431.5200, 24923.00
432.7130, 23707.00
433.9060, 22207.00
435.0980, 20389.00
436.2900, 18447.00
437.4830, 16875.00
438.6750, 15392.00
439.8660, 14135.00
441.0580, 13106.00
442.2500, 12090.00
443.4410, 11374.00
444.6320, 10846.00
445.8230, 10532.00
447.0140, 10003.00
448.2050, 9501.000
449.3950, 9165.000
450.5860, 8865.000
451.7760, 8729.000
452.9660, 8537.000
454.1560, 8255.000
455.3450, 8112.000
456.5350, 7927.000
457.7240, 7775.000
458.9140, 7608.000
460.1030, 7667.000
461.2920, 7572.000
462.4810, 7523.000
463.6690, 7360.000
464.8580, 7343.000
466.0460, 7312.000
467.2340, 7321.000
468.4220, 7170.000
469.6100, 7160.000
470.7970, 7051.000
471.9850, 7124.000
473.1720, 7143.000
474.3590, 7091.000
475.5460, 7101.465
476.7330, 7071.877
477.9200, 7018.000
479.1060, 7043.000
480.2930, 6977.000
481.4790, 7014.375
482.6650, 6892.000
483.8510, 6958.000
485.0370, 6924.000
486.2220, 6822.000
487.4080, 6952.000
488.5930, 6929.000
489.7780, 6961.000
490.9630, 6911.000
492.1480, 6925.000
493.3320, 7063.000
494.5170, 7034.000
495.7010, 7008.000
496.8850, 7147.000
498.0690, 7100.000
499.2530, 7139.000
500.4360, 7191.000
501.6200, 7301.000
502.8030, 7366.000
503.9860, 7441.000
505.1690, 7410.000
506.3520, 7588.000
507.5350, 7601.000
508.7170, 7786.000
509.9000, 8025.000
511.0820, 8007.000
512.2640, 8333.000
513.4460, 8367.000
514.6270, 8680.000
515.8090, 8892.000
516.9900, 8935.000
518.1710, 9162.000
519.3530, 9238.000
520.5330, 9470.000
521.7140, 9531.000
522.8950, 9545.000
524.0750, 9644.000
525.2550, 9579.000
526.4350, 9641.000
527.6150, 9703.000
528.7950, 9628.000
529.9750, 9676.000
531.1540, 9655.271
532.3340, 9540.000
533.5130, 9592.000
534.6920, 9544.000
535.8700, 9434.000
537.0490, 9512.000
538.2280, 9580.000
539.4060, 9384.000
540.5840, 9491.000
541.7620, 9466.000
542.9400, 9526.000
544.1180, 9426.000
545.2950, 9528.000
546.4720, 9581.000
547.6500, 9675.000
548.8270, 9916.000
550.0040, 10048.00
551.1800, 10289.00
552.3570, 10541.00
553.5330, 10901.72
554.7090, 11357.00
555.8850, 11801.00
557.0610, 12342.00
558.2370, 12945.00
559.4130, 13821.00
560.5880, 14798.00
561.7630, 16029.00
562.9380, 17401.00
564.1130, 18645.00
565.2880, 20106.00
566.4630, 21941.00
567.6370, 23522.00
568.8120, 25248.00
569.9860, 26336.00
571.1600, 27129.00
572.3330, 27852.00
573.5070, 27736.00
574.6810, 27077.00
575.8540, 26045.00
577.0270, 24473.00
578.2000, 22557.00
579.3730, 20631.00
580.5460, 18471.00
581.7180, 16621.00
582.8910, 15094.00
584.0630, 13620.00
585.2350, 12376.00
586.4070, 11430.00
587.5780, 10705.00
588.7500, 10120.00
589.9210, 9519.000
591.0930, 9065.000
592.2640, 8712.000
593.4350, 8525.000
594.6050, 8358.000
595.7760, 8213.000
596.9460, 8099.000
598.1170, 7931.000
599.2870, 7810.000
600.4570, 7768.000
601.6260, 7815.000
602.7960, 7898.000
603.9650, 7866.000
605.1350, 7842.000
606.3040, 7924.000
607.4730, 8210.000
608.6420, 8216.000
609.8100, 8367.000
610.9790, 8806.000
612.1470, 9163.000
613.3150, 9458.000
614.4830, 9926.000
615.6510, 10790.00
616.8190, 11747.00
617.9860, 12629.00
619.1540, 13757.00
620.3210, 15583.00
621.4880, 17231.00
622.6550, 19227.00
623.8220, 21021.00
624.9880, 22752.00
626.1550, 24359.00
627.3210, 25539.00
628.4870, 26580.00
629.6530, 26515.00
630.8190, 26053.00
631.9840, 24435.00
633.1500, 22292.00
634.3150, 19731.00
635.4800, 17630.00
636.6450, 15136.00
637.8100, 13489.00
638.9740, 12317.00
640.1390, 10925.00
641.3030, 10185.00
642.4670, 9529.000
643.6310, 8973.000
644.7950, 8542.000
645.9590, 8162.000
647.1220, 7915.000
648.2850, 7727.000
649.4490, 7491.000
650.6120, 7431.000
651.7740, 7179.000
652.9370, 7113.000
654.1000, 7070.000
655.2620, 6905.000
656.4240, 6732.000
657.5860, 6716.000
658.7480, 6668.000
659.9100, 6585.000
661.0710, 6549.000
662.2330, 6496.000
663.3940, 6613.000
664.5550, 6454.000
665.7160, 6357.000
666.8770, 6525.000
668.0370, 6383.000
669.1980, 6408.000
670.3580, 6268.000
671.5180, 6214.000
672.6780, 6277.000
673.8380, 6255.000
674.9970, 6293.000
676.1570, 6169.000
677.3160, 6271.000
678.4750, 6190.000
679.6340, 6269.000
680.7930, 6189.000
681.9520, 6203.000
683.1100, 6239.000
684.2680, 6244.000
685.4270, 6227.060
686.5850, 6178.000
687.7420, 6191.000
688.9000, 6060.000
690.0580, 6075.000
691.2150, 6142.000
692.3720, 6045.000
693.5290, 6044.000
694.6860, 6144.000
695.8430, 6050.000
696.9990, 6098.000
698.1560, 6112.000
699.3120, 6021.000
700.4680, 6135.000
701.6240, 6065.000
702.7800, 6138.000
703.9350, 6119.000
705.0900, 6101.000
706.2460, 6122.000
707.4010, 6120.531
708.5560, 6145.129
709.7110, 6160.000
710.8650, 6207.000
712.0200, 6248.000
713.1740, 6285.000
714.3280, 6303.108
715.4820, 6292.000
716.6360, 6313.000
717.7890, 6338.000
718.9430, 6315.000
720.0960, 6359.000
721.2490, 6423.000
722.4020, 6520.000
723.5550, 6598.000
724.7080, 6625.000
725.8600, 6811.000
727.0130, 6807.000
728.1650, 6928.000
729.3170, 6864.000
730.4690, 6979.000
731.6200, 7089.000
732.7720, 7133.000
733.9230, 7246.000
735.0740, 7193.000
736.2250, 7208.000
737.3760, 7094.000
738.5270, 7108.000
739.6780, 7155.000
740.8280, 7047.000
741.9780, 7007.000
743.1280, 6898.000
744.2780, 6873.000
745.4280, 6747.000
746.5770, 6686.000
747.7270, 6620.000
748.8760, 6550.163
750.0250, 6502.000
751.1740, 6445.000
752.3230, 6403.000
753.4720, 6345.000
754.6200, 6263.000
755.7680, 6300.000
756.9160, 6336.000
758.0640, 6233.000
759.2120, 6252.000
760.3600, 6267.000
761.5070, 6088.000
762.6550, 6209.000
763.8020, 6192.000
764.9490, 6187.000
766.0960, 6087.000
767.2420, 6200.000
768.3890, 6160.000
769.5350, 6060.000
770.6810, 6250.000
771.8270, 6205.000
772.9730, 6163.000
774.1190, 6067.000
775.2640, 6147.000
776.4100, 6064.000
777.5550, 6134.000
778.7000, 6122.000
779.8450, 6134.000
780.9900, 6112.000
782.1340, 6107.000
783.2790, 6057.000
784.4230, 6114.000
785.5670, 6139.000
786.7110, 6130.298
787.8550, 6152.000
788.9980, 6133.000
790.1420, 6107.000
791.2850, 6082.199
792.4280, 6105.000
793.5710, 6101.000
794.7140, 6174.000
795.8560, 6242.000
796.9990, 6191.000
798.1410, 6220.000
799.2830, 6201.000
800.4250, 6085.000
801.5670, 6182.000
802.7090, 6225.000
803.8500, 6306.000
804.9920, 6181.000
806.1330, 6236.000
807.2740, 6251.000
808.4150, 6241.000
809.5550, 6295.000
810.6960, 6303.000
811.8360, 6234.000
812.9760, 6350.000
814.1160, 6322.000
815.2560, 6396.000
816.3960, 6408.000
817.5350, 6417.000
818.6750, 6441.120
819.8140, 6375.000
820.9530, 6439.000
822.0920, 6398.000
823.2310, 6372.000
824.3690, 6535.000
825.5080, 6636.000
826.6460, 6388.000
827.7840, 6557.000
828.9220, 6533.000
830.0600, 6642.000
831.1970, 6607.000
832.3350, 6521.000
833.4720, 6592.000
834.6090, 6715.000
835.7460, 6703.000
836.8830, 6643.000
838.0190, 6670.000
839.1560, 6604.000
840.2920, 6659.000
841.4280, 6696.000
842.5640, 6723.000
843.7000, 6707.000
844.8360, 6729.000
845.9710, 6727.000
847.1070, 6681.000
848.2420, 6733.000
849.3770, 6829.000
850.5120, 6797.000
851.6460, 6849.000
852.7810, 6798.000
853.9150, 6841.000
855.0490, 6838.000
856.1830, 6843.000
857.3170, 6877.000
858.4510, 6906.000
859.5840, 6932.000
860.7180, 7064.000
861.8510, 6971.000
862.9840, 7033.000
864.1170, 6908.000
865.2500, 6968.000
866.3820, 6985.000
867.5150, 6884.000
868.6470, 6853.000
869.7790, 7061.000
870.9110, 6980.000
872.0430, 7018.000
873.1740, 6959.000
874.3060, 7034.000
875.4370, 7002.000
876.5680, 7075.000
877.6990, 7066.000
878.8300, 7188.000
879.9600, 7025.000
881.0910, 7138.000
882.2210, 7080.000
883.3510, 7061.000
884.4810, 7218.000
885.6110, 7195.000
886.7410, 7251.000
887.8700, 7233.000
888.9990, 7346.000
890.1290, 7320.000
891.2580, 7347.000
892.3860, 7449.000
893.5150, 7507.000
894.6440, 7599.000
895.7720, 7661.205
896.9000, 7719.845
898.0280, 7778.000
899.1560, 7830.000
900.2840, 7878.000
901.4110, 7934.000
902.5390, 8076.000
903.6660, 8166.000
904.7930, 8334.817
905.9200, 8511.000
907.0470, 8722.000
908.1730, 8930.000
909.3000, 9177.000
910.4260, 9358.000
911.5520, 9739.000
912.6780, 10201.00
913.8030, 10596.00
914.9290, 11167.00
916.0540, 11919.00
917.1800, 12627.12
918.3050, 13651.00
919.4300, 14698.00
920.5550, 16156.00
921.6790, 18032.00
922.8040, 19932.00
923.9280, 22321.00
925.0520, 25081.00
926.1760, 27865.00
927.3000, 31040.00
928.4230, 33872.00
929.5470, 36823.00
930.6700, 39016.00
931.7930, 40166.00
932.9160, 40261.00
934.0390, 39619.00
935.1620, 37706.00
936.2840, 34921.00
937.4070, 31888.00
938.5290, 28556.00
939.6510, 25182.00
940.7730, 22360.00
941.8940, 19988.00
943.0160, 17883.00
944.1370, 16363.00
945.2580, 15257.00
946.3800, 14211.00
947.5000, 13653.00
948.6210, 13045.00
949.7420, 12294.00
950.8620, 11655.00
951.9820, 11095.00
953.1020, 10685.00
954.2220, 10250.00
955.3420, 9872.000
956.4620, 9559.000
957.5810, 9255.000
958.7000, 9073.000
959.8190, 8972.000
960.9380, 8878.000
962.0570, 8793.000
963.1760, 8733.000
964.2940, 8684.000
965.4120, 8702.000
966.5300, 8684.000
967.6480, 8735.000
968.7660, 8786.000
969.8840, 8768.000
971.0010, 8856.000
972.1190, 8908.000
973.2360, 9070.000
974.3530, 9238.000
975.4690, 9367.000
976.5860, 9489.000
977.7030, 9832.000
978.8190, 10035.00
979.9350, 10337.00
981.0510, 10680.00
982.1670, 11093.00
983.2830, 11522.00
984.3980, 12299.00
985.5130, 12887.00
986.6290, 13836.00
987.7440, 14842.00
988.8590, 16283.00
989.9730, 17972.00
991.0880, 19966.00
992.2020, 22053.05
993.3160, 24384.00
994.4300, 26947.00
995.5440, 29609.00
996.6580, 32572.00
997.7720, 35172.00
998.8850, 37536.00
999.9980, 39838.00
1001.111, 41386.00
1002.224, 42500.00
1003.337, 43273.00
1004.450, 43112.00
1005.562, 42606.00
1006.674, 41813.00
1007.786, 40630.00
1008.898, 39062.00
1010.010, 37312.00
1011.122, 35839.00
1012.233, 33836.00
1013.344, 31785.00
1014.455, 29919.00
1015.566, 27804.00
1016.677, 25894.00
1017.788, 24051.00
1018.898, 22168.00
1020.009, 20222.00
1021.119, 18573.00
1022.229, 17246.00
1023.339, 15983.00
1024.448, 14943.00
1025.558, 14148.00
1026.667, 13363.00
1027.776, 12679.00
1028.885, 12397.00
1029.994, 12131.00
1031.103, 11728.00
1032.211, 11509.00
1033.320, 11282.00
1034.428, 11349.00
1035.536, 11270.00
1036.644, 11180.00
1037.751, 11087.00
1038.859, 11043.00
1039.966, 10983.00
1041.074, 10795.15
1042.181, 10648.79
1043.288, 10380.00
1044.394, 10216.00
1045.501, 9960.000
1046.607, 9712.000
1047.713, 9465.000
1048.820, 9190.000
1049.925, 9146.000
1051.031, 8944.000
1052.137, 8855.000
1053.242, 8688.000
1054.348, 8689.000
1055.453, 8787.000
1056.558, 8593.000
1057.662, 8378.000
1058.767, 8470.107
1059.871, 8530.885
1060.976, 8556.847
1062.080, 8549.896
1063.184, 8411.389
1064.288, 8442.759
1065.391, 8406.067
1066.495, 8366.566
1067.598, 8421.863
1068.701, 8440.301
1069.804, 8446.000
1070.907, 8606.000
1072.010, 8670.000
1073.112, 8786.000
1074.214, 8917.000
1075.317, 9098.000
1076.419, 9147.000
1077.521, 9458.000
1078.622, 9510.000
1079.724, 9963.000
1080.825, 10084.00
1081.926, 10674.00
1083.027, 10877.00
1084.128, 11146.00
1085.229, 11498.00
1086.329, 11727.00
1087.430, 11931.00
1088.530, 12073.00
1089.630, 11964.00
1090.730, 11917.00
1091.830, 11690.00
1092.929, 11304.00
1094.029, 10948.00
1095.128, 10558.00
1096.227, 10020.00
1097.326, 9838.000
1098.425, 9571.000
1099.523, 9317.000
1100.622, 9185.000
1101.720, 8739.000
1102.818, 8691.000
1103.916, 8534.000
1105.014, 8430.000
1106.111, 8387.000
1107.209, 8229.000
1108.306, 8231.000
1109.403, 8119.000
1110.500, 8099.000
1111.597, 7972.000
1112.694, 7958.000
1113.790, 7930.000
1114.887, 7914.000
1115.983, 7977.000
1117.079, 8035.000
1118.174, 7985.000
1119.270, 7950.000
1120.366, 7878.000
1121.461, 7853.000
1122.556, 7854.285
1123.651, 7812.000
1124.746, 7890.000
1125.841, 7948.000
1126.935, 7979.000
1128.030, 7914.000
1129.124, 8031.000
1130.218, 7950.000
1131.312, 8037.000
1132.405, 7988.000
1133.499, 7973.000
1134.592, 8056.000
1135.686, 8034.000
1136.779, 7925.000
1137.871, 8104.000
1138.964, 8015.000
1140.057, 8053.000
1141.149, 8121.000
1142.241, 8028.000
1143.334, 8071.000
1144.425, 8036.000
1145.517, 8029.000
1146.609, 8097.000
1147.700, 7991.000
1148.791, 7952.000
1149.883, 8062.000
1150.974, 8074.000
1152.064, 7957.000
1153.155, 7949.000
1154.245, 7972.000
1155.336, 7937.000
1156.426, 7888.000
1157.516, 7906.459
1158.606, 7969.000
1159.695, 7924.000
1160.785, 7886.000
1161.874, 7926.000
1162.963, 7814.000
1164.052, 7937.000
1165.141, 7971.000
1166.230, 7895.000
1167.318, 7834.000
1168.406, 7830.000
1169.495, 7831.000
1170.583, 7878.000
1171.670, 7975.000
1172.758, 7955.000
1173.846, 7835.000
1174.933, 7972.000
1176.020, 7944.000
1177.107, 7861.000
1178.194, 7952.000
1179.281, 7834.000
1180.367, 7854.000
1181.454, 7901.000
1182.540, 7978.000
1183.626, 7960.000
1184.712, 7965.000
1185.798, 7967.059
1186.883, 7916.000
1187.969, 7950.000
1189.054, 7903.000
1190.139, 7935.000
1191.224, 7957.000
1192.309, 7957.000
1193.393, 7869.000
1194.478, 7786.000
1195.562, 7971.000
1196.646, 7970.000
1197.730, 8034.000
1198.814, 8055.343
1199.897, 8041.224
1200.981, 7981.000
1202.064, 8031.000
1203.147, 7899.000
1204.230, 7940.000
1205.313, 8009.000
1206.396, 7906.000
1207.478, 7821.000
1208.560, 7928.000
1209.642, 7946.000
1210.724, 7836.000
1211.806, 7789.000
1212.888, 7786.000
1213.969, 7792.458
1215.051, 7812.000
1216.132, 7859.000
1217.213, 7836.728
1218.294, 7889.000
1219.374, 7812.000
1220.455, 7840.000
1221.535, 7834.000
1222.616, 7902.000
1223.696, 7813.000
1224.775, 7915.000
1225.855, 7902.000
1226.935, 7774.000
1228.014, 7873.000
1229.093, 7935.000
1230.172, 7934.000
1231.251, 8002.000
1232.330, 7973.000
1233.408, 7992.957
1234.487, 7993.000
1235.565, 7978.000
1236.643, 7952.000
1237.721, 7906.000
1238.799, 7996.000
1239.876, 8052.000
1240.954, 8021.000
1242.031, 7909.000
1243.108, 7932.000
1244.185, 7911.000
1245.262, 7913.000
1246.338, 7917.047
1247.415, 7926.000
1248.491, 7922.000
1249.567, 7988.000
1250.643, 8002.000
1251.719, 8011.000
1252.795, 8049.000
1253.870, 8058.000
1254.945, 8035.000
1256.021, 8034.000
1257.096, 8030.000
1258.170, 7885.000
1259.245, 7913.000
1260.320, 7875.000
1261.394, 8046.000
1262.468, 8015.000
1263.542, 8095.000
1264.616, 8022.000
1265.690, 7979.000
1266.763, 8019.000
1267.836, 8026.000
1268.910, 8095.000
1269.983, 8009.000
1271.055, 8203.000
1272.128, 8093.000
1273.201, 8074.000
1274.273, 8151.000
1275.345, 8177.000
1276.417, 8044.000
1277.489, 8015.000
1278.561, 8025.000
1279.632, 8163.000
1280.704, 8039.000
1281.775, 8179.000
1282.846, 8032.000
1283.917, 8051.000
1284.988, 8166.000
1286.058, 8183.000
1287.129, 8096.000
1288.199, 8063.000
1289.269, 8126.000
