##NAMES=Catapleiite
##RRUFFID=R040005
##IDEAL CHEMISTRY=Na_2_Zr^4+^Si_3_O_9_&#183;2H_2_O
##LOCALITY=Langesundsfjord Eikaholmen Vestfold, Norway
##OWNER=RRUFF
##SOURCE=University of Arizona Mineral Museum
##DESCRIPTION=Brown thin tabular crystal
##STATUS=The identification of this mineral has been confirmed by X-ray diffraction and chemical analysis
##URL=rruff.info/R040005
##MEASURED CHEMISTRY=(Na_1.28_Ca_0.36_[box]_0.36_)_Σ=2_Zr_1.00_Si_3.00_O_9_·2H_2_O
##PIN_ID=L00558
##ORIENTATION=Laser parallel to a* (1 0 0). Fiducial mark perpendicular to laser is parallel to -b [0 -1 0]
120.5960, 32619.00
121.8270, 32345.00
123.0580, 32571.00
124.2880, 32620.00
125.5190, 32805.00
126.7490, 32709.00
127.9790, 32770.00
129.2090, 32874.00
130.4390, 32643.00
131.6680, 33283.00
132.8980, 33132.00
134.1270, 33053.00
135.3560, 33254.00
136.5850, 33334.00
137.8140, 33213.00
139.0430, 33575.00
140.2710, 33987.00
141.5000, 33860.00
142.7280, 34079.00
143.9560, 33890.00
145.1840, 33758.00
146.4120, 33997.00
147.6390, 33925.00
148.8670, 34093.00
150.0940, 34054.00
151.3210, 34207.00
152.5490, 34041.00
153.7750, 34093.00
155.0020, 34027.00
156.2290, 33892.00
157.4550, 34013.00
158.6810, 34242.00
159.9080, 33852.00
161.1340, 34023.00
162.3590, 34139.00
163.5850, 34306.00
164.8110, 34343.00
166.0360, 34034.00
167.2610, 34215.00
168.4860, 34283.00
169.7110, 34107.00
170.9360, 34325.00
172.1610, 34415.00
173.3850, 34171.00
174.6100, 34431.00
175.8340, 34458.00
177.0580, 34280.00
178.2820, 34462.00
179.5050, 34373.00
180.7290, 34605.00
181.9520, 34729.00
183.1760, 34704.00
184.3990, 34622.00
185.6220, 34884.00
186.8450, 35027.00
188.0670, 35077.00
189.2900, 35015.00
190.5120, 35168.00
191.7340, 35081.00
192.9560, 35382.00
194.1780, 35302.00
195.4000, 35505.00
196.6220, 35641.00
197.8430, 35671.00
199.0640, 35402.00
200.2860, 35676.00
201.5070, 35818.00
202.7270, 35641.00
203.9480, 36066.00
205.1690, 36117.00
206.3890, 35795.00
207.6090, 35710.00
208.8290, 36024.00
210.0490, 36013.00
211.2690, 36167.00
212.4890, 35821.00
213.7080, 35774.00
214.9280, 35693.00
216.1470, 35658.00
217.3660, 35369.00
218.5850, 35262.00
219.8030, 35107.00
221.0220, 34877.00
222.2400, 34839.00
223.4590, 34540.00
224.6770, 34569.00
225.8950, 34392.00
227.1120, 34216.00
228.3300, 34165.00
229.5480, 34198.00
230.7650, 33970.00
231.9820, 34059.00
233.1990, 33962.00
234.4160, 34017.00
235.6330, 34045.00
236.8490, 33676.00
238.0660, 33681.00
239.2820, 33743.00
240.4980, 33616.00
241.7140, 33695.00
242.9300, 33415.00
244.1460, 33675.00
245.3610, 33406.00
246.5770, 33585.00
247.7920, 33460.00
249.0070, 33533.00
250.2220, 33422.00
251.4370, 33566.00
252.6510, 33614.00
253.8660, 33495.00
255.0800, 33459.00
256.2940, 33378.00
257.5080, 33572.00
258.7220, 33469.00
259.9360, 33461.00
261.1490, 33528.00
262.3630, 33353.00
263.5760, 33566.00
264.7890, 33374.00
266.0020, 33358.00
267.2150, 33277.00
268.4270, 33188.00
269.6400, 33281.00
270.8520, 33552.00
272.0640, 33326.00
273.2760, 33189.00
274.4880, 33483.00
275.7000, 33077.00
276.9120, 33522.00
278.1230, 33417.00
279.3340, 33349.00
280.5450, 33246.00
281.7560, 33240.00
282.9670, 33014.00
284.1780, 33236.00
285.3880, 33465.00
286.5980, 33324.00
287.8090, 33386.00
289.0190, 33110.00
290.2290, 33471.00
291.4380, 33322.00
292.6480, 33511.00
293.8570, 33461.00
295.0670, 33284.00
296.2760, 33570.00
297.4850, 33461.00
298.6930, 33424.00
299.9020, 33754.00
301.1110, 33710.00
302.3190, 33754.00
303.5270, 33786.00
304.7350, 33821.00
305.9430, 33667.00
307.1510, 33663.00
308.3580, 33855.00
309.5660, 33674.00
310.7730, 33965.00
311.9800, 33758.00
313.1870, 33852.00
314.3940, 33912.00
315.6010, 33806.00
316.8070, 33927.00
318.0130, 34157.00
319.2200, 34252.00
320.4260, 34095.00
321.6310, 34164.00
322.8370, 34196.00
324.0430, 34182.00
325.2480, 34023.00
326.4540, 34231.00
327.6590, 34262.00
328.8640, 34267.00
330.0680, 34192.00
331.2730, 34075.00
332.4780, 34021.00
333.6820, 34241.00
334.8860, 34100.00
336.0900, 34233.00
337.2940, 34303.00
338.4980, 34355.00
339.7010, 34388.00
340.9050, 34304.00
342.1080, 34422.00
343.3110, 34432.00
344.5140, 34568.00
345.7170, 34537.00
346.9200, 34625.00
348.1220, 34454.00
349.3240, 34494.00
350.5270, 34667.00
351.7290, 34734.00
352.9310, 34789.00
354.1320, 34734.00
355.3340, 34820.00
356.5350, 34626.00
357.7370, 34725.00
358.9380, 34689.00
360.1390, 35172.00
361.3400, 35063.00
362.5400, 35038.00
363.7410, 35046.00
364.9410, 34951.00
366.1410, 34941.00
367.3410, 34846.00
368.5410, 34673.00
369.7410, 35442.00
370.9400, 35022.00
372.1400, 35048.00
373.3390, 34799.00
374.5380, 34879.00
375.7370, 35057.00
376.9360, 35070.00
378.1350, 34913.00
379.3330, 35006.00
380.5310, 34913.00
381.7300, 34942.00
382.9280, 35189.00
384.1260, 35116.00
385.3230, 35100.00
386.5210, 35010.00
387.7180, 35302.00
388.9160, 35304.00
390.1130, 35307.00
391.3100, 35128.00
392.5060, 35300.00
393.7030, 35048.00
394.9000, 35389.00
396.0960, 35406.00
397.2920, 35200.00
398.4880, 35966.00
399.6840, 35259.00
400.8800, 35682.00
402.0750, 35867.00
403.2710, 35478.00
404.4660, 35665.00
405.6610, 35772.00
406.8560, 35874.00
408.0510, 35807.00
409.2450, 36009.00
410.4400, 35906.00
411.6340, 36216.00
412.8280, 36244.00
414.0220, 36194.00
415.2160, 36158.00
416.4100, 36504.00
417.6030, 36509.00
418.7970, 36553.00
419.9900, 36798.00
421.1830, 37055.00
422.3760, 37132.00
423.5690, 37540.00
424.7610, 37729.00
425.9540, 37809.00
427.1460, 38288.00
428.3380, 38413.00
429.5300, 38989.00
430.7220, 39038.00
431.9140, 39280.00
433.1050, 39932.00
434.2970, 40180.00
435.4880, 40591.00
436.6790, 40818.00
437.8700, 40808.00
439.0610, 41343.00
440.2510, 41241.00
441.4420, 40959.00
442.6320, 40962.00
443.8220, 40840.00
445.0120, 40396.00
446.2020, 40198.00
447.3910, 39968.00
448.5810, 39206.00
449.7700, 39134.00
450.9600, 38750.00
452.1490, 38096.00
453.3370, 37856.00
454.5260, 37628.00
455.7150, 37646.00
456.9030, 37189.00
458.0910, 36988.00
459.2800, 36783.00
460.4670, 36784.00
461.6550, 36654.00
462.8430, 36561.00
464.0300, 36503.00
465.2180, 36290.00
466.4050, 36231.00
467.5920, 36070.00
468.7790, 36154.00
469.9650, 36199.00
471.1520, 35895.00
472.3380, 36107.00
473.5250, 35799.00
474.7110, 35817.00
475.8970, 35791.00
477.0820, 36248.00
478.2680, 35799.00
479.4540, 35825.00
480.6390, 35888.00
481.8240, 35699.00
483.0090, 35830.00
484.1940, 35986.00
485.3780, 35767.00
486.5630, 35930.00
487.7470, 35938.00
488.9320, 35590.00
490.1160, 35790.00
491.3000, 35931.00
492.4830, 36027.00
493.6670, 36005.00
494.8500, 35566.00
496.0340, 35995.00
497.2170, 36029.00
498.4000, 36066.00
499.5820, 36085.00
500.7650, 35832.00
501.9480, 36167.00
503.1300, 35849.00
504.3120, 36100.00
505.4940, 36038.00
506.6760, 36257.00
507.8580, 35951.00
509.0390, 36554.00
510.2210, 36154.00
511.4020, 36402.00
512.5830, 36227.00
513.7640, 36456.00
514.9450, 36445.00
516.1250, 36473.00
517.3060, 36565.00
518.4860, 36415.00
519.6660, 36713.00
520.8460, 36420.00
522.0260, 36695.00
523.2060, 36511.00
524.3850, 36769.00
525.5650, 36515.00
526.7440, 36637.00
527.9230, 36609.00
529.1020, 36664.00
530.2810, 36465.00
531.4590, 36499.00
532.6380, 36287.00
533.8160, 36260.00
534.9940, 36461.00
536.1720, 36744.00
537.3500, 36458.00
538.5270, 36411.00
539.7050, 36632.00
540.8820, 36524.00
542.0590, 36350.00
543.2360, 36536.00
544.4130, 36467.00
545.5900, 36220.00
546.7660, 36392.00
547.9430, 36771.00
549.1190, 36408.00
550.2950, 36497.00
551.4710, 36391.00
552.6470, 36500.00
553.8220, 36451.00
554.9980, 36381.00
556.1730, 36649.00
557.3480, 36612.00
558.5230, 36572.00
559.6980, 36528.00
560.8730, 36822.00
562.0470, 36739.00
563.2220, 36546.00
564.3960, 36984.00
565.5700, 36853.00
566.7440, 36871.00
567.9170, 37017.00
569.0910, 37110.00
570.2640, 37343.00
571.4380, 37514.00
572.6110, 37680.00
573.7840, 37573.00
574.9570, 37310.00
576.1290, 37704.00
577.3020, 37697.00
578.4740, 37643.00
579.6460, 37524.00
580.8180, 37651.00
581.9900, 37786.00
583.1620, 37501.00
584.3330, 37553.00
585.5040, 37360.00
586.6760, 37749.00
587.8470, 37423.00
589.0180, 37562.00
590.1880, 37589.00
591.3590, 37617.00
592.5290, 37369.00
593.7000, 37567.00
594.8700, 37725.00
596.0400, 37961.00
597.2090, 37794.00
598.3790, 37895.00
599.5490, 37692.00
600.7180, 38102.00
601.8870, 37881.00
603.0560, 38171.00
604.2250, 38345.00
605.3940, 37940.00
606.5620, 38092.00
607.7300, 38610.00
608.8990, 38768.00
610.0670, 38511.00
611.2350, 38530.00
612.4020, 38658.00
613.5700, 38966.00
614.7370, 39060.00
615.9050, 39335.00
617.0720, 39677.00
618.2390, 40015.00
619.4060, 40284.00
620.5720, 40587.00
621.7390, 41302.00
622.9050, 41413.00
624.0710, 42038.00
625.2370, 42750.00
626.4030, 43403.00
627.5690, 43651.00
628.7340, 44815.00
629.9000, 45456.00
631.0650, 45557.00
632.2300, 46150.00
633.3950, 45775.00
634.5600, 45792.00
635.7240, 45055.00
636.8890, 44437.00
638.0530, 43595.00
639.2170, 42942.00
640.3810, 42261.00
641.5450, 41491.00
642.7080, 40992.00
643.8720, 40397.00
645.0350, 40094.00
646.1980, 40101.00
647.3610, 39331.00
648.5240, 39532.00
649.6870, 39404.00
650.8490, 38849.00
652.0120, 39133.00
653.1740, 39077.00
654.3360, 39094.00
655.4980, 38980.00
656.6600, 38767.00
657.8210, 38971.00
658.9830, 38828.00
660.1440, 38812.00
661.3050, 38976.00
662.4660, 38999.00
663.6270, 38758.00
664.7870, 38697.00
665.9480, 38874.00
667.1080, 38721.00
668.2680, 38833.00
669.4280, 38901.00
670.5880, 38909.00
671.7480, 38914.00
672.9070, 38962.00
674.0670, 38780.00
675.2260, 39013.00
676.3850, 38843.00
677.5440, 39122.00
678.7030, 38709.00
679.8610, 39226.00
681.0200, 39026.00
682.1780, 39003.00
683.3360, 39041.00
684.4940, 39001.00
685.6520, 39380.00
686.8090, 39229.00
687.9670, 38993.00
689.1240, 39416.00
690.2810, 38977.00
691.4380, 39198.00
692.5950, 39385.00
693.7520, 39236.00
694.9080, 39406.00
696.0650, 39422.00
697.2210, 39556.00
698.3770, 39502.00
699.5330, 39609.00
700.6880, 39479.00
701.8440, 39537.00
702.9990, 39447.00
704.1550, 39440.00
705.3100, 39634.00
706.4650, 39803.00
707.6190, 39718.00
708.7740, 39675.00
709.9290, 39640.00
711.0830, 39915.00
712.2370, 39485.00
713.3910, 39953.00
714.5450, 39917.00
715.6980, 40008.00
716.8520, 39909.00
718.0050, 40128.00
719.1580, 40092.00
720.3110, 39910.00
721.4640, 39849.00
722.6170, 40081.00
723.7700, 40024.00
724.9220, 40078.00
726.0740, 40275.00
727.2260, 40545.00
728.3780, 40152.00
729.5300, 40196.00
730.6810, 40342.00
731.8330, 40370.00
732.9840, 40578.00
734.1350, 40489.00
735.2860, 40266.00
736.4370, 40232.00
737.5880, 40377.00
738.7380, 40551.00
739.8880, 40569.00
741.0390, 40707.00
742.1890, 40603.00
743.3380, 40494.00
744.4880, 40833.00
745.6380, 40696.00
746.7870, 40978.00
747.9360, 40874.00
749.0850, 40882.00
750.2340, 40910.00
751.3830, 40767.00
752.5310, 40914.00
753.6800, 40884.00
754.8280, 40843.00
755.9760, 41033.00
757.1240, 40877.00
758.2720, 40602.00
759.4190, 40857.00
760.5670, 40643.00
761.7140, 40830.00
762.8610, 41083.00
764.0080, 41094.00
765.1550, 40981.00
766.3020, 41061.00
767.4480, 41011.00
768.5950, 41366.00
769.7410, 41094.00
770.8870, 41056.00
772.0330, 40979.00
773.1780, 40874.00
774.3240, 41442.00
775.4690, 41081.00
776.6140, 41306.00
777.7590, 41314.00
778.9040, 41345.00
780.0490, 41258.00
781.1940, 41236.00
782.3380, 41533.00
783.4820, 41464.00
784.6260, 41481.00
785.7700, 41661.00
786.9140, 41450.00
788.0580, 41562.00
789.2010, 41386.00
790.3450, 41503.00
791.4880, 41484.00
792.6310, 41471.00
793.7730, 41713.00
794.9160, 41642.00
796.0590, 41789.00
797.2010, 41519.00
798.3430, 41851.00
799.4850, 41925.00
800.6270, 41671.00
801.7690, 41451.00
802.9100, 41928.00
804.0520, 41852.00
805.1930, 41763.00
806.3340, 41615.00
807.4750, 41676.00
808.6160, 41925.00
809.7560, 42003.00
810.8970, 41783.00
812.0370, 41854.00
813.1770, 42012.00
814.3170, 42142.00
815.4570, 42070.00
816.5960, 41715.00
817.7360, 41858.00
818.8750, 42188.00
820.0140, 42213.00
821.1530, 41820.00
822.2920, 42183.00
823.4310, 42207.00
824.5690, 42003.00
825.7070, 42130.00
826.8460, 42045.00
827.9840, 41948.00
829.1220, 42147.00
830.2590, 42066.00
831.3970, 42392.00
832.5340, 42168.00
833.6710, 42337.00
834.8080, 42225.00
835.9450, 42422.00
837.0820, 42356.00
838.2190, 42408.00
839.3550, 42312.00
840.4910, 42167.00
841.6270, 42677.00
842.7630, 42151.00
843.8990, 42559.00
845.0350, 42594.00
846.1700, 42372.00
847.3060, 42451.00
848.4410, 42300.00
849.5760, 42479.00
850.7100, 42525.00
851.8450, 42671.00
852.9800, 42456.00
854.1140, 42482.00
855.2480, 42654.00
856.3820, 42417.00
857.5160, 42639.00
858.6500, 42499.00
859.7830, 42723.00
860.9170, 42662.00
862.0500, 42886.00
863.1830, 42659.00
864.3160, 43090.00
865.4480, 42674.00
866.5810, 42788.00
867.7130, 42723.00
868.8460, 42690.00
869.9780, 42631.00
871.1100, 42857.00
872.2410, 42726.00
873.3730, 42737.00
874.5050, 42689.00
875.6360, 42612.00
876.7670, 42769.00
877.8980, 43007.00
879.0290, 43030.00
880.1590, 43033.00
881.2900, 42933.00
882.4200, 42932.00
883.5500, 42970.00
884.6800, 43182.00
885.8100, 43123.00
886.9400, 42847.00
888.0690, 43185.00
889.1990, 42961.00
890.3280, 42824.00
891.4570, 42980.00
892.5860, 43415.00
893.7140, 42918.00
894.8430, 43188.00
895.9710, 42664.00
897.1000, 43049.00
898.2280, 42825.00
899.3560, 43047.00
900.4830, 43307.00
901.6110, 43010.00
902.7380, 42992.00
903.8660, 43385.00
904.9930, 43543.00
906.1200, 43303.00
907.2460, 43390.00
908.3730, 43285.00
909.5000, 43555.00
910.6260, 43482.00
911.7520, 43608.00
912.8780, 43542.00
914.0040, 43499.00
915.1290, 43536.00
916.2550, 43470.00
917.3800, 43799.00
918.5050, 43863.00
919.6300, 43829.00
920.7550, 43602.00
921.8800, 43665.00
923.0040, 43915.00
924.1290, 44010.00
925.2530, 44085.00
926.3770, 44212.00
927.5010, 44306.00
928.6250, 44072.00
929.7480, 44490.00
930.8720, 44365.00
931.9950, 44408.00
933.1180, 44283.00
934.2410, 44361.00
935.3640, 44306.00
936.4860, 44689.00
937.6090, 44665.00
938.7310, 44675.00
939.8530, 44572.00
940.9750, 44168.00
942.0970, 44347.00
943.2180, 44395.00
944.3400, 44300.00
945.4610, 44334.00
946.5820, 44287.00
947.7030, 44377.00
948.8240, 44486.00
949.9450, 43971.00
951.0650, 44385.00
952.1860, 44390.00
953.3060, 44043.00
954.4260, 44140.00
955.5460, 44116.00
956.6650, 44098.00
957.7850, 43971.00
958.9040, 44162.00
960.0230, 44274.00
961.1420, 44478.00
962.2610, 44669.00
963.3800, 44618.00
964.4990, 44484.00
965.6170, 44464.00
966.7350, 44477.00
967.8530, 44854.00
968.9710, 44753.00
970.0890, 45082.00
971.2070, 45260.00
972.3240, 45815.00
973.4410, 45861.00
974.5580, 46170.00
975.6750, 46144.00
976.7920, 46615.00
977.9090, 47288.00
979.0250, 47567.00
980.1410, 48048.00
981.2580, 48525.00
982.3740, 49146.00
983.4890, 49749.00
984.6050, 50892.00
985.7200, 51194.00
986.8360, 52186.00
987.9510, 53253.00
989.0660, 54127.00
990.1810, 54820.00
991.2950, 56280.00
992.4100, 57096.00
993.5240, 57919.00
994.6390, 59035.00
995.7530, 59965.00
996.8660, 60324.00
997.9800, 60968.00
999.0940, 61190.00
1000.207, 61370.00
1001.320, 61066.00
1002.433, 60875.00
1003.546, 60504.00
1004.659, 59739.00
1005.772, 59094.00
1006.884, 58380.00
1007.996, 57645.00
1009.108, 56796.00
1010.220, 55978.00
1011.332, 55607.00
1012.444, 54422.00
1013.555, 53700.00
1014.666, 52804.00
1015.777, 52182.00
1016.888, 51356.00
1017.999, 51094.00
1019.110, 50293.00
1020.220, 49722.00
1021.331, 49310.00
1022.441, 48932.00
1023.551, 48344.00
1024.661, 48065.00
1025.770, 48031.00
1026.880, 47431.00
1027.989, 47174.00
1029.098, 46675.00
1030.207, 46719.00
1031.316, 46582.00
1032.425, 46199.00
1033.533, 46188.00
1034.642, 45983.00
1035.750, 45905.00
1036.858, 45670.00
1037.966, 45886.00
1039.073, 45978.00
1040.181, 45524.00
1041.288, 45612.00
1042.396, 45782.00
1043.503, 45540.00
1044.610, 45513.00
1045.716, 45746.00
1046.823, 45581.00
1047.929, 45515.00
1049.036, 45487.00
1050.142, 45353.00
1051.248, 45313.00
1052.353, 45223.00
1053.459, 45244.00
1054.564, 45236.00
1055.670, 45077.00
1056.775, 44984.00
1057.880, 45025.00
1058.985, 44942.00
1060.089, 45007.00
1061.194, 44637.00
1062.298, 44843.00
1063.402, 45038.00
1064.506, 44915.00
1065.610, 44840.00
1066.713, 45249.00
1067.817, 45156.00
1068.920, 45050.00
1070.023, 45201.00
1071.126, 45845.00
1072.229, 45442.00
1073.332, 45695.00
1074.435, 46067.00
1075.537, 46670.00
1076.639, 46796.00
1077.741, 47548.00
1078.843, 47922.00
1079.945, 48690.00
1081.046, 49124.00
1082.148, 50279.00
1083.249, 50641.00
1084.350, 51154.00
1085.451, 52116.00
1086.551, 52412.00
1087.652, 52765.00
1088.752, 53215.00
1089.853, 53070.00
1090.953, 52800.00
1092.053, 52797.00
1093.152, 52305.00
1094.252, 51690.00
1095.351, 51244.00
1096.451, 50479.00
1097.550, 49934.00
1098.649, 49476.00
1099.748, 49054.00
1100.846, 48118.00
1101.945, 47726.00
1103.043, 47126.00
1104.141, 46673.00
1105.239, 46560.00
1106.337, 45931.00
1107.434, 45655.00
1108.532, 45349.00
1109.629, 45256.00
1110.726, 44743.00
1111.823, 44589.00
1112.920, 44718.00
1114.017, 44134.00
1115.113, 44155.00
1116.210, 43951.00
1117.306, 44059.00
1118.402, 43375.00
1119.498, 43576.00
1120.593, 43767.00
1121.689, 43812.00
1122.784, 43566.00
1123.879, 43265.00
1124.974, 43392.00
1126.069, 43432.00
1127.164, 43688.00
1128.259, 43312.00
1129.353, 43245.00
1130.447, 42930.00
1131.541, 43076.00
1132.635, 43059.00
1133.729, 42928.00
1134.822, 43188.00
1135.916, 43060.00
1137.009, 42789.00
1138.102, 42967.00
1139.195, 43178.00
1140.288, 43020.00
1141.380, 43122.00
1142.473, 43138.00
1143.565, 42892.00
1144.657, 42906.00
1145.749, 42840.00
1146.841, 42791.00
1147.932, 42959.00
1149.024, 43000.00
1150.115, 42836.00
1151.206, 43032.00
1152.297, 42770.00
1153.388, 42947.00
1154.479, 42890.00
1155.569, 42956.00
1156.659, 42812.00
1157.750, 42731.00
1158.839, 42529.00
1159.929, 42595.00
1161.019, 43056.00
1162.108, 42640.00
1163.198, 42848.00
1164.287, 42766.00
1165.376, 43146.00
1166.465, 42909.00
1167.553, 42961.00
1168.642, 42825.00
1169.730, 42863.00
1170.818, 43041.00
1171.906, 42533.00
1172.994, 42442.00
1174.082, 42762.00
1175.170, 42806.00
1176.257, 42497.00
1177.344, 42572.00
1178.431, 42549.00
1179.518, 42336.00
1180.605, 42410.00
1181.691, 42437.00
1182.778, 42392.00
1183.864, 42449.00
1184.950, 42538.00
1186.036, 42026.00
1187.122, 42236.00
1188.207, 41943.00
1189.292, 42097.00
1190.378, 42096.00
1191.463, 42287.00
1192.548, 42062.00
1193.632, 41987.00
1194.717, 42347.00
1195.801, 41915.00
1196.886, 41812.00
1197.970, 41961.00
1199.054, 41830.00
1200.137, 42239.00
1201.221, 41891.00
1202.305, 41935.00
1203.388, 41453.00
1204.471, 41730.00
1205.554, 41807.00
1206.637, 42000.00
1207.719, 41811.00
1208.802, 41921.00
1209.884, 41937.00
1210.966, 41734.00
1212.048, 41560.00
1213.130, 41771.00
1214.212, 41513.00
1215.293, 41674.00
1216.374, 41667.00
1217.456, 41695.00
1218.536, 41512.00
1219.617, 41630.00
1220.698, 41629.00
1221.778, 41378.00
1222.859, 41848.00
1223.939, 41658.00
1225.019, 41895.00
1226.099, 43014.00
1227.178, 42163.00
1228.258, 41511.00
1229.337, 41391.00
1230.417, 41647.00
1231.496, 41581.00
1232.574, 41452.00
1233.653, 41343.00
1234.732, 41549.00
1235.810, 41419.00
1236.888, 41479.00
1237.966, 41274.00
1239.044, 41594.00
1240.122, 41375.00
1241.199, 41361.00
1242.277, 41212.00
1243.354, 41398.00
1244.431, 41349.00
1245.508, 41415.00
1246.585, 41031.00
1247.661, 41525.00
1248.738, 41477.00
1249.814, 41526.00
1250.890, 41145.00
1251.966, 41522.00
1253.042, 41344.00
1254.117, 41064.00
1255.193, 41202.00
1256.268, 41320.00
1257.343, 41135.00
1258.418, 40887.00
1259.493, 40873.00
1260.567, 41113.00
1261.642, 40953.00
1262.716, 41325.00
1263.790, 41479.00
1264.864, 41360.00
1265.938, 41125.00
1267.011, 41082.00
1268.085, 41205.00
1269.158, 41206.00
1270.231, 40948.00
1271.304, 41270.00
1272.377, 41046.00
1273.450, 41256.00
1274.522, 41117.00
1275.594, 40872.00
1276.666, 41140.00
1277.738, 41065.00
1278.810, 41024.00
1279.882, 40987.00
1280.953, 41270.00
1282.025, 41197.00
1283.096, 41045.00
1284.167, 41066.00
1285.238, 41077.00
1286.308, 41044.00
1287.379, 40980.00
1288.449, 41129.00
1289.519, 40988.00
1290.589, 41030.00
1291.659, 41133.00
1292.729, 40907.00
1293.798, 40783.00
1294.868, 40823.00
