##NAMES=Catapleiite
##RRUFFID=R040005
##IDEAL CHEMISTRY=Na_2_Zr^4+^Si_3_O_9_&#183;2H_2_O
##LOCALITY=Langesundsfjord Eikaholmen Vestfold, Norway
##OWNER=RRUFF
##SOURCE=University of Arizona Mineral Museum
##DESCRIPTION=Brown thin tabular crystal
##STATUS=The identification of this mineral has been confirmed by X-ray diffraction and chemical analysis
##URL=rruff.info/R040005
##MEASURED CHEMISTRY=(Na_1.28_Ca_0.36_[box]_0.36_)_Σ=2_Zr_1.00_Si_3.00_O_9_·2H_2_O
##PIN_ID=L00558
##ORIENTATION=Laser parallel to a* (1 0 0). Fiducial mark perpendicular to laser is parallel to -b [0 -1 0]
120.5960, 29019.00
121.8270, 28969.00
123.0580, 29173.00
124.2880, 29135.00
125.5190, 29014.00
126.7490, 29112.00
127.9790, 29213.00
129.2090, 29224.00
130.4390, 29239.00
131.6680, 29389.00
132.8980, 29317.00
134.1270, 29621.00
135.3560, 29511.00
136.5850, 29690.00
137.8140, 29839.00
139.0430, 30108.00
140.2710, 30135.00
141.5000, 30039.00
142.7280, 30243.00
143.9560, 30325.00
145.1840, 30447.00
146.4120, 30503.00
147.6390, 30616.00
148.8670, 30543.00
150.0940, 30524.00
151.3210, 30524.00
152.5490, 30591.00
153.7750, 30655.00
155.0020, 30798.00
156.2290, 30648.00
157.4550, 30704.00
158.6810, 30603.00
159.9080, 30593.00
161.1340, 30708.00
162.3590, 30502.00
163.5850, 30483.00
164.8110, 30903.00
166.0360, 30859.00
167.2610, 31118.00
168.4860, 30875.00
169.7110, 30828.00
170.9360, 31052.00
172.1610, 31220.00
173.3850, 30868.00
174.6100, 31230.00
175.8340, 31093.00
177.0580, 31334.00
178.2820, 31202.00
179.5050, 31346.00
180.7290, 31214.00
181.9520, 31409.00
183.1760, 31489.00
184.3990, 31712.00
185.6220, 31590.00
186.8450, 31937.00
188.0670, 31998.00
189.2900, 32266.00
190.5120, 32133.00
191.7340, 32255.00
192.9560, 32360.00
194.1780, 32461.00
195.4000, 32692.00
196.6220, 32979.00
197.8430, 32921.00
199.0640, 33328.00
200.2860, 33357.00
201.5070, 33441.48
202.7270, 33682.00
203.9480, 33546.00
205.1690, 33614.00
206.3890, 33639.00
207.6090, 33666.00
208.8290, 33713.89
210.0490, 34009.00
211.2690, 33713.00
212.4890, 33806.00
213.7080, 33649.00
214.9280, 33330.00
216.1470, 33276.00
217.3660, 32828.00
218.5850, 32567.00
219.8030, 32414.00
221.0220, 32067.00
222.2400, 31756.00
223.4590, 31609.00
224.6770, 31491.00
225.8950, 31099.00
227.1120, 31318.00
228.3300, 30804.00
229.5480, 30567.00
230.7650, 30814.00
231.9820, 30790.00
233.1990, 30425.00
234.4160, 30293.00
235.6330, 30319.00
236.8490, 30404.00
238.0660, 30385.00
239.2820, 29978.00
240.4980, 29951.00
241.7140, 30004.00
242.9300, 30114.00
244.1460, 30046.00
245.3610, 29807.00
246.5770, 29759.00
247.7920, 29683.00
249.0070, 29871.00
250.2220, 29885.00
251.4370, 29724.00
252.6510, 30013.00
253.8660, 29843.00
255.0800, 29669.00
256.2940, 29742.00
257.5080, 29717.00
258.7220, 29762.00
259.9360, 29637.21
261.1490, 29600.00
262.3630, 29452.00
263.5760, 29483.00
264.7890, 29626.00
266.0020, 29683.00
267.2150, 29441.00
268.4270, 29513.00
269.6400, 29372.00
270.8520, 29373.00
272.0640, 29415.80
273.2760, 29406.00
274.4880, 29511.00
275.7000, 29529.00
276.9120, 29574.00
278.1230, 29606.63
279.3340, 29577.00
280.5450, 29589.00
281.7560, 29580.00
282.9670, 29601.48
284.1780, 29639.00
285.3880, 29663.00
286.5980, 29596.00
287.8090, 29627.00
289.0190, 29604.00
290.2290, 29739.00
291.4380, 29773.00
292.6480, 29863.00
293.8570, 29943.12
295.0670, 29943.00
296.2760, 30081.00
297.4850, 29983.00
298.6930, 30020.00
299.9020, 30041.00
301.1110, 30063.00
302.3190, 30255.00
303.5270, 30056.00
304.7350, 30472.00
305.9430, 30181.00
307.1510, 30571.00
308.3580, 30249.00
309.5660, 30427.00
310.7730, 30663.00
311.9800, 30530.00
313.1870, 30393.00
314.3940, 30598.00
315.6010, 30479.00
316.8070, 30796.00
318.0130, 30574.00
319.2200, 30648.00
320.4260, 30524.00
321.6310, 30696.00
322.8370, 30352.00
324.0430, 30711.00
325.2480, 30960.00
326.4540, 30898.00
327.6590, 30771.00
328.8640, 30654.00
330.0680, 30757.00
331.2730, 30748.00
332.4780, 30711.00
333.6820, 30844.00
334.8860, 30866.00
336.0900, 30996.00
337.2940, 30851.00
338.4980, 30822.00
339.7010, 31350.00
340.9050, 31089.84
342.1080, 31201.60
343.3110, 30943.00
344.5140, 31192.00
345.7170, 31020.00
346.9200, 31185.00
348.1220, 31053.00
349.3240, 31171.00
350.5270, 31116.00
351.7290, 31322.00
352.9310, 31390.00
354.1320, 31252.00
355.3340, 31334.00
356.5350, 31520.00
357.7370, 31590.00
358.9380, 31557.00
360.1390, 31593.00
361.3400, 31457.00
362.5400, 31502.00
363.7410, 31718.00
364.9410, 31341.00
366.1410, 31674.00
367.3410, 31674.00
368.5410, 31602.00
369.7410, 31744.00
370.9400, 31698.00
372.1400, 31505.00
373.3390, 31665.00
374.5380, 31719.00
375.7370, 31763.00
376.9360, 31582.00
378.1350, 31742.00
379.3330, 31543.00
380.5310, 31664.00
381.7300, 31573.00
382.9280, 31637.00
384.1260, 31563.00
385.3230, 31640.00
386.5210, 31731.34
387.7180, 31685.00
388.9160, 31907.00
390.1130, 31735.00
391.3100, 31651.00
392.5060, 31629.00
393.7030, 31869.00
394.9000, 31942.00
396.0960, 31992.88
397.2920, 32044.30
398.4880, 32086.00
399.6840, 31994.00
400.8800, 32003.00
402.0750, 31937.00
403.2710, 31916.47
404.4660, 31882.00
405.6610, 31916.00
406.8560, 31989.00
408.0510, 32074.00
409.2450, 32168.86
410.4400, 32529.00
411.6340, 32291.00
412.8280, 32492.00
414.0220, 32329.00
415.2160, 32768.00
416.4100, 32541.00
417.6030, 32741.00
418.7970, 32832.00
419.9900, 32879.00
421.1830, 32995.00
422.3760, 33179.00
423.5690, 33324.00
424.7610, 33525.00
425.9540, 33846.00
427.1460, 33869.00
428.3380, 34259.00
429.5300, 34368.00
430.7220, 34886.00
431.9140, 35017.00
433.1050, 35242.00
434.2970, 35746.00
435.4880, 35907.00
436.6790, 36030.00
437.8700, 36400.00
439.0610, 36514.00
440.2510, 36570.00
441.4420, 36544.00
442.6320, 36518.00
443.8220, 36308.00
445.0120, 35875.00
446.2020, 35923.00
447.3910, 35639.00
448.5810, 35078.00
449.7700, 34925.00
450.9600, 34982.00
452.1490, 34306.00
453.3370, 34131.00
454.5260, 33955.00
455.7150, 33622.00
456.9030, 33601.00
458.0910, 33436.00
459.2800, 33190.00
460.4670, 32970.00
461.6550, 32938.00
462.8430, 32929.00
464.0300, 32907.00
465.2180, 33019.00
466.4050, 32855.00
467.5920, 32845.16
468.7790, 32672.00
469.9650, 32662.00
471.1520, 32693.00
472.3380, 32573.00
473.5250, 32605.01
474.7110, 32450.00
475.8970, 32577.00
477.0820, 32507.00
478.2680, 32471.00
479.4540, 32546.00
480.6390, 32493.99
481.8240, 32506.00
483.0090, 32509.00
484.1940, 32584.00
485.3780, 32637.00
486.5630, 32690.00
487.7470, 32256.00
488.9320, 32541.00
490.1160, 32564.00
491.3000, 32425.00
492.4830, 32707.00
493.6670, 32424.00
494.8500, 32558.00
496.0340, 32552.00
497.2170, 32843.00
498.4000, 32820.00
499.5820, 32905.51
500.7650, 32858.00
501.9480, 32965.00
503.1300, 32914.00
504.3120, 32882.00
505.4940, 33092.00
506.6760, 33235.00
507.8580, 33154.00
509.0390, 33318.00
510.2210, 33535.00
511.4020, 33600.00
512.5830, 33860.00
513.7640, 33561.00
514.9450, 33671.00
516.1250, 33598.00
517.3060, 33899.00
518.4860, 33892.00
519.6660, 34129.00
520.8460, 33741.00
522.0260, 33884.00
523.2060, 33715.00
524.3850, 34081.00
525.5650, 33738.00
526.7440, 33877.00
527.9230, 33846.00
529.1020, 33923.00
530.2810, 33619.00
531.4590, 33479.00
532.6380, 33673.00
533.8160, 33563.00
534.9940, 33734.00
536.1720, 33645.00
537.3500, 33455.00
538.5270, 33666.00
539.7050, 33390.00
540.8820, 33505.00
542.0590, 33540.00
543.2360, 33498.00
544.4130, 33461.00
545.5900, 33344.00
546.7660, 33411.30
547.9430, 33312.00
549.1190, 33523.00
550.2950, 33554.00
551.4710, 33622.00
552.6470, 33622.00
553.8220, 33637.00
554.9980, 33920.00
556.1730, 33999.00
557.3480, 34076.00
558.5230, 34138.00
559.6980, 34263.00
560.8730, 34619.00
562.0470, 34560.00
563.2220, 34992.00
564.3960, 35345.00
565.5700, 35399.00
566.7440, 35558.00
567.9170, 36145.00
569.0910, 36512.00
570.2640, 36435.00
571.4380, 36940.00
572.6110, 37127.00
573.7840, 37335.00
574.9570, 37483.00
576.1290, 37513.00
577.3020, 37230.00
578.4740, 37096.00
579.6460, 36693.00
580.8180, 36758.00
581.9900, 36447.00
583.1620, 36189.00
584.3330, 35728.00
585.5040, 35514.00
586.6760, 35251.00
587.8470, 35139.00
589.0180, 34928.20
590.1880, 34841.00
591.3590, 34649.00
592.5290, 34572.00
593.7000, 34547.00
594.8700, 34439.00
596.0400, 34575.00
597.2090, 34518.75
598.3790, 34295.00
599.5490, 34542.00
600.7180, 34413.00
601.8870, 34407.00
603.0560, 34227.00
604.2250, 34393.00
605.3940, 34478.00
606.5620, 34573.00
607.7300, 34586.00
608.8990, 34405.00
610.0670, 34676.00
611.2350, 34872.00
612.4020, 34737.00
613.5700, 35001.00
614.7370, 35307.00
615.9050, 35299.00
617.0720, 35357.00
618.2390, 35514.00
619.4060, 36022.00
620.5720, 36372.00
621.7390, 36509.00
622.9050, 37299.00
624.0710, 37707.00
625.2370, 38133.00
626.4030, 38799.00
627.5690, 39363.00
628.7340, 40211.00
629.9000, 40617.00
631.0650, 41116.00
632.2300, 41351.00
633.3950, 41363.00
634.5600, 41082.00
635.7240, 40845.00
636.8890, 39710.00
638.0530, 39242.00
639.2170, 38629.00
640.3810, 38053.00
641.5450, 37408.00
642.7080, 36899.00
643.8720, 36429.00
645.0350, 35915.00
646.1980, 35579.00
647.3610, 35557.00
648.5240, 35229.00
649.6870, 35051.00
650.8490, 35123.00
652.0120, 34937.00
653.1740, 34976.00
654.3360, 34862.00
655.4980, 34659.00
656.6600, 34728.00
657.8210, 34635.00
658.9830, 34712.00
660.1440, 34620.00
661.3050, 34622.04
662.4660, 34650.00
663.6270, 34581.00
664.7870, 34727.00
665.9480, 34689.00
667.1080, 34794.00
668.2680, 34594.00
669.4280, 34751.00
670.5880, 34801.00
671.7480, 34713.00
672.9070, 34466.00
674.0670, 34930.00
675.2260, 34509.00
676.3850, 34489.00
677.5440, 34764.00
678.7030, 34431.00
679.8610, 34718.00
681.0200, 34837.00
682.1780, 34927.00
683.3360, 34627.00
684.4940, 34729.00
685.6520, 35054.00
686.8090, 34787.00
687.9670, 35178.00
689.1240, 34664.00
690.2810, 35015.00
691.4380, 35150.00
692.5950, 34958.00
693.7520, 34992.00
694.9080, 35084.00
696.0650, 34977.00
697.2210, 34880.00
698.3770, 34988.00
699.5330, 35176.00
700.6880, 35150.00
701.8440, 35284.00
702.9990, 35009.00
704.1550, 35245.00
705.3100, 35140.00
706.4650, 35111.00
707.6190, 35371.00
708.7740, 35223.00
709.9290, 35214.00
711.0830, 35445.00
712.2370, 35274.00
713.3910, 35478.00
714.5450, 35678.00
715.6980, 35360.00
716.8520, 35569.00
718.0050, 35528.00
719.1580, 35558.00
720.3110, 35626.00
721.4640, 35853.00
722.6170, 35742.00
723.7700, 35874.00
724.9220, 35719.00
726.0740, 35842.00
727.2260, 35851.00
728.3780, 35980.00
729.5300, 35995.00
730.6810, 36055.00
731.8330, 36149.00
732.9840, 36105.22
734.1350, 36193.57
735.2860, 35946.00
736.4370, 36355.00
737.5880, 36097.00
738.7380, 36292.00
739.8880, 36402.00
741.0390, 36105.00
742.1890, 36260.00
743.3380, 36282.00
744.4880, 36544.00
745.6380, 36152.00
746.7870, 36363.00
747.9360, 36221.00
749.0850, 36248.00
750.2340, 36340.00
751.3830, 36330.00
752.5310, 36345.42
753.6800, 36357.00
754.8280, 36313.00
755.9760, 36390.00
757.1240, 36356.00
758.2720, 36397.72
759.4190, 36520.00
760.5670, 36484.00
761.7140, 36515.00
762.8610, 36586.00
764.0080, 36548.29
765.1550, 36498.00
766.3020, 36526.00
767.4480, 36448.00
768.5950, 36423.00
769.7410, 36447.00
770.8870, 36458.00
772.0330, 36402.00
773.1780, 36525.00
774.3240, 36597.00
775.4690, 36910.00
776.6140, 36400.00
777.7590, 36490.00
778.9040, 36727.00
780.0490, 36592.00
781.1940, 36736.00
782.3380, 36442.00
783.4820, 36549.00
784.6260, 36624.00
785.7700, 36708.00
786.9140, 36853.00
788.0580, 36801.00
789.2010, 36791.00
790.3450, 36690.00
791.4880, 36774.00
792.6310, 36841.00
793.7730, 36640.00
794.9160, 36780.00
796.0590, 36850.00
797.2010, 37007.00
798.3430, 37015.00
799.4850, 36544.00
800.6270, 36895.00
801.7690, 36683.00
802.9100, 37002.00
804.0520, 37070.00
805.1930, 36870.00
806.3340, 37070.00
807.4750, 36952.00
808.6160, 36973.00
809.7560, 36907.00
810.8970, 36994.00
812.0370, 37046.00
813.1770, 37050.00
814.3170, 36997.00
815.4570, 37050.84
816.5960, 37056.46
817.7360, 37141.00
818.8750, 37113.00
820.0140, 37248.00
821.1530, 37262.00
822.2920, 37140.00
823.4310, 37018.00
824.5690, 37251.00
825.7070, 37078.00
826.8460, 37261.00
827.9840, 37252.07
829.1220, 37291.00
830.2590, 37182.00
831.3970, 37492.00
832.5340, 37297.00
833.6710, 37420.00
834.8080, 37594.00
835.9450, 37469.00
837.0820, 37305.00
838.2190, 37536.00
839.3550, 37215.00
840.4910, 37621.00
841.6270, 37412.00
842.7630, 37613.00
843.8990, 37383.00
845.0350, 37567.00
846.1700, 37508.00
847.3060, 37479.00
848.4410, 37736.00
849.5760, 37583.00
850.7100, 37615.00
851.8450, 37549.00
852.9800, 37607.00
854.1140, 37679.00
855.2480, 37647.00
856.3820, 37683.00
857.5160, 37462.00
858.6500, 37776.00
859.7830, 37681.00
860.9170, 37836.00
862.0500, 37932.00
863.1830, 37807.00
864.3160, 37843.00
865.4480, 37705.00
866.5810, 37638.00
867.7130, 37882.00
868.8460, 37988.00
869.9780, 37759.00
871.1100, 38096.00
872.2410, 38107.00
873.3730, 37819.00
874.5050, 38168.00
875.6360, 37964.00
876.7670, 37812.00
877.8980, 37744.00
879.0290, 37657.00
880.1590, 37726.34
881.2900, 38142.00
882.4200, 37956.00
883.5500, 37929.00
884.6800, 38063.00
885.8100, 37895.00
886.9400, 38391.00
888.0690, 38233.00
889.1990, 38225.00
890.3280, 38048.00
891.4570, 38339.00
892.5860, 38267.00
893.7140, 38464.00
894.8430, 38562.84
895.9710, 38294.00
897.1000, 38721.00
898.2280, 38528.00
899.3560, 38497.00
900.4830, 38937.00
901.6110, 39056.00
902.7380, 38970.00
903.8660, 38954.00
904.9930, 39293.00
906.1200, 39362.00
907.2460, 39745.00
908.3730, 39684.00
909.5000, 39771.00
910.6260, 40040.00
911.7520, 39873.00
912.8780, 39927.00
914.0040, 40011.00
915.1290, 40238.00
916.2550, 40438.00
917.3800, 40327.00
918.5050, 40532.00
919.6300, 40692.00
920.7550, 40692.00
921.8800, 41196.00
923.0040, 41294.00
924.1290, 41626.00
925.2530, 41499.00
926.3770, 42069.00
927.5010, 42288.00
928.6250, 42575.00
929.7480, 42869.00
930.8720, 43008.00
931.9950, 43244.00
933.1180, 43370.00
934.2410, 43471.00
935.3640, 43668.00
936.4860, 43777.00
937.6090, 43704.67
938.7310, 43845.00
939.8530, 43504.00
940.9750, 43195.00
942.0970, 43106.00
943.2180, 42726.00
944.3400, 42140.00
945.4610, 41931.00
946.5820, 41691.00
947.7030, 41506.00
948.8240, 41275.93
949.9450, 41197.00
951.0650, 40825.00
952.1860, 40928.00
953.3060, 40701.00
954.4260, 40490.00
955.5460, 40519.00
956.6650, 40151.00
957.7850, 40263.00
958.9040, 40114.00
960.0230, 40063.00
961.1420, 40470.00
962.2610, 40289.00
963.3800, 40461.00
964.4990, 40288.00
965.6170, 40803.00
966.7350, 40587.00
967.8530, 40649.00
968.9710, 41020.00
970.0890, 41519.00
971.2070, 41380.00
972.3240, 41631.00
973.4410, 42108.00
974.5580, 42160.00
975.6750, 42625.00
976.7920, 43028.00
977.9090, 43561.00
979.0250, 44213.00
980.1410, 44750.00
981.2580, 45479.58
982.3740, 46206.00
983.4890, 47008.00
984.6050, 48020.00
985.7200, 48926.00
986.8360, 50067.00
987.9510, 51216.00
989.0660, 52207.00
990.1810, 53741.00
991.2950, 54795.00
992.4100, 55995.00
993.5240, 56657.00
994.6390, 58076.00
995.7530, 58712.00
996.8660, 59877.00
997.9800, 60616.00
999.0940, 60730.00
1000.207, 60913.00
1001.320, 60841.00
1002.433, 60284.00
1003.546, 59420.00
1004.659, 59097.00
1005.772, 58245.00
1006.884, 57304.00
1007.996, 56333.00
1009.108, 55453.00
1010.220, 54264.00
1011.332, 53194.00
1012.444, 52063.00
1013.555, 51064.00
1014.666, 50422.00
1015.777, 49773.00
1016.888, 48589.00
1017.999, 48147.00
1019.110, 47186.00
1020.220, 46245.00
1021.331, 46121.00
1022.441, 45702.00
1023.551, 44688.00
1024.661, 44463.00
1025.770, 43985.00
1026.880, 43483.00
1027.989, 43237.00
1029.098, 43256.00
1030.207, 42885.00
1031.316, 42747.00
1032.425, 42222.00
1033.533, 42072.00
1034.642, 42007.00
1035.750, 41770.00
1036.858, 41680.00
1037.966, 41617.44
1039.073, 41478.00
1040.181, 41475.00
1041.288, 41507.00
1042.396, 41323.00
1043.503, 41261.00
1044.610, 41327.00
1045.716, 41043.00
1046.823, 41293.00
1047.929, 41232.00
1049.036, 41254.00
1050.142, 41208.00
1051.248, 40972.00
1052.353, 41112.00
1053.459, 41020.00
1054.564, 40711.00
1055.670, 40791.00
1056.775, 40594.00
1057.880, 40493.00
1058.985, 40346.00
1060.089, 40169.00
1061.194, 40163.41
1062.298, 40101.00
1063.402, 40189.00
1064.506, 40033.00
1065.610, 40149.00
1066.713, 39989.00
1067.817, 40000.43
1068.920, 40168.00
1070.023, 40001.00
1071.126, 40103.00
1072.229, 40171.00
1073.332, 40211.00
1074.435, 40402.48
1075.537, 40696.00
1076.639, 40770.00
1077.741, 40948.00
1078.843, 41124.00
1079.945, 41338.43
1081.046, 41712.00
1082.148, 41963.00
1083.249, 42142.00
1084.350, 42702.00
1085.451, 43166.00
1086.551, 43318.00
1087.652, 43509.00
1088.752, 43546.00
1089.853, 43481.00
1090.953, 43700.00
1092.053, 43344.00
1093.152, 43407.00
1094.252, 42869.00
1095.351, 42757.00
1096.451, 42421.00
1097.550, 41979.00
1098.649, 41889.00
1099.748, 41528.00
1100.846, 40997.00
1101.945, 41027.00
1103.043, 40792.00
1104.141, 40450.00
1105.239, 40447.00
1106.337, 40101.00
1107.434, 39839.00
1108.532, 39845.00
1109.629, 39611.00
1110.726, 39832.00
1111.823, 39600.00
1112.920, 39497.00
1114.017, 39186.00
1115.113, 39253.00
1116.210, 39194.00
1117.306, 38936.00
1118.402, 39068.00
1119.498, 39169.00
1120.593, 39119.00
1121.689, 38947.00
1122.784, 38766.00
1123.879, 39124.00
1124.974, 38941.00
1126.069, 39091.00
1127.164, 38805.00
1128.259, 38758.00
1129.353, 38745.00
1130.447, 38934.00
1131.541, 38766.00
1132.635, 38796.00
1133.729, 38685.00
1134.822, 38881.00
1135.916, 38667.00
1137.009, 38851.00
1138.102, 38609.00
1139.195, 38517.00
1140.288, 38658.00
1141.380, 38495.00
1142.473, 39049.00
1143.565, 38649.00
1144.657, 38699.00
1145.749, 38413.00
1146.841, 38665.00
1147.932, 38761.00
1149.024, 38429.00
1150.115, 38521.00
1151.206, 38504.00
1152.297, 38768.00
1153.388, 38573.00
1154.479, 38646.00
1155.569, 38545.00
1156.659, 38261.00
1157.750, 38490.00
1158.839, 38402.00
1159.929, 38632.00
1161.019, 38393.00
1162.108, 38581.00
1163.198, 38634.00
1164.287, 38676.00
1165.376, 38625.00
1166.465, 38579.00
1167.553, 38611.00
1168.642, 38436.00
1169.730, 38362.00
1170.818, 38735.00
1171.906, 38554.00
1172.994, 38475.00
1174.082, 38502.00
1175.170, 38347.00
1176.257, 38725.00
1177.344, 38481.00
1178.431, 38541.00
1179.518, 38323.00
1180.605, 38460.00
1181.691, 38394.00
1182.778, 38139.00
1183.864, 38367.00
1184.950, 38285.00
1186.036, 38099.00
1187.122, 38229.00
1188.207, 38145.00
1189.292, 38174.00
1190.378, 38122.00
1191.463, 38100.00
1192.548, 38158.00
1193.632, 38179.00
1194.717, 38148.55
1195.801, 38079.00
1196.886, 38106.00
1197.970, 38085.00
1199.054, 38096.00
1200.137, 38175.00
1201.221, 38283.00
1202.305, 38228.35
1203.388, 38221.96
1204.471, 38170.00
1205.554, 38046.00
1206.637, 38048.00
1207.719, 37895.00
1208.802, 38021.00
1209.884, 38255.00
1210.966, 38015.00
1212.048, 38284.00
1213.130, 38096.00
1214.212, 37949.00
1215.293, 37828.00
1216.374, 38084.00
1217.456, 37914.00
1218.536, 37960.00
1219.617, 37771.00
1220.698, 37823.36
1221.778, 38026.00
1222.859, 37932.00
1223.939, 37991.00
1225.019, 38116.00
1226.099, 37880.00
1227.178, 37820.00
1228.258, 37617.00
1229.337, 37684.00
1230.417, 37964.00
1231.496, 37954.00
1232.574, 37748.00
1233.653, 37811.00
1234.732, 37599.00
1235.810, 37589.00
1236.888, 37870.00
1237.966, 37655.00
1239.044, 37912.00
1240.122, 37852.00
1241.199, 37749.00
1242.277, 37642.00
1243.354, 37727.00
1244.431, 37687.00
1245.508, 37869.00
1246.585, 37756.00
1247.661, 37818.00
1248.738, 37730.00
1249.814, 37894.00
1250.890, 37877.00
1251.966, 37501.00
1253.042, 37628.00
1254.117, 37572.00
1255.193, 37505.00
1256.268, 37734.00
1257.343, 37456.00
1258.418, 37610.00
1259.493, 37462.00
1260.567, 37795.00
1261.642, 37820.00
1262.716, 37991.00
1263.790, 37618.00
1264.864, 37853.00
1265.938, 37828.00
1267.011, 37581.00
1268.085, 37558.00
1269.158, 37887.00
1270.231, 37559.00
1271.304, 37567.00
1272.377, 37704.00
1273.450, 37521.00
1274.522, 37639.00
1275.594, 37585.00
1276.666, 37314.00
1277.738, 37840.00
1278.810, 37802.00
1279.882, 37600.00
1280.953, 37562.00
1282.025, 37666.00
1283.096, 37526.00
1284.167, 37755.00
1285.238, 37568.00
1286.308, 37669.00
1287.379, 37514.00
1288.449, 37640.00
1289.519, 37683.00
1290.589, 37671.28
1291.659, 37739.00
1292.729, 37779.00
1293.798, 37698.00
1294.868, 37828.00
