##NAMES=Catapleiite
##RRUFFID=R040005
##IDEAL CHEMISTRY=Na_2_Zr^4+^Si_3_O_9_&#183;2H_2_O
##LOCALITY=Langesundsfjord Eikaholmen Vestfold, Norway
##OWNER=RRUFF
##SOURCE=University of Arizona Mineral Museum
##DESCRIPTION=Brown thin tabular crystal
##STATUS=The identification of this mineral has been confirmed by X-ray diffraction and chemical analysis
##URL=rruff.info/R040005
##MEASURED CHEMISTRY=(Na_1.28_Ca_0.36_[box]_0.36_)_Σ=2_Zr_1.00_Si_3.00_O_9_·2H_2_O
##PIN_ID=L01591
##ORIENTATION=Laser parallel to b* (0 1 0). Fiducial mark perpendicular to laser is parallel to -c [0 0 -1]
120.5960, 22691.00
121.8270, 22537.00
123.0580, 22447.00
124.2880, 22344.00
125.5190, 22304.00
126.7490, 22298.10
127.9790, 22290.00
129.2090, 22358.00
130.4390, 22330.00
131.6680, 22375.00
132.8980, 22577.00
134.1270, 22451.00
135.3560, 22564.00
136.5850, 22845.00
137.8140, 22733.00
139.0430, 23137.00
140.2710, 23268.00
141.5000, 23314.00
142.7280, 23173.00
143.9560, 23384.00
145.1840, 23559.00
146.4120, 23477.00
147.6390, 23526.00
148.8670, 23727.00
150.0940, 23670.25
151.3210, 23844.00
152.5490, 23747.00
153.7750, 23811.00
155.0020, 23889.00
156.2290, 23793.00
157.4550, 23821.00
158.6810, 23739.00
159.9080, 23765.85
161.1340, 23813.00
162.3590, 23791.00
163.5850, 23791.00
164.8110, 23738.00
166.0360, 23746.71
167.2610, 23768.00
168.4860, 23742.00
169.7110, 23822.00
170.9360, 23827.00
172.1610, 23777.00
173.3850, 23886.00
174.6100, 23992.00
175.8340, 23850.00
177.0580, 23982.00
178.2820, 24228.00
179.5050, 24119.00
180.7290, 24322.00
181.9520, 24336.00
183.1760, 24544.00
184.3990, 24646.00
185.6220, 24670.00
186.8450, 24874.00
188.0670, 24874.00
189.2900, 24890.00
190.5120, 25415.00
191.7340, 25509.00
192.9560, 25762.00
194.1780, 26197.00
195.4000, 26153.00
196.6220, 26394.00
197.8430, 26520.00
199.0640, 26732.00
200.2860, 26872.00
201.5070, 27082.00
202.7270, 27197.27
203.9480, 27383.00
205.1690, 27443.00
206.3890, 27526.00
207.6090, 27684.00
208.8290, 27848.00
210.0490, 27906.00
211.2690, 27723.00
212.4890, 27990.00
213.7080, 27499.00
214.9280, 27341.00
216.1470, 26826.00
217.3660, 26538.00
218.5850, 26019.00
219.8030, 25397.00
221.0220, 25079.00
222.2400, 24475.00
223.4590, 24301.00
224.6770, 23739.00
225.8950, 23491.00
227.1120, 23306.00
228.3300, 22986.00
229.5480, 22673.00
230.7650, 22610.00
231.9820, 22443.00
233.1990, 22323.00
234.4160, 22155.00
235.6330, 22134.00
236.8490, 21900.00
238.0660, 21651.00
239.2820, 21704.00
240.4980, 21562.00
241.7140, 21538.00
242.9300, 21347.00
244.1460, 21332.00
245.3610, 21321.00
246.5770, 21170.00
247.7920, 21091.00
249.0070, 21071.00
250.2220, 21031.00
251.4370, 20900.00
252.6510, 21055.00
253.8660, 20846.00
255.0800, 20838.00
256.2940, 20933.00
257.5080, 21103.00
258.7220, 21274.00
259.9360, 21427.00
261.1490, 20880.00
262.3630, 20726.00
263.5760, 20729.00
264.7890, 20706.00
266.0020, 20634.35
267.2150, 20424.00
268.4270, 20552.00
269.6400, 20468.00
270.8520, 20411.00
272.0640, 20560.00
273.2760, 20517.00
274.4880, 20569.00
275.7000, 20656.00
276.9120, 20467.00
278.1230, 20496.00
279.3340, 20431.00
280.5450, 20412.00
281.7560, 20410.00
282.9670, 20333.00
284.1780, 20544.00
285.3880, 20563.00
286.5980, 20579.00
287.8090, 20574.00
289.0190, 20703.00
290.2290, 20717.74
291.4380, 20943.00
292.6480, 20857.00
293.8570, 21017.00
295.0670, 21137.00
296.2760, 21145.00
297.4850, 21187.00
298.6930, 21228.00
299.9020, 21349.00
301.1110, 21258.00
302.3190, 21446.00
303.5270, 21535.00
304.7350, 21389.00
305.9430, 21440.00
307.1510, 21498.00
308.3580, 21656.00
309.5660, 21487.00
310.7730, 21646.00
311.9800, 21612.00
313.1870, 21622.00
314.3940, 21575.00
315.6010, 21635.77
316.8070, 21706.00
318.0130, 21841.00
319.2200, 21916.00
320.4260, 21969.18
321.6310, 21982.00
322.8370, 22019.00
324.0430, 21839.00
325.2480, 21771.00
326.4540, 21888.00
327.6590, 21991.00
328.8640, 22041.00
330.0680, 21700.00
331.2730, 22004.00
332.4780, 21621.00
333.6820, 21941.00
334.8860, 21926.00
336.0900, 22012.00
337.2940, 21989.00
338.4980, 21905.00
339.7010, 22065.00
340.9050, 22048.00
342.1080, 22122.00
343.3110, 22175.00
344.5140, 22166.00
345.7170, 22263.00
346.9200, 21935.00
348.1220, 22146.00
349.3240, 22057.00
350.5270, 22316.00
351.7290, 22316.00
352.9310, 22450.00
354.1320, 22457.00
355.3340, 22631.00
356.5350, 22590.00
357.7370, 22559.00
358.9380, 22641.00
360.1390, 22640.45
361.3400, 22818.00
362.5400, 22732.00
363.7410, 22872.00
364.9410, 22914.00
366.1410, 23054.00
367.3410, 22909.00
368.5410, 22943.00
369.7410, 22905.00
370.9400, 22817.00
372.1400, 22888.00
373.3390, 22960.00
374.5380, 22894.00
375.7370, 22727.00
376.9360, 22903.00
378.1350, 22902.00
379.3330, 22537.00
380.5310, 22723.00
381.7300, 22573.00
382.9280, 22584.00
384.1260, 22663.00
385.3230, 22713.00
386.5210, 22629.00
387.7180, 22697.00
388.9160, 22715.00
390.1130, 22744.76
391.3100, 22786.00
392.5060, 22813.00
393.7030, 22885.00
394.9000, 22908.72
396.0960, 22972.00
397.2920, 22970.00
398.4880, 23065.00
399.6840, 23081.00
400.8800, 23101.97
402.0750, 23174.31
403.2710, 23232.34
404.4660, 23291.00
405.6610, 23409.00
406.8560, 23487.00
408.0510, 23596.00
409.2450, 23756.00
410.4400, 23710.00
411.6340, 23794.00
412.8280, 23958.00
414.0220, 24268.00
415.2160, 24417.00
416.4100, 24596.00
417.6030, 24736.00
418.7970, 25064.00
419.9900, 25319.00
421.1830, 25855.00
422.3760, 25853.00
423.5690, 26389.00
424.7610, 26773.00
425.9540, 27006.00
427.1460, 27483.00
428.3380, 27831.00
429.5300, 28183.00
430.7220, 28760.00
431.9140, 29230.00
433.1050, 29278.00
434.2970, 29748.00
435.4880, 29797.00
436.6790, 30081.00
437.8700, 29915.00
439.0610, 29964.00
440.2510, 29784.00
441.4420, 29697.00
442.6320, 29481.00
443.8220, 29006.00
445.0120, 28604.00
446.2020, 28297.00
447.3910, 27915.00
448.5810, 27273.00
449.7700, 26860.00
450.9600, 26451.00
452.1490, 26077.00
453.3370, 25644.00
454.5260, 25503.00
455.7150, 25044.00
456.9030, 24881.00
458.0910, 24637.00
459.2800, 24223.00
460.4670, 24076.00
461.6550, 24000.00
462.8430, 23902.00
464.0300, 23935.00
465.2180, 23970.00
466.4050, 23713.00
467.5920, 23739.00
468.7790, 23524.00
469.9650, 23751.00
471.1520, 23475.00
472.3380, 23562.00
473.5250, 23217.00
474.7110, 23307.00
475.8970, 23483.00
477.0820, 23244.00
478.2680, 23264.00
479.4540, 23274.00
480.6390, 23411.00
481.8240, 23275.00
483.0090, 23235.00
484.1940, 23153.00
485.3780, 23111.10
486.5630, 23133.69
487.7470, 23072.00
488.9320, 23216.00
490.1160, 23237.00
491.3000, 23296.00
492.4830, 23276.00
493.6670, 23423.00
494.8500, 23258.00
496.0340, 23537.00
497.2170, 23286.00
498.4000, 23507.00
499.5820, 23400.00
500.7650, 23604.00
501.9480, 23846.00
503.1300, 23750.00
504.3120, 23898.00
505.4940, 24055.00
506.6760, 24159.00
507.8580, 24302.00
509.0390, 24440.28
510.2210, 24565.66
511.4020, 24753.00
512.5830, 24762.00
513.7640, 24980.00
514.9450, 24930.00
516.1250, 25163.00
517.3060, 25153.00
518.4860, 25345.00
519.6660, 25189.00
520.8460, 25264.00
522.0260, 25394.00
523.2060, 25335.00
524.3850, 25249.00
525.5650, 25263.00
526.7440, 25137.00
527.9230, 25186.00
529.1020, 25172.00
530.2810, 24855.00
531.4590, 24799.00
532.6380, 24607.00
533.8160, 24698.00
534.9940, 24580.00
536.1720, 24571.00
537.3500, 24514.00
538.5270, 24330.00
539.7050, 24246.00
540.8820, 24280.00
542.0590, 24279.00
543.2360, 24210.00
544.4130, 24257.00
545.5900, 24236.00
546.7660, 24141.00
547.9430, 24289.00
549.1190, 24015.00
550.2950, 24452.00
551.4710, 24377.00
552.6470, 24281.00
553.8220, 24570.00
554.9980, 24727.00
556.1730, 24879.00
557.3480, 24974.00
558.5230, 25247.00
559.6980, 25451.00
560.8730, 25786.00
562.0470, 26033.00
563.2220, 26368.19
564.3960, 26625.00
565.5700, 27124.00
566.7440, 27552.00
567.9170, 28072.00
569.0910, 28330.00
570.2640, 28958.00
571.4380, 29173.00
572.6110, 29688.00
573.7840, 29811.00
574.9570, 30087.00
576.1290, 29944.00
577.3020, 29767.00
578.4740, 29393.00
579.6460, 28953.00
580.8180, 28630.00
581.9900, 28177.00
583.1620, 27612.00
584.3330, 27269.00
585.5040, 26693.00
586.6760, 26391.00
587.8470, 26009.00
589.0180, 25718.00
590.1880, 25432.00
591.3590, 25077.00
592.5290, 24996.00
593.7000, 24958.00
594.8700, 24938.00
596.0400, 24744.00
597.2090, 24790.00
598.3790, 24524.00
599.5490, 24606.00
600.7180, 24732.00
601.8870, 24535.00
603.0560, 24576.00
604.2250, 24476.00
605.3940, 24509.02
606.5620, 24685.00
607.7300, 24646.00
608.8990, 24701.00
610.0670, 24809.00
611.2350, 25020.00
612.4020, 25161.59
613.5700, 25238.00
614.7370, 25627.00
615.9050, 25843.00
617.0720, 26210.00
618.2390, 26672.00
619.4060, 27101.00
620.5720, 27509.00
621.7390, 28069.00
622.9050, 28868.00
624.0710, 29436.00
625.2370, 30311.00
626.4030, 31310.00
627.5690, 32538.00
628.7340, 33332.00
629.9000, 34071.00
631.0650, 34652.00
632.2300, 34855.00
633.3950, 34690.00
634.5600, 34209.00
635.7240, 33419.00
636.8890, 32474.00
638.0530, 31174.00
639.2170, 29929.00
640.3810, 28873.00
641.5450, 28195.00
642.7080, 27303.00
643.8720, 26482.00
645.0350, 26153.00
646.1980, 26125.00
647.3610, 25288.00
648.5240, 25141.00
649.6870, 24623.00
650.8490, 24475.00
652.0120, 24524.00
653.1740, 24184.00
654.3360, 24320.00
655.4980, 24068.00
656.6600, 24107.00
657.8210, 24053.00
658.9830, 24155.00
660.1440, 23970.00
661.3050, 23993.00
662.4660, 23786.00
663.6270, 23929.00
664.7870, 23864.00
665.9480, 23981.00
667.1080, 23680.00
668.2680, 23753.00
669.4280, 23840.00
670.5880, 23647.00
671.7480, 23757.00
672.9070, 23776.00
674.0670, 24091.00
675.2260, 23990.00
676.3850, 23996.00
677.5440, 23822.00
678.7030, 24059.00
679.8610, 23675.00
681.0200, 23725.00
682.1780, 23626.00
683.3360, 23850.00
684.4940, 23566.00
685.6520, 23726.00
686.8090, 23749.00
687.9670, 23728.00
689.1240, 23808.43
690.2810, 23795.41
691.4380, 23846.00
692.5950, 23849.00
693.7520, 23836.00
694.9080, 23929.00
696.0650, 23836.00
697.2210, 23971.00
698.3770, 23897.00
699.5330, 23919.00
700.6880, 23929.34
701.8440, 23915.37
702.9990, 23883.00
704.1550, 23920.00
705.3100, 23858.00
706.4650, 23825.00
707.6190, 23956.00
708.7740, 24080.00
709.9290, 24063.00
711.0830, 24147.71
712.2370, 24251.00
713.3910, 24218.00
714.5450, 24236.00
715.6980, 24313.00
716.8520, 24268.00
718.0050, 24411.00
719.1580, 24497.00
720.3110, 24464.00
721.4640, 24489.00
722.6170, 24446.00
723.7700, 24427.00
724.9220, 24433.00
726.0740, 24465.00
727.2260, 24427.00
728.3780, 24638.00
729.5300, 24634.00
730.6810, 24771.00
731.8330, 24794.00
732.9840, 24840.00
734.1350, 24917.10
735.2860, 24951.39
736.4370, 25007.00
737.5880, 25012.00
738.7380, 25012.00
739.8880, 24945.00
741.0390, 24801.00
742.1890, 24861.91
743.3380, 25092.00
744.4880, 24901.00
745.6380, 25026.00
746.7870, 25025.00
747.9360, 25002.00
749.0850, 25003.00
750.2340, 25077.00
751.3830, 24935.00
752.5310, 24943.00
753.6800, 24997.00
754.8280, 25059.00
755.9760, 25004.69
757.1240, 24998.00
758.2720, 24931.00
759.4190, 24878.00
760.5670, 24896.00
761.7140, 24786.00
762.8610, 24803.94
764.0080, 24724.00
765.1550, 24878.00
766.3020, 24762.00
767.4480, 24973.00
768.5950, 25094.00
769.7410, 24896.00
770.8870, 24771.00
772.0330, 24900.00
773.1780, 24922.00
774.3240, 24918.00
775.4690, 25010.00
776.6140, 24916.00
777.7590, 24822.00
778.9040, 24954.00
780.0490, 24864.00
781.1940, 24931.00
782.3380, 25316.00
783.4820, 24962.00
784.6260, 25216.00
785.7700, 24973.00
786.9140, 24998.00
788.0580, 25061.00
789.2010, 25060.00
790.3450, 25021.00
791.4880, 25147.00
792.6310, 25041.00
793.7730, 24886.00
794.9160, 25058.00
796.0590, 25061.00
797.2010, 25224.00
798.3430, 25165.00
799.4850, 25128.00
800.6270, 25044.00
801.7690, 25231.00
802.9100, 25186.00
804.0520, 24993.00
805.1930, 25239.00
806.3340, 25065.00
807.4750, 25235.00
808.6160, 25058.00
809.7560, 25202.00
810.8970, 25376.00
812.0370, 25236.00
813.1770, 25457.00
814.3170, 25509.00
815.4570, 25249.00
816.5960, 25072.00
817.7360, 25399.00
818.8750, 25519.00
820.0140, 25427.00
821.1530, 25454.00
822.2920, 25420.00
823.4310, 25407.00
824.5690, 25489.00
825.7070, 25572.00
826.8460, 25543.00
827.9840, 25627.08
829.1220, 25691.00
830.2590, 25728.00
831.3970, 25535.00
832.5340, 25597.00
833.6710, 25626.00
834.8080, 25858.00
835.9450, 25729.00
837.0820, 25642.00
838.2190, 25686.00
839.3550, 25581.00
840.4910, 25749.00
841.6270, 25665.00
842.7630, 25927.00
843.8990, 25741.00
845.0350, 25700.00
846.1700, 25745.00
847.3060, 25843.00
848.4410, 25747.00
849.5760, 25846.00
850.7100, 25984.00
851.8450, 26021.00
852.9800, 25891.00
854.1140, 26061.00
855.2480, 26112.00
856.3820, 25816.00
857.5160, 26057.00
858.6500, 25874.00
859.7830, 26145.00
860.9170, 26119.00
862.0500, 25871.00
863.1830, 26008.00
864.3160, 25926.45
865.4480, 26099.00
866.5810, 26019.00
867.7130, 26072.00
868.8460, 26286.00
869.9780, 26352.00
871.1100, 25976.00
872.2410, 26149.00
873.3730, 26173.00
874.5050, 26332.00
875.6360, 26278.00
876.7670, 26332.68
877.8980, 26412.00
879.0290, 26319.00
880.1590, 26386.00
881.2900, 26322.00
882.4200, 26434.00
883.5500, 26427.00
884.6800, 26288.00
885.8100, 26392.00
886.9400, 26651.00
888.0690, 26399.00
889.1990, 26532.00
890.3280, 26603.00
891.4570, 26444.00
892.5860, 26679.00
893.7140, 26713.00
894.8430, 26858.00
895.9710, 26844.00
897.1000, 27116.00
898.2280, 27249.00
899.3560, 27435.00
900.4830, 27286.00
901.6110, 27392.00
902.7380, 27975.00
903.8660, 27981.00
904.9930, 28357.00
906.1200, 28457.00
907.2460, 28764.00
908.3730, 28761.00
909.5000, 29018.00
910.6260, 29375.00
911.7520, 29448.00
912.8780, 29523.00
914.0040, 29833.00
915.1290, 29973.00
916.2550, 30178.00
917.3800, 30311.00
918.5050, 30523.00
919.6300, 31119.00
920.7550, 31620.00
921.8800, 31640.00
923.0040, 32452.00
924.1290, 32496.00
925.2530, 33348.00
926.3770, 33895.00
927.5010, 34546.00
928.6250, 34767.00
929.7480, 35570.00
930.8720, 35753.00
931.9950, 36698.00
933.1180, 36680.00
934.2410, 36682.00
935.3640, 36677.00
936.4860, 36838.00
937.6090, 36554.00
938.7310, 36322.00
939.8530, 35745.00
940.9750, 35139.00
942.0970, 34967.00
943.2180, 34088.00
944.3400, 33559.00
945.4610, 33293.00
946.5820, 32547.00
947.7030, 32319.00
948.8240, 31675.00
949.9450, 31237.00
951.0650, 30876.00
952.1860, 30686.00
953.3060, 30199.00
954.4260, 30116.00
955.5460, 29850.00
956.6650, 29789.00
957.7850, 29660.00
958.9040, 29811.00
960.0230, 29814.00
961.1420, 29808.00
962.2610, 29733.00
963.3800, 29802.00
964.4990, 29731.00
965.6170, 30210.00
966.7350, 30347.00
967.8530, 30589.00
968.9710, 30735.00
970.0890, 30897.00
971.2070, 31201.00
972.3240, 31666.00
973.4410, 32156.00
974.5580, 32656.00
975.6750, 33076.00
976.7920, 34074.00
977.9090, 34723.00
979.0250, 35533.00
980.1410, 36588.00
981.2580, 37707.00
982.3740, 39100.00
983.4890, 40400.00
984.6050, 42004.00
985.7200, 43769.00
986.8360, 45541.17
987.9510, 47620.00
989.0660, 49567.00
990.1810, 51823.00
991.2950, 54112.00
992.4100, 56168.00
993.5240, 58356.00
994.6390, 60269.00
995.7530, 61818.00
996.8660, 63549.00
997.9800, 64864.00
999.0940, 65489.00
1000.207, 65535.00
1001.320, 65535.00
1002.433, 65535.00
1003.546, 64772.00
1004.659, 64126.00
1005.772, 62524.00
1006.884, 61160.00
1007.996, 59476.00
1009.108, 57697.00
1010.220, 56034.00
1011.332, 54180.00
1012.444, 52001.00
1013.555, 50598.00
1014.666, 48889.00
1015.777, 47268.00
1016.888, 45973.00
1017.999, 44176.00
1019.110, 43013.00
1020.220, 41663.00
1021.331, 40386.00
1022.441, 39513.00
1023.551, 38378.00
1024.661, 37688.00
1025.770, 36818.00
1026.880, 36188.00
1027.989, 35706.00
1029.098, 35136.00
1030.207, 34734.67
1031.316, 34495.00
1032.425, 33954.00
1033.533, 33649.00
1034.642, 33196.00
1035.750, 33129.00
1036.858, 32969.00
1037.966, 32840.00
1039.073, 32755.00
1040.181, 32699.00
1041.288, 32758.00
1042.396, 32671.00
1043.503, 32580.58
1044.610, 32512.49
1045.716, 32353.00
1046.823, 32225.00
1047.929, 32159.00
1049.036, 31899.00
1050.142, 31733.00
1051.248, 31799.00
1052.353, 31565.00
1053.459, 31300.00
1054.564, 31199.00
1055.670, 30989.00
1056.775, 30788.00
1057.880, 30673.44
1058.985, 30481.76
1060.089, 30410.00
1061.194, 30247.00
1062.298, 30129.00
1063.402, 30178.00
1064.506, 30064.00
1065.610, 29959.00
1066.713, 29898.00
1067.817, 29977.00
1068.920, 29975.00
1070.023, 29872.00
1071.126, 30251.00
1072.229, 30222.00
1073.332, 30582.00
1074.435, 30668.00
1075.537, 30786.00
1076.639, 31230.00
1077.741, 31653.00
1078.843, 31919.00
1079.945, 32387.00
1081.046, 33005.00
1082.148, 33770.00
1083.249, 33988.00
1084.350, 34927.00
1085.451, 35407.00
1086.551, 35785.00
1087.652, 36333.00
1088.752, 36219.00
1089.853, 36191.00
1090.953, 36083.00
1092.053, 35680.00
1093.152, 35150.00
1094.252, 34845.00
1095.351, 34294.00
1096.451, 33556.00
1097.550, 33257.00
1098.649, 32650.00
1099.748, 32017.00
1100.846, 31777.00
1101.945, 31212.00
1103.043, 31128.00
1104.141, 30588.00
1105.239, 30439.00
1106.337, 29902.00
1107.434, 29807.00
1108.532, 29617.00
1109.629, 29616.00
1110.726, 29164.00
1111.823, 29069.00
1112.920, 28785.00
1114.017, 28776.00
1115.113, 28828.00
1116.210, 28924.00
1117.306, 29045.00
1118.402, 29160.00
1119.498, 29075.00
1120.593, 29193.00
1121.689, 29390.00
1122.784, 29357.00
1123.879, 29200.00
1124.974, 28880.00
1126.069, 28916.00
1127.164, 28615.00
1128.259, 28562.00
1129.353, 28310.00
1130.447, 28326.00
1131.541, 28156.00
1132.635, 28105.68
1133.729, 28092.00
1134.822, 28109.00
1135.916, 28043.00
1137.009, 28213.00
1138.102, 28012.00
1139.195, 28183.00
1140.288, 28135.00
1141.380, 28090.00
1142.473, 28281.00
1143.565, 28073.00
1144.657, 27932.00
1145.749, 28086.00
1146.841, 28360.00
1147.932, 28310.00
1149.024, 28212.00
1150.115, 28145.00
1151.206, 28100.00
1152.297, 27962.00
1153.388, 28014.49
1154.479, 28107.00
1155.569, 28040.00
1156.659, 28165.00
1157.750, 28078.00
1158.839, 28041.00
1159.929, 28078.00
1161.019, 28097.00
1162.108, 28073.94
1163.198, 28029.00
1164.287, 28052.00
1165.376, 28037.00
1166.465, 28033.00
1167.553, 28053.00
1168.642, 28037.00
1169.730, 28018.00
1170.818, 27956.00
1171.906, 27918.00
1172.994, 27928.00
1174.082, 28002.00
1175.170, 27861.00
1176.257, 27984.00
1177.344, 27853.00
1178.431, 27752.00
1179.518, 27939.00
1180.605, 27889.00
1181.691, 27741.00
1182.778, 27916.00
1183.864, 27775.00
1184.950, 27748.00
1186.036, 27746.00
1187.122, 27662.00
1188.207, 27674.00
1189.292, 27709.00
1190.378, 27603.00
1191.463, 27887.00
1192.548, 27690.00
1193.632, 27499.00
1194.717, 27635.00
1195.801, 27326.00
1196.886, 27730.00
1197.970, 27558.00
1199.054, 27540.00
1200.137, 27501.00
1201.221, 27367.00
1202.305, 27520.00
1203.388, 27620.00
1204.471, 27424.00
1205.554, 27552.00
1206.637, 27469.00
1207.719, 27502.05
1208.802, 27512.00
1209.884, 27609.00
1210.966, 27610.00
1212.048, 27670.00
1213.130, 27709.68
1214.212, 27498.00
1215.293, 27733.00
1216.374, 27576.00
1217.456, 27474.00
1218.536, 27487.00
1219.617, 27653.00
1220.698, 27433.00
1221.778, 27777.00
1222.859, 27424.00
1223.939, 27565.00
1225.019, 27752.00
1226.099, 27637.00
1227.178, 27666.00
1228.258, 27514.00
1229.337, 27710.00
1230.417, 27541.00
1231.496, 27527.00
1232.574, 27723.00
1233.653, 27455.00
1234.732, 27694.00
1235.810, 27594.00
1236.888, 27617.00
1237.966, 27499.00
1239.044, 27775.00
1240.122, 27639.00
1241.199, 27644.00
1242.277, 27813.00
1243.354, 27480.00
1244.431, 27687.00
1245.508, 27789.00
1246.585, 27787.00
1247.661, 27625.00
1248.738, 27732.00
1249.814, 27673.00
1250.890, 27725.00
1251.966, 27522.00
1253.042, 27396.00
1254.117, 27639.00
1255.193, 27493.00
1256.268, 27625.00
1257.343, 27574.00
1258.418, 27462.00
1259.493, 27553.00
1260.567, 27698.00
1261.642, 27611.00
1262.716, 27777.00
1263.790, 27648.00
1264.864, 27691.00
1265.938, 27733.00
1267.011, 27697.00
1268.085, 27793.00
1269.158, 27551.00
1270.231, 27800.00
1271.304, 27596.00
1272.377, 27770.00
1273.450, 27615.00
1274.522, 27597.00
1275.594, 27759.00
1276.666, 27504.00
1277.738, 27607.00
1278.810, 27743.00
1279.882, 27736.00
1280.953, 27791.00
1282.025, 27595.00
1283.096, 27819.00
1284.167, 27749.00
1285.238, 27626.00
1286.308, 28004.00
1287.379, 27743.00
1288.449, 27702.00
1289.519, 27678.00
1290.589, 27724.00
1291.659, 27856.00
1292.729, 27581.00
1293.798, 27873.00
1294.868, 27725.00
