##NAMES=Catapleiite
##RRUFFID=R060208
##IDEAL CHEMISTRY=Na_2_Zr^4+^Si_3_O_9_&#183;2H_2_O
##LOCALITY=Mont Saint-Hilaire, Rouville County, Quebec, Canada
##OWNER=RRUFF
##SOURCE=Royal Ontario Museum
##DESCRIPTION=Colorless transparent thin tabular pseudohexagonal crystal
##STATUS=The identification of this mineral is confirmed by single-crystal X-ray diffraction and chemical analysis.
##URL=rruff.info/R060208
##MEASURED CHEMISTRY=Na_2.00_Zr_1.00_Si_3.00_O_9_Â·2H_2_O
##PIN_ID=M01705
##ORIENTATION=Laser parallel to a* (1 0 0). Fiducial mark perpendicular to laser is parallel to -b [0 -1 0]
122.1480, 11980.72
123.3810, 12070.00
124.6150, 12262.00
125.8480, 12365.00
127.0810, 12495.00
128.3130, 12478.00
129.5460, 12741.00
130.7790, 12829.00
132.0110, 12820.00
133.2430, 13015.00
134.4750, 13102.00
135.7070, 13137.00
136.9380, 13246.00
138.1700, 13282.91
139.4010, 13410.00
140.6330, 13416.00
141.8640, 13471.00
143.0950, 13621.00
144.3250, 13695.00
145.5560, 13818.00
146.7860, 13887.00
148.0160, 13855.00
149.2470, 14034.00
150.4760, 14232.00
151.7060, 14131.00
152.9360, 14482.00
154.1650, 14374.00
155.3950, 14434.00
156.6240, 14406.00
157.8530, 14466.00
159.0820, 14550.00
160.3100, 14417.00
161.5390, 14493.00
162.7670, 14400.00
163.9950, 14051.00
165.2230, 14140.00
166.4510, 14164.00
167.6790, 13963.00
168.9060, 13976.00
170.1340, 13841.00
171.3610, 13743.00
172.5880, 13659.00
173.8150, 13664.00
175.0420, 13577.00
176.2690, 13554.00
177.4950, 13527.00
178.7210, 13445.00
179.9470, 13591.00
181.1730, 13607.00
182.3990, 13547.00
183.6250, 13563.00
184.8500, 13511.00
186.0760, 13600.00
187.3010, 13709.00
188.5260, 13859.00
189.7510, 13922.00
190.9750, 14052.00
192.2000, 14067.00
193.4240, 14139.00
194.6490, 14489.00
195.8730, 14482.00
197.0970, 14562.00
198.3200, 14725.00
199.5440, 14761.00
200.7670, 14998.00
201.9910, 14998.00
203.2140, 15033.00
204.4370, 15178.00
205.6590, 15217.00
206.8820, 15226.00
208.1050, 15240.14
209.3270, 15196.82
210.5490, 15156.00
211.7710, 15079.00
212.9930, 15005.00
214.2150, 14941.00
215.4360, 14745.00
216.6570, 14425.00
217.8790, 14067.00
219.1000, 13970.00
220.3210, 13748.00
221.5410, 13672.00
222.7620, 13422.00
223.9820, 13303.00
225.2030, 13146.00
226.4230, 13146.00
227.6430, 12881.00
228.8620, 12815.00
230.0820, 12782.00
231.3010, 12960.00
232.5210, 12840.00
233.7400, 12594.00
234.9590, 12745.00
236.1780, 12484.00
237.3960, 12486.00
238.6150, 12556.00
239.8330, 12462.00
241.0510, 12549.00
242.2690, 12542.00
243.4870, 12484.00
244.7050, 12492.00
245.9230, 12353.00
247.1400, 12430.00
248.3570, 12428.00
249.5740, 12456.00
250.7910, 12587.00
252.0080, 12658.00
253.2240, 12631.00
254.4410, 12761.22
255.6570, 12648.00
256.8730, 12848.00
258.0890, 12890.00
259.3050, 12767.00
260.5210, 12673.00
261.7360, 12696.00
262.9510, 12702.00
264.1670, 12782.00
265.3820, 12829.00
266.5960, 12842.00
267.8110, 12874.31
269.0260, 12861.00
270.2400, 12853.00
271.4540, 12703.00
272.6680, 12604.00
273.8820, 12800.00
275.0960, 12843.00
276.3090, 13043.00
277.5230, 12975.00
278.7360, 13053.00
279.9490, 12972.00
281.1620, 13019.00
282.3750, 13190.00
283.5880, 13426.00
284.8000, 13459.00
286.0120, 13545.00
287.2240, 13573.00
288.4360, 13849.00
289.6480, 13744.00
290.8600, 13987.00
292.0710, 13993.00
293.2830, 13916.00
294.4940, 14096.00
295.7050, 14012.00
296.9160, 14102.00
298.1260, 13991.00
299.3370, 14007.00
300.5470, 14237.00
301.7580, 14063.00
302.9680, 13951.00
304.1770, 14169.00
305.3870, 13946.00
306.5970, 13850.00
307.8060, 13830.00
309.0150, 13884.00
310.2250, 13998.00
311.4340, 14005.00
312.6420, 14068.00
313.8510, 14016.00
315.0590, 14081.00
316.2680, 14146.00
317.4760, 14072.00
318.6840, 13954.00
319.8920, 14006.00
321.0990, 13986.00
322.3070, 14036.00
323.5140, 13874.00
324.7210, 14180.00
325.9280, 14015.00
327.1350, 13973.00
328.3420, 14099.00
329.5490, 14059.00
330.7550, 13883.00
331.9610, 13975.00
333.1670, 13962.00
334.3730, 13923.00
335.5790, 13935.00
336.7840, 13791.00
337.9900, 13868.00
339.1950, 14079.00
340.4000, 13911.00
341.6050, 13829.00
342.8100, 13952.00
344.0150, 13864.00
345.2190, 13871.00
346.4230, 13872.00
347.6280, 13973.00
348.8320, 14094.00
350.0350, 14093.00
351.2390, 14210.00
352.4430, 14332.00
353.6460, 14416.00
354.8490, 14425.00
356.0520, 14412.00
357.2550, 14402.00
358.4580, 14511.00
359.6600, 14652.00
360.8630, 14781.00
362.0650, 14841.00
363.2670, 14993.00
364.4690, 14780.00
365.6710, 14795.00
366.8720, 14911.00
368.0740, 14873.00
369.2750, 15025.00
370.4760, 14769.00
371.6770, 14810.00
372.8780, 14913.00
374.0780, 14935.00
375.2790, 14907.00
376.4790, 14928.00
377.6790, 14881.00
378.8790, 14875.74
380.0790, 14954.00
381.2790, 14869.00
382.4780, 14890.00
383.6780, 14950.00
384.8770, 14955.00
386.0760, 14986.57
387.2750, 15091.00
388.4730, 15004.00
389.6720, 15099.00
390.8700, 15063.00
392.0690, 15021.00
393.2670, 15138.00
394.4650, 15333.00
395.6620, 15311.00
396.8600, 15487.00
398.0570, 15498.00
399.2550, 15396.00
400.4520, 15318.00
401.6490, 15398.00
402.8450, 15654.00
404.0420, 15789.00
405.2390, 15897.00
406.4350, 16335.00
407.6310, 16423.00
408.8270, 16801.00
410.0230, 17171.00
411.2190, 17319.00
412.4140, 17706.00
413.6090, 18235.00
414.8050, 19034.00
416.0000, 19532.00
417.1940, 20510.00
418.3890, 21329.00
419.5840, 22599.00
420.7780, 23700.00
421.9720, 24948.00
423.1660, 26248.00
424.3600, 27473.00
425.5540, 28567.00
426.7480, 29395.00
427.9410, 29928.00
429.1340, 29945.00
430.3270, 29617.00
431.5200, 28640.00
432.7130, 27602.00
433.9060, 26270.00
435.0980, 24950.00
436.2900, 23612.00
437.4830, 22477.00
438.6750, 21371.00
439.8660, 20588.98
441.0580, 20007.00
442.2500, 19413.00
443.4410, 18969.00
444.6320, 18703.00
445.8230, 18379.00
447.0140, 17982.00
448.2050, 17858.00
449.3950, 17534.00
450.5860, 17415.00
451.7760, 17529.00
452.9660, 17233.00
454.1560, 17146.00
455.3450, 16972.00
456.5350, 16831.00
457.7240, 16828.00
458.9140, 16590.00
460.1030, 16565.00
461.2920, 16538.00
462.4810, 16569.00
463.6690, 16681.00
464.8580, 16736.00
466.0460, 16665.00
467.2340, 16619.00
468.4220, 16409.00
469.6100, 16619.00
470.7970, 16634.00
471.9850, 16460.00
473.1720, 16666.00
474.3590, 16588.00
475.5460, 16714.00
476.7330, 16518.00
477.9200, 16546.00
479.1060, 16581.00
480.2930, 16411.00
481.4790, 16695.00
482.6650, 16583.00
483.8510, 16690.00
485.0370, 16702.00
486.2220, 16665.00
487.4080, 16708.68
488.5930, 16780.00
489.7780, 16737.00
490.9630, 16761.00
492.1480, 16847.00
493.3320, 16838.00
494.5170, 16748.00
495.7010, 16810.00
496.8850, 16914.00
498.0690, 17079.00
499.2530, 16953.00
500.4360, 17117.00
501.6200, 17127.00
502.8030, 17233.00
503.9860, 17217.00
505.1690, 17379.00
506.3520, 17480.00
507.5350, 17615.00
508.7170, 17434.00
509.9000, 17797.00
511.0820, 17918.00
512.2640, 18058.00
513.4460, 18360.00
514.6270, 18367.00
515.8090, 18600.00
516.9900, 18875.00
518.1710, 19028.00
519.3530, 19078.00
520.5330, 19021.00
521.7140, 19193.00
522.8950, 19385.00
524.0750, 19235.00
525.2550, 19400.00
526.4350, 19476.00
527.6150, 19339.00
528.7950, 19451.00
529.9750, 19342.00
531.1540, 19358.00
532.3340, 19405.00
533.5130, 19411.00
534.6920, 19299.00
535.8700, 19310.00
537.0490, 19385.00
538.2280, 19535.00
539.4060, 19429.00
540.5840, 19351.00
541.7620, 19221.00
542.9400, 19369.00
544.1180, 19382.00
545.2950, 19686.00
546.4720, 19711.00
547.6500, 19597.00
548.8270, 19981.00
550.0040, 19891.00
551.1800, 20163.00
552.3570, 20383.00
553.5330, 20663.00
554.7090, 20889.00
555.8850, 21343.00
557.0610, 21801.00
558.2370, 22399.00
559.4130, 22968.00
560.5880, 23672.00
561.7630, 24554.32
562.9380, 25551.00
564.1130, 26604.00
565.2880, 27865.00
566.4630, 29183.00
567.6370, 30557.00
568.8120, 31651.00
569.9860, 32326.00
571.1600, 32949.00
572.3330, 33264.00
573.5070, 32978.00
574.6810, 32204.00
575.8540, 31301.00
577.0270, 29985.00
578.2000, 28210.00
579.3730, 27156.00
580.5460, 25552.00
581.7180, 24267.00
582.8910, 23226.00
584.0630, 22434.00
585.2350, 21734.00
586.4070, 21191.00
587.5780, 20647.00
588.7500, 20215.00
589.9210, 19916.00
591.0930, 19726.00
592.2640, 19513.00
593.4350, 19325.57
594.6050, 19200.90
595.7760, 19026.00
596.9460, 18987.00
598.1170, 18888.00
599.2870, 18802.43
600.4570, 18780.00
601.6260, 18850.00
602.7960, 18886.00
603.9650, 19070.00
605.1350, 19047.00
606.3040, 19324.00
607.4730, 19225.00
608.6420, 19559.00
609.8100, 19757.00
610.9790, 19959.00
612.1470, 20331.00
613.3150, 20411.00
614.4830, 20785.00
615.6510, 21505.00
616.8190, 22136.00
617.9860, 22976.00
619.1540, 24042.00
620.3210, 25529.00
621.4880, 26627.00
622.6550, 28138.00
623.8220, 29576.00
624.9880, 31085.00
626.1550, 32389.00
627.3210, 33612.00
628.4870, 33992.00
629.6530, 33429.00
630.8190, 32582.00
631.9840, 30938.00
633.1500, 29219.00
634.3150, 27249.00
635.4800, 25774.00
636.6450, 24249.00
637.8100, 23111.00
638.9740, 22207.00
640.1390, 21541.00
641.3030, 20914.00
642.4670, 20564.00
643.6310, 20377.00
644.7950, 20165.00
645.9590, 19746.00
647.1220, 19575.00
648.2850, 19530.00
649.4490, 19535.00
650.6120, 19408.00
651.7740, 19431.00
652.9370, 19318.43
654.1000, 19084.00
655.2620, 19164.00
656.4240, 19017.00
657.5860, 19030.00
658.7480, 18986.00
659.9100, 19022.00
661.0710, 19166.00
662.2330, 18876.00
663.3940, 19073.00
664.5550, 18991.00
665.7160, 19006.00
666.8770, 19029.00
668.0370, 19028.99
669.1980, 18867.00
670.3580, 19076.00
671.5180, 19116.00
672.6780, 19097.72
673.8380, 18753.00
674.9970, 19036.00
676.1570, 18938.00
677.3160, 18925.00
678.4750, 19000.00
679.6340, 18850.00
680.7930, 18997.00
681.9520, 19019.00
683.1100, 19235.00
684.2680, 19018.00
685.4270, 19049.00
686.5850, 19170.00
687.7420, 19423.00
688.9000, 19094.00
690.0580, 19288.00
691.2150, 19046.00
692.3720, 19042.00
693.5290, 19099.00
694.6860, 19248.00
695.8430, 19120.00
696.9990, 19056.00
698.1560, 19332.00
699.3120, 19161.00
700.4680, 19106.00
701.6240, 19383.00
702.7800, 19289.00
703.9350, 19286.00
705.0900, 19330.00
706.2460, 19335.44
707.4010, 19452.00
708.5560, 19423.00
709.7110, 19549.00
710.8650, 19554.00
712.0200, 19684.00
713.1740, 19568.00
714.3280, 19470.00
715.4820, 19782.00
716.6360, 19653.00
717.7890, 19823.00
718.9430, 19892.00
720.0960, 19869.00
721.2490, 19860.00
722.4020, 19933.00
723.5550, 19949.00
724.7080, 20213.00
725.8600, 20314.00
727.0130, 20202.00
728.1650, 20387.00
729.3170, 20301.00
730.4690, 20593.00
731.6200, 20321.00
732.7720, 20467.00
733.9230, 20663.00
735.0740, 20610.00
736.2250, 20730.00
737.3760, 20614.00
738.5270, 20758.00
739.6780, 20605.00
740.8280, 20605.00
741.9780, 20643.00
743.1280, 20476.00
744.2780, 20588.00
745.4280, 20480.00
746.5770, 20287.00
747.7270, 20319.00
748.8760, 20328.00
750.0250, 20488.00
751.1740, 20233.00
752.3230, 20334.00
753.4720, 20209.00
754.6200, 20140.00
755.7680, 20377.00
756.9160, 20398.00
758.0640, 20349.00
759.2120, 20208.00
760.3600, 20314.00
761.5070, 20409.00
762.6550, 20453.00
763.8020, 20525.00
764.9490, 20334.00
766.0960, 20451.00
767.2420, 20449.00
768.3890, 20571.00
769.5350, 20456.00
770.6810, 20486.00
771.8270, 20481.00
772.9730, 20625.00
774.1190, 20487.00
775.2640, 20538.00
776.4100, 20324.00
777.5550, 20647.00
778.7000, 20747.00
779.8450, 20607.00
780.9900, 20633.00
782.1340, 20749.00
783.2790, 20696.00
784.4230, 20667.00
785.5670, 20682.00
786.7110, 20762.00
787.8550, 20754.00
788.9980, 20887.00
790.1420, 20687.00
791.2850, 20851.00
792.4280, 20954.00
793.5710, 20786.00
794.7140, 20754.00
795.8560, 20779.00
796.9990, 20629.00
798.1410, 20801.00
799.2830, 20972.00
800.4250, 20947.00
801.5670, 20935.00
802.7090, 20986.00
803.8500, 21138.00
804.9920, 21255.00
806.1330, 21227.00
807.2740, 21290.44
808.4150, 21318.53
809.5550, 21292.00
810.6960, 21329.00
811.8360, 21374.00
812.9760, 21315.00
814.1160, 21407.00
815.2560, 21476.00
816.3960, 21482.00
817.5350, 21500.00
818.6750, 21522.00
819.8140, 21326.00
820.9530, 21458.00
822.0920, 21414.00
823.2310, 21456.83
824.3690, 21507.00
825.5080, 21638.00
826.6460, 21677.00
827.7840, 21724.53
828.9220, 21920.00
830.0600, 21778.00
831.1970, 21769.00
832.3350, 21779.00
833.4720, 22022.00
834.6090, 21940.00
835.7460, 21852.00
836.8830, 21899.00
838.0190, 21815.00
839.1560, 21814.00
840.2920, 21846.40
841.4280, 21906.00
842.5640, 21950.00
843.7000, 22029.00
844.8360, 22160.00
845.9710, 22298.00
847.1070, 22199.00
848.2420, 22325.00
849.3770, 22244.00
850.5120, 22220.00
851.6460, 22529.00
852.7810, 22434.00
853.9150, 22474.00
855.0490, 22428.00
856.1830, 22562.00
857.3170, 22701.00
858.4510, 22500.00
859.5840, 22592.00
860.7180, 22557.00
861.8510, 22719.00
862.9840, 22598.00
864.1170, 22561.00
865.2500, 22673.00
866.3820, 22772.00
867.5150, 22652.00
868.6470, 22740.00
869.7790, 22791.00
870.9110, 22920.00
872.0430, 22800.00
873.1740, 22734.00
874.3060, 23023.00
875.4370, 22825.00
876.5680, 22761.00
877.6990, 22964.00
878.8300, 23116.00
879.9600, 23075.00
881.0910, 23056.00
882.2210, 22962.00
883.3510, 23093.00
884.4810, 23211.00
885.6110, 23012.00
886.7410, 23349.00
887.8700, 23216.00
888.9990, 23315.00
890.1290, 23408.00
891.2580, 23498.00
892.3860, 23504.20
893.5150, 23429.00
894.6440, 23502.00
895.7720, 23542.00
896.9000, 23574.00
898.0280, 23842.00
899.1560, 23830.00
900.2840, 23746.00
901.4110, 23956.00
902.5390, 24191.00
903.6660, 24269.00
904.7930, 24030.00
905.9200, 24644.00
907.0470, 24584.00
908.1730, 25010.00
909.3000, 25035.00
910.4260, 25463.00
911.5520, 25557.00
912.6780, 26143.00
913.8030, 26559.00
914.9290, 26696.00
916.0540, 27356.00
917.1800, 27981.00
918.3050, 28645.00
919.4300, 29757.00
920.5550, 30605.00
921.6790, 31907.00
922.8040, 33714.00
923.9280, 35618.00
925.0520, 37491.00
926.1760, 39783.00
927.3000, 42365.00
928.4230, 44465.00
929.5470, 46326.00
930.6700, 48068.00
931.7930, 48497.00
932.9160, 48279.00
934.0390, 47295.00
935.1620, 45711.00
936.2840, 43347.00
937.4070, 41010.00
938.5290, 38506.00
939.6510, 36061.00
940.7730, 34341.00
941.8940, 33061.00
943.0160, 31307.00
944.1370, 30816.00
945.2580, 30062.00
946.3800, 29254.00
947.5000, 29120.00
948.6210, 28494.00
949.7420, 27962.00
950.8620, 27541.00
951.9820, 27341.00
953.1020, 27055.00
954.2220, 26653.00
955.3420, 26280.00
956.4620, 26205.00
957.5810, 26204.00
958.7000, 26008.00
959.8190, 25896.00
960.9380, 25937.00
962.0570, 25725.00
963.1760, 25961.00
964.2940, 25696.00
965.4120, 25828.00
966.5300, 25917.00
967.6480, 25887.00
968.7660, 25954.00
969.8840, 25934.00
971.0010, 26051.00
972.1190, 26144.75
973.2360, 26105.00
974.3530, 26448.00
975.4690, 26580.00
976.5860, 26825.00
977.7030, 26915.00
978.8190, 27227.00
979.9350, 27616.00
981.0510, 27930.00
982.1670, 28070.00
983.2830, 28649.00
984.3980, 28921.00
985.5130, 29649.00
986.6290, 30240.00
987.7440, 31269.00
988.8590, 32290.00
989.9730, 33581.00
991.0880, 35028.00
992.2020, 36673.96
993.3160, 38722.00
994.4300, 40613.00
995.5440, 42854.00
996.6580, 45418.00
997.7720, 47472.00
998.8850, 49104.00
999.9980, 50957.00
1001.111, 52360.00
1002.224, 53171.00
1003.337, 53456.00
1004.450, 53732.00
1005.562, 53336.00
1006.674, 52424.00
1007.786, 51854.00
1008.898, 50275.00
1010.010, 49296.00
1011.122, 47903.00
1012.233, 46460.00
1013.344, 44825.00
1014.455, 43447.00
1015.566, 41856.65
1016.677, 40235.00
1017.788, 38717.00
1018.898, 37216.00
1020.009, 35581.00
1021.119, 34393.00
1022.229, 33208.00
1023.339, 32466.00
1024.448, 31558.00
1025.558, 31013.00
1026.667, 30592.00
1027.776, 30193.00
1028.885, 29883.00
1029.994, 29606.98
1031.103, 29381.44
1032.211, 29233.00
1033.320, 29085.00
1034.428, 29046.26
1035.536, 29013.75
1036.644, 28962.00
1037.751, 29019.00
1038.859, 29032.00
1039.966, 29046.00
1041.074, 28989.00
1042.181, 28658.00
1043.288, 28430.00
1044.394, 28494.00
1045.501, 28463.00
1046.607, 28176.00
1047.713, 27906.00
1048.820, 27771.00
1049.925, 27768.00
1051.031, 27711.00
1052.137, 27639.00
1053.242, 27706.00
1054.348, 27542.00
1055.453, 27545.00
1056.558, 27531.00
1057.662, 27615.00
1058.767, 27545.00
1059.871, 27453.00
1060.976, 27393.00
1062.080, 27411.00
1063.184, 27560.00
1064.288, 27545.00
1065.391, 27316.00
1066.495, 27605.00
1067.598, 27786.00
1068.701, 27627.00
1069.804, 27973.00
1070.907, 27905.00
1072.010, 27841.00
1073.112, 28154.00
1074.214, 28257.00
1075.317, 28492.00
1076.419, 28425.00
1077.521, 28570.00
1078.622, 28736.00
1079.724, 29169.00
1080.825, 29288.00
1081.926, 29701.00
1083.027, 29947.00
1084.128, 30361.00
1085.229, 30635.00
1086.329, 30757.00
1087.430, 30970.00
1088.530, 31254.00
1089.630, 31261.00
1090.730, 31093.00
1091.830, 30671.00
1092.929, 30609.00
1094.029, 30014.00
1095.128, 29853.00
1096.227, 29608.00
1097.326, 29401.00
1098.425, 29105.00
1099.523, 29006.00
1100.622, 28668.00
1101.720, 28652.00
1102.818, 28448.00
1103.916, 28379.00
1105.014, 28347.00
1106.111, 28355.00
1107.209, 28275.00
1108.306, 28051.00
1109.403, 28084.00
1110.500, 28229.00
1111.597, 28056.00
1112.694, 28398.00
1113.790, 28096.00
1114.887, 28295.00
1115.983, 27976.00
1117.079, 28335.00
1118.174, 28498.00
1119.270, 28467.00
1120.366, 28416.00
1121.461, 28332.00
1122.556, 28770.00
1123.651, 28469.00
1124.746, 28455.00
1125.841, 28788.00
1126.935, 28629.00
1128.030, 28429.00
1129.124, 28320.00
1130.218, 28619.00
1131.312, 28748.00
1132.405, 28509.00
1133.499, 28785.00
1134.592, 28701.00
1135.686, 28734.00
1136.779, 28799.00
1137.871, 28673.00
1138.964, 28737.00
1140.057, 28831.00
1141.149, 28651.00
1142.241, 28766.00
1143.334, 28773.00
1144.425, 28861.00
1145.517, 28724.00
1146.609, 29251.00
1147.700, 29099.00
1148.791, 29142.00
1149.883, 28722.00
1150.974, 29177.00
1152.064, 28783.00
1153.155, 28940.00
1154.245, 29281.00
1155.336, 29167.00
1156.426, 28837.00
1157.516, 29159.00
1158.606, 29005.00
1159.695, 28991.00
1160.785, 29139.00
1161.874, 28766.00
1162.963, 29068.00
1164.052, 29033.00
1165.141, 29342.00
1166.230, 29093.00
1167.318, 29302.00
1168.406, 29166.00
1169.495, 29307.00
1170.583, 29228.00
1171.670, 29346.00
1172.758, 29389.00
1173.846, 29455.00
1174.933, 29496.10
1176.020, 29354.00
1177.107, 29506.00
1178.194, 29522.00
1179.281, 29443.00
1180.367, 29534.91
1181.454, 29645.00
1182.540, 29561.00
1183.626, 29573.00
1184.712, 29551.00
1185.798, 29741.00
1186.883, 29744.00
1187.969, 29733.00
1189.054, 29577.00
1190.139, 29709.00
1191.224, 29654.00
1192.309, 29761.00
1193.393, 29731.00
1194.478, 29786.03
1195.562, 29824.00
1196.646, 29898.00
1197.730, 29914.00
1198.814, 29985.00
1199.897, 29880.00
1200.981, 29924.00
1202.064, 30026.00
1203.147, 30065.00
1204.230, 29834.00
1205.313, 30073.00
1206.396, 29983.00
1207.478, 30433.00
1208.560, 30175.00
1209.642, 30239.00
1210.724, 30338.00
1211.806, 30199.00
1212.888, 30110.00
1213.969, 30259.00
1215.051, 30277.00
1216.132, 30371.00
1217.213, 30369.00
1218.294, 30297.00
1219.374, 30398.00
1220.455, 30236.00
1221.535, 30311.00
1222.616, 30350.00
1223.696, 30348.00
1224.775, 30691.00
1225.855, 30607.00
1226.935, 30631.00
1228.014, 30488.00
1229.093, 30518.45
1230.172, 30481.54
1231.251, 30558.00
1232.330, 30504.00
1233.408, 30580.00
1234.487, 30711.00
1235.565, 30866.00
1236.643, 30769.00
1237.721, 30861.00
1238.799, 30615.00
1239.876, 30704.80
1240.954, 30913.00
1242.031, 30825.00
1243.108, 30925.00
1244.185, 31131.00
1245.262, 31035.00
1246.338, 31031.00
1247.415, 31058.00
1248.491, 31017.50
1249.567, 31146.00
1250.643, 31071.00
1251.719, 31032.00
1252.795, 31183.00
1253.870, 31261.00
1254.945, 31434.00
1256.021, 31418.00
1257.096, 31349.00
1258.170, 31366.00
1259.245, 31249.00
1260.320, 31402.00
1261.394, 31365.00
1262.468, 31323.00
1263.542, 31386.00
1264.616, 31630.00
1265.690, 31571.00
1266.763, 31594.00
1267.836, 31515.00
1268.910, 31418.00
1269.983, 31400.00
1271.055, 31403.22
1272.128, 31572.00
1273.201, 31502.00
1274.273, 31598.00
1275.345, 31696.00
1276.417, 31688.00
1277.489, 31750.83
1278.561, 31806.83
1279.632, 31748.00
1280.704, 31939.00
1281.775, 31861.00
1282.846, 31963.41
1283.917, 31691.00
1284.988, 31893.00
1286.058, 31879.00
1287.129, 31868.00
1288.199, 32062.00
1289.269, 31880.00
1290.339, 31901.00
1291.409, 31932.00
1292.478, 31998.00
1293.548, 31911.00
1294.617, 32095.00
1295.686, 32030.00
1296.755, 32244.00
