##NAMES=Catapleiite
##RRUFFID=R040005
##IDEAL CHEMISTRY=Na_2_Zr^4+^Si_3_O_9_&#183;2H_2_O
##LOCALITY=Langesundsfjord Eikaholmen Vestfold, Norway
##OWNER=RRUFF
##SOURCE=University of Arizona Mineral Museum
##DESCRIPTION=Brown thin tabular crystal
##STATUS=The identification of this mineral has been confirmed by X-ray diffraction and chemical analysis
##URL=rruff.info/R040005
##MEASURED CHEMISTRY=(Na_1.28_Ca_0.36_[box]_0.36_)_Σ=2_Zr_1.00_Si_3.00_O_9_·2H_2_O
##PIN_ID=L01206
##ORIENTATION=Laser parallel to c* (0 0 1). Fiducial mark perpendicular to laser is parallel to a [1 0 0]
120.5960, 20972.00
121.8270, 21146.00
123.0580, 21033.00
124.2880, 21269.00
125.5190, 21343.00
126.7490, 21229.00
127.9790, 21553.00
129.2090, 21638.00
130.4390, 21824.00
131.6680, 21890.00
132.8980, 22029.00
134.1270, 22080.00
135.3560, 22052.00
136.5850, 22466.00
137.8140, 22523.00
139.0430, 22967.00
140.2710, 22951.00
141.5000, 23060.00
142.7280, 22981.00
143.9560, 23039.00
145.1840, 22995.00
146.4120, 22874.00
147.6390, 23268.00
148.8670, 23249.00
150.0940, 23329.00
151.3210, 23185.00
152.5490, 23393.00
153.7750, 23514.00
155.0020, 23428.00
156.2290, 23655.00
157.4550, 23633.00
158.6810, 23579.00
159.9080, 23842.00
161.1340, 23556.00
162.3590, 23474.00
163.5850, 23669.00
164.8110, 23696.00
166.0360, 23708.00
167.2610, 23539.00
168.4860, 23492.00
169.7110, 23455.00
170.9360, 23692.00
172.1610, 23647.00
173.3850, 23739.00
174.6100, 23566.00
175.8340, 23722.00
177.0580, 23662.00
178.2820, 23624.00
179.5050, 23587.00
180.7290, 23617.00
181.9520, 23657.00
183.1760, 23634.00
184.3990, 23813.00
185.6220, 23666.00
186.8450, 23954.00
188.0670, 23928.00
189.2900, 24124.00
190.5120, 24078.00
191.7340, 24166.00
192.9560, 24281.00
194.1780, 24383.00
195.4000, 24202.00
196.6220, 24123.00
197.8430, 24365.00
199.0640, 24265.00
200.2860, 24313.00
201.5070, 24354.00
202.7270, 24666.00
203.9480, 24610.00
205.1690, 24815.00
206.3890, 24617.00
207.6090, 24771.00
208.8290, 24662.00
210.0490, 24791.00
211.2690, 24675.00
212.4890, 24957.00
213.7080, 24920.00
214.9280, 24701.00
216.1470, 24570.00
217.3660, 24679.00
218.5850, 24854.00
219.8030, 24612.00
221.0220, 24760.00
222.2400, 24471.00
223.4590, 24337.00
224.6770, 24631.00
225.8950, 24433.00
227.1120, 24469.00
228.3300, 24328.00
229.5480, 24543.00
230.7650, 24355.00
231.9820, 24420.00
233.1990, 24376.00
234.4160, 24521.00
235.6330, 24565.00
236.8490, 24455.00
238.0660, 24585.00
239.2820, 24646.00
240.4980, 24478.00
241.7140, 24543.00
242.9300, 24461.00
244.1460, 24423.00
245.3610, 24503.00
246.5770, 24421.00
247.7920, 24387.00
249.0070, 24417.00
250.2220, 24418.00
251.4370, 24443.00
252.6510, 24541.00
253.8660, 24583.00
255.0800, 24566.00
256.2940, 24529.00
257.5080, 24511.00
258.7220, 24748.00
259.9360, 24970.00
261.1490, 24781.00
262.3630, 24679.00
263.5760, 24859.00
264.7890, 24812.00
266.0020, 24818.00
267.2150, 24704.00
268.4270, 24854.00
269.6400, 24877.00
270.8520, 24872.00
272.0640, 24950.10
273.2760, 24860.00
274.4880, 25047.00
275.7000, 24911.00
276.9120, 25014.00
278.1230, 24952.00
279.3340, 25151.00
280.5450, 25171.00
281.7560, 25251.00
282.9670, 25290.00
284.1780, 25244.32
285.3880, 25278.74
286.5980, 25138.00
287.8090, 25292.00
289.0190, 25272.00
290.2290, 25354.00
291.4380, 25523.00
292.6480, 25542.00
293.8570, 25503.00
295.0670, 25517.00
296.2760, 25975.00
297.4850, 25828.00
298.6930, 25968.00
299.9020, 25970.00
301.1110, 26019.00
302.3190, 25849.00
303.5270, 25986.00
304.7350, 26091.00
305.9430, 26114.00
307.1510, 26252.00
308.3580, 26279.49
309.5660, 26403.00
310.7730, 26304.00
311.9800, 26379.00
313.1870, 26261.00
314.3940, 26435.00
315.6010, 26298.00
316.8070, 26624.00
318.0130, 26466.00
319.2200, 26699.00
320.4260, 26718.00
321.6310, 26466.00
322.8370, 26643.00
324.0430, 26841.00
325.2480, 26771.00
326.4540, 26751.00
327.6590, 26885.00
328.8640, 26795.00
330.0680, 26936.00
331.2730, 26994.00
332.4780, 27031.00
333.6820, 26943.00
334.8860, 26858.00
336.0900, 26958.00
337.2940, 27143.00
338.4980, 27077.00
339.7010, 27282.00
340.9050, 27148.00
342.1080, 27077.00
343.3110, 27290.00
344.5140, 27212.00
345.7170, 27306.00
346.9200, 27155.00
348.1220, 27319.00
349.3240, 27477.00
350.5270, 27330.00
351.7290, 27309.00
352.9310, 27363.00
354.1320, 27369.00
355.3340, 27395.84
356.5350, 27441.00
357.7370, 27457.00
358.9380, 27508.00
360.1390, 27539.99
361.3400, 27617.00
362.5400, 27578.00
363.7410, 27655.00
364.9410, 27746.00
366.1410, 28022.00
367.3410, 27686.00
368.5410, 28013.00
369.7410, 27882.00
370.9400, 27849.00
372.1400, 27875.00
373.3390, 27814.77
374.5380, 27826.51
375.7370, 27814.00
376.9360, 27897.00
378.1350, 27942.00
379.3330, 28142.00
380.5310, 27970.00
381.7300, 28095.00
382.9280, 27993.00
384.1260, 28218.00
385.3230, 28304.00
386.5210, 28141.00
387.7180, 28262.00
388.9160, 28310.00
390.1130, 28154.00
391.3100, 28240.00
392.5060, 28129.00
393.7030, 28414.00
394.9000, 28370.00
396.0960, 28359.00
397.2920, 28353.00
398.4880, 28551.00
399.6840, 28646.00
400.8800, 28544.00
402.0750, 28731.00
403.2710, 28593.00
404.4660, 28605.00
405.6610, 28618.00
406.8560, 28768.00
408.0510, 28912.00
409.2450, 28761.00
410.4400, 28878.00
411.6340, 29218.00
412.8280, 29085.00
414.0220, 29162.00
415.2160, 29058.00
416.4100, 29320.00
417.6030, 29351.41
418.7970, 29609.00
419.9900, 29666.00
421.1830, 29679.00
422.3760, 29971.00
423.5690, 30047.35
424.7610, 30249.00
425.9540, 30421.00
427.1460, 30698.00
428.3380, 30953.00
429.5300, 31459.00
430.7220, 31330.00
431.9140, 31375.00
433.1050, 31648.00
434.2970, 31485.00
435.4880, 31851.00
436.6790, 32017.00
437.8700, 32366.00
439.0610, 32558.00
440.2510, 32340.00
441.4420, 32228.00
442.6320, 32016.00
443.8220, 32391.00
445.0120, 31942.00
446.2020, 31883.00
447.3910, 31637.00
448.5810, 31217.00
449.7700, 31263.00
450.9600, 31370.00
452.1490, 30823.00
453.3370, 30888.00
454.5260, 30918.00
455.7150, 30659.00
456.9030, 30622.00
458.0910, 30315.00
459.2800, 30233.00
460.4670, 30329.00
461.6550, 30246.00
462.8430, 30141.00
464.0300, 30237.00
465.2180, 30127.00
466.4050, 30278.00
467.5920, 30077.00
468.7790, 30359.00
469.9650, 30136.00
471.1520, 30061.00
472.3380, 30235.00
473.5250, 30172.00
474.7110, 30189.00
475.8970, 30218.00
477.0820, 30187.00
478.2680, 30223.76
479.4540, 30085.00
480.6390, 30213.00
481.8240, 30294.00
483.0090, 30187.00
484.1940, 30241.00
485.3780, 30288.00
486.5630, 30422.00
487.7470, 30443.00
488.9320, 30515.00
490.1160, 30315.00
491.3000, 30383.00
492.4830, 30626.00
493.6670, 30377.00
494.8500, 30387.00
496.0340, 30599.00
497.2170, 30396.00
498.4000, 30565.00
499.5820, 30507.00
500.7650, 30516.00
501.9480, 30479.00
503.1300, 30657.00
504.3120, 30650.79
505.4940, 30821.00
506.6760, 30821.00
507.8580, 30855.00
509.0390, 31037.00
510.2210, 31021.00
511.4020, 31063.00
512.5830, 31047.00
513.7640, 31231.00
514.9450, 31302.00
516.1250, 31326.00
517.3060, 31504.00
518.4860, 31319.00
519.6660, 31541.00
520.8460, 31422.00
522.0260, 31476.00
523.2060, 31587.00
524.3850, 31820.00
525.5650, 31724.00
526.7440, 31860.00
527.9230, 31535.00
529.1020, 31740.00
530.2810, 31765.00
531.4590, 31970.00
532.6380, 32179.00
533.8160, 32064.00
534.9940, 31918.00
536.1720, 31982.00
537.3500, 32059.00
538.5270, 31995.00
539.7050, 32109.59
540.8820, 32254.00
542.0590, 32160.00
543.2360, 32174.00
544.4130, 31996.00
545.5900, 32060.00
546.7660, 32360.00
547.9430, 32251.00
549.1190, 32519.00
550.2950, 32447.00
551.4710, 32477.00
552.6470, 32573.00
553.8220, 32657.00
554.9980, 32548.00
556.1730, 32932.00
557.3480, 33140.00
558.5230, 33095.00
559.6980, 33523.00
560.8730, 33632.00
562.0470, 33845.00
563.2220, 34244.00
564.3960, 34436.00
565.5700, 34644.00
566.7440, 34979.00
567.9170, 35347.93
569.0910, 35675.86
570.2640, 36202.00
571.4380, 36425.00
572.6110, 36771.00
573.7840, 37111.00
574.9570, 37256.00
576.1290, 37264.60
577.3020, 37193.00
578.4740, 36970.00
579.6460, 36727.00
580.8180, 36397.77
581.9900, 36055.00
583.1620, 35684.00
584.3330, 35371.00
585.5040, 34905.00
586.6760, 34666.00
587.8470, 34215.00
589.0180, 33922.00
590.1880, 33808.58
591.3590, 33977.00
592.5290, 33702.00
593.7000, 33614.00
594.8700, 33687.00
596.0400, 33516.00
597.2090, 33362.00
598.3790, 33380.00
599.5490, 33551.00
600.7180, 33201.00
601.8870, 33552.00
603.0560, 33341.00
604.2250, 33568.00
605.3940, 33158.00
606.5620, 33317.00
607.7300, 33382.00
608.8990, 33271.00
610.0670, 33355.00
611.2350, 33570.00
612.4020, 33705.00
613.5700, 33844.00
614.7370, 33917.00
615.9050, 33908.00
617.0720, 34201.00
618.2390, 34211.00
619.4060, 34469.00
620.5720, 34789.00
621.7390, 34886.00
622.9050, 35247.00
624.0710, 35617.00
625.2370, 36063.00
626.4030, 36632.00
627.5690, 36823.00
628.7340, 37718.00
629.9000, 38239.00
631.0650, 38446.00
632.2300, 38744.00
633.3950, 39006.00
634.5600, 39024.00
635.7240, 38627.00
636.8890, 38285.00
638.0530, 37676.00
639.2170, 37123.00
640.3810, 36571.00
641.5450, 36063.00
642.7080, 35644.00
643.8720, 35194.00
645.0350, 35121.00
646.1980, 34785.00
647.3610, 34589.00
648.5240, 34365.00
649.6870, 34442.00
650.8490, 33957.00
652.0120, 34431.00
653.1740, 34222.00
654.3360, 34113.00
655.4980, 34263.00
656.6600, 33915.00
657.8210, 34232.00
658.9830, 34173.00
660.1440, 33995.00
661.3050, 34006.00
662.4660, 34008.00
663.6270, 34139.00
664.7870, 34035.00
665.9480, 34060.00
667.1080, 34020.00
668.2680, 34026.59
669.4280, 34120.00
670.5880, 34052.00
671.7480, 34174.00
672.9070, 34150.00
674.0670, 34146.00
675.2260, 34221.00
676.3850, 34247.00
677.5440, 34338.00
678.7030, 34347.00
679.8610, 34343.00
681.0200, 34338.00
682.1780, 34288.00
683.3360, 34304.00
684.4940, 34302.83
685.6520, 34351.00
686.8090, 34352.00
687.9670, 34485.00
689.1240, 34563.00
690.2810, 34627.00
691.4380, 34722.00
692.5950, 34716.00
693.7520, 34573.00
694.9080, 34783.00
696.0650, 34703.00
697.2210, 34800.00
698.3770, 34872.00
699.5330, 34781.00
700.6880, 34807.00
701.8440, 34746.00
702.9990, 34759.03
704.1550, 34705.00
705.3100, 34810.00
706.4650, 34797.00
707.6190, 34851.00
708.7740, 34960.00
709.9290, 35256.00
711.0830, 35304.00
712.2370, 35023.00
713.3910, 35376.00
714.5450, 35238.00
715.6980, 35498.00
716.8520, 35248.00
718.0050, 35248.00
719.1580, 35382.00
720.3110, 35585.00
721.4640, 35382.00
722.6170, 35553.00
723.7700, 35456.00
724.9220, 35658.00
726.0740, 35612.00
727.2260, 35919.00
728.3780, 35832.00
729.5300, 35751.00
730.6810, 35953.00
731.8330, 35795.00
732.9840, 35804.00
734.1350, 36011.00
735.2860, 36325.00
736.4370, 35983.00
737.5880, 36163.00
738.7380, 36895.00
739.8880, 36937.00
741.0390, 37657.00
742.1890, 36859.00
743.3380, 36241.00
744.4880, 36324.00
745.6380, 36330.00
746.7870, 36244.00
747.9360, 36577.00
749.0850, 36435.00
750.2340, 36510.00
751.3830, 36479.00
752.5310, 36594.00
753.6800, 36505.00
754.8280, 36497.00
755.9760, 36536.98
757.1240, 36571.00
758.2720, 36538.00
759.4190, 36517.00
760.5670, 36438.00
761.7140, 36815.00
762.8610, 36389.00
764.0080, 36493.00
765.1550, 36298.00
766.3020, 36794.00
767.4480, 36551.00
768.5950, 36789.00
769.7410, 36778.00
770.8870, 36827.00
772.0330, 36642.00
773.1780, 36898.00
774.3240, 36892.00
775.4690, 36835.00
776.6140, 36946.00
777.7590, 36977.00
778.9040, 37059.00
780.0490, 37070.00
781.1940, 37047.00
782.3380, 37053.00
783.4820, 36861.00
784.6260, 37100.00
785.7700, 37331.00
786.9140, 37355.00
788.0580, 37007.00
789.2010, 37228.00
790.3450, 37256.00
791.4880, 37135.00
792.6310, 37336.00
793.7730, 37317.00
794.9160, 37363.00
796.0590, 37475.00
797.2010, 37549.00
798.3430, 37503.00
799.4850, 37352.00
800.6270, 37558.00
801.7690, 37475.00
802.9100, 37664.00
804.0520, 37483.00
805.1930, 37464.00
806.3340, 37608.00
807.4750, 37582.00
808.6160, 37807.00
809.7560, 37871.00
810.8970, 37726.00
812.0370, 37709.00
813.1770, 37959.00
814.3170, 37837.00
815.4570, 37917.00
816.5960, 37717.00
817.7360, 37983.00
818.8750, 38014.00
820.0140, 38118.00
821.1530, 38011.00
822.2920, 38252.00
823.4310, 38006.00
824.5690, 38319.00
825.7070, 38201.00
826.8460, 38248.00
827.9840, 38538.00
829.1220, 38189.00
830.2590, 38395.00
831.3970, 38435.00
832.5340, 38480.00
833.6710, 38526.00
834.8080, 38532.00
835.9450, 38207.00
837.0820, 38469.00
838.2190, 38575.00
839.3550, 38845.00
840.4910, 38646.00
841.6270, 38630.00
842.7630, 38583.00
843.8990, 38616.29
845.0350, 38955.00
846.1700, 38812.00
847.3060, 38907.00
848.4410, 39043.00
849.5760, 38726.00
850.7100, 38976.00
851.8450, 38875.00
852.9800, 39255.00
854.1140, 39078.00
855.2480, 39071.00
856.3820, 39003.00
857.5160, 39223.00
858.6500, 39028.00
859.7830, 39236.00
860.9170, 39411.00
862.0500, 39467.00
863.1830, 39515.00
864.3160, 39552.86
865.4480, 39461.00
866.5810, 39612.00
867.7130, 39470.00
868.8460, 39645.00
869.9780, 39614.90
871.1100, 39772.00
872.2410, 39608.00
873.3730, 39732.00
874.5050, 39708.00
875.6360, 39855.00
876.7670, 39894.00
877.8980, 39990.00
879.0290, 39857.00
880.1590, 39941.00
881.2900, 39934.00
882.4200, 39873.00
883.5500, 40022.00
884.6800, 39975.12
885.8100, 40038.00
886.9400, 40043.00
888.0690, 40098.00
889.1990, 40218.00
890.3280, 40131.00
891.4570, 40333.00
892.5860, 40350.00
893.7140, 40444.00
894.8430, 40438.00
895.9710, 40765.00
897.1000, 40967.00
898.2280, 40543.00
899.3560, 41164.00
900.4830, 41122.00
901.6110, 41031.00
902.7380, 41278.00
903.8660, 41403.00
904.9930, 41539.33
906.1200, 42094.00
907.2460, 41969.00
908.3730, 42185.00
909.5000, 42509.00
910.6260, 42412.00
911.7520, 42864.00
912.8780, 43022.00
914.0040, 42880.00
915.1290, 43136.00
916.2550, 43523.00
917.3800, 43767.00
918.5050, 43940.00
919.6300, 44091.00
920.7550, 44420.00
921.8800, 44761.00
923.0040, 44954.00
924.1290, 45441.00
925.2530, 45839.00
926.3770, 46395.00
927.5010, 46884.00
928.6250, 47345.00
929.7480, 48007.00
930.8720, 48279.00
931.9950, 48623.00
933.1180, 48686.00
934.2410, 48971.00
935.3640, 48911.00
936.4860, 49438.00
937.6090, 49154.00
938.7310, 48894.00
939.8530, 48680.00
940.9750, 48191.00
942.0970, 47747.00
943.2180, 47481.00
944.3400, 46881.00
945.4610, 46447.00
946.5820, 46214.00
947.7030, 45745.00
948.8240, 45414.62
949.9450, 44944.00
951.0650, 44646.00
952.1860, 44491.00
953.3060, 44033.00
954.4260, 43770.00
955.5460, 43722.00
956.6650, 43586.00
957.7850, 43482.00
958.9040, 43292.00
960.0230, 43372.00
961.1420, 43294.00
962.2610, 43061.00
963.3800, 43354.00
964.4990, 43340.00
965.6170, 43298.00
966.7350, 43087.00
967.8530, 43204.00
968.9710, 43378.00
970.0890, 43235.00
971.2070, 43273.00
972.3240, 43541.00
973.4410, 43527.00
974.5580, 43942.00
975.6750, 44229.00
976.7920, 43987.00
977.9090, 44427.00
979.0250, 44469.00
980.1410, 44658.00
981.2580, 44882.00
982.3740, 45382.00
983.4890, 45437.00
984.6050, 45693.00
985.7200, 45894.00
986.8360, 46537.00
987.9510, 46795.00
989.0660, 47551.00
990.1810, 47883.00
991.2950, 48315.00
992.4100, 48753.00
993.5240, 49101.34
994.6390, 49540.25
995.7530, 49791.00
996.8660, 50291.00
997.9800, 50524.55
999.0940, 50746.00
1000.207, 50854.00
1001.320, 50817.00
1002.433, 50769.00
1003.546, 50805.00
1004.659, 50458.00
1005.772, 50333.00
1006.884, 50017.00
1007.996, 49574.00
1009.108, 49247.00
1010.220, 49022.00
1011.332, 48924.00
1012.444, 48364.00
1013.555, 48232.00
1014.666, 47523.00
1015.777, 47231.00
1016.888, 47312.00
1017.999, 47061.00
1019.110, 46683.00
1020.220, 46352.00
1021.331, 46251.00
1022.441, 46050.00
1023.551, 45874.00
1024.661, 46150.00
1025.770, 45655.00
1026.880, 45927.00
1027.989, 45824.00
1029.098, 45541.00
1030.207, 45502.00
1031.316, 45360.14
1032.425, 45337.00
1033.533, 45251.00
1034.642, 45205.00
1035.750, 45322.00
1036.858, 45285.00
1037.966, 45328.00
1039.073, 45210.00
1040.181, 45431.00
1041.288, 45314.00
1042.396, 45483.00
1043.503, 45283.00
1044.610, 45222.00
1045.716, 45291.00
1046.823, 45316.00
1047.929, 45350.00
1049.036, 45365.95
1050.142, 45372.68
1051.248, 45374.00
1052.353, 45350.00
1053.459, 45354.00
1054.564, 45296.00
1055.670, 45365.00
1056.775, 45246.00
1057.880, 45497.00
1058.985, 45346.00
1060.089, 45170.00
1061.194, 45153.00
1062.298, 45394.00
1063.402, 45506.00
1064.506, 45474.00
1065.610, 45351.00
1066.713, 45446.00
1067.817, 45385.00
1068.920, 45613.00
1070.023, 45453.00
1071.126, 45668.00
1072.229, 45675.00
1073.332, 45629.00
1074.435, 45623.00
1075.537, 45816.00
1076.639, 45840.00
1077.741, 45732.00
1078.843, 45980.00
1079.945, 46117.00
1081.046, 45855.00
1082.148, 46167.00
1083.249, 46257.00
1084.350, 46154.00
1085.451, 46296.00
1086.551, 46687.00
1087.652, 46300.00
1088.752, 46558.00
1089.853, 46428.00
1090.953, 46624.00
1092.053, 46535.00
1093.152, 46711.00
1094.252, 46609.00
1095.351, 46563.00
1096.451, 46800.00
1097.550, 46455.00
1098.649, 46527.00
1099.748, 46547.00
1100.846, 46161.00
1101.945, 46477.00
1103.043, 46363.00
1104.141, 46128.00
1105.239, 46645.00
1106.337, 46107.00
1107.434, 46014.00
1108.532, 46486.00
1109.629, 46370.00
1110.726, 46604.00
1111.823, 46574.00
1112.920, 46542.00
1114.017, 46475.00
1115.113, 46611.00
1116.210, 46818.00
1117.306, 46502.00
1118.402, 46664.00
1119.498, 46982.00
1120.593, 46718.00
1121.689, 46948.00
1122.784, 47013.00
1123.879, 47177.00
1124.974, 47105.00
1126.069, 47074.00
1127.164, 46817.00
1128.259, 46925.00
1129.353, 46925.00
1130.447, 46916.00
1131.541, 46878.00
1132.635, 47055.00
1133.729, 46999.00
1134.822, 47217.00
1135.916, 47167.00
1137.009, 47205.00
1138.102, 47047.00
1139.195, 47299.00
1140.288, 47277.00
1141.380, 47247.00
1142.473, 47544.00
1143.565, 47399.00
1144.657, 47343.00
1145.749, 47630.00
1146.841, 47504.00
1147.932, 47485.00
1149.024, 47679.00
1150.115, 47370.00
1151.206, 47718.00
1152.297, 47507.00
1153.388, 47442.00
1154.479, 47757.00
1155.569, 47761.00
1156.659, 47868.00
1157.750, 47878.00
1158.839, 47694.00
1159.929, 47662.00
1161.019, 47674.00
1162.108, 47848.00
1163.198, 47576.00
1164.287, 47597.00
1165.376, 47893.00
1166.465, 47871.00
1167.553, 48072.00
1168.642, 47877.00
1169.730, 47775.00
1170.818, 48027.00
1171.906, 48364.00
1172.994, 47961.00
1174.082, 48176.00
1175.170, 48219.00
1176.257, 48368.00
1177.344, 48395.00
1178.431, 48363.00
1179.518, 48179.00
1180.605, 48407.00
1181.691, 47934.00
1182.778, 48261.00
1183.864, 48384.00
1184.950, 48242.00
1186.036, 48404.00
1187.122, 48628.00
1188.207, 48572.00
1189.292, 48344.00
1190.378, 48667.00
1191.463, 48482.00
1192.548, 48408.00
1193.632, 48768.00
1194.717, 48493.00
1195.801, 48676.00
1196.886, 48763.00
1197.970, 48818.00
1199.054, 48636.00
1200.137, 48838.00
1201.221, 48660.00
1202.305, 49056.00
1203.388, 49029.00
1204.471, 48761.00
1205.554, 49038.00
1206.637, 48796.00
1207.719, 48932.00
1208.802, 48868.00
1209.884, 48793.00
1210.966, 49100.00
1212.048, 49225.00
1213.130, 49069.00
1214.212, 49186.00
1215.293, 49181.00
1216.374, 49253.00
1217.456, 49563.00
1218.536, 49278.00
1219.617, 49530.00
1220.698, 49472.00
1221.778, 49186.00
1222.859, 49368.00
1223.939, 49553.00
1225.019, 49661.00
1226.099, 49357.00
1227.178, 49680.00
1228.258, 49805.00
1229.337, 49506.00
1230.417, 49617.00
1231.496, 49613.00
1232.574, 49898.00
1233.653, 49615.00
1234.732, 49809.00
1235.810, 49879.00
1236.888, 49831.00
1237.966, 49952.00
1239.044, 50051.00
1240.122, 49941.00
1241.199, 50055.00
1242.277, 50049.00
1243.354, 50112.00
1244.431, 49753.00
1245.508, 50065.00
1246.585, 49863.00
1247.661, 50334.00
1248.738, 50005.00
1249.814, 49983.00
1250.890, 50003.00
1251.966, 50292.00
1253.042, 50381.00
1254.117, 50176.00
1255.193, 50294.00
1256.268, 50124.00
1257.343, 49909.00
1258.418, 49934.00
1259.493, 50252.00
1260.567, 50117.00
1261.642, 50429.00
1262.716, 50304.00
1263.790, 50794.00
1264.864, 50846.00
1265.938, 50664.00
1267.011, 50665.00
1268.085, 50554.00
1269.158, 50615.00
1270.231, 50354.00
1271.304, 50873.00
1272.377, 50760.00
1273.450, 50824.00
1274.522, 50414.00
1275.594, 50899.00
1276.666, 50592.00
1277.738, 50897.00
1278.810, 51258.00
1279.882, 50681.00
1280.953, 51098.00
1282.025, 50903.00
1283.096, 51011.00
1284.167, 50732.00
1285.238, 51161.00
1286.308, 51162.00
1287.379, 51071.00
1288.449, 51229.00
1289.519, 51459.00
1290.589, 51358.00
1291.659, 51242.00
1292.729, 51266.00
1293.798, 51575.00
1294.868, 51495.00
1295.937, 51502.00
