##NAMES=Catapleiite
##RRUFFID=R040005
##IDEAL CHEMISTRY=Na_2_Zr^4+^Si_3_O_9_&#183;2H_2_O
##LOCALITY=Langesundsfjord Eikaholmen Vestfold, Norway
##OWNER=RRUFF
##SOURCE=University of Arizona Mineral Museum
##DESCRIPTION=Brown thin tabular crystal
##STATUS=The identification of this mineral has been confirmed by X-ray diffraction and chemical analysis
##URL=rruff.info/R040005
##MEASURED CHEMISTRY=(Na_1.28_Ca_0.36_[box]_0.36_)_Σ=2_Zr_1.00_Si_3.00_O_9_·2H_2_O
##PIN_ID=L01591
##ORIENTATION=Laser parallel to b* (0 1 0). Fiducial mark perpendicular to laser is parallel to -c [0 0 -1]
120.5960, 18102.64
121.8270, 17853.00
123.0580, 17761.00
124.2880, 17672.00
125.5190, 17462.00
126.7490, 17453.00
127.9790, 17449.00
129.2090, 17774.00
130.4390, 17631.00
131.6680, 17835.00
132.8980, 17739.00
134.1270, 17878.00
135.3560, 17931.00
136.5850, 18045.00
137.8140, 17966.00
139.0430, 18211.00
140.2710, 18330.00
141.5000, 18220.00
142.7280, 18334.00
143.9560, 18357.00
145.1840, 18372.00
146.4120, 18659.00
147.6390, 18658.00
148.8670, 18837.00
150.0940, 18867.00
151.3210, 19217.00
152.5490, 18948.00
153.7750, 19032.00
155.0020, 18902.00
156.2290, 19283.00
157.4550, 19115.00
158.6810, 19208.00
159.9080, 19138.00
161.1340, 19203.00
162.3590, 19191.00
163.5850, 19251.00
164.8110, 19300.00
166.0360, 19225.00
167.2610, 19241.00
168.4860, 19250.00
169.7110, 19378.00
170.9360, 19578.00
172.1610, 19564.00
173.3850, 19980.00
174.6100, 19798.00
175.8340, 19761.00
177.0580, 19892.00
178.2820, 20261.00
179.5050, 20216.00
180.7290, 20418.00
181.9520, 20355.00
183.1760, 20708.00
184.3990, 20867.00
185.6220, 21066.00
186.8450, 21106.00
188.0670, 21472.00
189.2900, 21758.00
190.5120, 21995.00
191.7340, 22332.00
192.9560, 22551.00
194.1780, 22824.00
195.4000, 23174.00
196.6220, 23198.00
197.8430, 23499.00
199.0640, 23852.00
200.2860, 23879.00
201.5070, 24317.00
202.7270, 24477.00
203.9480, 24533.00
205.1690, 24767.00
206.3890, 25129.00
207.6090, 25100.00
208.8290, 25159.00
210.0490, 25131.00
211.2690, 25165.00
212.4890, 25018.00
213.7080, 24681.14
214.9280, 24060.00
216.1470, 23762.00
217.3660, 23140.00
218.5850, 22538.00
219.8030, 21763.00
221.0220, 21486.00
222.2400, 20838.00
223.4590, 20447.00
224.6770, 19950.00
225.8950, 19550.00
227.1120, 19194.00
228.3300, 18862.00
229.5480, 18580.45
230.7650, 18217.00
231.9820, 18101.00
233.1990, 17945.00
234.4160, 17751.00
235.6330, 17528.00
236.8490, 17486.00
238.0660, 17444.00
239.2820, 17229.00
240.4980, 17185.00
241.7140, 17096.00
242.9300, 16823.00
244.1460, 16898.00
245.3610, 16751.00
246.5770, 16781.00
247.7920, 16548.00
249.0070, 16629.00
250.2220, 16634.00
251.4370, 16318.00
252.6510, 16407.00
253.8660, 16280.00
255.0800, 16332.00
256.2940, 16432.00
257.5080, 16410.00
258.7220, 16606.00
259.9360, 16614.00
261.1490, 16399.00
262.3630, 16404.00
263.5760, 16145.00
264.7890, 16033.00
266.0020, 15905.00
267.2150, 16072.00
268.4270, 15961.00
269.6400, 16054.00
270.8520, 15933.00
272.0640, 15882.00
273.2760, 16015.00
274.4880, 15990.00
275.7000, 15887.00
276.9120, 15866.00
278.1230, 15905.00
279.3340, 15870.00
280.5450, 16031.00
281.7560, 15788.00
282.9670, 16050.00
284.1780, 15928.00
285.3880, 15764.00
286.5980, 15882.00
287.8090, 15931.00
289.0190, 16000.00
290.2290, 16184.00
291.4380, 16177.00
292.6480, 16316.00
293.8570, 16259.00
295.0670, 16387.00
296.2760, 16387.00
297.4850, 16316.00
298.6930, 16534.00
299.9020, 16644.00
301.1110, 16575.00
302.3190, 16676.00
303.5270, 16583.00
304.7350, 16707.00
305.9430, 16775.00
307.1510, 16836.00
308.3580, 16778.00
309.5660, 16778.00
310.7730, 16854.00
311.9800, 16740.00
313.1870, 16826.00
314.3940, 16848.00
315.6010, 17002.00
316.8070, 16980.00
318.0130, 17043.00
319.2200, 16962.00
320.4260, 17150.00
321.6310, 17163.00
322.8370, 17180.00
324.0430, 17119.00
325.2480, 17105.00
326.4540, 17188.00
327.6590, 16837.00
328.8640, 17113.00
330.0680, 17060.00
331.2730, 17198.00
332.4780, 16973.00
333.6820, 16996.00
334.8860, 17015.00
336.0900, 17047.00
337.2940, 17114.00
338.4980, 17118.00
339.7010, 17190.00
340.9050, 17196.33
342.1080, 17190.00
343.3110, 17213.00
344.5140, 17250.00
345.7170, 17250.00
346.9200, 17306.00
348.1220, 17465.00
349.3240, 17500.00
350.5270, 17327.00
351.7290, 17562.00
352.9310, 17728.00
354.1320, 17578.00
355.3340, 17703.00
356.5350, 17775.00
357.7370, 17896.00
358.9380, 18038.00
360.1390, 18054.00
361.3400, 18017.00
362.5400, 18236.00
363.7410, 17956.00
364.9410, 18045.00
366.1410, 18102.00
367.3410, 17871.00
368.5410, 17991.00
369.7410, 18012.00
370.9400, 17931.00
372.1400, 17908.00
373.3390, 17850.00
374.5380, 17733.00
375.7370, 17728.00
376.9360, 17656.00
378.1350, 17620.00
379.3330, 17586.00
380.5310, 17566.75
381.7300, 17555.10
382.9280, 17555.00
384.1260, 17531.00
385.3230, 17517.07
386.5210, 17464.00
387.7180, 17542.00
388.9160, 17508.00
390.1130, 17607.00
391.3100, 17658.00
392.5060, 17666.00
393.7030, 17773.00
394.9000, 17682.00
396.0960, 17796.00
397.2920, 17810.00
398.4880, 17762.00
399.6840, 17705.00
400.8800, 17819.00
402.0750, 17856.00
403.2710, 18020.00
404.4660, 17906.00
405.6610, 18058.00
406.8560, 18210.00
408.0510, 18079.00
409.2450, 18331.00
410.4400, 18375.00
411.6340, 18454.00
412.8280, 18579.00
414.0220, 18903.00
415.2160, 18714.00
416.4100, 18762.00
417.6030, 19214.00
418.7970, 19297.00
419.9900, 19451.00
421.1830, 19933.00
422.3760, 19816.00
423.5690, 20307.00
424.7610, 20788.00
425.9540, 20946.00
427.1460, 21322.00
428.3380, 21701.00
429.5300, 22100.00
430.7220, 22282.00
431.9140, 22456.00
433.1050, 22430.00
434.2970, 22723.00
435.4880, 22741.00
436.6790, 22592.00
437.8700, 22698.00
439.0610, 22787.00
440.2510, 22530.00
441.4420, 22285.00
442.6320, 22333.00
443.8220, 21978.00
445.0120, 21685.00
446.2020, 21380.00
447.3910, 21083.42
448.5810, 20775.47
449.7700, 20524.00
450.9600, 20185.00
452.1490, 19905.00
453.3370, 19672.00
454.5260, 19483.00
455.7150, 19172.00
456.9030, 18967.00
458.0910, 18887.00
459.2800, 18656.00
460.4670, 18581.00
461.6550, 18519.00
462.8430, 18289.00
464.0300, 18272.00
465.2180, 18195.03
466.4050, 18271.00
467.5920, 18140.00
468.7790, 18241.00
469.9650, 18256.00
471.1520, 18168.00
472.3380, 18326.00
473.5250, 17972.00
474.7110, 18127.00
475.8970, 17938.00
477.0820, 18084.00
478.2680, 17927.00
479.4540, 18112.00
480.6390, 18007.00
481.8240, 18128.00
483.0090, 17987.00
484.1940, 18171.00
485.3780, 18002.00
486.5630, 18001.00
487.7470, 17949.00
488.9320, 18042.00
490.1160, 18110.00
491.3000, 18132.14
492.4830, 18120.00
493.6670, 18211.00
494.8500, 18258.00
496.0340, 18242.00
497.2170, 18315.00
498.4000, 18309.00
499.5820, 18517.00
500.7650, 18575.00
501.9480, 18520.00
503.1300, 18712.00
504.3120, 18968.00
505.4940, 18986.00
506.6760, 18992.00
507.8580, 19130.00
509.0390, 19208.00
510.2210, 19457.00
511.4020, 19621.00
512.5830, 19842.00
513.7640, 19930.64
514.9450, 20070.00
516.1250, 20053.00
517.3060, 20116.00
518.4860, 20130.67
519.6660, 20178.07
520.8460, 20243.00
522.0260, 20276.00
523.2060, 20385.00
524.3850, 20416.00
525.5650, 20189.00
526.7440, 19877.00
527.9230, 19744.00
529.1020, 19814.00
530.2810, 19784.00
531.4590, 19631.00
532.6380, 19675.00
533.8160, 19554.00
534.9940, 19281.00
536.1720, 19377.00
537.3500, 19267.00
538.5270, 19197.00
539.7050, 18789.00
540.8820, 19054.00
542.0590, 19087.00
543.2360, 18740.00
544.4130, 18927.00
545.5900, 18752.00
546.7660, 18720.00
547.9430, 18637.00
549.1190, 18662.00
550.2950, 18670.00
551.4710, 18693.00
552.6470, 18973.00
553.8220, 18737.00
554.9980, 19163.00
556.1730, 19122.46
557.3480, 19429.00
558.5230, 19264.00
559.6980, 19416.00
560.8730, 19553.00
562.0470, 19788.00
563.2220, 20006.47
564.3960, 20527.00
565.5700, 20647.00
566.7440, 20929.00
567.9170, 21509.00
569.0910, 21720.00
570.2640, 22123.00
571.4380, 22320.00
572.6110, 22416.00
573.7840, 22538.00
574.9570, 22532.17
576.1290, 22470.23
577.3020, 22368.00
578.4740, 22166.00
579.6460, 21902.00
580.8180, 21617.00
581.9900, 21264.00
583.1620, 20985.00
584.3330, 20560.00
585.5040, 20112.00
586.6760, 19853.00
587.8470, 19648.00
589.0180, 19389.00
590.1880, 19167.00
591.3590, 19314.00
592.5290, 18944.00
593.7000, 18996.00
594.8700, 18938.00
596.0400, 18875.00
597.2090, 18809.00
598.3790, 18766.94
599.5490, 18726.00
600.7180, 18703.00
601.8870, 18759.00
603.0560, 18779.00
604.2250, 18562.00
605.3940, 18676.00
606.5620, 18788.00
607.7300, 18773.00
608.8990, 18935.00
610.0670, 19037.00
611.2350, 19004.00
612.4020, 19172.00
613.5700, 19262.00
614.7370, 19458.00
615.9050, 19787.00
617.0720, 19888.00
618.2390, 20079.00
619.4060, 20381.00
620.5720, 20786.00
621.7390, 21235.00
622.9050, 21870.00
624.0710, 22456.00
625.2370, 23069.00
626.4030, 23938.00
627.5690, 24484.00
628.7340, 25293.00
629.9000, 25743.00
631.0650, 26087.00
632.2300, 26128.00
633.3950, 25894.00
634.5600, 25401.00
635.7240, 24952.00
636.8890, 24193.00
638.0530, 23388.00
639.2170, 22503.00
640.3810, 21971.00
641.5450, 21108.00
642.7080, 20610.00
643.8720, 20229.00
645.0350, 19800.00
646.1980, 19595.00
647.3610, 19277.00
648.5240, 19064.00
649.6870, 18791.00
650.8490, 18623.00
652.0120, 18644.00
653.1740, 18507.00
654.3360, 18501.00
655.4980, 18407.00
656.6600, 18573.00
657.8210, 18349.00
658.9830, 18435.00
660.1440, 18485.00
661.3050, 18449.00
662.4660, 18238.00
663.6270, 18236.00
664.7870, 18257.00
665.9480, 18276.00
667.1080, 18251.00
668.2680, 18075.00
669.4280, 18146.00
670.5880, 18086.00
671.7480, 18092.00
672.9070, 18277.00
674.0670, 18223.73
675.2260, 18290.00
676.3850, 18292.00
677.5440, 18193.00
678.7030, 18245.00
679.8610, 18254.00
681.0200, 18247.00
682.1780, 18255.00
683.3360, 18258.00
684.4940, 18339.00
685.6520, 18298.00
686.8090, 18331.49
687.9670, 18146.00
689.1240, 18307.00
690.2810, 18190.00
691.4380, 18079.00
692.5950, 18285.00
693.7520, 18411.00
694.9080, 18180.00
696.0650, 18306.00
697.2210, 18297.00
698.3770, 18176.00
699.5330, 18361.00
700.6880, 18432.00
701.8440, 18405.00
702.9990, 18236.00
704.1550, 18217.00
705.3100, 18308.00
706.4650, 18406.00
707.6190, 18470.00
708.7740, 18505.99
709.9290, 18531.00
711.0830, 18476.00
712.2370, 18445.00
713.3910, 18285.00
714.5450, 18475.00
715.6980, 18593.00
716.8520, 18539.00
718.0050, 18493.00
719.1580, 18637.00
720.3110, 18610.00
721.4640, 18754.00
722.6170, 18692.00
723.7700, 18739.00
724.9220, 18703.00
726.0740, 18781.00
727.2260, 18652.00
728.3780, 18879.00
729.5300, 18990.00
730.6810, 18892.00
731.8330, 18865.00
732.9840, 19151.00
734.1350, 19158.00
735.2860, 18896.00
736.4370, 18812.00
737.5880, 19136.00
738.7380, 18913.00
739.8880, 19110.00
741.0390, 18910.00
742.1890, 19045.00
743.3380, 19008.00
744.4880, 19012.00
745.6380, 19206.00
746.7870, 19159.00
747.9360, 19172.00
749.0850, 19197.00
750.2340, 19073.00
751.3830, 19173.00
752.5310, 18944.00
753.6800, 19006.00
754.8280, 19034.00
755.9760, 19157.00
757.1240, 19125.00
758.2720, 18936.00
759.4190, 19093.00
760.5670, 19002.00
761.7140, 19110.00
762.8610, 19029.00
764.0080, 18910.00
765.1550, 19002.00
766.3020, 19039.00
767.4480, 19073.00
768.5950, 19162.00
769.7410, 18876.00
770.8870, 19009.00
772.0330, 19024.00
773.1780, 19063.00
774.3240, 19103.00
775.4690, 19118.27
776.6140, 19098.00
777.7590, 19113.31
778.9040, 19051.00
780.0490, 19090.00
781.1940, 19091.00
782.3380, 19056.00
783.4820, 19130.00
784.6260, 19213.00
785.7700, 19079.00
786.9140, 19152.00
788.0580, 19241.00
789.2010, 19391.00
790.3450, 19202.00
791.4880, 19203.00
792.6310, 19091.00
793.7730, 19273.00
794.9160, 19253.00
796.0590, 19201.00
797.2010, 19279.00
798.3430, 19025.00
799.4850, 19136.00
800.6270, 19315.00
801.7690, 19170.00
802.9100, 19452.00
804.0520, 19374.00
805.1930, 19322.00
806.3340, 19308.00
807.4750, 19223.00
808.6160, 19355.00
809.7560, 19337.00
810.8970, 19166.00
812.0370, 19458.00
813.1770, 19394.00
814.3170, 19567.00
815.4570, 19407.00
816.5960, 19611.00
817.7360, 19566.00
818.8750, 19281.00
820.0140, 19378.00
821.1530, 19420.00
822.2920, 19526.00
823.4310, 19371.00
824.5690, 19686.00
825.7070, 19645.00
826.8460, 19523.00
827.9840, 19617.00
829.1220, 19691.00
830.2590, 19597.00
831.3970, 19625.00
832.5340, 19717.00
833.6710, 19755.00
834.8080, 19690.00
835.9450, 19781.00
837.0820, 19920.00
838.2190, 19793.00
839.3550, 19745.00
840.4910, 19890.00
841.6270, 19740.00
842.7630, 19752.00
843.8990, 19788.00
845.0350, 19854.00
846.1700, 19964.00
847.3060, 19888.00
848.4410, 19862.00
849.5760, 20030.00
850.7100, 19976.00
851.8450, 19978.00
852.9800, 19998.00
854.1140, 20020.00
855.2480, 19836.00
856.3820, 20120.00
857.5160, 20068.00
858.6500, 20247.00
859.7830, 20055.00
860.9170, 20018.00
862.0500, 20041.00
863.1830, 20067.00
864.3160, 20323.00
865.4480, 20224.00
866.5810, 20334.00
867.7130, 20226.00
868.8460, 20091.00
869.9780, 20178.00
871.1100, 20286.00
872.2410, 20300.00
873.3730, 20369.14
874.5050, 20339.00
875.6360, 20437.00
876.7670, 20306.00
877.8980, 20315.00
879.0290, 20422.00
880.1590, 20307.00
881.2900, 20353.00
882.4200, 20312.00
883.5500, 20278.00
884.6800, 20555.00
885.8100, 20515.00
886.9400, 20652.00
888.0690, 20555.00
889.1990, 20509.00
890.3280, 20825.00
891.4570, 20784.00
892.5860, 20733.00
893.7140, 20816.00
894.8430, 20868.00
895.9710, 20851.00
897.1000, 20944.00
898.2280, 21054.00
899.3560, 21236.00
900.4830, 21322.00
901.6110, 21490.00
902.7380, 21547.00
903.8660, 21736.00
904.9930, 22119.00
906.1200, 22144.00
907.2460, 22404.00
908.3730, 22545.00
909.5000, 22666.00
910.6260, 22864.74
911.7520, 22986.00
912.8780, 23125.00
914.0040, 23325.00
915.1290, 23335.00
916.2550, 23707.00
917.3800, 23904.00
918.5050, 23954.00
919.6300, 24389.00
920.7550, 24715.00
921.8800, 25041.00
923.0040, 25597.00
924.1290, 25974.30
925.2530, 26200.00
926.3770, 26918.00
927.5010, 27311.00
928.6250, 27789.00
929.7480, 28430.00
930.8720, 28624.00
931.9950, 28968.00
933.1180, 29103.00
934.2410, 29211.00
935.3640, 29335.00
936.4860, 28923.00
937.6090, 28878.00
938.7310, 28367.00
939.8530, 28409.00
940.9750, 27819.00
942.0970, 27417.00
943.2180, 27040.00
944.3400, 26574.00
945.4610, 26189.00
946.5820, 25801.27
947.7030, 25528.00
948.8240, 25082.00
949.9450, 24729.00
951.0650, 24448.00
952.1860, 24277.00
953.3060, 24012.00
954.4260, 23955.00
955.5460, 23758.00
956.6650, 23503.00
957.7850, 23692.00
958.9040, 23693.00
960.0230, 23507.00
961.1420, 23765.00
962.2610, 23739.00
963.3800, 23649.00
964.4990, 23943.00
965.6170, 24057.00
966.7350, 24347.00
967.8530, 24538.00
968.9710, 24774.00
970.0890, 25045.00
971.2070, 25588.00
972.3240, 25896.00
973.4410, 26250.00
974.5580, 26840.00
975.6750, 27626.00
976.7920, 28164.00
977.9090, 28992.00
979.0250, 29776.00
980.1410, 30865.00
981.2580, 31956.00
982.3740, 33331.00
983.4890, 34833.00
984.6050, 36646.00
985.7200, 38357.42
986.8360, 40241.00
987.9510, 42338.00
989.0660, 44508.00
990.1810, 46721.87
991.2950, 49203.00
992.4100, 51439.00
993.5240, 53973.00
994.6390, 56485.00
995.7530, 58388.00
996.8660, 60326.00
997.9800, 61513.00
999.0940, 62745.00
1000.207, 63109.00
1001.320, 63048.00
1002.433, 63119.00
1003.546, 62522.00
1004.659, 61740.00
1005.772, 60217.00
1006.884, 58512.00
1007.996, 56944.00
1009.108, 54729.00
1010.220, 53155.00
1011.332, 51118.00
1012.444, 49043.00
1013.555, 47246.00
1014.666, 45254.00
1015.777, 43332.00
1016.888, 41475.00
1017.999, 39687.00
1019.110, 38152.82
1020.220, 36665.00
1021.331, 35419.00
1022.441, 34278.00
1023.551, 33276.00
1024.661, 32378.81
1025.770, 31563.00
1026.880, 30933.00
1027.989, 30282.00
1029.098, 29814.00
1030.207, 29083.00
1031.316, 28816.00
1032.425, 28450.00
1033.533, 28149.00
1034.642, 27680.00
1035.750, 27798.00
1036.858, 27444.00
1037.966, 27545.00
1039.073, 26993.00
1040.181, 27404.00
1041.288, 26857.00
1042.396, 26814.00
1043.503, 26640.00
1044.610, 26892.00
1045.716, 26576.00
1046.823, 26489.00
1047.929, 26507.00
1049.036, 25998.00
1050.142, 26033.00
1051.248, 25936.00
1052.353, 25597.00
1053.459, 25254.00
1054.564, 25149.00
1055.670, 24984.00
1056.775, 24853.00
1057.880, 24533.00
1058.985, 24481.00
1060.089, 24344.00
1061.194, 24266.00
1062.298, 24243.00
1063.402, 24020.00
1064.506, 24015.00
1065.610, 23970.00
1066.713, 23835.00
1067.817, 23899.00
1068.920, 23822.00
1070.023, 23951.00
1071.126, 23960.00
1072.229, 23966.00
1073.332, 24123.00
1074.435, 24192.93
1075.537, 24192.00
1076.639, 24557.00
1077.741, 24851.00
1078.843, 25257.00
1079.945, 25487.00
1081.046, 25889.89
1082.148, 26414.00
1083.249, 26689.00
1084.350, 27254.00
1085.451, 27776.00
1086.551, 27943.00
1087.652, 28389.00
1088.752, 28642.00
1089.853, 28376.00
1090.953, 28467.00
1092.053, 28176.00
1093.152, 27764.00
1094.252, 27336.00
1095.351, 27023.00
1096.451, 26584.00
1097.550, 26019.00
1098.649, 25769.00
1099.748, 25369.26
1100.846, 25266.00
1101.945, 24789.00
1103.043, 24457.00
1104.141, 24225.00
1105.239, 23769.00
1106.337, 23681.00
1107.434, 23386.00
1108.532, 23253.00
1109.629, 23343.00
1110.726, 22974.00
1111.823, 23063.00
1112.920, 22857.00
1114.017, 22618.00
1115.113, 22637.00
1116.210, 22852.00
1117.306, 22658.00
1118.402, 22790.00
1119.498, 23050.00
1120.593, 23094.00
1121.689, 22963.00
1122.784, 23042.00
1123.879, 22959.00
1124.974, 22856.00
1126.069, 22748.00
1127.164, 22530.00
1128.259, 22486.00
1129.353, 22382.00
1130.447, 22327.00
1131.541, 22293.00
1132.635, 22245.61
1133.729, 22410.00
1134.822, 22242.00
1135.916, 22255.00
1137.009, 22344.00
1138.102, 22166.00
1139.195, 22205.00
1140.288, 22226.00
1141.380, 22070.00
1142.473, 22129.00
1143.565, 22217.00
1144.657, 22297.00
1145.749, 22242.00
1146.841, 22068.00
1147.932, 22086.00
1149.024, 22240.00
1150.115, 22020.00
1151.206, 22117.00
1152.297, 22077.00
1153.388, 22262.00
1154.479, 22187.00
1155.569, 22192.00
1156.659, 22249.00
1157.750, 22186.32
1158.839, 22070.00
1159.929, 22144.00
1161.019, 22051.00
1162.108, 22042.00
1163.198, 22010.00
1164.287, 22134.00
1165.376, 21978.00
1166.465, 22171.00
1167.553, 22046.00
1168.642, 22286.00
1169.730, 22073.00
1170.818, 22069.00
1171.906, 22037.00
1172.994, 22053.00
1174.082, 22235.00
1175.170, 21894.00
1176.257, 22133.00
1177.344, 22042.00
1178.431, 22036.00
1179.518, 21826.00
1180.605, 22043.00
1181.691, 21918.00
1182.778, 22047.00
1183.864, 21885.00
1184.950, 21793.00
1186.036, 21834.00
1187.122, 21953.00
1188.207, 21728.00
1189.292, 21851.00
1190.378, 21998.00
1191.463, 21890.00
1192.548, 21799.00
1193.632, 21700.00
1194.717, 21680.00
1195.801, 21619.04
1196.886, 21654.57
1197.970, 21623.00
1199.054, 21770.00
1200.137, 21922.00
1201.221, 22005.00
1202.305, 21647.00
1203.388, 21604.00
1204.471, 21699.00
1205.554, 21921.00
1206.637, 21659.00
1207.719, 21740.00
1208.802, 21724.00
1209.884, 21800.00
1210.966, 21865.00
1212.048, 21779.00
1213.130, 21716.00
1214.212, 21847.00
1215.293, 21619.00
1216.374, 21599.00
1217.456, 21720.00
1218.536, 21654.00
1219.617, 21694.20
1220.698, 21653.00
1221.778, 21749.00
1222.859, 21669.00
1223.939, 21773.00
1225.019, 21688.00
1226.099, 21874.00
1227.178, 21860.00
1228.258, 21772.00
1229.337, 21897.00
1230.417, 21854.00
1231.496, 21822.00
1232.574, 21863.00
1233.653, 21811.00
1234.732, 21838.00
1235.810, 21586.00
1236.888, 21760.00
1237.966, 21778.00
1239.044, 21631.00
1240.122, 21867.00
1241.199, 21622.00
1242.277, 21996.00
1243.354, 21795.00
1244.431, 21657.00
1245.508, 21690.00
1246.585, 21866.00
1247.661, 21911.00
1248.738, 21778.00
1249.814, 21777.00
1250.890, 21755.00
1251.966, 21717.54
1253.042, 21798.00
1254.117, 21703.00
1255.193, 21773.00
1256.268, 21766.00
1257.343, 21735.88
1258.418, 21736.00
1259.493, 21730.00
1260.567, 21688.00
1261.642, 21740.00
1262.716, 21880.00
1263.790, 21733.00
1264.864, 21964.00
1265.938, 21969.00
1267.011, 21875.00
1268.085, 21836.00
1269.158, 21875.00
1270.231, 21806.11
1271.304, 21763.00
1272.377, 21740.00
1273.450, 21816.00
1274.522, 21759.00
1275.594, 21862.00
1276.666, 21813.00
1277.738, 21787.00
1278.810, 21816.00
1279.882, 21922.00
1280.953, 21966.00
1282.025, 21985.63
1283.096, 21783.00
1284.167, 21963.00
1285.238, 21936.00
1286.308, 21824.00
1287.379, 21895.00
1288.449, 21959.00
1289.519, 21842.00
1290.589, 21834.00
1291.659, 21791.00
1292.729, 21855.00
1293.798, 21952.00
1294.868, 21953.00
