##NAMES=Catapleiite
##RRUFFID=R060208
##IDEAL CHEMISTRY=Na_2_Zr^4+^Si_3_O_9_&#183;2H_2_O
##LOCALITY=Mont Saint-Hilaire, Rouville County, Quebec, Canada
##OWNER=RRUFF
##SOURCE=Royal Ontario Museum
##DESCRIPTION=Colorless transparent thin tabular pseudohexagonal crystal
##STATUS=The identification of this mineral is confirmed by single-crystal X-ray diffraction and chemical analysis.
##URL=rruff.info/R060208
##MEASURED CHEMISTRY=Na_2.00_Zr_1.00_Si_3.00_O_9_Â·2H_2_O
##PIN_ID=M01705
##ORIENTATION=Laser parallel to a* (1 0 0). Fiducial mark perpendicular to laser is parallel to -b [0 -1 0]
122.1480, 8598.000
123.3810, 8689.000
124.6150, 8743.000
125.8480, 8939.000
127.0810, 8943.000
128.3130, 9071.000
129.5460, 9275.000
130.7790, 9233.000
132.0110, 9283.000
133.2430, 9401.000
134.4750, 9363.000
135.7070, 9456.836
136.9380, 9430.000
138.1700, 9579.000
139.4010, 9575.000
140.6330, 9654.000
141.8640, 9586.000
143.0950, 9682.000
144.3250, 9713.000
145.5560, 9874.000
146.7860, 9837.000
148.0160, 9823.000
149.2470, 10018.00
150.4760, 10123.00
151.7060, 10103.00
152.9360, 10149.00
154.1650, 10266.00
155.3950, 10222.00
156.6240, 10254.00
157.8530, 10373.00
159.0820, 10266.00
160.3100, 10223.00
161.5390, 10368.00
162.7670, 10321.00
163.9950, 10427.00
165.2230, 10382.00
166.4510, 10395.00
167.6790, 10500.00
168.9060, 10486.00
170.1340, 10774.00
171.3610, 10640.00
172.5880, 10753.00
173.8150, 10935.00
175.0420, 10917.00
176.2690, 11051.00
177.4950, 11165.00
178.7210, 11128.00
179.9470, 11173.00
181.1730, 11231.00
182.3990, 11359.00
183.6250, 11474.00
184.8500, 11888.00
186.0760, 11751.00
187.3010, 12153.00
188.5260, 12263.00
189.7510, 12519.00
190.9750, 12667.00
192.2000, 12927.00
193.4240, 13202.00
194.6490, 13430.54
195.8730, 13655.00
197.0970, 13958.00
198.3200, 13920.00
199.5440, 14142.00
200.7670, 14422.00
201.9910, 14323.00
203.2140, 14383.00
204.4370, 14430.00
205.6590, 14429.00
206.8820, 14701.00
208.1050, 14502.00
209.3270, 14424.00
210.5490, 14618.00
211.7710, 14359.00
212.9930, 14049.00
214.2150, 13633.00
215.4360, 13329.00
216.6570, 12962.00
217.8790, 12681.00
219.1000, 12284.38
220.3210, 11740.00
221.5410, 11498.00
222.7620, 11142.00
223.9820, 10736.00
225.2030, 10671.00
226.4230, 10388.00
227.6430, 10110.00
228.8620, 10052.00
230.0820, 9827.000
231.3010, 9716.000
232.5210, 9619.000
233.7400, 9586.000
234.9590, 9463.000
236.1780, 9328.000
237.3960, 9462.000
238.6150, 9350.000
239.8330, 9338.000
241.0510, 9202.000
242.2690, 9246.000
243.4870, 9103.000
244.7050, 9115.000
245.9230, 9173.000
247.1400, 9075.000
248.3570, 9175.000
249.5740, 9210.000
250.7910, 9141.000
252.0080, 9288.000
253.2240, 9244.000
254.4410, 9242.000
255.6570, 9295.000
256.8730, 9335.000
258.0890, 9346.000
259.3050, 9332.000
260.5210, 9367.000
261.7360, 9350.158
262.9510, 9238.000
264.1670, 9295.000
265.3820, 9264.000
266.5960, 9148.000
267.8110, 9210.000
269.0260, 9100.000
270.2400, 9096.000
271.4540, 9213.000
272.6680, 9110.000
273.8820, 9171.000
275.0960, 9217.000
276.3090, 9114.000
277.5230, 9046.000
278.7360, 9112.000
279.9490, 9215.000
281.1620, 9262.000
282.3750, 9226.000
283.5880, 9324.000
284.8000, 9381.000
286.0120, 9257.000
287.2240, 9360.000
288.4360, 9451.000
289.6480, 9423.000
290.8600, 9652.000
292.0710, 9447.000
293.2830, 9688.000
294.4940, 9711.000
295.7050, 9524.000
296.9160, 9720.000
298.1260, 9662.000
299.3370, 9593.000
300.5470, 9605.000
301.7580, 9747.000
302.9680, 9548.000
304.1770, 9634.000
305.3870, 9681.000
306.5970, 9599.000
307.8060, 9559.000
309.0150, 9746.000
310.2250, 9647.000
311.4340, 9704.000
312.6420, 9756.000
313.8510, 9737.000
315.0590, 9829.000
316.2680, 9885.000
317.4760, 9828.000
318.6840, 9915.000
319.8920, 10019.00
321.0990, 10029.00
322.3070, 10054.00
323.5140, 10053.00
324.7210, 10040.00
325.9280, 10078.00
327.1350, 10067.00
328.3420, 10106.00
329.5490, 10097.00
330.7550, 10084.00
331.9610, 10102.00
333.1670, 10047.00
334.3730, 9940.000
335.5790, 10196.00
336.7840, 9948.000
337.9900, 9839.000
339.1950, 10005.00
340.4000, 10029.00
341.6050, 9988.000
342.8100, 10006.00
344.0150, 10038.00
345.2190, 10100.00
346.4230, 10149.00
347.6280, 10148.00
348.8320, 10176.00
350.0350, 10178.00
351.2390, 10369.00
352.4430, 10356.00
353.6460, 10450.00
354.8490, 10535.00
356.0520, 10522.00
357.2550, 10716.00
358.4580, 10699.17
359.6600, 10767.00
360.8630, 10751.00
362.0650, 10874.00
363.2670, 10905.00
364.4690, 11047.00
365.6710, 10960.00
366.8720, 10821.00
368.0740, 10834.00
369.2750, 10870.00
370.4760, 10739.00
371.6770, 10610.00
372.8780, 10590.00
374.0780, 10638.00
375.2790, 10528.00
376.4790, 10747.00
377.6790, 10743.00
378.8790, 10639.00
380.0790, 10633.00
381.2790, 10629.00
382.4780, 10648.00
383.6780, 10704.00
384.8770, 10756.00
386.0760, 10666.00
387.2750, 10601.00
388.4730, 10584.00
389.6720, 10599.00
390.8700, 10628.00
392.0690, 10714.00
393.2670, 10660.00
394.4650, 10836.00
395.6620, 10848.00
396.8600, 10868.19
398.0570, 10795.00
399.2550, 10905.00
400.4520, 10960.00
401.6490, 10990.00
402.8450, 11075.36
404.0420, 11131.00
405.2390, 11208.00
406.4350, 11324.00
407.6310, 11415.00
408.8270, 11571.62
410.0230, 11642.00
411.2190, 11899.00
412.4140, 12090.00
413.6090, 12248.00
414.8050, 12609.00
416.0000, 13088.00
417.1940, 13329.00
418.3890, 13869.00
419.5840, 14467.00
420.7780, 14980.00
421.9720, 15543.00
423.1660, 16226.00
424.3600, 16721.00
425.5540, 17426.00
426.7480, 17760.00
427.9410, 18111.00
429.1340, 18162.00
430.3270, 18106.00
431.5200, 17500.00
432.7130, 16975.00
433.9060, 16350.00
435.0980, 15742.00
436.2900, 15139.00
437.4830, 14433.00
438.6750, 13827.00
439.8660, 13409.00
441.0580, 13225.00
442.2500, 12987.00
443.4410, 12657.00
444.6320, 12524.00
445.8230, 12350.00
447.0140, 12208.00
448.2050, 12011.00
449.3950, 11990.00
450.5860, 11853.00
451.7760, 11894.00
452.9660, 11835.00
454.1560, 11659.00
455.3450, 11726.00
456.5350, 11707.00
457.7240, 11659.00
458.9140, 11667.00
460.1030, 11551.00
461.2920, 11592.00
462.4810, 11491.00
463.6690, 11562.00
464.8580, 11586.00
466.0460, 11484.00
467.2340, 11460.00
468.4220, 11650.00
469.6100, 11613.00
470.7970, 11531.00
471.9850, 11753.00
473.1720, 11611.00
474.3590, 11696.00
475.5460, 11678.00
476.7330, 11632.00
477.9200, 11746.00
479.1060, 11512.00
480.2930, 11701.00
481.4790, 11699.00
482.6650, 11802.00
483.8510, 11852.00
485.0370, 11791.00
486.2220, 11896.00
487.4080, 11874.84
488.5930, 11826.00
489.7780, 11909.00
490.9630, 11898.00
492.1480, 11951.00
493.3320, 11877.00
494.5170, 11953.00
495.7010, 11932.00
496.8850, 11860.00
498.0690, 11986.00
499.2530, 12105.00
500.4360, 12193.00
501.6200, 12203.00
502.8030, 12352.00
503.9860, 12375.00
505.1690, 12510.00
506.3520, 12643.00
507.5350, 12633.00
508.7170, 12827.00
509.9000, 12956.00
511.0820, 13013.00
512.2640, 13171.00
513.4460, 13277.00
514.6270, 13440.00
515.8090, 13536.07
516.9900, 13577.00
518.1710, 13784.00
519.3530, 13685.00
520.5330, 13901.00
521.7140, 13824.00
522.8950, 13829.00
524.0750, 13917.00
525.2550, 13988.00
526.4350, 13716.00
527.6150, 13493.00
528.7950, 13532.00
529.9750, 13385.00
531.1540, 13349.00
532.3340, 13277.00
533.5130, 13246.00
534.6920, 13187.00
535.8700, 13032.00
537.0490, 13052.00
538.2280, 12955.00
539.4060, 12815.00
540.5840, 12909.00
541.7620, 12828.00
542.9400, 12857.00
544.1180, 12943.00
545.2950, 12847.00
546.4720, 13035.00
547.6500, 12815.00
548.8270, 12729.00
550.0040, 12931.00
551.1800, 13069.00
552.3570, 12993.00
553.5330, 13020.00
554.7090, 13159.00
555.8850, 13360.00
557.0610, 13263.00
558.2370, 13689.00
559.4130, 13699.00
560.5880, 13996.00
561.7630, 14214.00
562.9380, 14502.00
564.1130, 14760.00
565.2880, 15187.00
566.4630, 15584.00
567.6370, 15733.00
568.8120, 16201.00
569.9860, 16423.00
571.1600, 16600.00
572.3330, 16743.00
573.5070, 16643.00
574.6810, 16366.00
575.8540, 16065.00
577.0270, 15783.00
578.2000, 15391.00
579.3730, 14987.00
580.5460, 14577.00
581.7180, 14335.00
582.8910, 14010.06
584.0630, 13745.00
585.2350, 13528.00
586.4070, 13315.00
587.5780, 13133.00
588.7500, 13053.00
589.9210, 13093.00
591.0930, 12973.00
592.2640, 12853.00
593.4350, 12890.00
594.6050, 12804.00
595.7760, 12826.00
596.9460, 12769.00
598.1170, 12917.00
599.2870, 13021.00
600.4570, 12956.00
601.6260, 12900.00
602.7960, 12938.00
603.9650, 13028.00
605.1350, 13134.00
606.3040, 13035.00
607.4730, 13304.00
608.6420, 13295.00
609.8100, 13451.00
610.9790, 13432.00
612.1470, 13689.00
613.3150, 13773.00
614.4830, 13968.00
615.6510, 14165.00
616.8190, 14533.00
617.9860, 14939.00
619.1540, 15317.00
620.3210, 15973.00
621.4880, 16457.00
622.6550, 17253.00
623.8220, 17870.00
624.9880, 18360.00
626.1550, 18952.00
627.3210, 19501.00
628.4870, 19853.00
629.6530, 19839.00
630.8190, 19242.00
631.9840, 18762.00
633.1500, 17688.00
634.3150, 17085.00
635.4800, 16218.00
636.6450, 15359.00
637.8100, 14923.00
638.9740, 14658.00
640.1390, 14304.00
641.3030, 14026.00
642.4670, 13952.00
643.6310, 13851.00
644.7950, 13680.00
645.9590, 13623.87
647.1220, 13443.00
648.2850, 13477.00
649.4490, 13349.00
650.6120, 13323.00
651.7740, 13459.00
652.9370, 13315.00
654.1000, 13235.00
655.2620, 13289.00
656.4240, 13386.00
657.5860, 13253.00
658.7480, 13233.00
659.9100, 13274.00
661.0710, 13276.00
662.2330, 13241.00
663.3940, 13300.00
664.5550, 13327.00
665.7160, 13279.00
666.8770, 13282.00
668.0370, 13183.00
669.1980, 13224.00
670.3580, 13137.00
671.5180, 13357.00
672.6780, 13328.00
673.8380, 13373.00
674.9970, 13393.00
676.1570, 13350.00
677.3160, 13389.00
678.4750, 13493.00
679.6340, 13237.00
680.7930, 13406.00
681.9520, 13284.00
683.1100, 13400.00
684.2680, 13357.00
685.4270, 13475.00
686.5850, 13428.00
687.7420, 13417.00
688.9000, 13315.00
690.0580, 13553.00
691.2150, 13432.00
692.3720, 13440.00
693.5290, 13474.00
694.6860, 13392.00
695.8430, 13681.00
696.9990, 13529.00
698.1560, 13657.00
699.3120, 13616.00
700.4680, 13707.00
701.6240, 13712.00
702.7800, 13654.00
703.9350, 13704.00
705.0900, 13716.00
706.2460, 13558.00
707.4010, 13797.00
708.5560, 13689.00
709.7110, 13846.00
710.8650, 13845.00
712.0200, 13708.00
713.1740, 13799.00
714.3280, 13915.00
715.4820, 13729.00
716.6360, 13922.00
717.7890, 14099.00
718.9430, 13812.00
720.0960, 14014.00
721.2490, 14008.00
722.4020, 13935.00
723.5550, 13970.00
724.7080, 14068.00
725.8600, 14092.00
727.0130, 14001.00
728.1650, 13982.00
729.3170, 14179.00
730.4690, 14276.00
731.6200, 14208.00
732.7720, 14222.00
733.9230, 14374.00
735.0740, 14345.00
736.2250, 14428.00
737.3760, 14512.00
738.5270, 14324.00
739.6780, 14312.00
740.8280, 14408.00
741.9780, 14467.00
743.1280, 14446.00
744.2780, 14514.00
745.4280, 14505.00
746.5770, 14483.18
747.7270, 14415.00
748.8760, 14410.00
750.0250, 14404.00
751.1740, 14350.00
752.3230, 14355.00
753.4720, 14410.00
754.6200, 14379.00
755.7680, 14436.00
756.9160, 14397.00
758.0640, 14395.00
759.2120, 14490.00
760.3600, 14396.00
761.5070, 14450.00
762.6550, 14361.00
763.8020, 14463.00
764.9490, 14460.00
766.0960, 14544.00
767.2420, 14559.00
768.3890, 14581.00
769.5350, 14515.00
770.6810, 14542.00
771.8270, 14519.00
772.9730, 14550.00
774.1190, 14504.00
775.2640, 14549.00
776.4100, 14561.00
777.5550, 14665.00
778.7000, 14581.00
779.8450, 14802.00
780.9900, 14727.00
782.1340, 14788.00
783.2790, 14652.00
784.4230, 14680.00
785.5670, 14723.00
786.7110, 14686.00
787.8550, 14698.00
788.9980, 14633.00
790.1420, 14843.00
791.2850, 14890.00
792.4280, 14748.00
793.5710, 14820.00
794.7140, 14767.00
795.8560, 14874.00
796.9990, 14984.00
798.1410, 14881.00
799.2830, 14956.00
800.4250, 14782.00
801.5670, 15006.00
802.7090, 15158.00
803.8500, 14995.00
804.9920, 14963.00
806.1330, 14963.00
807.2740, 15140.00
808.4150, 15095.00
809.5550, 15068.00
810.6960, 14996.00
811.8360, 15073.00
812.9760, 15178.00
814.1160, 15158.00
815.2560, 15219.00
816.3960, 15268.00
817.5350, 15272.46
818.6750, 15306.40
819.8140, 15302.00
820.9530, 15311.00
822.0920, 15303.00
823.2310, 15264.00
824.3690, 15556.00
825.5080, 15343.00
826.6460, 15261.00
827.7840, 15560.00
828.9220, 15335.00
830.0600, 15362.00
831.1970, 15701.00
832.3350, 15481.00
833.4720, 15579.00
834.6090, 15624.00
835.7460, 15620.00
836.8830, 15499.00
838.0190, 15565.00
839.1560, 15744.00
840.2920, 15505.00
841.4280, 15642.00
842.5640, 15797.00
843.7000, 15763.00
844.8360, 15759.00
845.9710, 15742.00
847.1070, 15706.00
848.2420, 15814.00
849.3770, 15833.00
850.5120, 16006.00
851.6460, 15977.00
852.7810, 16017.13
853.9150, 15887.00
855.0490, 16017.00
856.1830, 16028.00
857.3170, 16029.00
858.4510, 16066.00
859.5840, 16188.00
860.7180, 16233.00
861.8510, 16206.00
862.9840, 16130.00
864.1170, 16245.00
865.2500, 16031.00
866.3820, 16143.00
867.5150, 16171.00
868.6470, 16186.00
869.7790, 16113.00
870.9110, 16192.00
872.0430, 16142.00
873.1740, 16076.00
874.3060, 16185.00
875.4370, 16429.00
876.5680, 16214.00
877.6990, 16297.00
878.8300, 16349.00
879.9600, 16290.00
881.0910, 16253.00
882.2210, 16187.00
883.3510, 16254.57
884.4810, 16359.00
885.6110, 16380.00
886.7410, 16472.00
887.8700, 16473.00
888.9990, 16573.00
890.1290, 16523.00
891.2580, 16652.00
892.3860, 16517.00
893.5150, 16567.00
894.6440, 16667.00
895.7720, 16646.00
896.9000, 16568.00
898.0280, 16792.00
899.1560, 16540.00
900.2840, 16725.00
901.4110, 16816.00
902.5390, 16768.00
903.6660, 17067.00
904.7930, 16931.00
905.9200, 17177.00
907.0470, 17147.00
908.1730, 17150.00
909.3000, 17273.00
910.4260, 17372.00
911.5520, 17463.44
912.6780, 17601.00
913.8030, 17754.00
914.9290, 17917.00
916.0540, 18180.40
917.1800, 18341.00
918.3050, 18704.00
919.4300, 18914.00
920.5550, 19259.00
921.6790, 19711.00
922.8040, 20391.00
923.9280, 21004.00
925.0520, 21806.00
926.1760, 22350.00
927.3000, 23171.00
928.4230, 23840.00
929.5470, 24866.00
930.6700, 25087.00
931.7930, 25452.00
932.9160, 25255.00
934.0390, 25124.00
935.1620, 24481.00
936.2840, 24044.00
937.4070, 23011.00
938.5290, 22214.00
939.6510, 21490.00
940.7730, 21016.00
941.8940, 20367.00
943.0160, 20290.00
944.1370, 19768.00
945.2580, 19606.00
946.3800, 19370.00
947.5000, 19195.00
948.6210, 19081.00
949.7420, 19024.00
950.8620, 18985.00
951.9820, 18663.00
953.1020, 18675.00
954.2220, 18597.00
955.3420, 18485.00
956.4620, 18457.00
957.5810, 18382.00
958.7000, 18299.00
959.8190, 18235.00
960.9380, 18594.00
962.0570, 18637.00
963.1760, 18499.00
964.2940, 18703.00
965.4120, 18659.00
966.5300, 18891.00
967.6480, 19045.00
968.7660, 18919.00
969.8840, 19111.00
971.0010, 19183.00
972.1190, 19598.00
973.2360, 19582.00
974.3530, 19764.00
975.4690, 20144.00
976.5860, 20211.00
977.7030, 20309.00
978.8190, 20928.00
979.9350, 21121.00
981.0510, 21675.00
982.1670, 22067.00
983.2830, 22812.00
984.3980, 23283.00
985.5130, 24085.00
986.6290, 25206.00
987.7440, 26194.00
988.8590, 27957.00
989.9730, 29632.00
991.0880, 31635.00
992.2020, 34046.00
993.3160, 36529.00
994.4300, 39393.00
995.5440, 42398.00
996.6580, 45322.00
997.7720, 48177.00
998.8850, 50828.00
999.9980, 52789.00
1001.111, 54424.00
1002.224, 55536.00
1003.337, 55846.00
1004.450, 55720.00
1005.562, 54847.00
1006.674, 53698.00
1007.786, 52434.00
1008.898, 50924.00
1010.010, 49233.00
1011.122, 47085.00
1012.233, 45419.00
1013.344, 43301.00
1014.455, 41352.00
1015.566, 39153.00
1016.677, 37008.00
1017.788, 35011.00
1018.898, 33087.00
1020.009, 31223.00
1021.119, 29643.00
1022.229, 28274.00
1023.339, 26805.00
1024.448, 26101.00
1025.558, 25030.00
1026.667, 24456.00
1027.776, 23872.00
1028.885, 23555.00
1029.994, 22963.00
1031.103, 23049.00
1032.211, 22840.00
1033.320, 22592.00
1034.428, 22642.00
1035.536, 22724.00
1036.644, 22476.00
1037.751, 22635.00
1038.859, 22368.00
1039.966, 22502.00
1041.074, 22352.00
1042.181, 22103.00
1043.288, 21850.00
1044.394, 21785.00
1045.501, 21480.56
1046.607, 21240.00
1047.713, 21046.00
1048.820, 20796.00
1049.925, 20687.00
1051.031, 20677.00
1052.137, 20529.00
1053.242, 20484.00
1054.348, 20553.00
1055.453, 20348.00
1056.558, 20548.00
1057.662, 20185.00
1058.767, 20371.00
1059.871, 20332.00
1060.976, 20457.00
1062.080, 20458.83
1063.184, 20469.00
1064.288, 20425.00
1065.391, 20490.00
1066.495, 20438.00
1067.598, 20489.00
1068.701, 20567.00
1069.804, 20778.00
1070.907, 20761.00
1072.010, 20791.00
1073.112, 21220.00
1074.214, 21308.00
1075.317, 21571.00
1076.419, 21751.00
1077.521, 22185.00
1078.622, 22485.00
1079.724, 23065.00
1080.825, 23553.00
1081.926, 24162.00
1083.027, 24584.00
1084.128, 25274.00
1085.229, 26205.00
1086.329, 26525.00
1087.430, 26693.00
1088.530, 26895.00
1089.630, 26958.00
1090.730, 26865.00
1091.830, 26211.00
1092.929, 25602.00
1094.029, 24935.00
1095.128, 24357.13
1096.227, 23812.00
1097.326, 23245.00
1098.425, 22806.00
1099.523, 22366.00
1100.622, 22134.00
1101.720, 21712.00
1102.818, 21539.00
1103.916, 21305.00
1105.014, 21430.00
1106.111, 21076.00
1107.209, 20987.00
1108.306, 20939.00
1109.403, 20815.00
1110.500, 20633.00
1111.597, 20626.00
1112.694, 20613.00
1113.790, 20374.00
1114.887, 20523.00
1115.983, 20492.00
1117.079, 20461.00
1118.174, 20443.00
1119.270, 20528.00
1120.366, 20609.00
1121.461, 20518.00
1122.556, 20671.00
1123.651, 20479.00
1124.746, 20490.00
1125.841, 20536.00
1126.935, 20626.00
1128.030, 20619.00
1129.124, 20553.00
1130.218, 20583.00
1131.312, 20535.00
1132.405, 20740.00
1133.499, 20580.00
1134.592, 20686.00
1135.686, 20906.00
1136.779, 20638.00
1137.871, 20742.00
1138.964, 20883.00
1140.057, 20717.00
1141.149, 20854.00
1142.241, 20556.00
1143.334, 20680.00
1144.425, 20691.00
1145.517, 21015.00
1146.609, 20501.00
1147.700, 20805.00
1148.791, 20576.00
1149.883, 20807.00
1150.974, 20685.00
1152.064, 20678.00
1153.155, 20510.00
1154.245, 20626.00
1155.336, 20675.00
1156.426, 20836.00
1157.516, 20959.00
1158.606, 20947.00
1159.695, 20902.00
1160.785, 20579.00
1161.874, 20799.00
1162.963, 20568.00
1164.052, 20820.00
1165.141, 20913.00
1166.230, 20925.00
1167.318, 21091.00
1168.406, 20962.00
1169.495, 20896.00
1170.583, 20982.00
1171.670, 20895.00
1172.758, 20958.00
1173.846, 20953.00
1174.933, 20999.00
1176.020, 21089.00
1177.107, 21072.00
1178.194, 21262.00
1179.281, 21279.00
1180.367, 21191.00
1181.454, 21003.00
1182.540, 21067.00
1183.626, 20937.00
1184.712, 21135.00
1185.798, 21195.00
1186.883, 21442.00
1187.969, 21354.00
1189.054, 21191.00
1190.139, 21354.00
1191.224, 21384.00
1192.309, 21204.00
1193.393, 21401.00
1194.478, 21291.00
1195.562, 21099.00
1196.646, 21363.00
1197.730, 21540.00
1198.814, 21279.00
1199.897, 21233.00
1200.981, 21348.00
1202.064, 21298.00
1203.147, 21338.05
1204.230, 21511.00
1205.313, 21356.00
1206.396, 21330.00
1207.478, 21274.00
1208.560, 21445.00
1209.642, 21516.00
1210.724, 21525.00
1211.806, 21357.00
1212.888, 21657.00
1213.969, 21693.00
1215.051, 21485.00
1216.132, 21535.00
1217.213, 21732.00
1218.294, 21643.00
1219.374, 21693.00
1220.455, 21671.00
1221.535, 21713.00
1222.616, 21635.00
1223.696, 21774.00
1224.775, 21920.00
1225.855, 21753.00
1226.935, 21905.00
1228.014, 21843.00
1229.093, 22122.00
1230.172, 21797.00
1231.251, 21816.00
1232.330, 21882.00
1233.408, 22083.00
1234.487, 21882.00
1235.565, 21957.00
1236.643, 21979.00
1237.721, 21967.00
1238.799, 22000.00
1239.876, 21948.00
1240.954, 21920.00
1242.031, 21966.16
1243.108, 22005.00
1244.185, 22040.00
1245.262, 21968.00
1246.338, 21986.00
1247.415, 22134.00
1248.491, 22097.26
1249.567, 22268.00
1250.643, 22205.00
1251.719, 22168.00
1252.795, 22299.00
1253.870, 22316.00
1254.945, 22372.00
1256.021, 22289.00
1257.096, 22359.00
1258.170, 22369.19
1259.245, 22521.00
1260.320, 22373.00
1261.394, 22407.00
1262.468, 22279.00
1263.542, 22390.00
1264.616, 22355.00
1265.690, 22367.00
1266.763, 22589.00
1267.836, 22455.00
1268.910, 22555.00
1269.983, 22568.62
1271.055, 22358.00
1272.128, 22612.00
1273.201, 22570.00
1274.273, 22680.00
1275.345, 22767.00
1276.417, 22580.00
1277.489, 22918.00
1278.561, 22604.00
1279.632, 22758.00
1280.704, 22605.00
1281.775, 22767.00
1282.846, 22770.00
1283.917, 22705.00
1284.988, 22872.00
1286.058, 22814.00
1287.129, 22821.00
1288.199, 22871.00
1289.269, 22785.00
1290.339, 22730.00
1291.409, 22799.00
1292.478, 22790.00
1293.548, 22851.00
1294.617, 22974.00
1295.686, 22724.00
1296.755, 22837.00
