##NAMES=Celsian
##RRUFFID=R060152
##IDEAL CHEMISTRY=BaAl_2_Si_2_O_8_
##LOCALITY=Benallt mine, Lleyn, Wales
##OWNER=RRUFF
##SOURCE=Marcus Origlieri
##DESCRIPTION=Colorless to white elongated prismatic crystals
##STATUS=The identification of this mineral is confirmed by single-crystal X-ray diffraction and chemical analysis.
##URL=rruff.info/R060152
##MEASURED CHEMISTRY=(Ba_0.98_K_0.02_[box]_0.02_)_Î£=1_Al_2.00_Si_2.00_O_8_
##PIN_ID=M00486
##ORIENTATION=Laser parallel to (1 0 1). Fiducial mark perpendicular to laser is parallel to -b [0 -1 0]
119.8650, 30342.00
121.1010, 30151.00
122.3370, 29916.00
123.5730, 29625.00
124.8090, 29570.00
126.0450, 29532.00
127.2800, 29803.00
128.5150, 29766.12
129.7500, 30168.00
130.9850, 29984.00
132.2200, 30153.00
133.4540, 30379.00
134.6890, 29736.00
135.9230, 29436.00
137.1570, 28848.00
138.3900, 27934.00
139.6240, 27091.00
140.8580, 26634.00
142.0910, 25995.00
143.3240, 25584.00
144.5570, 25287.00
145.7900, 24957.92
147.0220, 24809.00
148.2550, 24725.00
149.4870, 24684.00
150.7190, 24725.58
151.9510, 24624.00
153.1830, 24951.00
154.4140, 24994.00
155.6460, 25178.00
156.8770, 25772.00
158.1080, 26378.00
159.3390, 26869.33
160.5690, 27359.00
161.8000, 28177.00
163.0300, 28760.00
164.2600, 29558.00
165.4900, 30037.00
166.7200, 30625.00
167.9500, 31121.00
169.1790, 30966.20
170.4080, 30622.61
171.6380, 30231.00
172.8670, 29098.00
174.0950, 28137.00
175.3240, 27179.00
176.5520, 26488.87
177.7810, 25929.00
179.0090, 25411.00
180.2370, 25081.00
181.4640, 24815.00
182.6920, 24638.00
183.9190, 24622.00
185.1460, 24768.00
186.3730, 24995.00
187.6000, 25262.00
188.8270, 25529.00
190.0530, 25882.00
191.2800, 26389.00
192.5060, 27037.00
193.7320, 27266.00
194.9580, 27982.00
196.1830, 27891.00
197.4090, 28117.00
198.6340, 27712.00
199.8590, 27132.00
201.0840, 25997.00
202.3090, 25292.00
203.5340, 24731.00
204.7580, 24127.00
205.9820, 23979.00
207.2060, 23869.00
208.4300, 23649.00
209.6540, 23630.00
210.8780, 23616.94
212.1010, 23778.00
213.3240, 23724.00
214.5470, 23763.00
215.7700, 23827.00
216.9930, 24096.00
218.2150, 24178.00
219.4380, 24429.00
220.6600, 24317.00
221.8820, 24602.00
223.1040, 24406.00
224.3260, 24524.00
225.5470, 24149.00
226.7680, 24292.00
227.9900, 24133.00
229.2110, 24150.00
230.4310, 24262.00
231.6520, 24431.00
232.8720, 24727.00
234.0930, 24943.00
235.3130, 25466.00
236.5330, 25858.00
237.7530, 26375.00
238.9720, 27079.00
240.1920, 28007.00
241.4110, 28614.00
242.6300, 29227.00
243.8490, 30068.00
245.0680, 30798.00
246.2860, 31213.00
247.5040, 31303.00
248.7230, 31212.00
249.9410, 30995.00
251.1590, 30245.00
252.3760, 29561.00
253.5940, 29243.00
254.8110, 28708.00
256.0280, 28550.00
257.2450, 28063.00
258.4620, 27977.00
259.6790, 27130.00
260.8950, 26783.00
262.1120, 26206.00
263.3280, 25697.00
264.5440, 25540.00
265.7600, 25138.00
266.9750, 25131.00
268.1910, 24823.00
269.4060, 24655.00
270.6210, 24744.00
271.8360, 24763.00
273.0510, 24591.00
274.2650, 24462.00
275.4800, 24488.00
276.6940, 24337.00
277.9080, 24505.00
279.1220, 24386.00
280.3360, 24338.00
281.5490, 24200.00
282.7630, 24344.00
283.9760, 24114.00
285.1890, 24186.00
286.4020, 24229.00
287.6150, 24117.00
288.8270, 24138.00
290.0400, 24206.00
291.2520, 24202.00
292.4640, 24378.00
293.6760, 24439.00
294.8870, 24472.00
296.0990, 24960.00
297.3100, 25027.00
298.5210, 25078.00
299.7320, 25368.00
300.9430, 25881.00
302.1540, 26053.00
303.3640, 26353.00
304.5750, 26581.00
305.7850, 26948.00
306.9950, 26840.00
308.2050, 26615.00
309.4140, 26468.00
310.6240, 25929.00
311.8330, 25370.00
313.0420, 25185.00
314.2510, 24877.00
315.4600, 24738.00
316.6680, 24450.00
317.8770, 24589.00
319.0850, 24182.00
320.2930, 24215.67
321.5010, 24289.00
322.7090, 24188.00
323.9160, 24107.00
325.1240, 24199.00
326.3310, 24267.00
327.5380, 24292.00
328.7450, 24345.00
329.9520, 24336.25
331.1580, 24139.00
332.3650, 24301.00
333.5710, 24265.00
334.7770, 24243.00
335.9830, 24484.00
337.1880, 24449.00
338.3940, 24473.00
339.5990, 24555.00
340.8040, 24576.00
342.0090, 24560.00
343.2140, 24705.00
344.4190, 24759.46
345.6230, 24645.00
346.8280, 24931.00
348.0320, 25192.00
349.2360, 25184.00
350.4400, 25245.00
351.6430, 25408.00
352.8470, 25403.00
354.0500, 25413.00
355.2530, 25451.00
356.4560, 25521.00
357.6590, 25594.00
358.8620, 25630.00
360.0640, 25400.00
361.2660, 25527.00
362.4680, 25165.00
363.6700, 25445.00
364.8720, 25151.00
366.0740, 25082.00
367.2750, 24950.00
368.4760, 24912.00
369.6770, 24893.00
370.8780, 24952.00
372.0790, 24900.00
373.2800, 24811.00
374.4800, 25090.00
375.6800, 25032.00
376.8800, 25218.00
378.0800, 25203.00
379.2800, 25316.00
380.4790, 25250.00
381.6790, 25551.00
382.8780, 25774.00
384.0770, 25821.00
385.2760, 25864.00
386.4750, 26397.00
387.6730, 26535.00
388.8720, 26627.00
390.0700, 26941.00
391.2680, 27008.00
392.4660, 26929.00
393.6630, 26669.00
394.8610, 26748.00
396.0580, 26379.00
397.2550, 26126.00
398.4520, 25996.00
399.6490, 26055.00
400.8460, 25852.00
402.0420, 25958.00
403.2390, 25997.00
404.4350, 25859.00
405.6310, 25818.00
406.8270, 25812.00
408.0220, 25850.00
409.2180, 25845.00
410.4130, 26110.00
411.6080, 26012.00
412.8030, 26191.00
413.9980, 26271.00
415.1920, 26025.00
416.3870, 26389.00
417.5810, 26294.00
418.7750, 26537.00
419.9690, 26426.00
421.1630, 26757.00
422.3570, 27198.00
423.5500, 27355.00
424.7430, 27789.00
425.9360, 28030.00
427.1290, 28337.00
428.3220, 28352.00
429.5150, 28350.00
430.7070, 28503.00
431.8990, 28195.00
433.0910, 27672.00
434.2830, 27174.00
435.4750, 27421.00
436.6670, 26869.00
437.8580, 26860.00
439.0490, 26815.00
440.2400, 26636.00
441.4310, 26590.00
442.6220, 26533.00
443.8130, 26579.00
445.0030, 26715.00
446.1930, 26723.00
447.3830, 26789.00
448.5730, 26983.00
449.7630, 26906.00
450.9520, 27238.00
452.1420, 27487.00
453.3310, 27797.00
454.5200, 27951.00
455.7090, 28516.00
456.8980, 28697.00
458.0860, 29226.00
459.2740, 29360.00
460.4630, 30139.00
461.6510, 30513.00
462.8380, 30820.00
464.0260, 30930.00
465.2140, 30887.00
466.4010, 30899.00
467.5880, 30513.00
468.7750, 30815.00
469.9620, 30368.00
471.1490, 30228.00
472.3350, 30339.00
473.5220, 29941.00
474.7080, 29587.00
475.8940, 29342.00
477.0800, 28914.00
478.2650, 28709.00
479.4510, 28577.00
480.6360, 28526.00
481.8210, 28426.00
483.0060, 28539.00
484.1910, 28552.00
485.3760, 28825.00
486.5600, 29049.00
487.7440, 29314.79
488.9290, 29699.00
490.1130, 29991.00
491.2960, 30512.00
492.4800, 30886.00
493.6630, 31780.00
494.8470, 32912.00
496.0300, 34124.00
497.2130, 35766.00
498.3960, 37983.00
499.5780, 40200.00
500.7610, 43196.00
501.9430, 46277.00
503.1250, 49690.00
504.3070, 52688.00
505.4890, 56408.00
506.6710, 58694.00
507.8520, 60490.00
509.0330, 59588.00
510.2140, 57000.00
511.3950, 53395.00
512.5760, 48879.00
513.7570, 44361.00
514.9370, 40299.00
516.1170, 37578.00
517.2980, 35735.00
518.4780, 34354.00
519.6570, 33170.00
520.8370, 32356.00
522.0160, 31865.00
523.1960, 31575.00
524.3750, 31041.00
525.5540, 30649.00
526.7320, 30890.00
527.9110, 30188.00
529.0890, 30198.00
530.2680, 30193.00
531.4460, 29827.00
532.6240, 29416.00
533.8010, 29909.00
534.9790, 29388.00
536.1560, 29374.00
537.3340, 29200.00
538.5110, 29459.00
539.6880, 29315.00
540.8650, 29514.00
542.0410, 29572.00
543.2180, 29515.00
544.3940, 29509.00
545.5700, 29863.00
546.7460, 29835.00
547.9220, 30300.00
549.0970, 30449.00
550.2730, 31012.00
551.4480, 30898.00
552.6230, 31189.00
553.7980, 31367.00
554.9730, 31463.00
556.1470, 31138.00
557.3210, 31031.00
558.4960, 30640.00
559.6700, 30316.00
560.8440, 30295.00
562.0170, 29875.00
563.1910, 30029.00
564.3640, 29690.00
565.5380, 29704.00
566.7110, 29706.00
567.8840, 29641.00
569.0560, 29693.72
570.2290, 29661.67
571.4010, 29772.00
572.5740, 29663.00
573.7460, 29728.00
574.9180, 29766.00
576.0890, 29738.00
577.2610, 29638.00
578.4320, 29825.00
579.6040, 29951.00
580.7750, 29840.00
581.9450, 30208.00
583.1160, 30275.00
584.2870, 30257.00
585.4570, 30475.00
586.6270, 30385.00
587.7980, 30481.00
588.9670, 30508.71
590.1370, 30540.00
591.3070, 30551.00
592.4760, 30701.00
593.6450, 30787.00
594.8140, 30774.76
595.9830, 30819.00
597.1520, 30725.00
598.3210, 30657.00
599.4890, 30564.00
600.6570, 30604.00
601.8250, 30549.00
602.9930, 30802.00
604.1610, 30630.00
605.3290, 31001.00
606.4960, 30798.00
607.6630, 30907.00
608.8300, 30931.00
609.9970, 30967.00
611.1640, 30953.00
612.3300, 31124.73
613.4970, 31536.00
614.6630, 31455.00
615.8290, 31779.00
616.9950, 31917.00
618.1610, 31775.00
619.3260, 31981.00
620.4920, 32204.00
621.6570, 32034.00
622.8220, 32616.00
623.9870, 32552.00
625.1520, 32208.00
626.3160, 32280.00
627.4810, 31905.00
628.6450, 32122.00
629.8090, 31817.00
630.9730, 32034.00
632.1370, 31526.00
633.3000, 31345.00
634.4640, 31430.00
635.6270, 31268.55
636.7900, 31342.08
637.9530, 31375.00
639.1160, 31452.00
640.2780, 31528.00
641.4410, 31521.00
642.6030, 31946.00
643.7650, 31778.00
644.9270, 32081.00
646.0890, 32187.00
647.2500, 32137.00
648.4120, 32141.00
649.5730, 31999.00
650.7340, 31895.00
651.8950, 32051.00
653.0560, 32132.00
654.2160, 32269.00
655.3770, 31781.00
656.5370, 31739.00
657.6970, 31591.00
658.8570, 31562.00
660.0170, 31544.00
661.1760, 31628.00
662.3360, 31497.00
663.4950, 31696.00
664.6540, 31554.00
665.8130, 31439.00
666.9720, 31563.00
668.1310, 31694.00
669.2890, 31896.00
670.4470, 31633.00
671.6050, 31833.00
672.7630, 32251.00
673.9210, 32542.00
675.0790, 32318.00
676.2360, 32801.00
677.3930, 33027.00
678.5510, 33111.00
679.7080, 33662.00
680.8640, 33832.00
682.0210, 33652.00
683.1770, 33699.00
684.3340, 33762.00
685.4900, 33725.00
686.6460, 33448.00
687.8020, 33402.00
688.9570, 32976.00
690.1130, 32645.00
691.2680, 32419.00
692.4230, 32562.00
693.5780, 32383.00
694.7330, 32227.00
695.8880, 32620.00
697.0420, 32304.00
698.1960, 32301.00
699.3510, 32450.00
700.5040, 32230.00
701.6580, 32596.00
702.8120, 32197.00
703.9650, 32700.00
705.1190, 32645.00
706.2720, 32792.00
707.4250, 33097.00
708.5780, 32714.00
709.7300, 33049.00
710.8830, 33091.00
712.0350, 33321.00
713.1870, 33458.00
714.3390, 33406.00
715.4910, 33566.00
716.6430, 33504.00
717.7940, 33489.00
718.9460, 33636.00
720.0970, 33644.00
721.2480, 33580.00
722.3990, 33591.00
723.5500, 33653.00
724.7000, 33738.00
725.8500, 33624.00
727.0010, 33641.00
728.1510, 33687.00
729.3010, 33746.00
730.4500, 33598.00
731.6000, 33600.00
732.7490, 33462.00
733.8980, 33501.00
735.0470, 33511.00
736.1960, 33165.00
737.3450, 33317.00
738.4940, 33299.00
739.6420, 33558.00
740.7900, 33596.00
741.9380, 33274.00
743.0860, 33668.00
744.2340, 34287.00
745.3810, 34118.00
746.5290, 34450.00
747.6760, 34385.00
748.8230, 34475.00
749.9700, 34808.00
751.1170, 34627.00
752.2630, 34584.00
753.4100, 34544.00
754.5560, 34485.00
755.7020, 33801.00
756.8480, 33702.00
757.9940, 33791.00
759.1390, 33596.00
760.2850, 33891.00
761.4300, 33565.00
762.5750, 33757.00
763.7200, 33699.00
764.8650, 33945.00
766.0100, 33842.00
767.1540, 33717.00
768.2980, 33998.00
769.4420, 33758.00
770.5860, 33736.00
771.7300, 33786.00
772.8740, 33800.00
774.0170, 33780.00
775.1610, 34011.00
776.3040, 34082.00
777.4470, 34068.00
778.5900, 33976.00
779.7320, 34060.00
780.8750, 34043.14
782.0170, 34351.00
783.1590, 34083.00
784.3010, 34161.00
785.4430, 34134.00
786.5850, 34443.00
787.7260, 34740.00
788.8680, 34471.00
790.0090, 34645.00
791.1500, 34643.00
792.2910, 34698.00
793.4310, 34742.00
794.5720, 35118.00
795.7120, 34932.00
796.8520, 34917.00
797.9920, 35110.00
799.1320, 34959.00
800.2720, 35213.00
801.4120, 35128.00
802.5510, 35342.00
803.6900, 35287.00
804.8290, 35415.00
805.9680, 35458.00
807.1070, 35375.00
808.2450, 35320.00
809.3840, 35483.00
810.5220, 35430.36
811.6600, 35451.00
812.7980, 35562.00
813.9360, 35655.00
815.0730, 35731.48
816.2110, 35833.36
817.3480, 35902.00
818.4850, 35962.00
819.6220, 36000.00
820.7590, 35946.00
821.8960, 35894.00
823.0320, 36194.00
824.1680, 36247.00
825.3040, 35971.00
826.4400, 36431.00
827.5760, 35835.00
828.7120, 36222.00
829.8470, 36240.00
830.9830, 36319.00
832.1180, 36305.00
833.2530, 36431.00
834.3880, 36554.00
835.5220, 36667.00
836.6570, 36601.00
837.7910, 36782.50
838.9250, 36830.00
840.0590, 37017.00
841.1930, 37009.00
842.3270, 37101.00
843.4600, 37034.00
844.5940, 37164.00
845.7270, 37293.00
846.8600, 37447.00
847.9930, 37312.00
849.1250, 37379.00
850.2580, 37473.00
851.3900, 37764.00
852.5230, 37658.00
853.6550, 37551.00
854.7870, 37906.00
855.9180, 38062.00
857.0500, 38208.00
858.1810, 38099.00
859.3130, 38480.00
860.4440, 38575.00
861.5750, 38305.00
862.7050, 38150.00
863.8360, 38204.00
864.9660, 38196.00
866.0970, 38031.00
867.2270, 38311.00
868.3570, 38020.00
869.4870, 37688.00
870.6160, 37868.00
871.7460, 37948.00
872.8750, 37829.00
874.0040, 37974.00
875.1330, 38069.00
876.2620, 37960.00
877.3910, 38046.00
878.5190, 38365.00
879.6470, 38277.00
880.7760, 38234.00
881.9040, 38253.00
883.0310, 38094.00
884.1590, 38127.00
885.2870, 38258.00
886.4140, 38080.00
887.5410, 38294.00
888.6680, 38354.00
889.7950, 38481.00
890.9220, 38627.00
892.0480, 38461.00
893.1750, 38572.00
894.3010, 38358.00
895.4270, 38736.00
896.5530, 38783.00
897.6790, 38954.00
898.8040, 38859.00
899.9300, 38843.00
901.0550, 38922.00
902.1800, 38961.00
903.3050, 39318.00
904.4300, 39184.00
905.5540, 39540.00
906.6790, 39398.00
907.8030, 39479.00
908.9270, 39442.00
910.0510, 39642.00
911.1750, 39605.00
912.2990, 39670.00
913.4220, 39617.00
914.5450, 39642.09
915.6690, 39603.00
916.7920, 39580.00
917.9140, 39584.00
919.0370, 39375.00
920.1600, 39671.00
921.2820, 39523.00
922.4040, 39544.00
923.5260, 39718.00
924.6480, 39631.00
925.7700, 39842.00
926.8910, 39478.00
928.0130, 39716.00
929.1340, 39850.00
930.2550, 39896.00
931.3760, 40090.88
932.4970, 40057.00
933.6170, 40310.00
934.7380, 40445.00
935.8580, 40444.00
936.9780, 40264.00
938.0980, 40600.00
939.2180, 40788.00
940.3370, 41010.00
941.4570, 40694.00
942.5760, 40912.00
943.6950, 40796.00
944.8140, 40835.00
945.9330, 40769.00
947.0520, 41035.00
948.1700, 40780.00
949.2890, 41351.00
950.4070, 41311.00
951.5250, 41038.00
952.6430, 41462.00
953.7600, 41174.00
954.8780, 41215.00
955.9950, 41397.00
957.1120, 41353.00
958.2290, 41368.00
959.3460, 41559.00
960.4630, 41453.00
961.5800, 41784.00
962.6960, 41635.00
963.8120, 42138.00
964.9280, 42438.00
966.0440, 42301.00
967.1600, 42603.00
968.2760, 42694.00
969.3910, 42936.00
970.5060, 43040.00
971.6210, 43341.00
972.7360, 43053.00
973.8510, 42737.00
974.9660, 42586.00
976.0800, 42640.43
977.1950, 42771.00
978.3090, 43086.00
979.4230, 43602.00
980.5370, 44154.00
981.6500, 44227.00
982.7640, 44687.00
983.8770, 44994.00
984.9900, 45214.00
986.1030, 45363.00
987.2160, 44899.00
988.3290, 44557.00
989.4420, 43998.00
990.5540, 43651.00
991.6660, 43415.00
992.7780, 42882.00
993.8900, 42942.00
995.0020, 43203.00
996.1140, 43182.00
997.2250, 42950.00
998.3360, 43232.00
999.4470, 43240.00
1000.558, 43547.00
1001.669, 43490.00
1002.780, 43551.00
1003.890, 43217.00
1005.001, 43072.00
1006.111, 43032.00
1007.221, 43008.00
1008.331, 43012.00
1009.440, 43016.00
1010.550, 43408.00
1011.659, 43549.00
1012.768, 43636.00
1013.877, 43797.00
1014.986, 43784.00
1016.095, 43771.00
1017.204, 43720.00
1018.312, 43410.00
1019.420, 43405.00
1020.528, 43118.00
1021.636, 43003.00
1022.744, 42902.00
1023.852, 42404.00
1024.959, 42554.00
1026.066, 42370.00
1027.173, 42481.00
1028.280, 42313.00
1029.387, 42636.00
1030.494, 42435.00
1031.600, 42298.00
1032.707, 42595.00
1033.813, 42541.00
1034.919, 42654.00
1036.025, 42574.00
1037.130, 42574.00
1038.236, 42664.00
1039.341, 42556.00
1040.446, 42615.00
1041.552, 42589.00
1042.656, 42879.00
1043.761, 43019.00
1044.866, 42664.00
1045.970, 43136.00
1047.074, 43061.00
1048.179, 43162.00
1049.282, 43541.00
1050.386, 43592.00
1051.490, 43504.00
1052.593, 43407.00
1053.697, 43454.00
1054.800, 43703.00
1055.903, 43460.00
1057.006, 43747.00
1058.108, 43697.00
1059.211, 43770.00
1060.313, 43727.00
1061.415, 43683.00
1062.517, 43656.00
1063.619, 43822.00
1064.721, 43648.00
1065.823, 43751.00
1066.924, 44213.00
1068.025, 43922.00
1069.126, 43685.00
1070.227, 44099.00
1071.328, 44077.00
1072.429, 44149.00
1073.529, 44301.00
1074.629, 44332.00
1075.729, 44573.00
1076.829, 44603.00
1077.929, 44812.00
1079.029, 44968.00
1080.128, 45255.00
1081.228, 45331.00
1082.327, 45433.00
1083.426, 45360.00
1084.525, 45405.49
1085.623, 45467.00
1086.722, 45393.00
1087.820, 45391.69
1088.919, 45436.00
1090.017, 45234.00
1091.115, 45313.00
1092.212, 45297.00
1093.310, 45342.00
1094.407, 45481.00
1095.505, 45340.00
1096.602, 45280.00
1097.699, 45602.00
1098.795, 45494.00
1099.892, 45256.00
1100.989, 45511.00
1102.085, 45474.00
1103.181, 45342.00
1104.277, 45291.00
1105.373, 45472.00
1106.469, 45703.00
1107.564, 45588.00
1108.660, 45797.00
1109.755, 45572.00
1110.850, 45676.00
1111.945, 45740.00
1113.040, 45807.00
1114.134, 45562.00
1115.229, 45649.00
1116.323, 45642.00
1117.417, 45848.00
1118.511, 45505.00
1119.605, 45975.00
1120.698, 45673.00
1121.792, 45954.00
1122.885, 45619.00
1123.978, 45716.00
1125.071, 45570.00
1126.164, 45953.00
1127.257, 45908.00
1128.349, 45841.00
1129.442, 45798.00
1130.534, 45845.00
1131.626, 46321.00
1132.718, 45820.00
1133.810, 46005.00
1134.901, 46231.00
1135.993, 45823.00
1137.084, 46551.00
1138.175, 45964.00
1139.266, 46067.00
1140.357, 46158.00
1141.448, 45854.00
1142.538, 45875.00
1143.628, 45939.00
1144.719, 46095.00
1145.809, 45980.00
1146.898, 46152.00
1147.988, 46502.00
1149.078, 46239.00
1150.167, 46061.00
1151.256, 46523.00
1152.345, 46395.00
1153.434, 46618.00
1154.523, 46737.00
1155.612, 46757.74
1156.700, 46511.00
1157.788, 46907.00
1158.877, 46889.00
1159.964, 46960.00
1161.052, 47243.00
1162.140, 46896.00
1163.227, 46871.00
1164.315, 46924.00
1165.402, 46985.00
1166.489, 47129.00
1167.576, 47313.00
1168.663, 47228.00
1169.749, 47513.00
1170.836, 47313.00
1171.922, 47387.00
1173.008, 47525.00
1174.094, 47482.00
1175.180, 47530.00
1176.265, 47350.00
1177.351, 47495.00
1178.436, 47384.00
1179.521, 47691.00
1180.606, 47479.00
1181.691, 47293.00
1182.776, 47700.00
1183.860, 47748.00
1184.944, 47893.00
1186.029, 47708.00
1187.113, 47893.00
1188.197, 47606.00
1189.280, 47977.00
1190.364, 47827.30
1191.447, 47719.00
1192.531, 47804.00
1193.614, 47686.00
1194.697, 47816.00
1195.779, 47709.00
1196.862, 47869.00
1197.945, 48144.00
1199.027, 48248.00
1200.109, 48369.00
1201.191, 48404.00
1202.273, 48479.00
1203.355, 48362.00
1204.436, 48354.00
1205.518, 48182.00
1206.599, 48257.00
1207.680, 48563.00
1208.761, 48651.00
1209.842, 48508.00
1210.922, 48989.00
1212.003, 48399.00
1213.083, 48946.00
1214.163, 49080.00
1215.243, 49222.00
1216.323, 48912.00
1217.402, 49187.00
1218.482, 49114.00
1219.561, 49000.00
1220.641, 48913.00
1221.720, 48974.21
1222.798, 48810.00
1223.877, 49181.00
1224.956, 49240.00
1226.034, 49443.00
1227.112, 49337.00
1228.191, 49588.00
1229.269, 49348.00
1230.346, 49487.00
1231.424, 49544.00
1232.501, 49869.00
1233.579, 49513.00
1234.656, 49948.00
1235.733, 50009.00
1236.810, 49941.00
1237.886, 50504.00
1238.963, 50197.00
1240.039, 50171.00
1241.116, 50206.00
1242.192, 50088.00
1243.268, 50227.09
1244.343, 50315.00
1245.419, 50461.00
1246.494, 50588.00
1247.570, 50710.00
1248.645, 50725.00
1249.720, 51057.00
1250.795, 50937.00
1251.869, 50490.00
1252.944, 50745.00
1254.018, 50818.00
1255.093, 50912.00
1256.167, 51160.00
1257.240, 50991.00
1258.314, 50934.00
1259.388, 51192.00
1260.461, 51078.00
1261.535, 51185.00
1262.608, 51343.00
1263.681, 51725.00
1264.753, 51700.00
1265.826, 51885.00
1266.899, 51871.00
1267.971, 51764.00
1269.043, 52001.00
1270.115, 52285.00
1271.187, 52157.00
1272.259, 52326.00
1273.330, 52292.00
1274.402, 52531.00
1275.473, 52305.00
1276.544, 52126.00
1277.615, 52115.00
1278.686, 51961.32
1279.756, 52192.00
1280.827, 51912.00
1281.897, 52080.00
1282.967, 52281.00
1284.037, 52229.00
1285.107, 52033.00
1286.177, 51990.00
1287.247, 52203.00
1288.316, 52256.00
1289.385, 52262.00
1290.454, 52370.00
1291.523, 52346.00
1292.592, 52550.89
1293.661, 52742.00
1294.729, 52966.00
1295.797, 52956.00
