##NAMES=Celsian
##RRUFFID=R060152
##IDEAL CHEMISTRY=BaAl_2_Si_2_O_8_
##LOCALITY=Benallt mine, Lleyn, Wales
##OWNER=RRUFF
##SOURCE=Marcus Origlieri
##DESCRIPTION=Colorless to white elongated prismatic crystals
##STATUS=The identification of this mineral is confirmed by single-crystal X-ray diffraction and chemical analysis.
##URL=rruff.info/R060152
##MEASURED CHEMISTRY=(Ba_0.98_K_0.02_[box]_0.02_)_Î£=1_Al_2.00_Si_2.00_O_8_
##PIN_ID=M00486
##ORIENTATION=Laser parallel to (1 0 1). Fiducial mark perpendicular to laser is parallel to -b [0 -1 0]
119.8650, 27352.00
121.1010, 27827.00
122.3370, 28327.00
123.5730, 29140.00
124.8090, 30436.00
126.0450, 31142.00
127.2800, 32672.00
128.5150, 34067.00
129.7500, 34926.00
130.9850, 35793.00
132.2200, 36297.00
133.4540, 36524.00
134.6890, 35909.13
135.9230, 35474.00
137.1570, 33449.00
138.3900, 31345.00
139.6240, 28949.00
140.8580, 27049.00
142.0910, 25483.00
143.3240, 24485.00
144.5570, 23765.00
145.7900, 23183.00
147.0220, 22444.00
148.2550, 22341.00
149.4870, 22013.00
150.7190, 21890.00
151.9510, 21629.00
153.1830, 21697.00
154.4140, 21321.00
155.6460, 21436.00
156.8770, 21402.00
158.1080, 21354.00
159.3390, 21574.00
160.5690, 21734.00
161.8000, 21908.00
163.0300, 21859.00
164.2600, 21776.00
165.4900, 21938.00
166.7200, 21683.00
167.9500, 21631.00
169.1790, 21277.00
170.4080, 21433.00
171.6380, 21263.00
172.8670, 21156.00
174.0950, 21182.00
175.3240, 20947.00
176.5520, 20918.00
177.7810, 20723.00
179.0090, 20908.00
180.2370, 20718.00
181.4640, 20632.00
182.6920, 20785.00
183.9190, 20767.00
185.1460, 20867.00
186.3730, 20882.00
187.6000, 21091.00
188.8270, 21172.00
190.0530, 21193.00
191.2800, 21739.00
192.5060, 22146.00
193.7320, 22413.00
194.9580, 22729.00
196.1830, 22926.00
197.4090, 22946.00
198.6340, 22708.00
199.8590, 22161.00
201.0840, 21559.00
202.3090, 21326.00
203.5340, 21223.00
204.7580, 20844.00
205.9820, 20612.00
207.2060, 20713.00
208.4300, 20838.00
209.6540, 20563.00
210.8780, 20657.00
212.1010, 20669.00
213.3240, 21018.00
214.5470, 20906.00
215.7700, 21101.00
216.9930, 21289.00
218.2150, 21576.00
219.4380, 21708.00
220.6600, 21761.00
221.8820, 21818.93
223.1040, 21813.62
224.3260, 21733.00
225.5470, 21671.00
226.7680, 21580.00
227.9900, 21630.02
229.2110, 21682.72
230.4310, 21829.00
231.6520, 21984.00
232.8720, 22262.00
234.0930, 22586.00
235.3130, 23088.00
236.5330, 23604.00
237.7530, 24241.71
238.9720, 25125.00
240.1920, 25822.00
241.4110, 26730.00
242.6300, 27839.00
243.8490, 28535.00
245.0680, 29019.00
246.2860, 29385.69
247.5040, 29503.00
248.7230, 29346.00
249.9410, 28853.00
251.1590, 28231.00
252.3760, 27409.00
253.5940, 26833.00
254.8110, 26402.00
256.0280, 26263.00
257.2450, 25498.00
258.4620, 25151.00
259.6790, 24629.00
260.8950, 24216.00
262.1120, 23534.00
263.3280, 22988.00
264.5440, 22686.00
265.7600, 22342.00
266.9750, 22352.00
268.1910, 22040.00
269.4060, 21926.00
270.6210, 22327.00
271.8360, 21868.00
273.0510, 21777.00
274.2650, 21690.00
275.4800, 21434.00
276.6940, 21547.00
277.9080, 21630.00
279.1220, 21378.00
280.3360, 21349.00
281.5490, 21172.00
282.7630, 21486.00
283.9760, 21391.00
285.1890, 21209.00
286.4020, 20972.00
287.6150, 21305.00
288.8270, 21171.00
290.0400, 21107.00
291.2520, 21234.00
292.4640, 21165.00
293.6760, 21416.00
294.8870, 21380.00
296.0990, 21562.00
297.3100, 21769.00
298.5210, 21791.00
299.7320, 22169.00
300.9430, 22128.00
302.1540, 22385.00
303.3640, 22404.00
304.5750, 22660.00
305.7850, 22474.00
306.9950, 22524.00
308.2050, 22579.00
309.4140, 22599.00
310.6240, 22078.00
311.8330, 22141.00
313.0420, 21960.00
314.2510, 21888.00
315.4600, 21734.00
316.6680, 21820.00
317.8770, 21694.00
319.0850, 21654.00
320.2930, 21624.00
321.5010, 21562.00
322.7090, 21575.00
323.9160, 21390.00
325.1240, 21437.00
326.3310, 21439.00
327.5380, 21457.00
328.7450, 21499.21
329.9520, 21370.00
331.1580, 21535.00
332.3650, 21481.00
333.5710, 21404.00
334.7770, 21508.78
335.9830, 21532.00
337.1880, 21605.00
338.3940, 21419.00
339.5990, 21468.00
340.8040, 21520.00
342.0090, 21607.00
343.2140, 21596.00
344.4190, 21519.00
345.6230, 21571.00
346.8280, 21732.00
348.0320, 21703.00
349.2360, 21804.00
350.4400, 21682.00
351.6430, 21832.00
352.8470, 21952.00
354.0500, 21877.00
355.2530, 21836.00
356.4560, 21913.00
357.6590, 21892.39
358.8620, 21907.00
360.0640, 21938.00
361.2660, 21962.00
362.4680, 21923.00
363.6700, 21904.00
364.8720, 21830.00
366.0740, 21841.03
367.2750, 21713.00
368.4760, 21815.00
369.6770, 21801.00
370.8780, 21726.00
372.0790, 21794.97
373.2800, 21783.59
374.4800, 21892.00
375.6800, 21849.00
376.8800, 22022.00
378.0800, 22080.00
379.2800, 22166.00
380.4790, 22487.00
381.6790, 22690.00
382.8780, 22803.00
384.0770, 22884.00
385.2760, 23250.00
386.4750, 23485.00
387.6730, 23877.00
388.8720, 24033.00
390.0700, 24502.00
391.2680, 24863.00
392.4660, 24892.00
393.6630, 24696.00
394.8610, 24401.00
396.0580, 24137.00
397.2550, 23717.00
398.4520, 23356.00
399.6490, 23381.00
400.8460, 22973.00
402.0420, 22744.00
403.2390, 22837.00
404.4350, 22694.00
405.6310, 22842.00
406.8270, 22760.00
408.0220, 22637.00
409.2180, 22786.00
410.4130, 22646.00
411.6080, 22831.00
412.8030, 22779.00
413.9980, 22881.00
415.1920, 22913.00
416.3870, 23208.00
417.5810, 23270.00
418.7750, 23613.00
419.9690, 23679.00
421.1630, 24160.00
422.3570, 24749.00
423.5500, 24960.00
424.7430, 25298.00
425.9360, 25748.00
427.1290, 25778.11
428.3220, 26133.00
429.5150, 25822.00
430.7070, 25612.00
431.8990, 25383.00
433.0910, 24863.00
434.2830, 24520.00
435.4750, 24182.00
436.6670, 23913.00
437.8580, 23782.00
439.0490, 23628.00
440.2400, 23370.00
441.4310, 23498.00
442.6220, 23313.00
443.8130, 23513.00
445.0030, 23306.00
446.1930, 23493.00
447.3830, 23395.00
448.5730, 23485.00
449.7630, 23519.00
450.9520, 23602.70
452.1420, 23720.70
453.3310, 23851.00
454.5200, 24010.00
455.7090, 24134.00
456.8980, 24348.00
458.0860, 24431.00
459.2740, 24725.00
460.4630, 24946.00
461.6510, 25021.00
462.8380, 25691.00
464.0260, 26155.00
465.2140, 26013.00
466.4010, 26396.00
467.5880, 26966.00
468.7750, 27286.00
469.9620, 27599.00
471.1490, 28071.00
472.3350, 27814.00
473.5220, 27611.00
474.7080, 26951.00
475.8940, 26929.00
477.0800, 26483.00
478.2650, 25986.00
479.4510, 25864.00
480.6360, 25764.00
481.8210, 26001.00
483.0060, 25939.00
484.1910, 26155.00
485.3760, 26164.00
486.5600, 26591.00
487.7440, 26779.00
488.9290, 26932.00
490.1130, 27837.00
491.2960, 28621.00
492.4800, 29190.00
493.6630, 30656.00
494.8470, 32182.00
496.0300, 33803.00
497.2130, 36355.00
498.3960, 39178.00
499.5780, 42583.00
500.7610, 46111.00
501.9430, 50482.00
503.1250, 55133.00
504.3070, 59642.00
505.4890, 63982.00
506.6710, 66909.00
507.8520, 67440.00
509.0330, 66152.00
510.2140, 62359.00
511.3950, 56568.00
512.5760, 50178.00
513.7570, 45447.00
514.9370, 40381.00
516.1170, 36648.00
517.2980, 34179.00
518.4780, 32220.00
519.6570, 30789.00
520.8370, 29577.00
522.0160, 29023.00
523.1960, 28449.00
524.3750, 27952.00
525.5540, 27688.00
526.7320, 27405.00
527.9110, 27331.00
529.0890, 26731.00
530.2680, 26451.00
531.4460, 26605.00
532.6240, 26104.00
533.8010, 26488.00
534.9790, 26214.00
536.1560, 26280.00
537.3340, 25946.00
538.5110, 26231.00
539.6880, 25921.00
540.8650, 25917.00
542.0410, 25870.00
543.2180, 26031.00
544.3940, 26057.00
545.5700, 26144.00
546.7460, 26126.00
547.9220, 26317.00
549.0970, 26328.00
550.2730, 26406.00
551.4480, 26740.00
552.6230, 26870.00
553.7980, 26730.00
554.9730, 26822.00
556.1470, 26786.00
557.3210, 26637.00
558.4960, 26412.00
559.6700, 26408.00
560.8440, 26278.00
562.0170, 26291.00
563.1910, 26173.00
564.3640, 26149.00
565.5380, 26112.60
566.7110, 26095.28
567.8840, 26110.00
569.0560, 26125.00
570.2290, 26272.00
571.4010, 26318.00
572.5740, 26199.00
573.7460, 26285.00
574.9180, 26152.00
576.0890, 26449.00
577.2610, 26486.00
578.4320, 26517.00
579.6040, 26728.00
580.7750, 26796.00
581.9450, 27163.00
583.1160, 27521.00
584.2870, 27600.00
585.4570, 28018.00
586.6270, 28401.00
587.7980, 28790.00
588.9670, 28957.00
590.1370, 29460.00
591.3070, 29710.00
592.4760, 30003.00
593.6450, 29776.00
594.8140, 29791.00
595.9830, 29613.00
597.1520, 29350.00
598.3210, 28887.00
599.4890, 28616.00
600.6570, 28406.00
601.8250, 27911.00
602.9930, 28029.00
604.1610, 27765.00
605.3290, 27532.00
606.4960, 27564.00
607.6630, 27352.00
608.8300, 27430.80
609.9970, 27542.00
611.1640, 27580.00
612.3300, 27751.00
613.4970, 27798.00
614.6630, 27896.00
615.8290, 27881.00
616.9950, 28159.00
618.1610, 28206.00
619.3260, 28640.00
620.4920, 28799.00
621.6570, 29006.00
622.8220, 29401.00
623.9870, 29452.00
625.1520, 29447.00
626.3160, 29343.00
627.4810, 29013.00
628.6450, 29053.00
629.8090, 28612.00
630.9730, 28413.00
632.1370, 28373.00
633.3000, 28069.00
634.4640, 28223.00
635.6270, 27831.00
636.7900, 28050.00
637.9530, 27895.00
639.1160, 28088.00
640.2780, 28361.00
641.4410, 28787.00
642.6030, 28606.00
643.7650, 28954.00
644.9270, 29011.00
646.0890, 29126.00
647.2500, 29081.00
648.4120, 29089.00
649.5730, 29122.00
650.7340, 29253.00
651.8950, 28822.00
653.0560, 28890.00
654.2160, 28745.00
655.3770, 28333.00
656.5370, 28128.00
657.6970, 28233.00
658.8570, 28059.00
660.0170, 28141.00
661.1760, 27655.00
662.3360, 27707.00
663.4950, 27759.00
664.6540, 27594.00
665.8130, 27790.00
666.9720, 27847.00
668.1310, 27802.00
669.2890, 27867.00
670.4470, 28011.00
671.6050, 28089.00
672.7630, 27873.00
673.9210, 28312.00
675.0790, 28387.00
676.2360, 28542.00
677.3930, 28958.00
678.5510, 29121.00
679.7080, 29268.97
680.8640, 29239.00
682.0210, 29372.00
683.1770, 29337.00
684.3340, 29137.00
685.4900, 29184.00
686.6460, 29112.00
687.8020, 28931.85
688.9570, 28682.00
690.1130, 28555.00
691.2680, 28536.00
692.4230, 28284.00
693.5780, 28424.00
694.7330, 28279.00
695.8880, 28153.00
697.0420, 27977.00
698.1960, 28182.00
699.3510, 28086.00
700.5040, 27934.00
701.6580, 28230.00
702.8120, 28354.00
703.9650, 28210.00
705.1190, 28545.00
706.2720, 28240.00
707.4250, 28468.00
708.5780, 28399.00
709.7300, 28342.00
710.8830, 28702.00
712.0350, 28858.00
713.1870, 28746.00
714.3390, 28821.00
715.4910, 28967.00
716.6430, 28984.00
717.7940, 29003.00
718.9460, 29187.00
720.0970, 29316.00
721.2480, 29352.00
722.3990, 29290.00
723.5500, 29207.00
724.7000, 29403.00
725.8500, 29538.00
727.0010, 29491.00
728.1510, 29327.00
729.3010, 29767.00
730.4500, 29829.00
731.6000, 29637.01
732.7490, 29564.00
733.8980, 29410.00
735.0470, 29378.00
736.1960, 29437.49
737.3450, 29468.00
738.4940, 29644.00
739.6420, 29948.00
740.7900, 30062.00
741.9380, 30081.00
743.0860, 30445.00
744.2340, 30990.00
745.3810, 31098.00
746.5290, 31679.00
747.6760, 32275.00
748.8230, 32422.00
749.9700, 32703.00
751.1170, 32722.00
752.2630, 32668.00
753.4100, 32145.00
754.5560, 31975.00
755.7020, 31465.00
756.8480, 31027.00
757.9940, 30746.00
759.1390, 30430.00
760.2850, 30173.00
761.4300, 30247.00
762.5750, 29993.00
763.7200, 30215.00
764.8650, 29910.00
766.0100, 29800.00
767.1540, 29767.00
768.2980, 29702.00
769.4420, 29699.09
770.5860, 29717.66
771.7300, 29756.00
772.8740, 29780.00
774.0170, 29868.00
775.1610, 29859.00
776.3040, 29854.78
777.4470, 30067.00
778.5900, 29845.00
779.7320, 30081.00
780.8750, 30208.00
782.0170, 30014.00
783.1590, 30111.00
784.3010, 30139.00
785.4430, 30145.00
786.5850, 30237.00
787.7260, 30402.00
788.8680, 30418.00
790.0090, 30358.00
791.1500, 30601.00
792.2910, 30715.00
793.4310, 30492.00
794.5720, 30548.00
795.7120, 30742.00
796.8520, 30611.00
797.9920, 30817.00
799.1320, 30817.00
800.2720, 30860.00
801.4120, 30920.00
802.5510, 30692.00
803.6900, 31058.00
804.8290, 31165.00
805.9680, 30942.00
807.1070, 30883.00
808.2450, 30991.00
809.3840, 31039.00
810.5220, 31057.00
811.6600, 31237.00
812.7980, 31309.00
813.9360, 31435.00
815.0730, 31244.00
816.2110, 31218.00
817.3480, 31231.00
818.4850, 31333.00
819.6220, 31440.00
820.7590, 31314.00
821.8960, 31556.00
823.0320, 31643.00
824.1680, 31527.00
825.3040, 31692.00
826.4400, 31771.00
827.5760, 31602.00
828.7120, 32091.00
829.8470, 31845.00
830.9830, 31732.00
832.1180, 31934.00
833.2530, 32024.00
834.3880, 32260.00
835.5220, 32431.00
836.6570, 32440.70
837.7910, 32103.00
838.9250, 32474.00
840.0590, 32461.00
841.1930, 32523.00
842.3270, 32676.00
843.4600, 32724.00
844.5940, 32798.17
845.7270, 32841.00
846.8600, 32872.00
847.9930, 32933.00
849.1250, 32890.00
850.2580, 33034.00
851.3900, 33166.04
852.5230, 33222.00
853.6550, 33569.00
854.7870, 33648.00
855.9180, 33894.76
857.0500, 34154.00
858.1810, 34125.00
859.3130, 34220.00
860.4440, 34279.00
861.5750, 34095.27
862.7050, 34408.00
863.8360, 33818.00
864.9660, 33739.00
866.0970, 33834.00
867.2270, 33595.00
868.3570, 33563.00
869.4870, 33489.00
870.6160, 33433.00
871.7460, 33364.00
872.8750, 33374.13
874.0040, 33459.00
875.1330, 33323.00
876.2620, 33419.00
877.3910, 33206.00
878.5190, 33403.00
879.6470, 33236.00
880.7760, 33374.00
881.9040, 33490.00
883.0310, 33630.00
884.1590, 33565.00
885.2870, 33540.00
886.4140, 33751.00
887.5410, 33534.00
888.6680, 33535.00
889.7950, 33604.00
890.9220, 33490.00
892.0480, 33604.91
893.1750, 33785.00
894.3010, 33736.00
895.4270, 33917.00
896.5530, 33948.00
897.6790, 33986.00
898.8040, 34111.08
899.9300, 33976.00
901.0550, 34275.00
902.1800, 34053.00
903.3050, 34076.00
904.4300, 34091.00
905.5540, 33881.00
906.6790, 34048.00
907.8030, 34067.00
908.9270, 34136.00
910.0510, 34353.00
911.1750, 34440.00
912.2990, 34479.00
913.4220, 34491.01
914.5450, 34047.00
915.6690, 34299.00
916.7920, 34126.00
917.9140, 33860.00
919.0370, 34219.00
920.1600, 34312.00
921.2820, 34141.00
922.4040, 34189.00
923.5260, 34452.00
924.6480, 34323.00
925.7700, 34328.00
926.8910, 34311.00
928.0130, 34356.32
929.1340, 34488.00
930.2550, 34616.00
931.3760, 34626.00
932.4970, 34933.00
933.6170, 34666.00
934.7380, 35010.00
935.8580, 34886.00
936.9780, 35072.00
938.0980, 35152.00
939.2180, 35198.00
940.3370, 35272.00
941.4570, 35214.00
942.5760, 35124.00
943.6950, 35382.00
944.8140, 35317.00
945.9330, 35371.00
947.0520, 35470.00
948.1700, 35420.00
949.2890, 35727.00
950.4070, 35628.00
951.5250, 36054.00
952.6430, 35884.00
953.7600, 36105.00
954.8780, 36302.00
955.9950, 36295.00
957.1120, 36298.00
958.2290, 36261.00
959.3460, 36588.00
960.4630, 36871.00
961.5800, 37177.00
962.6960, 37572.00
963.8120, 38278.00
964.9280, 38641.00
966.0440, 39334.00
967.1600, 40014.00
968.2760, 40440.00
969.3910, 40849.00
970.5060, 40819.00
971.6210, 40711.00
972.7360, 40044.00
973.8510, 39659.00
974.9660, 39134.00
976.0800, 38857.00
977.1950, 38649.70
978.3090, 38573.83
979.4230, 38616.00
980.5370, 38810.00
981.6500, 39270.00
982.7640, 39679.00
983.8770, 39925.00
984.9900, 39974.00
986.1030, 40237.00
987.2160, 39467.00
988.3290, 38891.00
989.4420, 38644.00
990.5540, 38617.00
991.6660, 38384.00
992.7780, 38297.00
993.8900, 38289.00
995.0020, 38323.00
996.1140, 38301.22
997.2250, 38472.00
998.3360, 38377.00
999.4470, 38532.00
1000.558, 38665.00
1001.669, 38647.00
1002.780, 38436.00
1003.890, 37939.00
1005.001, 37490.00
1006.111, 37404.00
1007.221, 37716.00
1008.331, 37400.00
1009.440, 37706.00
1010.550, 37572.00
1011.659, 37762.16
1012.768, 38098.00
1013.877, 38185.00
1014.986, 38138.00
1016.095, 38290.00
1017.204, 38161.00
1018.312, 37958.00
1019.420, 37542.00
1020.528, 37274.00
1021.636, 37310.00
1022.744, 36890.00
1023.852, 36768.00
1024.959, 36795.00
1026.066, 36686.00
1027.173, 36456.00
1028.280, 36345.00
1029.387, 36416.00
1030.494, 36317.00
1031.600, 36298.00
1032.707, 36358.00
1033.813, 36182.00
1034.919, 36260.00
1036.025, 36377.00
1037.130, 36246.00
1038.236, 36307.00
1039.341, 36281.00
1040.446, 36435.00
1041.552, 36216.00
1042.656, 36596.00
1043.761, 36586.00
1044.866, 36590.00
1045.970, 36817.00
1047.074, 36897.00
1048.179, 37291.00
1049.282, 37325.00
1050.386, 37294.00
1051.490, 37753.00
1052.593, 37643.00
1053.697, 37803.00
1054.800, 37746.00
1055.903, 37925.00
1057.006, 37699.00
1058.108, 37871.00
1059.211, 37894.00
1060.313, 37881.00
1061.415, 37644.00
1062.517, 37644.00
1063.619, 37560.00
1064.721, 37487.00
1065.823, 37381.00
1066.924, 37557.00
1068.025, 37672.00
1069.126, 37490.00
1070.227, 37733.00
1071.328, 37536.00
1072.429, 37844.00
1073.529, 37990.00
1074.629, 37741.00
1075.729, 37959.00
1076.829, 38149.00
1077.929, 38090.00
1079.029, 38243.68
1080.128, 38634.00
1081.228, 38378.00
1082.327, 38594.00
1083.426, 38759.00
1084.525, 38468.00
1085.623, 38704.00
1086.722, 38581.00
1087.820, 38389.00
1088.919, 38412.00
1090.017, 38385.00
1091.115, 38541.00
1092.212, 38434.00
1093.310, 38427.00
1094.407, 38410.00
1095.505, 38559.00
1096.602, 38506.00
1097.699, 38431.00
1098.795, 38608.00
1099.892, 38510.24
1100.989, 38620.00
1102.085, 38464.00
1103.181, 38475.00
1104.277, 38418.00
1105.373, 38706.00
1106.469, 38785.00
1107.564, 38760.00
1108.660, 38802.00
1109.755, 38691.00
1110.850, 38551.00
1111.945, 38703.00
1113.040, 38822.00
1114.134, 38750.00
1115.229, 38609.00
1116.323, 38629.00
1117.417, 38549.00
1118.511, 38795.00
1119.605, 38708.00
1120.698, 38581.00
1121.792, 38840.00
1122.885, 38552.00
1123.978, 38751.00
1125.071, 38615.00
1126.164, 38787.00
1127.257, 38884.00
1128.349, 38818.00
1129.442, 38840.00
1130.534, 39034.00
1131.626, 38814.00
1132.718, 38798.00
1133.810, 39185.00
1134.901, 38755.00
1135.993, 38809.00
1137.084, 38938.00
1138.175, 38692.00
1139.266, 39150.00
1140.357, 38747.00
1141.448, 38992.00
1142.538, 38840.00
1143.628, 38863.00
1144.719, 39025.00
1145.809, 38966.00
1146.898, 39178.00
1147.988, 39123.00
1149.078, 39213.00
1150.167, 39037.00
1151.256, 39061.00
1152.345, 39018.00
1153.434, 39457.00
1154.523, 39075.00
1155.612, 39406.00
1156.700, 39245.00
1157.788, 39389.00
1158.877, 39591.00
1159.964, 39671.00
1161.052, 39532.00
1162.140, 39586.00
1163.227, 39641.00
1164.315, 39793.00
1165.402, 39809.00
1166.489, 39827.00
1167.576, 39853.00
1168.663, 40142.00
1169.749, 39889.00
1170.836, 40078.00
1171.922, 40027.00
1173.008, 39923.00
1174.094, 40360.00
1175.180, 40398.00
1176.265, 40189.00
1177.351, 39946.00
1178.436, 40175.00
1179.521, 40091.00
1180.606, 40023.00
1181.691, 40002.00
1182.776, 40354.00
1183.860, 40181.00
1184.944, 40413.00
1186.029, 40313.00
1187.113, 40433.00
1188.197, 40622.00
1189.280, 40483.00
1190.364, 40241.00
1191.447, 40359.00
1192.531, 40133.00
1193.614, 40422.00
1194.697, 40388.00
1195.779, 40389.00
1196.862, 40279.00
1197.945, 40473.00
1199.027, 40467.00
1200.109, 40403.00
1201.191, 40405.00
1202.273, 40357.00
1203.355, 40645.00
1204.436, 40279.91
1205.518, 40554.86
1206.599, 40730.00
1207.680, 40810.73
1208.761, 40514.28
1209.842, 40704.88
1210.922, 40700.25
1212.003, 40687.66
1213.083, 40946.77
1214.163, 40705.14
1215.243, 40959.93
1216.323, 41016.56
1217.402, 41163.84
1218.482, 41139.00
1219.561, 41089.00
1220.641, 41032.00
1221.720, 41130.00
1222.798, 41438.00
1223.877, 41334.00
1224.956, 41207.00
1226.034, 41645.00
1227.112, 41529.00
1228.191, 41518.00
1229.269, 41587.00
1230.346, 41448.00
1231.424, 41531.00
1232.501, 41562.00
1233.579, 41804.00
1234.656, 41722.00
1235.733, 41751.00
1236.810, 42111.00
1237.886, 42294.00
1238.963, 42089.00
1240.039, 42081.00
1241.116, 42233.00
1242.192, 42072.00
1243.268, 42247.00
1244.343, 42281.00
1245.419, 42497.00
1246.494, 42481.00
1247.570, 42387.00
1248.645, 42857.00
1249.720, 42552.00
1250.795, 42735.00
1251.869, 42607.00
1252.944, 42461.00
1254.018, 42701.00
1255.093, 42647.00
1256.167, 42855.00
1257.240, 42690.00
1258.314, 42801.00
1259.388, 42684.00
1260.461, 42995.00
1261.535, 43026.00
1262.608, 43265.00
1263.681, 43295.00
1264.753, 43245.00
1265.826, 43431.00
1266.899, 43616.00
1267.971, 43828.00
1269.043, 43789.00
1270.115, 43778.00
1271.187, 43835.00
1272.259, 43929.00
1273.330, 43911.00
1274.402, 44201.00
1275.473, 43890.00
1276.544, 43947.00
1277.615, 43598.00
1278.686, 43691.00
1279.756, 43761.00
1280.827, 43698.00
1281.897, 43769.87
1282.967, 43660.00
1284.037, 43820.00
1285.107, 43656.00
1286.177, 43708.00
1287.247, 43546.00
1288.316, 43621.00
1289.385, 44070.00
1290.454, 43668.00
1291.523, 44033.00
1292.592, 44385.00
1293.661, 44199.00
1294.729, 44225.00
1295.797, 44002.00
