##NAMES=Celsian
##RRUFFID=R060152
##IDEAL CHEMISTRY=BaAl_2_Si_2_O_8_
##LOCALITY=Benallt mine, Lleyn, Wales
##OWNER=RRUFF
##SOURCE=Marcus Origlieri
##DESCRIPTION=Colorless to white elongated prismatic crystals
##STATUS=The identification of this mineral is confirmed by single-crystal X-ray diffraction and chemical analysis.
##URL=rruff.info/R060152
##MEASURED CHEMISTRY=(Ba_0.98_K_0.02_[box]_0.02_)_Î£=1_Al_2.00_Si_2.00_O_8_
##PIN_ID=M00486
##ORIENTATION=Laser parallel to (1 0 1). Fiducial mark perpendicular to laser is parallel to -b [0 -1 0]
119.8650, 44524.00
121.1010, 44162.00
122.3370, 43683.00
123.5730, 43286.00
124.8090, 43032.00
126.0450, 42850.00
127.2800, 42890.00
128.5150, 42645.00
129.7500, 42562.34
130.9850, 42429.72
132.2200, 42334.00
133.4540, 42085.00
134.6890, 42027.00
135.9230, 41781.00
137.1570, 42108.00
138.3900, 42002.00
139.6240, 41813.00
140.8580, 41730.00
142.0910, 41630.00
143.3240, 41786.00
144.5570, 41927.00
145.7900, 41778.00
147.0220, 41657.00
148.2550, 41759.00
149.4870, 42200.00
150.7190, 42132.00
151.9510, 42419.00
153.1830, 42423.00
154.4140, 43065.00
155.6460, 43363.00
156.8770, 44336.00
158.1080, 44903.00
159.3390, 46263.00
160.5690, 47292.00
161.8000, 48582.00
163.0300, 50492.00
164.2600, 51972.00
165.4900, 53814.00
166.7200, 55813.00
167.9500, 56741.00
169.1790, 57815.00
170.4080, 57240.00
171.6380, 55703.00
172.8670, 53450.00
174.0950, 51226.00
175.3240, 49685.00
176.5520, 47789.00
177.7810, 46694.00
179.0090, 45708.00
180.2370, 44546.00
181.4640, 43948.00
182.6920, 43775.00
183.9190, 43083.00
185.1460, 43004.00
186.3730, 42701.00
187.6000, 43023.00
188.8270, 42741.00
190.0530, 42894.00
191.2800, 42969.00
192.5060, 42904.00
193.7320, 43026.00
194.9580, 42811.00
196.1830, 42805.00
197.4090, 42799.00
198.6340, 42928.00
199.8590, 42858.00
201.0840, 42677.00
202.3090, 42473.00
203.5340, 42420.00
204.7580, 42329.00
205.9820, 42246.00
207.2060, 42484.00
208.4300, 42189.00
209.6540, 42392.00
210.8780, 42985.00
212.1010, 42737.00
213.3240, 42771.00
214.5470, 43103.00
215.7700, 43118.00
216.9930, 43446.00
218.2150, 43447.00
219.4380, 43880.00
220.6600, 43764.00
221.8820, 43533.00
223.1040, 43875.00
224.3260, 43787.00
225.5470, 43666.00
226.7680, 43817.00
227.9900, 43381.00
229.2110, 43721.00
230.4310, 43536.00
231.6520, 43745.00
232.8720, 44139.00
234.0930, 44688.00
235.3130, 45188.00
236.5330, 45619.00
237.7530, 45958.00
238.9720, 46823.00
240.1920, 47618.00
241.4110, 48460.00
242.6300, 49478.00
243.8490, 50368.00
245.0680, 50724.00
246.2860, 51073.00
247.5040, 51398.00
248.7230, 51079.00
249.9410, 50739.00
251.1590, 50292.00
252.3760, 49723.00
253.5940, 49129.00
254.8110, 48717.00
256.0280, 48470.00
257.2450, 48142.00
258.4620, 47725.99
259.6790, 47362.61
260.8950, 46845.00
262.1120, 46492.00
263.3280, 45936.00
264.5440, 45456.00
265.7600, 45135.00
266.9750, 45178.00
268.1910, 45136.00
269.4060, 44896.00
270.6210, 44953.00
271.8360, 44634.00
273.0510, 44483.00
274.2650, 44454.24
275.4800, 44285.00
276.6940, 44452.00
277.9080, 44310.00
279.1220, 44533.00
280.3360, 44325.00
281.5490, 44168.00
282.7630, 44673.00
283.9760, 44393.00
285.1890, 44459.00
286.4020, 44366.00
287.6150, 44448.00
288.8270, 44592.00
290.0400, 44737.00
291.2520, 44873.00
292.4640, 45143.00
293.6760, 45234.00
294.8870, 45497.52
296.0990, 45478.00
297.3100, 46080.00
298.5210, 46395.00
299.7320, 46907.00
300.9430, 47460.00
302.1540, 47997.00
303.3640, 48540.00
304.5750, 49215.00
305.7850, 49295.00
306.9950, 49547.00
308.2050, 49199.00
309.4140, 48733.00
310.6240, 47933.00
311.8330, 47280.00
313.0420, 46806.62
314.2510, 46198.00
315.4600, 45899.00
316.6680, 45580.00
317.8770, 45291.00
319.0850, 45594.00
320.2930, 45555.00
321.5010, 45361.00
322.7090, 45005.00
323.9160, 45257.00
325.1240, 45429.00
326.3310, 45159.00
327.5380, 45193.00
328.7450, 45250.00
329.9520, 45373.00
331.1580, 45227.00
332.3650, 45437.00
333.5710, 45298.00
334.7770, 45216.00
335.9830, 45441.00
337.1880, 45432.00
338.3940, 45384.00
339.5990, 45388.00
340.8040, 45449.83
342.0090, 45926.00
343.2140, 45706.00
344.4190, 45889.00
345.6230, 46223.00
346.8280, 45973.00
348.0320, 46095.00
349.2360, 45946.00
350.4400, 45981.00
351.6430, 46042.00
352.8470, 46024.00
354.0500, 46206.00
355.2530, 46115.00
356.4560, 46188.00
357.6590, 46446.00
358.8620, 46057.00
360.0640, 46366.00
361.2660, 45996.00
362.4680, 46376.00
363.6700, 46301.00
364.8720, 46254.00
366.0740, 46320.00
367.2750, 46048.00
368.4760, 46030.00
369.6770, 46310.00
370.8780, 46112.00
372.0790, 46217.00
373.2800, 46323.00
374.4800, 46550.00
375.6800, 46615.00
376.8800, 46824.00
378.0800, 46577.00
379.2800, 46724.00
380.4790, 46984.00
381.6790, 47300.00
382.8780, 47549.00
384.0770, 47853.86
385.2760, 47943.00
386.4750, 48447.00
387.6730, 48493.00
388.8720, 48765.00
390.0700, 48991.00
391.2680, 49252.00
392.4660, 49032.00
393.6630, 48709.00
394.8610, 48718.00
396.0580, 48721.00
397.2550, 48029.00
398.4520, 48101.00
399.6490, 47765.00
400.8460, 47854.00
402.0420, 47959.00
403.2390, 48015.00
404.4350, 47946.00
405.6310, 48144.00
406.8270, 48101.00
408.0220, 48189.00
409.2180, 48309.39
410.4130, 48381.00
411.6080, 48483.00
412.8030, 48465.00
413.9980, 48445.00
415.1920, 48647.00
416.3870, 48398.00
417.5810, 48621.00
418.7750, 48892.00
419.9690, 48533.00
421.1630, 49235.00
422.3570, 49836.00
423.5500, 49744.00
424.7430, 49759.00
425.9360, 50558.00
427.1290, 50970.00
428.3220, 51273.00
429.5150, 50747.00
430.7070, 50711.00
431.8990, 50590.00
433.0910, 50063.00
434.2830, 50215.00
435.4750, 49790.00
436.6670, 49452.00
437.8580, 48937.00
439.0490, 49427.00
440.2400, 49344.00
441.4310, 49084.00
442.6220, 49235.00
443.8130, 49328.00
445.0030, 49666.00
446.1930, 49605.00
447.3830, 50040.00
448.5730, 50160.00
449.7630, 50453.00
450.9520, 50705.00
452.1420, 51612.00
453.3310, 51977.00
454.5200, 52373.00
455.7090, 53144.00
456.8980, 53646.00
458.0860, 54794.00
459.2740, 55615.00
460.4630, 56651.00
461.6510, 57216.00
462.8380, 57565.00
464.0260, 57628.00
465.2140, 57203.00
466.4010, 56851.00
467.5880, 56035.00
468.7750, 54860.00
469.9620, 54632.00
471.1490, 54219.00
472.3350, 53674.00
473.5220, 53735.00
474.7080, 52826.00
475.8940, 52405.00
477.0800, 51926.00
478.2650, 51746.00
479.4510, 51948.00
480.6360, 51644.00
481.8210, 51577.00
483.0060, 51887.00
484.1910, 51768.00
485.3760, 51742.00
486.5600, 52088.00
487.7440, 52025.00
488.9290, 52500.00
490.1130, 53170.00
491.2960, 53658.00
492.4800, 53980.00
493.6630, 54757.00
494.8470, 55820.00
496.0300, 57370.00
497.2130, 59003.00
498.3960, 61137.00
499.5780, 63500.00
500.7610, 66582.00
501.9430, 69724.00
503.1250, 73090.00
504.3070, 76672.00
505.4890, 80195.00
506.6710, 82859.00
507.8520, 84099.00
509.0330, 83159.00
510.2140, 80864.00
511.3950, 76446.00
512.5760, 72153.00
513.7570, 67548.00
514.9370, 64154.00
516.1170, 61478.00
517.2980, 59587.00
518.4780, 58260.00
519.6570, 56974.00
520.8370, 56267.00
522.0160, 55722.00
523.1960, 55590.00
524.3750, 55465.00
525.5540, 54909.00
526.7320, 54747.00
527.9110, 54824.00
529.0890, 54391.00
530.2680, 54487.00
531.4460, 54072.00
532.6240, 54083.00
533.8010, 54113.00
534.9790, 53691.00
536.1560, 53309.00
537.3340, 53462.00
538.5110, 53268.00
539.6880, 53346.00
540.8650, 53309.00
542.0410, 53356.00
543.2180, 53374.92
544.3940, 53496.00
545.5700, 53456.00
546.7460, 53383.00
547.9220, 53509.00
549.0970, 53766.00
550.2730, 53653.00
551.4480, 53738.00
552.6230, 53922.00
553.7980, 53862.00
554.9730, 54007.52
556.1470, 53915.00
557.3210, 54119.00
558.4960, 54092.00
559.6700, 54020.00
560.8440, 54082.00
562.0170, 53858.00
563.1910, 54198.00
564.3640, 54195.00
565.5380, 54175.00
566.7110, 54588.00
567.8840, 54305.00
569.0560, 54263.00
570.2290, 54105.00
571.4010, 54047.12
572.5740, 54515.00
573.7460, 54118.00
574.9180, 54269.00
576.0890, 54567.00
577.2610, 54370.00
578.4320, 54567.00
579.6040, 54669.00
580.7750, 54676.00
581.9450, 54843.52
583.1160, 54753.00
584.2870, 55033.00
585.4570, 55268.00
586.6270, 55312.20
587.7980, 54987.00
588.9670, 55301.00
590.1370, 55319.00
591.3070, 55148.00
592.4760, 55291.00
593.6450, 55418.00
594.8140, 55529.00
595.9830, 55569.00
597.1520, 55367.00
598.3210, 55747.00
599.4890, 55756.00
600.6570, 55310.00
601.8250, 55829.00
602.9930, 55925.00
604.1610, 55840.00
605.3290, 55702.00
606.4960, 55698.00
607.6630, 55947.00
608.8300, 56094.00
609.9970, 56149.00
611.1640, 56280.00
612.3300, 56377.00
613.4970, 56484.00
614.6630, 56559.00
615.8290, 56897.00
616.9950, 57150.00
618.1610, 57231.00
619.3260, 57647.00
620.4920, 57851.00
621.6570, 58353.00
622.8220, 58831.00
623.9870, 59206.00
625.1520, 59120.00
626.3160, 59713.00
627.4810, 59097.00
628.6450, 58678.00
629.8090, 58950.00
630.9730, 58284.46
632.1370, 57831.00
633.3000, 57724.00
634.4640, 57620.00
635.6270, 57770.00
636.7900, 57969.00
637.9530, 57873.00
639.1160, 57763.00
640.2780, 58296.00
641.4410, 58133.00
642.6030, 58563.00
643.7650, 58688.00
644.9270, 58867.00
646.0890, 58883.00
647.2500, 59561.00
648.4120, 59205.00
649.5730, 59372.00
650.7340, 59399.00
651.8950, 59104.00
653.0560, 59114.00
654.2160, 58598.00
655.3770, 58654.00
656.5370, 58296.00
657.6970, 58552.00
658.8570, 58262.00
660.0170, 58088.00
661.1760, 57995.00
662.3360, 57979.00
663.4950, 57911.00
664.6540, 57963.15
665.8130, 57944.00
666.9720, 58083.00
668.1310, 58036.00
669.2890, 58055.00
670.4470, 58428.00
671.6050, 58322.00
672.7630, 58585.00
673.9210, 59182.00
675.0790, 59122.00
676.2360, 59708.00
677.3930, 59871.00
678.5510, 60168.00
679.7080, 60804.00
680.8640, 60939.00
682.0210, 60983.00
683.1770, 60987.00
684.3340, 61051.00
685.4900, 60659.00
686.6460, 60698.00
687.8020, 60009.00
688.9570, 59767.00
690.1130, 59372.00
691.2680, 59392.00
692.4230, 59159.00
693.5780, 58863.00
694.7330, 59160.00
695.8880, 59221.00
697.0420, 59022.00
698.1960, 58863.00
699.3510, 59578.00
700.5040, 59113.00
701.6580, 59371.00
702.8120, 59120.00
703.9650, 59325.00
705.1190, 59517.00
706.2720, 59609.00
707.4250, 60106.00
708.5780, 60294.00
709.7300, 60194.00
710.8830, 60437.00
712.0350, 61175.00
713.1870, 61044.00
714.3390, 61134.00
715.4910, 61587.00
716.6430, 61195.00
717.7940, 61350.00
718.9460, 60955.00
720.0970, 61024.00
721.2480, 60768.00
722.3990, 60914.00
723.5500, 61051.00
724.7000, 60739.00
725.8500, 60960.00
727.0010, 60888.00
728.1510, 60951.00
729.3010, 61123.00
730.4500, 61043.00
731.6000, 60912.00
732.7490, 60722.00
733.8980, 61092.00
735.0470, 60574.00
736.1960, 60884.00
737.3450, 60634.00
738.4940, 60644.00
739.6420, 60717.00
740.7900, 60934.00
741.9380, 60780.00
743.0860, 61003.00
744.2340, 60978.00
745.3810, 60940.00
746.5290, 61284.00
747.6760, 61214.00
748.8230, 61264.00
749.9700, 60872.87
751.1170, 61160.61
752.2630, 61348.52
753.4100, 61442.07
754.5560, 61158.40
755.7020, 61361.77
756.8480, 61369.95
757.9940, 61370.13
759.1390, 61642.00
760.2850, 61413.18
761.4300, 61680.74
762.5750, 61750.13
763.7200, 61910.22
764.8650, 61873.91
766.0100, 61898.27
767.1540, 62119.03
768.2980, 62231.01
769.4420, 62172.05
770.5860, 62337.84
771.7300, 62102.06
772.8740, 62218.68
774.0170, 62487.28
775.1610, 62438.19
776.3040, 62607.53
777.4470, 62693.66
778.5900, 62401.64
779.7320, 62767.20
780.8750, 62848.41
782.0170, 62637.55
783.1590, 62980.58
784.3010, 62448.00
785.4430, 62726.00
786.5850, 63124.00
787.7260, 62821.00
788.8680, 62665.00
790.0090, 62910.00
791.1500, 63138.00
792.2910, 63179.00
793.4310, 63061.00
794.5720, 63447.00
795.7120, 63458.00
796.8520, 63633.00
797.9920, 63851.00
799.1320, 63772.00
800.2720, 63955.00
801.4120, 64084.00
802.5510, 64046.00
803.6900, 63854.00
804.8290, 64379.00
805.9680, 64017.00
807.1070, 64562.00
808.2450, 64534.00
809.3840, 64709.00
810.5220, 64621.00
811.6600, 64636.00
812.7980, 64869.00
813.9360, 64915.00
815.0730, 64745.00
816.2110, 64965.00
817.3480, 64833.00
818.4850, 64839.00
819.6220, 65214.00
820.7590, 65641.00
821.8960, 65137.00
823.0320, 65625.00
824.1680, 65717.00
825.3040, 65635.00
826.4400, 65706.00
827.5760, 65563.00
828.7120, 65876.00
829.8470, 65574.00
830.9830, 65676.00
832.1180, 66032.00
833.2530, 65733.00
834.3880, 65954.00
835.5220, 65721.00
836.6570, 66254.00
837.7910, 66245.00
838.9250, 66930.00
840.0590, 66293.00
841.1930, 66485.00
842.3270, 66650.00
843.4600, 66264.00
844.5940, 66623.00
845.7270, 66808.00
846.8600, 66919.00
847.9930, 67078.00
849.1250, 67235.00
850.2580, 67328.00
851.3900, 67491.43
852.5230, 67563.00
853.6550, 67845.00
854.7870, 68013.00
855.9180, 68350.00
857.0500, 68925.00
858.1810, 69141.00
859.3130, 69019.00
860.4440, 69748.00
861.5750, 69525.00
862.7050, 69650.00
863.8360, 69094.00
864.9660, 68908.00
866.0970, 69485.00
867.2270, 68833.00
868.3570, 68736.00
869.4870, 68293.00
870.6160, 68759.00
871.7460, 68299.00
872.8750, 68459.00
874.0040, 68672.00
875.1330, 68247.00
876.2620, 68432.00
877.3910, 68438.00
878.5190, 68779.00
879.6470, 68533.00
880.7760, 68932.00
881.9040, 68894.00
883.0310, 68334.00
884.1590, 68557.00
885.2870, 68683.00
886.4140, 68744.00
887.5410, 68895.00
888.6680, 69060.00
889.7950, 69407.00
890.9220, 69407.67
892.0480, 69513.54
893.1750, 69522.00
894.3010, 69543.00
895.4270, 69620.00
896.5530, 69670.00
897.6790, 69748.67
898.8040, 69905.00
899.9300, 69930.00
901.0550, 69740.00
902.1800, 69820.48
903.3050, 70039.00
904.4300, 69950.00
905.5540, 70187.00
906.6790, 70226.00
907.8030, 70447.00
908.9270, 70548.00
910.0510, 70366.00
911.1750, 70146.00
912.2990, 70407.00
913.4220, 70533.00
914.5450, 70557.00
915.6690, 70675.00
916.7920, 70625.67
917.9140, 70421.00
919.0370, 70448.00
920.1600, 70459.00
921.2820, 70243.00
922.4040, 70423.00
923.5260, 70124.00
924.6480, 70598.00
925.7700, 71129.00
926.8910, 70386.00
928.0130, 70762.00
929.1340, 70538.00
930.2550, 70840.00
931.3760, 71165.00
932.4970, 70660.00
933.6170, 71129.00
934.7380, 71164.00
935.8580, 71271.00
936.9780, 71038.00
938.0980, 71374.00
939.2180, 71393.00
940.3370, 71433.00
941.4570, 71763.00
942.5760, 71455.00
943.6950, 71892.00
944.8140, 71723.00
945.9330, 71989.00
947.0520, 71643.00
948.1700, 71993.00
949.2890, 71952.00
950.4070, 72224.00
951.5250, 72271.00
952.6430, 72144.00
953.7600, 72088.00
954.8780, 72193.00
955.9950, 72516.00
957.1120, 72645.00
958.2290, 72362.00
959.3460, 72119.00
960.4630, 71900.00
961.5800, 72307.00
962.6960, 72877.00
963.8120, 72443.00
964.9280, 72618.00
966.0440, 72472.00
967.1600, 72898.00
968.2760, 72752.00
969.3910, 72859.00
970.5060, 73402.00
971.6210, 73364.00
972.7360, 73214.00
973.8510, 73402.00
974.9660, 73561.41
976.0800, 73882.00
977.1950, 74182.00
978.3090, 74766.00
979.4230, 75204.00
980.5370, 75920.00
981.6500, 76344.00
982.7640, 77061.00
983.8770, 77832.00
984.9900, 77464.00
986.1030, 77992.00
987.2160, 77286.00
988.3290, 76790.00
989.4420, 75918.00
990.5540, 75887.00
991.6660, 75013.00
992.7780, 74960.00
993.8900, 75071.00
995.0020, 75235.00
996.1140, 75431.00
997.2250, 74908.00
998.3360, 75654.00
999.4470, 75620.00
1000.558, 76227.00
1001.669, 77056.00
1002.780, 76424.00
1003.890, 76550.00
1005.001, 76025.00
1006.111, 75458.00
1007.221, 75442.00
1008.331, 75021.00
1009.440, 74871.00
1010.550, 75015.00
1011.659, 74727.00
1012.768, 74706.74
1013.877, 74579.00
1014.986, 74600.00
1016.095, 74063.00
1017.204, 74185.00
1018.312, 73826.00
1019.420, 73911.00
1020.528, 74219.00
1021.636, 73883.00
1022.744, 74616.00
1023.852, 74102.00
1024.959, 74614.00
1026.066, 74881.00
1027.173, 74710.00
1028.280, 75493.00
1029.387, 75721.00
1030.494, 75791.00
1031.600, 76154.00
1032.707, 76034.00
1033.813, 75940.00
1034.919, 76113.00
1036.025, 76094.00
1037.130, 75820.00
1038.236, 76085.00
1039.341, 75735.00
1040.446, 75875.00
1041.552, 76063.00
1042.656, 76084.00
1043.761, 75863.00
1044.866, 75911.00
1045.970, 76206.00
1047.074, 76339.00
1048.179, 76756.00
1049.282, 76771.00
1050.386, 76734.00
1051.490, 76987.00
1052.593, 76751.00
1053.697, 76765.00
1054.800, 77158.00
1055.903, 77267.00
1057.006, 77346.00
1058.108, 77446.00
1059.211, 77756.00
1060.313, 77178.00
1061.415, 77765.00
1062.517, 77467.00
1063.619, 77621.00
1064.721, 77721.00
1065.823, 77733.00
1066.924, 77761.00
1068.025, 78175.00
1069.126, 77726.00
1070.227, 77737.00
1071.328, 78132.00
1072.429, 78224.00
1073.529, 78323.00
1074.629, 78563.00
1075.729, 78708.00
1076.829, 78780.00
1077.929, 79224.00
1079.029, 79214.00
1080.128, 79638.00
1081.228, 79654.00
1082.327, 79500.00
1083.426, 79826.00
1084.525, 79871.00
1085.623, 79651.00
1086.722, 79723.00
1087.820, 79696.28
1088.919, 79770.00
1090.017, 79744.00
1091.115, 79903.00
1092.212, 79966.00
1093.310, 79857.00
1094.407, 79970.00
1095.505, 79984.00
1096.602, 79967.00
1097.699, 79857.00
1098.795, 80026.00
1099.892, 79947.00
1100.989, 80048.00
1102.085, 80288.00
1103.181, 80125.00
1104.277, 80007.00
1105.373, 80135.00
1106.469, 80687.00
1107.564, 80338.00
1108.660, 80538.00
1109.755, 80908.00
1110.850, 80684.00
1111.945, 80112.00
1113.040, 80654.00
1114.134, 80686.00
1115.229, 80533.00
1116.323, 80819.00
1117.417, 80715.00
1118.511, 80661.00
1119.605, 81047.00
1120.698, 80864.00
1121.792, 81160.00
1122.885, 81451.00
1123.978, 81031.00
1125.071, 81334.00
1126.164, 81108.00
1127.257, 81433.00
1128.349, 81539.00
1129.442, 81466.00
1130.534, 81870.00
1131.626, 81661.00
1132.718, 82401.00
1133.810, 81938.00
1134.901, 81646.00
1135.993, 82077.00
1137.084, 81910.00
1138.175, 81889.00
1139.266, 81596.00
1140.357, 82221.00
1141.448, 81681.00
1142.538, 81812.00
1143.628, 82301.00
1144.719, 81785.00
1145.809, 82255.00
1146.898, 82004.00
1147.988, 82335.00
1149.078, 82264.00
1150.167, 82329.00
1151.256, 82704.00
1152.345, 82710.00
1153.434, 83148.00
1154.523, 82731.00
1155.612, 82641.00
1156.700, 82648.00
1157.788, 82954.00
1158.877, 82926.00
1159.964, 83215.00
1161.052, 82955.00
1162.140, 83131.00
1163.227, 83432.00
1164.315, 83687.00
1165.402, 83476.00
1166.489, 83350.00
1167.576, 83978.00
1168.663, 83423.00
1169.749, 83886.00
1170.836, 84286.00
1171.922, 84128.00
1173.008, 83978.00
1174.094, 84196.00
1175.180, 84321.00
1176.265, 83814.00
1177.351, 84540.00
1178.436, 84309.00
1179.521, 84595.00
1180.606, 84504.00
1181.691, 84370.00
1182.776, 84714.00
1183.860, 84203.00
1184.944, 84623.00
1186.029, 84997.00
1187.113, 84846.00
1188.197, 84892.00
1189.280, 84913.00
1190.364, 84867.04
1191.447, 85034.00
1192.531, 84856.00
1193.614, 85012.00
1194.697, 85001.00
1195.779, 85374.00
1196.862, 85192.00
1197.945, 85774.00
1199.027, 85865.00
1200.109, 85645.00
1201.191, 85718.00
1202.273, 85726.73
1203.355, 85906.00
1204.436, 85835.00
1205.518, 86149.00
1206.599, 86276.00
1207.680, 86022.00
1208.761, 86208.00
1209.842, 85929.00
1210.922, 86362.00
1212.003, 86750.00
1213.083, 86934.00
1214.163, 87042.00
1215.243, 87153.88
1216.323, 87265.00
1217.402, 87244.00
1218.482, 87269.00
1219.561, 87480.00
1220.641, 86925.00
1221.720, 87505.00
1222.798, 87375.00
1223.877, 87287.00
1224.956, 87590.00
1226.034, 87311.00
1227.112, 88010.00
1228.191, 87529.00
1229.269, 87612.00
1230.346, 87871.00
1231.424, 88193.00
1232.501, 88620.00
1233.579, 88492.00
1234.656, 88461.00
1235.733, 88626.00
1236.810, 88550.00
1237.886, 88833.00
1238.963, 88766.00
1240.039, 88829.00
1241.116, 89012.00
1242.192, 88831.00
1243.268, 89436.00
1244.343, 89184.00
1245.419, 89374.00
1246.494, 89680.00
1247.570, 89903.00
1248.645, 89895.00
1249.720, 89994.99
1250.795, 89840.00
1251.869, 90022.00
1252.944, 90003.00
1254.018, 90198.00
1255.093, 90138.00
1256.167, 90579.00
1257.240, 90774.00
1258.314, 90897.00
1259.388, 91072.00
1260.461, 91211.64
1261.535, 91213.00
1262.608, 91433.00
1263.681, 91525.00
1264.753, 91519.00
1265.826, 91513.00
1266.899, 91688.50
1267.971, 92214.00
1269.043, 92207.00
1270.115, 92050.00
1271.187, 92682.00
1272.259, 92495.00
1273.330, 91966.00
1274.402, 92650.00
1275.473, 92493.00
1276.544, 92490.00
1277.615, 92621.00
1278.686, 92805.00
1279.756, 92695.81
1280.827, 92421.00
1281.897, 92570.00
1282.967, 92293.00
1284.037, 92266.00
1285.107, 92559.00
1286.177, 92604.00
1287.247, 93024.00
1288.316, 92746.00
1289.385, 92741.00
1290.454, 93561.00
1291.523, 93183.00
1292.592, 93615.00
1293.661, 93430.00
1294.729, 93590.00
1295.797, 94000.00
