##NAMES=Celsian
##RRUFFID=R060152
##IDEAL CHEMISTRY=BaAl_2_Si_2_O_8_
##LOCALITY=Benallt mine, Lleyn, Wales
##OWNER=RRUFF
##SOURCE=Marcus Origlieri
##DESCRIPTION=Colorless to white elongated prismatic crystals
##STATUS=The identification of this mineral is confirmed by single-crystal X-ray diffraction and chemical analysis.
##URL=rruff.info/R060152
##MEASURED CHEMISTRY=(Ba_0.98_K_0.02_[box]_0.02_)_Î£=1_Al_2.00_Si_2.00_O_8_
##PIN_ID=M00168
##ORIENTATION=Laser parallel to a* (1 0 0). Fiducial mark perpendicular to laser is parallel to b [0 1 0]
62.16800, 8845.000
63.41100, 10114.00
64.65300, 11758.00
65.89600, 13717.00
67.13800, 16171.00
68.38000, 18976.00
69.62200, 21648.00
70.86300, 23700.00
72.10500, 26177.00
73.34600, 27887.00
74.58700, 29961.00
75.82800, 32093.00
77.06900, 34327.00
78.30900, 36811.00
79.55000, 38831.00
80.79000, 40272.00
82.03000, 41399.00
83.27000, 42625.00
84.51000, 43468.00
85.74900, 44492.00
86.98900, 45943.00
88.22800, 46981.00
89.46700, 48112.00
90.70600, 49818.00
91.94400, 51117.00
93.18300, 52328.00
94.42100, 53611.00
95.65900, 55304.00
96.89700, 56778.00
98.13500, 58415.00
99.37300, 59988.94
100.6100, 61986.00
101.8480, 63127.00
103.0850, 64606.00
104.3220, 66146.00
105.5590, 68407.00
106.7950, 70930.00
108.0320, 74822.00
109.2680, 77886.00
110.5040, 79511.00
111.7400, 79497.00
112.9760, 78484.00
114.2120, 77809.00
115.4470, 75789.00
116.6820, 73753.00
117.9170, 71502.00
119.1520, 69946.00
120.3870, 68491.00
121.6220, 68886.00
122.8560, 70013.00
124.0900, 71706.00
125.3240, 73909.00
126.5580, 78139.00
127.7920, 83463.00
129.0260, 89287.00
130.2590, 94090.00
131.4920, 97813.00
132.7250, 103281.0
133.9580, 111027.0
135.1910, 117563.0
136.4230, 118320.0
137.6560, 111608.0
138.8880, 101937.0
140.1200, 92187.00
141.3520, 83957.00
142.5830, 77843.00
143.8150, 74001.00
145.0460, 73108.00
146.2770, 71682.00
147.5080, 70425.00
148.7390, 69245.00
149.9700, 68428.00
151.2000, 67472.00
152.4310, 67404.00
153.6610, 66602.00
154.8910, 66282.00
156.1210, 65701.00
157.3500, 66062.00
158.5800, 65963.00
159.8090, 66408.00
161.0380, 66435.00
162.2670, 66841.00
163.4960, 67349.00
164.7240, 67775.00
165.9530, 67802.00
167.1810, 67425.00
168.4090, 67469.00
169.6370, 67729.00
170.8650, 67868.00
172.0920, 67566.00
173.3200, 67951.00
174.5470, 67975.00
175.7740, 67659.00
177.0010, 68003.00
178.2280, 67789.00
179.4540, 67907.00
180.6810, 67291.00
181.9070, 66836.00
183.1330, 67126.00
184.3590, 67180.00
185.5850, 67067.00
186.8100, 67013.00
188.0350, 67379.00
189.2610, 67852.00
190.4860, 68118.00
191.7110, 68615.00
192.9350, 68914.00
194.1600, 69777.00
195.3840, 70863.00
196.6080, 71600.00
197.8320, 72163.00
199.0560, 72090.00
200.2800, 71571.00
201.5030, 70660.00
202.7270, 69888.00
203.9500, 68972.00
205.1730, 68629.00
206.3950, 68003.00
207.6180, 68262.00
208.8410, 67773.00
210.0630, 68129.00
211.2850, 68047.00
212.5070, 68456.00
213.7290, 68498.00
214.9500, 68792.00
216.1720, 69199.00
217.3930, 69288.00
218.6140, 69962.00
219.8350, 70604.00
221.0560, 71691.00
222.2770, 72440.00
223.4970, 73108.00
224.7170, 72937.00
225.9370, 72207.00
227.1570, 71408.00
228.3770, 70999.00
229.5970, 70651.00
230.8160, 70761.00
232.0350, 70883.00
233.2540, 71386.00
234.4730, 71439.00
235.6920, 72370.00
236.9110, 73446.00
238.1290, 74606.00
239.3470, 76429.00
240.5650, 78585.00
241.7830, 80833.00
243.0010, 84473.00
244.2180, 88389.00
245.4360, 93205.00
246.6530, 97555.00
247.8700, 100073.0
249.0870, 99515.00
250.3040, 96642.00
251.5200, 93450.00
252.7370, 90390.00
253.9530, 88249.00
255.1690, 87047.00
256.3850, 87109.00
257.6000, 87331.00
258.8160, 86027.00
260.0310, 84149.00
261.2460, 82010.00
262.4610, 79940.00
263.6760, 78111.00
264.8910, 76720.00
266.1050, 75821.00
267.3200, 75029.00
268.5340, 74412.00
269.7480, 74181.00
270.9620, 73925.00
272.1750, 74031.00
273.3890, 73723.00
274.6020, 73481.00
275.8150, 73623.00
277.0280, 73252.00
278.2410, 73365.00
279.4540, 73513.00
280.6660, 73453.00
281.8790, 73436.00
283.0910, 73454.00
284.3030, 73159.00
285.5140, 73487.00
286.7260, 73005.00
287.9380, 72951.00
289.1490, 73304.00
290.3600, 73429.00
291.5710, 72958.00
292.7820, 73047.00
293.9920, 73165.00
295.2030, 73593.00
296.4130, 73472.00
297.6230, 73848.00
298.8330, 74157.00
300.0430, 74763.00
301.2520, 75255.00
302.4620, 75859.44
303.6710, 76302.00
304.8800, 77263.00
306.0890, 78137.00
307.2980, 79031.00
308.5070, 79183.00
309.7150, 78480.00
310.9230, 77733.00
312.1310, 76652.00
313.3390, 76000.00
314.5470, 75729.00
315.7550, 75604.00
316.9620, 75748.00
318.1690, 75464.00
319.3760, 75291.00
320.5830, 75891.00
321.7900, 75988.00
322.9960, 75523.00
324.2030, 75479.00
325.4090, 75231.85
326.6150, 75006.00
327.8210, 74976.00
329.0270, 75098.00
330.2320, 75060.89
331.4380, 75210.00
332.6430, 75194.00
333.8480, 75149.00
335.0530, 75132.00
336.2580, 75290.00
337.4620, 75470.00
338.6670, 75560.00
339.8710, 75783.00
341.0750, 76316.00
342.2790, 75558.00
343.4820, 76058.00
344.6860, 76210.00
345.8890, 75838.00
347.0920, 76348.00
348.2960, 76375.00
349.4980, 76310.00
350.7010, 76700.00
351.9040, 77083.00
353.1060, 76931.00
354.3080, 77357.00
355.5100, 77483.00
356.7120, 77873.00
357.9140, 77766.00
359.1150, 78143.00
360.3170, 78092.00
361.5180, 77872.00
362.7190, 77935.00
363.9200, 77808.73
365.1200, 77732.00
366.3210, 77738.00
367.5210, 77450.00
368.7210, 77527.00
369.9210, 77545.00
371.1210, 77640.00
372.3210, 77965.00
373.5200, 78184.00
374.7200, 77916.00
375.9190, 77763.00
377.1180, 78072.00
378.3170, 78178.00
379.5150, 78250.00
380.7140, 78672.00
381.9120, 78563.00
383.1110, 78856.00
384.3090, 79114.00
385.5060, 79956.00
386.7040, 79612.00
387.9020, 81141.00
389.0990, 81606.00
390.2960, 83260.00
391.4930, 85278.00
392.6900, 87326.00
393.8860, 88629.00
395.0830, 88169.00
396.2790, 86590.00
397.4750, 84370.00
398.6710, 82549.00
399.8670, 81706.00
401.0630, 81073.00
402.2580, 80888.00
403.4540, 80403.00
404.6490, 80488.00
405.8440, 80419.00
407.0390, 80707.00
408.2330, 80947.00
409.4280, 81117.00
410.6220, 80898.00
411.8160, 81409.00
413.0100, 81553.00
414.2040, 82033.00
415.3980, 81657.00
416.5910, 81667.00
417.7850, 82477.00
418.9780, 83078.00
420.1710, 83213.00
421.3640, 83954.00
422.5560, 84599.00
423.7490, 86145.00
424.9410, 87221.00
426.1330, 89542.00
427.3250, 91351.00
428.5170, 93465.00
429.7090, 94462.00
430.9000, 93598.00
432.0910, 91535.00
433.2820, 89636.00
434.4730, 87647.00
435.6640, 86449.00
436.8550, 85582.00
438.0450, 84623.00
439.2360, 84373.00
440.4260, 83940.00
441.6160, 83640.88
442.8060, 83413.00
443.9950, 83509.00
445.1850, 83692.00
446.3740, 83956.00
447.5630, 83934.00
448.7520, 83660.00
449.9410, 83780.00
451.1300, 84013.00
452.3180, 84300.00
453.5060, 84677.00
454.6950, 84768.00
455.8830, 85590.00
457.0700, 85590.00
458.2580, 85956.00
459.4450, 86483.00
460.6330, 87247.00
461.8200, 87797.00
463.0070, 88423.00
464.1940, 89667.00
465.3800, 89973.00
466.5670, 91017.00
467.7530, 92140.00
468.9390, 93758.00
470.1250, 95815.00
471.3110, 98246.00
472.4970, 100088.0
473.6820, 99603.00
474.8680, 98749.00
476.0530, 95428.00
477.2380, 94357.00
478.4230, 93081.00
479.6070, 92101.00
480.7920, 91253.00
481.9760, 90533.00
483.1600, 90737.00
484.3440, 90808.00
485.5280, 90916.00
486.7120, 91130.00
487.8950, 91372.00
489.0780, 91813.00
490.2620, 93602.00
491.4450, 93706.00
492.6270, 96997.00
493.8100, 98935.00
494.9920, 100089.0
496.1750, 101721.0
497.3570, 105411.0
498.5390, 110137.0
499.7210, 115868.0
500.9020, 123335.0
502.0840, 133528.0
503.2650, 146651.0
504.4460, 163274.0
505.6270, 184272.0
506.8080, 208497.0
507.9890, 231167.0
509.1690, 241800.0
510.3500, 235727.0
511.5300, 215980.0
512.7100, 189243.0
513.8900, 164459.0
515.0690, 144573.0
516.2490, 130802.0
517.4280, 120514.0
518.6070, 113205.0
519.7860, 107838.0
520.9650, 104179.0
522.1440, 101518.0
523.3220, 99278.00
524.5010, 98025.00
525.6790, 96960.00
526.8570, 95654.00
528.0350, 95386.00
529.2130, 94598.00
530.3900, 93553.00
531.5670, 93376.00
532.7450, 92893.00
533.9220, 92647.00
535.0980, 92192.00
536.2750, 91821.00
537.4520, 92057.00
538.6280, 92330.00
539.8040, 91639.00
540.9800, 91385.00
542.1560, 91534.00
543.3320, 91493.00
544.5070, 91755.00
545.6830, 91577.00
546.8580, 91305.00
548.0330, 91528.00
549.2080, 92369.00
550.3830, 92663.00
551.5570, 92625.00
552.7310, 92626.00
553.9060, 92744.00
555.0800, 92843.00
556.2540, 92864.00
557.4270, 92671.00
558.6010, 92560.00
559.7740, 92496.10
560.9470, 92326.84
562.1210, 92374.00
563.2930, 92066.00
564.4660, 92104.00
565.6390, 91993.97
566.8110, 92026.00
567.9830, 92201.00
569.1550, 92037.00
570.3270, 92325.00
571.4990, 92596.00
572.6710, 92583.00
573.8420, 92852.02
575.0130, 92684.00
576.1840, 92958.00
577.3550, 93210.00
578.5260, 92821.00
579.6970, 93510.00
580.8670, 93702.00
582.0370, 94109.00
583.2070, 94232.00
584.3770, 94396.00
585.5470, 95206.00
586.7170, 96270.00
587.8860, 97584.00
589.0550, 98799.62
590.2240, 99700.00
591.3930, 101593.0
592.5620, 102851.0
593.7310, 104169.0
594.8990, 104289.4
596.0670, 104754.0
597.2350, 103300.0
598.4030, 102190.0
599.5710, 100413.0
600.7390, 99253.00
601.9060, 98151.00
603.0740, 96936.00
604.2410, 96647.00
605.4080, 96120.85
606.5740, 95696.47
607.7410, 95884.00
608.9080, 95526.00
610.0740, 95455.00
611.2400, 95962.00
612.4060, 95784.56
613.5720, 95932.62
614.7370, 96080.00
615.9030, 96139.00
617.0680, 96406.00
618.2330, 96790.00
619.3980, 96432.00
620.5630, 96631.00
621.7280, 96082.00
622.8920, 96133.00
624.0570, 96152.00
625.2210, 95967.00
626.3850, 96036.00
627.5490, 96017.00
628.7120, 95639.00
629.8760, 95999.00
631.0390, 95676.00
632.2020, 95985.00
633.3650, 95902.00
634.5280, 96189.00
635.6910, 96703.00
636.8530, 96405.00
638.0160, 96402.00
639.1780, 96614.00
640.3400, 96151.00
641.5020, 96576.00
642.6640, 96622.00
643.8250, 96662.00
644.9870, 96872.00
646.1480, 96850.20
647.3090, 96960.00
648.4700, 97010.00
649.6300, 97052.08
650.7910, 97149.25
651.9510, 97152.00
653.1120, 97207.00
654.2720, 97234.00
655.4320, 97038.00
656.5910, 97408.00
657.7510, 97300.00
658.9100, 97121.00
660.0690, 97135.00
661.2290, 97275.53
662.3880, 97929.00
663.5460, 97708.00
664.7050, 97883.00
665.8630, 98041.00
667.0220, 98036.00
668.1800, 98435.00
669.3380, 98644.00
670.4950, 99229.00
671.6530, 99087.00
672.8100, 99583.00
673.9680, 100031.0
675.1250, 100168.0
676.2820, 100625.0
677.4390, 100988.0
678.5950, 101810.0
679.7520, 101873.0
680.9080, 103725.0
682.0640, 104241.0
683.2200, 104594.0
684.3760, 104765.0
685.5320, 105065.0
686.6870, 103964.0
687.8420, 103490.0
688.9980, 103085.0
690.1530, 102124.0
691.3070, 101671.0
692.4620, 101271.0
693.6170, 101125.0
694.7710, 101037.0
695.9250, 100648.0
697.0790, 100679.0
698.2330, 100806.0
699.3870, 100779.0
700.5400, 101077.0
701.6940, 101049.0
702.8470, 101355.0
704.0000, 101437.1
705.1530, 101870.0
706.3050, 101632.0
707.4580, 101758.0
708.6100, 101799.0
709.7630, 101654.0
710.9150, 102634.0
712.0660, 102750.0
713.2180, 102639.0
714.3700, 103259.0
715.5210, 103208.0
716.6720, 103236.0
717.8240, 103721.0
718.9740, 103289.0
720.1250, 103461.0
721.2760, 103698.0
722.4260, 104067.0
723.5770, 104382.0
724.7270, 104893.0
725.8770, 104623.0
727.0260, 104780.0
728.1760, 105395.0
729.3250, 105370.0
730.4750, 105010.0
731.6240, 104716.0
732.7730, 104753.0
733.9220, 104755.0
735.0700, 104200.0
736.2190, 104932.0
737.3670, 105192.0
738.5150, 104564.0
739.6630, 105685.0
740.8110, 105675.0
741.9590, 106034.0
743.1060, 106768.0
744.2540, 107507.0
745.4010, 108350.0
746.5480, 110262.0
747.6950, 111550.0
748.8410, 113406.0
749.9880, 114961.0
751.1340, 117224.0
752.2800, 117348.0
753.4260, 117125.0
754.5720, 115674.0
755.7180, 114184.0
756.8640, 112290.0
758.0090, 111121.0
759.1540, 109832.0
760.2990, 108522.0
761.4440, 108408.0
762.5890, 108335.0
763.7340, 107418.0
764.8780, 107298.0
766.0220, 107099.0
767.1660, 106944.0
768.3100, 106718.0
769.4540, 106497.0
770.5980, 106507.0
771.7410, 106205.0
772.8840, 106154.0
774.0280, 106111.0
775.1700, 106434.0
776.3130, 106616.0
777.4560, 106324.0
778.5980, 106788.0
779.7410, 106793.0
780.8830, 107024.0
782.0250, 106898.0
783.1670, 106859.0
784.3080, 107038.0
785.4500, 107090.0
786.5910, 107519.0
787.7320, 107281.0
788.8730, 107252.0
790.0140, 106940.0
791.1550, 107284.0
792.2950, 107496.0
793.4360, 107466.0
794.5760, 107492.0
795.7160, 107339.0
796.8560, 107443.0
797.9960, 107299.0
799.1350, 107770.0
800.2750, 107862.0
801.4140, 108139.0
802.5530, 107794.0
803.6920, 107956.0
804.8310, 108312.0
805.9690, 108223.0
807.1080, 108504.0
808.2460, 108423.0
809.3840, 108579.9
810.5220, 108422.0
811.6600, 108764.0
812.7970, 108821.0
813.9350, 108742.0
815.0720, 108971.0
816.2090, 108977.0
817.3460, 109097.0
818.4830, 109184.0
819.6200, 109320.0
820.7560, 109416.0
821.8930, 109539.0
823.0290, 109878.0
824.1650, 109533.0
825.3010, 110061.0
826.4360, 109999.0
827.5720, 110058.0
828.7070, 109887.0
829.8420, 110070.0
830.9770, 110264.0
832.1120, 110511.0
833.2470, 110477.0
834.3820, 110458.0
835.5160, 110279.0
836.6500, 111138.0
837.7840, 111228.0
838.9180, 110972.0
840.0520, 110759.0
841.1860, 110687.0
842.3190, 110760.0
843.4520, 111515.0
844.5850, 111219.0
845.7180, 111462.0
846.8510, 111927.0
847.9840, 111965.0
849.1160, 112121.0
850.2490, 112296.6
851.3810, 112149.0
852.5130, 112565.0
853.6450, 112458.0
854.7760, 112746.0
855.9080, 112634.0
857.0390, 112880.0
858.1700, 113339.0
859.3010, 112789.0
860.4320, 113086.0
861.5630, 113414.0
862.6930, 113049.0
863.8240, 113471.0
864.9540, 113213.0
866.0840, 113872.0
867.2140, 113338.0
868.3440, 113548.0
869.4730, 113720.0
870.6030, 113751.0
871.7320, 113193.0
872.8610, 114004.0
873.9900, 114013.0
875.1190, 113432.0
876.2470, 113996.0
877.3760, 114285.0
878.5040, 114411.0
879.6320, 114498.0
880.7600, 114424.0
881.8880, 114659.0
883.0150, 114496.0
884.1430, 114906.0
885.2700, 114861.0
886.3970, 114803.0
887.5240, 115642.0
888.6510, 115099.0
889.7780, 115679.0
890.9040, 115520.0
892.0310, 115641.0
893.1570, 115564.0
894.2830, 115616.0
895.4090, 115579.0
896.5350, 115513.0
897.6600, 115721.0
898.7860, 115961.0
899.9110, 116098.0
901.0360, 116219.2
902.1610, 116404.0
903.2860, 116240.0
904.4100, 116380.0
905.5350, 116103.0
906.6590, 116427.0
907.7830, 116483.0
908.9070, 117157.0
910.0310, 117238.0
911.1540, 117398.0
912.2780, 117729.0
913.4010, 117668.0
914.5240, 117542.0
915.6470, 117709.0
916.7700, 117778.0
917.8930, 117967.0
919.0150, 118467.0
920.1380, 118385.0
921.2600, 118638.0
922.3820, 118598.5
923.5040, 118570.0
924.6260, 118392.0
925.7470, 118666.0
926.8690, 118598.0
927.9900, 119088.0
929.1110, 119093.7
930.2320, 118894.2
931.3530, 119378.8
932.4730, 119730.1
933.5940, 119955.8
934.7140, 119678.3
935.8340, 120050.2
936.9540, 120161.9
938.0740, 120263.0
939.1930, 120726.2
940.3130, 120521.8
941.4320, 120979.3
942.5510, 121172.5
943.6700, 121486.7
944.7890, 121539.0
945.9080, 121672.1
947.0260, 122067.1
948.1450, 122317.2
949.2630, 122339.2
950.3810, 122660.9
951.4990, 122447.1
952.6170, 122703.2
953.7340, 122752.0
954.8520, 123665.0
955.9690, 123476.0
957.0860, 123992.0
958.2030, 123902.0
959.3200, 124356.0
960.4360, 124910.0
961.5530, 125175.0
962.6690, 126782.0
963.7850, 127479.0
964.9010, 128404.0
966.0170, 130341.0
967.1330, 132333.0
968.2480, 135572.0
969.3630, 137822.0
970.4790, 141419.0
971.5940, 142677.0
972.7080, 142890.0
973.8230, 140067.0
974.9380, 137475.0
976.0520, 135463.0
977.1660, 133168.0
978.2800, 132651.0
979.3940, 131986.0
980.5080, 132673.0
981.6220, 133928.0
982.7350, 135170.0
983.8480, 137787.0
984.9610, 139280.0
986.0740, 140108.0
987.1870, 140240.0
988.3000, 138288.0
989.4120, 135902.0
990.5250, 134341.0
991.6370, 133061.0
992.7490, 132885.0
993.8610, 132937.0
994.9720, 134031.0
996.0840, 133949.0
997.1950, 134821.0
998.3060, 134152.0
999.4170, 132723.5
1000.528, 131896.9
1001.639, 131242.8
1002.750, 130763.2
1003.860, 130343.6
1004.970, 130390.0
1006.080, 130296.0
1007.190, 130847.0
1008.300, 130874.0
1009.410, 131797.0
1010.519, 132585.0
1011.628, 133454.0
1012.738, 134043.0
1013.846, 135336.0
1014.955, 134645.0
1016.064, 134532.0
1017.172, 134585.0
1018.281, 133448.0
1019.389, 132549.0
1020.497, 131490.0
1021.605, 130523.0
1022.713, 129772.0
1023.820, 129245.0
1024.928, 128749.0
1026.035, 128618.0
1027.142, 128381.0
1028.249, 128280.0
1029.356, 128277.0
1030.462, 127954.0
1031.569, 128393.0
1032.675, 128077.0
1033.781, 128091.0
1034.887, 127750.0
1035.993, 128111.0
1037.098, 128334.0
1038.204, 127958.0
1039.309, 127735.0
1040.415, 127765.0
1041.520, 128342.0
1042.624, 128145.0
1043.729, 128204.0
1044.834, 128813.0
1045.938, 128199.0
1047.042, 128651.0
1048.146, 129347.0
1049.250, 129469.0
1050.354, 130111.0
1051.458, 130556.0
1052.561, 130911.0
1053.664, 131416.0
1054.767, 131681.8
1055.870, 131865.9
1056.973, 132102.0
1058.076, 132061.0
1059.178, 131944.5
1060.281, 131991.0
1061.383, 131791.8
1062.485, 131659.0
1063.587, 131355.0
1064.688, 131077.0
1065.790, 130662.0
1066.891, 130889.0
1067.993, 131072.0
1069.094, 130899.0
1070.195, 130791.0
1071.295, 131252.0
1072.396, 131166.0
1073.496, 131170.0
1074.597, 131133.0
1075.697, 131051.0
1076.797, 130870.0
1077.897, 131404.0
1078.996, 131180.8
1080.096, 131747.0
1081.195, 131299.0
1082.294, 131418.0
1083.393, 131727.0
1084.492, 131938.0
1085.591, 131598.0
1086.689, 131705.0
1087.788, 131992.0
1088.886, 132333.0
1089.984, 132503.0
1091.082, 132516.0
1092.180, 132524.0
1093.277, 132669.0
1094.375, 132269.0
1095.472, 132951.0
1096.569, 132786.0
1097.666, 133156.0
1098.763, 133886.0
1099.860, 133617.0
1100.956, 133135.0
1102.053, 133693.0
1103.149, 133758.0
1104.245, 134329.0
1105.341, 134170.7
1106.436, 133797.0
1107.532, 133877.0
1108.627, 134318.0
1109.723, 134294.0
1110.818, 134236.0
1111.913, 134529.0
1113.007, 134212.0
1114.102, 134769.0
1115.197, 134038.0
1116.291, 134401.0
1117.385, 135014.0
1118.479, 134706.0
1119.573, 134900.0
1120.666, 135089.0
1121.760, 135392.0
1122.853, 135193.0
1123.947, 135520.0
1125.040, 135379.0
1126.132, 135222.0
1127.225, 135084.0
1128.318, 135172.1
1129.410, 135142.0
1130.502, 135482.0
1131.595, 135335.0
1132.687, 135613.0
1133.778, 135292.0
1134.870, 135845.0
1135.961, 135493.0
1137.053, 135672.0
1138.144, 136232.0
1139.235, 136363.0
1140.326, 136518.6
1141.416, 136623.0
1142.507, 136610.0
1143.597, 136587.0
1144.688, 136509.0
1145.778, 136844.0
1146.868, 136482.0
1147.957, 137093.0
1149.047, 137230.0
1150.136, 137133.0
1151.226, 137366.2
1152.315, 137776.0
1153.404, 137172.0
1154.493, 137628.0
1155.581, 137150.0
1156.670, 137215.0
1157.758, 137400.0
1158.846, 137487.0
1159.934, 137775.0
1161.022, 137415.0
1162.110, 138317.0
1163.198, 137640.0
1164.285, 138163.0
1165.372, 137918.0
1166.459, 138405.0
1167.546, 138493.0
1168.633, 138451.0
1169.720, 138546.0
1170.806, 138629.0
1171.892, 138810.0
1172.979, 139015.0
1174.065, 139069.4
1175.150, 138644.0
1176.236, 139025.0
1177.322, 139171.0
1178.407, 138717.0
1179.492, 139415.0
1180.577, 139305.0
1181.662, 139639.0
1182.747, 139673.0
1183.832, 139597.0
1184.916, 139620.0
1186.000, 139614.0
1187.084, 140093.0
1188.168, 139668.0
1189.252, 139887.0
1190.336, 140363.0
1191.419, 140026.0
1192.503, 140114.0
1193.586, 140358.0
1194.669, 140421.0
1195.752, 140600.0
1196.835, 140161.0
1197.917, 140574.0
1199.000, 140782.0
1200.082, 140632.0
1201.164, 141137.0
1202.246, 141180.0
1203.328, 141402.0
1204.409, 141143.0
1205.491, 141217.0
1206.572, 141412.0
1207.653, 141403.9
1208.734, 141733.0
1209.815, 141818.0
1210.896, 141929.0
1211.976, 142432.0
1213.057, 142106.0
1214.137, 141956.0
1215.217, 142859.0
1216.297, 142757.0
1217.377, 142463.0
1218.456, 142808.0
1219.536, 142711.0
1220.615, 142514.0
1221.694, 143396.0
1222.773, 143398.0
1223.852, 143014.0
1224.931, 143787.0
1226.009, 143147.0
1227.088, 143485.0
1228.166, 143890.0
1229.244, 143347.0
1230.322, 143879.0
1231.400, 143854.0
1232.477, 144032.0
1233.555, 143841.0
1234.632, 144129.0
1235.709, 144442.0
1236.786, 144148.0
1237.863, 144864.0
1238.939, 144434.0
1240.016, 144690.0
1241.092, 144770.0
1242.168, 144756.0
1243.245, 144753.0
1244.320, 144884.3
1245.396, 144506.0
