##NAMES=Celsian
##RRUFFID=R060152
##IDEAL CHEMISTRY=BaAl_2_Si_2_O_8_
##LOCALITY=Benallt mine, Lleyn, Wales
##OWNER=RRUFF
##SOURCE=Marcus Origlieri
##DESCRIPTION=Colorless to white elongated prismatic crystals
##STATUS=The identification of this mineral is confirmed by single-crystal X-ray diffraction and chemical analysis.
##URL=rruff.info/R060152
##MEASURED CHEMISTRY=(Ba_0.98_K_0.02_[box]_0.02_)_Î£=1_Al_2.00_Si_2.00_O_8_
##PIN_ID=M00479
##ORIENTATION=Laser parallel to -c* (0 0 -1). Fiducial mark perpendicular to laser is parallel to a [1 0 0]
96.13500, 35695.00
97.36600, 36798.00
98.59700, 37713.00
99.82800, 38825.00
101.0590, 39841.00
102.2900, 40971.00
103.5200, 42044.00
104.7500, 44106.00
105.9810, 46442.00
107.2110, 48470.00
108.4410, 50342.00
109.6700, 51171.00
110.9000, 52049.00
112.1300, 51877.00
113.3590, 51039.00
114.5880, 50318.00
115.8170, 49514.00
117.0460, 48320.00
118.2750, 46851.00
119.5040, 46062.00
120.7320, 47361.00
121.9610, 50450.00
123.1890, 53098.00
124.4170, 55595.00
125.6450, 56628.00
126.8730, 58953.00
128.1010, 63362.00
129.3280, 69498.00
130.5560, 75831.00
131.7830, 81391.00
133.0100, 86340.00
134.2380, 88757.00
135.4640, 89378.00
136.6910, 87535.00
137.9180, 82341.00
139.1440, 73730.00
140.3710, 65280.00
141.5970, 57081.00
142.8230, 51036.00
144.0490, 46087.00
145.2750, 43097.00
146.5000, 41047.00
147.7260, 40741.00
148.9510, 38958.00
150.1770, 38192.00
151.4020, 37534.00
152.6270, 36893.00
153.8520, 36345.00
155.0760, 36234.00
156.3010, 35692.00
157.5250, 35569.00
158.7500, 35099.00
159.9740, 35730.00
161.1980, 35806.00
162.4220, 36102.00
163.6450, 36147.00
164.8690, 36293.48
166.0920, 36544.00
167.3160, 36442.00
168.5390, 36459.00
169.7620, 36381.00
170.9850, 36471.00
172.2080, 36498.00
173.4300, 36748.00
174.6530, 36372.00
175.8750, 36515.00
177.0970, 36157.00
178.3190, 35946.00
179.5410, 35904.00
180.7630, 35806.00
181.9850, 35304.00
183.2060, 35191.00
184.4270, 35145.00
185.6490, 35064.00
186.8700, 34988.00
188.0910, 35314.00
189.3110, 35401.00
190.5320, 35488.00
191.7530, 35919.00
192.9730, 36259.00
194.1930, 36882.00
195.4130, 38212.00
196.6330, 38402.00
197.8530, 37877.00
199.0730, 36998.00
200.2920, 36757.00
201.5120, 36187.00
202.7310, 35792.00
203.9500, 35781.00
205.1690, 35297.17
206.3880, 35219.36
207.6070, 34886.00
208.8250, 35009.00
210.0440, 35220.00
211.2620, 35264.00
212.4800, 35587.93
213.6980, 35664.00
214.9160, 36223.00
216.1340, 36648.00
217.3510, 37026.00
218.5690, 37994.00
219.7860, 38554.00
221.0030, 39363.00
222.2200, 39337.00
223.4370, 39283.00
224.6540, 39072.00
225.8700, 38846.00
227.0870, 37874.00
228.3030, 37663.00
229.5190, 37581.00
230.7350, 37498.00
231.9510, 37910.00
233.1670, 38386.00
234.3820, 39091.00
235.5980, 40277.00
236.8130, 41753.00
238.0280, 43802.77
239.2430, 46156.00
240.4580, 49107.00
241.6730, 52681.00
242.8880, 56395.00
244.1020, 60407.00
245.3160, 63384.00
246.5300, 65359.00
247.7450, 66099.00
248.9580, 65155.00
250.1720, 62860.00
251.3860, 60222.00
252.5990, 57920.00
253.8130, 56042.00
255.0260, 55220.00
256.2390, 53497.00
257.4520, 52124.00
258.6640, 50820.00
259.8770, 49248.00
261.0890, 46915.00
262.3020, 44995.00
263.5140, 43537.00
264.7260, 41982.00
265.9380, 40883.00
267.1500, 40290.00
268.3610, 39442.00
269.5730, 39458.00
270.7840, 39107.00
271.9950, 38677.00
273.2060, 38497.70
274.4170, 38262.00
275.6280, 38017.00
276.8390, 37742.00
278.0490, 37799.00
279.2590, 37684.00
280.4690, 37329.00
281.6800, 37530.00
282.8890, 37667.00
284.0990, 37330.00
285.3090, 37140.00
286.5180, 37161.00
287.7280, 37311.00
288.9370, 37295.00
290.1460, 37233.00
291.3550, 37170.00
292.5630, 37288.00
293.7720, 37394.76
294.9800, 37456.00
296.1890, 37923.00
297.3970, 38242.00
298.6050, 38813.00
299.8130, 39226.00
301.0200, 39807.00
302.2280, 40733.00
303.4360, 41257.00
304.6430, 42053.00
305.8500, 42166.00
307.0570, 42296.04
308.2640, 42446.00
309.4710, 41891.00
310.6770, 41215.00
311.8840, 40596.00
313.0900, 40229.00
314.2960, 39908.00
315.5020, 39367.00
316.7080, 39320.00
317.9140, 39229.00
319.1190, 39095.00
320.3250, 39322.00
321.5300, 38924.00
322.7350, 38825.00
323.9400, 38112.00
325.1450, 38116.00
326.3500, 38115.00
327.5540, 38068.00
328.7580, 37634.00
329.9630, 37949.00
331.1670, 37724.00
332.3710, 37388.00
333.5750, 37969.00
334.7780, 37786.00
335.9820, 38049.00
337.1850, 37939.00
338.3880, 37962.00
339.5920, 37934.00
340.7950, 38030.84
341.9970, 38081.83
343.2000, 38173.15
344.4030, 38262.00
345.6050, 38405.00
346.8070, 38499.00
348.0090, 38616.00
349.2110, 38801.00
350.4130, 39099.00
351.6150, 39302.00
352.8160, 39296.00
354.0170, 39327.00
355.2190, 39609.75
356.4200, 39687.00
357.6210, 39888.00
358.8210, 39865.00
360.0220, 39883.30
361.2220, 39532.00
362.4230, 39630.00
363.6230, 39644.00
364.8230, 39179.00
366.0230, 39342.00
367.2230, 39093.00
368.4220, 39278.00
369.6220, 39254.00
370.8210, 39266.00
372.0200, 39402.00
373.2190, 39441.00
374.4180, 39552.00
375.6170, 39580.00
376.8150, 39336.00
378.0140, 39429.00
379.2120, 39692.00
380.4100, 39832.12
381.6080, 40402.00
382.8060, 40624.00
384.0040, 41047.00
385.2010, 41771.00
386.3980, 42648.00
387.5960, 44026.00
388.7930, 45302.00
389.9900, 47139.00
391.1870, 47942.00
392.3830, 48729.00
393.5800, 48970.00
394.7760, 47883.00
395.9720, 46695.00
397.1680, 44572.00
398.3640, 43652.00
399.5600, 42616.00
400.7560, 41764.00
401.9510, 41417.00
403.1460, 41312.00
404.3420, 41099.00
405.5370, 40863.00
406.7320, 41057.00
407.9260, 41186.00
409.1210, 41506.00
410.3150, 41583.95
411.5100, 41647.00
412.7040, 41783.00
413.8980, 41873.00
415.0920, 41880.00
416.2850, 41986.00
417.4790, 42246.00
418.6720, 42953.00
419.8650, 43976.00
421.0590, 44961.99
422.2510, 46353.00
423.4440, 47799.00
424.6370, 49660.00
425.8290, 51689.00
427.0220, 53006.00
428.2140, 53593.00
429.4060, 53415.00
430.5980, 52374.00
431.7900, 50479.00
432.9810, 48768.00
434.1730, 46538.00
435.3640, 45302.00
436.5550, 44892.00
437.7460, 43757.00
438.9370, 43447.00
440.1280, 43087.00
441.3190, 43013.00
442.5090, 42677.00
443.6990, 42913.00
444.8890, 42569.00
446.0790, 42850.00
447.2690, 42840.00
448.4590, 42772.00
449.6480, 43129.00
450.8380, 42983.00
452.0270, 43290.00
453.2160, 43560.00
454.4050, 43745.00
455.5940, 44015.00
456.7820, 44541.00
457.9710, 45050.00
459.1590, 45097.00
460.3470, 45974.00
461.5350, 46528.00
462.7230, 47359.00
463.9110, 48174.00
465.0990, 49446.00
466.2860, 51019.00
467.4730, 52642.00
468.6600, 54327.00
469.8470, 55979.00
471.0340, 56810.00
472.2210, 57202.00
473.4070, 56662.00
474.5940, 55267.00
475.7800, 53905.00
476.9660, 51798.00
478.1520, 50839.00
479.3380, 49792.00
480.5230, 49370.00
481.7090, 49042.00
482.8940, 49064.00
484.0790, 49262.00
485.2650, 49614.00
486.4490, 50276.00
487.6340, 50643.00
488.8190, 51555.00
490.0030, 52923.00
491.1870, 54059.00
492.3720, 55963.00
493.5550, 58201.00
494.7390, 60919.00
495.9230, 65024.00
497.1060, 70195.00
498.2900, 77219.00
499.4730, 86246.00
500.6560, 98522.00
501.8390, 114460.0
503.0220, 133397.0
504.2040, 155126.0
505.3870, 175363.0
506.5690, 192529.0
507.7510, 199494.0
508.9330, 197680.0
510.1150, 184306.0
511.2970, 163453.0
512.4780, 139907.0
513.6600, 118044.0
514.8410, 99791.00
516.0220, 88533.00
517.2030, 76953.00
518.3840, 69780.00
519.5650, 64995.00
520.7450, 61112.00
521.9250, 59008.00
523.1060, 56888.00
524.2860, 55084.00
525.4660, 54222.00
526.6450, 53372.00
527.8250, 52392.00
529.0040, 51466.00
530.1840, 50966.00
531.3630, 50212.00
532.5420, 50006.00
533.7200, 49306.00
534.8990, 49175.00
536.0780, 48671.00
537.2560, 48644.00
538.4340, 48125.00
539.6120, 48131.00
540.7900, 47961.00
541.9680, 47775.00
543.1460, 47880.00
544.3230, 47946.00
545.5000, 47609.00
546.6770, 48147.00
547.8540, 47882.00
549.0310, 48120.00
550.2080, 48467.00
551.3840, 48748.00
552.5610, 48779.34
553.7370, 48628.00
554.9130, 48715.00
556.0890, 48637.00
557.2650, 48446.00
558.4400, 48375.37
559.6160, 48474.00
560.7910, 47931.00
561.9660, 48259.00
563.1410, 47840.00
564.3160, 47947.00
565.4910, 48061.00
566.6650, 47788.00
567.8400, 47909.00
569.0140, 47898.00
570.1880, 47941.00
571.3620, 47952.00
572.5360, 48096.00
573.7090, 48190.78
574.8830, 48310.00
576.0560, 48537.00
577.2290, 48397.00
578.4020, 48671.00
579.5750, 49031.00
580.7480, 49313.00
581.9200, 49903.00
583.0930, 50240.00
584.2650, 50961.00
585.4370, 51826.00
586.6090, 52931.00
587.7810, 54325.00
588.9520, 55945.00
590.1240, 57636.00
591.2950, 58694.00
592.4660, 60223.00
593.6370, 60958.00
594.8080, 60250.00
595.9790, 59590.00
597.1500, 58083.00
598.3200, 56782.00
599.4900, 55310.00
600.6600, 53814.00
601.8300, 52747.00
603.0000, 52045.00
604.1700, 51612.00
605.3390, 51074.00
606.5080, 50998.00
607.6770, 50537.00
608.8460, 50202.00
610.0150, 50607.00
611.1840, 50743.00
612.3520, 50433.00
613.5210, 50584.00
614.6890, 50660.00
615.8570, 50762.00
617.0250, 51015.00
618.1930, 50926.00
619.3600, 51158.00
620.5280, 50960.00
621.6950, 51233.00
622.8620, 51360.00
624.0290, 51360.00
625.1960, 51420.00
626.3630, 51352.73
627.5290, 51089.00
628.6960, 50954.00
629.8620, 51208.00
631.0280, 50595.00
632.1940, 50692.00
633.3600, 50347.00
634.5250, 50535.00
635.6910, 50322.00
636.8560, 50047.00
638.0210, 50288.00
639.1860, 50429.00
640.3510, 50702.00
641.5150, 50714.00
642.6800, 50917.00
643.8440, 50915.00
645.0080, 51236.00
646.1720, 51447.00
647.3360, 51078.00
648.5000, 51280.00
649.6640, 51266.00
650.8270, 51333.00
651.9900, 51382.00
653.1530, 51112.00
654.3160, 51158.00
655.4790, 51134.06
656.6420, 51058.00
657.8040, 51184.00
658.9660, 51089.00
660.1290, 51135.00
661.2910, 50882.00
662.4520, 50840.00
663.6140, 50759.00
664.7760, 50905.00
665.9370, 51205.00
667.0980, 51088.00
668.2590, 51230.00
669.4200, 51210.01
670.5810, 51719.50
671.7420, 52147.56
672.9020, 52498.28
674.0620, 52541.21
675.2220, 53215.00
676.3820, 53489.00
677.5420, 54191.00
678.7020, 55365.00
679.8610, 56006.00
681.0210, 56607.00
682.1800, 56978.00
683.3390, 57364.00
684.4980, 56859.00
685.6560, 56591.00
686.8150, 55513.00
687.9730, 55058.00
689.1320, 54133.00
690.2900, 53348.00
691.4480, 53199.00
692.6050, 52574.00
693.7630, 52580.00
694.9200, 52419.00
696.0780, 52591.00
697.2350, 52110.00
698.3920, 52091.00
699.5490, 52139.63
700.7050, 52024.64
701.8620, 52165.00
703.0180, 52180.00
704.1740, 51947.00
705.3300, 52111.00
706.4860, 52232.00
707.6420, 52481.29
708.7970, 52813.64
709.9530, 53064.72
711.1080, 53238.62
712.2630, 53104.74
713.4180, 53368.31
714.5730, 53472.59
715.7280, 53570.36
716.8820, 53843.00
718.0360, 53963.00
719.1900, 54235.00
720.3440, 54189.00
721.4980, 54253.00
722.6520, 54566.00
723.8050, 54615.00
724.9590, 55043.00
726.1120, 55173.00
727.2650, 55603.00
728.4180, 55476.00
729.5700, 55113.00
730.7230, 54796.00
731.8750, 54986.00
733.0280, 54702.00
734.1800, 54325.00
735.3320, 54092.00
736.4830, 54176.29
737.6350, 54416.00
738.7860, 54712.00
739.9380, 55192.00
741.0890, 55927.00
742.2400, 56079.00
743.3910, 57139.00
744.5410, 58201.00
745.6920, 60023.00
746.8420, 62345.00
747.9920, 63673.00
749.1420, 64935.00
750.2920, 66297.00
751.4420, 66887.00
752.5910, 66612.00
753.7410, 65258.00
754.8900, 63559.00
756.0390, 61890.00
757.1880, 60118.00
758.3370, 58895.00
759.4850, 58113.00
760.6340, 57381.00
761.7820, 56603.00
762.9300, 55965.00
764.0780, 55964.00
765.2260, 55521.00
766.3730, 55473.00
767.5210, 55059.00
768.6680, 54801.00
769.8150, 54858.00
770.9620, 54887.00
772.1090, 55111.00
773.2560, 54733.00
774.4020, 54925.00
775.5490, 54834.00
776.6950, 55045.00
777.8410, 54938.00
778.9870, 54841.00
780.1330, 54736.00
781.2780, 54775.00
782.4230, 54831.00
783.5690, 55136.00
784.7140, 54777.00
785.8590, 54935.00
787.0030, 55174.00
788.1480, 54984.00
789.2920, 54944.00
790.4370, 55191.00
791.5810, 55093.00
792.7250, 55072.00
793.8690, 55194.00
795.0120, 54967.00
796.1560, 55174.00
797.2990, 55032.00
798.4420, 55370.00
799.5850, 55405.00
800.7280, 55127.00
801.8710, 55810.00
803.0130, 55517.00
804.1550, 55639.00
805.2980, 55434.00
806.4400, 55644.00
807.5810, 55764.00
808.7230, 55561.00
809.8650, 55438.00
811.0060, 55777.00
812.1470, 55775.00
813.2880, 55826.00
814.4290, 55577.00
815.5700, 55786.00
816.7110, 56288.00
817.8510, 55984.00
818.9910, 56344.00
820.1310, 56543.00
821.2710, 56188.00
822.4110, 56365.00
823.5510, 56168.00
824.6900, 56182.00
825.8290, 56414.00
826.9680, 56629.00
828.1070, 56479.00
829.2460, 56718.00
830.3850, 56716.00
831.5230, 56552.00
832.6620, 56688.00
833.8000, 56599.00
834.9380, 57086.00
836.0760, 56651.00
837.2130, 56954.00
838.3510, 56885.00
839.4880, 57279.00
840.6250, 57366.00
841.7620, 57288.00
842.8990, 57448.00
844.0360, 57523.00
845.1720, 57565.51
846.3090, 57747.50
847.4450, 57737.00
848.5810, 58021.00
849.7170, 58168.00
850.8530, 58225.00
851.9880, 59652.00
853.1240, 59630.00
854.2590, 60450.00
855.3940, 59187.73
856.5290, 59700.51
857.6640, 59955.47
858.7980, 59966.54
859.9330, 59002.87
861.0670, 59297.84
862.2010, 59088.43
863.3350, 58858.34
864.4690, 59418.00
865.6030, 58868.00
866.7360, 59182.00
867.8690, 58630.00
869.0020, 58615.00
870.1350, 58736.00
871.2680, 58684.00
872.4010, 58790.88
873.5330, 58539.00
874.6660, 58859.00
875.7980, 58913.00
876.9300, 58720.00
878.0620, 59162.00
879.1930, 59372.00
880.3250, 58836.00
881.4560, 58794.00
882.5870, 58848.00
883.7180, 58694.00
884.8490, 58596.00
885.9800, 59021.00
887.1100, 58945.00
888.2410, 59231.00
889.3710, 59083.00
890.5010, 59230.00
891.6310, 59151.00
892.7610, 59410.00
893.8900, 59394.00
895.0200, 59526.44
896.1490, 59572.00
897.2780, 59791.00
898.4070, 59499.00
899.5360, 59617.00
900.6640, 59801.00
901.7920, 60068.00
902.9210, 59745.00
904.0490, 60051.00
905.1770, 59832.00
906.3040, 60078.00
907.4320, 59871.00
908.5600, 60245.00
909.6870, 60155.00
910.8140, 60428.00
911.9410, 60286.00
913.0680, 60428.00
914.1940, 60627.00
915.3210, 60664.00
916.4470, 60681.00
917.5730, 60925.00
918.6990, 60791.00
919.8250, 60701.00
920.9500, 60872.00
922.0760, 61112.00
923.2010, 60758.00
924.3260, 61232.00
925.4510, 61333.00
926.5760, 61212.00
927.7010, 61440.00
928.8250, 61379.00
929.9500, 61620.00
931.0740, 61611.00
932.1980, 61696.00
933.3220, 61962.00
934.4450, 61891.00
935.5690, 62204.00
936.6920, 62263.00
937.8150, 62751.00
938.9380, 62731.00
940.0610, 62839.00
941.1840, 62990.00
942.3060, 63509.00
943.4290, 63288.00
944.5510, 63310.00
945.6730, 63791.00
946.7950, 63438.00
947.9160, 63636.00
949.0380, 63644.00
950.1590, 63773.00
951.2800, 63912.00
952.4010, 63984.00
953.5220, 63935.00
954.6430, 64253.00
955.7630, 64119.00
956.8840, 64915.00
958.0040, 64740.00
959.1240, 65396.00
960.2440, 65732.00
961.3640, 66767.00
962.4830, 67577.00
963.6030, 68862.00
964.7220, 70297.00
965.8410, 72599.00
966.9600, 75154.00
968.0780, 78037.00
969.1970, 81094.00
970.3150, 83437.00
971.4340, 84788.00
972.5520, 84641.00
973.6700, 82839.00
974.7870, 80002.00
975.9050, 77330.00
977.0220, 75432.00
978.1390, 73673.00
979.2560, 73760.00
980.3730, 73799.00
981.4900, 74640.00
982.6070, 76835.00
983.7230, 78414.00
984.8390, 80392.00
985.9550, 80560.00
987.0710, 79793.00
988.1870, 78310.00
989.3030, 76316.00
990.4180, 74736.00
991.5330, 73710.00
992.6480, 72908.00
993.7630, 72977.00
994.8780, 73297.00
995.9930, 73617.00
997.1070, 73616.00
998.2210, 72996.00
999.3350, 72810.00
1000.449, 72077.00
1001.563, 71044.00
1002.677, 70573.00
1003.790, 69815.00
1004.903, 69842.00
1006.016, 69475.00
1007.129, 69462.00
1008.242, 69679.00
1009.355, 70601.00
1010.467, 71693.00
1011.579, 72257.00
1012.691, 73018.00
1013.803, 73840.00
1014.915, 73906.00
1016.027, 73556.00
1017.138, 73243.00
1018.249, 72096.00
1019.360, 70945.00
1020.471, 69623.00
1021.582, 68727.00
1022.693, 67873.00
1023.803, 67150.00
1024.913, 66466.00
1026.023, 66079.00
1027.133, 65588.00
1028.243, 65384.00
1029.353, 64990.00
1030.462, 65361.00
1031.571, 64985.00
1032.680, 65055.00
1033.789, 64612.00
1034.898, 64618.00
1036.007, 64735.00
1037.115, 64516.71
1038.223, 64955.00
1039.331, 64333.00
1040.439, 64796.00
1041.547, 64594.00
1042.655, 64953.00
1043.762, 64861.00
1044.869, 65146.00
1045.976, 65550.00
1047.083, 65836.00
1048.190, 66020.00
1049.297, 66447.84
1050.403, 66744.62
1051.509, 67164.00
1052.615, 67460.00
1053.721, 67766.31
1054.827, 68077.48
1055.933, 68107.00
1057.038, 68307.00
1058.143, 68186.00
1059.248, 68037.00
1060.353, 67614.00
1061.458, 67519.00
1062.563, 67034.00
1063.667, 66681.00
1064.771, 66128.00
1065.875, 66311.00
1066.979, 66687.00
1068.083, 66487.00
1069.186, 65946.00
1070.290, 65923.00
1071.393, 65639.00
1072.496, 66027.00
1073.599, 66173.00
1074.702, 66113.00
1075.804, 66220.00
1076.907, 66260.00
1078.009, 66143.00
1079.111, 66308.00
1080.213, 66627.00
1081.315, 66490.00
1082.416, 66727.63
1083.517, 66614.00
1084.619, 66904.00
1085.720, 67059.00
1086.821, 67057.75
1087.921, 66988.00
1089.022, 66941.00
1090.122, 66440.00
1091.222, 66484.00
1092.322, 66431.00
1093.422, 66555.00
1094.522, 66532.00
1095.622, 66750.00
1096.721, 66955.00
1097.820, 67369.00
1098.919, 67330.00
1100.018, 67178.14
1101.117, 66984.00
1102.215, 66715.00
1103.314, 66818.00
1104.412, 67007.00
1105.510, 66832.00
1106.608, 66746.00
1107.705, 66994.00
1108.803, 66821.00
1109.900, 67013.00
1110.997, 67391.00
1112.094, 66948.00
1113.191, 67393.00
1114.288, 66960.00
1115.384, 67021.00
1116.481, 67168.00
1117.577, 67172.00
1118.673, 67270.97
1119.769, 67305.00
1120.864, 67352.00
1121.960, 67208.00
1123.055, 67110.00
1124.150, 67196.00
1125.245, 67284.00
1126.340, 67056.00
1127.434, 67312.00
1128.529, 67137.00
1129.623, 67547.00
1130.717, 67355.00
1131.811, 67472.00
1132.905, 67283.00
1133.999, 67235.00
1135.092, 67650.00
1136.185, 67402.00
1137.279, 67478.00
1138.371, 67677.00
1139.464, 67430.00
1140.557, 67834.00
1141.649, 67208.60
1142.742, 67831.17
1143.834, 68195.90
1144.926, 68316.66
1146.017, 67462.72
1147.109, 67867.39
1148.200, 67767.65
1149.292, 67647.27
1150.383, 68229.05
1151.474, 67516.87
1152.564, 68087.48
1153.655, 68146.05
1154.745, 68438.95
1155.835, 68224.35
1156.925, 68166.52
1158.015, 68616.32
1159.105, 68785.04
1160.195, 68512.02
1161.284, 68819.80
1162.373, 68089.84
1163.462, 68270.49
1164.551, 68844.05
1165.640, 68596.52
1166.728, 68913.53
1167.817, 69015.55
1168.905, 68140.37
1169.993, 68964.59
1171.081, 69053.88
1172.168, 68388.51
1173.256, 69154.51
1174.343, 68593.17
1175.430, 68505.61
1176.517, 68774.58
1177.604, 68671.87
1178.691, 69155.16
1179.777, 69073.88
1180.864, 68942.20
1181.950, 69024.00
1183.036, 69221.00
1184.121, 69554.00
1185.207, 69414.00
1186.293, 69034.00
1187.378, 69095.00
1188.463, 69474.00
1189.548, 69127.00
1190.633, 69505.00
1191.717, 69433.00
1192.802, 69322.00
1193.886, 69461.00
1194.970, 69134.00
1196.054, 69575.00
1197.138, 69592.00
1198.221, 69396.00
1199.305, 69436.00
1200.388, 69733.00
1201.471, 69555.00
1202.554, 69480.00
1203.637, 69867.00
1204.719, 69639.00
1205.801, 69915.00
1206.884, 69770.00
1207.966, 69912.00
1209.048, 70044.00
1210.129, 70156.00
1211.211, 70296.24
1212.292, 70531.00
1213.373, 70387.00
1214.454, 70299.00
1215.535, 69961.00
1216.616, 70525.00
1217.696, 70088.00
1218.777, 70305.00
1219.857, 70675.00
1220.937, 70623.00
1222.017, 70492.00
1223.096, 70384.00
1224.176, 70396.62
1225.255, 70390.37
1226.334, 70458.00
1227.413, 70609.00
1228.492, 70727.00
1229.570, 71057.00
1230.649, 71107.00
1231.727, 71268.24
1232.805, 71041.00
1233.883, 71351.00
1234.961, 71393.00
1236.038, 71148.00
1237.116, 71352.00
1238.193, 71512.00
1239.270, 71570.00
1240.347, 71547.00
1241.424, 71650.00
1242.500, 71687.95
1243.577, 71691.48
1244.653, 71733.00
1245.729, 71843.00
1246.805, 71216.26
1247.880, 71844.27
1248.956, 72214.50
1250.031, 72340.73
1251.106, 71492.29
1252.181, 71902.43
1253.256, 71808.19
1254.331, 71693.27
1255.405, 72280.52
1256.480, 71573.84
1257.554, 72149.95
1258.628, 72213.98
1259.701, 72512.34
1260.775, 72303.24
1261.849, 72250.89
1262.922, 72706.16
1263.995, 72880.34
1265.068, 72612.79
1266.141, 72926.05
1267.213, 72201.53
1268.286, 72387.69
1269.358, 72966.70
1270.430, 72724.62
1271.502, 73047.11
1272.573, 73154.55
1273.645, 72284.85
1274.716, 73114.53
1275.788, 73209.30
