##NAMES=Celsian
##RRUFFID=R060152
##IDEAL CHEMISTRY=BaAl_2_Si_2_O_8_
##LOCALITY=Benallt mine, Lleyn, Wales
##OWNER=RRUFF
##SOURCE=Marcus Origlieri
##DESCRIPTION=Colorless to white elongated prismatic crystals
##STATUS=The identification of this mineral is confirmed by single-crystal X-ray diffraction and chemical analysis.
##URL=rruff.info/R060152
##MEASURED CHEMISTRY=(Ba_0.98_K_0.02_[box]_0.02_)_Î£=1_Al_2.00_Si_2.00_O_8_
##PIN_ID=M00168
##ORIENTATION=Laser parallel to a* (1 0 0). Fiducial mark perpendicular to laser is parallel to b [0 1 0]
62.16800, 5584.000
63.41100, 6089.000
64.65300, 6864.000
65.89600, 7735.000
67.13800, 9016.000
68.38000, 10563.00
69.62200, 12312.00
70.86300, 14042.00
72.10500, 15298.85
73.34600, 17088.00
74.58700, 17650.00
75.82800, 18692.00
77.06900, 19510.00
78.30900, 20518.00
79.55000, 21094.00
80.79000, 21262.00
82.03000, 21516.00
83.27000, 21645.00
84.51000, 21966.00
85.74900, 22500.00
86.98900, 23211.00
88.22800, 23997.00
89.46700, 24707.00
90.70600, 25762.00
91.94400, 27089.00
93.18300, 27882.00
94.42100, 29145.00
95.65900, 30518.00
96.89700, 31736.00
98.13500, 33943.00
99.37300, 36086.00
100.6100, 37943.00
101.8480, 39517.00
103.0850, 41954.00
104.3220, 46270.00
105.5590, 52509.00
106.7950, 58352.00
108.0320, 59853.00
109.2680, 58476.00
110.5040, 54994.00
111.7400, 51082.00
112.9760, 46442.00
114.2120, 43182.00
115.4470, 41487.00
116.6820, 40802.00
117.9170, 39651.00
119.1520, 38894.00
120.3870, 38097.00
121.6220, 36053.00
122.8560, 34599.00
124.0900, 34236.00
125.3240, 34481.00
126.5580, 34886.00
127.7920, 35289.00
129.0260, 36266.00
130.2590, 36250.00
131.4920, 35830.00
132.7250, 35231.00
133.9580, 34826.00
135.1910, 34818.00
136.4230, 34648.00
137.6560, 34469.00
138.8880, 34440.00
140.1200, 34187.00
141.3520, 33706.00
142.5830, 33584.00
143.8150, 33409.00
145.0460, 33379.00
146.2770, 33328.65
147.5080, 33376.00
148.7390, 33367.00
149.9700, 33438.00
151.2000, 33539.00
152.4310, 33730.00
153.6610, 33903.00
154.8910, 34029.00
156.1210, 34148.00
157.3500, 34531.00
158.5800, 34705.00
159.8090, 35006.00
161.0380, 35904.00
162.2670, 36689.00
163.4960, 37693.00
164.7240, 38916.00
165.9530, 40553.00
167.1810, 42718.00
168.4090, 45549.00
169.6370, 48276.00
170.8650, 48856.00
172.0920, 47678.00
173.3200, 45008.00
174.5470, 42366.00
175.7740, 40283.00
177.0010, 38465.00
178.2280, 37159.00
179.4540, 36556.00
180.6810, 35848.00
181.9070, 35664.00
183.1330, 35267.00
184.3590, 34993.00
185.5850, 34888.00
186.8100, 34690.00
188.0350, 34716.72
189.2610, 35065.00
190.4860, 34897.00
191.7110, 35088.00
192.9350, 35295.00
194.1600, 35343.00
195.3840, 35310.00
196.6080, 35582.00
197.8320, 35688.00
199.0560, 35948.00
200.2800, 35489.00
201.5030, 35561.00
202.7270, 35461.00
203.9500, 35129.00
205.1730, 35231.00
206.3950, 35220.00
207.6180, 35067.00
208.8410, 35215.00
210.0630, 34913.00
211.2850, 35105.00
212.5070, 35324.00
213.7290, 35269.00
214.9500, 35217.00
216.1720, 35203.00
217.3930, 35316.00
218.6140, 35634.00
219.8350, 35447.00
221.0560, 35959.00
222.2770, 35735.00
223.4970, 35915.00
224.7170, 35988.00
225.9370, 36072.00
227.1570, 36058.00
228.3770, 36209.00
229.5970, 36054.00
230.8160, 36153.00
232.0350, 36232.00
233.2540, 36290.00
234.4730, 36585.00
235.6920, 36968.00
236.9110, 37569.00
238.1290, 38301.00
239.3470, 38940.00
240.5650, 40297.00
241.7830, 41572.00
243.0010, 43122.00
244.2180, 44964.00
245.4360, 46295.00
246.6530, 47492.00
247.8700, 48186.00
249.0870, 48074.00
250.3040, 47201.00
251.5200, 45629.00
252.7370, 44604.00
253.9530, 43607.00
255.1690, 43050.00
256.3850, 42528.00
257.6000, 42450.00
258.8160, 42489.00
260.0310, 41517.00
261.2460, 40914.00
262.4610, 40347.00
263.6760, 39573.00
264.8910, 39140.00
266.1050, 38713.00
267.3200, 38372.00
268.5340, 38156.00
269.7480, 37926.94
270.9620, 38000.00
272.1750, 37656.00
273.3890, 37567.00
274.6020, 37455.00
275.8150, 37716.00
277.0280, 37723.00
278.2410, 37465.00
279.4540, 37197.00
280.6660, 37358.00
281.8790, 37720.00
283.0910, 37652.00
284.3030, 37388.00
285.5140, 37646.00
286.7260, 37616.00
287.9380, 37714.00
289.1490, 37781.00
290.3600, 37877.00
291.5710, 38021.00
292.7820, 37792.00
293.9920, 38288.00
295.2030, 38257.00
296.4130, 38691.00
297.6230, 38679.00
298.8330, 38973.00
300.0430, 39687.00
301.2520, 39907.00
302.4620, 40649.00
303.6710, 41543.00
304.8800, 42657.00
306.0890, 44017.00
307.2980, 44748.00
308.5070, 44920.00
309.7150, 44511.00
310.9230, 43271.00
312.1310, 42377.00
313.3390, 41198.00
314.5470, 40519.00
315.7550, 39665.00
316.9620, 39162.00
318.1690, 39004.00
319.3760, 38716.00
320.5830, 38972.00
321.7900, 38905.00
322.9960, 38976.00
324.2030, 38841.00
325.4090, 38853.00
326.6150, 38827.00
327.8210, 38961.00
329.0270, 38837.00
330.2320, 38563.00
331.4380, 38905.00
332.6430, 38620.00
333.8480, 39101.00
335.0530, 38768.00
336.2580, 38955.00
337.4620, 38782.00
338.6670, 39143.00
339.8710, 39131.00
341.0750, 39249.00
342.2790, 39381.00
343.4820, 39344.00
344.6860, 39915.00
345.8890, 39675.00
347.0920, 40299.00
348.2960, 40465.00
349.4980, 41268.00
350.7010, 41751.00
351.9040, 42711.00
353.1060, 43433.00
354.3080, 44683.00
355.5100, 46010.00
356.7120, 47642.00
357.9140, 48408.00
359.1150, 48303.00
360.3170, 47224.00
361.5180, 45786.00
362.7190, 44485.00
363.9200, 43484.00
365.1200, 42529.02
366.3210, 41720.00
367.5210, 41280.00
368.7210, 40820.00
369.9210, 40777.00
371.1210, 41038.00
372.3210, 40726.00
373.5200, 40579.00
374.7200, 40354.00
375.9190, 40487.00
377.1180, 40295.00
378.3170, 40452.00
379.5150, 40342.00
380.7140, 40616.00
381.9120, 40403.00
383.1110, 40668.00
384.3090, 40923.00
385.5060, 40826.00
386.7040, 41217.00
387.9020, 41454.00
389.0990, 41849.00
390.2960, 42091.00
391.4930, 42925.00
392.6900, 43643.00
393.8860, 44055.00
395.0830, 44561.00
396.2790, 44025.00
397.4750, 43258.00
398.6710, 42805.00
399.8670, 42159.00
401.0630, 41670.00
402.2580, 41616.00
403.4540, 41602.00
404.6490, 41973.00
405.8440, 41661.00
407.0390, 41868.00
408.2330, 41787.00
409.4280, 41767.00
410.6220, 41742.00
411.8160, 42182.00
413.0100, 41906.00
414.2040, 42391.00
415.3980, 42310.00
416.5910, 42068.00
417.7850, 42325.00
418.9780, 42335.00
420.1710, 42535.48
421.3640, 42870.00
422.5560, 43132.00
423.7490, 43487.00
424.9410, 43921.00
426.1330, 44240.00
427.3250, 45169.00
428.5170, 45788.00
429.7090, 45879.00
430.9000, 46076.00
432.0910, 45716.00
433.2820, 45097.00
434.4730, 44687.00
435.6640, 44356.00
436.8550, 43975.00
438.0450, 43824.00
439.2360, 43744.00
440.4260, 43830.00
441.6160, 44150.00
442.8060, 44145.00
443.9950, 44495.00
445.1850, 44545.00
446.3740, 45011.00
447.5630, 45330.00
448.7520, 45833.00
449.9410, 46231.00
451.1300, 46967.00
452.3180, 47969.00
453.5060, 49249.00
454.6950, 50761.00
455.8830, 52496.00
457.0700, 54951.00
458.2580, 58072.00
459.4450, 61707.00
460.6330, 66544.00
461.8200, 72156.00
463.0070, 78155.00
464.1940, 82141.00
465.3800, 82564.00
466.5670, 79634.00
467.7530, 74620.00
468.9390, 68971.00
470.1250, 64783.00
471.3110, 61671.00
472.4970, 59647.00
473.6820, 57696.00
474.8680, 55887.00
476.0530, 53916.00
477.2380, 52104.00
478.4230, 51040.00
479.6070, 49661.00
480.7920, 48938.00
481.9760, 48407.00
483.1600, 48426.00
484.3440, 48085.00
485.5280, 48464.00
486.7120, 48548.00
487.8950, 48714.00
489.0780, 49029.00
490.2620, 49691.00
491.4450, 50499.00
492.6270, 51211.00
493.8100, 52322.00
494.9920, 54052.00
496.1750, 55864.00
497.3570, 58698.00
498.5390, 62816.00
499.7210, 66744.00
500.9020, 73191.00
502.0840, 81378.00
503.2650, 91085.00
504.4460, 104157.0
505.6270, 119955.0
506.8080, 139505.0
507.9890, 158580.0
509.1690, 172002.0
510.3500, 172465.0
511.5300, 158145.0
512.7100, 137781.0
513.8900, 117095.0
515.0690, 99014.00
516.2490, 85260.00
517.4280, 76325.00
518.6070, 69812.00
519.7860, 65540.00
520.9650, 61989.00
522.1440, 60001.00
523.3220, 58895.00
524.5010, 58183.00
525.6790, 58234.00
526.8570, 58488.00
528.0350, 58778.00
529.2130, 58457.00
530.3900, 57196.00
531.5670, 55995.00
532.7450, 54010.00
533.9220, 52412.00
535.0980, 51705.00
536.2750, 51335.00
537.4520, 50090.00
538.6280, 49563.00
539.8040, 49176.00
540.9800, 48814.00
542.1560, 48559.00
543.3320, 48397.00
544.5070, 48319.00
545.6830, 48232.00
546.8580, 48426.00
548.0330, 48189.00
549.2080, 48208.00
550.3830, 48336.00
551.5570, 48123.00
552.7310, 48229.00
553.9060, 48054.00
555.0800, 48819.98
556.2540, 48460.00
557.4270, 48420.39
558.6010, 48040.00
559.7740, 48138.00
560.9470, 47591.00
562.1210, 47867.00
563.2930, 47590.00
564.4660, 47260.00
565.6390, 47547.00
566.8110, 47483.00
567.9830, 47518.00
569.1550, 47380.00
570.3270, 47513.00
571.4990, 47450.52
572.6710, 47612.00
573.8420, 47509.00
575.0130, 47611.00
576.1840, 47819.00
577.3550, 47766.00
578.5260, 47715.00
579.6970, 47720.00
580.8670, 47610.00
582.0370, 47546.00
583.2070, 47624.71
584.3770, 47796.00
585.5470, 47881.00
586.7170, 47906.00
587.8860, 48230.00
589.0550, 48214.58
590.2240, 48400.00
591.3930, 48391.00
592.5620, 48643.00
593.7310, 48824.00
594.8990, 48807.00
596.0670, 48817.00
597.2350, 48739.00
598.4030, 48466.00
599.5710, 48351.00
600.7390, 48373.00
601.9060, 48062.00
603.0740, 48123.00
604.2410, 48003.00
605.4080, 48150.00
606.5740, 47896.00
607.7410, 47988.00
608.9080, 48017.00
610.0740, 48523.00
611.2400, 48636.00
612.4060, 48697.00
613.5720, 48751.00
614.7370, 48733.00
615.9030, 48953.00
617.0680, 49090.00
618.2330, 49233.00
619.3980, 49000.00
620.5630, 49093.00
621.7280, 48957.00
622.8920, 48840.00
624.0570, 49201.00
625.2210, 48559.00
626.3850, 48884.00
627.5490, 48680.00
628.7120, 48878.00
629.8760, 48673.00
631.0390, 48787.00
632.2020, 48820.00
633.3650, 48854.00
634.5280, 48773.00
635.6910, 49077.00
636.8530, 48736.00
638.0160, 48994.00
639.1780, 48855.00
640.3400, 48970.00
641.5020, 48991.00
642.6640, 49194.00
643.8250, 49118.00
644.9870, 49030.00
646.1480, 49422.00
647.3090, 49153.00
648.4700, 49424.00
649.6300, 49546.00
650.7910, 49291.00
651.9510, 49281.00
653.1120, 49307.42
654.2720, 49456.00
655.4320, 49330.00
656.5910, 49431.00
657.7510, 49381.00
658.9100, 49498.00
660.0690, 49579.00
661.2290, 49633.00
662.3880, 49798.00
663.5460, 49682.00
664.7050, 49966.00
665.8630, 49881.00
667.0220, 50073.00
668.1800, 50050.00
669.3380, 50336.00
670.4950, 50372.00
671.6530, 50527.00
672.8100, 50874.00
673.9680, 51089.00
675.1250, 51384.00
676.2820, 51749.00
677.4390, 52219.00
678.5950, 52838.00
679.7520, 53451.00
680.9080, 54166.00
682.0640, 55096.00
683.2200, 55222.00
684.3760, 55860.00
685.5320, 55597.00
686.6870, 54729.00
687.8420, 54222.00
688.9980, 53482.00
690.1530, 52849.00
691.3070, 52426.00
692.4620, 52113.00
693.6170, 51812.68
694.7710, 51691.00
695.9250, 51488.00
697.0790, 51363.00
698.2330, 51255.00
699.3870, 51257.75
700.5400, 51275.00
701.6940, 51395.00
702.8470, 51504.00
704.0000, 51652.00
705.1530, 51921.00
706.3050, 52054.31
707.4580, 52202.00
708.6100, 52480.00
709.7630, 52659.00
710.9150, 52972.00
712.0660, 53931.00
713.2180, 54287.00
714.3700, 54640.00
715.5210, 54814.00
716.6720, 54722.00
717.8240, 54544.00
718.9740, 54255.00
720.1250, 54062.45
721.2760, 53691.00
722.4260, 53654.00
723.5770, 53411.00
724.7270, 53465.00
725.8770, 53240.00
727.0260, 53215.77
728.1760, 53228.10
729.3250, 53135.00
730.4750, 53228.00
731.6240, 53190.00
732.7730, 53083.00
733.9220, 52759.00
735.0700, 52924.00
736.2190, 52342.00
737.3670, 52894.00
738.5150, 52478.00
739.6630, 52456.00
740.8110, 52615.00
741.9590, 52620.00
743.1060, 52695.00
744.2540, 53057.00
745.4010, 53111.00
746.5480, 53163.00
747.6950, 53602.00
748.8410, 53405.00
749.9880, 53555.00
751.1340, 53882.00
752.2800, 54278.00
753.4260, 53899.00
754.5720, 54213.00
755.7180, 53628.00
756.8640, 53851.00
758.0090, 53450.00
759.1540, 53192.00
760.2990, 52955.00
761.4440, 53012.00
762.5890, 52998.00
763.7340, 53321.00
764.8780, 53213.00
766.0220, 52859.00
767.1660, 53222.00
768.3100, 53314.00
769.4540, 52810.00
770.5980, 52774.00
771.7410, 52932.00
772.8840, 53107.00
774.0280, 53080.00
775.1700, 53239.13
776.3130, 53303.00
777.4560, 53419.00
778.5980, 53413.00
779.7410, 53503.00
780.8830, 53109.00
782.0250, 53364.00
783.1670, 53542.00
784.3080, 53241.00
785.4500, 53465.00
786.5910, 53877.00
787.7320, 53652.00
788.8730, 53699.00
790.0140, 53682.00
791.1550, 53751.00
792.2950, 54013.00
793.4360, 53959.00
794.5760, 53557.00
795.7160, 53998.00
796.8560, 53775.00
797.9960, 53852.00
799.1350, 53915.00
800.2750, 54110.00
801.4140, 54026.00
802.5530, 54255.00
803.6920, 53948.00
804.8310, 54043.00
805.9690, 53991.00
807.1080, 54212.00
808.2460, 54386.00
809.3840, 54615.00
810.5220, 54554.37
811.6600, 54640.45
812.7970, 54392.00
813.9350, 54617.00
815.0720, 54581.00
816.2090, 54607.00
817.3460, 54641.00
818.4830, 54680.00
819.6200, 54869.00
820.7560, 55111.00
821.8930, 54929.00
823.0290, 54808.00
824.1650, 55039.00
825.3010, 54972.00
826.4360, 55282.00
827.5720, 55044.00
828.7070, 55148.00
829.8420, 54871.00
830.9770, 54933.28
832.1120, 55101.00
833.2470, 55080.00
834.3820, 55206.00
835.5160, 55473.00
836.6500, 55209.00
837.7840, 55482.00
838.9180, 55329.00
840.0520, 55432.00
841.1860, 55141.00
842.3190, 55510.00
843.4520, 55689.00
844.5850, 55645.00
845.7180, 55441.00
846.8510, 55978.00
847.9840, 55598.00
849.1160, 55865.00
850.2490, 55774.00
851.3810, 55773.00
852.5130, 55982.00
853.6450, 55599.00
854.7760, 55986.00
855.9080, 56340.00
857.0390, 56270.00
858.1700, 56264.00
859.3010, 56594.00
860.4320, 56218.00
861.5630, 56391.00
862.6930, 56296.00
863.8240, 56377.00
864.9540, 56580.00
866.0840, 56470.00
867.2140, 56483.00
868.3440, 56486.00
869.4730, 56333.00
870.6030, 56889.00
871.7320, 56814.00
872.8610, 56580.00
873.9900, 56889.00
875.1190, 56478.00
876.2470, 56990.00
877.3760, 56540.00
878.5040, 56884.00
879.6320, 56831.00
880.7600, 56994.00
881.8880, 57023.00
883.0150, 57075.00
884.1430, 57090.00
885.2700, 57166.00
886.3970, 57291.00
887.5240, 57305.00
888.6510, 57255.00
889.7780, 57527.00
890.9040, 57378.00
892.0310, 57350.00
893.1570, 57756.00
894.2830, 57187.00
895.4090, 57566.00
896.5350, 57463.00
897.6600, 57514.00
898.7860, 57545.00
899.9110, 57837.00
901.0360, 57655.00
902.1610, 57774.00
903.2860, 57673.00
904.4100, 57814.00
905.5350, 58177.00
906.6590, 58091.00
907.7830, 58245.00
908.9070, 58096.00
910.0310, 58122.00
911.1540, 58121.00
912.2780, 58129.00
913.4010, 58384.00
914.5240, 58514.00
915.6470, 58672.00
916.7700, 58685.00
917.8930, 58593.00
919.0150, 58722.00
920.1380, 58951.00
921.2600, 58768.00
922.3820, 58797.00
923.5040, 58978.00
924.6260, 58760.00
925.7470, 59235.00
926.8690, 59443.00
927.9900, 59339.00
929.1110, 59398.00
930.2320, 59295.00
931.3530, 59647.00
932.4730, 59475.00
933.5940, 59566.00
934.7140, 59948.00
935.8340, 59592.00
936.9540, 59899.00
938.0740, 59822.00
939.1930, 60174.00
940.3130, 60544.00
941.4320, 60536.00
942.5510, 60709.00
943.6700, 60661.00
944.7890, 60998.00
945.9080, 60886.00
947.0260, 61117.00
948.1450, 60734.00
949.2630, 60807.00
950.3810, 60593.00
951.4990, 60600.00
952.6170, 60549.00
953.7340, 60598.00
954.8520, 60750.00
955.9690, 60882.00
957.0860, 60745.00
958.2030, 60984.00
959.3200, 60822.00
960.4360, 60986.00
961.5530, 60824.00
962.6690, 61258.00
963.7850, 61166.00
964.9010, 61509.00
966.0170, 61522.00
967.1330, 61662.00
968.2480, 61748.00
969.3630, 62300.00
970.4790, 62585.00
971.5940, 62902.00
972.7080, 63502.00
973.8230, 63868.00
974.9380, 64516.00
976.0520, 64854.00
977.1660, 66200.00
978.2800, 67703.00
979.3940, 69524.00
980.5080, 71569.00
981.6220, 73936.00
982.7350, 76436.00
983.8480, 78448.00
984.9610, 79882.00
986.0740, 79811.00
987.1870, 78906.00
988.3000, 75890.00
989.4120, 73676.00
990.5250, 71543.00
991.6370, 70320.00
992.7490, 69157.00
993.8610, 69160.00
994.9720, 68856.00
996.0840, 68504.00
997.1950, 68365.87
998.3060, 68335.00
999.4170, 67785.00
1000.528, 67493.00
1001.639, 66970.00
1002.750, 66612.00
1003.860, 66292.00
1004.970, 66851.00
1006.080, 66657.00
1007.190, 67178.00
1008.300, 67524.00
1009.410, 69197.00
1010.519, 70704.00
1011.628, 70265.00
1012.738, 70724.00
1013.846, 71770.00
1014.955, 72136.00
1016.064, 72116.00
1017.172, 71516.00
1018.281, 70725.00
1019.389, 69807.00
1020.497, 69105.00
1021.605, 67680.00
1022.713, 67421.00
1023.820, 66610.00
1024.928, 66061.00
1026.035, 65739.00
1027.142, 65646.00
1028.249, 65561.00
1029.356, 65687.00
1030.462, 65476.00
1031.569, 65845.00
1032.675, 65524.00
1033.781, 65927.00
1034.887, 65681.00
1035.993, 65673.00
1037.098, 65595.00
1038.204, 65214.00
1039.309, 64738.00
1040.415, 64880.00
1041.520, 64969.00
1042.624, 64849.00
1043.729, 64960.00
1044.834, 65093.00
1045.938, 65332.00
1047.042, 65890.00
1048.146, 66249.00
1049.250, 66969.00
1050.354, 67793.00
1051.458, 68353.00
1052.561, 69494.00
1053.664, 70084.00
1054.767, 70766.00
1055.870, 71067.00
1056.973, 70886.00
1058.076, 70210.00
1059.178, 69902.00
1060.281, 69364.65
1061.383, 68679.00
1062.485, 68210.00
1063.587, 67476.00
1064.688, 66760.00
1065.790, 66911.00
1066.891, 66255.00
1067.993, 66141.00
1069.094, 65489.00
1070.195, 65584.00
1071.295, 65502.00
1072.396, 65219.00
1073.496, 65203.00
1074.597, 65180.00
1075.697, 64976.00
1076.797, 64756.00
1077.897, 64700.00
1078.996, 64697.98
1080.096, 65209.00
1081.195, 64766.00
1082.294, 65132.00
1083.393, 64989.00
1084.492, 65013.00
1085.591, 65222.00
1086.689, 64992.00
1087.788, 65215.00
1088.886, 65069.00
1089.984, 65413.00
1091.082, 65058.00
1092.180, 65355.00
1093.277, 65283.00
1094.375, 65513.00
1095.472, 65280.00
1096.569, 65578.00
1097.666, 65584.00
1098.763, 65470.00
1099.860, 65602.00
1100.956, 65802.00
1102.053, 65580.00
1103.149, 65997.00
1104.245, 65883.00
1105.341, 65846.00
1106.436, 65717.00
1107.532, 65947.00
1108.627, 65743.00
1109.723, 65862.00
1110.818, 65865.00
1111.913, 65859.00
1113.007, 66087.00
1114.102, 65673.00
1115.197, 66055.00
1116.291, 65907.00
1117.385, 66349.00
1118.479, 66354.00
1119.573, 66397.00
1120.666, 66415.00
1121.760, 66468.23
1122.853, 66634.00
1123.947, 66548.00
1125.040, 66648.00
1126.132, 66614.00
1127.225, 66673.00
1128.318, 66458.00
1129.410, 66434.00
1130.502, 66567.00
1131.595, 66424.00
1132.687, 66118.00
1133.778, 66553.00
1134.870, 66324.00
1135.961, 66434.00
1137.053, 66674.00
1138.144, 66484.00
1139.235, 66681.00
1140.326, 66750.96
1141.416, 66687.00
1142.507, 66902.00
1143.597, 67078.00
1144.688, 67043.00
1145.778, 66785.00
1146.868, 67112.00
1147.957, 66617.00
1149.047, 66893.00
1150.136, 66925.00
1151.226, 67503.00
1152.315, 68321.00
1153.404, 67785.00
1154.493, 68342.00
1155.581, 67897.00
1156.670, 67915.00
1157.758, 67729.00
1158.846, 67566.00
1159.934, 67929.00
1161.022, 67934.00
1162.110, 67455.00
1163.198, 67173.00
1164.285, 67552.00
1165.372, 67690.00
1166.459, 67260.00
1167.546, 67761.00
1168.633, 67348.00
1169.720, 67454.00
1170.806, 67605.00
1171.892, 67528.00
1172.979, 67830.00
1174.065, 68041.00
1175.150, 68033.00
1176.236, 68097.00
1177.322, 67923.00
1178.407, 67880.00
1179.492, 67627.00
1180.577, 67640.00
1181.662, 67956.00
1182.747, 68152.00
1183.832, 68152.00
1184.916, 67941.00
1186.000, 67872.00
1187.084, 68084.00
1188.168, 68211.00
1189.252, 68206.00
1190.336, 68269.00
1191.419, 68017.00
1192.503, 68256.00
1193.586, 68321.00
1194.669, 68219.00
1195.752, 68523.00
1196.835, 68453.00
1197.917, 68259.00
1199.000, 68267.00
1200.082, 68854.00
1201.164, 68659.00
1202.246, 69062.00
1203.328, 69168.00
1204.409, 69011.00
1205.491, 68627.00
1206.572, 68942.00
1207.653, 68872.00
1208.734, 68838.00
1209.815, 69040.00
1210.896, 69212.00
1211.976, 69273.00
1213.057, 69210.00
1214.137, 69070.00
1215.217, 69532.00
1216.297, 69848.00
1217.377, 69432.00
1218.456, 69469.00
1219.536, 69373.00
1220.615, 69522.00
1221.694, 69387.00
1222.773, 69441.00
1223.852, 69530.00
1224.931, 69515.00
1226.009, 69555.00
1227.088, 69725.00
1228.166, 69475.00
1229.244, 69990.00
1230.322, 69855.00
1231.400, 70130.00
1232.477, 69993.00
1233.555, 69967.00
1234.632, 69921.00
1235.709, 69957.12
1236.786, 70007.00
1237.863, 70115.00
1238.939, 70227.00
1240.016, 70332.00
1241.092, 70337.00
1242.168, 70084.00
1243.245, 70110.00
1244.320, 69971.00
1245.396, 70335.00
