##NAMES=Celsian
##RRUFFID=R060152
##IDEAL CHEMISTRY=BaAl_2_Si_2_O_8_
##LOCALITY=Benallt mine, Lleyn, Wales
##OWNER=RRUFF
##SOURCE=Marcus Origlieri
##DESCRIPTION=Colorless to white elongated prismatic crystals
##STATUS=The identification of this mineral is confirmed by single-crystal X-ray diffraction and chemical analysis.
##URL=rruff.info/R060152
##MEASURED CHEMISTRY=(Ba_0.98_K_0.02_[box]_0.02_)_Î£=1_Al_2.00_Si_2.00_O_8_
##PIN_ID=M00486
##ORIENTATION=Laser parallel to (1 0 1). Fiducial mark perpendicular to laser is parallel to -b [0 -1 0]
119.8650, 34095.00
121.1010, 33933.00
122.3370, 33825.00
123.5730, 33688.00
124.8090, 34009.00
126.0450, 34121.00
127.2800, 34500.00
128.5150, 34708.46
129.7500, 35371.00
130.9850, 35075.00
132.2200, 35535.00
133.4540, 35451.00
134.6890, 35088.00
135.9230, 34788.00
137.1570, 34137.00
138.3900, 33141.00
139.6240, 32122.00
140.8580, 31587.00
142.0910, 30726.00
143.3240, 30168.00
144.5570, 29787.00
145.7900, 29579.00
147.0220, 29512.00
148.2550, 29361.00
149.4870, 29266.00
150.7190, 29316.00
151.9510, 29227.00
153.1830, 29335.00
154.4140, 29402.00
155.6460, 29772.00
156.8770, 30093.00
158.1080, 30474.00
159.3390, 30767.00
160.5690, 31427.00
161.8000, 31872.00
163.0300, 32587.00
164.2600, 32906.00
165.4900, 33498.00
166.7200, 34176.00
167.9500, 34418.00
169.1790, 34420.81
170.4080, 34298.00
171.6380, 33705.00
172.8670, 32952.00
174.0950, 31938.00
175.3240, 31354.00
176.5520, 30618.00
177.7810, 30168.00
179.0090, 29807.00
180.2370, 29403.00
181.4640, 29284.00
182.6920, 29192.00
183.9190, 29310.00
185.1460, 29440.00
186.3730, 29065.00
187.6000, 29426.00
188.8270, 29392.00
190.0530, 29857.00
191.2800, 29864.00
192.5060, 30282.00
193.7320, 30282.00
194.9580, 30705.00
196.1830, 30682.00
197.4090, 30620.00
198.6340, 30529.00
199.8590, 30149.00
201.0840, 29902.00
202.3090, 29414.00
203.5340, 29160.00
204.7580, 28972.00
205.9820, 28940.00
207.2060, 28874.00
208.4300, 28835.00
209.6540, 28706.00
210.8780, 28762.96
212.1010, 28801.00
213.3240, 28865.00
214.5470, 29009.00
215.7700, 29095.00
216.9930, 29222.67
218.2150, 29341.47
219.4380, 29510.00
220.6600, 29550.00
221.8820, 29741.00
223.1040, 29788.00
224.3260, 29708.00
225.5470, 29599.00
226.7680, 29594.00
227.9900, 29455.00
229.2110, 29462.00
230.4310, 29651.00
231.6520, 29719.00
232.8720, 30177.00
234.0930, 30284.00
235.3130, 30878.00
236.5330, 31219.00
237.7530, 31866.00
238.9720, 32503.00
240.1920, 33085.00
241.4110, 33848.00
242.6300, 34515.00
243.8490, 35276.00
245.0680, 35364.00
246.2860, 35736.00
247.5040, 35985.00
248.7230, 35634.00
249.9410, 35428.00
251.1590, 35047.00
252.3760, 34396.00
253.5940, 34014.00
254.8110, 33589.00
256.0280, 33405.00
257.2450, 33140.00
258.4620, 33030.00
259.6790, 32199.00
260.8950, 31853.00
262.1120, 31621.00
263.3280, 31305.00
264.5440, 31018.00
265.7600, 30703.00
266.9750, 30453.00
268.1910, 30343.00
269.4060, 30522.00
270.6210, 30230.00
271.8360, 30235.00
273.0510, 30024.00
274.2650, 30305.00
275.4800, 29925.00
276.6940, 29999.00
277.9080, 30193.00
279.1220, 29866.00
280.3360, 29816.00
281.5490, 30097.00
282.7630, 29974.00
283.9760, 29708.00
285.1890, 29839.00
286.4020, 29771.00
287.6150, 29842.00
288.8270, 29928.00
290.0400, 29867.00
291.2520, 29787.00
292.4640, 29996.00
293.6760, 29907.00
294.8870, 30465.00
296.0990, 30376.00
297.3100, 30717.00
298.5210, 30886.00
299.7320, 31297.00
300.9430, 31368.00
302.1540, 31606.00
303.3640, 31979.00
304.5750, 31911.00
305.7850, 32428.00
306.9950, 32346.00
308.2050, 32066.00
309.4140, 31676.00
310.6240, 31388.00
311.8330, 31190.00
313.0420, 30735.00
314.2510, 30642.00
315.4600, 30476.00
316.6680, 30472.00
317.8770, 30386.00
319.0850, 30272.00
320.2930, 30256.00
321.5010, 30166.00
322.7090, 30280.00
323.9160, 30249.00
325.1240, 30394.00
326.3310, 30217.00
327.5380, 30141.00
328.7450, 30192.00
329.9520, 30318.00
331.1580, 30208.00
332.3650, 30043.00
333.5710, 30386.00
334.7770, 30310.00
335.9830, 30334.00
337.1880, 30599.00
338.3940, 30516.00
339.5990, 30590.00
340.8040, 30797.00
342.0090, 30572.00
343.2140, 30642.00
344.4190, 30742.00
345.6230, 30782.00
346.8280, 30934.00
348.0320, 30988.00
349.2360, 31119.00
350.4400, 31216.00
351.6430, 30902.00
352.8470, 31224.00
354.0500, 31243.00
355.2530, 31594.00
356.4560, 31541.00
357.6590, 31511.00
358.8620, 31484.00
360.0640, 31424.00
361.2660, 31217.00
362.4680, 31193.00
363.6700, 31407.00
364.8720, 31115.00
366.0740, 31163.00
367.2750, 31073.00
368.4760, 30935.00
369.6770, 31035.00
370.8780, 30962.00
372.0790, 31192.00
373.2800, 30921.00
374.4800, 31064.00
375.6800, 31096.00
376.8800, 31488.00
378.0800, 31149.00
379.2800, 31286.00
380.4790, 31682.00
381.6790, 31760.00
382.8780, 31897.00
384.0770, 32211.00
385.2760, 32338.00
386.4750, 32470.00
387.6730, 32945.00
388.8720, 32808.00
390.0700, 33109.00
391.2680, 33575.00
392.4660, 33518.00
393.6630, 33229.00
394.8610, 33349.00
396.0580, 32994.00
397.2550, 32665.00
398.4520, 32437.00
399.6490, 32238.00
400.8460, 32159.75
402.0420, 32041.95
403.2390, 32103.00
404.4350, 32007.00
405.6310, 31914.00
406.8270, 32046.00
408.0220, 32244.00
409.2180, 32422.00
410.4130, 32345.00
411.6080, 32457.00
412.8030, 32507.60
413.9980, 32456.00
415.1920, 32559.00
416.3870, 32654.00
417.5810, 32745.63
418.7750, 32869.00
419.9690, 33054.00
421.1630, 33262.00
422.3570, 33488.00
423.5500, 33747.77
424.7430, 34188.00
425.9360, 34311.00
427.1290, 34666.00
428.3220, 34958.00
429.5150, 34523.00
430.7070, 34615.00
431.8990, 34251.00
433.0910, 34052.00
434.2830, 33429.00
435.4750, 33594.00
436.6670, 33381.00
437.8580, 33438.00
439.0490, 33252.00
440.2400, 32989.00
441.4310, 33131.00
442.6220, 33129.00
443.8130, 33039.00
445.0030, 33167.00
446.1930, 33255.00
447.3830, 33631.00
448.5730, 33400.00
449.7630, 33565.00
450.9520, 33970.00
452.1420, 34117.00
453.3310, 34509.00
454.5200, 34396.00
455.7090, 35131.00
456.8980, 35557.00
458.0860, 36747.00
459.2740, 36161.00
460.4630, 36501.00
461.6510, 37375.00
462.8380, 37478.00
464.0260, 37540.00
465.2140, 37862.00
466.4010, 37611.00
467.5880, 37179.00
468.7750, 37381.00
469.9620, 37060.00
471.1490, 37037.00
472.3350, 37097.00
473.5220, 36745.00
474.7080, 36481.00
475.8940, 35927.00
477.0800, 35794.00
478.2650, 35481.00
479.4510, 35302.00
480.6360, 35062.00
481.8210, 35072.14
483.0060, 35139.00
484.1910, 35282.00
485.3760, 35425.00
486.5600, 35637.81
487.7440, 35886.00
488.9290, 36188.00
490.1130, 36563.00
491.2960, 36969.00
492.4800, 37919.00
493.6630, 38764.00
494.8470, 39788.00
496.0300, 41253.00
497.2130, 42694.00
498.3960, 45052.00
499.5780, 47311.00
500.7610, 50518.00
501.9430, 53571.00
503.1250, 57135.00
504.3070, 60166.00
505.4890, 63401.00
506.6710, 65787.00
507.8520, 66386.00
509.0330, 65592.00
510.2140, 62996.00
511.3950, 59220.00
512.5760, 54990.00
513.7570, 50581.00
514.9370, 47344.00
516.1170, 44403.00
517.2980, 42183.00
518.4780, 40659.00
519.6570, 39978.00
520.8370, 39245.00
522.0160, 38548.00
523.1960, 38150.00
524.3750, 37666.00
525.5540, 37713.00
526.7320, 37565.00
527.9110, 37352.00
529.0890, 37348.00
530.2680, 36949.00
531.4460, 36778.00
532.6240, 36790.00
533.8010, 36419.00
534.9790, 36414.00
536.1560, 36277.00
537.3340, 36382.00
538.5110, 36276.00
539.6880, 36421.00
540.8650, 36422.97
542.0410, 36457.05
543.2180, 36502.00
544.3940, 36610.00
545.5700, 36661.00
546.7460, 36847.44
547.9220, 36783.00
549.0970, 37062.00
550.2730, 37069.00
551.4480, 37111.00
552.6230, 37429.00
553.7980, 37375.00
554.9730, 37492.00
556.1470, 37530.00
557.3210, 37159.00
558.4960, 37174.00
559.6700, 37002.00
560.8440, 36910.00
562.0170, 36811.00
563.1910, 36704.00
564.3640, 37043.00
565.5380, 36774.00
566.7110, 36572.00
567.8840, 36892.00
569.0560, 36661.00
570.2290, 36827.00
571.4010, 36925.00
572.5740, 36885.00
573.7460, 36920.00
574.9180, 36933.80
576.0890, 36976.00
577.2610, 36988.00
578.4320, 37003.00
579.6040, 37137.00
580.7750, 37367.00
581.9450, 37392.00
583.1160, 37433.00
584.2870, 37917.00
585.4570, 37903.00
586.6270, 38144.00
587.7980, 38135.00
588.9670, 38573.00
590.1370, 38730.00
591.3070, 38613.00
592.4760, 38684.00
593.6450, 38581.00
594.8140, 38570.00
595.9830, 38524.71
597.1520, 38470.37
598.3210, 38442.00
599.4890, 38360.00
600.6570, 38405.00
601.8250, 38300.00
602.9930, 38223.00
604.1610, 38296.00
605.3290, 38056.00
606.4960, 38212.00
607.6630, 38570.00
608.8300, 38137.00
609.9970, 38363.00
611.1640, 38712.00
612.3300, 38787.00
613.4970, 38919.00
614.6630, 39177.00
615.8290, 39203.00
616.9950, 39320.00
618.1610, 39773.00
619.3260, 39916.00
620.4920, 39795.00
621.6570, 40066.00
622.8220, 40142.00
623.9870, 40590.00
625.1520, 40492.00
626.3160, 40480.00
627.4810, 40449.00
628.6450, 40255.00
629.8090, 39867.00
630.9730, 39752.00
632.1370, 39552.90
633.3000, 39415.00
634.4640, 39364.00
635.6270, 39290.00
636.7900, 39391.00
637.9530, 39424.00
639.1160, 39310.00
640.2780, 39705.00
641.4410, 39561.00
642.6030, 39752.00
643.7650, 40003.00
644.9270, 40150.00
646.0890, 40213.00
647.2500, 40495.00
648.4120, 40358.00
649.5730, 40328.00
650.7340, 40238.00
651.8950, 40396.00
653.0560, 40004.00
654.2160, 40015.00
655.3770, 39963.00
656.5370, 39689.00
657.6970, 39705.00
658.8570, 39362.00
660.0170, 39688.00
661.1760, 40205.00
662.3360, 39760.21
663.4950, 40761.00
664.6540, 39286.00
665.8130, 39401.00
666.9720, 39244.00
668.1310, 39293.00
669.2890, 39610.00
670.4470, 39395.00
671.6050, 39884.00
672.7630, 39706.00
673.9210, 40268.00
675.0790, 40227.00
676.2360, 40262.00
677.3930, 40804.00
678.5510, 40838.00
679.7080, 40926.00
680.8640, 40962.00
682.0210, 41222.00
683.1770, 41309.00
684.3340, 41285.00
685.4900, 41112.00
686.6460, 40800.00
687.8020, 40602.00
688.9570, 40513.00
690.1130, 40281.00
691.2680, 40048.00
692.4230, 40240.00
693.5780, 40222.00
694.7330, 40113.00
695.8880, 39989.00
697.0420, 40143.00
698.1960, 40000.00
699.3510, 40127.00
700.5040, 39936.00
701.6580, 40155.00
702.8120, 40236.00
703.9650, 40388.00
705.1190, 40589.00
706.2720, 40526.00
707.4250, 40851.00
708.5780, 40975.00
709.7300, 40857.00
710.8830, 41000.00
712.0350, 41102.00
713.1870, 41478.00
714.3390, 41436.00
715.4910, 41473.00
716.6430, 41386.00
717.7940, 41489.00
718.9460, 41276.00
720.0970, 41499.00
721.2480, 41149.00
722.3990, 41329.00
723.5500, 41596.00
724.7000, 41565.00
725.8500, 41774.00
727.0010, 41772.00
728.1510, 41841.00
729.3010, 41827.00
730.4500, 41566.00
731.6000, 41688.00
732.7490, 41556.00
733.8980, 41625.00
735.0470, 41660.00
736.1960, 41683.06
737.3450, 41649.00
738.4940, 41823.00
739.6420, 41828.00
740.7900, 41885.00
741.9380, 41998.02
743.0860, 42110.32
744.2340, 42218.00
745.3810, 42412.00
746.5290, 42618.00
747.6760, 42745.00
748.8230, 42775.00
749.9700, 43011.00
751.1170, 42659.00
752.2630, 42685.00
753.4100, 42373.00
754.5560, 42442.00
755.7020, 42256.00
756.8480, 41995.00
757.9940, 41692.00
759.1390, 41291.00
760.2850, 41589.00
761.4300, 41056.00
762.5750, 41481.00
763.7200, 41474.00
764.8650, 41777.00
766.0100, 41816.00
767.1540, 41604.00
768.2980, 41771.00
769.4420, 41548.00
770.5860, 41822.00
771.7300, 41647.00
772.8740, 41773.00
774.0170, 41923.00
775.1610, 41757.00
776.3040, 41978.00
777.4470, 42197.00
778.5900, 42306.00
779.7320, 42404.00
780.8750, 42609.00
782.0170, 42712.00
783.1590, 42840.00
784.3010, 42924.00
785.4430, 42940.00
786.5850, 42666.00
787.7260, 42772.00
788.8680, 42918.00
790.0090, 43165.00
791.1500, 43139.00
792.2910, 43387.00
793.4310, 43494.00
794.5720, 43582.00
795.7120, 43534.00
796.8520, 43604.00
797.9920, 43458.00
799.1320, 43564.00
800.2720, 43631.00
801.4120, 43819.00
802.5510, 44198.00
803.6900, 43717.00
804.8290, 44074.00
805.9680, 43887.00
807.1070, 43895.00
808.2450, 44206.00
809.3840, 44096.00
810.5220, 44350.00
811.6600, 44454.00
812.7980, 44406.00
813.9360, 44370.00
815.0730, 44409.00
816.2110, 44449.00
817.3480, 44387.00
818.4850, 44738.00
819.6220, 44706.00
820.7590, 44865.00
821.8960, 44794.00
823.0320, 44779.00
824.1680, 44992.00
825.3040, 45174.00
826.4400, 45052.00
827.5760, 44915.00
828.7120, 45250.00
829.8470, 45187.00
830.9830, 45200.00
832.1180, 45439.00
833.2530, 45168.00
834.3880, 45501.00
835.5220, 45765.00
836.6570, 45477.00
837.7910, 45689.00
838.9250, 45742.00
840.0590, 45756.00
841.1930, 45993.00
842.3270, 45927.00
843.4600, 45998.00
844.5940, 46297.00
845.7270, 46010.00
846.8600, 46483.00
847.9930, 46106.00
849.1250, 46184.00
850.2580, 46759.00
851.3900, 46786.00
852.5230, 46730.00
853.6550, 47025.00
854.7870, 47399.00
855.9180, 47252.00
857.0500, 47551.00
858.1810, 47751.00
859.3130, 47734.00
860.4440, 48126.00
861.5750, 47964.00
862.7050, 47687.00
863.8360, 47773.00
864.9660, 47513.00
866.0970, 47419.00
867.2270, 47186.00
868.3570, 47495.00
869.4870, 47143.00
870.6160, 47142.00
871.7460, 47497.00
872.8750, 47184.00
874.0040, 47235.00
875.1330, 47155.00
876.2620, 47086.00
877.3910, 47271.00
878.5190, 47390.00
879.6470, 47490.00
880.7760, 47557.93
881.9040, 47290.00
883.0310, 47551.00
884.1590, 47480.00
885.2870, 47314.00
886.4140, 47789.00
887.5410, 47231.00
888.6680, 47664.00
889.7950, 47803.00
890.9220, 47765.00
892.0480, 48081.00
893.1750, 48082.00
894.3010, 48051.00
895.4270, 48307.00
896.5530, 47948.00
897.6790, 47981.00
898.8040, 48181.00
899.9300, 48383.00
901.0550, 48161.00
902.1800, 48370.00
903.3050, 48482.00
904.4300, 48259.00
905.5540, 48621.00
906.6790, 48593.00
907.8030, 48720.00
908.9270, 48837.00
910.0510, 48896.00
911.1750, 48907.07
912.2990, 49074.00
913.4220, 48816.00
914.5450, 48984.00
915.6690, 48876.00
916.7920, 48983.00
917.9140, 48720.00
919.0370, 48905.00
920.1600, 48993.00
921.2820, 48841.00
922.4040, 48879.00
923.5260, 48892.65
924.6480, 48971.00
925.7700, 49041.00
926.8910, 49007.00
928.0130, 49287.00
929.1340, 49120.00
930.2550, 49366.00
931.3760, 49632.00
932.4970, 49457.00
933.6170, 49437.00
934.7380, 49583.00
935.8580, 49742.00
936.9780, 49682.00
938.0980, 49809.00
939.2180, 50182.00
940.3370, 49813.00
941.4570, 49929.00
942.5760, 49832.00
943.6950, 50383.00
944.8140, 50236.00
945.9330, 50655.00
947.0520, 50538.00
948.1700, 50116.00
949.2890, 50530.00
950.4070, 50621.00
951.5250, 50616.00
952.6430, 50588.00
953.7600, 50803.00
954.8780, 50763.00
955.9950, 51000.00
957.1120, 50767.00
958.2290, 50843.00
959.3460, 51065.00
960.4630, 51473.00
961.5800, 51501.00
962.6960, 51897.00
963.8120, 52020.82
964.9280, 52160.00
966.0440, 52345.00
967.1600, 52476.00
968.2760, 52708.00
969.3910, 53141.00
970.5060, 53164.00
971.6210, 52986.00
972.7360, 53453.00
973.8510, 52927.00
974.9660, 52611.00
976.0800, 52691.00
977.1950, 52828.00
978.3090, 53004.00
979.4230, 53204.00
980.5370, 53899.00
981.6500, 54085.00
982.7640, 54435.00
983.8770, 54951.00
984.9900, 54556.00
986.1030, 54856.00
987.2160, 54610.00
988.3290, 54014.00
989.4420, 53378.00
990.5540, 53438.00
991.6660, 52969.00
992.7780, 52883.00
993.8900, 52987.00
995.0020, 53052.00
996.1140, 52983.00
997.2250, 53182.00
998.3360, 53355.00
999.4470, 53446.00
1000.558, 53576.00
1001.669, 53649.00
1002.780, 53368.00
1003.890, 53063.00
1005.001, 52974.00
1006.111, 52819.00
1007.221, 52712.00
1008.331, 52357.00
1009.440, 52400.00
1010.550, 52344.00
1011.659, 52698.00
1012.768, 52836.00
1013.877, 52715.00
1014.986, 52663.00
1016.095, 52785.00
1017.204, 52863.00
1018.312, 52840.55
1019.420, 52840.81
1020.528, 52767.00
1021.636, 52680.00
1022.744, 52474.00
1023.852, 52300.00
1024.959, 52097.00
1026.066, 52218.00
1027.173, 52483.00
1028.280, 52259.00
1029.387, 52294.00
1030.494, 52453.00
1031.600, 52408.00
1032.707, 52893.00
1033.813, 52491.00
1034.919, 52137.00
1036.025, 52568.00
1037.130, 52595.00
1038.236, 52928.00
1039.341, 52686.00
1040.446, 52823.00
1041.552, 52835.00
1042.656, 52954.00
1043.761, 53268.00
1044.866, 53006.00
1045.970, 53164.00
1047.074, 53403.00
1048.179, 53634.00
1049.282, 53530.00
1050.386, 53784.00
1051.490, 53765.00
1052.593, 54006.00
1053.697, 54011.75
1054.800, 54106.00
1055.903, 54036.00
1057.006, 54339.00
1058.108, 54367.00
1059.211, 54117.00
1060.313, 54389.00
1061.415, 54188.00
1062.517, 54437.00
1063.619, 54246.00
1064.721, 54123.00
1065.823, 54142.00
1066.924, 54485.00
1068.025, 54573.00
1069.126, 54703.00
1070.227, 54736.00
1071.328, 54577.00
1072.429, 54792.00
1073.529, 54594.00
1074.629, 55297.00
1075.729, 55110.00
1076.829, 55290.00
1077.929, 55353.00
1079.029, 55558.00
1080.128, 56062.00
1081.228, 56125.00
1082.327, 55643.00
1083.426, 56274.00
1084.525, 56016.00
1085.623, 55753.00
1086.722, 56031.00
1087.820, 56149.00
1088.919, 55956.00
1090.017, 56063.95
1091.115, 55983.00
1092.212, 55912.00
1093.310, 56123.00
1094.407, 56009.00
1095.505, 56005.00
1096.602, 56156.00
1097.699, 55957.00
1098.795, 56383.00
1099.892, 56056.00
1100.989, 55949.00
1102.085, 56144.00
1103.181, 56051.00
1104.277, 56432.00
1105.373, 56051.00
1106.469, 56522.00
1107.564, 56348.00
1108.660, 56718.00
1109.755, 56537.00
1110.850, 56546.00
1111.945, 56810.00
1113.040, 56808.00
1114.134, 56791.48
1115.229, 56690.00
1116.323, 56677.00
1117.417, 56685.00
1118.511, 56669.00
1119.605, 56565.00
1120.698, 56499.00
1121.792, 56608.66
1122.885, 56681.99
1123.978, 56856.00
1125.071, 57011.00
1126.164, 57147.00
1127.257, 57291.00
1128.349, 57088.00
1129.442, 57218.00
1130.534, 57675.00
1131.626, 57533.00
1132.718, 57394.00
1133.810, 57387.00
1134.901, 57281.00
1135.993, 57136.00
1137.084, 57440.00
1138.175, 57275.00
1139.266, 57462.00
1140.357, 57687.00
1141.448, 57320.00
1142.538, 57439.00
1143.628, 57445.00
1144.719, 57402.00
1145.809, 57702.00
1146.898, 57529.00
1147.988, 57625.00
1149.078, 57519.00
1150.167, 57899.00
1151.256, 58172.00
1152.345, 57722.00
1153.434, 57581.00
1154.523, 57660.00
1155.612, 58050.00
1156.700, 57763.00
1157.788, 58441.00
1158.877, 58310.00
1159.964, 58442.00
1161.052, 58452.00
1162.140, 58575.00
1163.227, 58493.00
1164.315, 58654.00
1165.402, 58624.00
1166.489, 58466.00
1167.576, 59193.00
1168.663, 59001.00
1169.749, 59042.00
1170.836, 59022.00
1171.922, 59165.00
1173.008, 58967.00
1174.094, 59183.00
1175.180, 59346.00
1176.265, 58973.00
1177.351, 59675.00
1178.436, 59281.00
1179.521, 59119.00
1180.606, 59479.00
1181.691, 59544.00
1182.776, 59359.00
1183.860, 59566.00
1184.944, 59729.00
1186.029, 59542.00
1187.113, 59797.00
1188.197, 59506.00
1189.280, 59682.00
1190.364, 59863.00
1191.447, 59656.00
1192.531, 59480.00
1193.614, 59663.00
1194.697, 59934.00
1195.779, 59721.00
1196.862, 60117.00
1197.945, 60374.00
1199.027, 60449.00
1200.109, 60163.00
1201.191, 60305.00
1202.273, 60357.00
1203.355, 60447.00
1204.436, 59993.00
1205.518, 60475.00
1206.599, 60610.00
1207.680, 60133.00
1208.761, 60950.00
1209.842, 60552.00
1210.922, 61001.00
1212.003, 60934.00
1213.083, 61130.00
1214.163, 61225.00
1215.243, 61128.00
1216.323, 61290.00
1217.402, 61234.23
1218.482, 61557.00
1219.561, 61212.00
1220.641, 61143.00
1221.720, 61160.00
1222.798, 61640.00
1223.877, 61550.00
1224.956, 61775.00
1226.034, 61667.00
1227.112, 61839.00
1228.191, 61723.00
1229.269, 61886.00
1230.346, 62159.00
1231.424, 62058.00
1232.501, 62466.00
1233.579, 62432.00
1234.656, 62584.00
1235.733, 62597.00
1236.810, 62554.00
1237.886, 62667.00
1238.963, 62682.00
1240.039, 62969.00
1241.116, 63115.00
1242.192, 62692.00
1243.268, 63424.00
1244.343, 63001.00
1245.419, 63276.00
1246.494, 63336.00
1247.570, 63287.00
1248.645, 63697.00
1249.720, 63350.00
1250.795, 63637.00
1251.869, 63596.00
1252.944, 63793.00
1254.018, 63502.00
1255.093, 63900.00
1256.167, 64122.00
1257.240, 63860.00
1258.314, 64033.00
1259.388, 64283.00
1260.461, 64207.00
1261.535, 64241.00
1262.608, 64392.00
1263.681, 64482.00
1264.753, 64654.00
1265.826, 64761.97
1266.899, 64926.58
1267.971, 65030.00
1269.043, 65200.00
1270.115, 65397.00
1271.187, 65405.00
1272.259, 65497.00
1273.330, 65486.00
1274.402, 65654.00
1275.473, 65365.00
1276.544, 65634.00
1277.615, 65373.00
1278.686, 65770.00
1279.756, 65304.00
1280.827, 65319.00
1281.897, 65504.00
1282.967, 65405.00
1284.037, 65434.00
1285.107, 65488.00
1286.177, 65405.00
1287.247, 65699.00
1288.316, 65461.00
1289.385, 65838.00
1290.454, 66060.00
1291.523, 66332.00
1292.592, 66456.00
1293.661, 66386.00
1294.729, 66346.00
1295.797, 66540.00
