##NAMES=Celsian
##RRUFFID=R060152
##IDEAL CHEMISTRY=BaAl_2_Si_2_O_8_
##LOCALITY=Benallt mine, Lleyn, Wales
##OWNER=RRUFF
##SOURCE=Marcus Origlieri
##DESCRIPTION=Colorless to white elongated prismatic crystals
##STATUS=The identification of this mineral is confirmed by single-crystal X-ray diffraction and chemical analysis.
##URL=rruff.info/R060152
##MEASURED CHEMISTRY=(Ba_0.98_K_0.02_[box]_0.02_)_Î£=1_Al_2.00_Si_2.00_O_8_
##PIN_ID=M00288
##ORIENTATION=Laser parallel to b* (0 1 0). Fiducial mark perpendicular to laser is parallel to c [0 0 1]
89.46700, 12252.00
90.70600, 12880.00
91.94400, 13213.00
93.18300, 13660.00
94.42100, 14459.00
95.65900, 15397.00
96.89700, 16726.59
98.13500, 17932.00
99.37300, 20115.00
100.6100, 22222.00
101.8480, 24513.00
103.0850, 27773.00
104.3220, 33501.00
105.5590, 38799.00
106.7950, 40573.00
108.0320, 45294.00
109.2680, 48844.00
110.5040, 51162.00
111.7400, 52234.00
112.9760, 52579.00
114.2120, 51536.00
115.4470, 49501.00
116.6820, 46048.00
117.9170, 41774.00
119.1520, 37651.00
120.3870, 34609.00
121.6220, 33268.00
122.8560, 33174.00
124.0900, 34031.00
125.3240, 35303.00
126.5580, 37490.00
127.7920, 40305.00
129.0260, 43615.00
130.2590, 46783.00
131.4920, 50247.00
132.7250, 53592.00
133.9580, 56894.00
135.1910, 58782.00
136.4230, 57786.00
137.6560, 54629.00
138.8880, 49327.00
140.1200, 43405.00
141.3520, 37395.00
142.5830, 33152.00
143.8150, 29929.00
145.0460, 28111.00
146.2770, 27032.00
147.5080, 26628.00
148.7390, 27169.00
149.9700, 26492.00
151.2000, 26632.00
152.4310, 26629.00
153.6610, 26889.00
154.8910, 27834.00
156.1210, 29435.00
157.3500, 32299.00
158.5800, 36210.00
159.8090, 41627.00
161.0380, 48483.00
162.2670, 55891.00
163.4960, 64800.00
164.7240, 74738.00
165.9530, 85185.00
167.1810, 96484.00
168.4090, 108258.0
169.6370, 120617.0
170.8650, 130826.0
172.0920, 138128.0
173.3200, 140962.0
174.5470, 138222.0
175.7740, 129894.0
177.0010, 116800.0
178.2280, 101134.0
179.4540, 85704.00
180.6810, 71679.00
181.9070, 59201.00
183.1330, 50054.00
184.3590, 44006.00
185.5850, 37509.00
186.8100, 33312.00
188.0350, 30709.00
189.2610, 28835.00
190.4860, 28251.00
191.7110, 27949.00
192.9350, 28171.00
194.1600, 29300.00
195.3840, 30784.00
196.6080, 31448.00
197.8320, 31272.00
199.0560, 29262.00
200.2800, 26568.00
201.5030, 23725.00
202.7270, 21136.00
203.9500, 19356.00
205.1730, 18356.00
206.3950, 17778.00
207.6180, 17751.00
208.8410, 18118.00
210.0630, 18809.00
211.2850, 19996.00
212.5070, 21498.00
213.7290, 23356.00
214.9500, 25467.00
216.1720, 27963.00
217.3930, 30818.00
218.6140, 33942.00
219.8350, 36940.00
221.0560, 39365.00
222.2770, 40922.00
223.4970, 40709.00
224.7170, 38728.00
225.9370, 35141.00
227.1570, 31245.00
228.3770, 28269.00
229.5970, 26425.00
230.8160, 25972.00
232.0350, 26477.00
233.2540, 28472.00
234.4730, 31626.68
235.6920, 36238.00
236.9110, 41691.00
238.1290, 48629.00
239.3470, 56754.00
240.5650, 66093.00
241.7830, 77208.00
243.0010, 88376.00
244.2180, 100331.0
245.4360, 110865.0
246.6530, 118469.0
247.8700, 121640.0
249.0870, 120824.0
250.3040, 116003.0
251.5200, 109745.0
252.7370, 102720.0
253.9530, 98254.00
255.1690, 94878.00
256.3850, 91770.00
257.6000, 87071.00
258.8160, 80226.00
260.0310, 71946.00
261.2460, 61929.00
262.4610, 52156.00
263.6760, 44288.00
264.8910, 37954.00
266.1050, 32957.00
267.3200, 29307.00
268.5340, 26235.00
269.7480, 24137.00
270.9620, 22561.00
272.1750, 21400.00
273.3890, 20250.00
274.6020, 19416.00
275.8150, 19057.00
277.0280, 18417.00
278.2410, 18237.00
279.4540, 17879.00
280.6660, 17508.00
281.8790, 17101.00
283.0910, 16971.00
284.3030, 16674.00
285.5140, 16667.00
286.7260, 16898.00
287.9380, 17148.00
289.1490, 17588.00
290.3600, 18518.00
291.5710, 19498.00
292.7820, 21070.00
293.9920, 22809.00
295.2030, 24895.00
296.4130, 27951.00
297.6230, 31572.00
298.8330, 35558.00
300.0430, 40239.00
301.2520, 44964.00
302.4620, 50606.00
303.6710, 55832.00
304.8800, 60495.00
306.0890, 63453.00
307.2980, 63032.00
308.5070, 60055.00
309.7150, 53708.00
310.9230, 46089.00
312.1310, 39635.00
313.3390, 35143.00
314.5470, 26684.00
315.7550, 22604.00
316.9620, 19896.00
318.1690, 17939.00
319.3760, 16524.00
320.5830, 15328.00
321.7900, 14676.00
322.9960, 13990.00
324.2030, 13426.00
325.4090, 13152.00
326.6150, 12643.00
327.8210, 12383.00
329.0270, 12076.00
330.2320, 11922.00
331.4380, 11806.00
332.6430, 11676.00
333.8480, 11780.00
335.0530, 11710.00
336.2580, 11732.00
337.4620, 12074.00
338.6670, 12261.00
339.8710, 12687.00
341.0750, 13031.00
342.2790, 13649.00
343.4820, 14624.00
344.6860, 15601.00
345.8890, 16923.00
347.0920, 18688.00
348.2960, 20458.00
349.4980, 22932.00
350.7010, 25480.00
351.9040, 28482.00
353.1060, 31354.00
354.3080, 34242.00
355.5100, 36727.00
356.7120, 37810.00
357.9140, 37339.00
359.1150, 35558.00
360.3170, 32034.00
361.5180, 28128.00
362.7190, 24505.00
363.9200, 21539.00
365.1200, 19137.00
366.3210, 17024.00
367.5210, 15754.00
368.7210, 14799.00
369.9210, 13957.00
371.1210, 13586.00
372.3210, 13056.00
373.5200, 12708.00
374.7200, 12496.00
375.9190, 12368.00
377.1180, 12333.00
378.3170, 12418.18
379.5150, 12654.00
380.7140, 12868.00
381.9120, 13268.00
383.1110, 13727.49
384.3090, 14427.00
385.5060, 15027.00
386.7040, 15899.00
387.9020, 16850.00
389.0990, 17595.00
390.2960, 18216.00
391.4930, 18325.00
392.6900, 18066.00
393.8860, 17377.00
395.0830, 16672.00
396.2790, 16222.00
397.4750, 16003.00
398.6710, 16298.00
399.8670, 16964.00
401.0630, 18083.00
402.2580, 19478.00
403.4540, 21643.00
404.6490, 23993.00
405.8440, 28072.00
407.0390, 29648.00
408.2330, 32697.00
409.4280, 35346.00
410.6220, 37393.00
411.8160, 37904.00
413.0100, 36395.00
414.2040, 33896.00
415.3980, 30521.00
416.5910, 27552.00
417.7850, 25533.00
418.9780, 24794.00
420.1710, 25057.00
421.3640, 26068.00
422.5560, 27841.00
423.7490, 30474.00
424.9410, 33169.00
426.1330, 36289.00
427.3250, 39365.00
428.5170, 40891.00
429.7090, 40556.00
430.9000, 38148.00
432.0910, 34801.00
433.2820, 30727.00
434.4730, 26581.00
435.6640, 23540.00
436.8550, 20902.00
438.0450, 18661.00
439.2360, 17323.00
440.4260, 16252.00
441.6160, 15462.00
442.8060, 15118.00
443.9950, 14624.00
445.1850, 14555.00
446.3740, 14531.00
447.5630, 14842.00
448.7520, 15031.89
449.9410, 15441.00
451.1300, 15951.00
452.3180, 16801.00
453.5060, 17746.00
454.6950, 19393.00
455.8830, 20674.91
457.0700, 22844.00
458.2580, 24142.00
459.4450, 26304.00
460.6330, 28587.00
461.8200, 30911.00
463.0070, 32556.00
464.1940, 33365.00
465.3800, 33199.00
466.5670, 32187.00
467.7530, 31120.00
468.9390, 30227.00
470.1250, 29802.00
471.3110, 29194.00
472.4970, 28590.00
473.6820, 27523.00
474.8680, 25670.00
476.0530, 23860.00
477.2380, 22204.00
478.4230, 20977.00
479.6070, 19921.31
480.7920, 19026.00
481.9760, 18663.00
483.1600, 18422.00
484.3440, 18439.00
485.5280, 19004.00
486.7120, 19525.00
487.8950, 20317.00
489.0780, 21250.00
490.2620, 23064.00
491.4450, 24990.00
492.6270, 27559.00
493.8100, 30951.00
494.9920, 35267.00
496.1750, 40871.00
497.3570, 47703.00
498.5390, 56783.00
499.7210, 66942.00
500.9020, 79521.00
502.0840, 93782.00
503.2650, 110873.0
504.4460, 128996.0
505.6270, 147832.0
506.8080, 163964.0
507.9890, 171829.0
509.1690, 171251.0
510.3500, 160566.0
511.5300, 140896.0
512.7100, 116896.0
513.8900, 95284.00
515.0690, 76077.00
516.2490, 61196.00
517.4280, 50081.00
518.6070, 41587.00
519.7860, 35448.00
520.9650, 30840.00
522.1440, 27776.00
523.3220, 25188.00
524.5010, 23133.00
525.6790, 21408.00
526.8570, 20173.00
528.0350, 19205.00
529.2130, 18327.00
530.3900, 17697.00
531.5670, 16932.00
532.7450, 16412.00
533.9220, 15989.00
535.0980, 15468.00
536.2750, 15134.00
537.4520, 14655.00
538.6280, 14451.38
539.8040, 14277.00
540.9800, 14158.00
542.1560, 14178.00
543.3320, 14184.00
544.5070, 14105.00
545.6830, 14248.00
546.8580, 14093.00
548.0330, 14611.00
549.2080, 14422.00
550.3830, 15022.00
551.5570, 15407.00
552.7310, 15809.00
553.9060, 15979.00
555.0800, 15954.00
556.2540, 15813.00
557.4270, 15201.00
558.6010, 14912.00
559.7740, 14258.00
560.9470, 13725.00
562.1210, 13475.00
563.2930, 13117.00
564.4660, 12939.00
565.6390, 12740.00
566.8110, 12528.00
567.9830, 12497.00
569.1550, 12459.00
570.3270, 12148.00
571.4990, 12071.00
572.6710, 12152.00
573.8420, 12103.00
575.0130, 11944.00
576.1840, 12016.00
577.3550, 12028.00
578.5260, 12021.00
579.6970, 11922.00
580.8670, 11998.00
582.0370, 12063.00
583.2070, 12063.00
584.3770, 12209.00
585.5470, 12242.00
586.7170, 12165.00
587.8860, 12145.00
589.0550, 12281.00
590.2240, 12591.00
591.3930, 12486.00
592.5620, 12749.00
593.7310, 12802.00
594.8990, 12614.00
596.0670, 12627.00
597.2350, 12496.00
598.4030, 12318.00
599.5710, 12220.00
600.7390, 12148.00
601.9060, 12123.00
603.0740, 12140.00
604.2410, 12099.00
605.4080, 12144.00
606.5740, 12163.00
607.7410, 12205.15
608.9080, 12271.00
610.0740, 12372.00
611.2400, 12607.00
612.4060, 12801.82
613.5720, 12921.00
614.7370, 13027.74
615.9030, 13180.00
617.0680, 13114.00
618.2330, 13101.00
619.3980, 13091.00
620.5630, 13101.00
621.7280, 13008.52
622.8920, 12910.00
624.0570, 12823.00
625.2210, 12755.00
626.3850, 12672.00
627.5490, 12586.00
628.7120, 12522.00
629.8760, 12487.00
631.0390, 12608.00
632.2020, 12406.00
633.3650, 12496.00
634.5280, 12531.00
635.6910, 12465.00
636.8530, 12437.00
638.0160, 12519.00
639.1780, 12460.00
640.3400, 12717.00
641.5020, 12566.00
642.6640, 12857.00
643.8250, 12786.00
644.9870, 12917.00
646.1480, 13007.00
647.3090, 13007.00
648.4700, 13120.00
649.6300, 13192.00
650.7910, 13387.00
651.9510, 13456.00
653.1120, 13352.00
654.2720, 13579.00
655.4320, 13589.00
656.5910, 13817.00
657.7510, 13931.00
658.9100, 13957.00
660.0690, 14149.00
661.2290, 14390.18
662.3880, 14703.11
663.5460, 15085.00
664.7050, 15572.00
665.8630, 16136.00
667.0220, 16724.00
668.1800, 17415.00
669.3380, 18283.00
670.4950, 19471.00
671.6530, 21110.00
672.8100, 22693.00
673.9680, 25086.00
675.1250, 27329.00
676.2820, 32416.00
677.4390, 34326.00
678.5950, 37736.00
679.7520, 41400.00
680.9080, 43882.00
682.0640, 45849.00
683.2200, 46911.00
684.3760, 45886.00
685.5320, 43594.00
686.6870, 40012.00
687.8420, 36185.00
688.9980, 32278.00
690.1530, 29158.00
691.3070, 26714.00
692.4620, 24837.00
693.6170, 23307.00
694.7710, 22319.00
695.9250, 21798.00
697.0790, 21349.00
698.2330, 20720.00
699.3870, 20589.00
700.5400, 20659.00
701.6940, 20625.00
702.8470, 20856.00
704.0000, 21472.00
705.1530, 22240.00
706.3050, 23536.00
707.4580, 24909.00
708.6100, 26325.00
709.7630, 28453.00
710.9150, 30439.00
712.0660, 31742.00
713.2180, 33120.00
714.3700, 33276.00
715.5210, 32801.00
716.6720, 31647.00
717.8240, 29679.00
718.9740, 27823.00
720.1250, 26321.00
721.2760, 25038.00
722.4260, 24194.00
723.5770, 23880.00
724.7270, 23211.00
725.8770, 23078.00
727.0260, 22381.00
728.1760, 21732.00
729.3250, 21013.00
730.4750, 20477.00
731.6240, 19796.00
732.7730, 19271.00
733.9220, 18783.00
735.0700, 18691.39
736.2190, 18920.00
737.3670, 19122.00
738.5150, 19525.00
739.6630, 20570.00
740.8110, 21680.00
741.9590, 22999.00
743.1060, 24988.00
744.2540, 27303.00
745.4010, 30007.00
746.5480, 33251.00
747.6950, 36668.00
748.8410, 39660.00
749.9880, 42226.00
751.1340, 43271.00
752.2800, 43265.00
753.4260, 40774.00
754.5720, 37401.00
755.7180, 33617.00
756.8640, 30112.00
758.0090, 26838.00
759.1540, 25005.00
760.2990, 22504.00
761.4440, 20746.00
762.5890, 19411.00
763.7340, 18416.00
764.8780, 17558.00
766.0220, 16997.00
767.1660, 16355.00
768.3100, 15957.17
769.4540, 15671.00
770.5980, 15335.00
771.7410, 15142.00
772.8840, 14828.00
774.0280, 14756.00
775.1700, 14697.00
776.3130, 14661.00
777.4560, 14526.00
778.5980, 14439.00
779.7410, 14310.00
780.8830, 14247.37
782.0250, 14129.30
783.1670, 14108.00
784.3080, 13920.00
785.4500, 13794.00
786.5910, 13694.00
787.7320, 13678.00
788.8730, 13606.00
790.0140, 13334.00
791.1550, 13463.00
792.2950, 13424.00
793.4360, 13251.00
794.5760, 13364.00
795.7160, 13167.00
796.8560, 13262.00
797.9960, 13145.00
799.1350, 13245.00
800.2750, 13206.00
801.4140, 13134.00
802.5530, 13248.00
803.6920, 13238.00
804.8310, 13129.00
805.9690, 13087.00
807.1080, 13198.00
808.2460, 13055.00
809.3840, 13035.00
810.5220, 13253.00
811.6600, 13194.00
812.7970, 13186.00
813.9350, 13157.00
815.0720, 12999.00
816.2090, 13218.00
817.3460, 13178.00
818.4830, 13341.00
819.6200, 13196.00
820.7560, 13112.00
821.8930, 13085.00
823.0290, 13196.00
824.1650, 13095.00
825.3010, 13132.00
826.4360, 13250.00
827.5720, 13069.00
828.7070, 13227.00
829.8420, 13105.00
830.9770, 12992.00
832.1120, 13085.00
833.2470, 13036.00
834.3820, 13173.00
835.5160, 13204.00
836.6500, 13118.00
837.7840, 13076.00
838.9180, 12897.00
840.0520, 13129.00
841.1860, 13164.00
842.3190, 12896.00
843.4520, 13174.00
844.5850, 13203.00
845.7180, 13109.00
846.8510, 13140.00
847.9840, 13191.00
849.1160, 13211.00
850.2490, 13258.86
851.3810, 13278.13
852.5130, 13329.63
853.6450, 13334.00
854.7760, 13335.00
855.9080, 13399.00
857.0390, 13317.00
858.1700, 13434.00
859.3010, 13331.00
860.4320, 13398.00
861.5630, 13361.00
862.6930, 13416.00
863.8240, 13393.44
864.9540, 13330.00
866.0840, 13336.00
867.2140, 13294.00
868.3440, 13232.00
869.4730, 13088.00
870.6030, 13180.00
871.7320, 13431.00
872.8610, 13266.96
873.9900, 13440.00
875.1190, 13146.00
876.2470, 13278.00
877.3760, 13227.00
878.5040, 13229.00
879.6320, 13334.00
880.7600, 13296.00
881.8880, 13265.00
883.0150, 13241.00
884.1430, 13255.00
885.2700, 13344.00
886.3970, 13379.00
887.5240, 13427.00
888.6510, 13279.00
889.7780, 13285.00
890.9040, 13431.00
892.0310, 13331.00
893.1570, 13388.00
894.2830, 13307.00
895.4090, 13319.00
896.5350, 13567.00
897.6600, 13564.00
898.7860, 13545.00
899.9110, 13588.00
901.0360, 13605.00
902.1610, 13624.00
903.2860, 13605.00
904.4100, 13644.00
905.5350, 13554.00
906.6590, 13719.00
907.7830, 13838.00
908.9070, 13750.00
910.0310, 13782.00
911.1540, 13775.00
912.2780, 13824.00
913.4010, 14032.00
914.5240, 13869.00
915.6470, 14015.00
916.7700, 13867.00
917.8930, 14096.00
919.0150, 13943.00
920.1380, 14078.00
921.2600, 14177.00
922.3820, 14147.00
923.5040, 14263.00
924.6260, 14215.00
925.7470, 14238.00
926.8690, 14530.00
927.9900, 14602.00
929.1110, 14727.03
930.2320, 14710.00
931.3530, 14875.00
932.4730, 14922.00
933.5940, 14827.00
934.7140, 15196.00
935.8340, 15293.00
936.9540, 15453.00
938.0740, 16007.00
939.1930, 16527.74
940.3130, 16688.69
941.4320, 16827.79
942.5510, 16946.30
943.6700, 16982.56
944.7890, 17125.03
945.9080, 17224.93
947.0260, 17253.83
948.1450, 17322.22
949.2630, 17368.84
950.3810, 17394.87
951.4990, 17338.65
952.6170, 17388.64
953.7340, 17396.05
954.8520, 17401.73
955.9690, 17466.65
957.0860, 17636.00
958.2030, 17197.00
959.3200, 17595.00
960.4360, 17491.00
961.5530, 17478.00
962.6690, 17932.72
963.7850, 18159.19
964.9010, 18820.00
966.0170, 19227.00
967.1330, 19894.00
968.2480, 20761.00
969.3630, 21351.00
970.4790, 21495.00
971.5940, 22188.00
972.7080, 22196.00
973.8230, 22451.00
974.9380, 23508.00
976.0520, 25002.00
977.1660, 27156.00
978.2800, 30002.00
979.3940, 33916.00
980.5080, 38385.00
981.6220, 43718.00
982.7350, 48908.00
983.8480, 53706.00
984.9610, 56350.00
986.0740, 55701.00
987.1870, 52106.00
988.3000, 46477.00
989.4120, 40889.00
990.5250, 36255.00
991.6370, 32237.00
992.7490, 29514.00
993.8610, 27713.00
994.9720, 26306.00
996.0840, 25485.00
997.1950, 24463.00
998.3060, 23770.00
999.4170, 23069.00
1000.528, 22661.00
1001.639, 22079.00
1002.750, 22024.00
1003.860, 21921.00
1004.970, 21963.00
1006.080, 22263.00
1007.190, 22762.00
1008.300, 23398.00
1009.410, 23998.00
1010.519, 24798.00
1011.628, 25621.00
1012.738, 26152.00
1013.846, 26334.00
1014.955, 26395.00
1016.064, 25957.00
1017.172, 25009.00
1018.281, 24061.00
1019.389, 23321.00
1020.497, 22217.00
1021.605, 21504.00
1022.713, 21196.00
1023.820, 20759.00
1024.928, 20495.00
1026.035, 20552.00
1027.142, 20574.13
1028.249, 20882.00
1029.356, 21102.00
1030.462, 21234.00
1031.569, 21614.00
1032.675, 21603.00
1033.781, 21347.00
1034.887, 20894.00
1035.993, 20377.00
1037.098, 19594.00
1038.204, 18822.00
1039.309, 18368.00
1040.415, 17741.00
1041.520, 17435.00
1042.624, 17351.00
1043.729, 17011.00
1044.834, 17094.00
1045.938, 17047.00
1047.042, 17181.00
1048.146, 17425.00
1049.250, 17858.00
1050.354, 17750.00
1051.458, 18777.00
1052.561, 18486.00
1053.664, 18616.00
1054.767, 18788.00
1055.870, 18513.00
1056.973, 18613.00
1058.076, 18360.00
1059.178, 18164.00
1060.281, 17662.00
1061.383, 17304.00
1062.485, 16928.00
1063.587, 16662.00
1064.688, 16482.00
1065.790, 16234.00
1066.891, 16110.00
1067.993, 15955.00
1069.094, 15811.67
1070.195, 15767.00
1071.295, 15611.00
1072.396, 15538.00
1073.496, 15508.00
1074.597, 15403.00
1075.697, 15530.00
1076.797, 15418.00
1077.897, 15560.00
1078.996, 15321.00
1080.096, 15660.00
1081.195, 15394.00
1082.294, 15333.00
1083.393, 15537.00
1084.492, 15604.00
1085.591, 15432.00
1086.689, 15781.00
1087.788, 15650.73
1088.886, 15902.00
1089.984, 15662.00
1091.082, 15952.00
1092.180, 16058.00
1093.277, 16094.00
1094.375, 16324.00
1095.472, 16392.00
1096.569, 16519.00
1097.666, 16472.00
1098.763, 16390.00
1099.860, 16352.81
1100.956, 16230.74
1102.053, 16103.00
1103.149, 15961.00
1104.245, 15851.45
1105.341, 15730.46
1106.436, 15623.00
1107.532, 15502.00
1108.627, 15388.00
1109.723, 15260.00
1110.818, 15432.00
1111.913, 15446.00
1113.007, 15309.00
1114.102, 15317.00
1115.197, 15272.00
1116.291, 14978.00
1117.385, 15126.00
1118.479, 15151.00
1119.573, 15032.00
1120.666, 15154.00
1121.760, 15088.00
1122.853, 15016.00
1123.947, 15095.00
1125.040, 15093.00
1126.132, 14950.00
1127.225, 14957.00
1128.318, 14904.00
1129.410, 15104.00
1130.502, 14935.00
1131.595, 14905.00
1132.687, 15066.00
1133.778, 14878.00
1134.870, 15033.00
1135.961, 14901.00
1137.053, 15054.00
1138.144, 14979.00
1139.235, 14925.00
1140.326, 15128.00
1141.416, 15019.00
1142.507, 15047.00
1143.597, 14860.00
1144.688, 15044.00
1145.778, 14988.00
1146.868, 14873.00
1147.957, 14888.00
1149.047, 15011.00
1150.136, 15064.00
1151.226, 14916.00
1152.315, 14852.00
1153.404, 14956.00
1154.493, 14898.00
1155.581, 14916.14
1156.670, 14863.00
1157.758, 14883.00
1158.846, 14908.00
1159.934, 14808.00
1161.022, 14936.00
1162.110, 14694.00
1163.198, 14759.00
1164.285, 14790.00
1165.372, 14921.00
1166.459, 14977.00
1167.546, 14875.00
1168.633, 14932.00
1169.720, 15001.00
1170.806, 15075.00
1171.892, 14976.00
1172.979, 14999.00
1174.065, 15037.00
1175.150, 15111.00
1176.236, 14920.00
1177.322, 14959.00
1178.407, 15073.00
1179.492, 14872.00
1180.577, 14769.00
1181.662, 14973.00
1182.747, 14986.00
1183.832, 14993.00
1184.916, 14909.00
1186.000, 14941.00
1187.084, 14960.00
1188.168, 14891.00
1189.252, 15033.00
1190.336, 14941.00
1191.419, 14978.00
1192.503, 15086.00
1193.586, 14971.00
1194.669, 15051.00
1195.752, 15001.00
1196.835, 15045.00
1197.917, 15107.00
1199.000, 14978.00
1200.082, 15055.00
1201.164, 14953.00
1202.246, 14925.00
1203.328, 15123.00
1204.409, 14969.00
1205.491, 14941.00
1206.572, 15033.00
1207.653, 15064.00
1208.734, 15172.00
1209.815, 15010.00
1210.896, 15186.00
1211.976, 14968.00
1213.057, 15162.00
1214.137, 15076.00
1215.217, 15194.00
1216.297, 15283.00
1217.377, 15263.96
1218.456, 15234.00
1219.536, 15315.00
1220.615, 15248.00
1221.694, 15285.91
1222.773, 15256.00
1223.852, 15217.00
1224.931, 15194.00
1226.009, 15304.00
1227.088, 15093.00
1228.166, 15335.00
1229.244, 15308.00
1230.322, 15224.00
1231.400, 15362.00
1232.477, 15336.00
1233.555, 15336.00
1234.632, 15342.00
1235.709, 15360.16
1236.786, 15435.00
1237.863, 15419.00
1238.939, 15451.75
1240.016, 15473.00
1241.092, 15457.00
1242.168, 15499.00
1243.245, 15541.00
1244.320, 15410.00
1245.396, 15514.00
1246.472, 15600.00
1247.547, 15331.00
1248.622, 15426.00
1249.697, 15365.00
1250.772, 15317.00
1251.847, 15443.00
1252.922, 15572.00
1253.996, 15508.00
1255.071, 15346.00
1256.145, 15496.00
1257.219, 15511.00
1258.293, 15591.00
1259.366, 15643.00
1260.440, 15573.00
1261.513, 15562.00
1262.587, 15490.00
1263.660, 15682.00
1264.733, 15702.00
1265.805, 15611.00
1266.878, 15842.00
1267.951, 15667.00
1269.023, 15890.00
