##NAMES=Celsian
##RRUFFID=R060152
##IDEAL CHEMISTRY=BaAl_2_Si_2_O_8_
##LOCALITY=Benallt mine, Lleyn, Wales
##OWNER=RRUFF
##SOURCE=Marcus Origlieri
##DESCRIPTION=Colorless to white elongated prismatic crystals
##STATUS=The identification of this mineral is confirmed by single-crystal X-ray diffraction and chemical analysis.
##URL=rruff.info/R060152
##MEASURED CHEMISTRY=(Ba_0.98_K_0.02_[box]_0.02_)_Î£=1_Al_2.00_Si_2.00_O_8_
##PIN_ID=M00479
##ORIENTATION=Laser parallel to -c* (0 0 -1). Fiducial mark perpendicular to laser is parallel to a [1 0 0]
92.44100, 36181.00
93.67200, 37878.00
94.90400, 39155.00
96.13500, 40681.00
97.36600, 42333.00
98.59700, 44725.00
99.82800, 47235.00
101.0590, 50107.00
102.2900, 53419.00
103.5200, 57702.00
104.7500, 60992.00
105.9810, 64265.00
107.2110, 66510.00
108.4410, 66264.00
109.6700, 63664.00
110.9000, 59408.00
112.1300, 54926.00
113.3590, 51007.00
114.5880, 47992.00
115.8170, 46063.00
117.0460, 44522.00
118.2750, 43623.00
119.5040, 43662.00
120.7320, 45352.00
121.9610, 47467.00
123.1890, 48712.00
124.4170, 47522.00
125.6450, 44766.00
126.8730, 42983.00
128.1010, 42090.65
129.3280, 42019.57
130.5560, 41901.89
131.7830, 41740.40
133.0100, 41403.30
134.2380, 41292.81
135.4640, 41091.73
136.6910, 40932.00
137.9180, 40775.57
139.1440, 40655.98
140.3710, 40489.76
141.5970, 40279.77
142.8230, 39894.17
144.0490, 39923.00
145.2750, 39954.28
146.5000, 40071.40
147.7260, 40142.07
148.9510, 40168.78
150.1770, 40019.89
151.4020, 40097.75
152.6270, 40084.74
153.8520, 40437.52
155.0760, 40728.53
156.3010, 40975.77
157.5250, 41047.20
158.7500, 41383.00
159.9740, 41815.00
161.1980, 42636.00
162.4220, 43476.00
163.6450, 44700.00
164.8690, 45717.00
166.0920, 46755.00
167.3160, 47825.00
168.5390, 48274.41
169.7620, 48758.00
170.9850, 48515.00
172.2080, 47960.00
173.4300, 46829.00
174.6530, 45635.00
175.8750, 44934.00
177.0970, 44347.00
178.3190, 43329.00
179.5410, 42673.00
180.7630, 42578.00
181.9850, 42336.00
183.2060, 41939.00
184.4270, 42281.00
185.6490, 42206.00
186.8700, 42038.00
188.0910, 42038.00
189.3110, 42010.00
190.5320, 42162.00
191.7530, 42121.00
192.9730, 42165.00
194.1930, 42273.00
195.4130, 42290.00
196.6330, 42170.00
197.8530, 42186.00
199.0730, 42263.00
200.2920, 42439.00
201.5120, 42564.00
202.7310, 42490.00
203.9500, 42337.00
205.1690, 42600.00
206.3880, 42539.39
207.6070, 42758.00
208.8250, 42645.00
210.0440, 42612.81
211.2620, 42775.75
212.4800, 42892.23
213.6980, 42964.77
214.9160, 42861.70
216.1340, 43326.00
217.3510, 43431.00
218.5690, 43365.00
219.7860, 43751.00
221.0030, 43825.00
222.2200, 43843.00
223.4370, 43855.00
224.6540, 44127.00
225.8700, 43956.00
227.0870, 44082.00
228.3030, 44017.00
229.5190, 44033.00
230.7350, 44317.00
231.9510, 44428.00
233.1670, 44812.00
234.3820, 45261.00
235.5980, 46057.00
236.8130, 46714.00
238.0280, 47958.00
239.2430, 49197.00
240.4580, 50922.00
241.6730, 52064.00
242.8880, 53807.00
244.1020, 55048.00
245.3160, 55883.00
246.5300, 56314.00
247.7450, 56032.00
248.9580, 55916.00
250.1720, 54485.00
251.3860, 53729.00
252.5990, 52427.00
253.8130, 51495.00
255.0260, 51100.00
256.2390, 50425.00
257.4520, 50261.00
258.6640, 49743.00
259.8770, 49190.00
261.0890, 48627.00
262.3020, 48158.00
263.5140, 47379.00
264.7260, 47240.00
265.9380, 46725.00
267.1500, 46444.00
268.3610, 46345.00
269.5730, 46063.00
270.7840, 46529.00
271.9950, 46255.00
273.2060, 46174.00
274.4170, 45878.00
275.6280, 45883.00
276.8390, 46052.00
278.0490, 45713.00
279.2590, 45903.00
280.4690, 45848.00
281.6800, 46171.00
282.8890, 45984.00
284.0990, 45939.00
285.3090, 45997.00
286.5180, 46260.00
287.7280, 45775.00
288.9370, 46413.00
290.1460, 45977.00
291.3550, 46586.00
292.5630, 46694.00
293.7720, 47084.00
294.9800, 47222.00
296.1890, 47417.00
297.3970, 47579.00
298.6050, 48213.00
299.8130, 48935.00
301.0200, 49858.00
302.2280, 50556.00
303.4360, 51128.00
304.6430, 52106.00
305.8500, 52499.00
307.0570, 52693.00
308.2640, 52120.00
309.4710, 52201.00
310.6770, 51221.14
311.8840, 50432.00
313.0900, 49307.00
314.2960, 48849.00
315.5020, 48318.00
316.7080, 48122.00
317.9140, 47857.00
319.1190, 47885.00
320.3250, 47670.00
321.5300, 47781.00
322.7350, 47296.00
323.9400, 47531.00
325.1450, 47811.00
326.3500, 47442.00
327.5540, 47907.00
328.7580, 47845.00
329.9630, 47710.00
331.1670, 47609.00
332.3710, 47794.00
333.5750, 48005.00
334.7780, 47980.00
335.9820, 48580.00
337.1850, 47857.00
338.3880, 48383.00
339.5920, 48273.00
340.7950, 48638.00
341.9970, 48629.00
343.2000, 48743.00
344.4030, 48817.00
345.6050, 49519.00
346.8070, 49946.00
348.0090, 50329.00
349.2110, 51381.00
350.4130, 52030.00
351.6150, 52957.00
352.8160, 54059.00
354.0170, 55217.00
355.2190, 56005.00
356.4200, 56946.00
357.6210, 56719.00
358.8210, 56398.00
360.0220, 55120.00
361.2220, 53966.00
362.4230, 52893.00
363.6230, 51856.00
364.8230, 51359.00
366.0230, 50629.00
367.2230, 50534.00
368.4220, 50118.00
369.6220, 50425.00
370.8210, 49731.00
372.0200, 49919.00
373.2190, 49942.00
374.4180, 49945.00
375.6170, 50041.00
376.8150, 49974.00
378.0140, 50188.00
379.2120, 49893.00
380.4100, 50441.00
381.6080, 50650.00
382.8060, 50406.00
384.0040, 50877.00
385.2010, 51301.00
386.3980, 51186.00
387.5960, 52227.00
388.7930, 52989.00
389.9900, 53878.00
391.1870, 54496.00
392.3830, 54314.00
393.5800, 54690.00
394.7760, 54482.00
395.9720, 53968.00
397.1680, 53112.00
398.3640, 52581.00
399.5600, 52124.00
400.7560, 51902.00
401.9510, 51837.00
403.1460, 51490.00
404.3420, 51603.00
405.5370, 51420.00
406.7320, 51765.00
407.9260, 51636.00
409.1210, 51838.00
410.3150, 51802.00
411.5100, 51888.00
412.7040, 51783.00
413.8980, 52149.00
415.0920, 52080.00
416.2850, 52218.00
417.4790, 52218.00
418.6720, 52336.00
419.8650, 53070.00
421.0590, 53050.00
422.2510, 53619.00
423.4440, 53722.00
424.6370, 54566.00
425.8290, 54647.00
427.0220, 55141.14
428.2140, 55135.15
429.4060, 55082.71
430.5980, 54986.33
431.7900, 54714.34
432.9810, 54747.00
434.1730, 54556.00
435.3640, 54361.00
436.5550, 54345.00
437.7460, 54468.00
438.9370, 54406.00
440.1280, 54783.00
441.3190, 54937.00
442.5090, 55209.00
443.6990, 55616.00
444.8890, 55956.00
446.0790, 56257.00
447.2690, 57004.00
448.4590, 57339.00
449.6480, 58396.00
450.8380, 59487.00
452.0270, 60982.00
453.2160, 63344.00
454.4050, 65693.00
455.5940, 68914.00
456.7820, 72952.00
457.9710, 77766.00
459.1590, 83178.00
460.3470, 88739.00
461.5350, 92504.00
462.7230, 94617.00
463.9110, 95169.00
465.0990, 92648.00
466.2860, 88684.00
467.4730, 83402.00
468.6600, 79152.00
469.8470, 75232.00
471.0340, 72438.00
472.2210, 70141.00
473.4070, 68148.00
474.5940, 66130.00
475.7800, 64187.00
476.9660, 62625.00
478.1520, 61753.00
479.3380, 60986.00
480.5230, 60376.00
481.7090, 60292.00
482.8940, 59976.00
484.0790, 59837.00
485.2650, 60348.00
486.4490, 60519.00
487.6340, 60889.00
488.8190, 61614.00
490.0030, 62527.00
491.1870, 63763.00
492.3720, 64821.00
493.5550, 66859.00
494.7390, 69421.00
495.9230, 72772.00
497.1060, 77117.00
498.2900, 83431.00
499.4730, 90877.00
500.6560, 101763.0
501.8390, 115590.0
503.0220, 131658.0
504.2040, 149907.0
505.3870, 166502.0
506.5690, 181188.0
507.7510, 187510.0
508.9330, 186899.0
510.1150, 174517.0
511.2970, 157987.0
512.4780, 139220.0
513.6600, 120525.0
514.8410, 105438.0
516.0220, 94052.00
517.2030, 86502.00
518.3840, 80873.00
519.5650, 77112.00
520.7450, 74463.00
521.9250, 73716.00
523.1060, 72625.00
524.2860, 72425.00
525.4660, 72280.00
526.6450, 72180.00
527.8250, 71688.00
529.0040, 70280.00
530.1840, 68844.00
531.3630, 67765.00
532.5420, 65998.00
533.7200, 64713.00
534.8990, 63845.00
536.0780, 62941.00
537.2560, 62392.00
538.4340, 61820.00
539.6120, 61593.00
540.7900, 61537.00
541.9680, 61031.00
543.1460, 60909.00
544.3230, 61126.00
545.5000, 60690.00
546.6770, 60475.00
547.8540, 60849.00
549.0310, 60843.00
550.2080, 60920.00
551.3840, 60800.00
552.5610, 60908.00
553.7370, 60832.00
554.9130, 60692.00
556.0890, 60673.00
557.2650, 60568.00
558.4400, 60639.00
559.6160, 60701.00
560.7910, 60888.00
561.9660, 60882.00
563.1410, 60841.00
564.3160, 61063.00
565.4910, 60967.50
566.6650, 60852.00
567.8400, 60824.00
569.0140, 60860.00
570.1880, 60557.00
571.3620, 60743.00
572.5360, 60902.00
573.7090, 60958.00
574.8830, 60673.00
576.0560, 60773.00
577.2290, 60559.00
578.4020, 60729.22
579.5750, 60736.34
580.7480, 60964.00
581.9200, 61049.00
583.0930, 60841.00
584.2650, 61332.00
585.4370, 61827.00
586.6090, 61619.00
587.7810, 61868.00
588.9520, 61652.00
590.1240, 61878.00
591.2950, 61960.00
592.4660, 62307.00
593.6370, 62081.00
594.8080, 62182.00
595.9790, 62403.00
597.1500, 61783.00
598.3200, 62136.00
599.4900, 61741.00
600.6600, 61925.00
601.8300, 62056.00
603.0000, 61586.00
604.1700, 61828.00
605.3390, 62173.00
606.5080, 61765.00
607.6770, 62070.00
608.8460, 61977.00
610.0150, 62331.00
611.1840, 62407.00
612.3520, 62661.00
613.5210, 62774.00
614.6890, 63191.00
615.8570, 63155.00
617.0250, 63286.00
618.1930, 63190.00
619.3600, 63603.00
620.5280, 63599.00
621.6950, 64186.00
622.8620, 63713.00
624.0290, 63848.00
625.1960, 64248.00
626.3630, 63707.00
627.5290, 63975.00
628.6960, 63508.00
629.8620, 64025.00
631.0280, 63655.00
632.1940, 64006.00
633.3600, 63699.00
634.5250, 63600.00
635.6910, 63939.00
636.8560, 63542.00
638.0210, 64195.00
639.1860, 64222.00
640.3510, 64062.00
641.5150, 63751.00
642.6800, 64088.00
643.8440, 63978.00
645.0080, 64529.00
646.1720, 64424.00
647.3360, 64737.00
648.5000, 64438.00
649.6640, 64490.00
650.8270, 64837.00
651.9900, 64812.00
653.1530, 64633.00
654.3160, 64823.00
655.4790, 65007.00
656.6420, 64959.00
657.8040, 65023.00
658.9660, 64909.00
660.1290, 64994.00
661.2910, 65047.00
662.4520, 65025.00
663.6140, 65172.73
664.7760, 65077.00
665.9370, 65404.00
667.0980, 65677.00
668.2590, 65781.00
669.4200, 65753.00
670.5810, 65937.00
671.7420, 66122.00
672.9020, 66502.00
674.0620, 66904.00
675.2220, 67396.42
676.3820, 67789.00
677.5420, 68606.00
678.7020, 69450.00
679.8610, 70184.00
681.0210, 70349.00
682.1800, 70960.00
683.3390, 70905.00
684.4980, 70841.00
685.6560, 70207.00
686.8150, 69259.00
687.9730, 68941.00
689.1320, 67837.00
690.2900, 67421.00
691.4480, 67247.00
692.6050, 66642.00
693.7630, 66629.00
694.9200, 66665.00
696.0780, 66464.00
697.2350, 66547.00
698.3920, 66689.00
699.5490, 66432.00
700.7050, 66985.00
701.8620, 66789.00
703.0180, 66696.00
704.1740, 66872.00
705.3300, 67054.20
706.4860, 67697.00
707.6420, 67823.00
708.7970, 68581.00
709.9530, 69143.00
711.1080, 69495.00
712.2630, 69952.00
713.4180, 69969.00
714.5730, 70287.00
715.7280, 70180.00
716.8820, 70261.00
718.0360, 69641.00
719.1900, 69537.00
720.3440, 69344.00
721.4980, 68807.00
722.6520, 69527.00
723.8050, 69222.00
724.9590, 69125.00
726.1120, 69122.00
727.2650, 69265.00
728.4180, 69079.00
729.5700, 69017.00
730.7230, 68772.00
731.8750, 68382.00
733.0280, 68534.00
734.1800, 68273.48
735.3320, 68089.00
736.4830, 68063.00
737.6350, 68273.00
738.7860, 68136.00
739.9380, 68228.00
741.0890, 68568.00
742.2400, 68289.00
743.3910, 68816.00
744.5410, 68370.00
745.6920, 69000.00
746.8420, 69111.00
747.9920, 68979.00
749.1420, 69372.00
750.2920, 69626.00
751.4420, 69749.00
752.5910, 69874.00
753.7410, 69852.00
754.8900, 69496.00
756.0390, 69476.00
757.1880, 69346.37
758.3370, 69412.00
759.4850, 69237.00
760.6340, 69318.00
761.7820, 69420.00
762.9300, 69372.03
764.0780, 69397.06
765.2260, 69351.00
766.3730, 69345.00
767.5210, 69163.00
768.6680, 69155.00
769.8150, 69574.00
770.9620, 69366.00
772.1090, 69670.00
773.2560, 69493.00
774.4020, 69931.00
775.5490, 69544.00
776.6950, 69348.00
777.8410, 69618.00
778.9870, 69851.00
780.1330, 69596.00
781.2780, 69764.00
782.4230, 69753.95
783.5690, 70071.00
784.7140, 69774.00
785.8590, 69856.00
787.0030, 69851.00
788.1480, 70187.00
789.2920, 70184.00
790.4370, 70238.35
791.5810, 70640.00
792.7250, 70334.00
793.8690, 70260.00
795.0120, 70476.00
796.1560, 70537.00
797.2990, 70663.00
798.4420, 70372.02
799.5850, 70798.44
800.7280, 71070.02
801.8710, 71195.06
803.0130, 70734.70
804.1550, 71030.20
805.2980, 71022.84
806.4400, 71003.00
807.5810, 71404.83
808.7230, 71029.59
809.8650, 71424.80
811.0060, 71512.39
812.1470, 71740.73
813.2880, 71664.30
814.4290, 71681.99
815.5700, 72004.58
816.7110, 72158.34
817.8510, 72046.76
818.9910, 72283.99
820.1310, 71897.98
821.2710, 72058.88
822.4110, 72455.73
823.5510, 72359.46
824.6900, 72602.20
825.8290, 72715.80
826.9680, 72242.54
828.1070, 72789.90
829.2460, 72895.87
830.3850, 72548.63
831.5230, 73060.96
832.6620, 72776.20
833.8000, 72775.91
834.9380, 72989.75
836.0760, 72980.37
837.2130, 73322.86
838.3510, 73128.00
839.4880, 73062.00
840.6250, 73391.00
841.7620, 73522.00
842.8990, 73472.00
844.0360, 73622.50
845.1720, 73522.00
846.3090, 73737.00
847.4450, 73690.00
848.5810, 73901.00
849.7170, 73891.00
850.8530, 74285.00
851.9880, 74082.00
853.1240, 74283.00
854.2590, 74355.00
855.3940, 74341.00
856.5290, 74621.00
857.6640, 74411.00
858.7980, 74410.00
859.9330, 74662.00
861.0670, 74919.00
862.2010, 74932.97
863.3350, 74939.00
864.4690, 74958.00
865.6030, 74897.00
866.7360, 74652.00
867.8690, 74598.00
869.0020, 74661.92
870.1350, 74654.43
871.2680, 74857.00
872.4010, 74935.00
873.5330, 74966.00
874.6660, 75248.00
875.7980, 75337.92
876.9300, 75493.00
878.0620, 75608.00
879.1930, 75516.00
880.3250, 75459.00
881.4560, 75562.00
882.5870, 75598.00
883.7180, 75541.00
884.8490, 75373.00
885.9800, 75538.00
887.1100, 75726.00
888.2410, 75987.00
889.3710, 75840.00
890.5010, 76067.62
891.6310, 75853.00
892.7610, 76191.00
893.8900, 76271.00
895.0200, 76181.00
896.1490, 76303.00
897.2780, 76112.00
898.4070, 76349.80
899.5360, 76461.00
900.6640, 76705.00
901.7920, 76767.00
902.9210, 76805.00
904.0490, 76905.00
905.1770, 77089.00
906.3040, 77268.00
907.4320, 77290.00
908.5600, 77483.00
909.6870, 77776.00
910.8140, 77830.00
911.9410, 77772.00
913.0680, 77542.00
914.1940, 78175.00
915.3210, 77903.00
916.4470, 78572.00
917.5730, 78181.00
918.6990, 78341.00
919.8250, 78220.00
920.9500, 78608.00
922.0760, 78719.00
923.2010, 78355.00
924.3260, 78832.00
925.4510, 78789.00
926.5760, 78748.00
927.7010, 79101.00
928.8250, 79404.00
929.9500, 79504.00
931.0740, 79390.00
932.1980, 79386.00
933.3220, 79665.00
934.4450, 79661.79
935.5690, 79917.00
936.6920, 79915.00
937.8150, 80036.00
938.9380, 80111.00
940.0610, 80377.00
941.1840, 80239.00
942.3060, 80671.73
943.4290, 80762.50
944.5510, 80806.83
945.6730, 80807.20
946.7950, 80631.98
947.9160, 80683.52
949.0380, 80644.17
950.1590, 80601.11
951.2800, 80684.57
952.4010, 80788.90
953.5220, 80883.89
954.6430, 80911.87
955.7630, 80881.21
956.8840, 80352.91
958.0040, 80668.22
959.1240, 80768.28
960.2440, 80943.61
961.3640, 80811.00
962.4830, 80824.00
963.6030, 80946.00
964.7220, 80938.00
965.8410, 81237.00
966.9600, 81265.00
968.0780, 81755.00
969.1970, 82114.00
970.3150, 82034.00
971.4340, 82804.00
972.5520, 83596.00
973.6700, 84067.00
974.7870, 85015.00
975.9050, 85970.00
977.0220, 87903.00
978.1390, 90038.00
979.2560, 92585.00
980.3730, 95819.00
981.4900, 98003.00
982.6070, 101125.0
983.7230, 102623.0
984.8390, 103356.0
985.9550, 101925.0
987.0710, 100176.0
988.1870, 97934.00
989.3030, 95129.00
990.4180, 92617.00
991.5330, 90898.00
992.6480, 90074.00
993.7630, 89968.00
994.8780, 89798.00
995.9930, 88893.00
997.1070, 89165.00
998.2210, 88750.00
999.3350, 88343.00
1000.449, 88110.00
1001.563, 87620.00
1002.677, 86833.00
1003.790, 86968.00
1004.903, 86839.00
1006.016, 87367.00
1007.129, 87398.00
1008.242, 87986.00
1009.355, 89452.00
1010.467, 90321.00
1011.579, 90857.00
1012.691, 92017.00
1013.803, 92546.00
1014.915, 92530.00
1016.027, 92394.00
1017.138, 91870.00
1018.249, 90913.00
1019.360, 89804.00
1020.471, 88597.00
1021.582, 87893.00
1022.693, 87513.00
1023.803, 86697.00
1024.913, 86395.00
1026.023, 86138.00
1027.133, 86098.00
1028.243, 85843.00
1029.353, 85701.00
1030.462, 85923.00
1031.571, 85388.00
1032.680, 85992.00
1033.789, 85848.00
1034.898, 85889.00
1036.007, 85528.00
1037.115, 85471.00
1038.223, 85547.00
1039.331, 85258.00
1040.439, 85409.00
1041.547, 85151.00
1042.655, 85775.00
1043.762, 85582.00
1044.869, 86126.00
1045.976, 86283.00
1047.083, 87026.00
1048.190, 88096.00
1049.297, 89018.00
1050.403, 89750.00
1051.509, 91048.00
1052.615, 91704.00
1053.721, 93123.00
1054.827, 92861.00
1055.933, 93267.00
1057.038, 92653.00
1058.143, 91531.00
1059.248, 91206.00
1060.353, 89981.00
1061.458, 89514.00
1062.563, 88589.00
1063.667, 87759.00
1064.771, 87601.00
1065.875, 87314.00
1066.979, 87169.34
1068.083, 86974.30
1069.186, 86733.08
1070.290, 86447.60
1071.393, 85749.00
1072.496, 86313.00
1073.599, 86096.00
1074.702, 85915.00
1075.804, 85872.00
1076.907, 86255.00
1078.009, 85661.00
1079.111, 86354.00
1080.213, 86294.00
1081.315, 86223.00
1082.416, 85995.00
1083.517, 86281.00
1084.619, 86358.00
1085.720, 86680.00
1086.821, 86384.00
1087.921, 86261.00
1089.022, 86586.00
1090.122, 86940.00
1091.222, 86558.00
1092.322, 86403.00
1093.422, 86533.00
1094.522, 86178.00
1095.622, 86667.00
1096.721, 86246.00
1097.820, 86808.00
1098.919, 86476.00
1100.018, 86411.00
1101.117, 86841.00
1102.215, 86388.00
1103.314, 86746.00
1104.412, 87153.00
1105.510, 86995.00
1106.608, 87105.00
1107.705, 86909.00
1108.803, 87462.00
1109.900, 86810.00
1110.997, 86994.00
1112.094, 87140.00
1113.191, 86742.00
1114.288, 87468.00
1115.384, 87146.00
1116.481, 87557.00
1117.577, 87604.00
1118.673, 87534.00
1119.769, 87530.00
1120.864, 87519.00
1121.960, 87647.00
1123.055, 87781.00
1124.150, 87927.00
1125.245, 87929.66
1126.340, 88036.37
1127.434, 88031.00
1128.529, 87885.00
1129.623, 88173.00
1130.717, 88083.19
1131.811, 88279.00
1132.905, 88147.00
1133.999, 88101.00
1135.092, 88130.00
1136.185, 88333.00
1137.279, 88065.00
1138.371, 88403.00
1139.464, 88401.00
1140.557, 88103.00
1141.649, 88566.00
1142.742, 88409.00
1143.834, 88203.00
1144.926, 88526.00
1146.017, 88384.00
1147.109, 88646.00
1148.200, 88680.00
1149.292, 88743.00
1150.383, 88949.00
1151.474, 88810.00
1152.564, 89117.00
1153.655, 89531.00
1154.745, 89274.00
1155.835, 89546.00
1156.925, 89200.00
1158.015, 89571.00
1159.105, 89538.00
1160.195, 89404.00
1161.284, 89415.00
1162.373, 89589.00
1163.462, 89720.00
1164.551, 89322.00
1165.640, 90272.00
1166.728, 90301.00
1167.817, 89695.00
1168.905, 90224.00
1169.993, 90189.00
1171.081, 89594.00
1172.168, 90232.00
1173.256, 90323.00
1174.343, 90232.00
1175.430, 90326.00
1176.517, 90411.00
1177.604, 90443.00
1178.691, 90329.00
1179.777, 90279.00
1180.864, 90908.00
1181.950, 90516.00
1183.036, 90379.00
1184.121, 89988.00
1185.207, 90732.00
1186.293, 90647.00
1187.378, 90976.00
1188.463, 90937.00
1189.548, 90709.00
1190.633, 90711.00
1191.717, 90865.00
1192.802, 90717.00
1193.886, 90927.00
1194.970, 91134.00
1196.054, 91227.00
1197.138, 91267.13
1198.221, 91426.66
1199.305, 91539.80
1200.388, 91608.91
1201.471, 91502.43
1202.554, 91622.71
1203.637, 91652.11
1204.719, 91677.74
1205.801, 91829.88
1206.884, 91748.95
1207.966, 91899.08
1209.048, 91956.96
1210.129, 92057.02
1211.211, 92065.69
1212.292, 92102.55
1213.373, 92230.88
1214.454, 92308.55
1215.535, 92306.66
1216.616, 92409.39
1217.696, 92325.12
1218.777, 92247.00
1219.857, 92156.00
1220.937, 92461.00
1222.017, 92799.00
1223.096, 92891.00
1224.176, 92680.00
1225.255, 92393.00
1226.334, 92806.00
1227.413, 92968.00
1228.492, 93024.00
1229.570, 92875.00
1230.649, 92710.00
1231.727, 92889.00
1232.805, 93003.00
1233.883, 92792.00
1234.961, 93401.00
1236.038, 93222.00
1237.116, 93548.00
1238.193, 93412.00
1239.270, 93674.00
1240.347, 93598.00
1241.424, 93496.00
1242.500, 94141.00
1243.577, 93679.00
1244.653, 94137.00
1245.729, 94113.00
1246.805, 93711.00
1247.880, 93968.00
1248.956, 93920.00
1250.031, 94619.00
1251.106, 94523.00
1252.181, 93980.00
1253.256, 94348.00
1254.331, 94095.00
1255.405, 94349.00
1256.480, 94347.00
1257.554, 94553.00
1258.628, 94328.00
1259.701, 94509.00
1260.775, 94652.00
1261.849, 94388.00
1262.922, 94828.00
1263.995, 95274.00
1265.068, 94801.00
1266.141, 95256.00
1267.213, 95251.00
1268.286, 95186.00
1269.358, 95492.00
1270.430, 95331.00
1271.502, 95209.00
1272.573, 95838.00
