##NAMES=Cerussite
##RRUFFID=R050298
##IDEAL CHEMISTRY=Pb^2+^CO_3_
##LOCALITY=Bunker Hill mine, Shoshone County, Idaho, USA
##OWNER=RRUFF
##SOURCE=Eugene Schlepp
##DESCRIPTION=Group of colorless tabular crystals
##STATUS=The identification of this mineral has been confirmed by X-ray diffraction and chemical analysis
##URL=rruff.info/R050298
##MEASURED CHEMISTRY=Pb_1.00_CO_3_
##PIN_ID=L00742
##ORIENTATION=Laser parallel to -a* (-1 0 0). Fiducial mark perpendicular to laser is parallel to b [0 1 0]
51.43100, 362.0000
52.67100, 358.0000
53.91000, 353.0000
55.14900, 375.0000
56.38700, 388.0000
57.62600, 403.0000
58.86400, 432.0000
60.10300, 472.0000
61.34100, 533.0000
62.57900, 658.0000
63.81700, 797.0000
65.05400, 997.0000
66.29200, 1317.000
67.52900, 1666.000
68.76700, 2189.000
70.00400, 2681.000
71.24100, 3469.000
72.47700, 4271.000
73.71400, 4877.000
74.95100, 5629.000
76.18700, 5859.000
77.42300, 5826.000
78.65900, 5453.000
79.89500, 5183.000
81.13100, 4850.000
82.36700, 4478.000
83.60200, 4285.000
84.83700, 4059.000
86.07200, 3931.000
87.30800, 3880.000
88.54200, 3691.000
89.77700, 3580.000
91.01200, 3505.000
92.24600, 3452.000
93.48000, 3303.000
94.71400, 3228.000
95.94800, 3094.000
97.18200, 2996.000
98.41600, 2931.000
99.64900, 2742.000
100.8830, 2688.000
102.1160, 2546.000
103.3490, 2507.000
104.5820, 2407.000
105.8150, 2365.000
107.0470, 2247.000
108.2800, 2194.000
109.5120, 2214.000
110.7440, 2182.000
111.9760, 2104.000
113.2080, 2090.000
114.4400, 2072.000
115.6710, 2090.000
116.9030, 2067.000
118.1340, 2104.000
119.3650, 2140.000
120.5960, 2222.000
121.8270, 2325.000
123.0580, 2450.000
124.2880, 2573.000
125.5190, 2816.000
126.7490, 2993.000
127.9790, 3297.000
129.2090, 3612.000
130.4390, 3900.000
131.6680, 4293.000
132.8980, 4556.000
134.1270, 4754.000
135.3560, 4873.000
136.5850, 4799.000
137.8140, 4575.000
139.0430, 4347.000
140.2710, 3954.000
141.5000, 3669.000
142.7280, 3287.000
143.9560, 3099.000
145.1840, 2924.000
146.4120, 2690.000
147.6390, 2710.000
148.8670, 2528.000
150.0940, 2436.000
151.3210, 2393.000
152.5490, 2246.000
153.7750, 2225.000
155.0020, 2151.000
156.2290, 2056.000
157.4550, 2067.000
158.6810, 2011.000
159.9080, 1981.000
161.1340, 1856.000
162.3590, 1832.000
163.5850, 1810.000
164.8110, 1783.000
166.0360, 1763.000
167.2610, 1756.000
168.4860, 1767.000
169.7110, 1747.000
170.9360, 1776.000
172.1610, 1740.000
173.3850, 1729.000
174.6100, 1729.000
175.8340, 1740.000
177.0580, 1742.000
178.2820, 1746.000
179.5050, 1729.000
180.7290, 1761.000
181.9520, 1733.000
183.1760, 1741.000
184.3990, 1746.000
185.6220, 1716.000
186.8450, 1717.000
188.0670, 1770.000
189.2900, 1744.000
190.5120, 1739.000
191.7340, 1729.000
192.9560, 1810.000
194.1780, 1808.000
195.4000, 1848.000
196.6220, 1863.000
197.8430, 1918.000
199.0640, 1993.000
200.2860, 2059.000
201.5070, 2146.000
202.7270, 2187.000
203.9480, 2219.000
205.1690, 2334.000
206.3890, 2385.000
207.6090, 2475.000
208.8290, 2565.000
210.0490, 2651.000
211.2690, 2772.000
212.4890, 2881.000
213.7080, 3008.000
214.9280, 3055.000
216.1470, 3127.000
217.3660, 3108.000
218.5850, 3005.000
219.8030, 2962.000
221.0220, 2812.000
222.2400, 2709.000
223.4590, 2483.000
224.6770, 2318.000
225.8950, 2194.000
227.1120, 2065.000
228.3300, 1918.000
229.5480, 1773.000
230.7650, 1748.000
231.9820, 1706.000
233.1990, 1611.000
234.4160, 1554.000
235.6330, 1504.000
236.8490, 1430.000
238.0660, 1389.000
239.2820, 1355.000
240.4980, 1316.000
241.7140, 1287.000
242.9300, 1274.000
244.1460, 1202.000
245.3610, 1221.000
246.5770, 1170.000
247.7920, 1197.000
249.0070, 1197.000
250.2220, 1166.000
251.4370, 1162.000
252.6510, 1114.000
253.8660, 1103.000
255.0800, 1086.000
256.2940, 1096.000
257.5080, 1061.000
258.7220, 1066.000
259.9360, 1044.000
261.1490, 1037.000
262.3630, 1009.000
263.5760, 966.0000
264.7890, 987.0000
266.0020, 950.0000
267.2150, 953.0000
268.4270, 994.0000
269.6400, 990.0000
270.8520, 907.0000
272.0640, 924.0000
273.2760, 908.0000
274.4880, 912.0000
275.7000, 920.0000
276.9120, 935.0000
278.1230, 907.0000
279.3340, 843.0000
280.5450, 893.0000
281.7560, 874.0000
282.9670, 869.0000
284.1780, 886.0000
285.3880, 887.0000
286.5980, 911.0000
287.8090, 861.0000
289.0190, 869.0000
290.2290, 880.0000
291.4380, 861.0000
292.6480, 861.0000
293.8570, 853.0000
295.0670, 867.0000
296.2760, 820.0000
297.4850, 859.0000
298.6930, 859.0000
299.9020, 845.0000
301.1110, 822.0000
302.3190, 845.0000
303.5270, 832.0000
304.7350, 817.0000
305.9430, 851.0000
307.1510, 839.0000
308.3580, 821.0000
309.5660, 829.0000
310.7730, 802.0000
311.9800, 824.0000
313.1870, 823.0000
314.3940, 838.0000
315.6010, 831.0000
316.8070, 820.0000
318.0130, 814.0000
319.2200, 819.0000
320.4260, 777.0000
321.6310, 809.0000
322.8370, 789.0000
324.0430, 799.0000
325.2480, 784.0000
326.4540, 802.0000
327.6590, 786.0000
328.8640, 787.0000
330.0680, 796.0000
331.2730, 751.0000
332.4780, 762.0000
333.6820, 755.0000
334.8860, 781.0000
336.0900, 778.0000
337.2940, 773.0000
338.4980, 764.0000
339.7010, 770.0000
340.9050, 752.0000
342.1080, 787.0000
343.3110, 748.0000
344.5140, 742.0000
345.7170, 771.0000
346.9200, 758.0000
348.1220, 742.0000
349.3240, 755.0000
350.5270, 763.0000
351.7290, 772.0000
352.9310, 769.0000
354.1320, 781.0000
355.3340, 748.0000
356.5350, 768.0000
357.7370, 760.0000
358.9380, 759.0000
360.1390, 768.0000
361.3400, 759.0000
362.5400, 739.0000
363.7410, 789.0000
364.9410, 766.0000
366.1410, 748.0000
367.3410, 765.0000
368.5410, 765.0000
369.7410, 757.0000
370.9400, 756.0000
372.1400, 772.0000
373.3390, 755.0000
374.5380, 755.0000
375.7370, 747.0000
376.9360, 751.0000
378.1350, 759.0000
379.3330, 760.0000
380.5310, 718.0000
381.7300, 743.0000
382.9280, 738.0000
384.1260, 740.0000
385.3230, 705.0000
386.5210, 735.0000
387.7180, 759.0000
388.9160, 746.0000
390.1130, 737.0000
391.3100, 731.0000
392.5060, 772.0000
393.7030, 741.0000
394.9000, 756.0000
396.0960, 743.0000
397.2920, 729.0000
398.4880, 772.0000
399.6840, 752.0000
400.8800, 736.0000
402.0750, 761.0000
403.2710, 763.0000
404.4660, 763.0000
405.6610, 756.0000
406.8560, 759.0000
408.0510, 751.0000
409.2450, 744.0000
410.4400, 775.0000
411.6340, 753.0000
412.8280, 739.0000
414.0220, 779.0000
415.2160, 765.0000
416.4100, 761.0000
417.6030, 758.0000
418.7970, 779.0000
419.9900, 754.0000
421.1830, 736.0000
422.3760, 757.0000
423.5690, 750.0000
424.7610, 777.0000
425.9540, 742.0000
427.1460, 727.0000
428.3380, 756.0000
429.5300, 754.0000
430.7220, 754.0000
431.9140, 768.0000
433.1050, 735.0000
434.2970, 762.0000
435.4880, 749.0000
436.6790, 743.0000
437.8700, 748.0000
439.0610, 758.0000
440.2510, 765.0000
441.4420, 764.0000
442.6320, 779.0000
443.8220, 748.0000
445.0120, 750.0000
446.2020, 732.0000
447.3910, 756.0000
448.5810, 732.0000
449.7700, 758.0000
450.9600, 734.0000
452.1490, 742.0000
453.3370, 764.0000
454.5260, 761.0000
455.7150, 766.0000
456.9030, 761.0000
458.0910, 745.0000
459.2800, 763.0000
460.4670, 751.0000
461.6550, 723.0000
462.8430, 750.0000
464.0300, 765.0000
465.2180, 750.0000
466.4050, 733.0000
467.5920, 737.0000
468.7790, 759.0000
469.9650, 733.0000
471.1520, 749.0000
472.3380, 738.0000
473.5250, 766.0000
474.7110, 795.0000
475.8970, 772.0000
477.0820, 767.0000
478.2680, 741.0000
479.4540, 755.0000
480.6390, 772.0000
481.8240, 789.0000
483.0090, 776.0000
484.1940, 766.0000
485.3780, 773.0000
486.5630, 756.0000
487.7470, 765.0000
488.9320, 772.0000
490.1160, 780.0000
491.3000, 789.0000
492.4830, 784.0000
493.6670, 777.0000
494.8500, 791.0000
496.0340, 743.0000
497.2170, 791.0000
498.4000, 758.0000
499.5820, 782.0000
500.7650, 795.0000
501.9480, 779.0000
503.1300, 762.0000
504.3120, 756.0000
505.4940, 752.0000
506.6760, 767.0000
507.8580, 750.0000
509.0390, 752.0000
510.2210, 741.0000
511.4020, 753.0000
512.5830, 780.0000
513.7640, 752.0000
514.9450, 773.0000
516.1250, 762.0000
517.3060, 750.0000
518.4860, 785.0000
519.6660, 748.0000
520.8460, 752.0000
522.0260, 749.0000
523.2060, 757.0000
524.3850, 748.0000
525.5650, 744.0000
526.7440, 735.0000
527.9230, 760.0000
529.1020, 755.0000
530.2810, 773.0000
531.4590, 742.0000
532.6380, 738.0000
533.8160, 730.0000
534.9940, 764.0000
536.1720, 775.0000
537.3500, 727.0000
538.5270, 742.0000
539.7050, 755.0000
540.8820, 760.0000
542.0590, 732.0000
543.2360, 755.0000
544.4130, 749.0000
545.5900, 738.0000
546.7660, 733.0000
547.9430, 760.0000
549.1190, 749.0000
550.2950, 730.0000
551.4710, 740.0000
552.6470, 741.0000
553.8220, 726.0000
554.9980, 750.0000
556.1730, 746.0000
557.3480, 770.0000
558.5230, 748.0000
559.6980, 737.0000
560.8730, 749.0000
562.0470, 766.0000
563.2220, 761.0000
564.3960, 753.0000
565.5700, 768.0000
566.7440, 767.0000
567.9170, 748.0000
569.0910, 757.0000
570.2640, 757.0000
571.4380, 774.0000
572.6110, 763.0000
573.7840, 752.0000
574.9570, 762.0000
576.1290, 765.0000
577.3020, 754.0000
578.4740, 773.0000
579.6460, 763.0000
580.8180, 763.0000
581.9900, 780.0000
583.1620, 768.0000
584.3330, 763.0000
585.5040, 795.0000
586.6760, 777.0000
587.8470, 773.0000
589.0180, 784.0000
590.1880, 775.0000
591.3590, 764.0000
592.5290, 783.0000
593.7000, 750.0000
594.8700, 737.0000
596.0400, 772.0000
597.2090, 791.0000
598.3790, 770.0000
599.5490, 763.0000
600.7180, 773.0000
601.8870, 760.0000
603.0560, 770.0000
604.2250, 790.0000
605.3940, 731.0000
606.5620, 765.0000
607.7300, 762.0000
608.8990, 781.0000
610.0670, 769.0000
611.2350, 762.0000
612.4020, 775.0000
613.5700, 782.0000
614.7370, 780.0000
615.9050, 780.0000
617.0720, 806.0000
618.2390, 789.0000
619.4060, 788.0000
620.5720, 815.0000
621.7390, 795.0000
622.9050, 817.0000
624.0710, 774.0000
625.2370, 790.0000
626.4030, 822.0000
627.5690, 832.0000
628.7340, 837.0000
629.9000, 827.0000
631.0650, 820.0000
632.2300, 803.0000
633.3950, 838.0000
634.5600, 825.0000
635.7240, 799.0000
636.8890, 793.0000
638.0530, 838.0000
639.2170, 808.0000
640.3810, 796.0000
641.5450, 781.0000
642.7080, 799.0000
643.8720, 809.0000
645.0350, 796.0000
646.1980, 812.0000
647.3610, 817.0000
648.5240, 780.0000
649.6870, 778.0000
650.8490, 803.0000
652.0120, 787.0000
653.1740, 789.0000
654.3360, 780.0000
655.4980, 780.0000
656.6600, 768.0000
657.8210, 782.0000
658.9830, 765.0000
660.1440, 811.0000
661.3050, 799.0000
662.4660, 768.0000
663.6270, 783.0000
664.7870, 806.0000
665.9480, 806.0000
667.1080, 803.0000
668.2680, 820.0000
669.4280, 820.0000
670.5880, 883.0000
671.7480, 909.0000
672.9070, 1055.000
674.0670, 1307.000
675.2260, 1699.000
676.3850, 1787.000
677.5440, 1459.000
678.7030, 1088.000
679.8610, 933.0000
681.0200, 863.0000
682.1780, 810.0000
683.3360, 830.0000
684.4940, 812.0000
685.6520, 788.0000
686.8090, 786.0000
687.9670, 779.0000
689.1240, 780.0000
690.2810, 802.0000
691.4380, 779.0000
692.5950, 827.0000
693.7520, 808.0000
694.9080, 816.0000
696.0650, 841.0000
697.2210, 887.0000
698.3770, 874.0000
699.5330, 828.0000
700.6880, 802.0000
701.8440, 806.0000
702.9990, 789.0000
704.1550, 810.0000
705.3100, 784.0000
706.4650, 775.0000
707.6190, 776.0000
708.7740, 760.0000
709.9290, 790.0000
711.0830, 801.0000
712.2370, 781.0000
713.3910, 812.0000
714.5450, 824.0000
715.6980, 820.0000
716.8520, 777.0000
718.0050, 828.0000
719.1580, 830.0000
720.3110, 823.0000
721.4640, 829.0000
722.6170, 880.0000
723.7700, 860.0000
724.9220, 878.0000
726.0740, 844.0000
727.2260, 910.0000
728.3780, 896.0000
729.5300, 902.0000
730.6810, 902.0000
731.8330, 883.0000
732.9840, 881.0000
734.1350, 867.0000
735.2860, 875.0000
736.4370, 865.0000
737.5880, 853.0000
738.7380, 836.0000
739.8880, 859.0000
741.0390, 843.0000
742.1890, 843.0000
743.3380, 852.0000
744.4880, 832.0000
745.6380, 836.0000
746.7870, 862.0000
747.9360, 825.0000
749.0850, 835.0000
750.2340, 825.0000
751.3830, 853.0000
752.5310, 829.0000
753.6800, 827.0000
754.8280, 833.0000
755.9760, 836.0000
757.1240, 811.0000
758.2720, 801.0000
759.4190, 813.0000
760.5670, 824.0000
761.7140, 823.0000
762.8610, 844.0000
764.0080, 848.0000
765.1550, 817.0000
766.3020, 859.0000
767.4480, 840.0000
768.5950, 817.0000
769.7410, 825.0000
770.8870, 847.0000
772.0330, 844.0000
773.1780, 837.0000
774.3240, 838.0000
775.4690, 834.0000
776.6140, 845.0000
777.7590, 833.0000
778.9040, 854.0000
780.0490, 825.0000
781.1940, 854.0000
782.3380, 874.0000
783.4820, 857.0000
784.6260, 846.0000
785.7700, 858.0000
786.9140, 859.0000
788.0580, 868.0000
789.2010, 869.0000
790.3450, 875.0000
791.4880, 858.0000
792.6310, 852.0000
793.7730, 839.0000
794.9160, 850.0000
796.0590, 849.0000
797.2010, 855.0000
798.3430, 828.0000
799.4850, 838.0000
800.6270, 850.0000
801.7690, 850.0000
802.9100, 857.0000
804.0520, 836.0000
805.1930, 829.0000
806.3340, 872.0000
807.4750, 845.0000
808.6160, 843.0000
809.7560, 819.0000
810.8970, 857.0000
812.0370, 856.0000
813.1770, 868.0000
814.3170, 818.0000
815.4570, 827.0000
816.5960, 865.0000
817.7360, 849.0000
818.8750, 840.0000
820.0140, 865.0000
821.1530, 841.0000
822.2920, 839.0000
823.4310, 852.0000
824.5690, 859.0000
825.7070, 881.0000
826.8460, 876.0000
827.9840, 903.0000
829.1220, 856.0000
830.2590, 855.0000
831.3970, 881.0000
832.5340, 903.0000
833.6710, 953.0000
834.8080, 966.0000
835.9450, 1059.000
837.0820, 1118.000
838.2190, 1398.000
839.3550, 1608.000
840.4910, 1565.000
841.6270, 1421.000
842.7630, 1201.000
843.8990, 1065.000
845.0350, 979.0000
846.1700, 928.0000
847.3060, 936.0000
848.4410, 873.0000
849.5760, 856.0000
850.7100, 870.0000
851.8450, 866.0000
852.9800, 833.0000
854.1140, 858.0000
855.2480, 869.0000
856.3820, 861.0000
857.5160, 851.0000
858.6500, 874.0000
859.7830, 859.0000
860.9170, 852.0000
862.0500, 875.0000
863.1830, 873.0000
864.3160, 838.0000
865.4480, 907.0000
866.5810, 899.0000
867.7130, 906.0000
868.8460, 866.0000
869.9780, 871.0000
871.1100, 866.0000
872.2410, 863.0000
873.3730, 867.0000
874.5050, 865.0000
875.6360, 874.0000
876.7670, 863.0000
877.8980, 892.0000
879.0290, 873.0000
880.1590, 867.0000
881.2900, 870.0000
882.4200, 872.0000
883.5500, 879.0000
884.6800, 849.0000
885.8100, 865.0000
886.9400, 861.0000
888.0690, 832.0000
889.1990, 864.0000
890.3280, 863.0000
891.4570, 844.0000
892.5860, 880.0000
893.7140, 867.0000
894.8430, 861.0000
895.9710, 892.0000
897.1000, 873.0000
898.2280, 874.0000
899.3560, 897.0000
900.4830, 877.0000
901.6110, 885.0000
902.7380, 871.0000
903.8660, 888.0000
904.9930, 873.0000
906.1200, 869.0000
907.2460, 873.0000
908.3730, 881.0000
909.5000, 880.0000
910.6260, 865.0000
911.7520, 866.0000
912.8780, 849.0000
914.0040, 874.0000
915.1290, 875.0000
916.2550, 875.0000
917.3800, 886.0000
918.5050, 879.0000
919.6300, 884.0000
920.7550, 889.0000
921.8800, 885.0000
923.0040, 888.0000
924.1290, 876.0000
925.2530, 884.0000
926.3770, 894.0000
927.5010, 910.0000
928.6250, 918.0000
929.7480, 903.0000
930.8720, 894.0000
931.9950, 903.0000
933.1180, 886.0000
934.2410, 889.0000
935.3640, 899.0000
936.4860, 910.0000
937.6090, 917.0000
938.7310, 870.0000
939.8530, 915.0000
940.9750, 928.0000
942.0970, 911.0000
943.2180, 890.0000
944.3400, 890.0000
945.4610, 922.0000
946.5820, 918.0000
947.7030, 921.0000
948.8240, 886.0000
949.9450, 882.0000
951.0650, 884.0000
952.1860, 879.0000
953.3060, 878.0000
954.4260, 906.0000
955.5460, 898.0000
956.6650, 924.0000
957.7850, 898.0000
958.9040, 902.0000
960.0230, 909.0000
961.1420, 910.0000
962.2610, 929.0000
963.3800, 872.0000
964.4990, 887.0000
965.6170, 903.0000
966.7350, 891.0000
967.8530, 912.0000
968.9710, 919.0000
970.0890, 923.0000
971.2070, 932.0000
972.3240, 899.0000
973.4410, 874.0000
974.5580, 901.0000
975.6750, 947.0000
976.7920, 905.0000
977.9090, 903.0000
979.0250, 891.0000
980.1410, 912.0000
981.2580, 898.0000
982.3740, 915.0000
983.4890, 895.0000
984.6050, 898.0000
985.7200, 890.0000
986.8360, 898.0000
987.9510, 904.0000
989.0660, 899.0000
990.1810, 888.0000
991.2950, 965.0000
992.4100, 925.0000
993.5240, 960.0000
994.6390, 915.0000
995.7530, 968.0000
996.8660, 937.0000
997.9800, 978.0000
999.0940, 941.0000
1000.207, 944.0000
1001.320, 951.0000
1002.433, 920.0000
1003.546, 950.0000
1004.659, 981.0000
1005.772, 939.0000
1006.884, 922.0000
1007.996, 917.0000
1009.108, 933.0000
1010.220, 907.0000
1011.332, 921.0000
1012.444, 929.0000
1013.555, 930.0000
1014.666, 937.0000
1015.777, 975.0000
1016.888, 933.0000
1017.999, 940.0000
1019.110, 938.0000
1020.220, 947.0000
1021.331, 943.0000
1022.441, 947.0000
1023.551, 940.0000
1024.661, 970.0000
1025.770, 989.0000
1026.880, 963.0000
1027.989, 966.0000
1029.098, 990.0000
1030.207, 1046.000
1031.316, 1123.000
1032.425, 1218.000
1033.533, 1250.000
1034.642, 1171.000
1035.750, 1105.000
1036.858, 1066.000
1037.966, 1031.000
1039.073, 1064.000
1040.181, 1109.000
1041.288, 1136.000
1042.396, 1182.000
1043.503, 1259.000
1044.610, 1288.000
1045.716, 1424.000
1046.823, 1608.000
1047.929, 1981.000
1049.036, 2566.000
1050.142, 3624.000
1051.248, 4865.000
1052.353, 7633.000
1053.459, 14173.00
1054.564, 33657.00
1055.670, 59781.00
1056.775, 56288.00
1057.880, 32181.00
1058.985, 14273.00
1060.089, 6034.000
1061.194, 3266.000
1062.298, 2225.000
1063.402, 1769.000
1064.506, 1499.000
1065.610, 1355.000
1066.713, 1293.000
1067.817, 1214.000
1068.920, 1160.000
1070.023, 1132.000
1071.126, 1078.000
1072.229, 1081.000
1073.332, 1056.000
1074.435, 1072.000
1075.537, 1013.000
1076.639, 1048.000
1077.741, 1026.000
1078.843, 980.0000
1079.945, 1022.000
1081.046, 1008.000
1082.148, 1025.000
1083.249, 1030.000
1084.350, 1016.000
1085.451, 1014.000
1086.551, 1025.000
1087.652, 1003.000
1088.752, 996.0000
1089.853, 1033.000
1090.953, 1013.000
1092.053, 1070.000
1093.152, 998.0000
1094.252, 1011.000
1095.351, 1002.000
1096.451, 1010.000
1097.550, 1020.000
1098.649, 1004.000
1099.748, 1039.000
1100.846, 1053.000
1101.945, 1012.000
1103.043, 996.0000
1104.141, 978.0000
1105.239, 1025.000
1106.337, 1017.000
1107.434, 1026.000
1108.532, 1023.000
1109.629, 1027.000
1110.726, 992.0000
1111.823, 994.0000
1112.920, 1000.000
1114.017, 1040.000
1115.113, 1004.000
1116.210, 1020.000
1117.306, 1010.000
1118.402, 1009.000
1119.498, 1012.000
1120.593, 1040.000
1121.689, 1040.000
1122.784, 990.0000
1123.879, 1031.000
1124.974, 1045.000
1126.069, 1014.000
1127.164, 979.0000
1128.259, 990.0000
1129.353, 1006.000
1130.447, 1004.000
1131.541, 1013.000
1132.635, 1011.000
1133.729, 971.0000
1134.822, 989.0000
1135.916, 970.0000
1137.009, 994.0000
1138.102, 961.0000
1139.195, 1002.000
1140.288, 997.0000
1141.380, 985.0000
1142.473, 983.0000
1143.565, 999.0000
1144.657, 998.0000
1145.749, 1038.000
1146.841, 1000.000
1147.932, 1004.000
1149.024, 995.0000
1150.115, 1012.000
1151.206, 1013.000
1152.297, 996.0000
1153.388, 1016.000
1154.479, 1032.000
1155.569, 1020.000
1156.659, 1023.000
1157.750, 1027.000
1158.839, 1010.000
1159.929, 1004.000
1161.019, 1014.000
1162.108, 1022.000
1163.198, 1001.000
1164.287, 981.0000
1165.376, 999.0000
1166.465, 982.0000
1167.553, 997.0000
1168.642, 1045.000
1169.730, 1018.000
1170.818, 1014.000
1171.906, 1032.000
1172.994, 988.0000
1174.082, 1028.000
1175.170, 1021.000
1176.257, 1038.000
1177.344, 1032.000
1178.431, 1025.000
1179.518, 1009.000
1180.605, 1047.000
1181.691, 1010.000
1182.778, 1047.000
1183.864, 994.0000
1184.950, 1005.000
1186.036, 1008.000
1187.122, 1068.000
1188.207, 1005.000
1189.292, 1024.000
1190.378, 1066.000
1191.463, 1039.000
1192.548, 1044.000
1193.632, 1031.000
1194.717, 1029.000
1195.801, 1047.000
1196.886, 1021.000
1197.970, 1015.000
1199.054, 1040.000
1200.137, 1053.000
1201.221, 1084.000
1202.305, 1021.000
1203.388, 1057.000
1204.471, 1061.000
1205.554, 1058.000
1206.637, 1083.000
1207.719, 1073.000
1208.802, 1054.000
1209.884, 1055.000
1210.966, 1070.000
1212.048, 1030.000
1213.130, 1059.000
1214.212, 1040.000
1215.293, 1034.000
1216.374, 1073.000
1217.456, 1034.000
1218.536, 1074.000
1219.617, 1073.000
1220.698, 1063.000
1221.778, 1099.000
1222.859, 1082.000
1223.939, 1053.000
1225.019, 1094.000
1226.099, 1064.000
1227.178, 1058.000
1228.258, 1083.000
1229.337, 1085.000
1230.417, 1093.000
1231.496, 1063.000
1232.574, 1064.000
1233.653, 1069.000
1234.732, 1045.000
1235.810, 1059.000
1236.888, 1120.000
1237.966, 1070.000
1239.044, 1082.000
1240.122, 1126.000
