##NAMES=Cerussite
##RRUFFID=R050174
##IDEAL CHEMISTRY=Pb^2+^CO_3_
##LOCALITY=Tsumeb mine, Tsumeb, Otavi District, Oshikoto, Namibia
##OWNER=RRUFF
##SOURCE=Marcus Origlieri
##DESCRIPTION=Colorless single crystal
##STATUS=The identification of this mineral has been confirmed by X-ray diffraction and chemical analysis
##URL=rruff.info/R050174
##MEASURED CHEMISTRY=Pb_1.00_CO_3_ ; C not measured but estimated by difference and stoichiometry
##PIN_ID=L01652
##ORIENTATION=Laser parallel to -b* (0 -1 0). Fiducial mark perpendicular to laser is parallel to c [0 0 1]
51.43100, 416.0000
52.67100, 414.0000
53.91000, 420.0000
55.14900, 459.0000
56.38700, 467.0000
57.62600, 495.0000
58.86400, 579.0000
60.10300, 599.0000
61.34100, 706.0000
62.57900, 892.0000
63.81700, 1094.000
65.05400, 1467.000
66.29200, 1849.000
67.52900, 2330.000
68.76700, 2912.000
70.00400, 3531.000
71.24100, 4254.000
72.47700, 5187.000
73.71400, 6019.000
74.95100, 6936.000
76.18700, 7396.000
77.42300, 7297.000
78.65900, 6935.000
79.89500, 6543.000
81.13100, 5979.000
82.36700, 5657.000
83.60200, 5284.000
84.83700, 4970.000
86.07200, 4801.000
87.30800, 4691.000
88.54200, 4523.000
89.77700, 4456.000
91.01200, 4380.000
92.24600, 4373.000
93.48000, 4335.000
94.71400, 4336.000
95.94800, 4269.000
97.18200, 4266.000
98.41600, 4403.000
99.64900, 4488.000
100.8830, 4493.000
102.1160, 4787.000
103.3490, 4967.000
104.5820, 5032.000
105.8150, 4971.000
107.0470, 4756.000
108.2800, 4527.000
109.5120, 4011.000
110.7440, 3676.000
111.9760, 3262.000
113.2080, 3098.000
114.4400, 2899.000
115.6710, 2857.000
116.9030, 2761.000
118.1340, 2703.000
119.3650, 2712.000
120.5960, 2848.000
121.8270, 2884.000
123.0580, 2925.000
124.2880, 3155.000
125.5190, 3215.000
126.7490, 3462.000
127.9790, 3603.000
129.2090, 3783.000
130.4390, 4122.000
131.6680, 4336.000
132.8980, 4433.000
134.1270, 4598.000
135.3560, 4521.000
136.5850, 4383.000
137.8140, 4134.000
139.0430, 3790.000
140.2710, 3612.000
141.5000, 3335.000
142.7280, 3171.000
143.9560, 2997.000
145.1840, 2858.072
146.4120, 2758.000
147.6390, 2683.000
148.8670, 2599.000
150.0940, 2520.442
151.3210, 2450.757
152.5490, 2382.000
153.7750, 2318.000
155.0020, 2270.000
156.2290, 2216.000
157.4550, 2106.000
158.6810, 2013.000
159.9080, 1976.000
161.1340, 1932.000
162.3590, 1884.000
163.5850, 1865.215
164.8110, 1825.055
166.0360, 1824.000
167.2610, 1778.000
168.4860, 1750.000
169.7110, 1753.000
170.9360, 1742.000
172.1610, 1721.000
173.3850, 1709.000
174.6100, 1781.000
175.8340, 1765.000
177.0580, 1797.000
178.2820, 1788.000
179.5050, 1798.000
180.7290, 1844.000
181.9520, 1864.000
183.1760, 1846.000
184.3990, 1832.000
185.6220, 1869.000
186.8450, 1911.000
188.0670, 1913.000
189.2900, 1990.000
190.5120, 2030.000
191.7340, 2062.000
192.9560, 2161.000
194.1780, 2257.000
195.4000, 2256.000
196.6220, 2386.000
197.8430, 2424.000
199.0640, 2593.000
200.2860, 2592.000
201.5070, 2740.000
202.7270, 2904.000
203.9480, 2990.000
205.1690, 3129.000
206.3890, 3280.000
207.6090, 3348.000
208.8290, 3473.000
210.0490, 3658.000
211.2690, 3722.000
212.4890, 3781.000
213.7080, 3955.000
214.9280, 4074.000
216.1470, 4052.000
217.3660, 4044.000
218.5850, 3872.000
219.8030, 3767.000
221.0220, 3524.000
222.2400, 3323.000
223.4590, 3034.000
224.6770, 2912.000
225.8950, 2648.000
227.1120, 2582.000
228.3300, 2387.000
229.5480, 2218.000
230.7650, 2192.000
231.9820, 2105.000
233.1990, 2011.000
234.4160, 1972.000
235.6330, 1862.000
236.8490, 1821.000
238.0660, 1802.000
239.2820, 1762.000
240.4980, 1719.508
241.7140, 1668.000
242.9300, 1627.000
244.1460, 1602.000
245.3610, 1556.000
246.5770, 1530.000
247.7920, 1467.000
249.0070, 1438.000
250.2220, 1446.000
251.4370, 1410.000
252.6510, 1353.000
253.8660, 1357.000
255.0800, 1329.000
256.2940, 1302.000
257.5080, 1259.000
258.7220, 1247.000
259.9360, 1236.000
261.1490, 1192.000
262.3630, 1184.000
263.5760, 1193.000
264.7890, 1174.000
266.0020, 1184.000
267.2150, 1117.000
268.4270, 1132.000
269.6400, 1130.000
270.8520, 1081.000
272.0640, 1087.000
273.2760, 1051.000
274.4880, 1054.000
275.7000, 1016.000
276.9120, 1044.000
278.1230, 1058.000
279.3340, 1060.000
280.5450, 1015.000
281.7560, 991.0000
282.9670, 1017.000
284.1780, 1001.000
285.3880, 997.0000
286.5980, 958.0000
287.8090, 995.0000
289.0190, 957.0000
290.2290, 970.0000
291.4380, 962.0000
292.6480, 952.0000
293.8570, 942.0000
295.0670, 923.0000
296.2760, 934.0000
297.4850, 913.0000
298.6930, 912.0000
299.9020, 902.9643
301.1110, 904.0000
302.3190, 881.0000
303.5270, 862.0000
304.7350, 849.4886
305.9430, 882.0000
307.1510, 863.0000
308.3580, 854.0000
309.5660, 892.0000
310.7730, 865.0000
311.9800, 885.0000
313.1870, 865.0000
314.3940, 862.0000
315.6010, 848.0000
316.8070, 831.0000
318.0130, 871.0000
319.2200, 844.0000
320.4260, 845.0000
321.6310, 842.0000
322.8370, 798.0000
324.0430, 807.4094
325.2480, 797.0000
326.4540, 799.0000
327.6590, 800.0000
328.8640, 802.0000
330.0680, 804.2414
331.2730, 805.0000
332.4780, 803.0000
333.6820, 802.0000
334.8860, 788.0000
336.0900, 795.0000
337.2940, 785.8045
338.4980, 830.0000
339.7010, 776.0000
340.9050, 769.0000
342.1080, 765.0000
343.3110, 808.0000
344.5140, 789.0000
345.7170, 810.0000
346.9200, 788.0000
348.1220, 778.0000
349.3240, 792.0000
350.5270, 817.0000
351.7290, 754.0000
352.9310, 759.0000
354.1320, 798.0000
355.3340, 765.0000
356.5350, 776.0000
357.7370, 765.0000
358.9380, 795.0000
360.1390, 798.0000
361.3400, 798.0000
362.5400, 763.0000
363.7410, 773.0000
364.9410, 784.0000
366.1410, 751.0000
367.3410, 805.0000
368.5410, 744.0000
369.7410, 761.0000
370.9400, 780.0000
372.1400, 746.0000
373.3390, 751.0000
374.5380, 760.0000
375.7370, 768.0000
376.9360, 763.4155
378.1350, 763.7048
379.3330, 752.0000
380.5310, 750.0000
381.7300, 743.0000
382.9280, 731.0000
384.1260, 752.0000
385.3230, 736.0000
386.5210, 738.0000
387.7180, 758.0000
388.9160, 752.0000
390.1130, 737.0000
391.3100, 731.0000
392.5060, 751.0000
393.7030, 752.0000
394.9000, 726.0000
396.0960, 779.0000
397.2920, 738.0000
398.4880, 745.0000
399.6840, 730.0000
400.8800, 734.0000
402.0750, 747.0000
403.2710, 774.0000
404.4660, 728.0000
405.6610, 726.0000
406.8560, 745.0000
408.0510, 732.8731
409.2450, 745.0000
410.4400, 746.0000
411.6340, 755.0000
412.8280, 751.0000
414.0220, 766.0000
415.2160, 782.0000
416.4100, 758.0000
417.6030, 748.0000
418.7970, 776.0000
419.9900, 747.0000
421.1830, 752.0000
422.3760, 753.0000
423.5690, 756.0000
424.7610, 747.0000
425.9540, 771.0000
427.1460, 781.0000
428.3380, 783.0000
429.5300, 765.0000
430.7220, 777.0000
431.9140, 759.0000
433.1050, 772.0000
434.2970, 781.0000
435.4880, 768.3447
436.6790, 777.4669
437.8700, 757.0000
439.0610, 771.0000
440.2510, 773.0000
441.4420, 757.0000
442.6320, 762.0000
443.8220, 769.0000
445.0120, 756.0000
446.2020, 746.0000
447.3910, 753.0000
448.5810, 776.0000
449.7700, 752.0000
450.9600, 780.0000
452.1490, 777.0000
453.3370, 752.0000
454.5260, 769.0000
455.7150, 753.0000
456.9030, 768.0000
458.0910, 760.0000
459.2800, 760.0000
460.4670, 762.0000
461.6550, 779.0000
462.8430, 772.3106
464.0300, 767.0000
465.2180, 770.0000
466.4050, 761.0000
467.5920, 761.0000
468.7790, 772.0000
469.9650, 764.0000
471.1520, 781.0000
472.3380, 753.0000
473.5250, 762.0000
474.7110, 748.0000
475.8970, 747.0000
477.0820, 756.0000
478.2680, 743.7811
479.4540, 769.0000
480.6390, 746.0000
481.8240, 742.0000
483.0090, 772.0000
484.1940, 769.0000
485.3780, 788.0000
486.5630, 772.0000
487.7470, 743.0000
488.9320, 749.0000
490.1160, 769.0000
491.3000, 777.0000
492.4830, 785.0000
493.6670, 788.0000
494.8500, 773.0000
496.0340, 747.0000
497.2170, 771.0000
498.4000, 745.0000
499.5820, 773.0000
500.7650, 765.0000
501.9480, 759.0000
503.1300, 757.0000
504.3120, 758.4931
505.4940, 769.0000
506.6760, 768.0000
507.8580, 779.0000
509.0390, 785.0000
510.2210, 763.0000
511.4020, 761.0000
512.5830, 763.0000
513.7640, 737.0000
514.9450, 768.0000
516.1250, 757.0000
517.3060, 777.0000
518.4860, 774.0000
519.6660, 771.6890
520.8460, 760.0000
522.0260, 760.0000
523.2060, 753.0000
524.3850, 736.0000
525.5650, 747.0000
526.7440, 752.0000
527.9230, 765.0000
529.1020, 738.0000
530.2810, 745.0000
531.4590, 743.0000
532.6380, 751.0000
533.8160, 747.0000
534.9940, 755.0000
536.1720, 757.7012
537.3500, 758.0000
538.5270, 762.0000
539.7050, 751.0000
540.8820, 744.0000
542.0590, 750.0000
543.2360, 739.0000
544.4130, 744.0000
545.5900, 756.0000
546.7660, 738.0000
547.9430, 745.0000
549.1190, 745.8519
550.2950, 749.0000
551.4710, 750.0000
552.6470, 749.0000
553.8220, 749.0000
554.9980, 739.0000
556.1730, 740.7040
557.3480, 752.0000
558.5230, 739.0000
559.6980, 753.0000
560.8730, 756.0000
562.0470, 766.0000
563.2220, 751.0000
564.3960, 745.0000
565.5700, 753.0000
566.7440, 751.0000
567.9170, 731.0000
569.0910, 753.0000
570.2640, 780.0000
571.4380, 728.0000
572.6110, 736.0000
573.7840, 762.0000
574.9570, 778.0000
576.1290, 778.5595
577.3020, 770.0000
578.4740, 778.0000
579.6460, 765.0000
580.8180, 764.0000
581.9900, 753.0000
583.1620, 763.0000
584.3330, 755.0000
585.5040, 752.0000
586.6760, 752.0000
587.8470, 749.0000
589.0180, 750.0000
590.1880, 756.0000
591.3590, 751.8262
592.5290, 757.0000
593.7000, 742.0000
594.8700, 763.0000
596.0400, 746.0000
597.2090, 729.0000
598.3790, 760.0000
599.5490, 756.0000
600.7180, 762.0000
601.8870, 762.0000
603.0560, 735.0000
604.2250, 748.0000
605.3940, 752.0000
606.5620, 744.0000
607.7300, 765.0000
608.8990, 763.0000
610.0670, 757.0000
611.2350, 786.0000
612.4020, 745.0000
613.5700, 773.0000
614.7370, 761.0000
615.9050, 771.0000
617.0720, 779.0000
618.2390, 773.0000
619.4060, 783.0000
620.5720, 816.0000
621.7390, 812.0000
622.9050, 830.0000
624.0710, 807.0000
625.2370, 792.0000
626.4030, 796.0000
627.5690, 801.0000
628.7340, 809.0000
629.9000, 794.0000
631.0650, 769.0000
632.2300, 797.0000
633.3950, 788.0000
634.5600, 800.0000
635.7240, 819.0000
636.8890, 803.0000
638.0530, 770.0000
639.2170, 780.0000
640.3810, 782.0000
641.5450, 787.0000
642.7080, 797.0000
643.8720, 771.0000
645.0350, 764.0000
646.1980, 770.0000
647.3610, 773.0000
648.5240, 761.0000
649.6870, 748.0000
650.8490, 736.0000
652.0120, 760.0000
653.1740, 764.0000
654.3360, 767.0000
655.4980, 756.0000
656.6600, 757.0000
657.8210, 776.0000
658.9830, 761.0000
660.1440, 773.0000
661.3050, 772.0000
662.4660, 757.0000
663.6270, 770.0000
664.7870, 785.0000
665.9480, 805.0000
667.1080, 843.0000
668.2680, 893.0000
669.4280, 869.0000
670.5880, 885.0000
671.7480, 928.0000
672.9070, 1069.000
674.0670, 1369.000
675.2260, 1772.000
676.3850, 1637.000
677.5440, 1386.000
678.7030, 1119.000
679.8610, 961.0000
681.0200, 988.0000
682.1780, 1015.000
683.3360, 1174.000
684.4940, 1121.000
685.6520, 992.0000
686.8090, 899.0000
687.9670, 808.0000
689.1240, 772.0000
690.2810, 799.0000
691.4380, 755.0000
692.5950, 757.0000
693.7520, 767.0000
694.9080, 763.0000
696.0650, 751.0000
697.2210, 770.0000
698.3770, 756.0000
699.5330, 750.0000
700.6880, 759.0000
701.8440, 763.0000
702.9990, 735.0000
704.1550, 761.0000
705.3100, 777.0000
706.4650, 799.0000
707.6190, 766.0000
708.7740, 756.0000
709.9290, 756.0000
711.0830, 771.0000
712.2370, 798.0000
713.3910, 765.0000
714.5450, 788.0000
715.6980, 797.0000
716.8520, 790.0000
718.0050, 776.0000
719.1580, 807.0000
720.3110, 840.0000
721.4640, 831.0000
722.6170, 818.0000
723.7700, 820.0000
724.9220, 860.0000
726.0740, 851.0000
727.2260, 852.0000
728.3780, 822.0000
729.5300, 836.0000
730.6810, 837.0000
731.8330, 845.0000
732.9840, 846.9908
734.1350, 819.0000
735.2860, 836.0000
736.4370, 832.0000
737.5880, 801.0000
738.7380, 810.0000
739.8880, 788.0000
741.0390, 821.0000
742.1890, 800.0000
743.3380, 807.0000
744.4880, 813.0000
745.6380, 812.4897
746.7870, 821.9023
747.9360, 820.0000
749.0850, 818.5363
750.2340, 819.0000
751.3830, 811.0000
752.5310, 807.0000
753.6800, 803.0000
754.8280, 786.0000
755.9760, 791.0000
757.1240, 787.0000
758.2720, 794.0000
759.4190, 792.0000
760.5670, 792.0000
761.7140, 803.0000
762.8610, 781.0000
764.0080, 814.0000
765.1550, 806.0000
766.3020, 779.0000
767.4480, 785.0000
768.5950, 811.0000
769.7410, 816.0000
770.8870, 823.0000
772.0330, 815.0000
773.1780, 812.0000
774.3240, 812.0000
775.4690, 807.0000
776.6140, 803.0000
777.7590, 799.0000
778.9040, 793.9312
780.0490, 795.0000
781.1940, 783.0000
782.3380, 802.0000
783.4820, 796.0000
784.6260, 815.0000
785.7700, 809.7972
786.9140, 832.0000
788.0580, 811.0000
789.2010, 782.0000
790.3450, 801.0000
791.4880, 798.0000
792.6310, 839.0000
793.7730, 781.0000
794.9160, 784.0000
796.0590, 832.0000
797.2010, 793.0000
798.3430, 804.0000
799.4850, 809.0000
800.6270, 814.0000
801.7690, 812.1717
802.9100, 802.0000
804.0520, 803.0000
805.1930, 788.0000
806.3340, 783.0000
807.4750, 791.0000
808.6160, 786.0000
809.7560, 775.0000
810.8970, 781.0000
812.0370, 801.0000
813.1770, 791.0000
814.3170, 809.0000
815.4570, 809.9942
816.5960, 796.0000
817.7360, 808.0000
818.8750, 823.0000
820.0140, 807.0000
821.1530, 791.0000
822.2920, 831.0000
823.4310, 813.0000
824.5690, 849.0000
825.7070, 872.0000
826.8460, 858.0000
827.9840, 844.0000
829.1220, 863.0000
830.2590, 897.0000
831.3970, 904.0000
832.5340, 1051.000
833.6710, 1044.000
834.8080, 1062.000
835.9450, 1184.000
837.0820, 1403.000
838.2190, 1767.000
839.3550, 2157.000
840.4910, 2045.000
841.6270, 1757.000
842.7630, 1406.000
843.8990, 1174.000
845.0350, 1011.000
846.1700, 946.0000
847.3060, 879.0000
848.4410, 891.0000
849.5760, 828.0000
850.7100, 846.0000
851.8450, 831.0000
852.9800, 826.0000
854.1140, 842.0000
855.2480, 820.0000
856.3820, 854.0000
857.5160, 820.0000
858.6500, 831.0000
859.7830, 814.0000
860.9170, 839.0000
862.0500, 839.0000
863.1830, 801.0000
864.3160, 819.0000
865.4480, 816.0000
866.5810, 830.0000
867.7130, 807.0000
868.8460, 801.0000
869.9780, 801.7726
871.1100, 809.0000
872.2410, 796.0000
873.3730, 836.0000
874.5050, 834.0000
875.6360, 818.0000
876.7670, 834.7252
877.8980, 790.0000
879.0290, 826.0000
880.1590, 834.0000
881.2900, 812.0000
882.4200, 830.0000
883.5500, 831.0000
884.6800, 811.0000
885.8100, 786.0000
886.9400, 790.0000
888.0690, 794.0000
889.1990, 800.0000
890.3280, 796.5076
891.4570, 795.0000
892.5860, 792.0000
893.7140, 789.0000
894.8430, 793.0000
895.9710, 791.4808
897.1000, 802.0000
898.2280, 794.0000
899.3560, 804.0000
900.4830, 806.0000
901.6110, 803.0000
902.7380, 826.0000
903.8660, 809.0000
904.9930, 831.0000
906.1200, 810.0000
907.2460, 793.0000
908.3730, 812.0000
909.5000, 810.0000
910.6260, 815.0000
911.7520, 825.0000
912.8780, 825.0000
914.0040, 806.0000
915.1290, 793.0000
916.2550, 803.0000
917.3800, 807.0000
918.5050, 807.1259
919.6300, 809.2781
920.7550, 818.0000
921.8800, 808.0000
923.0040, 817.0000
924.1290, 821.0000
925.2530, 800.0000
926.3770, 833.0000
927.5010, 827.0000
928.6250, 827.0000
929.7480, 810.0000
930.8720, 821.0000
931.9950, 829.0000
933.1180, 851.0000
934.2410, 862.0000
935.3640, 864.3262
936.4860, 841.0000
937.6090, 848.0000
938.7310, 860.0000
939.8530, 816.0000
940.9750, 823.0000
942.0970, 800.0000
943.2180, 816.0000
944.3400, 823.0000
945.4610, 834.0000
946.5820, 832.0000
947.7030, 844.0000
948.8240, 822.0000
949.9450, 817.0000
951.0650, 840.0000
952.1860, 798.0000
953.3060, 802.0000
954.4260, 819.0000
955.5460, 804.0000
956.6650, 837.0000
957.7850, 800.0000
958.9040, 834.0000
960.0230, 822.0000
961.1420, 807.0000
962.2610, 827.0000
963.3800, 840.0000
964.4990, 817.0000
965.6170, 822.0000
966.7350, 816.0000
967.8530, 835.0000
968.9710, 824.7392
970.0890, 825.0000
971.2070, 814.0000
972.3240, 821.0000
973.4410, 816.0000
974.5580, 805.0000
975.6750, 822.0000
976.7920, 834.0000
977.9090, 800.0000
979.0250, 826.0000
980.1410, 851.0000
981.2580, 813.0000
982.3740, 845.0000
983.4890, 811.0000
984.6050, 828.0000
985.7200, 850.0000
986.8360, 809.0000
987.9510, 842.0000
989.0660, 813.0000
990.1810, 834.0000
991.2950, 823.0000
992.4100, 840.0000
993.5240, 855.0000
994.6390, 836.0000
995.7530, 872.0000
996.8660, 856.0000
997.9800, 860.0000
999.0940, 873.0000
1000.207, 844.0000
1001.320, 839.0000
1002.433, 838.0000
1003.546, 816.0000
1004.659, 844.0000
1005.772, 839.0880
1006.884, 874.0000
1007.996, 857.0000
1009.108, 856.0000
1010.220, 865.0000
1011.332, 850.0000
1012.444, 858.0000
1013.555, 849.0000
1014.666, 838.0000
1015.777, 838.0000
1016.888, 856.0000
1017.999, 851.0000
1019.110, 862.0000
1020.220, 827.0000
1021.331, 867.0000
1022.441, 854.0000
1023.551, 881.0000
1024.661, 863.0000
1025.770, 876.0000
1026.880, 915.0000
1027.989, 906.0000
1029.098, 942.0000
1030.207, 950.0000
1031.316, 1008.000
1032.425, 1139.000
1033.533, 1133.000
1034.642, 1092.000
1035.750, 960.0000
1036.858, 975.0000
1037.966, 975.0000
1039.073, 984.0000
1040.181, 1041.000
1041.288, 1127.000
1042.396, 1188.000
1043.503, 1303.000
1044.610, 1395.000
1045.716, 1650.000
1046.823, 2302.000
1047.929, 3774.000
1049.036, 6630.000
1050.142, 9395.000
1051.248, 9178.000
1052.353, 10718.00
1053.459, 17964.00
1054.564, 37061.00
1055.670, 57138.00
1056.775, 51855.00
1057.880, 31696.00
1058.985, 14396.00
1060.089, 6316.000
1061.194, 3329.000
1062.298, 2137.000
1063.402, 1637.000
1064.506, 1379.000
1065.610, 1253.000
1066.713, 1144.000
1067.817, 1062.000
1068.920, 1042.000
1070.023, 1021.000
1071.126, 983.0000
1072.229, 951.0000
1073.332, 961.0000
1074.435, 950.0000
1075.537, 933.0000
1076.639, 953.0000
1077.741, 905.0000
1078.843, 907.0000
1079.945, 955.0000
1081.046, 923.0000
1082.148, 918.0000
1083.249, 913.0000
1084.350, 931.0000
1085.451, 908.0000
1086.551, 925.0000
1087.652, 898.0000
1088.752, 915.0000
1089.853, 909.5159
1090.953, 921.0000
1092.053, 914.0000
1093.152, 904.0000
1094.252, 920.0000
1095.351, 931.0000
1096.451, 955.0000
1097.550, 897.0000
1098.649, 921.0000
1099.748, 922.0000
1100.846, 900.0000
1101.945, 920.0000
1103.043, 874.0000
1104.141, 914.0000
1105.239, 900.0000
1106.337, 904.0000
1107.434, 928.0000
1108.532, 896.0000
1109.629, 897.0000
1110.726, 893.0000
1111.823, 941.0000
1112.920, 884.0000
1114.017, 875.0000
1115.113, 906.0000
1116.210, 875.0000
1117.306, 867.0000
1118.402, 906.0000
1119.498, 918.0000
1120.593, 901.0000
1121.689, 856.0000
1122.784, 875.0000
1123.879, 886.0000
1124.974, 883.0000
1126.069, 875.0000
1127.164, 866.0000
1128.259, 886.0000
1129.353, 902.0000
1130.447, 878.0000
1131.541, 899.0000
1132.635, 867.0000
1133.729, 877.0000
1134.822, 891.0000
1135.916, 903.0000
1137.009, 865.0000
1138.102, 869.0000
1139.195, 865.0000
1140.288, 864.0000
1141.380, 891.0000
1142.473, 844.0000
1143.565, 896.0000
1144.657, 918.0000
1145.749, 873.0000
1146.841, 865.0000
1147.932, 905.0000
1149.024, 913.0000
1150.115, 853.0000
1151.206, 886.0000
1152.297, 885.0000
1153.388, 903.0000
1154.479, 900.0000
1155.569, 884.0000
1156.659, 893.0000
1157.750, 877.0000
1158.839, 884.0000
1159.929, 870.0000
1161.019, 872.7386
1162.108, 889.0000
1163.198, 882.0000
1164.287, 902.0000
1165.376, 919.0000
1166.465, 898.0000
1167.553, 884.0000
1168.642, 907.0000
1169.730, 897.0000
1170.818, 915.0000
1171.906, 927.0000
1172.994, 896.0000
1174.082, 887.0000
1175.170, 899.0000
1176.257, 904.0000
1177.344, 923.0000
1178.431, 898.0000
1179.518, 920.0000
1180.605, 886.0000
1181.691, 891.0000
1182.778, 926.0000
1183.864, 928.0000
1184.950, 907.0000
1186.036, 920.0000
1187.122, 898.0000
1188.207, 899.0000
1189.292, 922.0000
1190.378, 912.0000
1191.463, 912.0000
1192.548, 907.0000
1193.632, 921.0000
1194.717, 905.0000
1195.801, 927.0000
1196.886, 914.0000
1197.970, 909.0000
1199.054, 903.0000
1200.137, 898.6459
1201.221, 898.0000
1202.305, 905.0000
1203.388, 912.0000
1204.471, 909.3927
1205.554, 885.0000
1206.637, 914.0000
1207.719, 929.0000
1208.802, 948.0000
1209.884, 925.0000
1210.966, 924.0000
1212.048, 955.0000
1213.130, 933.0000
1214.212, 958.0000
1215.293, 954.0000
1216.374, 919.0000
1217.456, 928.0000
1218.536, 925.0000
1219.617, 933.0000
1220.698, 949.0000
1221.778, 950.0000
1222.859, 951.0000
1223.939, 949.0000
1225.019, 933.0000
1226.099, 970.0000
1227.178, 954.0000
1228.258, 942.0000
1229.337, 971.0000
1230.417, 927.0000
1231.496, 969.0000
1232.574, 904.0000
1233.653, 941.0000
1234.732, 949.0000
1235.810, 947.0000
