##NAMES=Chabazite-Ca
##RRUFFID=R050075
##IDEAL CHEMISTRY=Ca_2_Al_4_Si_8_O_24_&#183;13H_2_O
##LOCALITY=Victoria, Australia
##OWNER=RRUFF
##SOURCE=Rock Currier
##DESCRIPTION=White pseudohexagonal crystals
##STATUS=The identification of this mineral has been confirmed by X-ray diffraction and chemical analysis
##URL=rruff.info/R050075
##MEASURED CHEMISTRY=(Ca_0.79_Na_0.22_K_0.14_)_Σ=1.15_(Si_4.08_Al_1.92_)O_12_·6H_2_O
##PIN_ID=M01326
##ORIENTATION=Laser parallel to (-1 1 0). Fiducial mark perpendicular to laser is parallel to [1 1 1]
65.41600, 58293.00
66.65000, 67146.00
67.88400, 76834.00
69.11700, 87638.00
70.35100, 98433.00
71.58400, 109528.0
72.81800, 120718.0
74.05100, 130900.0
75.28400, 141007.0
76.51700, 149091.0
77.74900, 156995.0
78.98200, 163394.0
80.21400, 169950.0
81.44700, 173885.0
82.67900, 178556.0
83.91100, 181958.0
85.14300, 186479.0
86.37400, 189769.0
87.60600, 191883.0
88.83700, 192946.0
90.06900, 194426.0
91.30000, 196365.0
92.53100, 197610.0
93.76200, 198428.0
94.99300, 200348.0
96.22300, 200653.0
97.45400, 200744.0
98.68400, 202111.0
99.91400, 200729.0
101.1440, 201307.0
102.3740, 201286.0
103.6040, 201377.0
104.8340, 201868.0
106.0630, 202181.0
107.2930, 202384.0
108.5220, 203041.0
109.7510, 203465.0
110.9800, 203430.0
112.2090, 203748.0
113.4370, 203289.0
114.6660, 203377.0
115.8940, 204380.0
117.1220, 205416.0
118.3510, 205194.0
119.5790, 206136.0
120.8060, 205924.0
122.0340, 206269.0
123.2620, 205817.0
124.4890, 206119.0
125.7160, 206381.0
126.9430, 205610.0
128.1700, 205123.0
129.3970, 204709.0
130.6240, 204328.0
131.8500, 204738.0
133.0770, 204009.0
134.3030, 203991.0
135.5290, 202869.0
136.7550, 201858.0
137.9810, 201521.0
139.2070, 200712.0
140.4320, 199382.0
141.6580, 198201.0
142.8830, 195708.0
144.1080, 194830.0
145.3330, 192381.0
146.5580, 190552.0
147.7830, 188977.0
149.0070, 186209.0
150.2320, 184839.0
151.4560, 182068.0
152.6800, 180083.0
153.9040, 177216.0
155.1280, 175559.4
156.3520, 173560.0
157.5760, 172136.0
158.7990, 169336.0
160.0220, 167391.0
161.2450, 164998.0
162.4680, 162962.0
163.6910, 161575.0
164.9140, 159426.0
166.1370, 158336.0
167.3590, 156132.0
168.5810, 154366.0
169.8040, 152635.0
171.0260, 151527.0
172.2480, 149702.0
173.4690, 148406.0
174.6910, 146607.0
175.9120, 144441.0
177.1340, 142761.0
178.3550, 141216.0
179.5760, 139633.0
180.7970, 137486.0
182.0180, 135928.0
183.2380, 133632.0
184.4590, 131765.0
185.6790, 130338.0
186.8990, 128014.0
188.1190, 125912.0
189.3390, 124119.0
190.5590, 121734.0
191.7780, 120133.0
192.9980, 117511.0
194.2170, 116215.0
195.4360, 114254.0
196.6550, 112406.0
197.8740, 110321.0
199.0930, 108415.1
200.3120, 106502.0
201.5300, 104642.0
202.7480, 102788.0
203.9670, 101239.0
205.1850, 99184.00
206.4020, 97401.00
207.6200, 96198.00
208.8380, 94357.00
210.0550, 92754.00
211.2730, 91209.00
212.4900, 90114.00
213.7070, 89097.00
214.9240, 87400.00
216.1400, 86452.00
217.3570, 85096.00
218.5730, 83912.00
219.7900, 83167.00
221.0060, 81856.00
222.2220, 80759.00
223.4380, 79997.00
224.6540, 79150.00
225.8690, 78167.00
227.0850, 77239.00
228.3000, 76549.19
229.5150, 76037.00
230.7300, 75166.00
231.9450, 74741.00
233.1600, 74011.00
234.3740, 73501.70
235.5890, 73058.47
236.8030, 72563.00
238.0170, 72269.00
239.2310, 71879.00
240.4450, 71625.00
241.6590, 71102.00
242.8720, 70982.00
244.0860, 70945.00
245.2990, 70672.00
246.5120, 70122.00
247.7250, 70204.00
248.9380, 70028.00
250.1510, 69710.00
251.3630, 69852.00
252.5750, 69361.00
253.7880, 69443.00
255.0000, 69065.00
256.2120, 69229.00
257.4240, 68920.00
258.6350, 68670.00
259.8470, 68975.00
261.0580, 68762.00
262.2690, 68600.00
263.4810, 68609.00
264.6920, 68839.00
265.9020, 68377.00
267.1130, 68198.00
268.3240, 68167.00
269.5340, 68505.00
270.7440, 68632.00
271.9540, 68482.00
273.1640, 68169.00
274.3740, 68467.00
275.5840, 68530.00
276.7930, 68221.00
278.0020, 68741.00
279.2120, 69027.00
280.4210, 69236.00
281.6300, 69451.00
282.8380, 69653.00
284.0470, 69743.00
285.2550, 69888.00
286.4640, 70449.00
287.6720, 70682.00
288.8800, 71402.00
290.0880, 71481.00
291.2960, 71612.00
292.5030, 71949.00
293.7110, 72632.00
294.9180, 72596.00
296.1250, 73190.00
297.3320, 72530.00
298.5390, 72906.00
299.7460, 73212.00
300.9520, 73595.00
302.1590, 73617.00
303.3650, 74070.00
304.5710, 73866.00
305.7770, 74273.00
306.9830, 74672.00
308.1890, 74701.00
309.3940, 75254.00
310.6000, 75709.00
311.8050, 76660.00
313.0100, 77169.00
314.2150, 77710.00
315.4200, 78679.00
316.6240, 79384.00
317.8290, 80527.00
319.0330, 81374.00
320.2370, 82754.00
321.4410, 83672.62
322.6450, 84447.00
323.8490, 85705.00
325.0530, 86637.00
326.2560, 87602.02
327.4600, 88373.00
328.6630, 89112.00
329.8660, 89719.24
331.0690, 90064.00
332.2710, 90505.00
333.4740, 90730.00
334.6760, 90597.00
335.8790, 90388.00
337.0810, 90154.00
338.2830, 89351.00
339.4850, 88380.00
340.6860, 87970.00
341.8880, 86831.00
343.0890, 85452.00
344.2910, 84068.00
345.4920, 83059.00
346.6930, 81925.00
347.8940, 80548.94
349.0940, 79378.00
350.2950, 77838.00
351.4950, 76799.00
352.6950, 75419.00
353.8950, 74455.00
355.0950, 73371.00
356.2950, 72594.00
357.4950, 71583.88
358.6940, 70753.00
359.8940, 69782.00
361.0930, 69041.00
362.2920, 68268.00
363.4910, 68283.00
364.6890, 67176.00
365.8880, 66676.00
367.0860, 65957.00
368.2850, 65293.00
369.4830, 65193.00
370.6810, 64757.00
371.8790, 64796.00
373.0760, 64011.00
374.2740, 63646.00
375.4710, 63782.00
376.6690, 63250.00
377.8660, 63453.00
379.0630, 63316.00
380.2590, 63092.00
381.4560, 63036.00
382.6530, 63033.25
383.8490, 62811.00
385.0450, 63184.00
386.2410, 63167.00
387.4370, 63308.55
388.6330, 63189.00
389.8280, 63295.00
391.0240, 63431.00
392.2190, 63286.00
393.4140, 63320.00
394.6090, 63647.00
395.8040, 64249.00
396.9990, 63936.00
398.1930, 64582.00
399.3880, 64471.00
400.5820, 64859.00
401.7760, 64964.00
402.9700, 65147.00
404.1640, 65474.00
405.3580, 65736.00
406.5510, 65828.00
407.7440, 66197.00
408.9380, 66423.00
410.1310, 67217.00
411.3240, 67773.00
412.5160, 68312.00
413.7090, 69649.00
414.9010, 70226.00
416.0940, 71552.00
417.2860, 72680.00
418.4780, 73578.00
419.6700, 75102.00
420.8610, 76151.00
422.0530, 77951.00
423.2440, 79684.00
424.4360, 81795.00
425.6270, 84251.00
426.8180, 85982.00
428.0080, 88535.00
429.1990, 91657.00
430.3890, 94656.00
431.5800, 97928.00
432.7700, 101186.0
433.9600, 105804.0
435.1500, 110369.0
436.3400, 114225.0
437.5290, 119849.0
438.7190, 125221.0
439.9080, 130749.0
441.0970, 136580.0
442.2860, 142331.0
443.4750, 149029.0
444.6640, 156302.0
445.8520, 162918.0
447.0400, 172847.0
448.2290, 178369.0
449.4170, 185594.0
450.6050, 192928.0
451.7920, 198571.0
452.9800, 204214.0
454.1670, 209680.0
455.3550, 214546.0
456.5420, 219768.0
457.7290, 223105.0
458.9160, 227588.0
460.1030, 228516.0
461.2890, 231773.0
462.4750, 232630.0
463.6620, 234533.0
464.8480, 235804.0
466.0340, 237129.0
467.2200, 238527.0
468.4050, 240848.0
469.5910, 242898.5
470.7760, 245007.0
471.9610, 248092.0
473.1460, 251326.0
474.3310, 254403.0
475.5160, 257918.0
476.7000, 260531.0
477.8850, 263546.0
479.0690, 265929.0
480.2530, 265435.0
481.4370, 265273.0
482.6210, 263343.0
483.8050, 260023.0
484.9880, 254387.0
486.1710, 247592.0
487.3550, 240300.0
488.5380, 231134.0
489.7210, 221572.0
490.9030, 211743.0
492.0860, 201855.0
493.2680, 190375.0
494.4510, 179937.0
495.6330, 170365.0
496.8150, 161193.0
497.9970, 151914.0
499.1780, 143510.5
500.3600, 135299.0
501.5410, 127707.0
502.7220, 120758.0
503.9030, 114293.0
505.0840, 108875.0
506.2650, 103612.0
507.4460, 98552.00
508.6260, 94395.00
509.8060, 89975.00
510.9870, 87130.00
512.1670, 82902.00
513.3460, 80086.00
514.5260, 77694.00
515.7060, 75099.00
516.8850, 72755.96
518.0640, 70087.00
519.2430, 68519.00
520.4220, 66623.00
521.6010, 65187.56
522.7790, 63830.00
523.9580, 62430.00
525.1360, 61274.00
526.3140, 60014.00
527.4920, 59019.00
528.6700, 57965.08
529.8480, 57141.08
531.0250, 56155.00
532.2030, 55662.00
533.3800, 55051.00
534.5570, 54306.01
535.7340, 53851.46
536.9110, 53652.00
538.0870, 52855.00
539.2640, 52396.00
540.4400, 52012.00
541.6160, 51307.00
542.7920, 50932.00
543.9680, 50503.00
545.1440, 50134.20
546.3190, 50471.00
547.4940, 49599.00
548.6700, 49548.00
549.8450, 49344.00
551.0200, 48279.00
552.1940, 47918.00
553.3690, 47705.00
554.5430, 47348.00
555.7180, 47022.00
556.8920, 46954.00
558.0660, 46306.00
559.2400, 46218.00
560.4130, 45999.46
561.5870, 46108.00
562.7600, 45684.00
563.9330, 45483.00
565.1060, 45289.00
566.2790, 45131.09
567.4520, 45129.00
568.6250, 45034.00
569.7970, 44734.00
570.9690, 44782.00
572.1410, 44545.00
573.3130, 44489.00
574.4850, 44602.00
575.6570, 44112.00
576.8280, 44297.00
578.0000, 44196.00
579.1710, 44045.00
580.3420, 43944.00
581.5130, 44024.00
582.6830, 43790.00
583.8540, 43655.00
585.0240, 43668.00
586.1940, 43467.00
587.3650, 43350.00
588.5340, 43137.00
589.7040, 43064.00
590.8740, 42918.46
592.0430, 42794.00
593.2130, 42655.00
594.3820, 42622.00
595.5510, 42435.00
596.7200, 42364.00
597.8880, 41996.00
599.0570, 41724.00
600.2250, 41508.00
601.3930, 41325.00
602.5610, 41403.00
603.7290, 41275.00
604.8970, 41040.00
606.0650, 41042.00
607.2320, 40694.00
608.3990, 40884.00
609.5670, 40840.00
610.7330, 40705.00
611.9000, 40300.00
613.0670, 40273.00
614.2330, 40303.00
615.4000, 40237.00
616.5660, 40201.00
617.7320, 40259.00
618.8980, 40021.00
620.0640, 39887.00
621.2290, 39932.00
622.3950, 40017.00
623.5600, 40180.00
624.7250, 40012.00
625.8900, 40270.00
627.0550, 40171.00
628.2190, 39990.00
629.3840, 40099.00
630.5480, 39976.00
631.7120, 40028.00
632.8760, 40267.00
634.0400, 39895.00
635.2040, 39597.00
636.3670, 39699.00
637.5300, 39820.00
638.6940, 39926.00
639.8570, 39976.00
641.0190, 39888.00
642.1820, 40204.00
643.3450, 39997.00
644.5070, 40324.00
645.6690, 40295.00
646.8320, 40506.00
647.9930, 40617.00
649.1550, 40488.00
650.3170, 40735.00
651.4780, 40533.00
652.6400, 40542.00
653.8010, 40376.00
654.9620, 40434.00
656.1230, 40090.00
657.2830, 40583.00
658.4440, 40529.00
659.6040, 39637.00
660.7640, 39902.00
661.9240, 39231.00
663.0840, 39219.00
664.2440, 38623.00
665.4040, 38844.00
666.5630, 38731.00
667.7220, 38246.00
668.8810, 38343.00
670.0400, 38108.00
671.1990, 37934.00
672.3580, 37709.00
673.5160, 37736.00
674.6750, 37536.00
675.8330, 37448.00
676.9910, 37534.00
678.1480, 37129.00
679.3060, 37122.00
680.4640, 37199.00
681.6210, 37096.00
682.7780, 37109.00
683.9350, 36955.00
685.0920, 36911.00
686.2490, 36900.12
687.4050, 36893.00
688.5620, 36823.00
689.7180, 37007.00
690.8740, 36852.51
692.0300, 37075.00
693.1860, 36900.00
694.3410, 37090.00
695.4970, 37142.00
696.6520, 37061.00
697.8070, 37143.00
698.9620, 37111.00
700.1170, 37174.75
701.2720, 37076.00
702.4260, 37340.00
703.5810, 37422.00
704.7350, 37544.00
705.8890, 37189.00
707.0430, 37311.00
708.1960, 37384.00
709.3500, 37493.00
710.5030, 37438.00
711.6570, 37368.00
712.8100, 37470.00
713.9630, 37377.00
715.1150, 37300.00
716.2680, 37248.00
717.4200, 36997.00
718.5730, 37284.00
719.7250, 36840.00
720.8770, 36818.00
722.0280, 36885.00
723.1800, 36521.00
724.3310, 36439.00
725.4830, 36325.00
726.6340, 35975.00
727.7850, 36437.00
728.9360, 36134.00
730.0860, 36046.00
731.2370, 36276.00
732.3870, 35628.00
733.5370, 35534.00
734.6880, 35421.00
735.8370, 35826.00
736.9870, 35580.00
738.1370, 35336.00
739.2860, 35437.00
740.4350, 35418.00
741.5840, 35244.00
742.7330, 35094.00
743.8820, 34922.00
745.0310, 35019.00
746.1790, 35303.00
747.3270, 35421.00
748.4750, 35437.00
749.6230, 35692.00
750.7710, 35441.00
751.9190, 35633.00
753.0660, 35734.00
754.2140, 35860.00
755.3610, 35983.00
756.5080, 36087.00
757.6540, 36179.00
758.8010, 36435.00
759.9480, 36611.00
761.0940, 36491.00
762.2400, 36709.00
763.3860, 37072.00
764.5320, 36796.00
765.6780, 37144.00
766.8230, 37006.00
767.9690, 37211.00
769.1140, 37025.00
770.2590, 36876.00
771.4040, 36777.00
772.5490, 36799.00
773.6930, 36642.00
774.8380, 36332.00
775.9820, 36374.00
777.1260, 36269.00
778.2700, 36570.00
779.4140, 36377.00
780.5570, 36468.00
781.7010, 36380.00
782.8440, 36383.00
783.9870, 36512.00
785.1300, 36440.00
786.2730, 36811.00
787.4150, 36604.00
788.5580, 36528.24
789.7000, 36650.22
790.8420, 36638.59
791.9840, 36499.22
793.1260, 35921.44
794.2680, 35854.79
795.4090, 35549.91
796.5510, 35212.02
797.6920, 35148.98
798.8330, 34511.81
799.9740, 34396.12
801.1150, 33822.00
802.2550, 33373.00
803.3950, 32919.00
804.5360, 32457.00
805.6760, 32098.00
806.8160, 31642.08
807.9550, 31329.00
809.0950, 30793.00
810.2340, 30614.00
811.3740, 30189.00
812.5130, 29802.00
813.6520, 29608.00
814.7900, 29228.00
815.9290, 29150.00
817.0670, 28950.00
818.2060, 28751.00
819.3440, 28530.00
820.4820, 28338.00
821.6190, 28204.00
822.7570, 28075.18
823.8950, 27914.83
825.0320, 27876.00
826.1690, 27680.00
827.3060, 27529.00
828.4430, 27518.00
829.5790, 27496.00
830.7160, 27235.00
831.8520, 27269.00
832.9880, 26841.00
834.1240, 27027.00
835.2600, 26867.00
836.3960, 26813.00
837.5310, 26755.00
838.6670, 26646.82
839.8020, 26601.00
840.9370, 26525.00
842.0720, 26398.00
843.2060, 26420.00
844.3410, 26521.00
845.4750, 26359.00
846.6100, 26307.00
847.7440, 26434.00
848.8770, 26361.00
850.0110, 26510.00
851.1450, 26143.00
852.2780, 26226.00
853.4110, 26372.00
854.5440, 26227.00
855.6770, 26286.00
856.8100, 26382.00
857.9430, 26202.00
859.0750, 26330.00
860.2070, 26279.00
861.3390, 26290.00
862.4710, 26394.00
863.6030, 26110.00
864.7350, 26271.00
865.8660, 26300.00
866.9970, 25896.00
868.1280, 26049.00
869.2590, 25867.00
870.3900, 26131.00
871.5210, 25883.00
872.6510, 25823.00
873.7820, 25706.00
874.9120, 25673.80
876.0420, 25814.00
877.1710, 25724.00
878.3010, 25615.00
879.4300, 25682.00
880.5600, 25443.00
881.6890, 25729.00
882.8180, 25560.00
883.9470, 25628.00
885.0750, 25581.00
886.2040, 25278.00
887.3320, 25646.00
888.4600, 25458.00
889.5880, 25431.00
890.7160, 25532.00
891.8440, 25283.00
892.9710, 25381.00
894.0990, 25686.00
895.2260, 25417.00
896.3530, 25505.00
897.4800, 25468.00
898.6060, 25369.00
899.7330, 25542.00
900.8590, 25447.00
901.9850, 25477.00
903.1110, 25509.00
904.2370, 25504.00
905.3630, 25554.00
906.4890, 25423.00
907.6140, 26041.00
908.7390, 25302.00
909.8640, 25639.00
910.9890, 25689.00
912.1140, 25301.00
913.2380, 25638.00
914.3630, 25668.00
915.4870, 25644.00
916.6110, 25719.00
917.7350, 25676.62
918.8580, 25604.67
919.9820, 25625.37
921.1050, 25656.00
922.2290, 25637.00
923.3520, 25754.00
924.4750, 25565.00
925.5970, 25697.00
926.7200, 25560.00
927.8420, 25947.00
928.9640, 25943.00
930.0870, 25856.00
931.2080, 25868.00
932.3300, 25908.00
933.4520, 25852.00
934.5730, 26009.00
935.6940, 25764.00
936.8150, 25971.00
937.9360, 26010.00
939.0570, 26256.00
940.1780, 26061.00
941.2980, 26248.00
942.4180, 26237.00
943.5380, 26300.00
944.6580, 26507.00
945.7780, 26626.00
946.8980, 26497.00
948.0170, 26691.00
949.1360, 26897.00
950.2560, 26849.00
951.3740, 27136.00
952.4930, 27219.00
953.6120, 27189.00
954.7300, 27457.00
955.8480, 27410.00
956.9670, 27676.00
958.0850, 27692.00
959.2020, 27877.00
960.3200, 28154.00
961.4370, 28157.00
962.5550, 28219.00
963.6720, 28406.00
964.7890, 28573.00
965.9050, 28700.00
967.0220, 28867.09
968.1380, 28984.00
969.2550, 29182.00
970.3710, 29302.14
971.4870, 29508.00
972.6030, 29542.00
973.7180, 29678.00
974.8340, 29832.00
975.9490, 30061.00
977.0640, 30217.00
978.1790, 30345.00
979.2940, 30424.00
980.4080, 30854.00
981.5230, 31046.00
982.6370, 31161.00
983.7510, 31444.00
984.8650, 31669.00
985.9790, 31943.35
987.0920, 32141.00
988.2060, 32515.00
989.3190, 32933.00
990.4320, 33134.00
991.5450, 33300.00
992.6580, 33344.00
993.7710, 33596.00
994.8830, 34181.00
995.9950, 34192.00
997.1080, 35009.00
998.2190, 34580.00
999.3310, 35053.00
1000.443, 35297.00
1001.554, 35675.00
1002.666, 36038.00
1003.777, 36402.00
1004.888, 36671.00
1005.998, 36682.00
1007.109, 36813.00
1008.219, 36797.00
1009.330, 36634.00
1010.440, 37037.00
1011.550, 37061.00
1012.660, 37224.00
1013.769, 37593.00
1014.879, 37472.00
1015.988, 37647.00
1017.097, 37914.00
1018.206, 38155.00
1019.315, 38188.00
1020.423, 38449.00
1021.532, 38862.00
1022.640, 38730.00
1023.748, 39099.00
1024.856, 39053.00
1025.964, 39512.00
1027.072, 39402.00
1028.179, 39404.00
1029.286, 39401.00
1030.393, 39353.00
1031.500, 39509.00
1032.607, 39794.00
1033.714, 39567.00
1034.820, 39706.00
1035.926, 39866.00
1037.032, 39611.00
1038.138, 40069.00
1039.244, 40013.00
1040.350, 40247.00
1041.455, 40120.00
1042.560, 39998.00
1043.665, 40167.00
1044.770, 40616.00
1045.875, 40424.00
1046.980, 40790.00
1048.084, 40496.00
1049.188, 40819.00
1050.292, 40898.00
1051.396, 41329.00
1052.500, 41401.00
1053.604, 41593.00
1054.707, 41923.00
1055.810, 42307.00
1056.913, 42641.00
1058.016, 43064.77
1059.119, 43437.00
1060.222, 43931.54
1061.324, 44268.44
1062.426, 44715.80
1063.528, 44992.00
1064.630, 45494.00
1065.732, 45747.00
1066.834, 46220.00
1067.935, 46643.19
1069.036, 47134.00
1070.137, 47543.00
1071.238, 48072.00
1072.339, 48558.00
1073.439, 48625.00
1074.540, 48807.00
1075.640, 49109.00
1076.740, 49520.00
1077.840, 50070.00
1078.940, 50473.00
1080.039, 50672.00
1081.138, 51153.00
1082.238, 51504.00
1083.337, 51673.00
1084.436, 51680.00
1085.534, 52037.00
1086.633, 52140.00
1087.731, 52129.00
1088.829, 52570.00
1089.927, 52583.52
1091.025, 52813.74
1092.123, 52838.00
1093.220, 53028.00
1094.318, 53079.00
1095.415, 52793.00
1096.512, 52763.00
1097.609, 52780.00
1098.705, 52893.00
1099.802, 52871.00
1100.898, 52841.31
1101.994, 52465.00
1103.090, 52714.00
1104.186, 52381.57
1105.282, 52304.00
1106.377, 52143.00
1107.473, 51820.00
1108.568, 51864.00
1109.663, 51583.00
1110.758, 51345.20
1111.852, 51167.00
1112.947, 50766.00
1114.041, 50704.00
1115.135, 50354.00
1116.229, 50019.00
1117.323, 49792.00
1118.417, 49673.00
1119.510, 49558.00
1120.603, 49059.00
1121.696, 49030.00
1122.789, 48571.00
1123.882, 48270.00
1124.975, 48219.00
1126.067, 47829.87
1127.159, 47655.00
1128.251, 47274.00
1129.343, 46957.00
1130.435, 46576.00
1131.527, 46059.00
1132.618, 45896.00
1133.709, 45556.00
1134.800, 45540.00
1135.891, 44859.00
1136.982, 44833.00
1138.073, 44124.00
1139.163, 43928.00
1140.253, 43631.00
1141.343, 43302.00
1142.433, 42709.00
1143.523, 42451.00
1144.612, 41955.00
1145.702, 41532.00
1146.791, 41590.00
1147.880, 40729.00
1148.969, 40714.00
1150.058, 39812.00
1151.146, 39653.00
1152.235, 39025.00
1153.323, 38858.00
1154.411, 38726.00
1155.499, 37957.00
1156.586, 37812.00
1157.674, 37164.00
1158.761, 36614.00
1159.848, 36342.00
1160.935, 35858.00
1162.022, 35962.00
1163.109, 35173.00
1164.195, 35036.00
1165.281, 34773.00
1166.368, 34134.00
1167.454, 33919.00
1168.539, 33409.00
1169.625, 33379.00
1170.710, 32643.00
1171.796, 32526.00
1172.881, 32315.00
1173.966, 31713.00
1175.051, 31882.00
1176.135, 31866.00
1177.220, 31267.31
1178.304, 30471.00
1179.388, 30200.00
1180.472, 30054.00
1181.556, 29438.00
1182.639, 29483.00
1183.723, 29002.00
1184.806, 29167.00
1185.889, 28901.00
1186.972, 28341.00
1188.055, 28138.00
1189.137, 27951.00
1190.219, 27804.00
1191.302, 27732.00
1192.384, 27389.00
1193.466, 27152.00
1194.547, 27188.00
1195.629, 26785.00
1196.710, 26724.00
1197.791, 26336.00
1198.872, 26488.00
1199.953, 26246.00
1201.034, 26070.00
1202.114, 26027.88
1203.195, 26132.00
1204.275, 25790.00
1205.355, 25790.00
1206.435, 25702.00
1207.514, 25519.00
1208.594, 25620.00
1209.673, 25463.00
1210.752, 25400.38
1211.831, 25792.00
1212.910, 25155.00
1213.989, 25294.00
1215.067, 25025.00
1216.145, 25325.00
1217.223, 25120.00
1218.301, 25123.00
1219.379, 25127.00
1220.457, 24876.00
1221.534, 24916.00
1222.611, 24927.00
1223.688, 24880.00
1224.765, 24950.00
1225.842, 24804.00
1226.918, 24729.00
1227.995, 24906.00
1229.071, 24549.00
1230.147, 24867.00
1231.223, 24746.00
1232.299, 24719.00
1233.374, 24518.00
1234.449, 24786.00
1235.525, 24594.00
1236.600, 24547.00
1237.674, 25028.00
1238.749, 24730.62
1239.824, 24980.00
1240.898, 24665.00
1241.972, 24578.00
1243.046, 24770.00
1244.120, 24561.00
1245.193, 24485.00
1246.267, 24675.00
1247.340, 24510.61
1248.413, 24688.00
