##NAMES=Chabazite-Ca
##RRUFFID=R050075
##IDEAL CHEMISTRY=Ca_2_Al_4_Si_8_O_24_&#183;13H_2_O
##LOCALITY=Victoria, Australia
##OWNER=RRUFF
##SOURCE=Rock Currier
##DESCRIPTION=White pseudohexagonal crystals
##STATUS=The identification of this mineral has been confirmed by X-ray diffraction and chemical analysis
##URL=rruff.info/R050075
##MEASURED CHEMISTRY=(Ca_0.79_Na_0.22_K_0.14_)_Σ=1.15_(Si_4.08_Al_1.92_)O_12_·6H_2_O
##PIN_ID=M00950
##ORIENTATION=Laser parallel to (1 1 1). Fiducial mark perpendicular to laser is parallel to [-1 1 0]
64.80100, 5053.000
66.04100, 6059.000
67.28100, 7531.000
68.52100, 9467.000
69.76100, 11654.00
71.00100, 14419.00
72.24000, 17632.00
73.47900, 21452.00
74.71800, 25690.00
75.95700, 30212.00
77.19600, 35799.00
78.43500, 41520.00
79.67300, 47852.00
80.91200, 54398.00
82.15000, 61419.00
83.38800, 68690.00
84.62600, 76117.00
85.86300, 83305.00
87.10100, 89275.00
88.33800, 94729.00
89.57500, 99454.00
90.81200, 104081.0
92.04900, 108848.0
93.28600, 113174.0
94.52300, 117073.0
95.75900, 119493.0
96.99500, 121743.0
98.23100, 123958.0
99.46700, 125481.0
100.7030, 126904.0
101.9390, 127994.0
103.1740, 129067.4
104.4090, 129803.0
105.6440, 130759.0
106.8790, 131266.0
108.1140, 131966.0
109.3490, 132258.3
110.5830, 132756.0
111.8180, 132488.0
113.0520, 131940.0
114.2860, 131684.0
115.5200, 132105.0
116.7530, 131980.0
117.9870, 132260.0
119.2200, 132595.0
120.4530, 131730.0
121.6860, 131357.0
122.9190, 130581.0
124.1520, 131127.0
125.3850, 130096.0
126.6170, 129674.0
127.8490, 128738.0
129.0810, 128052.0
130.3130, 128151.0
131.5450, 128052.0
132.7770, 126939.0
134.0080, 126708.0
135.2390, 125492.0
136.4710, 124867.0
137.7020, 123770.0
138.9320, 123723.0
140.1630, 122438.0
141.3930, 121689.0
142.6240, 121223.0
143.8540, 118938.0
145.0840, 117028.0
146.3140, 116020.0
147.5440, 115248.0
148.7730, 113444.0
150.0020, 112082.0
151.2320, 110965.0
152.4610, 109471.0
153.6900, 108017.0
154.9180, 107127.0
156.1470, 105585.0
157.3750, 104547.0
158.6040, 103098.0
159.8320, 102343.0
161.0600, 101726.0
162.2870, 100424.0
163.5150, 99504.00
164.7420, 99194.00
165.9700, 98101.00
167.1970, 97364.00
168.4240, 97030.00
169.6510, 96546.00
170.8770, 95728.00
172.1040, 95244.00
173.3300, 95189.00
174.5560, 94578.00
175.7820, 93713.00
177.0080, 93064.00
178.2340, 92355.00
179.4590, 92122.00
180.6850, 91321.00
181.9100, 90497.00
183.1350, 89358.00
184.3600, 88756.00
185.5850, 87943.00
186.8090, 86858.00
188.0340, 85693.00
189.2580, 84700.00
190.4820, 83628.00
191.7060, 82723.00
192.9300, 81116.00
194.1530, 80228.00
195.3770, 78733.00
196.6000, 77806.00
197.8230, 76563.00
199.0460, 75483.00
200.2690, 74153.00
201.4910, 73132.00
202.7140, 71927.00
203.9360, 70753.00
205.1580, 69698.23
206.3800, 68490.00
207.6020, 67506.00
208.8240, 66399.00
210.0450, 65256.00
211.2670, 64383.00
212.4880, 63554.00
213.7090, 62688.00
214.9300, 61924.00
216.1510, 61026.71
217.3710, 60321.00
218.5920, 59318.00
219.8120, 58495.00
221.0320, 57737.00
222.2520, 57233.00
223.4720, 56758.00
224.6910, 55892.00
225.9110, 55338.00
227.1300, 55158.00
228.3490, 54644.00
229.5680, 53894.00
230.7870, 53413.00
232.0050, 52936.00
233.2240, 52566.00
234.4420, 52649.00
235.6600, 51999.00
236.8780, 52156.00
238.0960, 51622.00
239.3140, 51605.00
240.5310, 51430.00
241.7490, 51175.00
242.9660, 50981.00
244.1830, 51015.00
245.4000, 51081.00
246.6160, 51031.00
247.8330, 51090.37
249.0490, 50841.00
250.2660, 51021.00
251.4820, 50690.00
252.6980, 50364.00
253.9130, 50565.00
255.1290, 50522.00
256.3440, 50446.00
257.5600, 50671.00
258.7750, 50431.00
259.9900, 50502.00
261.2040, 50396.00
262.4190, 50372.00
263.6330, 50475.00
264.8480, 50412.00
266.0620, 50350.00
267.2760, 50297.00
268.4900, 50339.00
269.7030, 50610.00
270.9170, 50276.00
272.1300, 50436.00
273.3430, 50156.00
274.5560, 50342.00
275.7690, 50183.00
276.9820, 50347.00
278.1940, 50550.00
279.4070, 50371.00
280.6190, 50477.00
281.8310, 50595.00
283.0430, 50871.00
284.2550, 51091.00
285.4660, 50841.00
286.6770, 51253.00
287.8890, 51166.00
289.1000, 51471.00
290.3110, 51498.00
291.5210, 51778.00
292.7320, 52012.00
293.9420, 52453.00
295.1530, 52734.00
296.3630, 53043.00
297.5730, 53280.52
298.7830, 53484.91
299.9920, 53704.00
301.2020, 53824.00
302.4110, 54127.00
303.6200, 54288.00
304.8290, 54667.00
306.0380, 54968.00
307.2470, 55260.00
308.4550, 55836.00
309.6630, 56322.00
310.8720, 56619.00
312.0800, 56921.00
313.2880, 57780.00
314.4950, 58337.00
315.7030, 59008.00
316.9100, 59695.00
318.1170, 60608.00
319.3240, 61216.00
320.5310, 62286.00
321.7380, 63080.00
322.9450, 64026.00
324.1510, 64741.00
325.3570, 65759.00
326.5630, 66587.00
327.7690, 67083.00
328.9750, 67626.00
330.1810, 68470.00
331.3860, 68952.00
332.5910, 69054.00
333.7960, 69138.00
335.0010, 69576.00
336.2060, 69174.00
337.4110, 68928.00
338.6150, 67977.00
339.8200, 67584.00
341.0240, 66849.00
342.2280, 66265.00
343.4320, 64850.00
344.6350, 63750.00
345.8390, 62610.00
347.0420, 61510.00
348.2450, 60489.00
349.4480, 59649.00
350.6510, 58423.06
351.8540, 57525.00
353.0560, 56251.00
354.2590, 55537.00
355.4610, 54799.00
356.6630, 53852.00
357.8650, 53616.00
359.0670, 52862.00
360.2680, 51938.00
361.4700, 51507.00
362.6710, 51101.00
363.8720, 50581.00
365.0730, 50033.00
366.2740, 50047.00
367.4740, 49383.00
368.6750, 49477.00
369.8750, 48857.00
371.0750, 48399.00
372.2750, 47998.00
373.4750, 47666.28
374.6740, 47826.00
375.8740, 47302.00
377.0730, 47259.00
378.2720, 47344.00
379.4710, 46769.00
380.6700, 46835.00
381.8690, 46601.00
383.0670, 46440.00
384.2660, 46549.00
385.4640, 46678.00
386.6620, 46315.00
387.8600, 46545.00
389.0570, 46187.00
390.2550, 46261.00
391.4520, 45927.00
392.6490, 46562.00
393.8460, 46198.00
395.0430, 46604.00
396.2400, 46278.00
397.4370, 46102.00
398.6330, 46558.00
399.8290, 46055.00
401.0250, 46372.00
402.2210, 46544.00
403.4170, 46429.00
404.6130, 46508.00
405.8080, 47199.00
407.0030, 47375.00
408.1980, 47512.00
409.3930, 48082.00
410.5880, 48542.00
411.7830, 48963.00
412.9770, 49856.00
414.1720, 50539.00
415.3660, 51067.00
416.5600, 52102.00
417.7530, 52531.00
418.9470, 53970.00
420.1410, 54901.00
421.3340, 56449.00
422.5270, 57567.00
423.7200, 58979.00
424.9130, 60772.00
426.1060, 62519.00
427.2980, 64678.00
428.4900, 66743.00
429.6830, 69146.00
430.8750, 71497.00
432.0670, 74658.00
433.2580, 77693.00
434.4500, 80986.00
435.6410, 85216.00
436.8320, 88743.00
438.0240, 93119.00
439.2140, 97231.00
440.4050, 101644.0
441.5960, 106737.0
442.7860, 112236.0
443.9760, 117152.0
445.1670, 122987.0
446.3560, 128550.0
447.5460, 134740.0
448.7360, 140043.0
449.9250, 145525.0
451.1150, 150575.0
452.3040, 155380.0
453.4930, 159788.0
454.6810, 163545.0
455.8700, 167156.0
457.0590, 170130.0
458.2470, 171450.0
459.4350, 173136.0
460.6230, 174589.0
461.8110, 174391.0
462.9980, 173329.0
464.1860, 173599.0
465.3730, 171467.0
466.5600, 171102.0
467.7470, 170146.0
468.9340, 168882.0
470.1210, 167102.0
471.3080, 166588.0
472.4940, 166624.0
473.6800, 167054.0
474.8660, 167133.0
476.0520, 168330.0
477.2380, 168505.0
478.4230, 170129.0
479.6090, 170457.0
480.7940, 170367.0
481.9790, 169773.0
483.1640, 168536.0
484.3490, 166344.0
485.5330, 162775.0
486.7180, 159778.0
487.9020, 154816.0
489.0860, 150289.0
490.2700, 144938.0
491.4540, 138650.0
492.6370, 132261.0
493.8210, 126303.0
495.0040, 120440.0
496.1870, 113976.0
497.3700, 108232.0
498.5530, 102739.0
499.7360, 97699.00
500.9180, 92295.00
502.1000, 87569.00
503.2830, 83154.00
504.4650, 78974.00
505.6460, 74836.00
506.8280, 71915.00
508.0100, 69051.00
509.1910, 65946.00
510.3720, 63079.00
511.5530, 60778.00
512.7340, 58257.00
513.9150, 56527.00
515.0950, 54677.00
516.2760, 52934.00
517.4560, 51358.00
518.6360, 49904.39
519.8160, 48900.00
520.9950, 47185.00
522.1750, 46373.00
523.3540, 44884.00
524.5340, 44021.00
525.7130, 42993.00
526.8920, 42715.00
528.0700, 41965.00
529.2490, 41402.00
530.4270, 40724.77
531.6060, 40230.10
532.7840, 39581.00
533.9620, 39296.00
535.1390, 38842.77
536.3170, 38372.00
537.4940, 38160.00
538.6720, 37682.00
539.8490, 37145.00
541.0260, 36734.00
542.2030, 36639.00
543.3790, 36701.00
544.5560, 36159.00
545.7320, 36256.00
546.9080, 35772.00
548.0840, 35654.00
549.2600, 35264.00
550.4360, 35441.00
551.6110, 34911.00
552.7860, 34990.00
553.9620, 34841.00
555.1370, 34713.00
556.3110, 34855.00
557.4860, 34496.00
558.6610, 34569.00
559.8350, 34248.00
561.0090, 34387.00
562.1830, 34200.00
563.3570, 34102.00
564.5310, 34091.00
565.7040, 33817.00
566.8780, 34004.00
568.0510, 33762.00
569.2240, 33686.00
570.3970, 33821.00
571.5700, 33589.00
572.7420, 33640.00
573.9150, 33553.00
575.0870, 33786.00
576.2590, 33681.00
577.4310, 33488.00
578.6030, 33171.00
579.7740, 33317.00
580.9460, 33476.00
582.1170, 33243.00
583.2880, 33272.00
584.4590, 33290.00
585.6300, 33253.00
586.8010, 33073.00
587.9710, 32923.00
589.1410, 32773.20
590.3110, 32740.84
591.4810, 32665.29
592.6510, 32548.88
593.8210, 32269.24
594.9900, 32200.49
596.1600, 32047.17
597.3290, 31890.48
598.4980, 31851.40
599.6670, 31595.61
600.8350, 31554.78
602.0040, 31428.07
603.1720, 31340.73
604.3400, 31168.39
605.5080, 31022.30
606.6760, 30961.23
607.8440, 30856.78
609.0120, 30674.00
610.1790, 30655.00
611.3460, 30457.02
612.5130, 30469.91
613.6800, 30445.09
614.8470, 30384.85
616.0130, 30166.90
617.1800, 30165.12
618.3460, 30084.38
619.5120, 30005.61
620.6780, 30049.90
621.8440, 29882.92
623.0090, 29936.26
624.1750, 29909.25
625.3400, 29926.96
626.5050, 29865.10
627.6700, 29834.94
628.8350, 29895.24
629.9990, 29913.89
631.1640, 29864.00
632.3280, 29916.81
633.4920, 29801.25
634.6560, 29788.00
635.8200, 29792.00
636.9840, 29858.00
638.1470, 29900.01
639.3100, 29951.50
640.4730, 30074.00
641.6360, 30092.00
642.7990, 30169.73
643.9620, 30279.00
645.1240, 30256.00
646.2870, 30071.00
647.4490, 30231.00
648.6110, 30209.00
649.7730, 29969.00
650.9340, 29964.00
652.0960, 29948.29
653.2570, 29980.04
654.4180, 29962.79
655.5790, 29898.87
656.7400, 29665.88
657.9010, 29637.86
659.0620, 29519.53
660.2220, 29392.02
661.3820, 29376.29
662.5420, 29138.04
663.7020, 29108.82
664.8620, 28988.03
666.0210, 28900.79
667.1810, 28722.63
668.3400, 28670.22
669.4990, 28400.00
670.6580, 28467.00
671.8170, 28587.00
672.9750, 28368.00
674.1340, 28195.00
675.2920, 28050.00
676.4500, 27987.45
677.6080, 28228.00
678.7660, 27911.00
679.9230, 27876.00
681.0810, 27771.00
682.2380, 28271.00
683.3950, 27961.85
684.5520, 28024.16
685.7090, 27717.00
686.8660, 27843.00
688.0220, 27794.00
689.1780, 27708.00
690.3340, 27728.00
691.4900, 27682.00
692.6460, 27837.00
693.8020, 27798.76
694.9570, 27818.00
696.1130, 27750.00
697.2680, 27761.21
698.4230, 27862.00
699.5780, 27761.00
700.7320, 27901.00
701.8870, 27925.00
703.0410, 27819.00
704.1950, 27765.00
705.3490, 27951.00
706.5030, 27941.00
707.6570, 28124.00
708.8110, 28163.03
709.9640, 27964.00
711.1170, 28131.00
712.2700, 28164.00
713.4230, 27858.00
714.5760, 28444.00
715.7280, 28130.00
716.8810, 28406.00
718.0330, 28254.00
719.1850, 28276.00
720.3370, 28355.00
721.4890, 28295.00
722.6400, 28343.00
723.7920, 28320.69
724.9430, 28320.90
726.0940, 28261.00
727.2450, 28289.00
728.3960, 28238.07
729.5460, 28131.33
730.6970, 28194.00
731.8470, 28081.17
732.9970, 27834.00
734.1470, 27976.00
735.2970, 27813.00
736.4460, 27825.00
737.5960, 27877.00
738.7450, 27905.00
739.8940, 27981.00
741.0430, 27914.00
742.1920, 27918.00
743.3410, 27882.00
744.4890, 27991.00
745.6370, 28123.00
746.7850, 28334.00
747.9330, 28326.00
749.0810, 28659.00
750.2290, 28758.00
751.3760, 28787.00
752.5240, 29309.00
753.6710, 29329.00
754.8180, 29470.00
755.9650, 29863.00
757.1110, 29855.00
758.2580, 30162.00
759.4040, 30097.00
760.5510, 30254.00
761.6970, 30347.63
762.8420, 30569.58
763.9880, 30717.70
765.1340, 30794.18
766.2790, 30676.64
767.4240, 30739.16
768.5690, 30686.48
769.7140, 30599.61
770.8590, 30599.63
772.0030, 30352.33
773.1480, 30289.06
774.2920, 30153.00
775.4360, 29982.00
776.5800, 29729.00
777.7240, 29717.00
778.8670, 29478.00
780.0110, 29585.00
781.1540, 29304.00
782.2970, 29271.00
783.4400, 28982.00
784.5830, 29036.00
785.7250, 28776.00
786.8680, 28752.00
788.0100, 28205.00
789.1520, 28114.00
790.2940, 27867.00
791.4360, 27621.00
792.5780, 27402.00
793.7190, 27032.00
794.8600, 26610.00
796.0010, 26369.00
797.1420, 26099.00
798.2830, 25841.00
799.4240, 25384.00
800.5640, 25191.00
801.7050, 24797.00
802.8450, 24586.00
803.9850, 24219.00
805.1250, 24094.00
806.2640, 23711.00
807.4040, 23685.00
808.5430, 23503.00
809.6820, 23316.00
810.8210, 23138.00
811.9600, 22937.30
813.0990, 22753.48
814.2370, 22587.00
815.3760, 22436.00
816.5140, 22374.75
817.6520, 22360.51
818.7900, 22267.00
819.9270, 22252.00
821.0650, 22283.00
822.2020, 22120.00
823.3390, 22056.00
824.4760, 22097.00
825.6130, 21858.00
826.7500, 21965.00
827.8870, 21721.00
829.0230, 21721.00
830.1590, 21651.00
831.2950, 21700.00
832.4310, 21674.81
833.5670, 21631.85
834.7030, 21678.00
835.8380, 21545.00
836.9730, 21537.00
838.1080, 21492.00
839.2430, 21554.00
840.3780, 21620.00
841.5130, 21625.00
842.6470, 21418.00
843.7810, 21544.00
844.9150, 21405.00
846.0490, 21465.00
847.1830, 21391.00
848.3170, 21273.00
849.4500, 21275.00
850.5830, 21341.00
851.7160, 21368.00
852.8490, 21252.00
853.9820, 21550.00
855.1150, 21329.00
856.2470, 21364.00
857.3800, 21241.00
858.5120, 21429.00
859.6440, 21147.00
860.7760, 21287.00
861.9070, 21306.00
863.0390, 21256.00
864.1700, 21315.00
865.3010, 21255.57
866.4320, 21164.00
867.5630, 21136.00
868.6940, 21039.00
869.8240, 21049.27
870.9540, 21043.13
872.0850, 21077.00
873.2150, 21075.00
874.3450, 21101.00
875.4740, 21091.00
876.6040, 21131.59
877.7330, 21115.56
878.8620, 21092.78
879.9910, 21076.00
881.1200, 20999.00
882.2490, 20932.00
883.3770, 20831.00
884.5060, 21059.00
885.6340, 20777.00
886.7620, 21122.00
887.8900, 21078.00
889.0180, 21079.00
890.1450, 20941.00
891.2730, 21055.00
892.4000, 20928.00
893.5270, 21008.00
894.6540, 21076.00
895.7810, 20941.00
896.9070, 21141.00
898.0340, 21140.00
899.1600, 20992.00
900.2860, 21341.00
901.4120, 21038.00
902.5380, 21318.00
903.6630, 21101.00
904.7890, 21148.00
905.9140, 21257.00
907.0390, 21252.00
908.1640, 21377.00
909.2890, 21194.00
910.4130, 21325.00
911.5380, 21189.00
912.6620, 21312.00
913.7860, 21523.00
914.9100, 21187.00
916.0340, 21465.00
917.1580, 21509.00
918.2810, 21628.00
919.4040, 21467.00
920.5280, 21660.00
921.6510, 21775.00
922.7730, 21604.00
923.8960, 21686.00
925.0180, 21557.00
926.1410, 21668.00
927.2630, 21792.00
928.3850, 21870.00
929.5070, 21832.00
930.6280, 21851.00
931.7500, 21729.00
932.8710, 21926.00
933.9920, 21914.00
935.1130, 22183.00
936.2340, 21902.00
937.3550, 22038.00
938.4760, 22106.00
939.5960, 22134.00
940.7160, 22148.00
941.8360, 22248.00
942.9560, 22142.00
944.0760, 22276.00
945.1950, 22417.00
946.3150, 22395.00
947.4340, 22217.00
948.5530, 22479.00
949.6720, 22445.00
950.7900, 22608.00
951.9090, 22812.00
953.0270, 22574.00
954.1460, 22906.00
955.2640, 22980.00
956.3820, 22841.00
957.4990, 23177.00
958.6170, 23189.00
959.7340, 23277.00
960.8520, 23128.00
961.9690, 23450.00
963.0860, 23613.00
964.2020, 23736.00
965.3190, 23916.71
966.4350, 24002.00
967.5520, 24089.00
968.6680, 24063.00
969.7840, 24189.32
970.8990, 24193.00
972.0150, 24371.00
973.1310, 24435.00
974.2460, 24527.00
975.3610, 24594.00
976.4760, 24688.00
977.5910, 24907.00
978.7050, 24863.00
979.8200, 24996.00
980.9340, 25236.00
982.0480, 25188.00
983.1620, 25260.00
984.2760, 25583.00
985.3900, 25856.00
986.5030, 25747.00
987.6160, 25938.00
988.7300, 26288.00
989.8430, 26385.00
990.9550, 26507.00
992.0680, 26714.00
993.1810, 26725.00
994.2930, 26913.26
995.4050, 27122.99
996.5170, 27289.54
997.6290, 27415.23
998.7410, 27377.69
999.8520, 27550.83
1000.964, 27639.60
1002.075, 27724.81
1003.186, 27927.61
1004.297, 27913.71
1005.407, 28114.55
1006.518, 28229.74
1007.628, 28384.07
1008.738, 28453.40
1009.848, 28549.00
1010.958, 28729.61
1012.068, 28863.14
1013.178, 28922.69
1014.287, 29080.00
1015.396, 29147.00
1016.505, 29126.00
1017.614, 29354.00
1018.723, 29401.94
1019.831, 29666.00
1020.940, 29664.35
1022.048, 29756.89
1023.156, 29936.00
1024.264, 29971.00
1025.372, 30115.00
1026.479, 30331.00
1027.587, 30543.00
1028.694, 30537.00
1029.801, 30540.00
1030.908, 30848.00
1032.015, 30685.00
1033.121, 30789.00
1034.228, 30933.00
1035.334, 30936.00
1036.440, 30820.00
1037.546, 30940.00
1038.652, 31392.00
1039.758, 31295.00
1040.863, 31573.00
1041.968, 31299.00
1043.074, 31597.00
1044.178, 31570.00
1045.283, 31511.00
1046.388, 31842.00
1047.492, 31873.00
1048.597, 32050.00
1049.701, 32432.00
1050.805, 32478.00
1051.909, 32668.00
1053.012, 33040.00
1054.116, 33170.00
1055.219, 33388.00
1056.322, 33676.00
1057.425, 34295.00
1058.528, 34479.00
1059.631, 35034.00
1060.733, 34957.00
1061.836, 35754.00
1062.938, 35913.30
1064.040, 36310.31
1065.142, 36573.00
1066.243, 37074.00
1067.345, 37540.00
1068.446, 37842.00
1069.547, 38087.00
1070.648, 38207.00
1071.749, 38797.00
1072.850, 39319.00
1073.951, 39715.00
1075.051, 39499.00
1076.151, 39841.00
1077.251, 40202.00
1078.351, 40313.00
1079.451, 40909.00
1080.550, 40992.00
1081.650, 41239.00
1082.749, 41478.00
1083.848, 41395.00
1084.947, 41760.00
1086.046, 42119.00
1087.144, 42039.00
1088.243, 42129.00
1089.341, 42378.00
1090.439, 42389.00
1091.537, 42443.00
1092.635, 42249.00
1093.732, 42470.00
1094.830, 42371.00
1095.927, 42404.00
1097.024, 42496.00
1098.121, 42383.00
1099.218, 42224.00
1100.314, 42231.28
1101.411, 42099.21
1102.507, 42093.00
1103.603, 41925.00
1104.699, 41820.00
1105.795, 41711.00
1106.890, 41770.00
1107.986, 41362.00
1109.081, 41333.00
1110.176, 41030.00
1111.271, 40829.00
1112.366, 40801.00
1113.461, 40439.00
1114.555, 40222.00
1115.649, 40109.00
1116.744, 39820.00
1117.838, 39717.00
1118.931, 39519.00
1120.025, 39168.00
1121.119, 39020.00
1122.212, 38814.00
1123.305, 38656.00
1124.398, 38343.00
1125.491, 38182.00
1126.584, 37924.00
1127.676, 37599.00
1128.768, 37250.00
1129.861, 36950.00
1130.953, 36657.18
1132.044, 36456.00
1133.136, 36153.00
1134.228, 35742.00
1135.319, 35579.00
1136.410, 35310.00
1137.501, 34845.00
1138.592, 34631.00
1139.683, 34319.00
1140.773, 34030.00
1141.864, 33845.00
1142.954, 33308.00
1144.044, 33200.00
1145.134, 32832.00
1146.224, 32659.00
1147.313, 32345.52
1148.402, 31926.00
1149.492, 31703.00
1150.581, 31525.00
1151.670, 31215.00
1152.758, 30774.00
1153.847, 30560.00
1154.935, 30146.00
1156.024, 29918.73
1157.112, 29825.00
1158.200, 29437.00
1159.287, 29329.00
1160.375, 29040.00
1161.462, 28903.00
1162.550, 28541.00
1163.637, 28274.86
1164.724, 28033.56
1165.810, 27757.00
1166.897, 27543.00
1167.983, 27533.00
1169.070, 27396.00
1170.156, 27078.00
1171.242, 26600.00
1172.327, 26675.00
1173.413, 26166.00
1174.499, 26300.00
1175.584, 26082.00
1176.669, 25652.00
1177.754, 25642.00
1178.839, 25495.00
1179.923, 25198.00
1181.008, 25165.00
1182.092, 24988.00
1183.176, 24810.00
1184.260, 24469.00
1185.344, 24250.00
1186.428, 24221.00
1187.511, 24129.00
1188.595, 24141.00
1189.678, 23937.00
1190.761, 23955.00
1191.843, 23752.79
1192.926, 23658.07
1194.009, 23492.00
1195.091, 23340.00
1196.173, 23476.00
1197.255, 23156.00
1198.337, 23028.00
1199.419, 22754.00
1200.500, 22821.00
1201.582, 22681.00
1202.663, 22487.00
1203.744, 22775.00
1204.825, 22543.00
1205.905, 22611.00
1206.986, 22525.00
1208.066, 22442.00
1209.146, 22396.00
1210.226, 22226.00
1211.306, 22218.00
1212.386, 22141.00
1213.466, 22099.00
1214.545, 22103.00
1215.624, 22129.00
1216.703, 22220.00
1217.782, 22120.00
1218.861, 22002.00
1219.939, 22036.00
1221.018, 22117.00
1222.096, 22013.00
1223.174, 22040.00
1224.252, 22034.00
1225.330, 22114.00
1226.407, 22123.00
1227.485, 22067.00
1228.562, 22186.00
1229.639, 22031.00
1230.716, 21983.00
1231.793, 22110.00
1232.869, 21960.00
1233.946, 21860.00
1235.022, 22117.00
1236.098, 21983.00
1237.174, 22131.00
1238.250, 22041.00
1239.325, 22009.00
1240.401, 21912.00
1241.476, 21963.00
1242.551, 21882.39
1243.626, 21938.00
1244.701, 21697.00
1245.776, 21997.00
1246.850, 21731.00
1247.924, 21851.00
1248.999, 21923.00
