##NAMES=Chabazite-Ca
##RRUFFID=R050014
##IDEAL CHEMISTRY=Ca_2_Al_4_Si_8_O_24_&#183;13H_2_O
##LOCALITY=Tablo Mountain, Baja California, Mexico
##OWNER=RRUFF
##SOURCE=University of Arizona Mineral Museum
##DESCRIPTION=Light tan colored rhombohedral single crystals
##STATUS=The identification of this mineral has been confirmed by X-ray diffraction and chemical analysis
##URL=rruff.info/R050014
##MEASURED CHEMISTRY=(Ca_0.72_Mg_0.11_K_0.09_Sr_0.06_Na_0.01_)_Σ=1_(Si_4.12_Al_1.88_)O_12_·6H_2_O
##PIN_ID=M00165
##ORIENTATION=Laser parallel to (-1 -1 -1). Fiducial mark perpendicular to laser is parallel to [-1 1 0]
105.8150, 28786.00
107.0470, 29977.00
108.2800, 31055.00
109.5120, 30434.00
110.7440, 30033.00
111.9760, 29900.00
113.2080, 30235.00
114.4400, 30659.00
115.6710, 30924.00
116.9030, 30894.00
118.1340, 30909.00
119.3650, 30799.00
120.5960, 31068.00
121.8270, 31006.00
123.0580, 31553.00
124.2880, 31642.00
125.5190, 31284.00
126.7490, 31972.00
127.9790, 31840.00
129.2090, 32109.00
130.4390, 32284.00
131.6680, 32687.00
132.8980, 32654.00
134.1270, 32660.00
135.3560, 33129.00
136.5850, 33292.00
137.8140, 33742.00
139.0430, 33999.00
140.2710, 34470.00
141.5000, 34989.00
142.7280, 35045.00
143.9560, 35052.00
145.1840, 35075.00
146.4120, 34227.00
147.6390, 33505.00
148.8670, 32889.00
150.0940, 32311.00
151.3210, 31746.00
152.5490, 31396.00
153.7750, 30895.00
155.0020, 30810.00
156.2290, 30329.00
157.4550, 29985.00
158.6810, 29884.00
159.9080, 29962.00
161.1340, 29759.00
162.3590, 29646.00
163.5850, 29625.00
164.8110, 29669.00
166.0360, 29364.00
167.2610, 29353.00
168.4860, 29307.00
169.7110, 29410.00
170.9360, 29073.00
172.1610, 28836.00
173.3850, 28905.00
174.6100, 28618.00
175.8340, 28436.00
177.0580, 28367.00
178.2820, 28232.00
179.5050, 28046.00
180.7290, 28160.00
181.9520, 27943.00
183.1760, 27893.00
184.3990, 27795.00
185.6220, 27602.73
186.8450, 27485.00
188.0670, 27320.00
189.2900, 27167.00
190.5120, 27160.00
191.7340, 26894.00
192.9560, 26991.00
194.1780, 26667.00
195.4000, 26831.00
196.6220, 26539.00
197.8430, 26422.00
199.0640, 26190.00
200.2860, 26430.00
201.5070, 26226.00
202.7270, 25925.00
203.9480, 25565.00
205.1690, 25187.00
206.3890, 25105.00
207.6090, 24815.00
208.8290, 24543.00
210.0490, 24652.00
211.2690, 24494.00
212.4890, 24379.00
213.7080, 24334.00
214.9280, 24385.00
216.1470, 24192.00
217.3660, 24119.00
218.5850, 23765.00
219.8030, 23777.00
221.0220, 23714.00
222.2400, 23687.00
223.4590, 23714.00
224.6770, 23588.00
225.8950, 23707.00
227.1120, 23613.00
228.3300, 23578.03
229.5480, 23547.31
230.7650, 23421.00
231.9820, 23450.00
233.1990, 23263.00
234.4160, 23304.00
235.6330, 23325.00
236.8490, 23149.00
238.0660, 23087.00
239.2820, 23305.00
240.4980, 23096.00
241.7140, 23433.00
242.9300, 23271.00
244.1460, 23121.00
245.3610, 23049.00
246.5770, 23153.00
247.7920, 23182.00
249.0070, 23108.00
250.2220, 23295.00
251.4370, 23241.00
252.6510, 23246.00
253.8660, 23313.00
255.0800, 23251.00
256.2940, 23440.00
257.5080, 23596.00
258.7220, 23536.46
259.9360, 23697.00
261.1490, 23451.00
262.3630, 23361.00
263.5760, 23213.00
264.7890, 23348.00
266.0020, 23385.00
267.2150, 23548.00
268.4270, 23544.00
269.6400, 23401.00
270.8520, 23440.00
272.0640, 23330.00
273.2760, 23661.00
274.4880, 23531.00
275.7000, 23702.00
276.9120, 23787.00
278.1230, 23957.00
279.3340, 24039.15
280.5450, 24058.00
281.7560, 24183.00
282.9670, 24129.00
284.1780, 24135.00
285.3880, 24074.00
286.5980, 24142.00
287.8090, 24164.00
289.0190, 24336.00
290.2290, 24368.00
291.4380, 24380.00
292.6480, 24375.00
293.8570, 24491.00
295.0670, 24545.00
296.2760, 24713.00
297.4850, 24568.00
298.6930, 24695.00
299.9020, 24751.00
301.1110, 24954.00
302.3190, 24917.00
303.5270, 24868.00
304.7350, 25153.00
305.9430, 25300.00
307.1510, 25283.00
308.3580, 25494.00
309.5660, 25481.00
310.7730, 25680.00
311.9800, 25749.00
313.1870, 26022.00
314.3940, 25956.00
315.6010, 26308.00
316.8070, 26352.00
318.0130, 26379.00
319.2200, 26537.00
320.4260, 26855.00
321.6310, 26668.00
322.8370, 26898.00
324.0430, 26979.00
325.2480, 26937.00
326.4540, 27036.00
327.6590, 27207.00
328.8640, 27148.00
330.0680, 27170.00
331.2730, 26955.00
332.4780, 27042.00
333.6820, 26869.00
334.8860, 27080.00
336.0900, 26741.00
337.2940, 26792.00
338.4980, 26734.00
339.7010, 26806.00
340.9050, 26557.00
342.1080, 26398.00
343.3110, 26302.00
344.5140, 26310.00
345.7170, 26159.00
346.9200, 26115.00
348.1220, 25941.00
349.3240, 25873.00
350.5270, 25876.00
351.7290, 25698.00
352.9310, 25555.00
354.1320, 25683.00
355.3340, 25808.00
356.5350, 25761.00
357.7370, 25776.26
358.9380, 25532.00
360.1390, 25623.00
361.3400, 25511.00
362.5400, 25373.00
363.7410, 25330.00
364.9410, 25288.29
366.1410, 25399.00
367.3410, 25351.00
368.5410, 25365.00
369.7410, 25545.00
370.9400, 25359.00
372.1400, 25529.00
373.3390, 25421.00
374.5380, 25281.00
375.7370, 25330.00
376.9360, 25562.00
378.1350, 25371.00
379.3330, 25548.00
380.5310, 25435.00
381.7300, 25622.00
382.9280, 25732.00
384.1260, 25644.00
385.3230, 25877.00
386.5210, 25632.00
387.7180, 26003.00
388.9160, 25843.00
390.1130, 25798.00
391.3100, 26144.00
392.5060, 26069.00
393.7030, 26179.00
394.9000, 26252.00
396.0960, 25956.00
397.2920, 26086.00
398.4880, 26239.00
399.6840, 26367.00
400.8800, 26172.00
402.0750, 26394.00
403.2710, 26311.00
404.4660, 26455.00
405.6610, 26581.00
406.8560, 26592.00
408.0510, 26529.00
409.2450, 26779.00
410.4400, 26807.00
411.6340, 26942.00
412.8280, 26894.00
414.0220, 27374.00
415.2160, 27359.00
416.4100, 27583.00
417.6030, 27521.00
418.7970, 27840.00
419.9900, 28015.00
421.1830, 28292.00
422.3760, 28827.00
423.5690, 28972.00
424.7610, 29047.00
425.9540, 29215.00
427.1460, 30025.00
428.3380, 30181.00
429.5300, 30489.00
430.7220, 31312.00
431.9140, 31539.00
433.1050, 32071.00
434.2970, 32473.00
435.4880, 32777.00
436.6790, 33439.00
437.8700, 33867.00
439.0610, 34599.00
440.2510, 35290.00
441.4420, 35916.00
442.6320, 36602.12
443.8220, 37074.00
445.0120, 37882.00
446.2020, 38467.00
447.3910, 39068.00
448.5810, 39885.00
449.7700, 40394.00
450.9600, 40790.00
452.1490, 41094.00
453.3370, 41713.00
454.5260, 41868.00
455.7150, 42342.00
456.9030, 42725.00
458.0910, 42669.00
459.2800, 43021.00
460.4670, 43089.00
461.6550, 43305.00
462.8430, 43114.00
464.0300, 43267.00
465.2180, 43446.00
466.4050, 43795.00
467.5920, 44071.00
468.7790, 44370.82
469.9650, 44697.00
471.1520, 45047.00
472.3380, 45447.00
473.5250, 45855.00
474.7110, 46052.00
475.8970, 46067.00
477.0820, 46586.00
478.2680, 46230.00
479.4540, 46066.00
480.6390, 46167.00
481.8240, 45406.00
483.0090, 44672.00
484.1940, 43992.00
485.3780, 43164.00
486.5630, 42293.00
487.7470, 41217.00
488.9320, 40433.00
490.1160, 39442.00
491.3000, 38564.00
492.4830, 37508.00
493.6670, 36718.00
494.8500, 36065.00
496.0340, 34932.00
497.2170, 34461.00
498.4000, 34067.00
499.5820, 33536.00
500.7650, 32828.00
501.9480, 32451.00
503.1300, 32209.00
504.3120, 31543.00
505.4940, 31182.00
506.6760, 30795.00
507.8580, 30420.00
509.0390, 30461.00
510.2210, 30097.00
511.4020, 30030.00
512.5830, 29735.00
513.7640, 29744.00
514.9450, 29297.00
516.1250, 29278.00
517.3060, 28987.00
518.4860, 28863.00
519.6660, 28975.00
520.8460, 28604.00
522.0260, 28699.00
523.2060, 28537.00
524.3850, 28459.11
525.5650, 28364.00
526.7440, 28305.00
527.9230, 28500.00
529.1020, 28282.00
530.2810, 28257.00
531.4590, 28399.00
532.6380, 27851.00
533.8160, 28140.00
534.9940, 28102.00
536.1720, 28233.00
537.3500, 27954.00
538.5270, 27817.00
539.7050, 27977.00
540.8820, 28007.00
542.0590, 27961.00
543.2360, 27999.00
544.4130, 27891.00
545.5900, 27902.00
546.7660, 27879.00
547.9430, 27850.00
549.1190, 27909.00
550.2950, 27783.00
551.4710, 27738.00
552.6470, 27851.00
553.8220, 27760.86
554.9980, 27797.76
556.1730, 27742.00
557.3480, 27843.00
558.5230, 27847.00
559.6980, 27946.00
560.8730, 27844.00
562.0470, 27968.00
563.2220, 27794.00
564.3960, 28218.00
565.5700, 27955.00
566.7440, 28037.00
567.9170, 27944.00
569.0910, 28065.00
570.2640, 28309.00
571.4380, 27931.00
572.6110, 28244.00
573.7840, 28108.00
574.9570, 28170.00
576.1290, 28086.00
577.3020, 28443.00
578.4740, 28151.00
579.6460, 28297.00
580.8180, 28202.00
581.9900, 28244.00
583.1620, 28385.00
584.3330, 28211.00
585.5040, 28307.00
586.6760, 28124.00
587.8470, 28345.00
589.0180, 28312.00
590.1880, 28217.00
591.3590, 28429.00
592.5290, 28491.00
593.7000, 28408.00
594.8700, 28353.00
596.0400, 28470.00
597.2090, 28453.00
598.3790, 28501.00
599.5490, 28399.00
600.7180, 28546.00
601.8870, 28416.00
603.0560, 28335.00
604.2250, 28359.00
605.3940, 28496.00
606.5620, 28516.00
607.7300, 28676.00
608.8990, 28607.00
610.0670, 28881.00
611.2350, 28661.00
612.4020, 28752.00
613.5700, 28707.00
614.7370, 28669.00
615.9050, 28792.00
617.0720, 28923.00
618.2390, 29002.00
619.4060, 29045.66
620.5720, 28882.00
621.7390, 29022.00
622.9050, 29100.00
624.0710, 28974.00
625.2370, 29249.00
626.4030, 29257.00
627.5690, 29171.00
628.7340, 29223.00
629.9000, 29562.00
631.0650, 29206.00
632.2300, 29362.00
633.3950, 29672.00
634.5600, 29347.00
635.7240, 29405.00
636.8890, 29564.00
638.0530, 29683.00
639.2170, 29721.00
640.3810, 29480.00
641.5450, 29692.00
642.7080, 29907.00
643.8720, 29610.00
645.0350, 29743.00
646.1980, 29662.00
647.3610, 29722.00
648.5240, 29750.48
649.6870, 29750.36
650.8490, 29761.00
652.0120, 29779.00
653.1740, 29707.00
654.3360, 29656.00
655.4980, 29704.00
656.6600, 29658.00
657.8210, 29863.00
658.9830, 29706.00
660.1440, 29888.00
661.3050, 29981.00
662.4660, 29830.00
663.6270, 29674.00
664.7870, 29850.00
665.9480, 29884.00
667.1080, 29941.00
668.2680, 29984.98
669.4280, 29938.00
670.5880, 29939.00
671.7480, 30017.00
672.9070, 29874.00
674.0670, 29902.00
675.2260, 29987.00
676.3850, 30264.00
677.5440, 30014.00
678.7030, 30267.00
679.8610, 30067.00
681.0200, 30024.00
682.1780, 30330.00
683.3360, 30190.00
684.4940, 30054.00
685.6520, 30077.00
686.8090, 30255.00
687.9670, 30405.00
689.1240, 30356.00
690.2810, 30201.00
691.4380, 30534.00
692.5950, 30369.00
693.7520, 30402.00
694.9080, 30358.00
696.0650, 30563.00
697.2210, 30584.00
698.3770, 30656.00
699.5330, 30723.43
700.6880, 30527.00
701.8440, 30773.00
702.9990, 30605.00
704.1550, 30587.00
705.3100, 30710.00
706.4650, 30774.00
707.6190, 30849.00
708.7740, 30861.00
709.9290, 30729.00
711.0830, 30845.00
712.2370, 30948.00
713.3910, 30789.00
714.5450, 30973.00
715.6980, 30905.00
716.8520, 30987.00
718.0050, 30958.00
719.1580, 31094.00
720.3110, 30867.00
721.4640, 31078.00
722.6170, 30990.00
723.7700, 30984.00
724.9220, 30803.00
726.0740, 31324.00
727.2260, 31281.00
728.3780, 31403.00
729.5300, 31756.00
730.6810, 31220.00
731.8330, 31270.00
732.9840, 31291.00
734.1350, 31480.00
735.2860, 31324.00
736.4370, 31435.00
737.5880, 31398.00
738.7380, 31373.00
739.8880, 31310.00
741.0390, 31234.00
742.1890, 31386.00
743.3380, 31474.00
744.4880, 31342.00
745.6380, 31588.00
746.7870, 31489.00
747.9360, 31368.00
749.0850, 31728.00
750.2340, 31559.00
751.3830, 31561.00
752.5310, 31821.00
753.6800, 31689.00
754.8280, 31931.00
755.9760, 31856.00
757.1240, 31859.00
758.2720, 32020.00
759.4190, 32025.00
760.5670, 32232.00
761.7140, 32117.00
762.8610, 31991.00
764.0080, 32217.00
765.1550, 32161.00
766.3020, 32218.00
767.4480, 32094.00
768.5950, 32174.00
769.7410, 32252.00
770.8870, 32182.00
772.0330, 32128.00
773.1780, 32301.00
774.3240, 32439.00
775.4690, 32149.00
776.6140, 32266.00
777.7590, 32326.00
778.9040, 32548.00
780.0490, 32449.00
781.1940, 32481.00
782.3380, 32623.00
783.4820, 32436.00
784.6260, 32608.00
785.7700, 32590.00
786.9140, 32594.00
788.0580, 32630.00
789.2010, 32599.00
790.3450, 32641.00
791.4880, 32858.00
792.6310, 32476.00
793.7730, 32601.00
794.9160, 32771.00
796.0590, 32496.00
797.2010, 32671.00
798.3430, 32667.00
799.4850, 32703.00
800.6270, 32301.00
801.7690, 32417.00
802.9100, 32446.00
804.0520, 32629.00
805.1930, 32613.00
806.3340, 32570.00
807.4750, 32515.00
808.6160, 32525.36
809.7560, 32481.00
810.8970, 32521.00
812.0370, 32599.00
813.1770, 32578.00
814.3170, 32405.00
815.4570, 32527.00
816.5960, 32345.00
817.7360, 32602.00
818.8750, 32564.00
820.0140, 32746.00
821.1530, 32687.00
822.2920, 32674.00
823.4310, 32777.00
824.5690, 32709.00
825.7070, 32768.00
826.8460, 32810.00
827.9840, 32892.00
829.1220, 32982.00
830.2590, 32904.00
831.3970, 32734.00
832.5340, 32719.00
833.6710, 33118.00
834.8080, 32925.00
835.9450, 32898.00
837.0820, 33234.00
838.2190, 32902.00
839.3550, 32949.00
840.4910, 33203.00
841.6270, 33280.00
842.7630, 33150.00
843.8990, 33108.00
845.0350, 33035.00
846.1700, 33156.00
847.3060, 33107.30
848.4410, 33151.00
849.5760, 33170.00
850.7100, 33260.00
851.8450, 33364.00
852.9800, 33351.00
854.1140, 33524.00
855.2480, 33431.00
856.3820, 33406.00
857.5160, 33524.00
858.6500, 33687.00
859.7830, 33710.00
860.9170, 33575.00
862.0500, 33561.00
863.1830, 33692.00
864.3160, 33858.00
865.4480, 33863.00
866.5810, 34024.00
867.7130, 33947.00
868.8460, 33980.51
869.9780, 33971.84
871.1100, 33944.00
872.2410, 33930.00
873.3730, 33914.00
874.5050, 33970.00
875.6360, 33692.00
876.7670, 33988.00
877.8980, 34298.00
879.0290, 34414.00
880.1590, 34236.00
881.2900, 34244.00
882.4200, 34042.00
883.5500, 34123.00
884.6800, 34287.00
885.8100, 34276.00
886.9400, 34175.00
888.0690, 34303.00
889.1990, 34363.00
890.3280, 34586.00
891.4570, 34353.00
892.5860, 34351.00
893.7140, 34378.00
894.8430, 34506.00
895.9710, 34441.00
897.1000, 34545.00
898.2280, 34544.00
899.3560, 34532.00
900.4830, 34588.00
901.6110, 34570.00
902.7380, 34616.19
903.8660, 34869.00
904.9930, 34755.00
906.1200, 34851.00
907.2460, 35050.00
908.3730, 34915.00
909.5000, 34942.00
910.6260, 35054.00
911.7520, 35002.00
912.8780, 35080.00
914.0040, 34887.00
915.1290, 35056.00
916.2550, 35291.00
917.3800, 35172.00
918.5050, 35328.00
919.6300, 35227.00
920.7550, 35115.00
921.8800, 35197.00
923.0040, 35411.00
924.1290, 35437.00
925.2530, 35408.00
926.3770, 35353.00
927.5010, 35490.00
928.6250, 35505.00
929.7480, 35455.02
930.8720, 35782.00
931.9950, 35355.00
933.1180, 35675.00
934.2410, 35677.00
935.3640, 35915.00
936.4860, 35664.00
937.6090, 35733.00
938.7310, 35737.00
939.8530, 35944.00
940.9750, 35849.00
942.0970, 36085.00
943.2180, 36253.00
944.3400, 36071.00
945.4610, 36093.00
946.5820, 36362.00
947.7030, 36251.00
948.8240, 36329.00
949.9450, 36384.00
951.0650, 36625.00
952.1860, 36635.74
953.3060, 36718.48
954.4260, 36771.00
955.5460, 36799.00
956.6650, 36869.00
957.7850, 36915.00
958.9040, 36926.00
960.0230, 36878.00
961.1420, 36981.00
962.2610, 37007.00
963.3800, 37105.00
964.4990, 37149.00
965.6170, 37281.00
966.7350, 37089.00
967.8530, 37126.00
968.9710, 37188.00
970.0890, 37442.00
971.2070, 37523.00
972.3240, 37475.00
973.4410, 37709.00
974.5580, 37529.00
975.6750, 37697.00
976.7920, 37779.00
977.9090, 37804.00
979.0250, 37874.00
980.1410, 38107.00
981.2580, 37808.00
982.3740, 38349.00
983.4890, 38198.00
984.6050, 38608.00
985.7200, 38188.00
986.8360, 38305.00
987.9510, 38732.00
989.0660, 38527.00
990.1810, 38583.00
991.2950, 38606.00
992.4100, 38852.00
993.5240, 38776.00
994.6390, 38876.00
995.7530, 38660.00
996.8660, 38959.00
997.9800, 38936.00
999.0940, 39012.00
1000.207, 38967.00
1001.320, 39107.00
1002.433, 38991.00
1003.546, 39078.00
1004.659, 39371.00
1005.772, 39233.00
1006.884, 39472.00
1007.996, 39454.00
1009.108, 39543.00
1010.220, 39522.00
1011.332, 39530.00
1012.444, 39546.00
1013.555, 39745.00
1014.666, 39716.00
1015.777, 39472.00
1016.888, 39940.00
1017.999, 39627.00
1019.110, 39993.00
1020.220, 39931.00
1021.331, 39992.00
1022.441, 40234.00
1023.551, 40107.00
1024.661, 40123.00
1025.770, 40338.00
1026.880, 40131.00
1027.989, 40054.00
1029.098, 40085.00
1030.207, 40460.00
1031.316, 40425.00
1032.425, 40256.00
1033.533, 40485.00
1034.642, 40379.00
1035.750, 40493.00
1036.858, 40832.00
1037.966, 40650.00
1039.073, 40471.00
1040.181, 40922.00
1041.288, 40705.00
1042.396, 40565.00
1043.503, 40943.00
1044.610, 40687.00
1045.716, 40978.00
1046.823, 41012.00
1047.929, 40996.00
1049.036, 41123.00
1050.142, 41168.00
1051.248, 41191.00
1052.353, 41785.00
1053.459, 42037.00
1054.564, 41642.00
1055.670, 42041.00
1056.775, 41671.00
1057.880, 41687.00
1058.985, 41589.00
1060.089, 41629.00
1061.194, 41776.00
1062.298, 42115.00
1063.402, 41975.00
1064.506, 42000.00
1065.610, 42256.00
1066.713, 42242.00
1067.817, 42355.16
1068.920, 42276.00
1070.023, 42478.00
1071.126, 42428.00
1072.229, 42433.00
1073.332, 42716.00
1074.435, 42751.00
1075.537, 42651.00
1076.639, 42760.00
1077.741, 42798.00
1078.843, 42806.03
1079.945, 42905.00
1081.046, 42890.00
1082.148, 43068.00
1083.249, 43136.00
1084.350, 43555.00
1085.451, 43546.00
1086.551, 43621.00
1087.652, 43535.00
1088.752, 43279.00
1089.853, 43258.00
1090.953, 43094.00
1092.053, 43058.62
1093.152, 43082.00
1094.252, 43082.00
1095.351, 43140.00
1096.451, 43258.00
1097.550, 43210.00
1098.649, 43327.00
1099.748, 43296.70
1100.846, 43214.00
1101.945, 43319.00
1103.043, 43125.00
1104.141, 43265.00
1105.239, 43417.00
1106.337, 43378.00
1107.434, 43746.00
1108.532, 43248.00
1109.629, 43465.00
1110.726, 43356.00
1111.823, 43563.00
1112.920, 43683.00
1114.017, 43520.00
1115.113, 43563.00
1116.210, 43531.00
1117.306, 43666.00
1118.402, 43595.17
1119.498, 43554.00
1120.593, 43583.00
1121.689, 43620.00
1122.784, 43761.00
1123.879, 43814.00
1124.974, 43882.00
1126.069, 43784.00
1127.164, 43630.00
1128.259, 43606.00
1129.353, 43651.00
1130.447, 43740.00
1131.541, 43750.00
1132.635, 43919.00
1133.729, 43428.00
1134.822, 43707.00
1135.916, 43427.00
1137.009, 43689.00
1138.102, 43742.00
1139.195, 43719.00
1140.288, 43820.00
1141.380, 43753.00
1142.473, 43874.00
1143.565, 43863.21
1144.657, 43789.00
1145.749, 43811.00
1146.841, 43790.00
1147.932, 43607.00
1149.024, 43642.00
1150.115, 43901.00
1151.206, 43671.00
1152.297, 43845.00
1153.388, 43725.00
1154.479, 43622.00
1155.569, 43628.00
1156.659, 43562.90
1157.750, 43672.00
1158.839, 43609.00
1159.929, 43750.00
1161.019, 43946.00
1162.108, 43623.00
1163.198, 43659.00
1164.287, 43423.00
1165.376, 43733.00
1166.465, 43599.00
1167.553, 43674.00
1168.642, 43934.00
1169.730, 43623.00
1170.818, 43703.00
1171.906, 44010.00
1172.994, 43774.00
1174.082, 43484.00
1175.170, 43725.00
1176.257, 43514.00
1177.344, 43943.00
1178.431, 43673.00
1179.518, 43624.00
1180.605, 43781.00
1181.691, 43599.00
1182.778, 43510.00
1183.864, 43900.00
1184.950, 43691.00
1186.036, 43775.00
1187.122, 43869.00
1188.207, 43646.00
1189.292, 43846.00
1190.378, 43713.00
1191.463, 44063.00
1192.548, 43615.00
1193.632, 43922.00
1194.717, 44041.00
1195.801, 43712.00
1196.886, 44017.00
1197.970, 44089.00
1199.054, 44053.00
1200.137, 43999.00
1201.221, 43966.00
1202.305, 44080.00
1203.388, 43937.00
1204.471, 44101.00
1205.554, 44043.00
1206.637, 44105.00
1207.719, 44300.00
1208.802, 44254.00
1209.884, 44337.00
1210.966, 44318.00
1212.048, 44408.00
1213.130, 44437.00
1214.212, 44558.00
1215.293, 44473.00
1216.374, 44418.00
1217.456, 44672.00
1218.536, 44677.00
1219.617, 44774.00
1220.698, 44563.00
1221.778, 44517.00
1222.859, 44592.00
1223.939, 44922.00
1225.019, 44814.00
1226.099, 44958.00
1227.178, 45032.00
1228.258, 44975.00
1229.337, 45150.00
1230.417, 45075.00
1231.496, 45023.00
1232.574, 45024.00
1233.653, 44979.00
1234.732, 45013.82
1235.810, 45209.00
1236.888, 45054.00
1237.966, 45440.00
1239.044, 45405.00
1240.122, 45482.00
1241.199, 45521.00
1242.277, 45418.00
1243.354, 45347.00
1244.431, 45584.00
1245.508, 45517.00
1246.585, 45463.00
1247.661, 45454.00
1248.738, 45783.00
1249.814, 45568.00
1250.890, 45454.00
1251.966, 45774.00
1253.042, 45706.00
1254.117, 45621.00
1255.193, 45713.00
1256.268, 45774.00
1257.343, 45695.00
1258.418, 45880.00
1259.493, 45709.00
1260.567, 45919.00
1261.642, 45909.16
1262.716, 46027.00
1263.790, 45983.00
1264.864, 45967.00
1265.938, 46017.00
1267.011, 46057.00
1268.085, 46525.00
1269.158, 46245.00
1270.231, 46229.00
1271.304, 46513.00
1272.377, 46219.00
1273.450, 46290.00
1274.522, 46353.00
1275.594, 46464.00
1276.666, 46493.36
1277.738, 46520.37
1278.810, 46607.00
1279.882, 46541.00
1280.953, 46660.00
