##NAMES=Chabazite-Ca
##RRUFFID=R050075
##IDEAL CHEMISTRY=Ca_2_Al_4_Si_8_O_24_&#183;13H_2_O
##LOCALITY=Victoria, Australia
##OWNER=RRUFF
##SOURCE=Rock Currier
##DESCRIPTION=White pseudohexagonal crystals
##STATUS=The identification of this mineral has been confirmed by X-ray diffraction and chemical analysis
##URL=rruff.info/R050075
##MEASURED CHEMISTRY=(Ca_0.79_Na_0.22_K_0.14_)_Σ=1.15_(Si_4.08_Al_1.92_)O_12_·6H_2_O
##PIN_ID=M00950
##ORIENTATION=Laser parallel to (1 1 1). Fiducial mark perpendicular to laser is parallel to [-1 1 0]
64.80100, 5036.000
66.04100, 6164.000
67.28100, 7634.000
68.52100, 9462.000
69.76100, 11918.00
71.00100, 14765.00
72.24000, 18057.00
73.47900, 21726.00
74.71800, 26015.02
75.95700, 30590.00
77.19600, 35930.00
78.43500, 41592.00
79.67300, 47720.00
80.91200, 53986.00
82.15000, 60627.00
83.38800, 67557.00
84.62600, 74576.00
85.86300, 80665.00
87.10100, 86227.00
88.33800, 90702.00
89.57500, 95348.00
90.81200, 99284.00
92.04900, 102855.0
93.28600, 106398.0
94.52300, 109292.5
95.75900, 111781.6
96.99500, 114164.0
98.23100, 115512.0
99.46700, 116803.0
100.7030, 117566.0
101.9390, 118844.0
103.1740, 119749.0
104.4090, 119799.0
105.6440, 120284.0
106.8790, 121127.0
108.1140, 121539.0
109.3490, 122126.0
110.5830, 121850.0
111.8180, 121251.0
113.0520, 121196.0
114.2860, 121140.0
115.5200, 121023.0
116.7530, 121365.0
117.9870, 121505.0
119.2200, 121327.0
120.4530, 121273.0
121.6860, 120628.0
122.9190, 120544.0
124.1520, 120433.0
125.3850, 120042.0
126.6170, 119135.0
127.8490, 118791.0
129.0810, 118455.0
130.3130, 117821.0
131.5450, 118068.0
132.7770, 117481.0
134.0080, 117078.0
135.2390, 115949.0
136.4710, 115769.0
137.7020, 114218.0
138.9320, 113692.0
140.1630, 112900.0
141.3930, 112458.0
142.6240, 111246.6
143.8540, 110589.0
145.0840, 108886.0
146.3140, 106985.0
147.5440, 105933.0
148.7730, 104332.0
150.0020, 103140.0
151.2320, 101841.0
152.4610, 100461.0
153.6900, 98700.00
154.9180, 97807.00
156.1470, 96391.00
157.3750, 95241.00
158.6040, 94244.00
159.8320, 93122.00
161.0600, 92022.00
162.2870, 91083.00
163.5150, 90928.00
164.7420, 90183.00
165.9700, 89444.00
167.1970, 89158.00
168.4240, 88631.00
169.6510, 87688.00
170.8770, 88097.00
172.1040, 86800.00
173.3300, 86907.00
174.5560, 86022.00
175.7820, 85802.00
177.0080, 85048.00
178.2340, 84370.00
179.4590, 83989.00
180.6850, 83185.00
181.9100, 82656.00
183.1350, 81911.00
184.3600, 81149.37
185.5850, 80369.00
186.8090, 79443.00
188.0340, 78327.00
189.2580, 77129.00
190.4820, 76228.00
191.7060, 75209.00
192.9300, 74319.00
194.1530, 73026.00
195.3770, 71754.00
196.6000, 71086.00
197.8230, 69761.00
199.0460, 68488.00
200.2690, 67300.00
201.4910, 66582.00
202.7140, 65471.00
203.9360, 64514.00
205.1580, 63289.00
206.3800, 61865.00
207.6020, 61342.00
208.8240, 60880.00
210.0450, 60420.00
211.2670, 58340.00
212.4880, 57782.00
213.7090, 56786.00
214.9300, 55776.73
216.1510, 55339.00
217.3710, 54338.00
218.5920, 53545.00
219.8120, 52827.00
221.0320, 52268.00
222.2520, 51625.00
223.4720, 51266.00
224.6910, 50638.00
225.9110, 49900.00
227.1300, 49597.00
228.3490, 49131.00
229.5680, 48711.71
230.7870, 48417.93
232.0050, 47872.00
233.2240, 47795.00
234.4420, 47096.00
235.6600, 46741.00
236.8780, 46687.00
238.0960, 46493.00
239.3140, 46051.00
240.5310, 45880.00
241.7490, 45804.00
242.9660, 45882.00
244.1830, 45713.14
245.4000, 45743.00
246.6160, 45627.00
247.8330, 45319.00
249.0490, 45467.00
250.2660, 45357.00
251.4820, 45174.00
252.6980, 45188.00
253.9130, 45282.00
255.1290, 45120.00
256.3440, 45117.00
257.5600, 45210.00
258.7750, 44985.00
259.9900, 45090.00
261.2040, 45316.00
262.4190, 45139.00
263.6330, 45032.00
264.8480, 45367.00
266.0620, 45077.00
267.2760, 44939.00
268.4900, 44740.00
269.7030, 45073.00
270.9170, 44933.69
272.1300, 44876.00
273.3430, 45032.00
274.5560, 44913.00
275.7690, 44967.00
276.9820, 45300.00
278.1940, 45124.00
279.4070, 45084.00
280.6190, 45406.00
281.8310, 45616.00
283.0430, 45793.00
284.2550, 45431.00
285.4660, 45726.00
286.6770, 45907.00
287.8890, 46084.00
289.1000, 46303.81
290.3110, 46501.91
291.5210, 46719.00
292.7320, 46912.16
293.9420, 47216.00
295.1530, 47385.00
296.3630, 47630.58
297.5730, 47561.00
298.7830, 48035.00
299.9920, 48063.00
301.2020, 48150.00
302.4110, 48420.00
303.6200, 49005.00
304.8290, 48901.00
306.0380, 48971.00
307.2470, 49483.00
308.4550, 49481.00
309.6630, 50014.00
310.8720, 50098.00
312.0800, 50731.00
313.2880, 51215.00
314.4950, 51919.00
315.7030, 52499.00
316.9100, 52709.00
318.1170, 53402.00
319.3240, 53701.00
320.5310, 54570.00
321.7380, 55098.00
322.9450, 56034.00
324.1510, 56486.00
325.3570, 57203.00
326.5630, 58022.00
327.7690, 58293.00
328.9750, 58589.00
330.1810, 59269.00
331.3860, 59477.00
332.5910, 59466.98
333.7960, 59693.38
335.0010, 59724.51
336.2060, 59561.96
337.4110, 59121.68
338.6150, 58661.08
339.8200, 57976.48
341.0240, 57810.00
342.2280, 57046.00
343.4320, 56698.00
344.6350, 55235.00
345.8390, 54240.00
347.0420, 53282.00
348.2450, 52359.00
349.4480, 51502.00
350.6510, 50908.00
351.8540, 50190.00
353.0560, 49030.00
354.2590, 48669.00
355.4610, 47872.00
356.6630, 47566.00
357.8650, 46754.00
359.0670, 46198.00
360.2680, 45878.00
361.4700, 45471.00
362.6710, 45084.00
363.8720, 44728.00
365.0730, 44265.00
366.2740, 44020.00
367.4740, 43950.00
368.6750, 43342.00
369.8750, 43386.00
371.0750, 43036.00
372.2750, 42661.00
373.4750, 42437.00
374.6740, 42440.00
375.8740, 42422.00
377.0730, 42068.00
378.2720, 42007.00
379.4710, 41952.00
380.6700, 41712.00
381.8690, 41631.00
383.0670, 41852.00
384.2660, 41712.00
385.4640, 41811.00
386.6620, 41677.00
387.8600, 41305.00
389.0570, 41784.00
390.2550, 41877.00
391.4520, 41281.00
392.6490, 41467.00
393.8460, 41343.00
395.0430, 41353.00
396.2400, 41451.00
397.4370, 41255.00
398.6330, 41369.00
399.8290, 41346.00
401.0250, 41399.00
402.2210, 41566.00
403.4170, 41442.00
404.6130, 41560.00
405.8080, 41534.00
407.0030, 41742.88
408.1980, 42127.00
409.3930, 42352.00
410.5880, 42650.00
411.7830, 43202.00
412.9770, 43692.00
414.1720, 44215.00
415.3660, 44421.80
416.5600, 45588.34
417.7530, 46599.95
418.9470, 47466.31
420.1410, 47749.62
421.3340, 48785.15
422.5270, 50221.00
423.7200, 51312.00
424.9130, 52921.00
426.1060, 54476.00
427.2980, 56084.00
428.4900, 57795.00
429.6830, 59852.00
430.8750, 61778.00
432.0670, 64578.00
433.2580, 67060.00
434.4500, 69792.00
435.6410, 73013.00
436.8320, 76437.00
438.0240, 80110.70
439.2140, 83652.00
440.4050, 88285.00
441.5960, 92841.00
442.7860, 97483.00
443.9760, 101840.4
445.1670, 106459.6
446.3560, 110653.0
447.5460, 115489.0
448.7360, 120228.0
449.9250, 124652.0
451.1150, 128886.5
452.3040, 132855.0
453.4930, 136653.0
454.6810, 140210.0
455.8700, 143461.0
457.0590, 145321.0
458.2470, 146489.0
459.4350, 147584.0
460.6230, 147834.0
461.8110, 147864.0
462.9980, 147366.0
464.1860, 146320.0
465.3730, 145270.0
466.5600, 143994.0
467.7470, 143549.0
468.9340, 142300.0
470.1210, 141212.0
471.3080, 140872.0
472.4940, 141068.0
473.6800, 140682.0
474.8660, 141478.0
476.0520, 141814.0
477.2380, 143001.0
478.4230, 143111.0
479.6090, 143474.0
480.7940, 142985.0
481.9790, 142420.0
483.1640, 141056.0
484.3490, 139010.0
485.5330, 136329.0
486.7180, 133089.0
487.9020, 129923.0
489.0860, 125101.0
490.2700, 120904.0
491.4540, 115515.0
492.6370, 110379.0
493.8210, 105506.0
495.0040, 100847.0
496.1870, 95234.00
497.3700, 90382.00
498.5530, 85904.00
499.7360, 80921.00
500.9180, 77416.00
502.1000, 73457.00
503.2830, 70031.00
504.4650, 66609.00
505.6460, 63780.00
506.8280, 60793.00
508.0100, 58348.00
509.1910, 55942.00
510.3720, 53486.00
511.5530, 51446.00
512.7340, 49545.00
513.9150, 48054.00
515.0950, 46607.00
516.2760, 45096.00
517.4560, 43664.00
518.6360, 42869.00
519.8160, 41670.00
520.9950, 40756.00
522.1750, 39716.00
523.3540, 38883.86
524.5340, 38136.67
525.7130, 37383.00
526.8920, 36801.00
528.0700, 36165.00
529.2490, 35532.00
530.4270, 34954.00
531.6060, 34880.00
532.7840, 34188.00
533.9620, 34223.00
535.1390, 33594.00
536.3170, 33352.00
537.4940, 33016.00
538.6720, 32703.00
539.8490, 32408.00
541.0260, 31998.00
542.2030, 31908.00
543.3790, 31621.00
544.5560, 31536.00
545.7320, 31404.00
546.9080, 31109.00
548.0840, 31022.00
549.2600, 30777.00
550.4360, 30707.26
551.6110, 30931.00
552.7860, 30636.00
553.9620, 30656.00
555.1370, 30717.00
556.3110, 30301.00
557.4860, 30350.00
558.6610, 30167.00
559.8350, 30116.00
561.0090, 30002.00
562.1830, 29941.00
563.3570, 29855.31
564.5310, 29784.29
565.7040, 29701.43
566.8780, 29641.00
568.0510, 29594.00
569.2240, 29490.00
570.3970, 29506.00
571.5700, 29501.00
572.7420, 29729.00
573.9150, 29701.00
575.0870, 29583.00
576.2590, 29608.00
577.4310, 29422.00
578.6030, 29449.00
579.7740, 29537.00
580.9460, 29467.00
582.1170, 29429.00
583.2880, 29484.00
584.4590, 29229.00
585.6300, 29456.00
586.8010, 28931.00
587.9710, 29199.00
589.1410, 28928.00
590.3110, 28848.00
591.4810, 29028.00
592.6510, 28614.00
593.8210, 28432.00
594.9900, 28428.00
596.1600, 28383.00
597.3290, 28129.00
598.4980, 28054.00
599.6670, 28002.00
600.8350, 27932.00
602.0040, 27543.00
603.1720, 27346.00
604.3400, 27422.00
605.5080, 27112.00
606.6760, 27109.00
607.8440, 27122.00
609.0120, 27048.00
610.1790, 26915.00
611.3460, 26881.00
612.5130, 26517.00
613.6800, 26301.00
614.8470, 26327.00
616.0130, 26275.00
617.1800, 26230.00
618.3460, 26212.96
619.5120, 26330.00
620.6780, 26108.00
621.8440, 26060.00
623.0090, 25936.00
624.1750, 26064.00
625.3400, 25944.00
626.5050, 26007.00
627.6700, 26003.00
628.8350, 25916.00
629.9990, 25964.04
631.1640, 25911.99
632.3280, 25933.00
633.4920, 25849.00
634.6560, 25753.00
635.8200, 25689.00
636.9840, 25716.00
638.1470, 25631.00
639.3100, 25897.00
640.4730, 25803.00
641.6360, 25857.00
642.7990, 25851.00
643.9620, 25825.00
645.1240, 25824.13
646.2870, 26023.00
647.4490, 25801.00
648.6110, 25926.00
649.7730, 25996.00
650.9340, 25937.00
652.0960, 25723.00
653.2570, 25722.00
654.4180, 25660.00
655.5790, 25848.00
656.7400, 25488.00
657.9010, 25618.00
659.0620, 25474.00
660.2220, 25276.00
661.3820, 25202.00
662.5420, 25096.45
663.7020, 25016.57
664.8620, 24968.00
666.0210, 24888.00
667.1810, 24830.00
668.3400, 24708.00
669.4990, 24488.00
670.6580, 24501.00
671.8170, 24306.00
672.9750, 24430.00
674.1340, 24415.00
675.2920, 24079.00
676.4500, 23889.00
677.6080, 23954.00
678.7660, 24060.00
679.9230, 23972.00
681.0810, 23950.00
682.2380, 23722.00
683.3950, 23749.58
684.5520, 23882.00
685.7090, 23747.00
686.8660, 23781.00
688.0220, 23866.00
689.1780, 23886.00
690.3340, 23824.00
691.4900, 23515.00
692.6460, 23857.00
693.8020, 23824.00
694.9570, 24054.00
696.1130, 23761.00
697.2680, 23706.00
698.4230, 23813.00
699.5780, 23825.00
700.7320, 23793.00
701.8870, 23946.00
703.0410, 23802.00
704.1950, 23740.00
705.3490, 23816.00
706.5030, 23862.00
707.6570, 24049.00
708.8110, 23855.00
709.9640, 24003.00
711.1170, 23650.00
712.2700, 24058.00
713.4230, 23973.49
714.5760, 24105.00
715.7280, 24077.00
716.8810, 24012.00
718.0330, 24000.00
719.1850, 24120.00
720.3370, 24116.00
721.4890, 24064.79
722.6400, 24059.27
723.7920, 23930.00
724.9430, 23972.00
726.0940, 23946.00
727.2450, 23995.00
728.3960, 23813.00
729.5460, 23878.00
730.6970, 23607.00
731.8470, 23745.00
732.9970, 23706.00
734.1470, 23741.00
735.2970, 23728.00
736.4460, 23718.00
737.5960, 23700.00
738.7450, 23849.00
739.8940, 23692.00
741.0430, 23609.00
742.1920, 23929.00
743.3410, 23775.00
744.4890, 23836.66
745.6370, 23813.00
746.7850, 23875.00
747.9330, 24099.00
749.0810, 24272.00
750.2290, 24509.00
751.3760, 24634.66
752.5240, 24529.00
753.6710, 24861.00
754.8180, 24920.00
755.9650, 24971.00
757.1110, 25198.00
758.2580, 25364.00
759.4040, 25293.00
760.5510, 25675.00
761.6970, 25686.00
762.8420, 25797.00
763.9880, 25880.00
765.1340, 25832.00
766.2790, 25936.00
767.4240, 25935.32
768.5690, 25821.67
769.7140, 25944.00
770.8590, 25520.00
772.0030, 25429.00
773.1480, 25189.00
774.2920, 25279.00
775.4360, 25072.00
776.5800, 25138.00
777.7240, 24890.00
778.8670, 24810.07
780.0110, 24886.00
781.1540, 24706.00
782.2970, 24412.00
783.4400, 24652.00
784.5830, 24370.01
785.7250, 24464.00
786.8680, 24145.00
788.0100, 23749.00
789.1520, 23649.00
790.2940, 23509.00
791.4360, 23050.00
792.5780, 22858.00
793.7190, 22515.00
794.8600, 22637.00
796.0010, 22122.00
797.1420, 21961.00
798.2830, 21384.00
799.4240, 21401.00
800.5640, 21273.00
801.7050, 21065.00
802.8450, 20664.00
803.9850, 20422.00
805.1250, 20114.00
806.2640, 20172.00
807.4040, 19644.00
808.5430, 19719.00
809.6820, 19518.08
810.8210, 19676.00
811.9600, 19201.00
813.0990, 19193.00
814.2370, 18930.00
815.3760, 19078.00
816.5140, 18630.00
817.6520, 18785.00
818.7900, 18757.00
819.9270, 18469.00
821.0650, 18569.00
822.2020, 18519.00
823.3390, 18324.00
824.4760, 18334.00
825.6130, 18345.00
826.7500, 18218.00
827.8870, 18193.00
829.0230, 18042.00
830.1590, 18185.00
831.2950, 18188.00
832.4310, 18150.00
833.5670, 18106.00
834.7030, 18158.00
835.8380, 18045.00
836.9730, 18101.00
838.1080, 17982.00
839.2430, 17795.00
840.3780, 17896.00
841.5130, 17813.00
842.6470, 17966.00
843.7810, 18047.00
844.9150, 18012.00
846.0490, 18023.73
847.1830, 17957.00
848.3170, 17900.00
849.4500, 17847.00
850.5830, 17795.00
851.7160, 17797.83
852.8490, 17786.00
853.9820, 17866.00
855.1150, 17933.00
856.2470, 18068.00
857.3800, 17960.00
858.5120, 17977.00
859.6440, 17850.00
860.7760, 17761.00
861.9070, 17922.00
863.0390, 17977.00
864.1700, 17676.00
865.3010, 17835.00
866.4320, 17576.00
867.5630, 17735.00
868.6940, 17647.00
869.8240, 17613.00
870.9540, 17692.00
872.0850, 17420.00
873.2150, 17667.00
874.3450, 17413.00
875.4740, 17437.00
876.6040, 17652.00
877.7330, 17355.00
878.8620, 17413.00
879.9910, 17457.00
881.1200, 17621.00
882.2490, 17562.00
883.3770, 17463.00
884.5060, 17481.00
885.6340, 17479.00
886.7620, 17472.00
887.8900, 17532.00
889.0180, 17538.00
890.1450, 17552.00
891.2730, 17583.00
892.4000, 17500.63
893.5270, 17617.02
894.6540, 17690.57
895.7810, 17723.58
896.9070, 17594.61
898.0340, 17674.80
899.1600, 17671.16
900.2860, 17664.08
901.4120, 17773.69
902.5380, 17668.28
903.6630, 17776.02
904.7890, 17798.68
905.9140, 17860.27
907.0390, 17837.54
908.1640, 17840.85
909.2890, 17928.51
910.4130, 17969.45
911.5380, 17937.00
912.6620, 18001.05
913.7860, 17892.67
914.9100, 17935.60
916.0340, 18043.81
917.1580, 18015.59
918.2810, 18081.17
919.4040, 18096.00
920.5280, 17895.00
921.6510, 18209.00
922.7730, 18330.00
923.8960, 18297.00
925.0180, 18609.00
926.1410, 18287.00
927.2630, 18368.00
928.3850, 18206.00
929.5070, 18308.00
930.6280, 18227.00
931.7500, 18260.00
932.8710, 18452.00
933.9920, 18460.00
935.1130, 18290.00
936.2340, 18348.00
937.3550, 18470.00
938.4760, 18470.00
939.5960, 18561.00
940.7160, 18475.00
941.8360, 18596.00
942.9560, 18655.00
944.0760, 18790.00
945.1950, 18697.00
946.3150, 18749.00
947.4340, 18813.81
948.5530, 18793.29
949.6720, 19000.00
950.7900, 18987.00
951.9090, 19205.00
953.0270, 19633.00
954.1460, 19446.90
955.2640, 19558.00
956.3820, 19345.00
957.4990, 19472.00
958.6170, 19574.00
959.7340, 19865.00
960.8520, 19641.00
961.9690, 19709.00
963.0860, 19848.00
964.2020, 20010.00
965.3190, 20149.00
966.4350, 20254.00
967.5520, 20345.12
968.6680, 20482.00
969.7840, 20476.71
970.8990, 20507.00
972.0150, 20574.00
973.1310, 20622.00
974.2460, 20563.00
975.3610, 20547.77
976.4760, 20865.54
977.5910, 21097.63
978.7050, 21248.54
979.8200, 21075.63
980.9340, 21320.89
982.0480, 21398.52
983.1620, 21469.28
984.2760, 21773.40
985.3900, 21647.51
986.5030, 21947.82
987.6160, 22077.96
988.7300, 22286.09
989.8430, 22433.90
990.9550, 22455.60
992.0680, 22616.20
993.1810, 22736.26
994.2930, 22694.27
995.4050, 22861.41
996.5170, 22944.74
997.6290, 23024.63
998.7410, 23221.21
999.8520, 23202.67
1000.964, 23397.40
1002.075, 23506.94
1003.186, 23655.42
1004.297, 23719.58
1005.407, 23809.68
1006.518, 23984.24
1007.628, 24112.00
1008.738, 24166.35
1009.848, 24317.22
1010.958, 24295.64
1012.068, 24425.39
1013.178, 24620.42
1014.287, 24678.92
1015.396, 24831.23
1016.505, 24947.81
1017.614, 24902.02
1018.723, 25138.62
1019.831, 25227.00
1020.940, 25473.00
1022.048, 25435.00
1023.156, 25659.00
1024.264, 25765.00
1025.372, 25932.00
1026.479, 25790.00
1027.587, 25860.00
1028.694, 25952.00
1029.801, 26205.00
1030.908, 26264.00
1032.015, 26196.00
1033.121, 26433.00
1034.228, 26303.00
1035.334, 26268.00
1036.440, 26717.00
1037.546, 26566.00
1038.652, 26533.00
1039.758, 26684.00
1040.863, 26768.00
1041.968, 26856.00
1043.074, 26954.65
1044.178, 26991.60
1045.283, 27109.00
1046.388, 27123.00
1047.492, 27184.00
1048.597, 27380.00
1049.701, 27603.00
1050.805, 27782.00
1051.909, 27937.00
1053.012, 28089.89
1054.116, 28374.16
1055.219, 28595.91
1056.322, 28934.00
1057.425, 29217.00
1058.528, 29445.00
1059.631, 29889.00
1060.733, 29864.00
1061.836, 30529.00
1062.938, 30614.00
1064.040, 31052.00
1065.142, 31499.00
1066.243, 31861.00
1067.345, 32009.00
1068.446, 32538.00
1069.547, 32771.00
1070.648, 32963.00
1071.749, 33365.00
1072.850, 33710.00
1073.951, 33947.00
1075.051, 34134.00
1076.151, 34781.00
1077.251, 34670.00
1078.351, 35073.00
1079.451, 35157.00
1080.550, 35590.00
1081.650, 35409.00
1082.749, 35922.00
1083.848, 36000.00
1084.947, 36200.00
1086.046, 36449.54
1087.144, 36587.22
1088.243, 36682.10
1089.341, 36736.40
1090.439, 36628.74
1091.537, 36730.23
1092.635, 36747.89
1093.732, 36762.09
1094.830, 36893.01
1095.927, 36808.88
1097.024, 36672.00
1098.121, 36585.00
1099.218, 36653.00
1100.314, 36620.00
1101.411, 36522.00
1102.507, 36287.00
1103.603, 36493.00
1104.699, 36246.00
1105.795, 36149.00
1106.890, 36100.00
1107.986, 35953.00
1109.081, 35756.00
1110.176, 35552.00
1111.271, 35283.00
1112.366, 35353.00
1113.461, 35127.00
1114.555, 34927.00
1115.649, 34892.00
1116.744, 34656.00
1117.838, 34420.13
1118.931, 34255.61
1120.025, 33973.00
1121.119, 33764.00
1122.212, 33791.00
1123.305, 33466.00
1124.398, 33259.00
1125.491, 33164.00
1126.584, 32759.00
1127.676, 32647.00
1128.768, 32261.00
1129.861, 31863.00
1130.953, 31745.00
1132.044, 31450.00
1133.136, 31257.00
1134.228, 30928.27
1135.319, 30690.00
1136.410, 30341.00
1137.501, 29952.00
1138.592, 29915.00
1139.683, 29348.00
1140.773, 29366.00
1141.864, 28781.00
1142.954, 28760.00
1144.044, 28438.00
1145.134, 28073.00
1146.224, 28021.00
1147.313, 27554.00
1148.402, 27244.00
1149.492, 27242.00
1150.581, 26933.00
1151.670, 26677.00
1152.758, 26238.00
1153.847, 26079.00
1154.935, 25694.00
1156.024, 25759.00
1157.112, 25152.00
1158.200, 25082.00
1159.287, 24921.00
1160.375, 24627.00
1161.462, 24546.00
1162.550, 24318.00
1163.637, 24092.37
1164.724, 23849.00
1165.810, 23601.00
1166.897, 23413.00
1167.983, 23092.00
1169.070, 23007.00
1170.156, 22904.00
1171.242, 22493.00
1172.327, 22578.00
1173.413, 22178.00
1174.499, 22200.00
1175.584, 21883.00
1176.669, 21627.00
1177.754, 21733.00
1178.839, 21486.00
1179.923, 21322.00
1181.008, 20951.00
1182.092, 20982.00
1183.176, 21041.00
1184.260, 20813.00
1185.344, 20518.00
1186.428, 20469.00
1187.511, 20338.00
1188.595, 20170.00
1189.678, 20130.00
1190.761, 19928.00
1191.843, 19915.00
1192.926, 19720.00
1194.009, 19647.00
1195.091, 19386.00
1196.173, 19582.00
1197.255, 19283.21
1198.337, 19346.00
1199.419, 19000.00
1200.500, 18908.00
1201.582, 19013.00
1202.663, 18915.00
1203.744, 18977.00
1204.825, 18865.00
1205.905, 18828.00
1206.986, 18853.00
1208.066, 18562.00
1209.146, 18543.00
1210.226, 18498.00
1211.306, 18450.00
1212.386, 18481.00
1213.466, 18458.99
1214.545, 18592.00
1215.624, 18476.00
1216.703, 18531.00
1217.782, 18539.00
1218.861, 18373.00
1219.939, 18527.00
1221.018, 18322.00
1222.096, 18286.00
1223.174, 18270.00
1224.252, 18243.00
1225.330, 18299.00
1226.407, 18374.00
1227.485, 18389.00
1228.562, 18390.00
1229.639, 18488.00
1230.716, 18592.00
1231.793, 18494.00
1232.869, 18470.00
1233.946, 18493.00
1235.022, 18329.00
1236.098, 18328.00
1237.174, 18368.00
1238.250, 18430.00
1239.325, 18284.00
1240.401, 18498.00
1241.476, 18443.00
1242.551, 18243.00
1243.626, 18365.00
1244.701, 18307.00
1245.776, 18097.00
1246.850, 18369.00
1247.924, 18155.00
1248.999, 18226.00
