##NAMES=Chabazite-Ca
##RRUFFID=R050075
##IDEAL CHEMISTRY=Ca_2_Al_4_Si_8_O_24_&#183;13H_2_O
##LOCALITY=Victoria, Australia
##OWNER=RRUFF
##SOURCE=Rock Currier
##DESCRIPTION=White pseudohexagonal crystals
##STATUS=The identification of this mineral has been confirmed by X-ray diffraction and chemical analysis
##URL=rruff.info/R050075
##MEASURED CHEMISTRY=(Ca_0.79_Na_0.22_K_0.14_)_Σ=1.15_(Si_4.08_Al_1.92_)O_12_·6H_2_O
##PIN_ID=M00950
##ORIENTATION=Laser parallel to (1 1 1). Fiducial mark perpendicular to laser is parallel to [-1 1 0]
64.80100, 7174.000
66.04100, 8080.000
67.28100, 9822.000
68.52100, 12161.00
69.76100, 14968.00
71.00100, 18236.00
72.24000, 22115.00
73.47900, 26227.00
74.71800, 30972.00
75.95700, 36388.00
77.19600, 42058.00
78.43500, 48628.00
79.67300, 54833.00
80.91200, 62295.00
82.15000, 68659.00
83.38800, 75838.00
84.62600, 82904.00
85.86300, 88365.00
87.10100, 93668.00
88.33800, 98773.00
89.57500, 102807.0
90.81200, 106874.0
92.04900, 111019.0
93.28600, 114436.0
94.52300, 116992.0
95.75900, 119636.0
96.99500, 121964.0
98.23100, 123435.7
99.46700, 124567.0
100.7030, 125721.0
101.9390, 126695.0
103.1740, 127417.0
104.4090, 128323.8
105.6440, 127977.0
106.8790, 129608.0
108.1140, 129995.0
109.3490, 130166.0
110.5830, 129493.0
111.8180, 129480.0
113.0520, 129022.0
114.2860, 129790.0
115.5200, 129654.8
116.7530, 130133.0
117.9870, 130179.0
119.2200, 129094.0
120.4530, 129465.0
121.6860, 128526.0
122.9190, 129095.0
124.1520, 128491.0
125.3850, 127903.6
126.6170, 128807.0
127.8490, 126761.0
129.0810, 126498.0
130.3130, 126362.0
131.5450, 125781.0
132.7770, 125540.0
134.0080, 124036.0
135.2390, 123984.0
136.4710, 122763.0
137.7020, 122125.0
138.9320, 121498.0
140.1630, 120967.0
141.3930, 119464.0
142.6240, 118784.0
143.8540, 116659.0
145.0840, 115333.0
146.3140, 114394.0
147.5440, 113028.0
148.7730, 111453.0
150.0020, 110074.0
151.2320, 108603.0
152.4610, 107470.0
153.6900, 106302.0
154.9180, 104884.0
156.1470, 103575.0
157.3750, 102695.0
158.6040, 101712.0
159.8320, 100767.0
161.0600, 100384.0
162.2870, 99116.00
163.5150, 98124.00
164.7420, 97674.00
165.9700, 97348.00
167.1970, 96509.00
168.4240, 95551.00
169.6510, 95097.00
170.8770, 94339.00
172.1040, 94138.00
173.3300, 93377.00
174.5560, 93274.00
175.7820, 91911.00
177.0080, 91421.00
178.2340, 90820.00
179.4590, 90386.00
180.6850, 89545.00
181.9100, 88906.00
183.1350, 87990.00
184.3600, 86947.00
185.5850, 86143.00
186.8090, 84930.00
188.0340, 84287.00
189.2580, 82919.00
190.4820, 81688.00
191.7060, 80828.00
192.9300, 79894.00
194.1530, 78668.00
195.3770, 77689.00
196.6000, 76610.12
197.8230, 75764.00
199.0460, 74477.00
200.2690, 73225.00
201.4910, 72141.00
202.7140, 71449.00
203.9360, 70426.00
205.1580, 69192.00
206.3800, 68231.00
207.6020, 67129.00
208.8240, 66548.00
210.0450, 65077.00
211.2670, 64770.00
212.4880, 63800.00
213.7090, 62963.00
214.9300, 62493.00
216.1510, 61582.11
217.3710, 61254.00
218.5920, 60128.00
219.8120, 59913.00
221.0320, 59286.00
222.2520, 58301.00
223.4720, 58090.00
224.6910, 57570.00
225.9110, 57033.00
227.1300, 56494.00
228.3490, 56084.38
229.5680, 55812.00
230.7870, 55303.00
232.0050, 55144.00
233.2240, 54813.00
234.4420, 54620.00
235.6600, 54471.00
236.8780, 54332.67
238.0960, 53944.00
239.3140, 54264.00
240.5310, 54105.00
241.7490, 54212.00
242.9660, 53638.00
244.1830, 53603.00
245.4000, 53490.66
246.6160, 53711.09
247.8330, 53819.28
249.0490, 53821.32
250.2660, 53399.12
251.4820, 53524.73
252.6980, 53430.82
253.9130, 53327.93
255.1290, 53530.62
256.3440, 53170.19
257.5600, 53368.04
258.7750, 53343.05
259.9900, 53420.07
261.2040, 53276.23
262.4190, 53200.59
263.6330, 53345.93
264.8480, 53173.40
266.0620, 53456.97
267.2760, 53628.34
268.4900, 53693.52
269.7030, 53334.48
270.9170, 53523.23
272.1300, 53492.45
273.3430, 53452.65
274.5560, 53718.48
275.7690, 53421.14
276.9820, 53682.12
278.1940, 53720.21
279.4070, 53860.33
280.6190, 53959.00
281.8310, 53809.00
283.0430, 53727.00
284.2550, 53976.00
285.4660, 54255.00
286.6770, 54600.00
287.8890, 54843.00
289.1000, 55124.23
290.3110, 55385.90
291.5210, 55639.00
292.7320, 55906.00
293.9420, 56164.00
295.1530, 56493.00
296.3630, 56791.17
297.5730, 56771.00
298.7830, 57305.00
299.9920, 57422.00
301.2020, 57363.00
302.4110, 58046.00
303.6200, 58146.00
304.8290, 58544.00
306.0380, 58775.00
307.2470, 59183.00
308.4550, 59732.00
309.6630, 60629.00
310.8720, 60950.00
312.0800, 61637.00
313.2880, 62203.00
314.4950, 62703.00
315.7030, 63386.00
316.9100, 64066.00
318.1170, 64850.29
319.3240, 65982.00
320.5310, 66506.00
321.7380, 67483.00
322.9450, 68196.00
324.1510, 68735.00
325.3570, 69632.00
326.5630, 70499.00
327.7690, 71200.00
328.9750, 71309.00
330.1810, 71488.00
331.3860, 71962.00
332.5910, 72317.00
333.7960, 72186.00
335.0010, 72249.00
336.2060, 71786.00
337.4110, 71379.00
338.6150, 70537.00
339.8200, 70025.00
341.0240, 68908.00
342.2280, 68114.00
343.4320, 67205.00
344.6350, 65776.00
345.8390, 64804.00
347.0420, 63627.00
348.2450, 62891.00
349.4480, 61440.00
350.6510, 60757.00
351.8540, 59767.00
353.0560, 58728.00
354.2590, 58191.00
355.4610, 57497.00
356.6630, 56858.00
357.8650, 56442.00
359.0670, 55583.00
360.2680, 54899.00
361.4700, 54765.00
362.6710, 54218.00
363.8720, 53704.00
365.0730, 53313.00
366.2740, 53021.00
367.4740, 53060.00
368.6750, 52404.00
369.8750, 52361.00
371.0750, 52123.00
372.2750, 51348.00
373.4750, 51619.00
374.6740, 51192.00
375.8740, 51045.00
377.0730, 51031.00
378.2720, 51148.00
379.4710, 50762.00
380.6700, 50370.00
381.8690, 50753.00
383.0670, 50306.00
384.2660, 50630.00
385.4640, 50574.00
386.6620, 50279.00
387.8600, 50323.00
389.0570, 50438.00
390.2550, 50351.00
391.4520, 50424.00
392.6490, 50219.00
393.8460, 50325.00
395.0430, 50511.00
396.2400, 50274.00
397.4370, 50058.00
398.6330, 50265.00
399.8290, 50483.00
401.0250, 50423.00
402.2210, 50419.00
403.4170, 50904.00
404.6130, 50894.00
405.8080, 50974.00
407.0030, 51168.00
408.1980, 51835.00
409.3930, 52262.00
410.5880, 52903.00
411.7830, 53260.00
412.9770, 53987.00
414.1720, 54784.00
415.3660, 55431.00
416.5600, 56500.00
417.7530, 57348.00
418.9470, 58394.00
420.1410, 59956.00
421.3340, 60549.00
422.5270, 61897.00
423.7200, 63476.00
424.9130, 65059.00
426.1060, 67209.00
427.2980, 69371.00
428.4900, 71327.00
429.6830, 73595.00
430.8750, 75998.00
432.0670, 78966.00
433.2580, 82249.00
434.4500, 85440.17
435.6410, 89155.00
436.8320, 92797.00
438.0240, 96734.00
439.2140, 101107.0
440.4050, 105659.0
441.5960, 110506.0
442.7860, 115393.0
443.9760, 120503.0
445.1670, 125541.6
446.3560, 130955.0
447.5460, 135769.0
448.7360, 141133.0
449.9250, 146093.0
451.1150, 150342.0
452.3040, 154575.0
453.4930, 157703.0
454.6810, 161259.0
455.8700, 163568.0
457.0590, 165434.0
458.2470, 166615.0
459.4350, 167158.0
460.6230, 167553.0
461.8110, 167111.0
462.9980, 166729.0
464.1860, 165686.0
465.3730, 164869.0
466.5600, 163658.0
467.7470, 163169.0
468.9340, 162431.0
470.1210, 161707.0
471.3080, 162358.0
472.4940, 162164.0
473.6800, 163574.0
474.8660, 164494.0
476.0520, 165497.0
477.2380, 166050.0
478.4230, 166623.0
479.6090, 166741.0
480.7940, 166631.0
481.9790, 165440.0
483.1640, 163672.0
484.3490, 161527.0
485.5330, 158394.0
486.7180, 153966.0
487.9020, 149207.0
489.0860, 144391.0
490.2700, 138604.0
491.4540, 132909.0
492.6370, 127280.0
493.8210, 121072.0
495.0040, 115458.0
496.1870, 110079.0
497.3700, 104643.0
498.5530, 99681.46
499.7360, 94846.00
500.9180, 90317.00
502.1000, 86445.00
503.2830, 82570.00
504.4650, 78641.00
505.6460, 75460.00
506.8280, 72642.00
508.0100, 69753.00
509.1910, 67386.00
510.3720, 65002.00
511.5530, 62972.00
512.7340, 61029.00
513.9150, 59235.00
515.0950, 57599.00
516.2760, 56324.00
517.4560, 54528.00
518.6360, 53610.00
519.8160, 52565.00
520.9950, 51364.00
522.1750, 50306.00
523.3540, 49713.00
524.5340, 48747.00
525.7130, 48073.00
526.8920, 47253.00
528.0700, 46618.00
529.2490, 46037.18
530.4270, 45573.00
531.6060, 45023.00
532.7840, 44573.00
533.9620, 44174.00
535.1390, 43944.00
536.3170, 43560.00
537.4940, 43093.00
538.6720, 42960.00
539.8490, 42611.00
541.0260, 42639.00
542.2030, 42484.00
543.3790, 42141.00
544.5560, 41803.00
545.7320, 41836.00
546.9080, 41559.00
548.0840, 40973.00
549.2600, 41286.00
550.4360, 40874.00
551.6110, 40942.00
552.7860, 40711.00
553.9620, 40635.00
555.1370, 40496.00
556.3110, 40389.00
557.4860, 40503.00
558.6610, 40307.00
559.8350, 40107.00
561.0090, 40246.00
562.1830, 39898.00
563.3570, 40105.00
564.5310, 39887.00
565.7040, 40084.00
566.8780, 39684.00
568.0510, 39994.00
569.2240, 39772.00
570.3970, 39925.00
571.5700, 39754.00
572.7420, 39643.00
573.9150, 39816.00
575.0870, 39685.00
576.2590, 39697.00
577.4310, 39719.00
578.6030, 39731.00
579.7740, 39543.00
580.9460, 39553.00
582.1170, 39282.00
583.2880, 39438.00
584.4590, 39327.00
585.6300, 39318.00
586.8010, 39324.00
587.9710, 39048.00
589.1410, 39097.00
590.3110, 39059.00
591.4810, 38628.00
592.6510, 38946.00
593.8210, 38640.00
594.9900, 38806.00
596.1600, 38656.00
597.3290, 38529.00
598.4980, 38153.00
599.6670, 38103.00
600.8350, 38035.00
602.0040, 37824.87
603.1720, 37732.00
604.3400, 37627.00
605.5080, 37615.00
606.6760, 37652.00
607.8440, 37537.00
609.0120, 37221.00
610.1790, 37255.00
611.3460, 37085.00
612.5130, 37232.00
613.6800, 37170.00
614.8470, 36968.00
616.0130, 37172.00
617.1800, 36896.00
618.3460, 36917.00
619.5120, 36821.00
620.6780, 36807.00
621.8440, 36681.00
623.0090, 36686.00
624.1750, 36781.00
625.3400, 36662.00
626.5050, 36614.00
627.6700, 36821.00
628.8350, 36755.00
629.9990, 36818.00
631.1640, 36937.00
632.3280, 36652.00
633.4920, 36581.00
634.6560, 36644.00
635.8200, 36782.00
636.9840, 36710.00
638.1470, 36760.00
639.3100, 36776.00
640.4730, 36825.00
641.6360, 36774.00
642.7990, 36820.22
643.9620, 36867.00
645.1240, 36851.00
646.2870, 37094.00
647.4490, 37109.00
648.6110, 36957.00
649.7730, 37256.00
650.9340, 37035.00
652.0960, 37222.00
653.2570, 37070.00
654.4180, 36978.00
655.5790, 36791.00
656.7400, 36794.00
657.9010, 36862.00
659.0620, 36802.00
660.2220, 36698.00
661.3820, 36389.00
662.5420, 36420.00
663.7020, 36262.00
664.8620, 35920.00
666.0210, 36146.00
667.1810, 35927.00
668.3400, 35912.00
669.4990, 35867.00
670.6580, 35824.00
671.8170, 35702.00
672.9750, 35444.00
674.1340, 35607.00
675.2920, 35358.00
676.4500, 35488.00
677.6080, 35163.00
678.7660, 35124.00
679.9230, 34979.00
681.0810, 35197.00
682.2380, 35144.00
683.3950, 35054.00
684.5520, 35172.00
685.7090, 34988.00
686.8660, 35086.00
688.0220, 35093.00
689.1780, 35250.00
690.3340, 35298.00
691.4900, 35163.00
692.6460, 35084.00
693.8020, 35127.00
694.9570, 35263.00
696.1130, 35255.00
697.2680, 35330.00
698.4230, 35354.00
699.5780, 35469.90
700.7320, 35327.00
701.8870, 35680.00
703.0410, 35340.00
704.1950, 35299.00
705.3490, 35416.00
706.5030, 35517.00
707.6570, 35292.54
708.8110, 35537.12
709.9640, 35688.86
711.1170, 35752.61
712.2700, 35473.95
713.4230, 35630.48
714.5760, 35608.34
715.7280, 35575.95
716.8810, 35785.02
718.0330, 35540.52
719.1850, 35739.63
720.3370, 35757.42
721.4890, 35853.77
722.6400, 35770.38
723.7920, 35738.54
724.9430, 35880.42
726.0940, 35921.40
727.2450, 35805.55
728.3960, 35700.04
729.5460, 35855.00
730.6970, 35683.00
731.8470, 35690.00
732.9970, 35781.00
734.1470, 35575.00
735.2970, 35587.00
736.4460, 35695.00
737.5960, 35808.00
738.7450, 35643.00
739.8940, 35718.00
741.0430, 35848.00
742.1920, 35917.00
743.3410, 35788.00
744.4890, 36180.00
745.6370, 35987.00
746.7850, 36179.00
747.9330, 36264.00
749.0810, 36724.00
750.2290, 37112.00
751.3760, 37045.00
752.5240, 37313.00
753.6710, 37296.00
754.8180, 37575.00
755.9650, 37702.00
757.1110, 38154.00
758.2580, 38445.00
759.4040, 38508.02
760.5510, 38671.92
761.6970, 38610.00
762.8420, 38679.00
763.9880, 38681.00
765.1340, 38657.00
766.2790, 38731.00
767.4240, 38788.00
768.5690, 38898.00
769.7140, 38553.00
770.8590, 38683.00
772.0030, 38504.00
773.1480, 38536.00
774.2920, 38246.00
775.4360, 38118.00
776.5800, 38192.00
777.7240, 37777.00
778.8670, 37763.10
780.0110, 37588.91
781.1540, 37537.00
782.2970, 37286.00
783.4400, 37273.00
784.5830, 37163.00
785.7250, 36834.00
786.8680, 36868.00
788.0100, 36445.00
789.1520, 36185.00
790.2940, 35957.00
791.4360, 35554.00
792.5780, 35370.00
793.7190, 35170.00
794.8600, 34857.00
796.0010, 34541.00
797.1420, 34379.00
798.2830, 34107.47
799.4240, 33914.00
800.5640, 33644.00
801.7050, 33224.00
802.8450, 32881.00
803.9850, 32856.00
805.1250, 32503.00
806.2640, 32323.00
807.4040, 32106.00
808.5430, 31854.00
809.6820, 31692.00
810.8210, 31651.00
811.9600, 31562.00
813.0990, 31433.27
814.2370, 31352.00
815.3760, 31245.00
816.5140, 31165.00
817.6520, 31173.00
818.7900, 30790.00
819.9270, 30954.00
821.0650, 30774.00
822.2020, 31046.00
823.3390, 30762.00
824.4760, 30719.00
825.6130, 30815.00
826.7500, 30469.00
827.8870, 30698.00
829.0230, 30536.00
830.1590, 30575.00
831.2950, 30593.00
832.4310, 30528.00
833.5670, 30463.00
834.7030, 30638.00
835.8380, 30421.00
836.9730, 30463.38
838.1080, 30804.00
839.2430, 30386.00
840.3780, 30529.00
841.5130, 30509.00
842.6470, 30532.00
843.7810, 30496.00
844.9150, 30421.00
846.0490, 30501.00
847.1830, 30344.00
848.3170, 30341.00
849.4500, 30618.00
850.5830, 30347.00
851.7160, 30533.00
852.8490, 30302.00
853.9820, 30578.00
855.1150, 30432.00
856.2470, 30428.00
857.3800, 30346.00
858.5120, 30465.00
859.6440, 30311.00
860.7760, 30499.00
861.9070, 30323.00
863.0390, 30224.00
864.1700, 30342.00
865.3010, 30263.14
866.4320, 30542.00
867.5630, 30315.00
868.6940, 30358.00
869.8240, 30369.00
870.9540, 30183.00
872.0850, 30546.00
873.2150, 30308.00
874.3450, 30387.00
875.4740, 30112.00
876.6040, 30553.00
877.7330, 30360.00
878.8620, 30263.00
879.9910, 30189.00
881.1200, 30182.00
882.2490, 30416.00
883.3770, 30360.00
884.5060, 30531.00
885.6340, 30455.00
886.7620, 30259.00
887.8900, 30434.00
889.0180, 30646.00
890.1450, 30349.00
891.2730, 30660.00
892.4000, 30587.00
893.5270, 30563.00
894.6540, 30698.00
895.7810, 30650.00
896.9070, 30496.91
898.0340, 30734.92
899.1600, 30883.12
900.2860, 30946.39
901.4120, 30670.29
902.5380, 30832.41
903.6630, 30818.88
904.7890, 30798.18
905.9140, 31021.94
907.0390, 30795.17
908.1640, 31015.06
909.2890, 31056.65
910.4130, 31179.81
911.5380, 31126.30
912.6620, 31127.34
913.7860, 31305.14
914.9100, 31385.07
916.0340, 31311.19
917.1580, 31439.54
918.2810, 31206.54
919.4040, 31290.60
920.5280, 31511.50
921.6510, 31446.47
922.7730, 31577.99
923.8960, 31634.68
925.0180, 31351.10
926.1410, 31659.25
927.2630, 31711.48
928.3850, 31500.96
929.5070, 31788.82
930.6280, 31959.00
931.7500, 31671.00
932.8710, 31864.00
933.9920, 31732.00
935.1130, 31735.00
936.2340, 31942.00
937.3550, 32072.00
938.4760, 31945.00
939.5960, 32145.00
940.7160, 31917.00
941.8360, 31738.00
942.9560, 32081.00
944.0760, 32264.00
945.1950, 32269.00
946.3150, 32663.00
947.4340, 32218.00
948.5530, 32580.00
949.6720, 32693.00
950.7900, 32721.00
951.9090, 32785.00
953.0270, 32940.00
954.1460, 32788.00
955.2640, 33004.00
956.3820, 33155.00
957.4990, 33131.00
958.6170, 33340.00
959.7340, 33641.00
960.8520, 33549.00
961.9690, 33487.00
963.0860, 33766.00
964.2020, 34056.00
965.3190, 33904.00
966.4350, 34418.00
967.5520, 33940.00
968.6680, 34270.00
969.7840, 34256.00
970.8990, 34265.00
972.0150, 34686.00
973.1310, 34512.00
974.2460, 34883.00
975.3610, 34640.00
976.4760, 34900.00
977.5910, 35185.00
978.7050, 35137.00
979.8200, 35721.00
980.9340, 35306.00
982.0480, 35328.00
983.1620, 35609.00
984.2760, 35707.00
985.3900, 36005.00
986.5030, 35963.00
987.6160, 36189.00
988.7300, 36179.00
989.8430, 36525.00
990.9550, 36551.00
992.0680, 36583.12
993.1810, 36930.00
994.2930, 37186.98
995.4050, 37359.01
996.5170, 37191.69
997.6290, 37462.57
998.7410, 37557.85
999.8520, 37645.79
1000.964, 37978.35
1002.075, 37860.26
1003.186, 38188.82
1004.297, 38339.09
1005.407, 38570.82
1006.518, 38625.99
1007.628, 38735.61
1008.738, 39021.98
1009.848, 39210.48
1010.958, 38997.00
1012.068, 39108.70
1013.178, 39075.00
1014.287, 39283.00
1015.396, 39295.44
1016.505, 39446.62
1017.614, 39513.00
1018.723, 39650.29
1019.831, 39833.00
1020.940, 40005.00
1022.048, 40080.00
1023.156, 40235.14
1024.264, 40271.93
1025.372, 40404.00
1026.479, 40426.00
1027.587, 40378.00
1028.694, 40653.00
1029.801, 40597.00
1030.908, 40872.00
1032.015, 41152.00
1033.121, 41490.00
1034.228, 41033.00
1035.334, 41132.00
1036.440, 41614.00
1037.546, 41280.00
1038.652, 41414.00
1039.758, 41173.00
1040.863, 41527.00
1041.968, 41554.00
1043.074, 41938.00
1044.178, 41664.00
1045.283, 41770.00
1046.388, 42097.00
1047.492, 42268.00
1048.597, 42618.00
1049.701, 42788.00
1050.805, 43019.00
1051.909, 43239.00
1053.012, 43521.00
1054.116, 43793.00
1055.219, 44007.60
1056.322, 44361.00
1057.425, 44468.00
1058.528, 44812.00
1059.631, 45083.00
1060.733, 45785.00
1061.836, 46198.00
1062.938, 46487.00
1064.040, 46728.00
1065.142, 47044.00
1066.243, 47535.00
1067.345, 47898.00
1068.446, 48106.00
1069.547, 48473.00
1070.648, 48553.00
1071.749, 49199.00
1072.850, 49456.00
1073.951, 49697.00
1075.051, 50202.00
1076.151, 49993.00
1077.251, 50207.00
1078.351, 50476.00
1079.451, 50735.00
1080.550, 50989.00
1081.650, 51109.00
1082.749, 51470.00
1083.848, 51638.00
1084.947, 51768.83
1086.046, 51576.00
1087.144, 51955.00
1088.243, 51889.00
1089.341, 51892.00
1090.439, 52291.00
1091.537, 52019.00
1092.635, 52293.00
1093.732, 52377.00
1094.830, 52107.00
1095.927, 52345.00
1097.024, 52025.00
1098.121, 52381.00
1099.218, 52202.00
1100.314, 52198.00
1101.411, 52056.00
1102.507, 52165.00
1103.603, 52025.00
1104.699, 51931.89
1105.795, 51632.00
1106.890, 51727.00
1107.986, 51430.00
1109.081, 51419.00
1110.176, 51002.00
1111.271, 51276.00
1112.366, 50710.00
1113.461, 50945.00
1114.555, 50199.00
1115.649, 50114.00
1116.744, 50074.00
1117.838, 50092.00
1118.931, 49823.00
1120.025, 49870.00
1121.119, 49446.00
1122.212, 49270.00
1123.305, 49247.00
1124.398, 48856.00
1125.491, 48736.00
1126.584, 48483.00
1127.676, 48347.00
1128.768, 47879.00
1129.861, 47764.00
1130.953, 47560.00
1132.044, 47454.00
1133.136, 47057.41
1134.228, 46682.00
1135.319, 46339.00
1136.410, 45985.00
1137.501, 45867.00
1138.592, 45644.00
1139.683, 45298.00
1140.773, 44998.00
1141.864, 44792.00
1142.954, 44529.00
1144.044, 44257.00
1145.134, 44076.00
1146.224, 43839.00
1147.313, 43529.00
1148.402, 43050.00
1149.492, 42788.00
1150.581, 42530.41
1151.670, 42596.00
1152.758, 42079.00
1153.847, 42086.00
1154.935, 41792.00
1156.024, 41538.00
1157.112, 41205.00
1158.200, 41188.00
1159.287, 40918.00
1160.375, 40720.00
1161.462, 40527.00
1162.550, 40269.00
1163.637, 40104.00
1164.724, 39697.00
1165.810, 39275.00
1166.897, 39423.00
1167.983, 39133.00
1169.070, 39284.00
1170.156, 38816.00
1171.242, 38579.00
1172.327, 38806.00
1173.413, 38391.88
1174.499, 38492.00
1175.584, 37969.00
1176.669, 37978.00
1177.754, 37682.00
1178.839, 37632.00
1179.923, 37550.00
1181.008, 37326.00
1182.092, 37077.00
1183.176, 36747.46
1184.260, 36819.62
1185.344, 36807.81
1186.428, 36716.86
1187.511, 36292.44
1188.595, 36311.93
1189.678, 36161.70
1190.761, 36010.06
1191.843, 36108.78
1192.926, 35762.67
1194.009, 35869.01
1195.091, 35802.91
1196.173, 35824.18
1197.255, 35674.54
1198.337, 35585.25
1199.419, 35678.50
1200.500, 35390.00
1201.582, 35346.00
1202.663, 35391.00
1203.744, 35090.00
1204.825, 35226.00
1205.905, 34983.00
1206.986, 35068.00
1208.066, 35263.00
1209.146, 35063.00
1210.226, 35165.00
1211.306, 35059.00
1212.386, 35045.00
1213.466, 35010.00
1214.545, 35141.00
1215.624, 34948.00
1216.703, 34936.00
1217.782, 34933.00
1218.861, 35211.00
1219.939, 35059.89
1221.018, 35155.00
1222.096, 34944.00
1223.174, 35034.00
1224.252, 35010.00
1225.330, 35029.00
1226.407, 35259.00
1227.485, 34920.00
1228.562, 35268.00
1229.639, 35283.00
1230.716, 35176.19
1231.793, 35695.00
1232.869, 35024.00
1233.946, 34915.00
1235.022, 34759.66
1236.098, 35021.00
1237.174, 35053.00
1238.250, 34864.00
1239.325, 35156.00
1240.401, 35110.00
1241.476, 35310.00
1242.551, 34928.00
1243.626, 35089.00
1244.701, 34961.00
1245.776, 35029.00
1246.850, 35059.00
1247.924, 35011.09
1248.999, 35151.00
