##NAMES=Chabazite-Ca
##RRUFFID=R050075
##IDEAL CHEMISTRY=Ca_2_Al_4_Si_8_O_24_&#183;13H_2_O
##LOCALITY=Victoria, Australia
##OWNER=RRUFF
##SOURCE=Rock Currier
##DESCRIPTION=White pseudohexagonal crystals
##STATUS=The identification of this mineral has been confirmed by X-ray diffraction and chemical analysis
##URL=rruff.info/R050075
##MEASURED CHEMISTRY=(Ca_0.79_Na_0.22_K_0.14_)_Σ=1.15_(Si_4.08_Al_1.92_)O_12_·6H_2_O
##PIN_ID=M00950
##ORIENTATION=Laser parallel to (1 1 1). Fiducial mark perpendicular to laser is parallel to [-1 1 0]
64.80100, 6644.000
66.04100, 8040.000
67.28100, 9679.000
68.52100, 12129.00
69.76100, 15980.00
71.00100, 17900.00
72.24000, 21595.00
73.47900, 25386.00
74.71800, 30058.00
75.95700, 35545.00
77.19600, 41131.00
78.43500, 47283.00
79.67300, 53879.00
80.91200, 60352.00
82.15000, 67071.00
83.38800, 74462.00
84.62600, 82387.00
85.86300, 86572.00
87.10100, 92120.00
88.33800, 96862.00
89.57500, 100820.0
90.81200, 105069.0
92.04900, 108959.0
93.28600, 111687.0
94.52300, 114463.0
95.75900, 117004.0
96.99500, 118810.0
98.23100, 120123.0
99.46700, 121430.0
100.7030, 122497.0
101.9390, 123081.0
103.1740, 123233.0
104.4090, 124179.0
105.6440, 124369.0
106.8790, 124852.6
108.1140, 125882.0
109.3490, 125287.0
110.5830, 125393.0
111.8180, 124759.0
113.0520, 124289.0
114.2860, 124796.0
115.5200, 125065.0
116.7530, 125033.0
117.9870, 125314.0
119.2200, 124690.0
120.4530, 123788.0
121.6860, 123618.0
122.9190, 123001.0
124.1520, 122936.0
125.3850, 122269.0
126.6170, 121644.0
127.8490, 120742.0
129.0810, 120231.0
130.3130, 120466.0
131.5450, 119411.0
132.7770, 119056.0
134.0080, 118185.0
135.2390, 117578.0
136.4710, 116855.0
137.7020, 115894.0
138.9320, 115318.0
140.1630, 114454.0
141.3930, 113899.0
142.6240, 112808.0
143.8540, 111690.0
145.0840, 109954.0
146.3140, 108550.0
147.5440, 107818.0
148.7730, 106793.0
150.0020, 104885.0
151.2320, 104349.0
152.4610, 103412.0
153.6900, 103009.0
154.9180, 101090.0
156.1470, 100082.0
157.3750, 98852.00
158.6040, 97850.00
159.8320, 97281.00
161.0600, 96430.00
162.2870, 96058.00
163.5150, 95168.00
164.7420, 94666.00
165.9700, 94415.00
167.1970, 94057.00
168.4240, 93476.00
169.6510, 92714.00
170.8770, 92170.00
172.1040, 92221.00
173.3300, 91576.00
174.5560, 91323.00
175.7820, 90710.00
177.0080, 90312.00
178.2340, 89671.82
179.4590, 89146.00
180.6850, 88222.00
181.9100, 87550.00
183.1350, 86651.00
184.3600, 85476.00
185.5850, 84805.86
186.8090, 84250.00
188.0340, 82992.00
189.2580, 82159.00
190.4820, 80874.00
191.7060, 80021.00
192.9300, 78687.00
194.1530, 77942.00
195.3770, 76880.00
196.6000, 75344.00
197.8230, 74053.00
199.0460, 72763.00
200.2690, 71857.00
201.4910, 70896.00
202.7140, 70125.00
203.9360, 69182.00
205.1580, 68240.58
206.3800, 66608.00
207.6020, 66061.00
208.8240, 65010.00
210.0450, 63371.00
211.2670, 62492.00
212.4880, 61512.00
213.7090, 60716.00
214.9300, 60065.00
216.1510, 58946.00
217.3710, 58193.00
218.5920, 57586.00
219.8120, 57133.00
221.0320, 56232.00
222.2520, 55665.00
223.4720, 55040.00
224.6910, 54725.00
225.9110, 53809.00
227.1300, 53130.00
228.3490, 52913.00
229.5680, 52548.00
230.7870, 52019.00
232.0050, 51708.00
233.2240, 51375.24
234.4420, 50949.00
235.6600, 50888.00
236.8780, 50520.00
238.0960, 50433.00
239.3140, 50058.00
240.5310, 49759.00
241.7490, 49963.00
242.9660, 49715.00
244.1830, 49578.00
245.4000, 49481.00
246.6160, 49369.00
247.8330, 49272.17
249.0490, 49539.00
250.2660, 49204.00
251.4820, 49327.00
252.6980, 49546.00
253.9130, 49090.00
255.1290, 49381.00
256.3440, 48990.00
257.5600, 49052.00
258.7750, 49012.00
259.9900, 48827.00
261.2040, 48857.00
262.4190, 48967.00
263.6330, 48994.00
264.8480, 49030.00
266.0620, 49094.48
267.2760, 48988.73
268.4900, 49077.41
269.7030, 49100.45
270.9170, 48861.20
272.1300, 48960.63
273.3430, 48924.34
274.5560, 48882.48
275.7690, 49029.58
276.9820, 48828.48
278.1940, 48972.59
279.4070, 49219.00
280.6190, 49221.00
281.8310, 49372.00
283.0430, 49299.00
284.2550, 49260.00
285.4660, 49445.00
286.6770, 49596.00
287.8890, 49707.00
289.1000, 49703.00
290.3110, 50200.00
291.5210, 50188.00
292.7320, 50346.00
293.9420, 50268.00
295.1530, 50449.00
296.3630, 50912.00
297.5730, 51073.00
298.7830, 51176.00
299.9920, 51163.00
301.2020, 51717.00
302.4110, 52028.00
303.6200, 52393.00
304.8290, 52496.00
306.0380, 53032.00
307.2470, 53169.00
308.4550, 53824.00
309.6630, 54311.00
310.8720, 54590.00
312.0800, 55092.00
313.2880, 55991.00
314.4950, 56605.00
315.7030, 57284.00
316.9100, 58295.00
318.1170, 58974.00
319.3240, 60131.00
320.5310, 60670.00
321.7380, 61482.00
322.9450, 62752.00
324.1510, 63300.00
325.3570, 64341.00
326.5630, 64999.00
327.7690, 65590.00
328.9750, 66555.00
330.1810, 66656.00
331.3860, 66903.00
332.5910, 67343.00
333.7960, 67189.00
335.0010, 67157.00
336.2060, 66904.00
337.4110, 66532.00
338.6150, 65947.00
339.8200, 65021.00
341.0240, 64439.00
342.2280, 63413.00
343.4320, 62763.00
344.6350, 61716.00
345.8390, 59864.00
347.0420, 59494.00
348.2450, 58173.00
349.4480, 56815.00
350.6510, 55977.00
351.8540, 55273.00
353.0560, 54669.00
354.2590, 53978.00
355.4610, 53346.51
356.6630, 52735.71
357.8650, 52125.00
359.0670, 51373.00
360.2680, 50851.00
361.4700, 50290.43
362.6710, 49828.00
363.8720, 49361.00
365.0730, 48945.00
366.2740, 48631.00
367.4740, 48257.10
368.6750, 47966.00
369.8750, 47657.00
371.0750, 47392.00
372.2750, 47155.00
373.4750, 46684.27
374.6740, 46711.98
375.8740, 46670.21
377.0730, 46562.89
378.2720, 46193.29
379.4710, 46162.38
380.6700, 45995.73
381.8690, 45823.52
383.0670, 45840.39
384.2660, 45508.94
385.4640, 45522.81
386.6620, 45398.88
387.8600, 45338.02
389.0570, 45364.78
390.2550, 45195.20
391.4520, 45326.80
392.6490, 45392.75
393.8460, 45196.41
395.0430, 45338.76
396.2400, 45345.38
397.4370, 45346.44
398.6330, 45536.42
399.8290, 45378.20
401.0250, 45565.18
402.2210, 45749.31
403.4170, 46002.00
404.6130, 46201.00
405.8080, 46434.00
407.0030, 46920.00
408.1980, 47511.00
409.3930, 48084.00
410.5880, 48364.00
411.7830, 49080.00
412.9770, 49729.00
414.1720, 50686.00
415.3660, 51244.00
416.5600, 52243.00
417.7530, 53594.00
418.9470, 54481.00
420.1410, 55534.00
421.3340, 57414.00
422.5270, 59195.00
423.7200, 60424.00
424.9130, 61930.00
426.1060, 64080.00
427.2980, 65860.00
428.4900, 68105.00
429.6830, 70793.00
430.8750, 73572.00
432.0670, 76432.00
433.2580, 80139.00
434.4500, 83479.00
435.6410, 87268.00
436.8320, 91753.00
438.0240, 97266.00
439.2140, 100657.0
440.4050, 106308.0
441.5960, 110932.0
442.7860, 116848.0
443.9760, 122243.0
445.1670, 128214.0
446.3560, 133758.0
447.5460, 139203.0
448.7360, 145366.0
449.9250, 150176.0
451.1150, 155574.0
452.3040, 160028.0
453.4930, 163468.0
454.6810, 167548.0
455.8700, 170036.0
457.0590, 171989.0
458.2470, 173421.8
459.4350, 173474.0
460.6230, 173919.0
461.8110, 172667.0
462.9980, 171382.5
464.1860, 171173.0
465.3730, 169476.0
466.5600, 167862.0
467.7470, 167536.0
468.9340, 166583.0
470.1210, 165177.0
471.3080, 164885.0
472.4940, 165385.0
473.6800, 165338.0
474.8660, 166159.0
476.0520, 167464.0
477.2380, 167986.0
478.4230, 168868.0
479.6090, 168066.0
480.7940, 168007.0
481.9790, 166433.0
483.1640, 164542.0
484.3490, 162333.0
485.5330, 158287.0
486.7180, 154537.0
487.9020, 149291.0
489.0860, 143748.0
490.2700, 138261.0
491.4540, 132092.0
492.6370, 125650.0
493.8210, 119855.0
495.0040, 113715.0
496.1870, 107656.0
497.3700, 102501.0
498.5530, 96976.00
499.7360, 91993.00
500.9180, 87152.00
502.1000, 82997.00
503.2830, 78724.00
504.4650, 74804.00
505.6460, 71742.00
506.8280, 68446.00
508.0100, 65283.00
509.1910, 62967.00
510.3720, 60412.00
511.5530, 58329.00
512.7340, 55927.00
513.9150, 54270.00
515.0950, 52762.00
516.2760, 50712.00
517.4560, 49331.00
518.6360, 48230.00
519.8160, 47142.00
520.9950, 46115.00
522.1750, 44846.00
523.3540, 44027.00
524.5340, 42934.00
525.7130, 42188.00
526.8920, 41548.00
528.0700, 40879.00
529.2490, 40404.00
530.4270, 39789.00
531.6060, 39310.00
532.7840, 38954.00
533.9620, 38516.00
535.1390, 37996.00
536.3170, 37962.00
537.4940, 37245.00
538.6720, 37074.00
539.8490, 36587.00
541.0260, 36733.00
542.2030, 36606.00
543.3790, 36072.00
544.5560, 35731.00
545.7320, 35772.00
546.9080, 35581.00
548.0840, 35388.00
549.2600, 35393.08
550.4360, 35143.90
551.6110, 35274.00
552.7860, 34767.00
553.9620, 34620.00
555.1370, 34414.00
556.3110, 33946.00
557.4860, 34152.00
558.6610, 34074.00
559.8350, 33984.00
561.0090, 34144.00
562.1830, 34078.00
563.3570, 33980.00
564.5310, 33745.00
565.7040, 33684.00
566.8780, 33838.00
568.0510, 33889.00
569.2240, 33851.00
570.3970, 33749.00
571.5700, 33671.00
572.7420, 33546.00
573.9150, 33522.14
575.0870, 33634.00
576.2590, 33498.00
577.4310, 33457.00
578.6030, 33505.00
579.7740, 33267.00
580.9460, 33490.00
582.1170, 33094.00
583.2880, 33278.00
584.4590, 33191.00
585.6300, 33148.00
586.8010, 33390.00
587.9710, 33030.00
589.1410, 33095.00
590.3110, 32881.00
591.4810, 32488.00
592.6510, 32636.00
593.8210, 32275.00
594.9900, 32164.00
596.1600, 31998.00
597.3290, 32016.00
598.4980, 31843.00
599.6670, 31771.00
600.8350, 31759.00
602.0040, 31652.00
603.1720, 31466.00
604.3400, 31273.00
605.5080, 31010.00
606.6760, 31152.00
607.8440, 30980.00
609.0120, 30639.00
610.1790, 30681.00
611.3460, 30455.00
612.5130, 30766.00
613.6800, 30530.00
614.8470, 30586.00
616.0130, 30135.00
617.1800, 30205.00
618.3460, 30117.00
619.5120, 30313.00
620.6780, 30236.00
621.8440, 30210.00
623.0090, 30349.00
624.1750, 30042.00
625.3400, 30160.00
626.5050, 30096.00
627.6700, 30245.00
628.8350, 30080.00
629.9990, 30021.00
631.1640, 30163.00
632.3280, 29833.00
633.4920, 29996.00
634.6560, 30008.00
635.8200, 29918.00
636.9840, 30001.00
638.1470, 30095.00
639.3100, 30217.00
640.4730, 30150.00
641.6360, 30050.00
642.7990, 30150.00
643.9620, 30268.00
645.1240, 30465.00
646.2870, 30414.00
647.4490, 30368.00
648.6110, 30508.00
649.7730, 30615.00
650.9340, 30476.00
652.0960, 30336.00
653.2570, 30224.00
654.4180, 30235.00
655.5790, 30251.00
656.7400, 30138.00
657.9010, 29980.00
659.0620, 29966.00
660.2220, 29840.00
661.3820, 29466.00
662.5420, 29465.00
663.7020, 29192.00
664.8620, 29300.00
666.0210, 28945.00
667.1810, 28697.00
668.3400, 28899.00
669.4990, 28413.00
670.6580, 28613.00
671.8170, 28775.00
672.9750, 28377.00
674.1340, 28624.00
675.2920, 28308.00
676.4500, 28173.00
677.6080, 28261.00
678.7660, 28242.00
679.9230, 27960.00
681.0810, 28234.00
682.2380, 28128.00
683.3950, 28258.00
684.5520, 28091.00
685.7090, 27945.00
686.8660, 28132.00
688.0220, 27957.00
689.1780, 27997.00
690.3340, 27965.00
691.4900, 27981.00
692.6460, 27947.00
693.8020, 27966.04
694.9570, 28014.00
696.1130, 28008.00
697.2680, 28010.00
698.4230, 28047.00
699.5780, 28265.00
700.7320, 28012.00
701.8870, 28316.00
703.0410, 28331.00
704.1950, 28239.00
705.3490, 28309.00
706.5030, 28153.00
707.6570, 28211.58
708.8110, 28713.00
709.9640, 28307.00
711.1170, 28664.00
712.2700, 28826.00
713.4230, 28536.00
714.5760, 28935.00
715.7280, 28618.53
716.8810, 28768.65
718.0330, 28849.39
719.1850, 28864.48
720.3370, 28617.28
721.4890, 28708.77
722.6400, 28664.53
723.7920, 28742.00
724.9430, 28775.00
726.0940, 28771.00
727.2450, 28478.00
728.3960, 28643.00
729.5460, 28494.00
730.6970, 28537.00
731.8470, 28545.11
732.9970, 28587.00
734.1470, 28487.00
735.2970, 28321.00
736.4460, 28178.00
737.5960, 28315.00
738.7450, 28386.00
739.8940, 28575.00
741.0430, 28530.00
742.1920, 28451.00
743.3410, 28522.00
744.4890, 28494.00
745.6370, 28756.00
746.7850, 28873.00
747.9330, 28917.00
749.0810, 28970.00
750.2290, 29258.00
751.3760, 29336.00
752.5240, 29399.00
753.6710, 29782.00
754.8180, 29926.00
755.9650, 30155.00
757.1110, 29923.00
758.2580, 30131.00
759.4040, 30376.00
760.5510, 30620.00
761.6970, 30311.00
762.8420, 30631.00
763.9880, 30595.00
765.1340, 30907.00
766.2790, 30418.00
767.4240, 30622.00
768.5690, 30415.00
769.7140, 30685.00
770.8590, 30554.00
772.0030, 30255.00
773.1480, 30090.00
774.2920, 30206.00
775.4360, 29873.00
776.5800, 29838.00
777.7240, 29667.00
778.8670, 29642.00
780.0110, 29500.00
781.1540, 29159.00
782.2970, 29369.00
783.4400, 28995.00
784.5830, 28974.00
785.7250, 28625.00
786.8680, 28539.00
788.0100, 28228.00
789.1520, 28202.00
790.2940, 28087.00
791.4360, 27647.00
792.5780, 27407.00
793.7190, 27036.00
794.8600, 26882.00
796.0010, 26581.40
797.1420, 26361.00
798.2830, 26072.00
799.4240, 25796.00
800.5640, 25541.00
801.7050, 25534.00
802.8450, 25369.00
803.9850, 24530.00
805.1250, 24579.00
806.2640, 24092.00
807.4040, 24052.00
808.5430, 23635.00
809.6820, 23636.00
810.8210, 23573.00
811.9600, 23570.00
813.0990, 23477.19
814.2370, 23174.00
815.3760, 23214.00
816.5140, 22956.00
817.6520, 22657.00
818.7900, 23055.00
819.9270, 22932.00
821.0650, 22830.00
822.2020, 22738.00
823.3390, 22705.00
824.4760, 22657.92
825.6130, 22602.00
826.7500, 22629.00
827.8870, 22583.00
829.0230, 22573.54
830.1590, 22436.00
831.2950, 22451.00
832.4310, 22438.00
833.5670, 22361.00
834.7030, 22438.00
835.8380, 22458.00
836.9730, 22361.00
838.1080, 22539.00
839.2430, 22277.00
840.3780, 22404.00
841.5130, 22444.00
842.6470, 22542.00
843.7810, 22277.00
844.9150, 22244.00
846.0490, 22124.00
847.1830, 22274.00
848.3170, 22274.00
849.4500, 22159.00
850.5830, 22176.00
851.7160, 22204.00
852.8490, 22338.00
853.9820, 22111.00
855.1150, 22087.00
856.2470, 22195.00
857.3800, 22304.00
858.5120, 22236.00
859.6440, 22452.00
860.7760, 22216.00
861.9070, 22269.00
863.0390, 22194.00
864.1700, 22178.00
865.3010, 22067.00
866.4320, 22091.00
867.5630, 22024.00
868.6940, 21853.00
869.8240, 21820.00
870.9540, 21872.00
872.0850, 21966.00
873.2150, 22017.00
874.3450, 22047.00
875.4740, 21813.00
876.6040, 22040.00
877.7330, 21908.00
878.8620, 21952.00
879.9910, 21958.00
881.1200, 21770.00
882.2490, 21735.00
883.3770, 21889.00
884.5060, 21875.00
885.6340, 21948.00
886.7620, 21770.00
887.8900, 22103.00
889.0180, 21994.00
890.1450, 21727.00
891.2730, 21889.00
892.4000, 21934.00
893.5270, 21870.00
894.6540, 21902.00
895.7810, 22077.00
896.9070, 22139.00
898.0340, 22272.00
899.1600, 22132.00
900.2860, 22033.00
901.4120, 22179.00
902.5380, 22111.00
903.6630, 22124.00
904.7890, 22129.00
905.9140, 22081.00
907.0390, 22073.38
908.1640, 22200.00
909.2890, 22090.00
910.4130, 22156.00
911.5380, 22343.00
912.6620, 22292.00
913.7860, 22450.00
914.9100, 22265.00
916.0340, 22395.00
917.1580, 22565.00
918.2810, 22257.00
919.4040, 22542.00
920.5280, 22389.00
921.6510, 22400.00
922.7730, 22750.00
923.8960, 22714.00
925.0180, 22582.00
926.1410, 22707.00
927.2630, 22670.00
928.3850, 22669.00
929.5070, 22520.00
930.6280, 22575.89
931.7500, 22604.03
932.8710, 22687.00
933.9920, 22738.00
935.1130, 22947.00
936.2340, 22982.00
937.3550, 23076.00
938.4760, 22914.00
939.5960, 22996.00
940.7160, 22987.00
941.8360, 22938.00
942.9560, 23116.00
944.0760, 23124.00
945.1950, 23449.00
946.3150, 23228.00
947.4340, 23349.00
948.5530, 23336.00
949.6720, 23625.00
950.7900, 23648.66
951.9090, 23499.23
953.0270, 23737.68
954.1460, 23906.83
955.2640, 24010.24
956.3820, 23851.38
957.4990, 24031.13
958.6170, 24075.22
959.7340, 24113.67
960.8520, 24341.16
961.9690, 24220.38
963.0860, 24444.80
964.2020, 24531.35
965.3190, 24681.04
966.4350, 24694.09
967.5520, 24749.39
968.6680, 24941.24
969.7840, 25057.44
970.8990, 25054.69
972.0150, 25208.32
973.1310, 25407.00
974.2460, 25509.00
975.3610, 25698.00
976.4760, 25673.00
977.5910, 25827.00
978.7050, 25876.00
979.8200, 26155.00
980.9340, 26190.00
982.0480, 26323.21
983.1620, 26601.50
984.2760, 26810.42
985.3900, 26953.68
986.5030, 26834.54
987.6160, 27054.10
988.7300, 27138.03
989.8430, 27216.29
990.9550, 27355.95
992.0680, 27634.13
993.1810, 27842.94
994.2930, 27985.98
995.4050, 27866.74
996.5170, 28086.19
997.6290, 28169.91
998.7410, 28248.06
999.8520, 28515.06
1000.964, 28433.97
1002.075, 28697.99
1003.186, 28824.19
1004.297, 29013.47
1005.407, 29066.07
1006.518, 29160.97
1007.628, 29392.36
1008.738, 29548.11
1009.848, 29585.00
1010.958, 29778.18
1012.068, 29692.10
1013.178, 29851.07
1014.287, 30115.67
1015.396, 30159.31
1016.505, 30354.88
1017.614, 30492.58
1018.723, 30367.32
1019.831, 30699.28
1020.940, 30833.56
1022.048, 30764.66
1023.156, 30848.00
1024.264, 31107.00
1025.372, 31114.00
1026.479, 31238.00
1027.587, 31316.00
1028.694, 31278.00
1029.801, 31374.00
1030.908, 31771.00
1032.015, 31725.00
1033.121, 31617.00
1034.228, 31872.00
1035.334, 31677.00
1036.440, 31772.00
1037.546, 32114.00
1038.652, 32138.00
1039.758, 32140.00
1040.863, 32120.00
1041.968, 32276.00
1043.074, 32381.00
1044.178, 32387.00
1045.283, 32698.00
1046.388, 32985.00
1047.492, 33104.00
1048.597, 33128.00
1049.701, 33387.00
1050.805, 33407.00
1051.909, 33763.00
1053.012, 33938.00
1054.116, 34368.00
1055.219, 34744.00
1056.322, 34830.00
1057.425, 35316.00
1058.528, 35730.00
1059.631, 36318.00
1060.733, 36604.98
1061.836, 36788.00
1062.938, 37186.00
1064.040, 37528.00
1065.142, 37732.00
1066.243, 38258.00
1067.345, 38569.32
1068.446, 38986.00
1069.547, 39403.00
1070.648, 39740.00
1071.749, 40232.00
1072.850, 40652.00
1073.951, 40936.00
1075.051, 41161.00
1076.151, 41479.00
1077.251, 41481.00
1078.351, 41787.00
1079.451, 42360.00
1080.550, 42154.00
1081.650, 42435.00
1082.749, 42916.00
1083.848, 43106.00
1084.947, 43052.00
1086.046, 43167.00
1087.144, 43334.00
1088.243, 43261.46
1089.341, 43492.96
1090.439, 43640.71
1091.537, 43708.43
1092.635, 43499.48
1093.732, 43614.82
1094.830, 43580.08
1095.927, 43525.41
1097.024, 43645.35
1098.121, 43402.73
1099.218, 43490.97
1100.314, 43427.12
1101.411, 43368.00
1102.507, 43354.00
1103.603, 43201.69
1104.699, 42876.00
1105.795, 42845.00
1106.890, 42528.00
1107.986, 42295.00
1109.081, 42135.00
1110.176, 41907.00
1111.271, 41711.07
1112.366, 41630.00
1113.461, 41323.00
1114.555, 41216.00
1115.649, 41061.00
1116.744, 40808.00
1117.838, 40761.00
1118.931, 40394.77
1120.025, 40272.10
1121.119, 40080.05
1122.212, 39822.61
1123.305, 39302.87
1124.398, 39121.86
1125.491, 38805.07
1126.584, 38482.73
1127.676, 38349.60
1128.768, 37868.29
1129.861, 37731.91
1130.953, 37457.98
1132.044, 37247.40
1133.136, 36899.97
1134.228, 36594.72
1135.319, 36266.00
1136.410, 36000.00
1137.501, 35668.00
1138.592, 35326.00
1139.683, 35187.00
1140.773, 34577.00
1141.864, 34212.00
1142.954, 34142.00
1144.044, 33815.00
1145.134, 33661.00
1146.224, 33299.00
1147.313, 32885.00
1148.402, 32832.00
1149.492, 32678.00
1150.581, 32159.00
1151.670, 31956.11
1152.758, 31823.00
1153.847, 31322.00
1154.935, 31121.00
1156.024, 31079.00
1157.112, 30360.00
1158.200, 30442.00
1159.287, 30038.00
1160.375, 29721.00
1161.462, 29592.00
1162.550, 29243.00
1163.637, 29055.00
1164.724, 28633.00
1165.810, 28569.00
1166.897, 28366.00
1167.983, 28070.00
1169.070, 27924.00
1170.156, 27682.00
1171.242, 27675.00
1172.327, 27411.00
1173.413, 27005.00
1174.499, 27123.00
1175.584, 26979.00
1176.669, 26653.00
1177.754, 26589.00
1178.839, 26303.00
1179.923, 26140.00
1181.008, 26079.00
1182.092, 25926.00
1183.176, 25891.00
1184.260, 25736.28
1185.344, 25403.00
1186.428, 25365.00
1187.511, 25138.00
1188.595, 24758.00
1189.678, 25025.00
1190.761, 24952.00
1191.843, 24711.00
1192.926, 24692.00
1194.009, 24530.00
1195.091, 24364.00
1196.173, 24138.00
1197.255, 24027.00
1198.337, 24133.00
1199.419, 23934.16
1200.500, 23882.00
1201.582, 23805.00
1202.663, 23667.00
1203.744, 23713.00
1204.825, 23808.00
1205.905, 23333.00
1206.986, 23606.00
1208.066, 23434.00
1209.146, 23428.00
1210.226, 23427.00
1211.306, 23437.00
1212.386, 23278.00
1213.466, 23462.00
1214.545, 23309.24
1215.624, 23368.00
1216.703, 23232.00
1217.782, 23039.00
1218.861, 23174.00
1219.939, 22912.00
1221.018, 23249.00
1222.096, 23177.00
1223.174, 23025.00
1224.252, 23193.00
1225.330, 23104.00
1226.407, 22924.00
1227.485, 23013.00
1228.562, 23083.00
1229.639, 23270.00
1230.716, 23194.98
1231.793, 23017.00
1232.869, 23075.00
1233.946, 23177.00
1235.022, 22984.14
1236.098, 23187.40
1237.174, 23300.46
1238.250, 23328.18
1239.325, 23014.93
1240.401, 23141.96
1241.476, 23092.56
1242.551, 23035.91
1243.626, 23224.93
1244.701, 22961.27
1245.776, 23146.39
1246.850, 23152.36
1247.924, 22952.00
1248.999, 22767.00
