##NAMES=Chabazite-Ca
##RRUFFID=R050014
##IDEAL CHEMISTRY=Ca_2_Al_4_Si_8_O_24_&#183;13H_2_O
##LOCALITY=Tablo Mountain, Baja California, Mexico
##OWNER=RRUFF
##SOURCE=University of Arizona Mineral Museum
##DESCRIPTION=Light tan colored rhombohedral single crystals
##STATUS=The identification of this mineral has been confirmed by X-ray diffraction and chemical analysis
##URL=rruff.info/R050014
##MEASURED CHEMISTRY=(Ca_0.72_Mg_0.11_K_0.09_Sr_0.06_Na_0.01_)_Σ=1_(Si_4.12_Al_1.88_)O_12_·6H_2_O
##PIN_ID=M00165
##ORIENTATION=Laser parallel to (-1 -1 -1). Fiducial mark perpendicular to laser is parallel to [-1 1 0]
105.8150, 37327.00
107.0470, 38456.00
108.2800, 38638.03
109.5120, 39138.00
110.7440, 39153.00
111.9760, 39107.00
113.2080, 39266.00
114.4400, 39861.00
115.6710, 40285.00
116.9030, 40391.25
118.1340, 40469.00
119.3650, 40602.00
120.5960, 40574.00
121.8270, 40576.00
123.0580, 40733.00
124.2880, 40743.00
125.5190, 40904.00
126.7490, 41077.00
127.9790, 41280.00
129.2090, 41616.00
130.4390, 41310.00
131.6680, 41710.00
132.8980, 41457.00
134.1270, 41524.00
135.3560, 41823.00
136.5850, 41748.00
137.8140, 41939.00
139.0430, 41975.00
140.2710, 42283.00
141.5000, 42175.00
142.7280, 41985.00
143.9560, 41810.00
145.1840, 41454.00
146.4120, 41200.00
147.6390, 40011.00
148.8670, 39032.00
150.0940, 38531.00
151.3210, 38163.00
152.5490, 37686.00
153.7750, 37104.00
155.0020, 36835.00
156.2290, 36475.00
157.4550, 36257.00
158.6810, 35868.00
159.9080, 35750.00
161.1340, 35563.00
162.3590, 35529.00
163.5850, 35084.00
164.8110, 35171.00
166.0360, 34896.00
167.2610, 34893.00
168.4860, 34706.00
169.7110, 34610.00
170.9360, 34372.00
172.1610, 34333.00
173.3850, 34079.00
174.6100, 33871.00
175.8340, 33643.00
177.0580, 33550.00
178.2820, 33501.00
179.5050, 33243.00
180.7290, 33126.00
181.9520, 32617.00
183.1760, 32493.00
184.3990, 32444.00
185.6220, 32210.00
186.8450, 32213.00
188.0670, 31620.00
189.2900, 31636.00
190.5120, 31248.00
191.7340, 31095.00
192.9560, 30917.00
194.1780, 30483.00
195.4000, 30341.00
196.6220, 29902.00
197.8430, 29492.00
199.0640, 29672.00
200.2860, 29302.00
201.5070, 29195.00
202.7270, 28971.00
203.9480, 28583.00
205.1690, 28273.00
206.3890, 27804.00
207.6090, 27590.00
208.8290, 27311.00
210.0490, 27282.00
211.2690, 27120.00
212.4890, 27085.00
213.7080, 26708.00
214.9280, 26678.00
216.1470, 26421.00
217.3660, 26298.00
218.5850, 26195.00
219.8030, 26012.00
221.0220, 26040.00
222.2400, 25608.00
223.4590, 25753.00
224.6770, 25562.00
225.8950, 25505.00
227.1120, 25214.00
228.3300, 25109.00
229.5480, 25020.00
230.7650, 25122.00
231.9820, 25110.00
233.1990, 25230.00
234.4160, 24906.00
235.6330, 24893.00
236.8490, 24785.00
238.0660, 24976.00
239.2820, 24794.00
240.4980, 24724.00
241.7140, 24936.00
242.9300, 24644.00
244.1460, 24675.00
245.3610, 24797.00
246.5770, 24759.00
247.7920, 24869.00
249.0070, 24772.00
250.2220, 24864.00
251.4370, 24860.00
252.6510, 24789.00
253.8660, 24651.00
255.0800, 24996.00
256.2940, 24850.00
257.5080, 24948.00
258.7220, 24935.35
259.9360, 25113.00
261.1490, 24901.00
262.3630, 24685.00
263.5760, 24878.00
264.7890, 24902.00
266.0020, 24990.00
267.2150, 24899.00
268.4270, 24755.00
269.6400, 24905.00
270.8520, 24847.81
272.0640, 25016.00
273.2760, 25011.00
274.4880, 25073.00
275.7000, 25128.09
276.9120, 25164.23
278.1230, 25205.00
279.3340, 25239.00
280.5450, 25315.00
281.7560, 25289.00
282.9670, 25297.00
284.1780, 25444.00
285.3880, 25538.00
286.5980, 25661.00
287.8090, 25844.00
289.0190, 25914.00
290.2290, 25749.00
291.4380, 25916.00
292.6480, 25923.00
293.8570, 26196.00
295.0670, 26184.00
296.2760, 26535.00
297.4850, 26595.00
298.6930, 26692.00
299.9020, 26824.00
301.1110, 26983.00
302.3190, 27117.00
303.5270, 26953.00
304.7350, 27456.00
305.9430, 27325.00
307.1510, 27748.00
308.3580, 27897.00
309.5660, 28220.00
310.7730, 28245.00
311.9800, 28651.00
313.1870, 28846.00
314.3940, 29139.00
315.6010, 29229.00
316.8070, 29654.00
318.0130, 29735.00
319.2200, 29862.00
320.4260, 30025.00
321.6310, 30123.01
322.8370, 30303.00
324.0430, 30463.00
325.2480, 30524.00
326.4540, 30605.63
327.6590, 30698.00
328.8640, 30637.00
330.0680, 30641.00
331.2730, 30600.00
332.4780, 30319.00
333.6820, 30331.00
334.8860, 30142.00
336.0900, 29790.00
337.2940, 29668.00
338.4980, 29253.00
339.7010, 29297.00
340.9050, 29026.00
342.1080, 28689.00
343.3110, 28610.00
344.5140, 28316.00
345.7170, 27975.00
346.9200, 27793.00
348.1220, 27707.00
349.3240, 27461.00
350.5270, 27364.14
351.7290, 27248.00
352.9310, 27133.00
354.1320, 26929.00
355.3340, 26849.00
356.5350, 26830.00
357.7370, 26588.00
358.9380, 26650.00
360.1390, 26538.00
361.3400, 26479.00
362.5400, 26337.00
363.7410, 26506.00
364.9410, 26338.00
366.1410, 26208.00
367.3410, 26222.00
368.5410, 26053.00
369.7410, 26047.00
370.9400, 26055.00
372.1400, 25888.00
373.3390, 26122.00
374.5380, 26146.00
375.7370, 26091.00
376.9360, 25968.00
378.1350, 26012.00
379.3330, 26114.00
380.5310, 25851.00
381.7300, 26092.00
382.9280, 26074.00
384.1260, 25970.00
385.3230, 25977.00
386.5210, 26259.00
387.7180, 26261.00
388.9160, 26208.00
390.1130, 26227.00
391.3100, 26186.00
392.5060, 26277.00
393.7030, 26337.00
394.9000, 26446.00
396.0960, 26414.00
397.2920, 26454.00
398.4880, 26685.00
399.6840, 26667.00
400.8800, 26540.00
402.0750, 26587.00
403.2710, 26790.00
404.4660, 26885.00
405.6610, 26936.00
406.8560, 27045.00
408.0510, 27117.00
409.2450, 27502.00
410.4400, 27576.00
411.6340, 27938.00
412.8280, 28041.00
414.0220, 28443.00
415.2160, 28880.00
416.4100, 28757.00
417.6030, 29181.00
418.7970, 29611.00
419.9900, 30101.00
421.1830, 30433.00
422.3760, 30622.00
423.5690, 31223.00
424.7610, 31683.35
425.9540, 32338.00
427.1460, 32925.00
428.3380, 33671.49
429.5300, 34569.00
430.7220, 35348.00
431.9140, 36215.00
433.1050, 37232.00
434.2970, 38295.00
435.4880, 39270.53
436.6790, 40315.00
437.8700, 41407.00
439.0610, 42567.00
440.2510, 43778.00
441.4420, 44986.00
442.6320, 46505.00
443.8220, 47765.00
445.0120, 48828.00
446.2020, 50175.00
447.3910, 51305.00
448.5810, 52533.00
449.7700, 53627.00
450.9600, 54415.27
452.1490, 55018.00
453.3370, 55792.00
454.5260, 56078.00
455.7150, 56613.00
456.9030, 56446.00
458.0910, 56744.00
459.2800, 56494.00
460.4670, 56686.00
461.6550, 56490.00
462.8430, 56134.00
464.0300, 55643.00
465.2180, 55760.00
466.4050, 55517.55
467.5920, 55471.00
468.7790, 55570.00
469.9650, 55833.00
471.1520, 56129.00
472.3380, 56353.19
473.5250, 56699.00
474.7110, 56882.00
475.8970, 57356.00
477.0820, 57543.00
478.2680, 57388.00
479.4540, 56852.00
480.6390, 56192.00
481.8240, 55476.03
483.0090, 54524.36
484.1940, 53496.00
485.3780, 52274.00
486.5630, 50922.00
487.7470, 49452.00
488.9320, 48248.00
490.1160, 46667.00
491.3000, 45284.19
492.4830, 43616.00
493.6670, 42378.00
494.8500, 41070.00
496.0340, 39643.00
497.2170, 38767.00
498.4000, 37720.00
499.5820, 36712.00
500.7650, 35633.00
501.9480, 35023.00
503.1300, 34216.00
504.3120, 33223.00
505.4940, 33083.00
506.6760, 32229.00
507.8580, 31975.00
509.0390, 31385.00
510.2210, 30817.00
511.4020, 30536.00
512.5830, 30126.00
513.7640, 29612.00
514.9450, 29361.00
516.1250, 29152.00
517.3060, 28887.00
518.4860, 28675.27
519.6660, 28433.00
520.8460, 28230.00
522.0260, 28060.00
523.2060, 27825.00
524.3850, 27692.97
525.5650, 27630.00
526.7440, 27437.00
527.9230, 27349.00
529.1020, 27278.00
530.2810, 27183.00
531.4590, 27194.00
532.6380, 26920.00
533.8160, 27204.00
534.9940, 26839.00
536.1720, 26721.00
537.3500, 26947.00
538.5270, 26895.00
539.7050, 26760.00
540.8820, 26690.00
542.0590, 26651.00
543.2360, 26600.00
544.4130, 26606.14
545.5900, 26654.00
546.7660, 26658.00
547.9430, 26546.00
549.1190, 26596.00
550.2950, 26379.00
551.4710, 26554.00
552.6470, 26578.00
553.8220, 26445.00
554.9980, 26435.00
556.1730, 26646.00
557.3480, 26702.00
558.5230, 26515.00
559.6980, 26643.00
560.8730, 26397.00
562.0470, 26421.00
563.2220, 26489.00
564.3960, 26715.00
565.5700, 26517.00
566.7440, 26680.00
567.9170, 26610.00
569.0910, 26628.00
570.2640, 26591.00
571.4380, 26651.20
572.6110, 26982.00
573.7840, 26769.07
574.9570, 26790.38
576.1290, 26778.00
577.3020, 26635.00
578.4740, 26631.00
579.6460, 26618.00
580.8180, 26647.00
581.9900, 26517.00
583.1620, 26762.00
584.3330, 26712.00
585.5040, 26552.00
586.6760, 26850.00
587.8470, 26593.00
589.0180, 26509.00
590.1880, 26552.00
591.3590, 26396.00
592.5290, 26569.00
593.7000, 26529.00
594.8700, 26490.00
596.0400, 26413.00
597.2090, 26464.00
598.3790, 26615.00
599.5490, 26496.00
600.7180, 26549.00
601.8870, 26705.00
603.0560, 26550.00
604.2250, 26505.00
605.3940, 26656.00
606.5620, 26571.57
607.7300, 26709.00
608.8990, 26541.00
610.0670, 26590.00
611.2350, 26427.00
612.4020, 26697.00
613.5700, 26562.00
614.7370, 26452.00
615.9050, 26697.00
617.0720, 26654.00
618.2390, 26793.00
619.4060, 26808.00
620.5720, 26827.00
621.7390, 26993.00
622.9050, 27107.00
624.0710, 26830.00
625.2370, 26941.00
626.4030, 26967.00
627.5690, 26874.00
628.7340, 27137.00
629.9000, 26792.00
631.0650, 27010.00
632.2300, 27316.00
633.3950, 27475.00
634.5600, 27417.00
635.7240, 27182.00
636.8890, 27249.00
638.0530, 27225.00
639.2170, 27450.00
640.3810, 27407.00
641.5450, 27362.00
642.7080, 27373.00
643.8720, 27389.00
645.0350, 27471.00
646.1980, 27115.00
647.3610, 27380.00
648.5240, 27215.00
649.6870, 27237.00
650.8490, 27415.00
652.0120, 27310.00
653.1740, 27279.00
654.3360, 27455.00
655.4980, 27525.00
656.6600, 27300.00
657.8210, 27308.00
658.9830, 27268.00
660.1440, 27337.00
661.3050, 27332.00
662.4660, 27096.00
663.6270, 27267.00
664.7870, 27156.44
665.9480, 27426.00
667.1080, 27213.00
668.2680, 27220.00
669.4280, 27462.00
670.5880, 27386.00
671.7480, 27427.00
672.9070, 27354.00
674.0670, 27283.00
675.2260, 27378.00
676.3850, 27569.00
677.5440, 27505.00
678.7030, 27415.00
679.8610, 27702.00
681.0200, 27684.00
682.1780, 27462.00
683.3360, 27458.00
684.4940, 27585.00
685.6520, 27587.00
686.8090, 27608.00
687.9670, 27586.00
689.1240, 27709.00
690.2810, 27635.00
691.4380, 27763.00
692.5950, 27728.00
693.7520, 27775.00
694.9080, 27887.00
696.0650, 27813.78
697.2210, 27885.00
698.3770, 27800.00
699.5330, 27914.00
700.6880, 28049.00
701.8440, 28105.00
702.9990, 28087.00
704.1550, 28006.00
705.3100, 27947.00
706.4650, 28065.00
707.6190, 28110.00
708.7740, 28207.00
709.9290, 27976.00
711.0830, 28152.00
712.2370, 28271.00
713.3910, 28197.00
714.5450, 28355.00
715.6980, 28205.00
716.8520, 28266.00
718.0050, 28335.00
719.1580, 28443.00
720.3110, 28359.00
721.4640, 28286.00
722.6170, 28460.00
723.7700, 28478.00
724.9220, 28364.00
726.0740, 28352.00
727.2260, 28459.00
728.3780, 28471.00
729.5300, 28589.00
730.6810, 28507.00
731.8330, 28622.00
732.9840, 28537.84
734.1350, 28738.00
735.2860, 28463.00
736.4370, 28430.00
737.5880, 28571.00
738.7380, 28646.00
739.8880, 28846.00
741.0390, 28958.00
742.1890, 29011.23
743.3380, 28864.00
744.4880, 29130.00
745.6380, 29005.00
746.7870, 29117.00
747.9360, 29192.00
749.0850, 29268.00
750.2340, 29281.00
751.3830, 29330.00
752.5310, 29117.00
753.6800, 29255.00
754.8280, 29241.00
755.9760, 29714.00
757.1240, 29486.00
758.2720, 29641.00
759.4190, 29536.00
760.5670, 29340.00
761.7140, 29587.00
762.8610, 29491.00
764.0080, 29664.00
765.1550, 29685.00
766.3020, 29570.00
767.4480, 29639.00
768.5950, 29486.00
769.7410, 29779.00
770.8870, 29568.00
772.0330, 29554.00
773.1780, 29939.00
774.3240, 29518.00
775.4690, 29632.00
776.6140, 29716.00
777.7590, 29892.00
778.9040, 29411.00
780.0490, 29803.00
781.1940, 29545.00
782.3380, 29649.00
783.4820, 29455.00
784.6260, 29694.00
785.7700, 29425.00
786.9140, 29131.00
788.0580, 29469.00
789.2010, 29239.00
790.3450, 29399.00
791.4880, 29124.00
792.6310, 28923.00
793.7730, 29037.00
794.9160, 29273.00
796.0590, 28838.00
797.2010, 29061.00
798.3430, 28862.00
799.4850, 28814.00
800.6270, 28833.00
801.7690, 28841.00
802.9100, 28806.00
804.0520, 28809.01
805.1930, 28767.00
806.3340, 28765.00
807.4750, 28779.00
808.6160, 28739.00
809.7560, 28874.00
810.8970, 28556.00
812.0370, 28829.00
813.1770, 28730.00
814.3170, 28571.00
815.4570, 28776.00
816.5960, 28660.00
817.7360, 28709.48
818.8750, 28746.00
820.0140, 28734.00
821.1530, 28786.01
822.2920, 28883.00
823.4310, 28798.00
824.5690, 28831.00
825.7070, 28727.00
826.8460, 28893.00
827.9840, 29016.00
829.1220, 29004.00
830.2590, 29062.00
831.3970, 29095.00
832.5340, 29063.00
833.6710, 29187.00
834.8080, 29042.00
835.9450, 29160.00
837.0820, 29072.00
838.2190, 28984.00
839.3550, 28958.00
840.4910, 29004.79
841.6270, 29294.00
842.7630, 29166.00
843.8990, 29157.00
845.0350, 29203.00
846.1700, 29005.00
847.3060, 29385.00
848.4410, 29185.00
849.5760, 29401.00
850.7100, 29320.00
851.8450, 29327.00
852.9800, 29360.00
854.1140, 29491.00
855.2480, 29504.00
856.3820, 29483.00
857.5160, 29618.00
858.6500, 29660.00
859.7830, 29657.00
860.9170, 29723.43
862.0500, 29686.00
863.1830, 29783.00
864.3160, 29655.00
865.4480, 29706.00
866.5810, 29718.00
867.7130, 29908.00
868.8460, 29635.00
869.9780, 29642.00
871.1100, 29734.00
872.2410, 29913.00
873.3730, 29949.00
874.5050, 29917.00
875.6360, 29985.00
876.7670, 30011.00
877.8980, 29700.00
879.0290, 29839.00
880.1590, 29956.00
881.2900, 29941.00
882.4200, 30174.00
883.5500, 30124.00
884.6800, 29831.00
885.8100, 30145.00
886.9400, 30048.00
888.0690, 30215.00
889.1990, 30204.00
890.3280, 30205.00
891.4570, 30141.00
892.5860, 30193.28
893.7140, 30353.00
894.8430, 30290.00
895.9710, 30310.00
897.1000, 30398.00
898.2280, 30368.13
899.3560, 30368.34
900.4830, 30448.00
901.6110, 30481.49
902.7380, 30494.00
903.8660, 30630.00
904.9930, 30740.00
906.1200, 30804.64
907.2460, 30867.99
908.3730, 30892.00
909.5000, 30885.00
910.6260, 30907.00
911.7520, 30814.00
912.8780, 30817.00
914.0040, 30679.00
915.1290, 30968.00
916.2550, 30812.00
917.3800, 30920.00
918.5050, 30951.00
919.6300, 30828.00
920.7550, 30981.35
921.8800, 31112.00
923.0040, 31105.00
924.1290, 31141.00
925.2530, 31094.21
926.3770, 31159.00
927.5010, 31179.00
928.6250, 31403.00
929.7480, 31513.00
930.8720, 31527.00
931.9950, 31603.71
933.1180, 31642.76
934.2410, 31586.00
935.3640, 31731.00
936.4860, 31700.85
937.6090, 31785.43
938.7310, 31634.00
939.8530, 31672.00
940.9750, 31779.00
942.0970, 31482.00
943.2180, 31834.00
944.3400, 31623.00
945.4610, 32091.00
946.5820, 31980.00
947.7030, 32045.00
948.8240, 32266.00
949.9450, 32032.00
951.0650, 32484.00
952.1860, 32256.00
953.3060, 32527.00
954.4260, 32298.00
955.5460, 32544.00
956.6650, 32506.00
957.7850, 32620.00
958.9040, 32572.00
960.0230, 32825.00
961.1420, 32775.00
962.2610, 32912.00
963.3800, 32829.00
964.4990, 32931.00
965.6170, 33106.00
966.7350, 32956.00
967.8530, 33151.00
968.9710, 33360.00
970.0890, 33357.00
971.2070, 33342.00
972.3240, 33520.00
973.4410, 33549.00
974.5580, 33507.00
975.6750, 33476.00
976.7920, 33656.00
977.9090, 33548.00
979.0250, 33763.00
980.1410, 33733.00
981.2580, 33826.00
982.3740, 34210.00
983.4890, 34188.00
984.6050, 34260.00
985.7200, 34160.00
986.8360, 34381.00
987.9510, 34485.00
989.0660, 34506.00
990.1810, 34480.00
991.2950, 34557.19
992.4100, 34489.00
993.5240, 34642.00
994.6390, 34730.00
995.7530, 34790.00
996.8660, 34949.00
997.9800, 34941.00
999.0940, 35011.00
1000.207, 35126.34
1001.320, 35278.00
1002.433, 35260.00
1003.546, 35399.80
1004.659, 35491.13
1005.772, 35531.00
1006.884, 35616.00
1007.996, 35587.00
1009.108, 35447.00
1010.220, 35547.00
1011.332, 35668.00
1012.444, 35495.00
1013.555, 35702.00
1014.666, 35727.00
1015.777, 35875.00
1016.888, 36000.00
1017.999, 35836.00
1019.110, 36079.00
1020.220, 36021.00
1021.331, 36136.00
1022.441, 36186.00
1023.551, 36214.00
1024.661, 36255.00
1025.770, 36015.00
1026.880, 36369.00
1027.989, 36354.00
1029.098, 36699.00
1030.207, 36441.00
1031.316, 36472.00
1032.425, 36485.00
1033.533, 36447.07
1034.642, 36785.00
1035.750, 36597.00
1036.858, 36655.00
1037.966, 36868.00
1039.073, 36774.00
1040.181, 36821.00
1041.288, 37065.00
1042.396, 37129.00
1043.503, 37173.00
1044.610, 37273.00
1045.716, 37135.00
1046.823, 37216.00
1047.929, 37423.00
1049.036, 37708.00
1050.142, 37916.00
1051.248, 37928.00
1052.353, 37901.00
1053.459, 38180.00
1054.564, 38274.00
1055.670, 38209.00
1056.775, 38495.00
1057.880, 38416.00
1058.985, 38560.00
1060.089, 38657.00
1061.194, 38412.00
1062.298, 39063.00
1063.402, 39145.00
1064.506, 39302.00
1065.610, 39172.00
1066.713, 39348.00
1067.817, 39361.00
1068.920, 39457.00
1070.023, 39259.00
1071.126, 39428.00
1072.229, 39184.00
1073.332, 39475.00
1074.435, 39686.00
1075.537, 39489.00
1076.639, 39626.00
1077.741, 39619.00
1078.843, 39830.00
1079.945, 39816.00
1081.046, 39669.00
1082.148, 40146.00
1083.249, 40077.00
1084.350, 40003.00
1085.451, 40418.00
1086.551, 40389.00
1087.652, 40299.00
1088.752, 40275.00
1089.853, 40173.00
1090.953, 40277.00
1092.053, 40179.10
1093.152, 39977.00
1094.252, 40061.00
1095.351, 40003.00
1096.451, 39892.00
1097.550, 39963.00
1098.649, 39903.00
1099.748, 40034.00
1100.846, 40159.00
1101.945, 39975.00
1103.043, 39968.00
1104.141, 39869.00
1105.239, 39815.90
1106.337, 39772.00
1107.434, 39767.00
1108.532, 39777.00
1109.629, 39797.00
1110.726, 39788.00
1111.823, 39791.00
1112.920, 39865.00
1114.017, 40039.00
1115.113, 40035.28
1116.210, 40105.82
1117.306, 40067.00
1118.402, 40115.00
1119.498, 39997.00
1120.593, 39902.00
1121.689, 39696.00
1122.784, 39970.00
1123.879, 39655.00
1124.974, 39634.00
1126.069, 40015.00
1127.164, 39410.00
1128.259, 39689.00
1129.353, 39462.00
1130.447, 39849.00
1131.541, 39284.00
1132.635, 39532.00
1133.729, 39362.00
1134.822, 39351.00
1135.916, 39287.00
1137.009, 39122.00
1138.102, 39186.00
1139.195, 39110.00
1140.288, 39247.00
1141.380, 39503.00
1142.473, 39246.00
1143.565, 38850.00
1144.657, 39045.00
1145.749, 38966.00
1146.841, 39190.00
1147.932, 38979.00
1149.024, 38950.00
1150.115, 38767.00
1151.206, 38884.00
1152.297, 38807.00
1153.388, 38843.00
1154.479, 38775.00
1155.569, 38613.00
1156.659, 38533.00
1157.750, 38648.00
1158.839, 38632.37
1159.929, 38739.00
1161.019, 38769.00
1162.108, 38627.00
1163.198, 38574.00
1164.287, 38398.00
1165.376, 38583.00
1166.465, 38255.00
1167.553, 38307.00
1168.642, 38445.00
1169.730, 38145.00
1170.818, 38306.00
1171.906, 38330.00
1172.994, 38386.00
1174.082, 38429.00
1175.170, 38585.00
1176.257, 38499.00
1177.344, 38305.00
1178.431, 38245.00
1179.518, 38420.00
1180.605, 38145.00
1181.691, 38264.00
1182.778, 38178.00
1183.864, 38240.00
1184.950, 38207.00
1186.036, 38419.00
1187.122, 38150.00
1188.207, 38324.00
1189.292, 38173.00
1190.378, 38156.00
1191.463, 38501.00
1192.548, 38352.00
1193.632, 38322.00
1194.717, 38417.00
1195.801, 38299.02
1196.886, 38316.00
1197.970, 38291.00
1199.054, 38298.00
1200.137, 38466.00
1201.221, 38239.00
1202.305, 38267.00
1203.388, 38575.00
1204.471, 38402.00
1205.554, 38255.00
1206.637, 38658.00
1207.719, 38237.00
1208.802, 38585.00
1209.884, 38415.00
1210.966, 38484.00
1212.048, 38631.00
1213.130, 38798.00
1214.212, 38996.00
1215.293, 38885.00
1216.374, 38762.00
1217.456, 38814.00
1218.536, 38873.00
1219.617, 38865.00
1220.698, 38872.26
1221.778, 38832.00
1222.859, 38928.00
1223.939, 38820.00
1225.019, 38866.14
1226.099, 38967.00
1227.178, 38896.00
1228.258, 38917.00
1229.337, 38955.04
1230.417, 38996.00
1231.496, 39071.00
1232.574, 39221.00
1233.653, 39143.00
1234.732, 39116.00
1235.810, 39374.00
1236.888, 39332.00
1237.966, 39426.00
1239.044, 39172.00
1240.122, 39224.00
1241.199, 39212.00
1242.277, 39421.00
1243.354, 39428.00
1244.431, 39342.00
1245.508, 39611.00
1246.585, 39659.00
1247.661, 39649.00
1248.738, 39647.00
1249.814, 39532.00
1250.890, 39538.00
1251.966, 39658.00
1253.042, 39525.00
1254.117, 39540.00
1255.193, 39606.00
1256.268, 39571.63
1257.343, 39687.00
1258.418, 39676.00
1259.493, 39734.00
1260.567, 39894.00
1261.642, 39966.00
1262.716, 40034.00
1263.790, 40044.00
1264.864, 40012.00
1265.938, 39834.00
1267.011, 39866.00
1268.085, 39910.19
1269.158, 39672.00
1270.231, 40151.00
1271.304, 40182.00
1272.377, 40378.00
1273.450, 40320.00
1274.522, 40089.00
1275.594, 40458.00
1276.666, 40291.00
1277.738, 40128.00
1278.810, 40517.00
1279.882, 40449.00
1280.953, 40468.00
