##NAMES=Chabazite-Ca
##RRUFFID=R050075
##IDEAL CHEMISTRY=Ca_2_Al_4_Si_8_O_24_&#183;13H_2_O
##LOCALITY=Victoria, Australia
##OWNER=RRUFF
##SOURCE=Rock Currier
##DESCRIPTION=White pseudohexagonal crystals
##STATUS=The identification of this mineral has been confirmed by X-ray diffraction and chemical analysis
##URL=rruff.info/R050075
##MEASURED CHEMISTRY=(Ca_0.79_Na_0.22_K_0.14_)_Σ=1.15_(Si_4.08_Al_1.92_)O_12_·6H_2_O
##PIN_ID=M01326
##ORIENTATION=Laser parallel to (-1 1 0). Fiducial mark perpendicular to laser is parallel to [1 1 1]
65.41600, 67393.00
66.65000, 77683.00
67.88400, 88689.00
69.11700, 100747.0
70.35100, 112370.0
71.58400, 124143.0
72.81800, 135820.0
74.05100, 146883.0
75.28400, 157058.0
76.51700, 165808.0
77.74900, 174737.0
78.98200, 181390.0
80.21400, 187889.0
81.44700, 195286.0
82.67900, 199120.0
83.91100, 204239.0
85.14300, 208616.0
86.37400, 212071.0
87.60600, 214048.0
88.83700, 216509.0
90.06900, 218542.0
91.30000, 221151.0
92.53100, 223153.0
93.76200, 224682.0
94.99300, 226253.7
96.22300, 227001.0
97.45400, 228286.0
98.68400, 229440.0
99.91400, 229927.0
101.1440, 231697.0
102.3740, 232670.0
103.6040, 233100.0
104.8340, 233838.0
106.0630, 235241.0
107.2930, 237068.0
108.5220, 237482.0
109.7510, 239183.0
110.9800, 239155.0
112.2090, 239347.0
113.4370, 241142.0
114.6660, 242036.0
115.8940, 243453.0
117.1220, 244964.0
118.3510, 245968.2
119.5790, 247783.0
120.8060, 248133.0
122.0340, 248798.0
123.2620, 249501.0
124.4890, 249405.0
125.7160, 251027.0
126.9430, 251126.0
128.1700, 251223.0
129.3970, 251315.0
130.6240, 252200.0
131.8500, 251694.0
133.0770, 251808.0
134.3030, 251885.0
135.5290, 251061.0
136.7550, 249613.0
137.9810, 250037.0
139.2070, 247635.0
140.4320, 246533.0
141.6580, 245300.0
142.8830, 242297.0
144.1080, 240915.0
145.3330, 237091.0
146.5580, 235282.0
147.7830, 232950.0
149.0070, 229027.0
150.2320, 226135.0
151.4560, 222880.0
152.6800, 220113.0
153.9040, 217388.0
155.1280, 214339.0
156.3520, 211574.0
157.5760, 207748.0
158.7990, 204794.5
160.0220, 201388.0
161.2450, 198303.0
162.4680, 195258.0
163.6910, 192158.0
164.9140, 189109.0
166.1370, 186037.0
167.3590, 182495.0
168.5810, 179910.0
169.8040, 176721.0
171.0260, 174291.0
172.2480, 171329.0
173.4690, 168126.0
174.6910, 165253.9
175.9120, 162140.4
177.1340, 159008.0
178.3550, 156084.0
179.5760, 152996.0
180.7970, 150101.4
182.0180, 147569.0
183.2380, 144145.0
184.4590, 141555.0
185.6790, 138791.3
186.8990, 135798.6
188.1190, 133075.0
189.3390, 130385.0
190.5590, 127688.0
191.7780, 125191.2
192.9980, 122939.0
194.2170, 120295.0
195.4360, 117992.0
196.6550, 115623.9
197.8740, 113827.0
199.0930, 111353.0
200.3120, 109313.0
201.5300, 107591.0
202.7480, 105186.0
203.9670, 103490.0
205.1850, 102194.0
206.4020, 99862.00
207.6200, 98244.00
208.8380, 96906.00
210.0550, 95109.00
211.2730, 94063.00
212.4900, 93112.00
213.7070, 91123.00
214.9240, 89921.00
216.1400, 88653.00
217.3570, 87274.00
218.5730, 86354.00
219.7900, 85276.00
221.0060, 84061.00
222.2220, 83455.00
223.4380, 82607.00
224.6540, 81179.00
225.8690, 80345.00
227.0850, 79668.00
228.3000, 79044.00
229.5150, 78189.00
230.7300, 77607.00
231.9450, 77169.00
233.1600, 76912.00
234.3740, 75853.00
235.5890, 75368.00
236.8030, 74738.00
238.0170, 74588.00
239.2310, 74147.00
240.4450, 73710.00
241.6590, 73192.00
242.8720, 73430.00
244.0860, 72892.00
245.2990, 72316.00
246.5120, 72781.00
247.7250, 72202.00
248.9380, 72342.00
250.1510, 71891.00
251.3630, 71560.00
252.5750, 71890.00
253.7880, 71313.00
255.0000, 71218.00
256.2120, 71237.00
257.4240, 70922.00
258.6350, 71246.00
259.8470, 70733.00
261.0580, 70833.00
262.2690, 70936.00
263.4810, 70636.00
264.6920, 70411.00
265.9020, 70533.00
267.1130, 70426.00
268.3240, 70391.08
269.5340, 70683.00
270.7440, 70464.00
271.9540, 70492.00
273.1640, 70791.00
274.3740, 70968.00
275.5840, 70829.00
276.7930, 71181.00
278.0020, 71235.00
279.2120, 71326.00
280.4210, 71715.00
281.6300, 72139.00
282.8380, 72126.00
284.0470, 72520.00
285.2550, 72884.00
286.4640, 72891.00
287.6720, 73534.00
288.8800, 73382.00
290.0880, 73798.00
291.2960, 73992.00
292.5030, 74098.00
293.7110, 74146.00
294.9180, 74369.00
296.1250, 74423.00
297.3320, 74172.00
298.5390, 74914.00
299.7460, 74543.00
300.9520, 74938.00
302.1590, 74939.00
303.3650, 74939.00
304.5710, 75233.00
305.7770, 75391.00
306.9830, 75995.00
308.1890, 76065.00
309.3940, 76371.00
310.6000, 77077.00
311.8050, 77621.00
313.0100, 78327.62
314.2150, 79110.20
315.4200, 79917.00
316.6240, 80791.00
317.8290, 81656.00
319.0330, 82592.00
320.2370, 83509.38
321.4410, 84686.00
322.6450, 85415.30
323.8490, 86243.96
325.0530, 87211.00
326.2560, 87723.00
327.4600, 88502.00
328.6630, 89223.00
329.8660, 89721.00
331.0690, 89395.00
332.2710, 89556.00
333.4740, 89419.00
334.6760, 89678.00
335.8790, 88929.00
337.0810, 88183.00
338.2830, 87829.00
339.4850, 86338.00
340.6860, 85672.00
341.8880, 85268.00
343.0890, 83625.00
344.2910, 82465.00
345.4920, 81342.00
346.6930, 80709.00
347.8940, 79400.00
349.0940, 78312.00
350.2950, 77654.00
351.4950, 76734.00
352.6950, 75731.00
353.8950, 74807.00
355.0950, 74098.00
356.2950, 73446.00
357.4950, 72505.00
358.6940, 71718.00
359.8940, 70952.00
361.0930, 70237.00
362.2920, 69459.00
363.4910, 69628.00
364.6890, 69232.00
365.8880, 69077.00
367.0860, 68237.00
368.2850, 67694.00
369.4830, 67388.00
370.6810, 67000.00
371.8790, 66886.00
373.0760, 66388.00
374.2740, 66238.00
375.4710, 66168.00
376.6690, 66181.00
377.8660, 65964.00
379.0630, 65530.00
380.2590, 65703.00
381.4560, 65427.00
382.6530, 65668.00
383.8490, 65750.00
385.0450, 65852.00
386.2410, 65267.00
387.4370, 65919.00
388.6330, 65747.00
389.8280, 66206.00
391.0240, 66175.67
392.2190, 66374.00
393.4140, 66580.00
394.6090, 66393.00
395.8040, 66595.95
396.9990, 66728.51
398.1930, 66790.00
399.3880, 67148.00
400.5820, 67430.00
401.7760, 67748.00
402.9700, 68271.00
404.1640, 68524.98
405.3580, 68883.00
406.5510, 69276.00
407.7440, 69867.00
408.9380, 70443.00
410.1310, 70766.00
411.3240, 71581.00
412.5160, 72695.00
413.7090, 73306.09
414.9010, 74353.45
416.0940, 75188.00
417.2860, 76477.00
418.4780, 77801.00
419.6700, 79362.00
420.8610, 80358.00
422.0530, 81566.00
423.2440, 83589.00
424.4360, 85269.00
425.6270, 87672.00
426.8180, 89800.00
428.0080, 92558.00
429.1990, 95160.00
430.3890, 97781.00
431.5800, 100996.0
432.7700, 104533.0
433.9600, 108454.2
435.1500, 112711.0
436.3400, 117459.0
437.5290, 121977.9
438.7190, 126576.0
439.9080, 131996.0
441.0970, 137181.0
442.2860, 142918.0
443.4750, 148839.0
444.6640, 155058.0
445.8520, 161140.0
447.0400, 167089.0
448.2290, 173577.0
449.4170, 179756.0
450.6050, 185914.0
451.7920, 191927.0
452.9800, 197307.0
454.1670, 203137.0
455.3550, 208142.0
456.5420, 212656.0
457.7290, 216507.0
458.9160, 220890.0
460.1030, 225183.0
461.2890, 227972.0
462.4750, 232435.0
463.6620, 236725.0
464.8480, 239804.0
466.0340, 244093.0
467.2200, 249162.0
468.4050, 253262.0
469.5910, 258569.0
470.7760, 264361.0
471.9610, 270186.0
473.1460, 275292.0
474.3310, 281726.0
475.5160, 285590.0
476.7000, 289918.0
477.8850, 292904.0
479.0690, 295056.0
480.2530, 294160.0
481.4370, 292941.0
482.6210, 289389.0
483.8050, 284273.0
484.9880, 276428.0
486.1710, 267819.0
487.3550, 257560.0
488.5380, 246641.0
489.7210, 234576.0
490.9030, 223189.0
492.0860, 211506.0
493.2680, 199023.0
494.4510, 187881.0
495.6330, 177254.0
496.8150, 166823.0
497.9970, 156964.0
499.1780, 148117.0
500.3600, 139669.0
501.5410, 132330.0
502.7220, 124819.0
503.9030, 119145.0
505.0840, 112957.0
506.2650, 107619.0
507.4460, 102935.0
508.6260, 98560.00
509.8060, 94777.00
510.9870, 90457.00
512.1670, 87099.00
513.3460, 85015.00
514.5260, 81467.00
515.7060, 79368.00
516.8850, 76322.00
518.0640, 74885.00
519.2430, 73039.00
520.4220, 71174.00
521.6010, 69609.00
522.7790, 68106.68
523.9580, 66787.83
525.1360, 65625.00
526.3140, 64558.00
527.4920, 63816.00
528.6700, 62949.00
529.8480, 61791.00
531.0250, 61251.00
532.2030, 60362.00
533.3800, 59792.00
534.5570, 59285.00
535.7340, 58552.00
536.9110, 58161.00
538.0870, 57552.47
539.2640, 56894.00
540.4400, 56489.00
541.6160, 56147.00
542.7920, 55674.00
543.9680, 55617.00
545.1440, 55066.00
546.3190, 54582.00
547.4940, 54122.00
548.6700, 54045.00
549.8450, 53628.00
551.0200, 53087.00
552.1940, 53188.00
553.3690, 52656.00
554.5430, 52101.00
555.7180, 51989.00
556.8920, 51786.00
558.0660, 51919.00
559.2400, 51734.00
560.4130, 51342.00
561.5870, 51132.00
562.7600, 51221.00
563.9330, 50625.00
565.1060, 50536.00
566.2790, 50548.00
567.4520, 50670.00
568.6250, 50128.00
569.7970, 50300.00
570.9690, 49924.00
572.1410, 50330.00
573.3130, 50375.55
574.4850, 50394.46
575.6570, 50352.03
576.8280, 50251.65
578.0000, 49919.25
579.1710, 49886.43
580.3420, 49733.59
581.5130, 49575.83
582.6830, 49585.27
583.8540, 49286.70
585.0240, 49293.48
586.1940, 49178.42
587.3650, 49119.01
588.5340, 48939.06
589.7040, 48796.30
590.8740, 48774.33
592.0430, 48685.59
593.2130, 48491.63
594.3820, 48435.98
595.5510, 48080.00
596.7200, 47920.00
597.8880, 47978.00
599.0570, 47790.00
600.2250, 47603.00
601.3930, 47527.74
602.5610, 47383.85
603.7290, 47184.00
604.8970, 47305.00
606.0650, 47030.00
607.2320, 47221.00
608.3990, 46974.00
609.5670, 47189.00
610.7330, 46853.00
611.9000, 46760.00
613.0670, 46684.00
614.2330, 46323.00
615.4000, 46655.00
616.5660, 46450.00
617.7320, 46750.00
618.8980, 46086.00
620.0640, 46577.00
621.2290, 46531.00
622.3950, 46403.00
623.5600, 46516.00
624.7250, 46703.00
625.8900, 46819.00
627.0550, 46495.00
628.2190, 46647.00
629.3840, 46560.00
630.5480, 46603.00
631.7120, 46623.00
632.8760, 46372.00
634.0400, 46675.00
635.2040, 46335.00
636.3670, 46931.00
637.5300, 46744.00
638.6940, 46790.00
639.8570, 46571.00
641.0190, 46985.00
642.1820, 46831.00
643.3450, 46707.00
644.5070, 47192.00
645.6690, 47169.00
646.8320, 46972.00
647.9930, 47023.00
649.1550, 47402.00
650.3170, 47070.00
651.4780, 47427.00
652.6400, 47042.00
653.8010, 47114.00
654.9620, 47071.00
656.1230, 46779.00
657.2830, 46970.00
658.4440, 46607.00
659.6040, 46291.00
660.7640, 46374.00
661.9240, 46136.00
663.0840, 45997.00
664.2440, 45918.00
665.4040, 45687.64
666.5630, 45361.00
667.7220, 45392.00
668.8810, 45162.00
670.0400, 45177.00
671.1990, 45089.00
672.3580, 44450.00
673.5160, 44437.00
674.6750, 44326.13
675.8330, 44389.66
676.9910, 44399.60
678.1480, 44359.31
679.3060, 44094.81
680.4640, 44137.55
681.6210, 44068.07
682.7780, 44001.42
683.9350, 44109.60
685.0920, 43917.64
686.2490, 44038.68
687.4050, 44045.62
688.5620, 44116.07
689.7180, 44073.50
690.8740, 44075.96
692.0300, 44206.96
693.1860, 43995.00
694.3410, 44397.00
695.4970, 44321.00
696.6520, 44368.00
697.8070, 44371.00
698.9620, 44404.00
700.1170, 44545.00
701.2720, 44383.00
702.4260, 44423.00
703.5810, 44722.00
704.7350, 44459.00
705.8890, 44333.00
707.0430, 44604.00
708.1960, 44421.00
709.3500, 44480.00
710.5030, 44389.00
711.6570, 44184.00
712.8100, 44229.00
713.9630, 44206.00
715.1150, 43908.72
716.2680, 44111.00
717.4200, 43465.00
718.5730, 43189.00
719.7250, 43227.00
720.8770, 42950.00
722.0280, 42743.00
723.1800, 42541.00
724.3310, 42242.00
725.4830, 42276.00
726.6340, 41765.00
727.7850, 41487.00
728.9360, 41386.00
730.0860, 41300.00
731.2370, 41309.00
732.3870, 40859.00
733.5370, 40861.00
734.6880, 40626.00
735.8370, 40399.00
736.9870, 40149.00
738.1370, 40422.00
739.2860, 40171.00
740.4350, 39980.00
741.5840, 40009.00
742.7330, 39675.00
743.8820, 39330.00
745.0310, 39658.00
746.1790, 39581.00
747.3270, 39443.00
748.4750, 39492.00
749.6230, 39441.00
750.7710, 39455.00
751.9190, 39451.00
753.0660, 39218.00
754.2140, 39353.00
755.3610, 39402.00
756.5080, 39130.00
757.6540, 39226.00
758.8010, 39456.00
759.9480, 39267.00
761.0940, 39286.00
762.2400, 39369.00
763.3860, 39171.00
764.5320, 39409.00
765.6780, 39334.00
766.8230, 39677.00
767.9690, 39482.00
769.1140, 39363.00
770.2590, 39589.00
771.4040, 39618.00
772.5490, 39635.00
773.6930, 39624.00
774.8380, 39716.00
775.9820, 39971.00
777.1260, 40247.00
778.2700, 40254.00
779.4140, 40408.00
780.5570, 40990.00
781.7010, 40984.00
782.8440, 41713.00
783.9870, 42181.00
785.1300, 42422.00
786.2730, 42850.00
787.4150, 43343.00
788.5580, 43477.00
789.7000, 43952.00
790.8420, 43742.00
791.9840, 44176.00
793.1260, 44312.00
794.2680, 44208.00
795.4090, 44212.19
796.5510, 43880.00
797.6920, 43643.00
798.8330, 43208.00
799.9740, 42544.00
801.1150, 41786.00
802.2550, 41328.00
803.3950, 40909.00
804.5360, 40758.00
805.6760, 40118.00
806.8160, 39680.00
807.9550, 39068.00
809.0950, 38423.00
810.2340, 37847.00
811.3740, 37736.00
812.5130, 37341.00
813.6520, 36850.53
814.7900, 36524.00
815.9290, 36063.00
817.0670, 35654.00
818.2060, 35673.00
819.3440, 35341.00
820.4820, 35224.00
821.6190, 35089.00
822.7570, 34779.00
823.8950, 34504.00
825.0320, 34556.00
826.1690, 34192.00
827.3060, 34222.00
828.4430, 33981.00
829.5790, 33664.00
830.7160, 33828.00
831.8520, 33339.00
832.9880, 33533.00
834.1240, 33291.00
835.2600, 33261.00
836.3960, 33161.00
837.5310, 33129.00
838.6670, 33195.00
839.8020, 33007.00
840.9370, 32777.00
842.0720, 32976.00
843.2060, 32805.00
844.3410, 32681.00
845.4750, 32810.00
846.6100, 32665.00
847.7440, 32690.00
848.8770, 32732.00
850.0110, 32320.00
851.1450, 32458.00
852.2780, 32411.00
853.4110, 32485.00
854.5440, 32506.00
855.6770, 32411.00
856.8100, 32484.00
857.9430, 32420.00
859.0750, 32531.00
860.2070, 32475.00
861.3390, 32328.00
862.4710, 32453.00
863.6030, 32239.38
864.7350, 32400.83
865.8660, 32483.62
866.9970, 32491.05
868.1280, 32249.28
869.2590, 32289.68
870.3900, 32192.76
871.5210, 32073.63
872.6510, 32104.39
873.7820, 31809.88
874.9120, 32019.00
876.0420, 31967.00
877.1710, 31951.00
878.3010, 31732.00
879.4300, 31679.00
880.5600, 31910.00
881.6890, 31698.00
882.8180, 31740.00
883.9470, 31525.00
885.0750, 31711.00
886.2040, 31569.00
887.3320, 31366.00
888.4600, 31504.00
889.5880, 31711.00
890.7160, 31395.00
891.8440, 31500.00
892.9710, 31373.00
894.0990, 31526.00
895.2260, 31401.00
896.3530, 31621.00
897.4800, 31393.00
898.6060, 31446.21
899.7330, 31520.00
900.8590, 31475.00
901.9850, 31480.00
903.1110, 31638.00
904.2370, 31507.00
905.3630, 31410.00
906.4890, 31682.00
907.6140, 31572.00
908.7390, 31470.00
909.8640, 31539.00
910.9890, 31462.85
912.1140, 31593.00
913.2380, 31516.00
914.3630, 31580.00
915.4870, 31756.00
916.6110, 31882.00
917.7350, 31838.00
918.8580, 31731.00
919.9820, 31869.00
921.1050, 31689.00
922.2290, 31752.00
923.3520, 31835.00
924.4750, 31627.00
925.5970, 31569.00
926.7200, 31794.00
927.8420, 31795.00
928.9640, 31797.00
930.0870, 31910.00
931.2080, 31690.00
932.3300, 31969.00
933.4520, 32125.00
934.5730, 31970.00
935.6940, 31868.00
936.8150, 32033.00
937.9360, 32212.00
939.0570, 32247.00
940.1780, 32170.00
941.2980, 32294.00
942.4180, 32253.14
943.5380, 32509.00
944.6580, 32292.00
945.7780, 32457.71
946.8980, 32571.00
948.0170, 32555.00
949.1360, 32968.00
950.2560, 33097.00
951.3740, 33083.00
952.4930, 33202.00
953.6120, 33212.00
954.7300, 33382.18
955.8480, 33413.00
956.9670, 33732.00
958.0850, 33922.00
959.2020, 34073.00
960.3200, 34048.07
961.4370, 34340.32
962.5550, 34571.36
963.6720, 34744.21
964.7890, 34685.14
965.9050, 34925.42
967.0220, 35045.80
968.1380, 35161.14
969.2550, 35443.70
970.3710, 35418.23
971.4870, 35698.00
972.6030, 35855.93
973.7180, 36069.48
974.8340, 36162.42
975.9490, 36465.00
977.0640, 36446.00
978.1790, 36777.29
979.2940, 36753.00
980.4080, 37286.00
981.5230, 37588.00
982.6370, 37729.00
983.7510, 37924.00
984.8650, 38487.00
985.9790, 38563.00
987.0920, 38768.00
988.2060, 39341.00
989.3190, 39387.00
990.4320, 39778.00
991.5450, 39964.00
992.6580, 40150.00
993.7710, 40573.00
994.8830, 40677.00
995.9950, 40840.00
997.1080, 41358.00
998.2190, 41777.00
999.3310, 41802.00
1000.443, 42294.00
1001.554, 42476.00
1002.666, 42872.00
1003.777, 43156.62
1004.888, 43455.77
1005.998, 43693.43
1007.109, 43873.18
1008.219, 43820.87
1009.330, 44068.18
1010.440, 44195.33
1011.550, 44317.55
1012.660, 44606.87
1013.769, 44588.15
1014.879, 44874.82
1015.988, 45039.49
1017.097, 45259.93
1018.206, 45359.62
1019.315, 45496.60
1020.423, 45754.23
1021.532, 45945.12
1022.640, 46030.77
1023.748, 46254.61
1024.856, 46231.53
1025.964, 46425.13
1027.072, 46712.23
1028.179, 46803.79
1029.286, 46738.00
1030.393, 46960.00
1031.500, 47142.00
1032.607, 46997.00
1033.714, 47223.00
1034.820, 47170.00
1035.926, 47298.00
1037.032, 47080.00
1038.138, 47339.00
1039.244, 47360.00
1040.350, 47470.00
1041.455, 47746.00
1042.560, 47861.00
1043.665, 47777.04
1044.770, 47932.00
1045.875, 47771.00
1046.980, 47497.00
1048.084, 48042.00
1049.188, 47856.00
1050.292, 47992.00
1051.396, 48413.00
1052.500, 48237.00
1053.604, 48559.00
1054.707, 48909.00
1055.810, 49224.00
1056.913, 49334.00
1058.016, 49510.00
1059.119, 50323.00
1060.222, 50213.00
1061.324, 50614.00
1062.426, 51062.00
1063.528, 51253.00
1064.630, 51880.00
1065.732, 52074.00
1066.834, 52129.00
1067.935, 52950.00
1069.036, 52945.00
1070.137, 53513.00
1071.238, 53878.00
1072.339, 54504.00
1073.439, 54302.00
1074.540, 54954.00
1075.640, 55015.00
1076.740, 55376.00
1077.840, 55528.00
1078.940, 56103.00
1080.039, 56136.00
1081.138, 56778.00
1082.238, 56784.00
1083.337, 56927.00
1084.436, 57101.00
1085.534, 57698.00
1086.633, 57920.00
1087.731, 57850.00
1088.829, 57636.00
1089.927, 57963.00
1091.025, 58220.00
1092.123, 57898.00
1093.220, 58372.00
1094.318, 58314.00
1095.415, 58537.00
1096.512, 58338.00
1097.609, 58513.00
1098.705, 58396.00
1099.802, 58232.00
1100.898, 58206.00
1101.994, 57871.00
1103.090, 58024.00
1104.186, 57661.00
1105.282, 57745.00
1106.377, 57471.00
1107.473, 57572.00
1108.568, 57474.00
1109.663, 56599.01
1110.758, 56581.61
1111.852, 56495.38
1112.947, 56343.30
1114.041, 55951.81
1115.135, 55852.15
1116.229, 55624.84
1117.323, 55384.96
1118.417, 55304.53
1119.510, 54908.77
1120.603, 54810.62
1121.696, 54582.99
1122.789, 54403.54
1123.882, 54095.67
1124.975, 53817.47
1126.067, 53652.68
1127.159, 53413.39
1128.251, 53061.41
1129.343, 52839.98
1130.435, 52364.03
1131.527, 52097.17
1132.618, 51916.43
1133.709, 51532.75
1134.800, 51275.78
1135.891, 50960.07
1136.982, 50378.00
1138.073, 50278.00
1139.163, 49538.00
1140.253, 49486.00
1141.343, 48970.00
1142.433, 49021.00
1143.523, 48516.00
1144.612, 47799.00
1145.702, 47882.00
1146.791, 47043.00
1147.880, 47106.00
1148.969, 46506.00
1150.058, 46042.00
1151.146, 45950.00
1152.235, 45247.00
1153.323, 44915.00
1154.411, 44780.00
1155.499, 44542.00
1156.586, 43946.00
1157.674, 43866.00
1158.761, 43378.22
1159.848, 43394.00
1160.935, 42592.00
1162.022, 42167.00
1163.109, 41812.00
1164.195, 41640.00
1165.281, 41124.00
1166.368, 40846.00
1167.454, 40335.00
1168.539, 40200.00
1169.625, 39861.00
1170.710, 39696.00
1171.796, 39443.62
1172.881, 38980.00
1173.966, 38904.00
1175.051, 38339.00
1176.135, 37936.00
1177.220, 37643.00
1178.304, 37531.00
1179.388, 37169.00
1180.472, 36909.00
1181.556, 36619.00
1182.639, 36318.00
1183.723, 36127.15
1184.806, 36035.00
1185.889, 35717.00
1186.972, 35567.00
1188.055, 35311.00
1189.137, 35003.00
1190.219, 35026.00
1191.302, 34559.00
1192.384, 34575.00
1193.466, 34387.00
1194.547, 34015.00
1195.629, 34069.00
1196.710, 34011.00
1197.791, 34319.00
1198.872, 33793.00
1199.953, 33642.00
1201.034, 33214.00
1202.114, 33418.00
1203.195, 33371.00
1204.275, 33149.00
1205.355, 33411.00
1206.435, 32986.00
1207.514, 32867.00
1208.594, 32978.00
1209.673, 32761.00
1210.752, 32853.00
1211.831, 32860.00
1212.910, 32740.00
1213.989, 32706.00
1215.067, 32670.50
1216.145, 32620.57
1217.223, 32609.00
1218.301, 32577.00
1219.379, 32566.00
1220.457, 32554.00
1221.534, 32537.38
1222.611, 32467.00
1223.688, 32469.00
1224.765, 32421.00
1225.842, 32283.00
1226.918, 32235.00
1227.995, 32363.00
1229.071, 32583.00
1230.147, 32139.00
1231.223, 32218.00
1232.299, 32590.00
1233.374, 32353.00
1234.449, 32448.00
1235.525, 32469.00
1236.600, 32484.00
1237.674, 32445.00
1238.749, 32274.00
1239.824, 32508.00
1240.898, 32147.00
1241.972, 32445.00
1243.046, 32206.00
1244.120, 32143.00
1245.193, 32161.00
1246.267, 32073.00
1247.340, 32300.00
1248.413, 32261.00
