##NAMES=Chabazite-Ca
##RRUFFID=R050014
##IDEAL CHEMISTRY=Ca_2_Al_4_Si_8_O_24_&#183;13H_2_O
##LOCALITY=Tablo Mountain, Baja California, Mexico
##OWNER=RRUFF
##SOURCE=University of Arizona Mineral Museum
##DESCRIPTION=Light tan colored rhombohedral single crystals
##STATUS=The identification of this mineral has been confirmed by X-ray diffraction and chemical analysis
##URL=rruff.info/R050014
##MEASURED CHEMISTRY=(Ca_0.72_Mg_0.11_K_0.09_Sr_0.06_Na_0.01_)_Σ=1_(Si_4.12_Al_1.88_)O_12_·6H_2_O
##PIN_ID=M00165
##ORIENTATION=Laser parallel to (-1 -1 -1). Fiducial mark perpendicular to laser is parallel to [-1 1 0]
105.8150, 34141.00
107.0470, 35224.00
108.2800, 36229.00
109.5120, 35823.00
110.7440, 35147.00
111.9760, 35121.00
113.2080, 35542.00
114.4400, 35923.00
115.6710, 36084.00
116.9030, 36261.68
118.1340, 36322.90
119.3650, 36477.00
120.5960, 36443.00
121.8270, 36759.00
123.0580, 37184.00
124.2880, 37285.00
125.5190, 37371.00
126.7490, 37965.00
127.9790, 37867.00
129.2090, 38361.00
130.4390, 38827.00
131.6680, 39090.00
132.8980, 39531.00
134.1270, 39469.00
135.3560, 40353.00
136.5850, 40563.00
137.8140, 41679.00
139.0430, 42751.00
140.2710, 43720.00
141.5000, 44883.00
142.7280, 46064.00
143.9560, 46368.00
145.1840, 45702.00
146.4120, 44681.00
147.6390, 43292.00
148.8670, 41875.00
150.0940, 40784.00
151.3210, 40101.00
152.5490, 39291.00
153.7750, 38721.54
155.0020, 38407.00
156.2290, 37844.00
157.4550, 37590.00
158.6810, 37286.00
159.9080, 36963.80
161.1340, 36785.16
162.3590, 36441.00
163.5850, 36467.00
164.8110, 36164.00
166.0360, 36111.00
167.2610, 35717.00
168.4860, 35489.00
169.7110, 35292.00
170.9360, 35397.00
172.1610, 35243.00
173.3850, 34927.00
174.6100, 34659.00
175.8340, 34317.00
177.0580, 34089.84
178.2820, 33907.00
179.5050, 33644.00
180.7290, 33490.20
181.9520, 33294.82
183.1760, 33165.00
184.3990, 32933.00
185.6220, 32775.00
186.8450, 32562.00
188.0670, 32387.00
189.2900, 32200.00
190.5120, 31880.00
191.7340, 31840.00
192.9560, 31520.00
194.1780, 31290.00
195.4000, 31347.00
196.6220, 31061.00
197.8430, 30802.00
199.0640, 30574.00
200.2860, 30335.00
201.5070, 30019.16
202.7270, 29737.04
203.9480, 29369.00
205.1690, 29190.00
206.3890, 28858.00
207.6090, 28781.00
208.8290, 28368.00
210.0490, 28489.00
211.2690, 28158.00
212.4890, 28069.00
213.7080, 28130.00
214.9280, 27670.00
216.1470, 27605.00
217.3660, 27630.00
218.5850, 27438.00
219.8030, 27181.00
221.0220, 27428.00
222.2400, 26938.00
223.4590, 26714.00
224.6770, 26607.00
225.8950, 26841.00
227.1120, 26662.00
228.3300, 26385.00
229.5480, 26716.00
230.7650, 26521.00
231.9820, 26347.00
233.1990, 26309.00
234.4160, 26186.49
235.6330, 26187.00
236.8490, 26084.00
238.0660, 26162.00
239.2820, 26154.00
240.4980, 25966.00
241.7140, 26214.00
242.9300, 25840.00
244.1460, 26174.00
245.3610, 25984.00
246.5770, 25779.00
247.7920, 25930.00
249.0070, 25809.00
250.2220, 25980.00
251.4370, 26161.00
252.6510, 25766.00
253.8660, 25899.00
255.0800, 25965.00
256.2940, 25916.00
257.5080, 26030.00
258.7220, 26044.43
259.9360, 26181.00
261.1490, 26050.00
262.3630, 26043.00
263.5760, 25863.00
264.7890, 26194.00
266.0020, 25892.00
267.2150, 26057.00
268.4270, 26052.00
269.6400, 26044.00
270.8520, 26139.00
272.0640, 26327.00
273.2760, 26235.00
274.4880, 26050.00
275.7000, 26388.00
276.9120, 26393.00
278.1230, 26326.00
279.3340, 26436.00
280.5450, 26427.00
281.7560, 26594.00
282.9670, 26884.00
284.1780, 26974.00
285.3880, 26971.00
286.5980, 26897.00
287.8090, 26990.00
289.0190, 27039.00
290.2290, 27004.00
291.4380, 27220.00
292.6480, 26944.00
293.8570, 27151.00
295.0670, 27048.00
296.2760, 27528.00
297.4850, 27215.00
298.6930, 27550.00
299.9020, 27705.00
301.1110, 27590.00
302.3190, 27691.00
303.5270, 27957.00
304.7350, 28147.00
305.9430, 28076.00
307.1510, 28313.00
308.3580, 28674.00
309.5660, 28868.00
310.7730, 28783.00
311.9800, 29046.00
313.1870, 29223.00
314.3940, 29544.00
315.6010, 29690.00
316.8070, 29879.00
318.0130, 30265.00
319.2200, 30287.00
320.4260, 30622.00
321.6310, 30529.00
322.8370, 30996.00
324.0430, 31066.00
325.2480, 31301.00
326.4540, 31167.00
327.6590, 31246.00
328.8640, 31170.00
330.0680, 31402.00
331.2730, 31138.00
332.4780, 31122.00
333.6820, 31101.00
334.8860, 30953.00
336.0900, 30976.00
337.2940, 30660.00
338.4980, 30432.00
339.7010, 30474.00
340.9050, 30360.00
342.1080, 30454.00
343.3110, 30064.00
344.5140, 29907.00
345.7170, 29851.00
346.9200, 29754.00
348.1220, 29469.00
349.3240, 29506.00
350.5270, 29316.00
351.7290, 29124.00
352.9310, 29228.00
354.1320, 29111.00
355.3340, 28988.00
356.5350, 28885.00
357.7370, 28734.00
358.9380, 28644.00
360.1390, 28727.00
361.3400, 28676.00
362.5400, 28757.00
363.7410, 28677.00
364.9410, 28635.00
366.1410, 28503.00
367.3410, 28646.00
368.5410, 28530.00
369.7410, 28659.00
370.9400, 28491.00
372.1400, 28496.00
373.3390, 28522.00
374.5380, 28475.00
375.7370, 28583.00
376.9360, 28680.00
378.1350, 28724.00
379.3330, 28905.00
380.5310, 28731.00
381.7300, 28809.00
382.9280, 28738.00
384.1260, 28925.00
385.3230, 29028.00
386.5210, 29107.00
387.7180, 29186.00
388.9160, 29152.00
390.1130, 29243.00
391.3100, 29529.00
392.5060, 29391.00
393.7030, 29530.00
394.9000, 29770.00
396.0960, 29657.00
397.2920, 29754.00
398.4880, 30075.00
399.6840, 29858.00
400.8800, 30039.00
402.0750, 30074.00
403.2710, 29931.00
404.4660, 30401.00
405.6610, 30463.00
406.8560, 30254.00
408.0510, 30431.00
409.2450, 30433.00
410.4400, 30862.00
411.6340, 31246.00
412.8280, 30947.00
414.0220, 31106.00
415.2160, 31576.00
416.4100, 31610.00
417.6030, 31882.00
418.7970, 31974.00
419.9900, 32494.00
421.1830, 32935.00
422.3760, 33020.00
423.5690, 33470.00
424.7610, 33947.00
425.9540, 34057.00
427.1460, 34345.00
428.3380, 35105.00
429.5300, 36039.00
430.7220, 36348.00
431.9140, 37202.00
433.1050, 37630.00
434.2970, 38207.00
435.4880, 38697.00
436.6790, 39579.00
437.8700, 40493.00
439.0610, 41294.00
440.2510, 42010.00
441.4420, 42901.00
442.6320, 43689.82
443.8220, 44746.00
445.0120, 45460.00
446.2020, 46569.00
447.3910, 47694.00
448.5810, 48362.00
449.7700, 48916.00
450.9600, 49915.00
452.1490, 50360.00
453.3370, 51240.00
454.5260, 51658.00
455.7150, 51965.00
456.9030, 52720.00
458.0910, 53089.60
459.2800, 53827.00
460.4670, 54197.00
461.6550, 54566.00
462.8430, 55311.00
464.0300, 55462.00
465.2180, 56214.00
466.4050, 56994.00
467.5920, 57439.00
468.7790, 58606.00
469.9650, 59579.00
471.1520, 60154.00
472.3380, 60705.00
473.5250, 61903.00
474.7110, 61968.00
475.8970, 62815.00
477.0820, 62810.00
478.2680, 63002.00
479.4540, 62684.00
480.6390, 62288.00
481.8240, 61628.00
483.0090, 60650.00
484.1940, 59075.00
485.3780, 57482.00
486.5630, 56150.00
487.7470, 54377.00
488.9320, 52891.00
490.1160, 51183.00
491.3000, 49295.00
492.4830, 47949.00
493.6670, 46611.00
494.8500, 45471.00
496.0340, 44204.00
497.2170, 42782.00
498.4000, 41575.00
499.5820, 40960.00
500.7650, 39813.00
501.9480, 39310.00
503.1300, 38336.00
504.3120, 37769.00
505.4940, 37158.00
506.6760, 36416.00
507.8580, 36083.00
509.0390, 35947.00
510.2210, 35299.00
511.4020, 35202.00
512.5830, 34656.00
513.7640, 34195.00
514.9450, 34197.00
516.1250, 33880.00
517.3060, 33296.00
518.4860, 33398.00
519.6660, 33271.00
520.8460, 32969.00
522.0260, 32668.00
523.2060, 32645.00
524.3850, 32496.00
525.5650, 32327.00
526.7440, 32335.00
527.9230, 32372.00
529.1020, 31988.00
530.2810, 32044.00
531.4590, 32064.00
532.6380, 31554.00
533.8160, 31688.00
534.9940, 31807.00
536.1720, 31649.00
537.3500, 31594.00
538.5270, 31434.00
539.7050, 31557.00
540.8820, 31588.00
542.0590, 31446.00
543.2360, 31379.00
544.4130, 31504.00
545.5900, 31359.00
546.7660, 31311.00
547.9430, 31322.00
549.1190, 31196.00
550.2950, 31276.00
551.4710, 31087.00
552.6470, 31197.00
553.8220, 31359.00
554.9980, 31328.00
556.1730, 31030.00
557.3480, 31300.00
558.5230, 31113.32
559.6980, 31115.05
560.8730, 31085.00
562.0470, 31125.00
563.2220, 31278.00
564.3960, 31369.00
565.5700, 31273.00
566.7440, 31286.00
567.9170, 31246.00
569.0910, 31291.00
570.2640, 31327.00
571.4380, 31357.00
572.6110, 31345.00
573.7840, 31411.00
574.9570, 31493.00
576.1290, 31150.00
577.3020, 31456.00
578.4740, 31299.00
579.6460, 31594.00
580.8180, 31512.00
581.9900, 31484.00
583.1620, 31292.00
584.3330, 31503.00
585.5040, 31558.00
586.6760, 31557.00
587.8470, 31539.00
589.0180, 31539.44
590.1880, 31518.00
591.3590, 31513.00
592.5290, 31437.00
593.7000, 31467.00
594.8700, 31678.00
596.0400, 31676.00
597.2090, 31567.00
598.3790, 31776.00
599.5490, 31641.00
600.7180, 31842.00
601.8870, 32122.00
603.0560, 31970.00
604.2250, 31899.00
605.3940, 32068.00
606.5620, 32074.00
607.7300, 31966.00
608.8990, 31916.00
610.0670, 32186.00
611.2350, 32034.00
612.4020, 32078.00
613.5700, 32229.00
614.7370, 32213.00
615.9050, 32242.00
617.0720, 32342.00
618.2390, 32377.84
619.4060, 32520.00
620.5720, 32528.00
621.7390, 32623.00
622.9050, 32687.00
624.0710, 32496.00
625.2370, 32835.00
626.4030, 32738.00
627.5690, 32912.00
628.7340, 33158.00
629.9000, 33149.00
631.0650, 33233.00
632.2300, 33342.00
633.3950, 33405.00
634.5600, 33477.00
635.7240, 33603.00
636.8890, 33485.00
638.0530, 33579.00
639.2170, 33515.00
640.3810, 33722.00
641.5450, 33632.00
642.7080, 33888.00
643.8720, 33601.00
645.0350, 33678.00
646.1980, 33850.00
647.3610, 33730.00
648.5240, 33618.00
649.6870, 33710.00
650.8490, 33481.00
652.0120, 33673.00
653.1740, 33707.00
654.3360, 33620.00
655.4980, 33742.00
656.6600, 33718.46
657.8210, 33752.39
658.9830, 33709.00
660.1440, 33768.00
661.3050, 33654.00
662.4660, 33517.00
663.6270, 33411.00
664.7870, 33481.00
665.9480, 33633.00
667.1080, 33959.00
668.2680, 33696.00
669.4280, 33597.00
670.5880, 33533.00
671.7480, 33851.00
672.9070, 33704.00
674.0670, 33833.00
675.2260, 33791.00
676.3850, 33776.13
677.5440, 33848.00
678.7030, 33798.00
679.8610, 33837.00
681.0200, 33917.00
682.1780, 34116.00
683.3360, 34010.00
684.4940, 34007.00
685.6520, 33821.00
686.8090, 34104.00
687.9670, 34113.00
689.1240, 33885.00
690.2810, 34012.00
691.4380, 34346.00
692.5950, 34295.00
693.7520, 34428.00
694.9080, 34344.00
696.0650, 34186.00
697.2210, 34239.00
698.3770, 34317.00
699.5330, 34126.00
700.6880, 34395.00
701.8440, 34625.00
702.9990, 34697.00
704.1550, 34592.00
705.3100, 34466.00
706.4650, 34536.00
707.6190, 34585.00
708.7740, 34732.00
709.9290, 34736.16
711.0830, 34738.00
712.2370, 34821.00
713.3910, 34859.00
714.5450, 34965.00
715.6980, 34741.00
716.8520, 34827.00
718.0050, 34719.00
719.1580, 34792.00
720.3110, 34816.00
721.4640, 34650.00
722.6170, 34833.00
723.7700, 34639.00
724.9220, 34757.00
726.0740, 34973.00
727.2260, 34958.00
728.3780, 35075.00
729.5300, 35002.00
730.6810, 34749.00
731.8330, 34989.00
732.9840, 35075.00
734.1350, 35205.00
735.2860, 34925.00
736.4370, 34796.00
737.5880, 34710.00
738.7380, 34728.00
739.8880, 35270.00
741.0390, 35037.00
742.1890, 35212.00
743.3380, 35140.00
744.4880, 35166.00
745.6380, 35280.00
746.7870, 34923.00
747.9360, 35153.00
749.0850, 35083.00
750.2340, 35413.00
751.3830, 35230.00
752.5310, 35194.00
753.6800, 35499.00
754.8280, 35487.00
755.9760, 35374.00
757.1240, 35440.00
758.2720, 35591.00
759.4190, 35556.00
760.5670, 35458.00
761.7140, 35697.00
762.8610, 35581.00
764.0080, 35817.00
765.1550, 35966.00
766.3020, 35918.00
767.4480, 35761.00
768.5950, 35940.00
769.7410, 36010.00
770.8870, 36074.00
772.0330, 36091.00
773.1780, 36235.00
774.3240, 36252.00
775.4690, 36250.00
776.6140, 36389.00
777.7590, 36388.00
778.9040, 36570.00
780.0490, 36614.00
781.1940, 36813.00
782.3380, 36651.00
783.4820, 36893.00
784.6260, 36848.00
785.7700, 36616.00
786.9140, 37193.00
788.0580, 36939.00
789.2010, 37064.00
790.3450, 36843.00
791.4880, 36805.00
792.6310, 36849.00
793.7730, 36754.37
794.9160, 36737.19
796.0590, 36718.00
797.2010, 36688.00
798.3430, 36635.00
799.4850, 36714.00
800.6270, 36703.00
801.7690, 36790.00
802.9100, 36769.00
804.0520, 36621.00
805.1930, 36536.00
806.3340, 36660.00
807.4750, 36836.00
808.6160, 36343.00
809.7560, 36448.00
810.8970, 36830.00
812.0370, 36477.00
813.1770, 36217.00
814.3170, 36521.00
815.4570, 36575.00
816.5960, 36380.00
817.7360, 36509.00
818.8750, 36745.00
820.0140, 36470.00
821.1530, 36690.00
822.2920, 36586.00
823.4310, 36708.00
824.5690, 36680.00
825.7070, 36848.00
826.8460, 36676.00
827.9840, 36730.00
829.1220, 36876.00
830.2590, 36491.00
831.3970, 36482.00
832.5340, 36962.00
833.6710, 36955.00
834.8080, 36629.00
835.9450, 36995.00
837.0820, 36888.00
838.2190, 36958.00
839.3550, 37292.00
840.4910, 36803.00
841.6270, 36942.00
842.7630, 37276.00
843.8990, 37328.00
845.0350, 37090.00
846.1700, 37185.00
847.3060, 37271.00
848.4410, 37097.00
849.5760, 37177.00
850.7100, 37130.00
851.8450, 37211.00
852.9800, 37503.00
854.1140, 37520.00
855.2480, 37628.00
856.3820, 37372.00
857.5160, 37543.00
858.6500, 37524.00
859.7830, 37517.00
860.9170, 37527.00
862.0500, 37543.41
863.1830, 37834.00
864.3160, 37649.00
865.4480, 37729.00
866.5810, 37885.00
867.7130, 37714.00
868.8460, 37757.00
869.9780, 37793.00
871.1100, 37928.00
872.2410, 38069.00
873.3730, 38031.00
874.5050, 38087.87
875.6360, 38085.52
876.7670, 38064.00
877.8980, 38093.00
879.0290, 38111.00
880.1590, 38112.58
881.2900, 38124.00
882.4200, 38169.00
883.5500, 38224.00
884.6800, 38330.00
885.8100, 38239.00
886.9400, 38426.39
888.0690, 38599.00
889.1990, 38737.00
890.3280, 38404.00
891.4570, 38577.00
892.5860, 38542.00
893.7140, 38186.00
894.8430, 38577.00
895.9710, 38650.00
897.1000, 38751.00
898.2280, 38782.00
899.3560, 38778.61
900.4830, 38795.00
901.6110, 38697.00
902.7380, 38931.00
903.8660, 38880.00
904.9930, 38887.00
906.1200, 39136.00
907.2460, 39111.00
908.3730, 38964.00
909.5000, 38965.00
910.6260, 39559.00
911.7520, 39576.00
912.8780, 39434.00
914.0040, 39358.00
915.1290, 39356.00
916.2550, 39493.00
917.3800, 39462.00
918.5050, 39387.00
919.6300, 39692.00
920.7550, 39565.00
921.8800, 39500.00
923.0040, 39980.00
924.1290, 39533.00
925.2530, 39831.00
926.3770, 39899.00
927.5010, 39751.00
928.6250, 39798.00
929.7480, 39786.00
930.8720, 39812.22
931.9950, 40027.00
933.1180, 39935.00
934.2410, 40069.00
935.3640, 40113.00
936.4860, 40110.00
937.6090, 40195.00
938.7310, 40259.00
939.8530, 40454.00
940.9750, 40411.00
942.0970, 40608.00
943.2180, 40514.00
944.3400, 40661.00
945.4610, 40756.00
946.5820, 40869.00
947.7030, 40692.00
948.8240, 40813.00
949.9450, 40770.00
951.0650, 40685.00
952.1860, 40874.00
953.3060, 41356.00
954.4260, 41164.00
955.5460, 41414.00
956.6650, 41037.00
957.7850, 41410.00
958.9040, 41360.00
960.0230, 41341.00
961.1420, 41440.00
962.2610, 41486.08
963.3800, 41565.53
964.4990, 41718.00
965.6170, 41772.00
966.7350, 41916.00
967.8530, 42051.00
968.9710, 42094.00
970.0890, 42285.97
971.2070, 42262.00
972.3240, 42574.00
973.4410, 42448.00
974.5580, 42490.00
975.6750, 42521.00
976.7920, 42451.00
977.9090, 42832.00
979.0250, 42700.00
980.1410, 42911.00
981.2580, 42931.00
982.3740, 42996.00
983.4890, 43170.00
984.6050, 43406.00
985.7200, 43469.00
986.8360, 43577.00
987.9510, 43685.00
989.0660, 43744.00
990.1810, 43825.00
991.2950, 43968.00
992.4100, 43634.00
993.5240, 43667.00
994.6390, 43906.00
995.7530, 44125.00
996.8660, 44184.74
997.9800, 44239.00
999.0940, 44259.00
1000.207, 44363.53
1001.320, 44351.00
1002.433, 44517.00
1003.546, 44713.00
1004.659, 44714.00
1005.772, 44804.39
1006.884, 44856.33
1007.996, 44832.00
1009.108, 44868.00
1010.220, 44879.00
1011.332, 44795.00
1012.444, 45139.00
1013.555, 45114.00
1014.666, 44838.00
1015.777, 45217.00
1016.888, 45276.00
1017.999, 45325.00
1019.110, 45087.00
1020.220, 45438.00
1021.331, 45442.00
1022.441, 45650.00
1023.551, 45420.00
1024.661, 45723.00
1025.770, 45739.00
1026.880, 45954.00
1027.989, 45885.00
1029.098, 45873.00
1030.207, 45881.00
1031.316, 46173.00
1032.425, 45911.00
1033.533, 45988.00
1034.642, 46426.00
1035.750, 46170.00
1036.858, 45984.00
1037.966, 46312.00
1039.073, 46388.00
1040.181, 46143.00
1041.288, 46371.00
1042.396, 46248.00
1043.503, 46246.00
1044.610, 46455.00
1045.716, 46400.42
1046.823, 46677.00
1047.929, 46550.00
1049.036, 46760.00
1050.142, 46923.00
1051.248, 46847.00
1052.353, 46892.00
1053.459, 47163.00
1054.564, 47071.00
1055.670, 47324.00
1056.775, 47416.00
1057.880, 47552.00
1058.985, 47542.00
1060.089, 47720.00
1061.194, 47761.00
1062.298, 48093.00
1063.402, 48131.00
1064.506, 47995.00
1065.610, 48368.00
1066.713, 48007.00
1067.817, 48022.00
1068.920, 48086.00
1070.023, 48081.00
1071.126, 48195.00
1072.229, 48350.00
1073.332, 48778.00
1074.435, 48213.75
1075.537, 48470.79
1076.639, 48630.20
1077.741, 48697.21
1078.843, 48395.14
1079.945, 48569.68
1081.046, 48553.18
1082.148, 48528.88
1083.249, 48770.47
1084.350, 48522.05
1085.451, 48759.43
1086.551, 48802.85
1087.652, 48935.05
1088.752, 48875.04
1089.853, 48874.43
1090.953, 49066.02
1092.053, 49151.18
1093.152, 49069.01
1094.252, 49206.83
1095.351, 48951.64
1096.451, 49041.32
1097.550, 49110.00
1098.649, 49313.00
1099.748, 49290.00
1100.846, 49385.00
1101.945, 49488.00
1103.043, 49474.00
1104.141, 49514.30
1105.239, 49539.29
1106.337, 49538.00
1107.434, 49543.00
1108.532, 49642.00
1109.629, 49611.93
1110.726, 49181.00
1111.823, 49466.00
1112.920, 49429.00
1114.017, 49307.00
1115.113, 49582.00
1116.210, 49564.00
1117.306, 49780.00
1118.402, 49334.00
1119.498, 49565.00
1120.593, 49396.00
1121.689, 49494.00
1122.784, 49671.00
1123.879, 49519.00
1124.974, 49785.00
1126.069, 49689.00
1127.164, 49638.00
1128.259, 49704.00
1129.353, 49478.00
1130.447, 49447.00
1131.541, 49763.00
1132.635, 49609.00
1133.729, 49614.00
1134.822, 49759.00
1135.916, 49822.00
1137.009, 49797.00
1138.102, 49709.00
1139.195, 49585.00
1140.288, 50019.00
1141.380, 49467.00
1142.473, 49918.00
1143.565, 49687.00
1144.657, 49927.00
1145.749, 49499.00
1146.841, 49645.00
1147.932, 49456.00
1149.024, 49342.00
1150.115, 49272.00
1151.206, 49633.00
1152.297, 49786.00
1153.388, 49616.00
1154.479, 49750.00
1155.569, 49521.00
1156.659, 49734.00
1157.750, 49697.00
1158.839, 49368.00
1159.929, 49498.00
1161.019, 49653.00
1162.108, 49475.00
1163.198, 49381.00
1164.287, 49750.00
1165.376, 49641.00
1166.465, 49569.00
1167.553, 49679.00
1168.642, 49548.00
1169.730, 49441.00
1170.818, 49323.00
1171.906, 49688.00
1172.994, 49400.00
1174.082, 49668.00
1175.170, 49596.00
1176.257, 49665.00
1177.344, 49560.00
1178.431, 49574.11
1179.518, 49670.00
1180.605, 49624.00
1181.691, 49691.98
1182.778, 49655.00
1183.864, 49761.00
1184.950, 49665.00
1186.036, 49668.00
1187.122, 49633.00
1188.207, 49482.00
1189.292, 49742.00
1190.378, 49550.00
1191.463, 49728.00
1192.548, 49824.00
1193.632, 49843.00
1194.717, 49933.00
1195.801, 49959.89
1196.886, 49982.90
1197.970, 49980.00
1199.054, 50032.00
1200.137, 49965.00
1201.221, 50024.00
1202.305, 49782.00
1203.388, 50159.00
1204.471, 50179.00
1205.554, 49975.00
1206.637, 50374.00
1207.719, 50276.00
1208.802, 50302.00
1209.884, 50512.00
1210.966, 50078.00
1212.048, 50427.00
1213.130, 50340.00
1214.212, 50682.00
1215.293, 50667.00
1216.374, 50495.00
1217.456, 50738.00
1218.536, 50707.00
1219.617, 50607.00
1220.698, 50867.00
1221.778, 50700.00
1222.859, 50848.00
1223.939, 50825.00
1225.019, 50812.00
1226.099, 50907.00
1227.178, 50894.00
1228.258, 51088.00
1229.337, 50902.00
1230.417, 51120.00
1231.496, 51240.00
1232.574, 51298.00
1233.653, 51157.00
1234.732, 51669.00
1235.810, 51515.00
1236.888, 51233.00
1237.966, 51480.00
1239.044, 51841.00
1240.122, 51545.00
1241.199, 51565.00
1242.277, 51710.00
1243.354, 51518.00
1244.431, 51921.00
1245.508, 51420.00
1246.585, 51694.00
1247.661, 51716.00
1248.738, 51689.00
1249.814, 51776.00
1250.890, 51930.00
1251.966, 51819.00
1253.042, 52012.00
1254.117, 52068.00
1255.193, 52048.00
1256.268, 52009.00
1257.343, 52036.00
1258.418, 52027.00
1259.493, 51943.00
1260.567, 52060.00
1261.642, 52115.91
1262.716, 52218.00
1263.790, 52355.00
1264.864, 52423.00
1265.938, 52523.00
1267.011, 52540.00
1268.085, 52828.00
1269.158, 52631.00
1270.231, 52389.00
1271.304, 52736.00
1272.377, 52565.00
1273.450, 53008.00
1274.522, 52692.00
1275.594, 52764.00
1276.666, 52778.00
1277.738, 53045.00
1278.810, 52833.00
1279.882, 53112.00
1280.953, 52936.00
