##NAMES=Chabazite-Ca
##RRUFFID=R050014
##IDEAL CHEMISTRY=Ca_2_Al_4_Si_8_O_24_&#183;13H_2_O
##LOCALITY=Tablo Mountain, Baja California, Mexico
##OWNER=RRUFF
##SOURCE=University of Arizona Mineral Museum
##DESCRIPTION=Light tan colored rhombohedral single crystals
##STATUS=The identification of this mineral has been confirmed by X-ray diffraction and chemical analysis
##URL=rruff.info/R050014
##MEASURED CHEMISTRY=(Ca_0.72_Mg_0.11_K_0.09_Sr_0.06_Na_0.01_)_Σ=1_(Si_4.12_Al_1.88_)O_12_·6H_2_O
##PIN_ID=M00242
##ORIENTATION=Laser parallel to (-1 1 0). Fiducial mark perpendicular to laser is parallel to [1 1 1]
105.8150, 40490.84
107.0470, 41084.84
108.2800, 41581.50
109.5120, 41985.48
110.7440, 42020.36
111.9760, 42531.84
113.2080, 42852.32
114.4400, 43164.96
115.6710, 43746.00
116.9030, 43438.00
118.1340, 43531.00
119.3650, 43252.00
120.5960, 43012.00
121.8270, 43155.00
123.0580, 43452.00
124.2880, 43537.00
125.5190, 43762.00
126.7490, 43719.00
127.9790, 44123.00
129.2090, 44560.00
130.4390, 44437.00
131.6680, 44944.00
132.8980, 45489.00
134.1270, 45802.00
135.3560, 46209.00
136.5850, 46559.00
137.8140, 47425.00
139.0430, 48519.00
140.2710, 48808.00
141.5000, 48760.00
142.7280, 48429.00
143.9560, 47376.00
145.1840, 46394.00
146.4120, 45504.00
147.6390, 44813.04
148.8670, 44120.33
150.0940, 43600.00
151.3210, 43109.00
152.5490, 42468.00
153.7750, 42203.00
155.0020, 41755.00
156.2290, 41371.00
157.4550, 41056.00
158.6810, 40604.00
159.9080, 40234.00
161.1340, 39924.00
162.3590, 39966.00
163.5850, 39765.00
164.8110, 39711.00
166.0360, 39047.00
167.2610, 39298.00
168.4860, 38756.00
169.7110, 38657.00
170.9360, 38341.00
172.1610, 38213.00
173.3850, 37756.00
174.6100, 37274.00
175.8340, 37309.00
177.0580, 36851.00
178.2820, 36788.00
179.5050, 36529.00
180.7290, 36201.00
181.9520, 36014.00
183.1760, 35733.71
184.3990, 35455.00
185.6220, 35239.00
186.8450, 35186.00
188.0670, 34945.00
189.2900, 34566.00
190.5120, 34580.00
191.7340, 34471.00
192.9560, 34097.00
194.1780, 34124.00
195.4000, 33973.00
196.6220, 33517.00
197.8430, 33130.00
199.0640, 33223.00
200.2860, 33197.00
201.5070, 32998.00
202.7270, 32706.00
203.9480, 31927.00
205.1690, 31050.00
206.3890, 30538.00
207.6090, 30379.00
208.8290, 30121.00
210.0490, 30121.00
211.2690, 30054.00
212.4890, 29723.00
213.7080, 29757.00
214.9280, 29426.00
216.1470, 29344.00
217.3660, 29040.00
218.5850, 29073.00
219.8030, 28889.00
221.0220, 28816.00
222.2400, 28575.00
223.4590, 28576.00
224.6770, 28364.00
225.8950, 28199.00
227.1120, 28270.00
228.3300, 28019.00
229.5480, 27900.00
230.7650, 28118.00
231.9820, 27948.00
233.1990, 27895.00
234.4160, 27945.00
235.6330, 27899.00
236.8490, 27788.00
238.0660, 27934.00
239.2820, 27667.00
240.4980, 27802.00
241.7140, 27662.00
242.9300, 27611.00
244.1460, 27595.43
245.3610, 27598.00
246.5770, 27444.00
247.7920, 27424.00
249.0070, 27278.00
250.2220, 27374.49
251.4370, 27132.49
252.6510, 27388.88
253.8660, 27547.67
255.0800, 27614.04
256.2940, 27311.31
257.5080, 27485.20
258.7220, 27468.08
259.9360, 27443.13
261.1490, 27684.07
262.3630, 27435.04
263.5760, 27671.76
264.7890, 27714.57
266.0020, 27846.13
267.2150, 27785.50
268.4270, 27868.00
269.6400, 27767.00
270.8520, 27795.00
272.0640, 27846.00
273.2760, 27997.00
274.4880, 28006.00
275.7000, 28219.00
276.9120, 28338.00
278.1230, 28328.00
279.3340, 28576.00
280.5450, 28636.00
281.7560, 28660.00
282.9670, 28601.00
284.1780, 28621.00
285.3880, 28845.00
286.5980, 29028.00
287.8090, 29025.00
289.0190, 28996.00
290.2290, 29211.00
291.4380, 29209.00
292.6480, 29300.49
293.8570, 29292.00
295.0670, 29469.00
296.2760, 29419.00
297.4850, 29524.00
298.6930, 29476.00
299.9020, 29510.00
301.1110, 29852.00
302.3190, 29766.00
303.5270, 29942.00
304.7350, 29856.00
305.9430, 29964.00
307.1510, 30315.00
308.3580, 30330.00
309.5660, 30390.00
310.7730, 30631.00
311.9800, 30670.00
313.1870, 30848.00
314.3940, 31342.00
315.6010, 31417.00
316.8070, 31576.00
318.0130, 31672.00
319.2200, 31659.00
320.4260, 32070.00
321.6310, 32502.00
322.8370, 32336.00
324.0430, 32659.00
325.2480, 32641.00
326.4540, 32639.00
327.6590, 32646.00
328.8640, 32619.00
330.0680, 32697.00
331.2730, 32824.00
332.4780, 32742.00
333.6820, 32358.00
334.8860, 32399.00
336.0900, 32235.00
337.2940, 32284.00
338.4980, 31899.00
339.7010, 31722.00
340.9050, 31744.00
342.1080, 31410.00
343.3110, 31275.00
344.5140, 31123.00
345.7170, 30746.00
346.9200, 30696.00
348.1220, 30589.00
349.3240, 30713.00
350.5270, 30292.00
351.7290, 30344.00
352.9310, 30309.00
354.1320, 30110.00
355.3340, 30198.00
356.5350, 30164.00
357.7370, 29964.00
358.9380, 29959.00
360.1390, 29868.00
361.3400, 30038.00
362.5400, 29779.00
363.7410, 29841.00
364.9410, 29708.00
366.1410, 29826.00
367.3410, 29484.00
368.5410, 29668.00
369.7410, 29673.00
370.9400, 29751.00
372.1400, 29585.00
373.3390, 29762.00
374.5380, 29687.00
375.7370, 29651.00
376.9360, 29754.00
378.1350, 29803.00
379.3330, 29591.00
380.5310, 29622.00
381.7300, 30124.00
382.9280, 30010.00
384.1260, 30220.00
385.3230, 30445.00
386.5210, 30144.00
387.7180, 30235.00
388.9160, 30477.00
390.1130, 30347.00
391.3100, 30641.00
392.5060, 30643.00
393.7030, 30592.00
394.9000, 31044.00
396.0960, 30843.00
397.2920, 30757.00
398.4880, 30820.00
399.6840, 30983.00
400.8800, 31075.00
402.0750, 31147.00
403.2710, 31239.00
404.4660, 31368.00
405.6610, 31245.00
406.8560, 31408.00
408.0510, 31548.49
409.2450, 31631.00
410.4400, 32021.00
411.6340, 32015.00
412.8280, 32408.00
414.0220, 32610.00
415.2160, 32640.00
416.4100, 32868.00
417.6030, 33125.00
418.7970, 33238.00
419.9900, 33791.00
421.1830, 34154.00
422.3760, 34406.00
423.5690, 34923.00
424.7610, 35307.00
425.9540, 35784.15
427.1460, 36200.00
428.3380, 36912.00
429.5300, 37606.00
430.7220, 38411.00
431.9140, 39093.00
433.1050, 39752.00
434.2970, 40555.00
435.4880, 41428.00
436.6790, 42116.00
437.8700, 42884.00
439.0610, 43884.00
440.2510, 45096.00
441.4420, 46182.00
442.6320, 47102.00
443.8220, 47983.00
445.0120, 49185.00
446.2020, 50238.00
447.3910, 51353.00
448.5810, 51916.00
449.7700, 52820.00
450.9600, 53528.00
452.1490, 54101.00
453.3370, 55137.00
454.5260, 55680.00
455.7150, 56335.00
456.9030, 56694.00
458.0910, 56816.00
459.2800, 57359.00
460.4670, 57592.00
461.6550, 58126.00
462.8430, 58863.00
464.0300, 59136.00
465.2180, 59475.00
466.4050, 60279.00
467.5920, 61038.00
468.7790, 61354.00
469.9650, 61968.00
471.1520, 62472.00
472.3380, 62846.00
473.5250, 63445.00
474.7110, 63710.00
475.8970, 63646.00
477.0820, 63450.00
478.2680, 62798.00
479.4540, 62317.00
480.6390, 61088.00
481.8240, 60006.00
483.0090, 58731.00
484.1940, 57568.00
485.3780, 55399.00
486.5630, 53989.00
487.7470, 52065.00
488.9320, 50465.00
490.1160, 49041.00
491.3000, 47635.00
492.4830, 46207.00
493.6670, 44778.00
494.8500, 43686.00
496.0340, 42478.00
497.2170, 41395.00
498.4000, 40395.00
499.5820, 39415.00
500.7650, 38715.00
501.9480, 38230.00
503.1300, 37475.00
504.3120, 36892.00
505.4940, 36331.00
506.6760, 35847.00
507.8580, 35476.00
509.0390, 35134.00
510.2210, 34917.00
511.4020, 34478.00
512.5830, 34532.00
513.7640, 33898.00
514.9450, 33613.00
516.1250, 33619.00
517.3060, 33292.00
518.4860, 33058.00
519.6660, 32722.00
520.8460, 32879.00
522.0260, 32581.00
523.2060, 32231.00
524.3850, 32537.00
525.5650, 32550.00
526.7440, 32220.00
527.9230, 32059.00
529.1020, 31903.00
530.2810, 31931.00
531.4590, 31739.00
532.6380, 31726.60
533.8160, 31653.00
534.9940, 31575.00
536.1720, 31626.00
537.3500, 31394.00
538.5270, 31699.00
539.7050, 31617.00
540.8820, 31605.00
542.0590, 31324.00
543.2360, 31422.00
544.4130, 31320.00
545.5900, 31314.00
546.7660, 31214.00
547.9430, 31156.82
549.1190, 31103.00
550.2950, 31074.00
551.4710, 31117.00
552.6470, 31192.00
553.8220, 31102.00
554.9980, 30964.00
556.1730, 31143.00
557.3480, 31223.00
558.5230, 31061.00
559.6980, 31146.00
560.8730, 31025.00
562.0470, 30993.00
563.2220, 31132.00
564.3960, 30960.00
565.5700, 31138.00
566.7440, 31195.00
567.9170, 31061.00
569.0910, 31147.00
570.2640, 31020.00
571.4380, 31005.00
572.6110, 31099.00
573.7840, 31150.00
574.9570, 31067.00
576.1290, 31122.08
577.3020, 31238.00
578.4740, 31106.00
579.6460, 31310.00
580.8180, 31321.00
581.9900, 31113.00
583.1620, 31237.00
584.3330, 31223.00
585.5040, 31321.00
586.6760, 31388.00
587.8470, 31376.00
589.0180, 31254.00
590.1880, 31072.00
591.3590, 31158.00
592.5290, 31265.00
593.7000, 31123.00
594.8700, 30954.00
596.0400, 31344.00
597.2090, 31149.00
598.3790, 31076.00
599.5490, 31432.00
600.7180, 31409.00
601.8870, 31174.00
603.0560, 31262.00
604.2250, 31313.00
605.3940, 31342.00
606.5620, 31360.00
607.7300, 31396.00
608.8990, 31467.00
610.0670, 31375.00
611.2350, 31786.00
612.4020, 31532.00
613.5700, 31677.00
614.7370, 31610.00
615.9050, 31630.00
617.0720, 31514.00
618.2390, 31717.00
619.4060, 31683.00
620.5720, 31895.00
621.7390, 31840.00
622.9050, 31917.00
624.0710, 31968.00
625.2370, 31946.00
626.4030, 31949.00
627.5690, 31922.00
628.7340, 32275.00
629.9000, 32442.00
631.0650, 32416.00
632.2300, 32238.00
633.3950, 32558.00
634.5600, 32268.00
635.7240, 32375.00
636.8890, 32506.00
638.0530, 32542.00
639.2170, 32580.00
640.3810, 32312.00
641.5450, 32584.00
642.7080, 32970.00
643.8720, 32619.00
645.0350, 32703.00
646.1980, 32718.00
647.3610, 32715.00
648.5240, 32727.10
649.6870, 32720.80
650.8490, 32666.00
652.0120, 32706.00
653.1740, 32626.25
654.3360, 32611.45
655.4980, 32627.00
656.6600, 32565.05
657.8210, 32687.00
658.9830, 32555.00
660.1440, 32586.00
661.3050, 32715.00
662.4660, 32697.00
663.6270, 32496.00
664.7870, 32801.00
665.9480, 32636.00
667.1080, 32494.00
668.2680, 32599.00
669.4280, 32739.00
670.5880, 32669.00
671.7480, 32752.00
672.9070, 32605.00
674.0670, 32831.00
675.2260, 32589.00
676.3850, 32861.00
677.5440, 32723.00
678.7030, 32765.00
679.8610, 32777.00
681.0200, 32780.00
682.1780, 32846.22
683.3360, 32850.98
684.4940, 32958.00
685.6520, 32920.00
686.8090, 32951.00
687.9670, 33025.00
689.1240, 33044.41
690.2810, 32897.00
691.4380, 33177.00
692.5950, 33072.00
693.7520, 33165.00
694.9080, 33329.00
696.0650, 33082.00
697.2210, 33186.00
698.3770, 33228.00
699.5330, 33336.00
700.6880, 33363.00
701.8440, 33165.00
702.9990, 33124.00
704.1550, 33262.00
705.3100, 33323.00
706.4650, 33378.00
707.6190, 33425.00
708.7740, 33506.98
709.9290, 33397.00
711.0830, 33569.00
712.2370, 33682.00
713.3910, 33504.00
714.5450, 33683.00
715.6980, 33698.00
716.8520, 33542.00
718.0050, 33499.00
719.1580, 33611.00
720.3110, 33618.00
721.4640, 33612.00
722.6170, 33597.00
723.7700, 33464.00
724.9220, 33558.00
726.0740, 33695.00
727.2260, 33553.00
728.3780, 33633.00
729.5300, 33639.00
730.6810, 33594.00
731.8330, 33611.00
732.9840, 33709.00
734.1350, 33762.00
735.2860, 33776.38
736.4370, 33715.00
737.5880, 33772.00
738.7380, 33883.00
739.8880, 33819.00
741.0390, 33633.00
742.1890, 33827.00
743.3380, 33986.00
744.4880, 33810.00
745.6380, 33985.01
746.7870, 33923.32
747.9360, 34094.00
749.0850, 33916.00
750.2340, 34008.00
751.3830, 34123.00
752.5310, 34176.00
753.6800, 34270.00
754.8280, 34281.43
755.9760, 34338.00
757.1240, 34253.00
758.2720, 34290.00
759.4190, 34215.00
760.5670, 34396.00
761.7140, 34418.00
762.8610, 34619.00
764.0080, 34421.00
765.1550, 34346.00
766.3020, 34596.00
767.4480, 34674.00
768.5950, 34686.00
769.7410, 34672.00
770.8870, 34624.00
772.0330, 34710.00
773.1780, 34603.00
774.3240, 34711.00
775.4690, 34804.00
776.6140, 34933.00
777.7590, 34751.00
778.9040, 35073.00
780.0490, 34879.00
781.1940, 35043.00
782.3380, 35276.00
783.4820, 35276.00
784.6260, 35347.73
785.7700, 35358.84
786.9140, 35293.00
788.0580, 35230.00
789.2010, 35132.00
790.3450, 35122.42
791.4880, 35254.00
792.6310, 35153.00
793.7730, 35088.00
794.9160, 35228.00
796.0590, 35090.00
797.2010, 34953.00
798.3430, 34959.00
799.4850, 34969.00
800.6270, 34800.00
801.7690, 34926.00
802.9100, 35012.00
804.0520, 34809.00
805.1930, 34578.00
806.3340, 34700.00
807.4750, 34727.00
808.6160, 34510.00
809.7560, 34393.00
810.8970, 34547.00
812.0370, 34378.00
813.1770, 34487.00
814.3170, 34740.00
815.4570, 34672.00
816.5960, 34613.00
817.7360, 34752.00
818.8750, 34362.00
820.0140, 34684.00
821.1530, 34562.00
822.2920, 34470.00
823.4310, 34510.00
824.5690, 34771.00
825.7070, 34631.00
826.8460, 34729.00
827.9840, 34501.00
829.1220, 34845.00
830.2590, 34634.00
831.3970, 34608.00
832.5340, 34817.00
833.6710, 34732.00
834.8080, 34629.00
835.9450, 34738.00
837.0820, 34776.00
838.2190, 34618.00
839.3550, 34642.00
840.4910, 34716.72
841.6270, 34851.00
842.7630, 34898.00
843.8990, 35052.00
845.0350, 35080.00
846.1700, 35125.00
847.3060, 35282.00
848.4410, 34979.00
849.5760, 34844.00
850.7100, 35129.00
851.8450, 35067.00
852.9800, 35127.00
854.1140, 35124.00
855.2480, 35149.00
856.3820, 35198.00
857.5160, 35235.00
858.6500, 35208.00
859.7830, 35137.00
860.9170, 35494.00
862.0500, 35509.00
863.1830, 35482.00
864.3160, 35592.00
865.4480, 35479.00
866.5810, 35576.00
867.7130, 35541.00
868.8460, 35521.00
869.9780, 35715.00
871.1100, 35771.00
872.2410, 35563.00
873.3730, 35697.00
874.5050, 35845.00
875.6360, 35692.00
876.7670, 35784.00
877.8980, 35745.00
879.0290, 35549.00
880.1590, 35863.00
881.2900, 35633.00
882.4200, 36008.00
883.5500, 36089.00
884.6800, 35967.00
885.8100, 35813.00
886.9400, 35824.00
888.0690, 35731.00
889.1990, 36081.12
890.3280, 36064.30
891.4570, 36626.00
892.5860, 36264.00
893.7140, 35884.00
894.8430, 35846.00
895.9710, 36476.00
897.1000, 36047.00
898.2280, 36320.00
899.3560, 36273.00
900.4830, 36233.00
901.6110, 36301.00
902.7380, 36530.00
903.8660, 36560.00
904.9930, 36734.00
906.1200, 36589.34
907.2460, 36816.00
908.3730, 36338.00
909.5000, 36429.00
910.6260, 36558.00
911.7520, 36585.00
912.8780, 36700.00
914.0040, 36756.00
915.1290, 36594.00
916.2550, 36841.00
917.3800, 37104.00
918.5050, 36860.00
919.6300, 36785.00
920.7550, 37091.00
921.8800, 37181.00
923.0040, 36896.00
924.1290, 37260.00
925.2530, 37119.00
926.3770, 37405.00
927.5010, 37202.00
928.6250, 36929.00
929.7480, 37244.00
930.8720, 37360.00
931.9950, 37391.00
933.1180, 37411.00
934.2410, 37389.00
935.3640, 37440.00
936.4860, 37412.00
937.6090, 37585.00
938.7310, 37737.00
939.8530, 37761.00
940.9750, 37811.00
942.0970, 37776.00
943.2180, 37852.00
944.3400, 37956.00
945.4610, 37868.00
946.5820, 38116.00
947.7030, 38002.00
948.8240, 38299.00
949.9450, 38424.00
951.0650, 38308.00
952.1860, 38465.00
953.3060, 38342.00
954.4260, 38345.00
955.5460, 38539.00
956.6650, 38468.00
957.7850, 38559.00
958.9040, 38905.00
960.0230, 38949.00
961.1420, 38678.00
962.2610, 38911.00
963.3800, 38893.00
964.4990, 38676.00
965.6170, 38710.00
966.7350, 39250.00
967.8530, 39355.00
968.9710, 39349.00
970.0890, 39395.00
971.2070, 39446.00
972.3240, 39478.00
973.4410, 39601.00
974.5580, 39589.00
975.6750, 39737.00
976.7920, 39660.00
977.9090, 39769.78
979.0250, 39951.00
980.1410, 40027.00
981.2580, 40066.00
982.3740, 40421.00
983.4890, 40303.00
984.6050, 40492.00
985.7200, 40499.00
986.8360, 40594.00
987.9510, 40878.00
989.0660, 40893.00
990.1810, 40876.00
991.2950, 41078.00
992.4100, 41258.00
993.5240, 41141.00
994.6390, 41311.00
995.7530, 41285.00
996.8660, 41144.00
997.9800, 41434.00
999.0940, 41254.00
1000.207, 41387.00
1001.320, 41369.00
1002.433, 41560.00
1003.546, 41399.00
1004.659, 41786.29
1005.772, 42058.21
1006.884, 42232.45
1007.996, 42314.30
1009.108, 42027.05
1010.220, 42216.42
1011.332, 42214.78
1012.444, 42205.31
1013.555, 42461.72
1014.666, 42228.11
1015.777, 42480.30
1016.888, 42538.57
1017.999, 42685.59
1019.110, 42640.42
1020.220, 42654.57
1021.331, 42410.00
1022.441, 42956.00
1023.551, 42935.00
1024.661, 42459.00
1025.770, 42730.00
1026.880, 42931.00
1027.989, 43069.00
1029.098, 42767.00
1030.207, 43206.00
1031.316, 43105.00
1032.425, 43408.00
1033.533, 42952.00
1034.642, 42720.00
1035.750, 42941.00
1036.858, 43595.00
1037.966, 43004.00
1039.073, 43229.00
1040.181, 43443.00
1041.288, 43274.00
1042.396, 43401.00
1043.503, 43553.00
1044.610, 43212.00
1045.716, 43672.00
1046.823, 43918.00
1047.929, 43736.00
1049.036, 43806.00
1050.142, 43566.00
1051.248, 43899.00
1052.353, 43853.00
1053.459, 44306.00
1054.564, 44358.00
1055.670, 44450.00
1056.775, 44420.00
1057.880, 44501.00
1058.985, 44578.00
1060.089, 44432.00
1061.194, 44756.00
1062.298, 44924.00
1063.402, 44756.00
1064.506, 45051.00
1065.610, 45030.00
1066.713, 45071.00
1067.817, 44967.00
1068.920, 45268.00
1070.023, 45330.00
1071.126, 45390.00
1072.229, 45574.00
1073.332, 45424.00
1074.435, 45744.00
1075.537, 45513.00
1076.639, 45569.00
1077.741, 45784.00
1078.843, 45887.00
1079.945, 45801.00
1081.046, 45913.00
1082.148, 46088.00
1083.249, 46335.00
1084.350, 46319.00
1085.451, 46278.00
1086.551, 46368.00
1087.652, 46123.00
1088.752, 46047.00
1089.853, 46452.00
1090.953, 46358.00
1092.053, 46180.00
1093.152, 45988.00
1094.252, 46102.00
1095.351, 46264.00
1096.451, 46174.00
1097.550, 46285.00
1098.649, 46285.00
1099.748, 46503.00
1100.846, 46258.00
1101.945, 46442.00
1103.043, 46324.00
1104.141, 46406.00
1105.239, 46469.00
1106.337, 46404.00
1107.434, 46437.00
1108.532, 46284.00
1109.629, 46356.00
1110.726, 46398.00
1111.823, 46415.00
1112.920, 46125.00
1114.017, 46517.00
1115.113, 46352.00
1116.210, 46422.00
1117.306, 46560.00
1118.402, 46575.00
1119.498, 46488.00
1120.593, 46761.00
1121.689, 46703.00
1122.784, 46640.00
1123.879, 46789.00
1124.974, 46838.00
1126.069, 46350.00
1127.164, 46353.00
1128.259, 46393.00
1129.353, 46168.00
1130.447, 46309.00
1131.541, 46467.00
1132.635, 46230.00
1133.729, 46120.00
1134.822, 46316.00
1135.916, 46412.00
1137.009, 46284.00
1138.102, 46028.00
1139.195, 45968.00
1140.288, 45981.48
1141.380, 45933.00
1142.473, 46107.00
1143.565, 46057.00
1144.657, 46046.00
1145.749, 45927.00
1146.841, 45814.00
1147.932, 45823.00
1149.024, 45876.00
1150.115, 45898.00
1151.206, 46036.00
1152.297, 45610.00
1153.388, 45990.00
1154.479, 45727.00
1155.569, 45788.00
1156.659, 45781.00
1157.750, 45441.00
1158.839, 45679.00
1159.929, 45666.00
1161.019, 45558.00
1162.108, 45815.00
1163.198, 45658.00
1164.287, 45372.00
1165.376, 45784.00
1166.465, 45494.00
1167.553, 45557.00
1168.642, 45411.00
1169.730, 45604.00
1170.818, 45493.00
1171.906, 45316.00
1172.994, 45236.00
1174.082, 45510.00
1175.170, 45857.00
1176.257, 45368.00
1177.344, 45496.00
1178.431, 45176.00
1179.518, 45365.00
1180.605, 45385.00
1181.691, 45274.00
1182.778, 45223.00
1183.864, 45023.00
1184.950, 45323.00
1186.036, 45204.00
1187.122, 45409.00
1188.207, 45416.00
1189.292, 45176.00
1190.378, 45280.00
1191.463, 45356.00
1192.548, 45410.00
1193.632, 45413.22
1194.717, 45473.00
1195.801, 45295.00
1196.886, 45412.00
1197.970, 45212.00
1199.054, 45138.00
1200.137, 45295.00
1201.221, 45544.00
1202.305, 45334.00
1203.388, 45341.00
1204.471, 45101.00
1205.554, 45641.00
1206.637, 45735.00
1207.719, 45856.00
1208.802, 45422.00
1209.884, 45503.00
1210.966, 45884.00
1212.048, 45502.00
1213.130, 45556.00
1214.212, 45590.00
1215.293, 45724.00
1216.374, 45719.13
1217.456, 45692.00
1218.536, 45721.00
1219.617, 45684.00
1220.698, 45596.00
1221.778, 45661.04
1222.859, 45685.70
1223.939, 45747.00
1225.019, 45842.00
1226.099, 45915.00
1227.178, 45991.00
1228.258, 46039.84
1229.337, 46008.00
1230.417, 46112.00
1231.496, 46103.00
1232.574, 46120.00
1233.653, 46466.00
1234.732, 46149.00
1235.810, 46410.00
1236.888, 46484.00
1237.966, 46109.00
1239.044, 46347.00
1240.122, 46195.00
1241.199, 46610.00
1242.277, 46408.00
1243.354, 46749.00
1244.431, 46275.00
1245.508, 46664.00
1246.585, 46491.00
1247.661, 46530.00
1248.738, 46765.00
1249.814, 46983.00
1250.890, 46828.00
1251.966, 46659.00
1253.042, 46429.00
1254.117, 46708.00
1255.193, 46967.00
1256.268, 46944.00
1257.343, 46494.00
1258.418, 46814.00
1259.493, 46600.00
1260.567, 46681.00
1261.642, 46825.00
1262.716, 46808.00
1263.790, 47229.00
1264.864, 47205.00
1265.938, 47234.00
1267.011, 47013.00
1268.085, 47088.82
1269.158, 46978.00
1270.231, 47130.00
1271.304, 47135.00
1272.377, 47214.00
1273.450, 47270.03
1274.522, 47310.00
1275.594, 47338.00
1276.666, 47232.00
1277.738, 47224.00
1278.810, 47529.00
1279.882, 47528.00
1280.953, 47730.00
