##NAMES=Chabazite-Ca
##RRUFFID=R050075
##IDEAL CHEMISTRY=Ca_2_Al_4_Si_8_O_24_&#183;13H_2_O
##LOCALITY=Victoria, Australia
##OWNER=RRUFF
##SOURCE=Rock Currier
##DESCRIPTION=White pseudohexagonal crystals
##STATUS=The identification of this mineral has been confirmed by X-ray diffraction and chemical analysis
##URL=rruff.info/R050075
##MEASURED CHEMISTRY=(Ca_0.79_Na_0.22_K_0.14_)_Σ=1.15_(Si_4.08_Al_1.92_)O_12_·6H_2_O
##PIN_ID=M01326
##ORIENTATION=Laser parallel to (-1 1 0). Fiducial mark perpendicular to laser is parallel to [1 1 1]
65.41600, 60705.00
66.65000, 70184.00
67.88400, 80048.00
69.11700, 90521.00
70.35100, 101225.0
71.58400, 111403.0
72.81800, 121300.0
74.05100, 131440.0
75.28400, 139873.0
76.51700, 147266.0
77.74900, 154495.0
78.98200, 159479.0
80.21400, 164541.0
81.44700, 167812.0
82.67900, 171202.0
83.91100, 174359.0
85.14300, 176672.0
86.37400, 179442.0
87.60600, 179767.0
88.83700, 180893.0
90.06900, 181307.0
91.30000, 182576.0
92.53100, 184064.0
93.76200, 184973.0
94.99300, 184059.0
96.22300, 183708.0
97.45400, 183578.0
98.68400, 183346.0
99.91400, 183073.9
101.1440, 182660.0
102.3740, 182532.0
103.6040, 182255.0
104.8340, 181910.0
106.0630, 181939.0
107.2930, 182294.0
108.5220, 182932.0
109.7510, 183190.0
110.9800, 184231.0
112.2090, 182113.0
113.4370, 181773.0
114.6660, 182735.0
115.8940, 182881.0
117.1220, 182668.0
118.3510, 183894.0
119.5790, 183616.0
120.8060, 183472.0
122.0340, 183499.0
123.2620, 182402.0
124.4890, 183176.0
125.7160, 181803.0
126.9430, 181190.0
128.1700, 180852.0
129.3970, 180261.0
130.6240, 179732.3
131.8500, 179232.0
133.0770, 178611.0
134.3030, 177862.0
135.5290, 177259.7
136.7550, 176455.0
137.9810, 175697.0
139.2070, 174634.0
140.4320, 173917.0
141.6580, 173038.0
142.8830, 171322.4
144.1080, 170492.0
145.3330, 167846.0
146.5580, 166101.0
147.7830, 164573.0
149.0070, 162404.7
150.2320, 161134.0
151.4560, 158849.0
152.6800, 157527.0
153.9040, 156064.0
155.1280, 154545.0
156.3520, 152830.0
157.5760, 151933.0
158.7990, 150068.0
160.0220, 147864.0
161.2450, 146689.0
162.4680, 145682.0
163.6910, 144473.0
164.9140, 143207.0
166.1370, 141864.0
167.3590, 140841.2
168.5810, 139682.0
169.8040, 138689.0
171.0260, 137595.0
172.2480, 136357.0
173.4690, 135193.8
174.6910, 134439.0
175.9120, 132778.0
177.1340, 131742.0
178.3550, 130771.0
179.5760, 129110.0
180.7970, 127621.0
182.0180, 125791.0
183.2380, 124082.0
184.4590, 122811.0
185.6790, 121820.0
186.8990, 119708.0
188.1190, 118291.0
189.3390, 117006.0
190.5590, 115229.0
191.7780, 113755.0
192.9980, 112135.0
194.2170, 110139.0
195.4360, 108397.0
196.6550, 106705.0
197.8740, 105282.0
199.0930, 103268.0
200.3120, 102225.0
201.5300, 100461.0
202.7480, 98693.00
203.9670, 97621.00
205.1850, 95498.00
206.4020, 94235.00
207.6200, 93233.00
208.8380, 91740.00
210.0550, 90218.00
211.2730, 89135.00
212.4900, 87929.00
213.7070, 86457.00
214.9240, 85775.00
216.1400, 84649.00
217.3570, 83207.00
218.5730, 82400.00
219.7900, 81695.00
221.0060, 80857.00
222.2220, 79874.43
223.4380, 78936.71
224.6540, 77984.00
225.8690, 77185.00
227.0850, 76635.00
228.3000, 76539.00
229.5150, 75285.00
230.7300, 75283.00
231.9450, 74013.00
233.1600, 73341.00
234.3740, 73220.00
235.5890, 72759.00
236.8030, 72231.00
238.0170, 71622.00
239.2310, 71730.00
240.4450, 71358.00
241.6590, 70926.00
242.8720, 71220.00
244.0860, 70244.00
245.2990, 70556.00
246.5120, 70281.00
247.7250, 69655.00
248.9380, 69929.00
250.1510, 70288.00
251.3630, 69530.00
252.5750, 69305.00
253.7880, 69435.00
255.0000, 69195.00
256.2120, 69380.00
257.4240, 68976.00
258.6350, 68997.00
259.8470, 68837.00
261.0580, 68399.00
262.2690, 68369.00
263.4810, 68382.00
264.6920, 68676.00
265.9020, 68027.00
267.1130, 68224.00
268.3240, 68101.00
269.5340, 68117.00
270.7440, 68198.00
271.9540, 68383.00
273.1640, 68343.00
274.3740, 68446.00
275.5840, 68946.00
276.7930, 69082.00
278.0020, 68831.00
279.2120, 68865.00
280.4210, 69319.00
281.6300, 69576.00
282.8380, 69861.00
284.0470, 70071.00
285.2550, 70492.00
286.4640, 70639.00
287.6720, 71021.88
288.8800, 71368.00
290.0880, 71696.00
291.2960, 72169.00
292.5030, 72474.00
293.7110, 73117.00
294.9180, 73200.00
296.1250, 73576.00
297.3320, 73675.73
298.5390, 74084.87
299.7460, 74408.73
300.9520, 74653.99
302.1590, 74460.87
303.3650, 74929.52
304.5710, 75191.35
305.7770, 75484.70
306.9830, 76165.84
308.1890, 76251.02
309.3940, 77009.70
310.6000, 77558.13
311.8050, 77920.00
313.0100, 78202.00
314.2150, 79267.00
315.4200, 79989.00
316.6240, 80923.00
317.8290, 81899.00
319.0330, 82786.00
320.2370, 83875.00
321.4410, 84890.00
322.6450, 86007.00
323.8490, 86987.00
325.0530, 88069.00
326.2560, 89044.00
327.4600, 89890.00
328.6630, 90593.00
329.8660, 91358.00
331.0690, 91810.00
332.2710, 92177.00
333.4740, 91918.00
334.6760, 92111.00
335.8790, 91689.00
337.0810, 91425.00
338.2830, 91025.00
339.4850, 89877.00
340.6860, 88711.00
341.8880, 87935.00
343.0890, 86939.00
344.2910, 85504.00
345.4920, 84009.00
346.6930, 82947.00
347.8940, 81274.00
349.0940, 80554.00
350.2950, 79293.00
351.4950, 78171.00
352.6950, 77143.00
353.8950, 75507.00
355.0950, 74325.00
356.2950, 73196.00
357.4950, 72162.00
358.6940, 71720.00
359.8940, 70546.00
361.0930, 69555.00
362.2920, 69050.00
363.4910, 68969.00
364.6890, 68032.00
365.8880, 67834.00
367.0860, 67329.00
368.2850, 66714.00
369.4830, 66208.00
370.6810, 66031.00
371.8790, 66100.00
373.0760, 65656.00
374.2740, 65587.00
375.4710, 65470.00
376.6690, 64940.00
377.8660, 65006.00
379.0630, 64781.00
380.2590, 64682.00
381.4560, 64986.00
382.6530, 64797.00
383.8490, 64874.00
385.0450, 65004.00
386.2410, 64827.00
387.4370, 65163.00
388.6330, 65083.65
389.8280, 65528.19
391.0240, 65845.80
392.2190, 66043.05
393.4140, 65759.98
394.6090, 66097.15
395.8040, 66185.75
396.9990, 66264.16
398.1930, 66688.50
399.3880, 66475.29
400.5820, 66894.13
401.7760, 67060.62
402.9700, 67342.62
404.1640, 67260.00
405.3580, 67495.00
406.5510, 67312.37
407.7440, 68266.05
408.9380, 69093.25
410.1310, 69799.67
411.3240, 70025.76
412.5160, 70871.52
413.7090, 71469.30
414.9010, 72056.32
416.0940, 72989.95
417.2860, 73738.00
418.4780, 75305.00
419.6700, 76363.00
420.8610, 77946.00
422.0530, 79458.02
423.2440, 81161.00
424.4360, 82854.00
425.6270, 85173.00
426.8180, 87377.00
428.0080, 90262.00
429.1990, 93080.00
430.3890, 96247.00
431.5800, 98996.00
432.7700, 103044.0
433.9600, 107222.0
435.1500, 111544.0
436.3400, 116682.0
437.5290, 121921.0
438.7190, 126940.0
439.9080, 132627.0
441.0970, 138944.0
442.2860, 145162.0
443.4750, 151773.0
444.6640, 158703.0
445.8520, 165765.0
447.0400, 172814.0
448.2290, 180031.0
449.4170, 187268.0
450.6050, 193861.0
451.7920, 201056.0
452.9800, 207087.0
454.1670, 212212.0
455.3550, 217162.0
456.5420, 220608.0
457.7290, 224347.3
458.9160, 227793.0
460.1030, 229595.0
461.2890, 231403.0
462.4750, 232441.0
463.6620, 233566.0
464.8480, 234140.0
466.0340, 234997.0
467.2200, 235498.0
468.4050, 237411.0
469.5910, 238946.0
470.7760, 241103.0
471.9610, 243977.0
473.1460, 246275.0
474.3310, 248561.0
475.5160, 252185.0
476.7000, 255178.0
477.8850, 256970.0
479.0690, 259048.0
480.2530, 258750.0
481.4370, 258562.0
482.6210, 256596.0
483.8050, 251923.0
484.9880, 247371.0
486.1710, 240505.0
487.3550, 232183.0
488.5380, 224206.0
489.7210, 214987.0
490.9030, 205335.0
492.0860, 196513.0
493.2680, 188042.0
494.4510, 175305.0
495.6330, 165456.0
496.8150, 156712.0
497.9970, 147988.0
499.1780, 140173.0
500.3600, 132606.0
501.5410, 125609.9
502.7220, 119006.0
503.9030, 113158.0
505.0840, 107753.0
506.2650, 102783.1
507.4460, 98142.70
508.6260, 93932.00
509.8060, 89923.00
510.9870, 86617.00
512.1670, 83121.00
513.3460, 80461.00
514.5260, 77813.00
515.7060, 75371.00
516.8850, 73145.00
518.0640, 71306.00
519.2430, 69788.00
520.4220, 67894.00
521.6010, 66431.00
522.7790, 64859.00
523.9580, 63789.00
525.1360, 62896.00
526.3140, 61463.00
527.4920, 60770.00
528.6700, 59635.00
529.8480, 59070.00
531.0250, 58464.00
532.2030, 57694.00
533.3800, 57203.00
534.5570, 56464.00
535.7340, 55655.00
536.9110, 54948.00
538.0870, 54656.00
539.2640, 54065.82
540.4400, 53674.00
541.6160, 53408.00
542.7920, 52827.00
543.9680, 52734.00
545.1440, 52427.00
546.3190, 51895.00
547.4940, 51224.00
548.6700, 50861.00
549.8450, 50633.00
551.0200, 50000.00
552.1940, 49800.00
553.3690, 49562.00
554.5430, 49299.00
555.7180, 48836.00
556.8920, 48483.00
558.0660, 48384.00
559.2400, 47833.00
560.4130, 47906.77
561.5870, 47682.71
562.7600, 47781.00
563.9330, 47405.00
565.1060, 46984.00
566.2790, 46661.00
567.4520, 46644.50
568.6250, 46675.42
569.7970, 46648.02
570.9690, 46565.36
572.1410, 46261.88
573.3130, 46243.53
574.4850, 46110.91
575.6570, 45973.61
576.8280, 45995.48
578.0000, 45724.11
579.1710, 45743.46
580.3420, 45646.80
581.5130, 45603.23
582.6830, 45444.78
583.8540, 45321.74
585.0240, 45313.81
586.1940, 45242.20
587.3650, 45033.00
588.5340, 44641.00
589.7040, 44904.00
590.8740, 44516.00
592.0430, 44467.00
593.2130, 43876.00
594.3820, 44088.00
595.5510, 43867.00
596.7200, 43810.00
597.8880, 43729.00
599.0570, 43306.00
600.2250, 43179.00
601.3930, 43051.00
602.5610, 42947.00
603.7290, 42880.07
604.8970, 42761.00
606.0650, 42637.22
607.2320, 42563.00
608.3990, 42366.00
609.5670, 42179.00
610.7330, 42049.00
611.9000, 42016.00
613.0670, 41936.00
614.2330, 41796.00
615.4000, 41923.00
616.5660, 41573.00
617.7320, 41829.00
618.8980, 42081.00
620.0640, 41912.00
621.2290, 41534.00
622.3950, 41697.00
623.5600, 41953.00
624.7250, 41641.00
625.8900, 41990.00
627.0550, 41945.00
628.2190, 42135.00
629.3840, 41878.00
630.5480, 41958.00
631.7120, 41969.00
632.8760, 41732.00
634.0400, 41511.00
635.2040, 41533.00
636.3670, 41480.55
637.5300, 41762.00
638.6940, 41717.00
639.8570, 41944.36
641.0190, 42308.00
642.1820, 42349.00
643.3450, 41802.00
644.5070, 42144.00
645.6690, 42130.00
646.8320, 42323.00
647.9930, 42247.00
649.1550, 42077.00
650.3170, 42429.00
651.4780, 42279.00
652.6400, 42507.00
653.8010, 42373.00
654.9620, 42137.00
656.1230, 41944.00
657.2830, 41980.00
658.4440, 41860.00
659.6040, 41362.00
660.7640, 41429.00
661.9240, 41360.00
663.0840, 41162.00
664.2440, 40656.00
665.4040, 40292.00
666.5630, 40189.00
667.7220, 40462.00
668.8810, 39966.00
670.0400, 39926.00
671.1990, 39751.00
672.3580, 39400.00
673.5160, 39643.00
674.6750, 39505.00
675.8330, 39403.00
676.9910, 39026.57
678.1480, 39259.22
679.3060, 39375.03
680.4640, 39380.29
681.6210, 38943.96
682.7780, 39077.90
683.9350, 38983.30
685.0920, 38879.33
686.2490, 39093.52
687.4050, 38721.46
688.5620, 38930.61
689.7180, 38907.77
690.8740, 38991.11
692.0300, 38844.52
693.1860, 38768.94
694.3410, 38923.41
695.4970, 38741.00
696.6520, 38893.00
697.8070, 39038.00
698.9620, 39161.00
700.1170, 39210.82
701.2720, 39160.00
702.4260, 39249.00
703.5810, 39349.00
704.7350, 39339.00
705.8890, 39521.00
707.0430, 39472.00
708.1960, 39527.89
709.3500, 39579.61
710.5030, 39495.12
711.6570, 39624.46
712.8100, 39692.25
713.9630, 39701.63
715.1150, 39487.06
716.2680, 39554.47
717.4200, 39504.49
718.5730, 39446.66
719.7250, 39544.79
720.8770, 39346.64
722.0280, 39436.00
723.1800, 39165.00
724.3310, 38893.00
725.4830, 39090.00
726.6340, 39095.00
727.7850, 39089.00
728.9360, 38732.00
730.0860, 38828.00
731.2370, 39208.00
732.3870, 38661.00
733.5370, 38553.00
734.6880, 38804.00
735.8370, 38615.00
736.9870, 38479.00
738.1370, 38291.00
739.2860, 38389.00
740.4350, 38338.81
741.5840, 38590.00
742.7330, 38446.00
743.8820, 38617.00
745.0310, 38671.00
746.1790, 38738.56
747.3270, 38861.18
748.4750, 38849.00
749.6230, 39189.00
750.7710, 39002.00
751.9190, 39427.00
753.0660, 39409.00
754.2140, 39917.00
755.3610, 39957.00
756.5080, 40006.00
757.6540, 40225.00
758.8010, 40125.00
759.9480, 40422.00
761.0940, 40452.00
762.2400, 40802.00
763.3860, 40875.00
764.5320, 40864.00
765.6780, 40980.00
766.8230, 40862.00
767.9690, 40947.00
769.1140, 40831.00
770.2590, 41011.00
771.4040, 40699.27
772.5490, 40437.00
773.6930, 40368.00
774.8380, 40004.00
775.9820, 40382.00
777.1260, 40264.00
778.2700, 40048.00
779.4140, 39743.00
780.5570, 39870.00
781.7010, 39639.00
782.8440, 39664.00
783.9870, 39554.00
785.1300, 39653.00
786.2730, 39504.71
787.4150, 39343.00
788.5580, 39296.00
789.7000, 39258.00
790.8420, 39231.00
791.9840, 38959.00
793.1260, 38892.00
794.2680, 38586.00
795.4090, 38178.00
796.5510, 37828.00
797.6920, 37166.00
798.8330, 36860.37
799.9740, 36355.00
801.1150, 36039.00
802.2550, 35549.00
803.3950, 35068.00
804.5360, 34836.00
805.6760, 34520.00
806.8160, 33859.00
807.9550, 33679.00
809.0950, 33458.00
810.2340, 32795.00
811.3740, 32601.00
812.5130, 32412.00
813.6520, 32184.00
814.7900, 32229.00
815.9290, 31669.00
817.0670, 31681.00
818.2060, 31584.00
819.3440, 31082.00
820.4820, 31373.00
821.6190, 31170.00
822.7570, 30873.00
823.8950, 31042.00
825.0320, 30958.00
826.1690, 31158.00
827.3060, 30640.00
828.4430, 30448.00
829.5790, 30274.00
830.7160, 30493.00
831.8520, 30211.00
832.9880, 30185.00
834.1240, 30174.00
835.2600, 29794.00
836.3960, 30262.00
837.5310, 30069.00
838.6670, 30005.00
839.8020, 29895.00
840.9370, 29864.95
842.0720, 29786.00
843.2060, 29896.00
844.3410, 29884.00
845.4750, 29964.00
846.6100, 30003.00
847.7440, 29624.00
848.8770, 29603.00
850.0110, 29666.00
851.1450, 29741.00
852.2780, 29827.00
853.4110, 29670.00
854.5440, 29765.00
855.6770, 29820.00
856.8100, 29920.00
857.9430, 29968.77
859.0750, 29850.00
860.2070, 29927.00
861.3390, 29814.00
862.4710, 29470.08
863.6030, 29564.44
864.7350, 29504.51
865.8660, 29559.00
866.9970, 29575.00
868.1280, 29685.00
869.2590, 29613.00
870.3900, 29770.00
871.5210, 29665.00
872.6510, 29390.00
873.7820, 29261.00
874.9120, 29562.00
876.0420, 29363.00
877.1710, 29338.71
878.3010, 29596.00
879.4300, 29129.00
880.5600, 29390.00
881.6890, 29326.00
882.8180, 29305.00
883.9470, 29237.00
885.0750, 29139.00
886.2040, 29230.00
887.3320, 29086.00
888.4600, 29065.00
889.5880, 29154.00
890.7160, 29054.00
891.8440, 29171.00
892.9710, 28965.00
894.0990, 29149.00
895.2260, 29116.00
896.3530, 29191.00
897.4800, 29030.00
898.6060, 29132.00
899.7330, 29207.00
900.8590, 28946.00
901.9850, 29054.00
903.1110, 29003.00
904.2370, 28988.00
905.3630, 29008.91
906.4890, 28987.00
907.6140, 29013.00
908.7390, 29191.00
909.8640, 29259.00
910.9890, 29323.00
912.1140, 29370.00
913.2380, 29172.00
914.3630, 29230.49
915.4870, 29294.00
916.6110, 29150.00
917.7350, 29214.00
918.8580, 29165.68
919.9820, 29446.00
921.1050, 29413.00
922.2290, 29580.00
923.3520, 29832.00
924.4750, 29602.00
925.5970, 29642.00
926.7200, 29442.00
927.8420, 29460.00
928.9640, 29479.00
930.0870, 29721.00
931.2080, 29762.00
932.3300, 29778.00
933.4520, 29547.00
934.5730, 29983.00
935.6940, 29621.00
936.8150, 29946.00
937.9360, 29934.00
939.0570, 30059.00
940.1780, 29981.00
941.2980, 30068.00
942.4180, 30109.00
943.5380, 30205.00
944.6580, 30321.00
945.7780, 30573.00
946.8980, 30422.00
948.0170, 30579.00
949.1360, 30812.00
950.2560, 30851.00
951.3740, 30841.00
952.4930, 31119.00
953.6120, 31216.30
954.7300, 31197.00
955.8480, 31445.00
956.9670, 31662.00
958.0850, 31717.29
959.2020, 31765.00
960.3200, 31958.00
961.4370, 32162.00
962.5550, 32341.00
963.6720, 32434.27
964.7890, 32628.00
965.9050, 32642.00
967.0220, 32845.00
968.1380, 33089.00
969.2550, 32979.00
970.3710, 33150.00
971.4870, 33279.00
972.6030, 33576.00
973.7180, 33501.00
974.8340, 33983.00
975.9490, 34008.00
977.0640, 34075.00
978.1790, 34210.00
979.2940, 34290.85
980.4080, 34475.00
981.5230, 34627.00
982.6370, 35041.00
983.7510, 35432.00
984.8650, 35700.00
985.9790, 36321.00
987.0920, 36233.20
988.2060, 36516.00
989.3190, 36307.00
990.4320, 36763.00
991.5450, 37185.00
992.6580, 37568.00
993.7710, 37840.00
994.8830, 37761.00
995.9950, 38208.00
997.1080, 38521.00
998.2190, 38636.00
999.3310, 39174.00
1000.443, 39381.00
1001.554, 39734.00
1002.666, 40230.00
1003.777, 40786.00
1004.888, 40821.00
1005.998, 40680.00
1007.109, 40506.00
1008.219, 40713.00
1009.330, 40975.00
1010.440, 40750.00
1011.550, 40970.00
1012.660, 41248.00
1013.769, 41511.00
1014.879, 41648.00
1015.988, 41696.00
1017.097, 41784.00
1018.206, 42103.00
1019.315, 42060.00
1020.423, 42518.00
1021.532, 42362.00
1022.640, 42828.00
1023.748, 42775.00
1024.856, 43021.00
1025.964, 43141.00
1027.072, 43329.00
1028.179, 43488.00
1029.286, 43452.00
1030.393, 43331.00
1031.500, 43190.00
1032.607, 43246.00
1033.714, 43544.00
1034.820, 43356.00
1035.926, 43657.00
1037.032, 43553.00
1038.138, 43661.00
1039.244, 43730.00
1040.350, 43655.00
1041.455, 43707.00
1042.560, 43753.00
1043.665, 43918.00
1044.770, 44145.42
1045.875, 44316.09
1046.980, 44546.08
1048.084, 44848.00
1049.188, 45063.56
1050.292, 45263.62
1051.396, 45642.31
1052.500, 45978.58
1053.604, 46275.57
1054.707, 46367.48
1055.810, 46760.48
1056.913, 47055.14
1058.016, 47361.12
1059.119, 47842.14
1060.222, 48045.98
1061.324, 48556.02
1062.426, 48966.02
1063.528, 49445.01
1064.630, 49852.44
1065.732, 50073.32
1066.834, 50588.26
1067.935, 51047.59
1069.036, 51286.05
1070.137, 51809.65
1071.238, 52219.03
1072.339, 52623.67
1073.439, 53187.01
1074.540, 53457.64
1075.640, 54018.46
1076.740, 54463.26
1077.840, 54907.00
1078.940, 55152.00
1080.039, 55445.00
1081.138, 55725.00
1082.238, 56027.00
1083.337, 56444.00
1084.436, 56619.00
1085.534, 57105.00
1086.633, 56817.00
1087.731, 57024.00
1088.829, 57037.00
1089.927, 57531.00
1091.025, 57379.00
1092.123, 57684.00
1093.220, 57788.00
1094.318, 57588.00
1095.415, 57597.00
1096.512, 57668.00
1097.609, 57411.00
1098.705, 57587.00
1099.802, 57595.00
1100.898, 57301.00
1101.994, 57344.00
1103.090, 57223.00
1104.186, 57040.47
1105.282, 56771.00
1106.377, 56749.00
1107.473, 56473.00
1108.568, 56375.89
1109.663, 56290.33
1110.758, 56284.00
1111.852, 56115.00
1112.947, 55798.00
1114.041, 55657.00
1115.135, 55311.57
1116.229, 55073.00
1117.323, 54643.00
1118.417, 54249.00
1119.510, 53905.00
1120.603, 53614.00
1121.696, 53289.00
1122.789, 53290.00
1123.882, 52892.00
1124.975, 53044.00
1126.067, 52154.00
1127.159, 52028.00
1128.251, 51776.00
1129.343, 51731.00
1130.435, 51207.00
1131.527, 50741.00
1132.618, 50749.00
1133.709, 49849.00
1134.800, 50091.00
1135.891, 49538.00
1136.982, 49385.00
1138.073, 48819.00
1139.163, 48317.00
1140.253, 47904.00
1141.343, 47652.00
1142.433, 47253.00
1143.523, 46913.00
1144.612, 46302.00
1145.702, 45996.00
1146.791, 45625.00
1147.880, 45162.00
1148.969, 44833.00
1150.058, 44357.00
1151.146, 44172.00
1152.235, 43560.00
1153.323, 43183.00
1154.411, 42792.00
1155.499, 42168.00
1156.586, 42098.00
1157.674, 41477.00
1158.761, 41558.00
1159.848, 40714.00
1160.935, 40363.00
1162.022, 39752.00
1163.109, 39440.00
1164.195, 39430.00
1165.281, 39570.00
1166.368, 38953.00
1167.454, 38096.00
1168.539, 37552.00
1169.625, 37518.00
1170.710, 37047.00
1171.796, 36646.00
1172.881, 36376.00
1173.966, 36002.00
1175.051, 35734.00
1176.135, 35374.00
1177.220, 35263.00
1178.304, 34811.00
1179.388, 34619.00
1180.472, 34026.00
1181.556, 34331.00
1182.639, 33747.43
1183.723, 33593.00
1184.806, 33175.00
1185.889, 32668.00
1186.972, 32789.00
1188.055, 32562.00
1189.137, 32222.00
1190.219, 32726.00
1191.302, 31803.00
1192.384, 31760.00
1193.466, 31856.00
1194.547, 31059.00
1195.629, 31007.00
1196.710, 31036.00
1197.791, 31008.00
1198.872, 30899.76
1199.953, 30423.00
1201.034, 30649.00
1202.114, 30301.00
1203.195, 30132.00
1204.275, 30359.00
1205.355, 29929.00
1206.435, 30032.00
1207.514, 29828.00
1208.594, 30076.00
1209.673, 29919.00
1210.752, 29830.00
1211.831, 29769.00
1212.910, 29685.08
1213.989, 29659.56
1215.067, 29596.00
1216.145, 29607.00
1217.223, 29592.00
1218.301, 29540.00
1219.379, 29588.00
1220.457, 29550.05
1221.534, 29528.91
1222.611, 29528.00
1223.688, 29422.00
1224.765, 29405.00
1225.842, 29396.45
1226.918, 29252.56
1227.995, 29319.81
1229.071, 29331.79
1230.147, 29122.97
1231.223, 29199.27
1232.299, 29161.31
1233.374, 29118.67
1234.449, 29235.11
1235.525, 29058.40
1236.600, 29172.32
1237.674, 29170.24
1238.749, 29221.24
1239.824, 29157.27
1240.898, 29128.82
1241.972, 29215.38
1243.046, 29238.26
1244.120, 29161.06
1245.193, 29215.46
1246.267, 29034.74
1247.340, 29060.34
1248.413, 29174.95
