##NAMES=Chabazite-Ca
##RRUFFID=R050014
##IDEAL CHEMISTRY=Ca_2_Al_4_Si_8_O_24_&#183;13H_2_O
##LOCALITY=Tablo Mountain, Baja California, Mexico
##OWNER=RRUFF
##SOURCE=University of Arizona Mineral Museum
##DESCRIPTION=Light tan colored rhombohedral single crystals
##STATUS=The identification of this mineral has been confirmed by X-ray diffraction and chemical analysis
##URL=rruff.info/R050014
##MEASURED CHEMISTRY=(Ca_0.72_Mg_0.11_K_0.09_Sr_0.06_Na_0.01_)_Σ=1_(Si_4.12_Al_1.88_)O_12_·6H_2_O
##PIN_ID=M00165
##ORIENTATION=Laser parallel to (-1 -1 -1). Fiducial mark perpendicular to laser is parallel to [-1 1 0]
105.8150, 35209.00
107.0470, 36363.00
108.2800, 37189.00
109.5120, 36982.00
110.7440, 36279.00
111.9760, 36464.00
113.2080, 36615.00
114.4400, 37279.00
115.6710, 37490.00
116.9030, 37556.00
118.1340, 37521.00
119.3650, 37506.00
120.5960, 37520.00
121.8270, 37707.18
123.0580, 38162.00
124.2880, 38209.00
125.5190, 38491.00
126.7490, 38835.00
127.9790, 38824.00
129.2090, 39130.00
130.4390, 39318.00
131.6680, 39848.00
132.8980, 39933.00
134.1270, 40398.00
135.3560, 40690.00
136.5850, 41262.00
137.8140, 42121.00
139.0430, 42743.00
140.2710, 43797.00
141.5000, 44452.00
142.7280, 45347.00
143.9560, 45581.00
145.1840, 45132.00
146.4120, 43860.00
147.6390, 42597.00
148.8670, 41332.00
150.0940, 40245.00
151.3210, 39446.00
152.5490, 38865.00
153.7750, 38544.00
155.0020, 37977.00
156.2290, 37572.00
157.4550, 37225.00
158.6810, 36763.00
159.9080, 36499.00
161.1340, 36446.00
162.3590, 36423.00
163.5850, 36162.00
164.8110, 35979.00
166.0360, 35770.00
167.2610, 35765.00
168.4860, 35544.00
169.7110, 35373.00
170.9360, 35018.00
172.1610, 34929.00
173.3850, 34695.00
174.6100, 34616.00
175.8340, 34558.00
177.0580, 34223.00
178.2820, 34225.00
179.5050, 34002.00
180.7290, 33808.00
181.9520, 33533.00
183.1760, 33251.00
184.3990, 32983.00
185.6220, 33010.00
186.8450, 32795.00
188.0670, 32461.00
189.2900, 32461.00
190.5120, 31980.00
191.7340, 32224.00
192.9560, 31744.00
194.1780, 31547.00
195.4000, 31466.00
196.6220, 31344.00
197.8430, 31176.00
199.0640, 31153.00
200.2860, 30745.00
201.5070, 30542.00
202.7270, 30414.00
203.9480, 29751.00
205.1690, 29574.00
206.3890, 29302.00
207.6090, 28786.00
208.8290, 28822.00
210.0490, 28748.00
211.2690, 28484.00
212.4890, 28256.00
213.7080, 28427.00
214.9280, 28103.00
216.1470, 27972.00
217.3660, 27864.00
218.5850, 27641.00
219.8030, 27430.00
221.0220, 27541.00
222.2400, 27136.00
223.4590, 27250.00
224.6770, 27263.00
225.8950, 27055.00
227.1120, 26833.00
228.3300, 26860.00
229.5480, 26608.00
230.7650, 26439.00
231.9820, 26670.00
233.1990, 26415.00
234.4160, 26354.00
235.6330, 26191.00
236.8490, 26395.00
238.0660, 26037.00
239.2820, 26347.00
240.4980, 26180.00
241.7140, 26164.00
242.9300, 26493.00
244.1460, 26095.00
245.3610, 26127.00
246.5770, 25990.00
247.7920, 26074.00
249.0070, 26155.00
250.2220, 26048.00
251.4370, 26212.00
252.6510, 26007.00
253.8660, 25958.00
255.0800, 26055.00
256.2940, 26065.00
257.5080, 26454.00
258.7220, 26783.00
259.9360, 26486.45
261.1490, 26372.00
262.3630, 25979.00
263.5760, 26194.00
264.7890, 26091.00
266.0020, 26118.00
267.2150, 26399.00
268.4270, 26436.00
269.6400, 26285.00
270.8520, 26382.00
272.0640, 26477.00
273.2760, 26472.00
274.4880, 26517.51
275.7000, 26521.00
276.9120, 26553.00
278.1230, 26650.00
279.3340, 26745.00
280.5450, 26902.00
281.7560, 26971.00
282.9670, 27097.00
284.1780, 27151.00
285.3880, 27061.00
286.5980, 27271.00
287.8090, 27334.00
289.0190, 27184.00
290.2290, 27461.00
291.4380, 27371.00
292.6480, 27624.00
293.8570, 27504.00
295.0670, 27630.00
296.2760, 27767.00
297.4850, 27767.00
298.6930, 27683.00
299.9020, 27967.00
301.1110, 27820.00
302.3190, 27847.00
303.5270, 27871.00
304.7350, 27955.00
305.9430, 28074.00
307.1510, 28192.00
308.3580, 28221.00
309.5660, 28197.00
310.7730, 28591.00
311.9800, 28600.00
313.1870, 28777.00
314.3940, 29019.00
315.6010, 29132.00
316.8070, 29214.00
318.0130, 29486.00
319.2200, 29502.00
320.4260, 29840.00
321.6310, 29963.00
322.8370, 29947.00
324.0430, 30138.00
325.2480, 30056.00
326.4540, 30213.00
327.6590, 30245.00
328.8640, 30146.00
330.0680, 30512.00
331.2730, 30153.00
332.4780, 30306.00
333.6820, 30056.00
334.8860, 30126.00
336.0900, 29872.00
337.2940, 29925.00
338.4980, 29626.00
339.7010, 29683.00
340.9050, 29432.00
342.1080, 29321.00
343.3110, 29410.00
344.5140, 29061.00
345.7170, 29051.00
346.9200, 28987.00
348.1220, 29033.00
349.3240, 28940.50
350.5270, 28716.00
351.7290, 28720.00
352.9310, 28565.00
354.1320, 28290.00
355.3340, 28413.00
356.5350, 28438.00
357.7370, 28290.00
358.9380, 28358.34
360.1390, 28190.00
361.3400, 28245.00
362.5400, 28193.00
363.7410, 27989.00
364.9410, 28206.00
366.1410, 28031.00
367.3410, 28192.00
368.5410, 28155.00
369.7410, 28148.00
370.9400, 28053.00
372.1400, 28092.30
373.3390, 28025.00
374.5380, 28174.00
375.7370, 28268.00
376.9360, 28393.00
378.1350, 28268.00
379.3330, 28300.00
380.5310, 28245.00
381.7300, 28277.46
382.9280, 28439.00
384.1260, 28458.00
385.3230, 28614.00
386.5210, 28874.00
387.7180, 28733.00
388.9160, 29042.00
390.1130, 29042.00
391.3100, 28890.00
392.5060, 29120.00
393.7030, 29054.00
394.9000, 29158.00
396.0960, 29166.00
397.2920, 29178.00
398.4880, 29438.00
399.6840, 29499.00
400.8800, 29330.00
402.0750, 29666.00
403.2710, 29364.00
404.4660, 29544.00
405.6610, 29393.00
406.8560, 29540.00
408.0510, 29614.00
409.2450, 29770.00
410.4400, 29857.00
411.6340, 30051.00
412.8280, 29997.00
414.0220, 30151.00
415.2160, 30235.00
416.4100, 30399.53
417.6030, 30625.14
418.7970, 30844.00
419.9900, 31129.00
421.1830, 31413.00
422.3760, 31676.00
423.5690, 31885.00
424.7610, 32262.00
425.9540, 32688.00
427.1460, 33091.00
428.3380, 33155.00
429.5300, 33690.00
430.7220, 34123.00
431.9140, 34805.00
433.1050, 35244.00
434.2970, 36015.00
435.4880, 36382.00
436.6790, 37066.00
437.8700, 37751.00
439.0610, 38452.00
440.2510, 39157.17
441.4420, 39862.56
442.6320, 40582.00
443.8220, 41324.00
445.0120, 42032.00
446.2020, 42839.00
447.3910, 43777.00
448.5810, 44190.00
449.7700, 44811.00
450.9600, 45584.00
452.1490, 45997.00
453.3370, 46572.00
454.5260, 46947.00
455.7150, 47438.00
456.9030, 47766.50
458.0910, 48430.00
459.2800, 48445.00
460.4670, 48565.00
461.6550, 49062.00
462.8430, 49411.00
464.0300, 49497.00
465.2180, 50044.00
466.4050, 50535.00
467.5920, 50667.00
468.7790, 51534.00
469.9650, 51840.00
471.1520, 52585.00
472.3380, 53101.00
473.5250, 53503.00
474.7110, 54136.00
475.8970, 54585.00
477.0820, 54697.00
478.2680, 54588.00
479.4540, 54362.00
480.6390, 54133.00
481.8240, 53823.00
483.0090, 53045.00
484.1940, 52383.00
485.3780, 51281.00
486.5630, 49894.00
487.7470, 48528.00
488.9320, 47176.00
490.1160, 46016.00
491.3000, 44852.50
492.4830, 44096.00
493.6670, 42641.00
494.8500, 41648.00
496.0340, 40369.00
497.2170, 39856.00
498.4000, 38589.00
499.5820, 38092.00
500.7650, 37049.00
501.9480, 36755.00
503.1300, 35979.00
504.3120, 35581.00
505.4940, 35155.00
506.6760, 34602.00
507.8580, 34288.00
509.0390, 33935.00
510.2210, 33421.00
511.4020, 33473.00
512.5830, 32988.00
513.7640, 32776.00
514.9450, 32257.00
516.1250, 32199.00
517.3060, 31833.00
518.4860, 31882.00
519.6660, 31988.00
520.8460, 31542.00
522.0260, 31272.00
523.2060, 31185.00
524.3850, 31221.00
525.5650, 31154.00
526.7440, 30984.00
527.9230, 30983.00
529.1020, 30839.00
530.2810, 30742.00
531.4590, 30807.00
532.6380, 30624.00
533.8160, 30543.00
534.9940, 30665.00
536.1720, 30615.00
537.3500, 30513.00
538.5270, 30460.00
539.7050, 30395.00
540.8820, 30401.00
542.0590, 30297.00
543.2360, 30291.79
544.4130, 30353.00
545.5900, 30246.00
546.7660, 30420.00
547.9430, 30417.00
549.1190, 30121.00
550.2950, 30066.00
551.4710, 30190.00
552.6470, 29933.00
553.8220, 30136.00
554.9980, 30206.00
556.1730, 30068.00
557.3480, 30084.00
558.5230, 30205.00
559.6980, 30058.00
560.8730, 30123.00
562.0470, 30018.00
563.2220, 30005.00
564.3960, 30361.00
565.5700, 30110.00
566.7440, 30315.00
567.9170, 30045.00
569.0910, 30166.80
570.2640, 30217.72
571.4380, 30241.00
572.6110, 30421.00
573.7840, 30250.00
574.9570, 30431.00
576.1290, 30482.00
577.3020, 30318.00
578.4740, 30236.00
579.6460, 30323.00
580.8180, 30288.00
581.9900, 30483.00
583.1620, 30616.00
584.3330, 30603.00
585.5040, 30341.00
586.6760, 30293.00
587.8470, 30272.00
589.0180, 30482.00
590.1880, 30356.00
591.3590, 30558.00
592.5290, 30596.00
593.7000, 30465.00
594.8700, 30526.00
596.0400, 30550.00
597.2090, 30600.00
598.3790, 30553.00
599.5490, 30517.00
600.7180, 30551.60
601.8870, 30553.00
603.0560, 30544.00
604.2250, 30543.00
605.3940, 30450.00
606.5620, 30468.00
607.7300, 30673.00
608.8990, 30647.00
610.0670, 30617.00
611.2350, 30550.00
612.4020, 30669.42
613.5700, 30672.84
614.7370, 30954.00
615.9050, 30787.00
617.0720, 30986.00
618.2390, 31003.00
619.4060, 30974.00
620.5720, 31063.00
621.7390, 30931.00
622.9050, 31251.00
624.0710, 31211.00
625.2370, 31616.00
626.4030, 31436.00
627.5690, 31717.00
628.7340, 31654.00
629.9000, 31697.00
631.0650, 31846.00
632.2300, 31948.00
633.3950, 31982.00
634.5600, 32056.79
635.7240, 31894.00
636.8890, 32121.00
638.0530, 31999.00
639.2170, 32025.00
640.3810, 32116.00
641.5450, 32076.00
642.7080, 32097.00
643.8720, 32128.00
645.0350, 32070.00
646.1980, 31878.00
647.3610, 32136.00
648.5240, 31950.00
649.6870, 32073.00
650.8490, 32095.00
652.0120, 32118.00
653.1740, 31978.00
654.3360, 32072.00
655.4980, 31927.00
656.6600, 31858.00
657.8210, 32237.00
658.9830, 31834.00
660.1440, 32055.00
661.3050, 31803.00
662.4660, 32032.00
663.6270, 31938.00
664.7870, 31985.00
665.9480, 32114.00
667.1080, 32302.00
668.2680, 32160.00
669.4280, 31835.00
670.5880, 32031.00
671.7480, 32232.00
672.9070, 32001.00
674.0670, 32110.00
675.2260, 32148.00
676.3850, 32042.00
677.5440, 32449.00
678.7030, 32375.00
679.8610, 32216.00
681.0200, 32298.00
682.1780, 32024.00
683.3360, 32132.00
684.4940, 32242.00
685.6520, 32121.00
686.8090, 32241.00
687.9670, 32414.00
689.1240, 32529.00
690.2810, 32681.00
691.4380, 32285.00
692.5950, 32488.00
693.7520, 32300.00
694.9080, 32547.00
696.0650, 32821.00
697.2210, 32708.00
698.3770, 32669.00
699.5330, 32761.00
700.6880, 32631.00
701.8440, 32896.00
702.9990, 32937.00
704.1550, 32602.00
705.3100, 32940.00
706.4650, 32743.00
707.6190, 32861.63
708.7740, 32925.62
709.9290, 33048.00
711.0830, 33021.00
712.2370, 32999.00
713.3910, 33094.00
714.5450, 32865.00
715.6980, 32921.00
716.8520, 32920.00
718.0050, 33241.00
719.1580, 33160.00
720.3110, 33198.00
721.4640, 33264.00
722.6170, 33094.00
723.7700, 33288.00
724.9220, 33007.00
726.0740, 33468.00
727.2260, 33285.00
728.3780, 33112.00
729.5300, 33159.00
730.6810, 33419.00
731.8330, 33293.00
732.9840, 33305.00
734.1350, 33207.00
735.2860, 33519.00
736.4370, 33301.00
737.5880, 33275.00
738.7380, 33656.00
739.8880, 33367.00
741.0390, 33450.00
742.1890, 33411.00
743.3380, 33465.00
744.4880, 33454.00
745.6380, 33531.00
746.7870, 33452.00
747.9360, 33556.00
749.0850, 33714.00
750.2340, 33699.00
751.3830, 33630.00
752.5310, 33712.00
753.6800, 33641.00
754.8280, 33697.00
755.9760, 33884.00
757.1240, 33833.00
758.2720, 34149.00
759.4190, 34133.00
760.5670, 34082.00
761.7140, 34056.00
762.8610, 34056.00
764.0080, 34196.00
765.1550, 34141.00
766.3020, 34024.00
767.4480, 34313.00
768.5950, 34249.00
769.7410, 34241.00
770.8870, 34069.00
772.0330, 34504.00
773.1780, 34331.00
774.3240, 34392.00
775.4690, 34589.00
776.6140, 34415.00
777.7590, 34486.00
778.9040, 34804.00
780.0490, 34691.00
781.1940, 34707.00
782.3380, 34849.00
783.4820, 34595.00
784.6260, 34731.00
785.7700, 34719.07
786.9140, 34936.00
788.0580, 34774.00
789.2010, 34957.00
790.3450, 34982.00
791.4880, 35114.00
792.6310, 35044.00
793.7730, 34686.00
794.9160, 34959.00
796.0590, 34691.00
797.2010, 34814.00
798.3430, 34694.00
799.4850, 34728.00
800.6270, 34665.00
801.7690, 34803.00
802.9100, 34440.00
804.0520, 34558.00
805.1930, 34498.00
806.3340, 34683.00
807.4750, 34677.00
808.6160, 34504.00
809.7560, 34544.00
810.8970, 34658.00
812.0370, 34586.00
813.1770, 34743.00
814.3170, 34830.00
815.4570, 34479.00
816.5960, 34666.00
817.7360, 34284.00
818.8750, 34705.00
820.0140, 34821.00
821.1530, 34643.00
822.2920, 34544.00
823.4310, 34628.00
824.5690, 34633.00
825.7070, 34760.00
826.8460, 34648.00
827.9840, 34688.00
829.1220, 34860.00
830.2590, 34675.00
831.3970, 34780.00
832.5340, 34630.00
833.6710, 34818.00
834.8080, 34753.00
835.9450, 34689.00
837.0820, 35021.00
838.2190, 34880.00
839.3550, 35050.00
840.4910, 35058.00
841.6270, 35012.00
842.7630, 35186.00
843.8990, 35144.00
845.0350, 35167.00
846.1700, 35050.00
847.3060, 35246.00
848.4410, 35310.00
849.5760, 35137.00
850.7100, 35444.00
851.8450, 35516.00
852.9800, 35707.00
854.1140, 35746.09
855.2480, 35456.00
856.3820, 35652.00
857.5160, 35739.00
858.6500, 35495.00
859.7830, 35693.00
860.9170, 35561.00
862.0500, 35816.00
863.1830, 35665.00
864.3160, 35777.00
865.4480, 35761.00
866.5810, 35603.00
867.7130, 35690.00
868.8460, 35708.00
869.9780, 35859.00
871.1100, 36083.00
872.2410, 35672.00
873.3730, 36084.00
874.5050, 36057.00
875.6360, 35834.00
876.7670, 36253.00
877.8980, 35954.00
879.0290, 36367.00
880.1590, 35956.00
881.2900, 36274.00
882.4200, 36071.00
883.5500, 36295.00
884.6800, 36254.00
885.8100, 36313.00
886.9400, 36212.00
888.0690, 36268.00
889.1990, 36286.00
890.3280, 36351.00
891.4570, 36285.00
892.5860, 36454.00
893.7140, 36709.00
894.8430, 36558.00
895.9710, 36665.00
897.1000, 36650.00
898.2280, 36712.00
899.3560, 36723.71
900.4830, 36683.00
901.6110, 36705.00
902.7380, 36826.00
903.8660, 36774.00
904.9930, 36985.00
906.1200, 37158.00
907.2460, 37058.00
908.3730, 36994.00
909.5000, 37115.00
910.6260, 36964.00
911.7520, 36926.00
912.8780, 37118.00
914.0040, 37275.00
915.1290, 37209.00
916.2550, 37349.00
917.3800, 37206.00
918.5050, 37300.14
919.6300, 37358.86
920.7550, 37349.00
921.8800, 37495.00
923.0040, 37408.00
924.1290, 37421.00
925.2530, 37827.00
926.3770, 37583.00
927.5010, 37803.00
928.6250, 37736.00
929.7480, 37706.00
930.8720, 37580.00
931.9950, 37671.02
933.1180, 38098.00
934.2410, 37866.00
935.3640, 38046.00
936.4860, 38213.00
937.6090, 38058.00
938.7310, 38243.00
939.8530, 38314.00
940.9750, 38185.00
942.0970, 38224.00
943.2180, 38449.00
944.3400, 38473.00
945.4610, 38435.00
946.5820, 38823.00
947.7030, 38631.00
948.8240, 38823.00
949.9450, 38320.00
951.0650, 38828.00
952.1860, 38849.00
953.3060, 38904.69
954.4260, 39096.19
955.5460, 39171.00
956.6650, 39225.00
957.7850, 39255.00
958.9040, 39320.00
960.0230, 39220.00
961.1420, 39421.00
962.2610, 39437.00
963.3800, 39637.00
964.4990, 39577.00
965.6170, 39724.00
966.7350, 39732.00
967.8530, 39871.00
968.9710, 39925.00
970.0890, 39890.00
971.2070, 40091.00
972.3240, 40040.00
973.4410, 40093.00
974.5580, 39929.00
975.6750, 40442.00
976.7920, 40380.00
977.9090, 40691.00
979.0250, 40638.00
980.1410, 40635.00
981.2580, 41024.00
982.3740, 40689.00
983.4890, 40964.00
984.6050, 40861.00
985.7200, 41192.00
986.8360, 41413.00
987.9510, 41210.00
989.0660, 41307.00
990.1810, 41541.00
991.2950, 41455.00
992.4100, 41719.00
993.5240, 41452.00
994.6390, 41624.00
995.7530, 41722.00
996.8660, 41799.00
997.9800, 41871.59
999.0940, 41823.00
1000.207, 42002.00
1001.320, 42226.00
1002.433, 42428.00
1003.546, 42364.00
1004.659, 42402.00
1005.772, 42420.00
1006.884, 42347.36
1007.996, 42621.00
1009.108, 42326.00
1010.220, 42472.00
1011.332, 42690.00
1012.444, 42765.00
1013.555, 42794.00
1014.666, 42941.00
1015.777, 43015.00
1016.888, 42860.00
1017.999, 43013.00
1019.110, 42995.00
1020.220, 43159.00
1021.331, 43175.00
1022.441, 43436.00
1023.551, 43238.00
1024.661, 43232.00
1025.770, 43190.00
1026.880, 43488.00
1027.989, 43524.00
1029.098, 43619.00
1030.207, 43726.00
1031.316, 43588.00
1032.425, 43553.00
1033.533, 43839.00
1034.642, 43756.00
1035.750, 43474.00
1036.858, 44134.00
1037.966, 43893.00
1039.073, 43797.00
1040.181, 44100.00
1041.288, 43990.00
1042.396, 44200.00
1043.503, 44159.00
1044.610, 44185.00
1045.716, 44248.00
1046.823, 44251.00
1047.929, 44306.29
1049.036, 44244.00
1050.142, 44459.00
1051.248, 44492.00
1052.353, 44704.00
1053.459, 44874.00
1054.564, 44697.00
1055.670, 45032.00
1056.775, 44893.00
1057.880, 45326.00
1058.985, 45285.00
1060.089, 45142.00
1061.194, 45338.00
1062.298, 45436.00
1063.402, 45576.00
1064.506, 45490.00
1065.610, 45582.00
1066.713, 45889.00
1067.817, 45734.00
1068.920, 45809.00
1070.023, 45771.00
1071.126, 45841.00
1072.229, 46158.00
1073.332, 46025.00
1074.435, 46022.00
1075.537, 46326.00
1076.639, 46147.00
1077.741, 46363.00
1078.843, 46462.00
1079.945, 46443.00
1081.046, 46505.00
1082.148, 46255.32
1083.249, 46710.41
1084.350, 46970.24
1085.451, 47045.29
1086.551, 46382.14
1087.652, 46672.22
1088.752, 46580.29
1089.853, 46472.70
1090.953, 46896.94
1092.053, 46341.16
1093.152, 46756.96
1094.252, 46784.92
1095.351, 46989.00
1096.451, 46896.00
1097.550, 47008.00
1098.649, 46792.00
1099.748, 46889.37
1100.846, 46902.95
1101.945, 46967.00
1103.043, 46997.00
1104.141, 47019.00
1105.239, 47054.00
1106.337, 47018.00
1107.434, 47123.00
1108.532, 46990.00
1109.629, 46943.00
1110.726, 47006.00
1111.823, 47186.00
1112.920, 47340.00
1114.017, 47177.00
1115.113, 47888.00
1116.210, 47229.00
1117.306, 47633.00
1118.402, 47537.00
1119.498, 47218.00
1120.593, 47787.00
1121.689, 47522.00
1122.784, 47451.00
1123.879, 47732.00
1124.974, 47776.00
1126.069, 47406.00
1127.164, 47485.65
1128.259, 47638.97
1129.353, 47694.73
1130.447, 47658.11
1131.541, 47252.39
1132.635, 47323.27
1133.729, 47203.16
1134.822, 47075.27
1135.916, 47213.23
1137.009, 47408.00
1138.102, 47454.00
1139.195, 47257.00
1140.288, 47205.00
1141.380, 47341.00
1142.473, 47184.00
1143.565, 47306.30
1144.657, 47051.00
1145.749, 47340.00
1146.841, 47491.00
1147.932, 47266.00
1149.024, 47170.00
1150.115, 47059.00
1151.206, 47011.04
1152.297, 46979.00
1153.388, 47089.00
1154.479, 47039.00
1155.569, 47260.00
1156.659, 47295.00
1157.750, 47298.00
1158.839, 47376.00
1159.929, 46887.00
1161.019, 46916.00
1162.108, 46785.00
1163.198, 46842.00
1164.287, 46945.00
1165.376, 47136.00
1166.465, 47046.00
1167.553, 47072.00
1168.642, 47164.00
1169.730, 46998.00
1170.818, 46828.00
1171.906, 47076.00
1172.994, 46848.00
1174.082, 47122.00
1175.170, 47104.00
1176.257, 47352.00
1177.344, 46900.00
1178.431, 47096.00
1179.518, 46844.00
1180.605, 47017.00
1181.691, 47329.00
1182.778, 46852.00
1183.864, 47149.00
1184.950, 46828.00
1186.036, 47124.00
1187.122, 46899.00
1188.207, 47108.00
1189.292, 46914.00
1190.378, 47127.00
1191.463, 47232.00
1192.548, 47353.00
1193.632, 47229.00
1194.717, 47269.00
1195.801, 47324.00
1196.886, 47483.00
1197.970, 47388.00
1199.054, 47468.00
1200.137, 47368.00
1201.221, 47451.00
1202.305, 47432.00
1203.388, 47478.00
1204.471, 47575.00
1205.554, 47489.00
1206.637, 47564.00
1207.719, 47596.00
1208.802, 47806.00
1209.884, 47751.00
1210.966, 47786.00
1212.048, 47644.00
1213.130, 47749.00
1214.212, 47856.00
1215.293, 47938.00
1216.374, 47915.00
1217.456, 47800.00
1218.536, 47902.00
1219.617, 47840.61
1220.698, 48048.00
1221.778, 47912.00
1222.859, 48064.00
1223.939, 48287.00
1225.019, 48104.00
1226.099, 48313.64
1227.178, 48294.40
1228.258, 48213.02
1229.337, 48473.93
1230.417, 48637.25
1231.496, 48708.14
1232.574, 48409.90
1233.653, 48588.31
1234.732, 48575.72
1235.810, 48555.26
1236.888, 48800.71
1237.966, 48556.16
1239.044, 48797.39
1240.122, 48844.71
1241.199, 48980.75
1242.277, 48924.63
1243.354, 48927.84
1244.431, 49123.30
1245.508, 49212.31
1246.585, 49134.03
1247.661, 49275.67
1248.738, 49024.37
1249.814, 49117.87
1250.890, 49360.16
1251.966, 49291.52
1253.042, 49371.00
1254.117, 49184.00
1255.193, 49366.00
1256.268, 49098.00
1257.343, 49638.00
1258.418, 49665.00
1259.493, 49585.00
1260.567, 49438.00
1261.642, 49556.00
1262.716, 49792.00
1263.790, 49517.00
1264.864, 49450.00
1265.938, 50121.00
1267.011, 50115.00
1268.085, 50195.00
1269.158, 50062.00
1270.231, 49782.00
1271.304, 50125.00
1272.377, 49809.00
1273.450, 50109.00
1274.522, 49979.00
1275.594, 50189.00
1276.666, 50175.00
1277.738, 49980.00
1278.810, 50480.00
1279.882, 50280.00
1280.953, 50197.00
