##NAMES=Chabazite-Ca
##RRUFFID=R050075
##IDEAL CHEMISTRY=Ca_2_Al_4_Si_8_O_24_&#183;13H_2_O
##LOCALITY=Victoria, Australia
##OWNER=RRUFF
##SOURCE=Rock Currier
##DESCRIPTION=White pseudohexagonal crystals
##STATUS=The identification of this mineral has been confirmed by X-ray diffraction and chemical analysis
##URL=rruff.info/R050075
##MEASURED CHEMISTRY=(Ca_0.79_Na_0.22_K_0.14_)_Σ=1.15_(Si_4.08_Al_1.92_)O_12_·6H_2_O
##PIN_ID=M01326
##ORIENTATION=Laser parallel to (-1 1 0). Fiducial mark perpendicular to laser is parallel to [1 1 1]
65.41600, 69699.00
66.65000, 78971.00
67.88400, 89671.00
69.11700, 100057.0
70.35100, 110223.0
71.58400, 121641.0
72.81800, 133145.0
74.05100, 143836.0
75.28400, 152438.0
76.51700, 159804.0
77.74900, 167251.0
78.98200, 173436.0
80.21400, 179097.0
81.44700, 182802.0
82.67900, 186809.0
83.91100, 190259.0
85.14300, 193803.0
86.37400, 196332.0
87.60600, 198479.0
88.83700, 200353.0
90.06900, 199629.0
91.30000, 201328.0
92.53100, 202119.0
93.76200, 202864.0
94.99300, 204141.0
96.22300, 203408.0
97.45400, 203661.0
98.68400, 203721.0
99.91400, 202747.0
101.1440, 202902.0
102.3740, 202419.0
103.6040, 202500.0
104.8340, 201695.0
106.0630, 202092.0
107.2930, 201630.0
108.5220, 202195.0
109.7510, 202297.0
110.9800, 201256.0
112.2090, 200227.0
113.4370, 199613.0
114.6660, 200475.0
115.8940, 200270.0
117.1220, 200265.0
118.3510, 200595.0
119.5790, 199946.0
120.8060, 199303.0
122.0340, 198397.0
123.2620, 197281.0
124.4890, 197234.0
125.7160, 196006.0
126.9430, 194700.0
128.1700, 194414.0
129.3970, 193356.0
130.6240, 191687.0
131.8500, 191287.0
133.0770, 189907.0
134.3030, 189338.0
135.5290, 189024.0
136.7550, 187687.0
137.9810, 185986.0
139.2070, 184438.0
140.4320, 182865.7
141.6580, 181033.4
142.8830, 179467.0
144.1080, 177283.0
145.3330, 175199.0
146.5580, 173091.9
147.7830, 171117.5
149.0070, 168975.0
150.2320, 167134.0
151.4560, 165121.0
152.6800, 162882.0
153.9040, 161271.0
155.1280, 159570.0
156.3520, 157440.0
157.5760, 156156.0
158.7990, 153861.0
160.0220, 152557.0
161.2450, 150894.0
162.4680, 150110.0
163.6910, 149230.0
164.9140, 146824.0
166.1370, 146389.0
167.3590, 145550.0
168.5810, 143745.0
169.8040, 142610.0
171.0260, 142246.0
172.2480, 141288.0
173.4690, 139776.0
174.6910, 139168.0
175.9120, 137908.0
177.1340, 136493.0
178.3550, 135636.0
179.5760, 134345.0
180.7970, 133010.0
182.0180, 131401.0
183.2380, 129697.0
184.4590, 127962.0
185.6790, 126749.0
186.8990, 125155.0
188.1190, 123887.0
189.3390, 122410.0
190.5590, 121066.0
191.7780, 119254.9
192.9980, 117405.0
194.2170, 115568.0
195.4360, 113547.0
196.6550, 111821.0
197.8740, 110404.0
199.0930, 109020.0
200.3120, 107258.0
201.5300, 105609.0
202.7480, 103988.0
203.9670, 102075.0
205.1850, 100542.0
206.4020, 98779.00
207.6200, 97221.00
208.8380, 96733.00
210.0550, 94848.00
211.2730, 93767.00
212.4900, 92222.00
213.7070, 91248.00
214.9240, 89994.00
216.1400, 88882.00
217.3570, 87965.00
218.5730, 86486.00
219.7900, 85797.00
221.0060, 84797.00
222.2220, 83741.00
223.4380, 83073.00
224.6540, 81749.00
225.8690, 81200.00
227.0850, 80543.00
228.3000, 80089.00
229.5150, 79457.00
230.7300, 78426.00
231.9450, 78169.00
233.1600, 77384.00
234.3740, 76977.00
235.5890, 77119.00
236.8030, 76495.00
238.0170, 76125.00
239.2310, 75830.00
240.4450, 75541.00
241.6590, 75235.00
242.8720, 75161.00
244.0860, 74963.00
245.2990, 74955.70
246.5120, 74861.87
247.7250, 74943.00
248.9380, 74908.00
250.1510, 74729.00
251.3630, 75060.00
252.5750, 74696.00
253.7880, 74649.00
255.0000, 74642.88
256.2120, 74416.67
257.4240, 74501.00
258.6350, 74282.00
259.8470, 74217.00
261.0580, 74415.00
262.2690, 74075.00
263.4810, 74190.00
264.6920, 74141.00
265.9020, 73949.00
267.1130, 73984.00
268.3240, 74236.00
269.5340, 74338.00
270.7440, 74150.00
271.9540, 74341.00
273.1640, 73941.00
274.3740, 74329.00
275.5840, 74015.00
276.7930, 74634.00
278.0020, 74510.00
279.2120, 74603.00
280.4210, 74889.00
281.6300, 75128.00
282.8380, 75909.00
284.0470, 75844.00
285.2550, 76342.00
286.4640, 76298.00
287.6720, 76621.00
288.8800, 77008.00
290.0880, 77163.00
291.2960, 77487.00
292.5030, 77589.00
293.7110, 78155.00
294.9180, 78249.00
296.1250, 78850.00
297.3320, 78999.00
298.5390, 79442.00
299.7460, 79297.00
300.9520, 80518.00
302.1590, 80904.00
303.3650, 80950.00
304.5710, 80650.00
305.7770, 81313.00
306.9830, 82123.00
308.1890, 82344.00
309.3940, 83414.00
310.6000, 82716.00
311.8050, 83729.00
313.0100, 84198.00
314.2150, 85331.00
315.4200, 86266.00
316.6240, 87302.00
317.8290, 87601.00
319.0330, 88478.00
320.2370, 89908.00
321.4410, 90333.00
322.6450, 91662.00
323.8490, 92970.00
325.0530, 93579.00
326.2560, 94531.00
327.4600, 95581.00
328.6630, 96156.00
329.8660, 97118.00
331.0690, 97315.00
332.2710, 97292.00
333.4740, 97126.00
334.6760, 97583.00
335.8790, 97182.00
337.0810, 96391.00
338.2830, 96061.00
339.4850, 94980.00
340.6860, 94066.00
341.8880, 92793.00
343.0890, 91412.00
344.2910, 90034.00
345.4920, 88654.00
346.6930, 86954.00
347.8940, 85660.00
349.0940, 84742.00
350.2950, 82488.00
351.4950, 81035.00
352.6950, 79657.00
353.8950, 78985.00
355.0950, 77819.00
356.2950, 76546.00
357.4950, 75207.00
358.6940, 74372.00
359.8940, 73464.00
361.0930, 72927.00
362.2920, 72058.00
363.4910, 71237.00
364.6890, 70510.00
365.8880, 69860.00
367.0860, 69367.00
368.2850, 69100.00
369.4830, 68957.00
370.6810, 68259.00
371.8790, 68208.00
373.0760, 67496.00
374.2740, 67429.00
375.4710, 66901.00
376.6690, 66821.00
377.8660, 66350.00
379.0630, 66152.00
380.2590, 66336.00
381.4560, 66093.00
382.6530, 66466.00
383.8490, 65867.00
385.0450, 66360.00
386.2410, 66136.00
387.4370, 66339.00
388.6330, 66238.00
389.8280, 66226.00
391.0240, 66077.00
392.2190, 66303.00
393.4140, 66471.00
394.6090, 66059.00
395.8040, 66370.00
396.9990, 66235.00
398.1930, 66230.00
399.3880, 66121.00
400.5820, 66450.00
401.7760, 66357.00
402.9700, 66523.00
404.1640, 66565.00
405.3580, 67153.00
406.5510, 67406.00
407.7440, 67684.00
408.9380, 68388.00
410.1310, 68740.00
411.3240, 69440.00
412.5160, 69763.00
413.7090, 70925.00
414.9010, 71791.00
416.0940, 72638.00
417.2860, 74251.00
418.4780, 75344.00
419.6700, 76852.00
420.8610, 79241.00
422.0530, 80178.00
423.2440, 81833.00
424.4360, 84228.00
425.6270, 86453.00
426.8180, 88888.00
428.0080, 91182.00
429.1990, 93872.00
430.3890, 96946.00
431.5800, 100566.1
432.7700, 105007.0
433.9600, 109103.0
435.1500, 113890.0
436.3400, 119322.0
437.5290, 124662.0
438.7190, 130579.8
439.9080, 136570.0
441.0970, 143249.0
442.2860, 149738.0
443.4750, 156847.0
444.6640, 164490.0
445.8520, 171452.0
447.0400, 179506.0
448.2290, 186890.0
449.4170, 194312.0
450.6050, 201167.0
451.7920, 207538.0
452.9800, 214025.0
454.1670, 219499.0
455.3550, 224487.0
456.5420, 228180.0
457.7290, 231125.0
458.9160, 233034.0
460.1030, 234200.0
461.2890, 234537.0
462.4750, 233911.0
463.6620, 233655.0
464.8480, 231813.0
466.0340, 231716.0
467.2200, 230266.0
468.4050, 228694.0
469.5910, 228600.0
470.7760, 229095.0
471.9610, 228815.0
473.1460, 230218.0
474.3310, 231075.0
475.5160, 232333.0
476.7000, 234414.0
477.8850, 236447.0
479.0690, 236916.0
480.2530, 236013.0
481.4370, 235945.0
482.6210, 233919.0
483.8050, 230467.0
484.9880, 226933.0
486.1710, 221685.0
487.3550, 214501.0
488.5380, 206536.0
489.7210, 199757.0
490.9030, 191299.0
492.0860, 182528.0
493.2680, 173213.0
494.4510, 164713.0
495.6330, 156775.0
496.8150, 148665.0
497.9970, 140661.0
499.1780, 133265.0
500.3600, 126252.0
501.5410, 119785.0
502.7220, 114577.0
503.9030, 108436.0
505.0840, 103644.0
506.2650, 98499.00
507.4460, 94242.00
508.6260, 90497.00
509.8060, 86824.00
510.9870, 83741.00
512.1670, 80651.00
513.3460, 77837.00
514.5260, 75599.00
515.7060, 73530.00
516.8850, 70652.00
518.0640, 69048.00
519.2430, 67580.00
520.4220, 65821.00
521.6010, 64720.00
522.7790, 62853.00
523.9580, 62286.00
525.1360, 60852.39
526.3140, 59543.00
527.4920, 58668.00
528.6700, 57998.00
529.8480, 57207.00
531.0250, 56433.00
532.2030, 55739.00
533.3800, 55175.00
534.5570, 54704.00
535.7340, 53982.00
536.9110, 53545.00
538.0870, 52899.00
539.2640, 52879.00
540.4400, 52144.00
541.6160, 51709.00
542.7920, 51631.00
543.9680, 51128.00
545.1440, 51058.00
546.3190, 50320.00
547.4940, 50025.00
548.6700, 49817.00
549.8450, 49376.00
551.0200, 49155.00
552.1940, 48836.00
553.3690, 48668.09
554.5430, 48412.25
555.7180, 48161.69
556.8920, 47977.00
558.0660, 47655.00
559.2400, 47459.00
560.4130, 47166.00
561.5870, 46902.00
562.7600, 47064.00
563.9330, 46634.00
565.1060, 46489.00
566.2790, 46657.00
567.4520, 46333.28
568.6250, 46259.58
569.7970, 46124.00
570.9690, 45935.00
572.1410, 45958.00
573.3130, 45897.00
574.4850, 45879.00
575.6570, 45678.00
576.8280, 45757.00
578.0000, 45348.00
579.1710, 45664.00
580.3420, 45221.00
581.5130, 45255.00
582.6830, 45214.00
583.8540, 44893.00
585.0240, 45007.00
586.1940, 45025.00
587.3650, 44606.00
588.5340, 44601.00
589.7040, 44406.00
590.8740, 44180.00
592.0430, 44139.00
593.2130, 43710.00
594.3820, 43753.00
595.5510, 43400.00
596.7200, 43315.00
597.8880, 43242.00
599.0570, 43162.00
600.2250, 42817.00
601.3930, 42464.00
602.5610, 42436.00
603.7290, 42206.00
604.8970, 42201.00
606.0650, 41969.00
607.2320, 41850.00
608.3990, 41558.00
609.5670, 41241.00
610.7330, 41283.00
611.9000, 40836.00
613.0670, 40925.00
614.2330, 41009.00
615.4000, 40841.00
616.5660, 40997.00
617.7320, 40518.00
618.8980, 40378.00
620.0640, 40436.00
621.2290, 40531.00
622.3950, 40511.00
623.5600, 40379.00
624.7250, 40432.98
625.8900, 40492.00
627.0550, 40377.00
628.2190, 40604.00
629.3840, 40547.00
630.5480, 40442.00
631.7120, 40270.00
632.8760, 40306.00
634.0400, 40475.00
635.2040, 40442.00
636.3670, 40502.46
637.5300, 40311.11
638.6940, 40444.00
639.8570, 40506.14
641.0190, 40285.68
642.1820, 40430.12
643.3450, 40428.34
644.5070, 40420.53
645.6690, 40427.00
646.8320, 40539.12
647.9930, 40574.00
649.1550, 40672.00
650.3170, 40714.00
651.4780, 40834.00
652.6400, 40598.00
653.8010, 40443.00
654.9620, 40531.00
656.1230, 40265.00
657.2830, 40217.00
658.4440, 39879.00
659.6040, 39805.00
660.7640, 39753.00
661.9240, 39454.19
663.0840, 39302.18
664.2440, 38969.00
665.4040, 38730.35
666.5630, 38710.50
667.7220, 38636.28
668.8810, 38510.62
670.0400, 38179.46
671.1990, 38113.67
672.3580, 37941.53
673.5160, 37765.15
674.6750, 37736.71
675.8330, 37623.00
676.9910, 37619.00
678.1480, 37489.00
679.3060, 37348.00
680.4640, 37193.00
681.6210, 37258.00
682.7780, 37146.00
683.9350, 37373.00
685.0920, 37093.00
686.2490, 37014.00
687.4050, 37215.00
688.5620, 37021.00
689.7180, 36995.00
690.8740, 37126.00
692.0300, 37071.00
693.1860, 37063.00
694.3410, 37025.00
695.4970, 36974.00
696.6520, 37163.00
697.8070, 37083.00
698.9620, 37223.00
700.1170, 37195.16
701.2720, 37326.88
702.4260, 37404.24
703.5810, 37430.16
704.7350, 37250.57
705.8890, 37336.36
707.0430, 37315.79
708.1960, 37290.86
709.3500, 37413.98
710.5030, 37264.28
711.6570, 37385.06
712.8100, 37397.87
713.9630, 37460.09
715.1150, 37415.30
716.2680, 37403.57
717.4200, 37498.87
718.5730, 37534.91
719.7250, 37141.00
720.8770, 37404.00
722.0280, 37218.00
723.1800, 37349.00
724.3310, 37235.00
725.4830, 37223.00
726.6340, 37088.16
727.7850, 37256.52
728.9360, 37339.45
730.0860, 37341.57
731.2370, 37020.73
732.3870, 37116.92
733.5370, 37045.99
734.6880, 36968.18
735.8370, 37123.09
736.9870, 36849.24
738.1370, 37000.43
739.2860, 36981.98
740.4350, 37041.18
741.5840, 37098.00
742.7330, 36947.00
743.8820, 37320.00
745.0310, 37346.00
746.1790, 37766.00
747.3270, 37640.00
748.4750, 37990.00
749.6230, 38346.00
750.7710, 38538.00
751.9190, 38903.00
753.0660, 39051.00
754.2140, 39179.00
755.3610, 39546.00
756.5080, 39877.00
757.6540, 40101.76
758.8010, 40267.00
759.9480, 40678.00
761.0940, 40660.89
762.2400, 40991.78
763.3860, 41201.92
764.5320, 41295.91
765.6780, 41031.63
766.8230, 41149.06
767.9690, 41064.05
769.1140, 40936.95
770.2590, 41007.25
771.4040, 40795.00
772.5490, 40666.21
773.6930, 40591.00
774.8380, 40259.00
775.9820, 40034.00
777.1260, 39781.00
778.2700, 39512.00
779.4140, 39160.00
780.5570, 38895.00
781.7010, 38784.00
782.8440, 38541.34
783.9870, 38693.00
785.1300, 38073.00
786.2730, 38112.00
787.4150, 37550.00
788.5580, 37408.00
789.7000, 37019.00
790.8420, 36499.00
791.9840, 36591.00
793.1260, 36101.00
794.2680, 35460.00
795.4090, 35137.00
796.5510, 34805.00
797.6920, 34177.00
798.8330, 33574.00
799.9740, 33220.00
801.1150, 32944.00
802.2550, 32587.00
803.3950, 32139.00
804.5360, 31748.00
805.6760, 31264.00
806.8160, 31112.00
807.9550, 30546.00
809.0950, 30556.00
810.2340, 30370.00
811.3740, 30183.00
812.5130, 30007.00
813.6520, 29788.67
814.7900, 29586.08
815.9290, 29356.00
817.0670, 29160.00
818.2060, 28955.00
819.3440, 28764.00
820.4820, 29081.00
821.6190, 28501.00
822.7570, 28786.00
823.8950, 28898.00
825.0320, 28630.20
826.1690, 28627.69
827.3060, 28398.00
828.4430, 28350.00
829.5790, 28228.00
830.7160, 28424.00
831.8520, 28024.00
832.9880, 28272.00
834.1240, 27968.00
835.2600, 27942.00
836.3960, 27908.00
837.5310, 27910.00
838.6670, 27844.00
839.8020, 27741.00
840.9370, 27781.00
842.0720, 27671.00
843.2060, 27732.00
844.3410, 27626.00
845.4750, 27678.00
846.6100, 27688.34
847.7440, 27569.00
848.8770, 27623.00
850.0110, 27698.00
851.1450, 27410.00
852.2780, 27629.00
853.4110, 27468.00
854.5440, 27504.00
855.6770, 27617.00
856.8100, 27652.00
857.9430, 27759.00
859.0750, 27464.00
860.2070, 27668.00
861.3390, 27534.00
862.4710, 27725.00
863.6030, 27592.00
864.7350, 27707.00
865.8660, 27572.00
866.9970, 27515.00
868.1280, 27573.00
869.2590, 27671.00
870.3900, 27502.00
871.5210, 27384.00
872.6510, 27822.00
873.7820, 27247.00
874.9120, 27404.00
876.0420, 27448.00
877.1710, 27174.00
878.3010, 27280.00
879.4300, 27528.00
880.5600, 27193.21
881.6890, 27138.00
882.8180, 26814.00
883.9470, 27057.10
885.0750, 26999.00
886.2040, 26884.00
887.3320, 26943.00
888.4600, 26839.00
889.5880, 26863.00
890.7160, 26830.00
891.8440, 26704.00
892.9710, 26867.00
894.0990, 26948.00
895.2260, 27050.00
896.3530, 26916.00
897.4800, 26961.00
898.6060, 26925.00
899.7330, 27103.00
900.8590, 26745.00
901.9850, 26931.00
903.1110, 27046.00
904.2370, 26864.00
905.3630, 27136.00
906.4890, 27269.00
907.6140, 27271.00
908.7390, 27375.78
909.8640, 27228.00
910.9890, 27342.00
912.1140, 27321.00
913.2380, 27202.00
914.3630, 27176.00
915.4870, 27251.00
916.6110, 27314.00
917.7350, 27299.00
918.8580, 27499.00
919.9820, 27493.00
921.1050, 27437.00
922.2290, 27331.00
923.3520, 27320.00
924.4750, 27459.00
925.5970, 27678.00
926.7200, 27645.00
927.8420, 27427.00
928.9640, 27582.00
930.0870, 27915.00
931.2080, 27613.99
932.3300, 28251.00
933.4520, 27555.00
934.5730, 27471.00
935.6940, 28044.00
936.8150, 27942.00
937.9360, 28035.37
939.0570, 28261.00
940.1780, 28038.00
941.2980, 28184.00
942.4180, 28195.00
943.5380, 28103.00
944.6580, 28289.00
945.7780, 28085.00
946.8980, 28772.00
948.0170, 28427.00
949.1360, 28677.00
950.2560, 28576.00
951.3740, 28792.00
952.4930, 28834.00
953.6120, 29152.00
954.7300, 29346.00
955.8480, 29406.00
956.9670, 29557.00
958.0850, 29672.61
959.2020, 29744.00
960.3200, 29908.19
961.4370, 30041.36
962.5550, 30187.21
963.6720, 30365.00
964.7890, 30434.00
965.9050, 30497.00
967.0220, 30631.00
968.1380, 30939.00
969.2550, 30937.00
970.3710, 31078.00
971.4870, 31124.00
972.6030, 31531.00
973.7180, 31330.00
974.8340, 31748.00
975.9490, 31955.00
977.0640, 31730.00
978.1790, 31855.00
979.2940, 31801.00
980.4080, 32385.00
981.5230, 32724.00
982.6370, 33210.00
983.7510, 32987.00
984.8650, 33405.00
985.9790, 33560.00
987.0920, 33698.00
988.2060, 33862.00
989.3190, 34048.90
990.4320, 34376.00
991.5450, 34592.00
992.6580, 34356.00
993.7710, 34910.00
994.8830, 35036.00
995.9950, 35599.00
997.1080, 35769.17
998.2190, 35936.39
999.3310, 36272.00
1000.443, 36232.00
1001.554, 36706.00
1002.666, 37014.00
1003.777, 37452.00
1004.888, 37165.00
1005.998, 37479.00
1007.109, 37371.00
1008.219, 37500.00
1009.330, 37700.00
1010.440, 37463.00
1011.550, 37989.00
1012.660, 38074.00
1013.769, 38384.00
1014.879, 38678.00
1015.988, 38397.00
1017.097, 38656.00
1018.206, 38905.00
1019.315, 39069.00
1020.423, 39469.00
1021.532, 39553.00
1022.640, 39669.00
1023.748, 39725.00
1024.856, 39746.00
1025.964, 39698.00
1027.072, 40142.00
1028.179, 40067.00
1029.286, 39847.00
1030.393, 40168.00
1031.500, 39953.00
1032.607, 40112.00
1033.714, 40247.00
1034.820, 40412.00
1035.926, 40583.00
1037.032, 40635.30
1038.138, 40820.00
1039.244, 40755.00
1040.350, 40816.47
1041.455, 40918.17
1042.560, 40883.00
1043.665, 41043.00
1044.770, 41102.00
1045.875, 41335.00
1046.980, 41210.00
1048.084, 41346.00
1049.188, 42256.00
1050.292, 41877.00
1051.396, 42447.00
1052.500, 42562.00
1053.604, 42984.00
1054.707, 43173.00
1055.810, 43969.00
1056.913, 43988.00
1058.016, 44597.00
1059.119, 44900.00
1060.222, 45409.00
1061.324, 46070.00
1062.426, 46705.00
1063.528, 47127.00
1064.630, 47599.00
1065.732, 48149.00
1066.834, 48622.00
1067.935, 48843.00
1069.036, 49475.00
1070.137, 49878.00
1071.238, 50259.00
1072.339, 51012.00
1073.439, 51351.00
1074.540, 51716.00
1075.640, 52121.00
1076.740, 52589.00
1077.840, 52944.00
1078.940, 53210.00
1080.039, 54140.00
1081.138, 53871.00
1082.238, 54184.00
1083.337, 54609.00
1084.436, 54324.00
1085.534, 55036.00
1086.633, 54976.00
1087.731, 55560.00
1088.829, 55016.00
1089.927, 55582.00
1091.025, 55720.00
1092.123, 55714.00
1093.220, 55663.00
1094.318, 55736.00
1095.415, 55901.00
1096.512, 55794.00
1097.609, 55322.00
1098.705, 55516.00
1099.802, 55464.00
1100.898, 55434.00
1101.994, 55658.00
1103.090, 55262.07
1104.186, 55160.98
1105.282, 54560.00
1106.377, 54770.00
1107.473, 54422.00
1108.568, 54613.00
1109.663, 54261.00
1110.758, 54047.00
1111.852, 53933.00
1112.947, 53606.00
1114.041, 53238.00
1115.135, 52871.00
1116.229, 52744.00
1117.323, 52817.00
1118.417, 52471.00
1119.510, 52425.00
1120.603, 51390.00
1121.696, 51109.00
1122.789, 50885.00
1123.882, 50539.00
1124.975, 50332.00
1126.067, 50088.00
1127.159, 49742.00
1128.251, 49467.00
1129.343, 49131.00
1130.435, 48831.00
1131.527, 48470.88
1132.618, 48104.00
1133.709, 47777.00
1134.800, 47304.52
1135.891, 47048.41
1136.982, 46489.00
1138.073, 46306.00
1139.163, 46038.00
1140.253, 45635.00
1141.343, 45031.00
1142.433, 44675.00
1143.523, 44506.00
1144.612, 43627.00
1145.702, 43519.00
1146.791, 42986.00
1147.880, 42555.00
1148.969, 42172.00
1150.058, 41713.47
1151.146, 41257.09
1152.235, 40882.00
1153.323, 40321.00
1154.411, 39869.00
1155.499, 39444.00
1156.586, 39055.76
1157.674, 38919.00
1158.761, 38377.00
1159.848, 38116.00
1160.935, 37759.00
1162.022, 37385.00
1163.109, 36889.00
1164.195, 36523.00
1165.281, 36147.43
1166.368, 35811.59
1167.454, 35458.00
1168.539, 35209.00
1169.625, 34908.00
1170.710, 34567.00
1171.796, 34240.00
1172.881, 33713.00
1173.966, 33452.00
1175.051, 33471.00
1176.135, 33250.00
1177.220, 32760.00
1178.304, 32271.00
1179.388, 32229.00
1180.472, 32208.00
1181.556, 31723.55
1182.639, 31065.00
1183.723, 30888.00
1184.806, 30929.00
1185.889, 30401.00
1186.972, 30420.00
1188.055, 30281.00
1189.137, 29726.00
1190.219, 29750.00
1191.302, 29367.00
1192.384, 29282.00
1193.466, 29111.00
1194.547, 28983.00
1195.629, 28740.00
1196.710, 28556.00
1197.791, 28365.00
1198.872, 28328.00
1199.953, 28225.66
1201.034, 28184.00
1202.114, 28110.00
1203.195, 28031.00
1204.275, 27878.00
1205.355, 27807.00
1206.435, 27662.00
1207.514, 27554.64
1208.594, 27391.00
1209.673, 27363.00
1210.752, 27364.00
1211.831, 27347.00
1212.910, 27190.00
1213.989, 27376.00
1215.067, 27287.00
1216.145, 27213.00
1217.223, 26842.00
1218.301, 26969.00
1219.379, 27009.00
1220.457, 27094.00
1221.534, 27209.00
1222.611, 26989.00
1223.688, 26929.00
1224.765, 26970.00
1225.842, 26662.00
1226.918, 26759.00
1227.995, 26907.00
1229.071, 26717.00
1230.147, 26766.00
1231.223, 26958.00
1232.299, 26753.50
1233.374, 26550.00
1234.449, 26560.00
1235.525, 26548.00
1236.600, 26490.00
1237.674, 26639.00
1238.749, 26663.00
1239.824, 26609.00
1240.898, 26614.00
1241.972, 26618.00
1243.046, 26596.36
1244.120, 26660.00
1245.193, 26591.00
1246.267, 26582.00
1247.340, 26592.00
1248.413, 26781.00
