##NAMES=Chloritoid
##RRUFFID=R060292
##IDEAL CHEMISTRY=Fe^2+^Al_2_OSiO_4_(OH)_2_
##LOCALITY=Pech, Kunar Province, Afghanistan
##OWNER=RRUFF
##SOURCE=Herb Obodda
##DESCRIPTION=Black tabular crystal
##STATUS=The identification of this mineral has been confirmed by X-ray diffraction and chemical analysis
##URL=rruff.info/R060292
##MEASURED CHEMISTRY=(Fe^2+^_1.55_Mg_0.43_Mn_0.02_)_Σ=2_(Al_3.93_Fe^3+^_0.07_)_Σ=4_Si_2.00_O_10_(OH)_4_
##PIN_ID=M00356
##ORIENTATION=Laser parallel to b* (0 1 0). Fiducial mark perpendicular to laser is parallel to -c [0 0 -1]
51.43100, 1846.000
52.67100, 1817.000
53.91000, 1831.000
55.14900, 1856.000
56.38700, 1827.000
57.62600, 1859.000
58.86400, 1963.000
60.10300, 2040.000
61.34100, 2136.000
62.57900, 2260.000
63.81700, 2336.000
65.05400, 2616.000
66.29200, 2980.000
67.52900, 3136.659
68.76700, 3624.000
70.00400, 3709.000
71.24100, 4040.000
72.47700, 4531.000
73.71400, 4925.000
74.95100, 4782.000
76.18700, 4938.000
77.42300, 4993.000
78.65900, 5262.000
79.89500, 5549.000
81.13100, 5599.909
82.36700, 5703.000
83.60200, 5819.000
84.83700, 5962.042
86.07200, 5990.000
87.30800, 6335.000
88.54200, 6554.000
89.77700, 6814.000
91.01200, 6635.000
92.24600, 6599.000
93.48000, 6738.000
94.71400, 6711.000
95.94800, 6753.000
97.18200, 6803.000
98.41600, 6839.000
99.64900, 6928.000
100.8830, 7311.000
102.1160, 7895.000
103.3490, 8594.000
104.5820, 9592.000
105.8150, 9181.750
107.0470, 10410.00
108.2800, 8563.000
109.5120, 7985.000
110.7440, 8056.000
111.9760, 8581.000
113.2080, 9001.000
114.4400, 8890.000
115.6710, 8567.000
116.9030, 8343.000
118.1340, 8118.112
119.3650, 7641.000
120.5960, 7583.000
121.8270, 7286.000
123.0580, 6924.000
124.2880, 6831.000
125.5190, 6895.000
126.7490, 6877.000
127.9790, 6964.000
129.2090, 6923.000
130.4390, 6752.000
131.6680, 6718.000
132.8980, 6794.000
134.1270, 6865.000
135.3560, 6880.000
136.5850, 7012.000
137.8140, 6865.000
139.0430, 6817.000
140.2710, 6598.000
141.5000, 6534.000
142.7280, 6618.000
143.9560, 6744.000
145.1840, 6654.000
146.4120, 6555.000
147.6390, 6724.000
148.8670, 6918.000
150.0940, 6877.000
151.3210, 6735.000
152.5490, 6712.000
153.7750, 6632.000
155.0020, 6589.904
156.2290, 6586.042
157.4550, 6608.000
158.6810, 6631.000
159.9080, 6794.000
161.1340, 6923.000
162.3590, 7042.000
163.5850, 7066.000
164.8110, 7059.000
166.0360, 7115.000
167.2610, 7106.100
168.4860, 7159.000
169.7110, 7115.000
170.9360, 7059.000
172.1610, 7061.000
173.3850, 7165.000
174.6100, 7137.000
175.8340, 7142.000
177.0580, 7052.000
178.2820, 7204.000
179.5050, 7208.000
180.7290, 7124.000
181.9520, 7191.000
183.1760, 7172.989
184.3990, 7189.000
185.6220, 7222.000
186.8450, 7344.000
188.0670, 7410.000
189.2900, 7489.000
190.5120, 7558.000
191.7340, 7522.000
192.9560, 7646.000
194.1780, 7766.000
195.4000, 7615.000
196.6220, 7916.000
197.8430, 7972.000
199.0640, 8270.000
200.2860, 8229.000
201.5070, 7982.000
202.7270, 7642.000
203.9480, 7561.000
205.1690, 7598.000
206.3890, 7567.000
207.6090, 7670.000
208.8290, 7729.000
210.0490, 7846.000
211.2690, 7949.000
212.4890, 7969.000
213.7080, 7839.000
214.9280, 7968.000
216.1470, 7969.000
217.3660, 8001.000
218.5850, 8047.000
219.8030, 7985.000
221.0220, 7957.000
222.2400, 7928.000
223.4590, 7907.662
224.6770, 8052.000
225.8950, 7930.000
227.1120, 8064.000
228.3300, 8171.000
229.5480, 8060.000
230.7650, 8245.000
231.9820, 8353.000
233.1990, 8548.000
234.4160, 8704.000
235.6330, 8933.000
236.8490, 9087.000
238.0660, 9463.000
239.2820, 9819.000
240.4980, 10521.00
241.7140, 10989.00
242.9300, 11118.00
244.1460, 11075.00
245.3610, 11340.00
246.5770, 11941.00
247.7920, 12738.00
249.0070, 13767.00
250.2220, 15202.00
251.4370, 16037.00
252.6510, 16236.00
253.8660, 15424.00
255.0800, 13968.00
256.2940, 13302.00
257.5080, 11872.00
258.7220, 10146.00
259.9360, 9261.000
261.1490, 8797.000
262.3630, 8771.000
263.5760, 8708.000
264.7890, 8807.000
266.0020, 8980.000
267.2150, 9255.000
268.4270, 9648.000
269.6400, 10128.00
270.8520, 10901.00
272.0640, 11325.00
273.2760, 12056.00
274.4880, 11954.00
275.7000, 11894.00
276.9120, 12019.00
278.1230, 12188.00
279.3340, 12711.00
280.5450, 13329.00
281.7560, 14191.00
282.9670, 14595.00
284.1780, 14883.00
285.3880, 14283.00
286.5980, 13383.00
287.8090, 12177.00
289.0190, 11182.00
290.2290, 10197.00
291.4380, 9709.000
292.6480, 9207.000
293.8570, 8830.000
295.0670, 8632.000
296.2760, 8409.000
297.4850, 8398.000
298.6930, 8358.000
299.9020, 8210.000
301.1110, 8150.000
302.3190, 8048.000
303.5270, 8674.000
304.7350, 8410.947
305.9430, 8431.421
307.1510, 8409.000
308.3580, 8204.000
309.5660, 8304.000
310.7730, 8334.000
311.9800, 8393.000
313.1870, 8361.000
314.3940, 8350.000
315.6010, 8420.000
316.8070, 8535.000
318.0130, 8532.000
319.2200, 8662.000
320.4260, 8770.000
321.6310, 8916.000
322.8370, 8937.000
324.0430, 9036.000
325.2480, 9194.000
326.4540, 9202.000
327.6590, 9275.000
328.8640, 9320.000
330.0680, 9704.000
331.2730, 10167.00
332.4780, 10464.00
333.6820, 10679.00
334.8860, 10616.00
336.0900, 10421.00
337.2940, 9803.000
338.4980, 9072.000
339.7010, 8679.000
340.9050, 8251.000
342.1080, 8167.000
343.3110, 8036.000
344.5140, 8105.000
345.7170, 8095.000
346.9200, 8290.000
348.1220, 8173.000
349.3240, 7998.000
350.5270, 7699.000
351.7290, 7475.000
352.9310, 7298.000
354.1320, 7317.000
355.3340, 7146.000
356.5350, 7179.000
357.7370, 7102.000
358.9380, 7235.000
360.1390, 7216.000
361.3400, 7151.000
362.5400, 7303.000
363.7410, 7186.000
364.9410, 7167.000
366.1410, 7329.000
367.3410, 7206.000
368.5410, 7254.000
369.7410, 7276.000
370.9400, 7334.000
372.1400, 7351.000
373.3390, 7464.000
374.5380, 7356.000
375.7370, 7369.000
376.9360, 7462.000
378.1350, 7347.000
379.3330, 7380.000
380.5310, 7432.000
381.7300, 7429.000
382.9280, 7523.000
384.1260, 7724.000
385.3230, 7738.000
386.5210, 7899.000
387.7180, 7982.000
388.9160, 8008.041
390.1130, 8080.000
391.3100, 8039.000
392.5060, 8007.000
393.7030, 7959.000
394.9000, 8098.000
396.0960, 8153.000
397.2920, 8231.000
398.4880, 8127.000
399.6840, 8146.383
400.8800, 8234.000
402.0750, 8040.000
403.2710, 7917.000
404.4660, 7834.000
405.6610, 7822.000
406.8560, 7795.000
408.0510, 7725.000
409.2450, 7943.000
410.4400, 7846.000
411.6340, 7841.000
412.8280, 7798.000
414.0220, 7994.000
415.2160, 7937.201
416.4100, 7979.407
417.6030, 7966.000
418.7970, 7909.000
419.9900, 7905.000
421.1830, 7680.000
422.3760, 7738.000
423.5690, 7560.000
424.7610, 7626.000
425.9540, 7679.000
427.1460, 7547.000
428.3380, 7685.000
429.5300, 7707.000
430.7220, 7671.000
431.9140, 7651.000
433.1050, 7515.000
434.2970, 7605.000
435.4880, 7526.000
436.6790, 7632.000
437.8700, 7615.000
439.0610, 7710.000
440.2510, 7693.300
441.4420, 7702.470
442.6320, 7662.000
443.8220, 7696.000
445.0120, 7687.000
446.2020, 7694.000
447.3910, 7610.000
448.5810, 7747.000
449.7700, 7731.000
450.9600, 7650.000
452.1490, 7718.000
453.3370, 7781.000
454.5260, 7813.000
455.7150, 7930.000
456.9030, 7983.000
458.0910, 7958.000
459.2800, 8072.000
460.4670, 8080.293
461.6550, 8092.000
462.8430, 8160.000
464.0300, 8210.889
465.2180, 8260.000
466.4050, 8419.000
467.5920, 8481.000
468.7790, 8606.000
469.9650, 8730.542
471.1520, 8755.000
472.3380, 9002.000
473.5250, 9062.000
474.7110, 9245.000
475.8970, 9265.000
477.0820, 9452.000
478.2680, 9604.000
479.4540, 9700.000
480.6390, 9679.000
481.8240, 9687.000
483.0090, 9783.000
484.1940, 9683.000
485.3780, 9952.000
486.5630, 9945.000
487.7470, 10365.00
488.9320, 10575.00
490.1160, 10843.00
491.3000, 11067.22
492.4830, 11329.00
493.6670, 11439.00
494.8500, 11713.00
496.0340, 11943.00
497.2170, 12370.00
498.4000, 12861.00
499.5820, 13381.00
500.7650, 13390.00
501.9480, 12998.00
503.1300, 12709.00
504.3120, 11994.00
505.4940, 11552.00
506.6760, 11138.00
507.8580, 10940.00
509.0390, 10942.00
510.2210, 10927.00
511.4020, 10821.00
512.5830, 11112.00
513.7640, 11147.00
514.9450, 11353.00
516.1250, 11708.00
517.3060, 12099.00
518.4860, 12612.00
519.6660, 13384.00
520.8460, 14115.00
522.0260, 14758.70
523.2060, 15545.00
524.3850, 16242.00
525.5650, 17001.00
526.7440, 17932.00
527.9230, 19448.00
529.1020, 20888.00
530.2810, 21928.00
531.4590, 22124.00
532.6380, 21523.00
533.8160, 20433.00
534.9940, 19059.00
536.1720, 17935.00
537.3500, 17039.00
538.5270, 16826.00
539.7050, 17168.00
540.8820, 18002.00
542.0590, 19423.00
543.2360, 21495.00
544.4130, 23977.00
545.5900, 26002.00
546.7660, 28029.00
547.9430, 30103.00
549.1190, 33361.00
550.2950, 39180.00
551.4710, 46645.00
552.6470, 54731.00
553.8220, 59356.00
554.9980, 57818.00
556.1730, 50370.00
557.3480, 39947.00
558.5230, 30854.00
559.6980, 23652.00
560.8730, 19068.00
562.0470, 16149.00
563.2220, 14258.00
564.3960, 13061.00
565.5700, 12162.00
566.7440, 11600.00
567.9170, 11065.00
569.0910, 10774.00
570.2640, 10413.00
571.4380, 10289.00
572.6110, 10148.00
573.7840, 9989.000
574.9570, 10116.00
576.1290, 10104.00
577.3020, 10094.00
578.4740, 10380.00
579.6460, 10861.00
580.8180, 11390.00
581.9900, 12490.00
583.1620, 14586.00
584.3330, 17671.00
585.5040, 22241.00
586.6760, 26382.00
587.8470, 27469.00
589.0180, 26426.00
590.1880, 25849.00
591.3590, 27435.00
592.5290, 31587.00
593.7000, 39211.00
594.8700, 47072.00
596.0400, 50800.00
597.2090, 46705.00
598.3790, 38185.00
599.5490, 28362.00
600.7180, 21038.00
601.8870, 16967.00
603.0560, 14418.00
604.2250, 12948.00
605.3940, 12048.00
606.5620, 11369.00
607.7300, 11116.00
608.8990, 10610.00
610.0670, 10282.00
611.2350, 10123.00
612.4020, 9877.000
613.5700, 9563.000
614.7370, 9457.000
615.9050, 9279.000
617.0720, 9272.000
618.2390, 9106.000
619.4060, 9105.000
620.5720, 8996.000
621.7390, 8823.000
622.9050, 8794.000
624.0710, 8867.000
625.2370, 8746.000
626.4030, 8678.000
627.5690, 8689.000
628.7340, 8627.000
629.9000, 8602.000
631.0650, 8652.000
632.2300, 8566.000
633.3950, 8642.000
634.5600, 8456.000
635.7240, 8571.000
636.8890, 8434.000
638.0530, 8468.000
639.2170, 8418.000
640.3810, 8483.000
641.5450, 8483.000
642.7080, 8482.000
643.8720, 8432.000
645.0350, 8409.000
646.1980, 8420.000
647.3610, 8355.000
648.5240, 8462.000
649.6870, 8444.000
650.8490, 8408.000
652.0120, 8426.000
653.1740, 8534.000
654.3360, 8513.000
655.4980, 8420.000
656.6600, 8576.000
657.8210, 8471.000
658.9830, 8559.000
660.1440, 8694.000
661.3050, 8724.000
662.4660, 8720.000
663.6270, 8746.000
664.7870, 8762.367
665.9480, 8768.218
667.1080, 8828.000
668.2680, 8797.000
669.4280, 8886.000
670.5880, 8927.000
671.7480, 8878.000
672.9070, 8759.000
674.0670, 8703.000
675.2260, 8580.000
676.3850, 8562.000
677.5440, 8836.000
678.7030, 8551.418
679.8610, 8706.242
681.0200, 8788.426
682.1780, 8801.892
683.3360, 8540.780
684.4940, 8634.227
685.6520, 8585.583
686.8090, 8531.121
687.9670, 8627.000
689.1240, 8555.000
690.2810, 8593.000
691.4380, 8603.000
692.5950, 8691.000
693.7520, 8716.000
694.9080, 8825.000
696.0650, 8806.000
697.2210, 8886.000
698.3770, 8994.000
699.5330, 8967.000
700.6880, 8975.000
701.8440, 9103.000
702.9990, 9272.000
704.1550, 9354.000
705.3100, 9489.000
706.4650, 9478.000
707.6190, 9593.000
708.7740, 9779.000
709.9290, 9933.118
711.0830, 10183.00
712.2370, 10403.00
713.3910, 10696.00
714.5450, 10969.00
715.6980, 11198.00
716.8520, 11487.00
718.0050, 12099.00
719.1580, 12379.00
720.3110, 12984.36
721.4640, 13644.00
722.6170, 14232.00
723.7700, 14685.00
724.9220, 15445.00
726.0740, 16197.00
727.2260, 16748.00
728.3780, 17235.87
729.5300, 17675.00
730.6810, 17992.00
731.8330, 18169.00
732.9840, 18533.00
734.1350, 18753.00
735.2860, 18702.00
736.4370, 18606.00
737.5880, 18165.00
738.7380, 17499.00
739.8880, 16943.00
741.0390, 16265.00
742.1890, 15684.00
743.3380, 15227.00
744.4880, 14815.00
745.6380, 14054.00
746.7870, 13534.00
747.9360, 12939.00
749.0850, 12546.00
750.2340, 11913.00
751.3830, 11592.00
752.5310, 11158.00
753.6800, 10943.00
754.8280, 10644.00
755.9760, 10231.00
757.1240, 10071.00
758.2720, 9943.000
759.4190, 9906.000
760.5670, 9751.000
761.7140, 9669.350
762.8610, 9572.000
764.0080, 9489.407
765.1550, 9523.000
766.3020, 9490.000
767.4480, 9348.000
768.5950, 9188.000
769.7410, 9306.000
770.8870, 9272.000
772.0330, 9138.000
773.1780, 9189.000
774.3240, 9052.000
775.4690, 9073.000
776.6140, 8999.000
777.7590, 9086.000
778.9040, 9064.000
780.0490, 9052.000
781.1940, 8978.000
782.3380, 9059.000
783.4820, 9141.000
784.6260, 8953.000
785.7700, 8982.000
786.9140, 9005.000
788.0580, 8821.000
789.2010, 8962.000
790.3450, 8928.000
791.4880, 9014.000
792.6310, 8987.000
793.7730, 8976.000
794.9160, 8940.000
796.0590, 8989.000
797.2010, 8957.000
798.3430, 9008.000
799.4850, 8987.000
800.6270, 9039.000
801.7690, 9037.247
802.9100, 9079.000
804.0520, 9053.000
805.1930, 9024.000
806.3340, 9047.000
807.4750, 9118.000
808.6160, 9155.000
809.7560, 9192.000
810.8970, 9245.000
812.0370, 9176.000
813.1770, 9193.000
814.3170, 9210.000
815.4570, 9271.000
816.5960, 9243.000
817.7360, 9351.000
818.8750, 9373.000
820.0140, 9368.000
821.1530, 9435.000
822.2920, 9517.000
823.4310, 9509.000
824.5690, 9543.000
825.7070, 9652.000
826.8460, 9779.000
827.9840, 9721.000
829.1220, 9915.000
830.2590, 9976.000
831.3970, 10106.00
832.5340, 10324.00
833.6710, 10324.00
834.8080, 10342.00
835.9450, 10501.00
837.0820, 10744.00
838.2190, 10779.00
839.3550, 11079.00
840.4910, 11095.00
841.6270, 11336.00
842.7630, 11440.00
843.8990, 11512.00
845.0350, 11597.00
846.1700, 11877.00
847.3060, 11925.00
848.4410, 12184.00
849.5760, 12294.00
850.7100, 12449.00
851.8450, 12769.00
852.9800, 13087.00
854.1140, 13511.00
855.2480, 13575.00
856.3820, 13969.00
857.5160, 14183.00
858.6500, 14562.00
859.7830, 14945.00
860.9170, 15482.00
862.0500, 15948.00
863.1830, 16428.00
864.3160, 17426.00
865.4480, 17955.00
866.5810, 18672.00
867.7130, 19850.00
868.8460, 21173.00
869.9780, 22425.00
871.1100, 24099.00
872.2410, 25320.00
873.3730, 27001.00
874.5050, 28630.00
875.6360, 30230.00
876.7670, 31480.00
877.8980, 32988.00
879.0290, 33655.00
880.1590, 33685.00
881.2900, 33126.00
882.4200, 32034.00
883.5500, 30304.00
884.6800, 28246.00
885.8100, 26246.00
886.9400, 23974.00
888.0690, 22215.00
889.1990, 20401.00
890.3280, 18626.00
891.4570, 17525.00
892.5860, 16374.00
893.7140, 15549.00
894.8430, 14628.00
895.9710, 13987.00
897.1000, 13501.00
898.2280, 13143.00
899.3560, 12877.00
900.4830, 12547.00
901.6110, 12254.00
902.7380, 12004.00
903.8660, 11803.14
904.9930, 11620.00
906.1200, 11549.00
907.2460, 11447.00
908.3730, 11470.00
909.5000, 11345.00
910.6260, 11186.00
911.7520, 11091.00
912.8780, 11147.00
914.0040, 11257.00
915.1290, 11080.00
916.2550, 11119.00
917.3800, 10947.00
918.5050, 10991.00
919.6300, 10751.00
920.7550, 10825.00
921.8800, 10759.00
923.0040, 10636.00
924.1290, 10654.00
925.2530, 10507.00
926.3770, 10532.00
927.5010, 10402.00
928.6250, 10481.00
929.7480, 10397.00
930.8720, 10310.00
931.9950, 10293.00
933.1180, 10329.00
934.2410, 10323.00
935.3640, 10289.00
936.4860, 10260.00
937.6090, 10268.91
938.7310, 10218.00
939.8530, 10279.00
940.9750, 10259.00
942.0970, 10254.00
943.2180, 10284.57
944.3400, 10183.00
945.4610, 10284.00
946.5820, 10347.00
947.7030, 10283.00
948.8240, 10244.00
949.9450, 10295.00
951.0650, 10264.00
952.1860, 10254.00
953.3060, 10297.00
954.4260, 10457.00
955.5460, 10355.00
956.6650, 10441.00
957.7850, 10523.00
958.9040, 10436.00
960.0230, 10613.00
961.1420, 10566.00
962.2610, 10643.00
963.3800, 10637.00
964.4990, 10851.00
965.6170, 10817.00
966.7350, 10872.45
967.8530, 10720.00
968.9710, 10858.00
970.0890, 10742.00
971.2070, 10620.00
972.3240, 10764.00
973.4410, 10624.00
974.5580, 10603.00
975.6750, 10636.00
976.7920, 10651.00
977.9090, 10596.00
979.0250, 10578.00
980.1410, 10631.00
981.2580, 10583.00
982.3740, 10579.00
983.4890, 10555.00
984.6050, 10522.00
985.7200, 10630.00
986.8360, 10568.00
987.9510, 10612.00
989.0660, 10561.00
990.1810, 10651.00
991.2950, 10693.00
992.4100, 10608.00
993.5240, 10771.00
994.6390, 10538.00
995.7530, 10623.00
996.8660, 10680.00
997.9800, 10638.00
999.0940, 10588.00
1000.207, 10723.00
1001.320, 10618.00
1002.433, 10574.00
1003.546, 10659.00
1004.659, 10766.00
1005.772, 10532.00
1006.884, 10710.00
1007.996, 10582.00
1009.108, 10502.00
1010.220, 10570.00
1011.332, 10628.00
1012.444, 10734.00
1013.555, 10642.00
1014.666, 10612.00
1015.777, 10629.00
1016.888, 10597.00
1017.999, 10672.00
1019.110, 10611.00
1020.220, 10609.00
1021.331, 10606.00
1022.441, 10772.00
1023.551, 10802.00
1024.661, 10640.00
1025.770, 10744.00
1026.880, 10629.00
1027.989, 10674.00
1029.098, 10707.00
1030.207, 10693.00
1031.316, 10834.00
1032.425, 10757.00
1033.533, 10719.00
1034.642, 10812.00
1035.750, 10809.00
1036.858, 10746.00
1037.966, 10781.00
1039.073, 10941.00
1040.181, 10878.00
1041.288, 10988.00
1042.396, 10872.00
1043.503, 10923.00
1044.610, 10874.00
1045.716, 10877.00
1046.823, 10899.63
1047.929, 10916.00
1049.036, 10933.00
1050.142, 10930.00
1051.248, 10941.00
1052.353, 10928.00
1053.459, 10999.00
1054.564, 10959.00
1055.670, 10983.00
1056.775, 11060.00
1057.880, 11073.00
1058.985, 11058.00
1060.089, 10951.00
1061.194, 11042.00
1062.298, 11023.00
1063.402, 10959.00
1064.506, 11108.00
1065.610, 11113.00
1066.713, 10932.00
1067.817, 11085.00
1068.920, 11088.00
1070.023, 11087.00
1071.126, 11223.00
1072.229, 11317.00
1073.332, 11177.00
1074.435, 11238.00
1075.537, 11328.00
1076.639, 11303.00
1077.741, 11285.00
1078.843, 11224.00
1079.945, 11427.00
1081.046, 11581.00
1082.148, 11607.00
1083.249, 11637.00
1084.350, 11713.00
1085.451, 12044.00
1086.551, 11980.00
1087.652, 12230.00
1088.752, 12147.00
1089.853, 12349.00
1090.953, 12358.00
1092.053, 12255.00
1093.152, 12093.00
1094.252, 11929.00
1095.351, 11879.00
1096.451, 11818.00
1097.550, 11604.00
1098.649, 11467.00
1099.748, 11350.00
1100.846, 11383.00
1101.945, 11289.00
1103.043, 11143.00
1104.141, 10956.00
1105.239, 10928.00
1106.337, 11004.00
1107.434, 10806.00
1108.532, 10916.00
1109.629, 10770.00
1110.726, 10756.00
1111.823, 10794.00
1112.920, 10749.00
1114.017, 10798.00
1115.113, 10619.00
1116.210, 10724.00
1117.306, 10675.00
1118.402, 10633.00
1119.498, 10741.00
1120.593, 10696.00
1121.689, 10565.00
1122.784, 10594.00
1123.879, 10654.00
1124.974, 10517.00
1126.069, 10538.00
1127.164, 10520.00
1128.259, 10503.00
1129.353, 10509.00
1130.447, 10532.00
1131.541, 10591.00
1132.635, 10524.00
1133.729, 10421.00
1134.822, 10340.00
1135.916, 10431.00
1137.009, 10330.00
1138.102, 10385.00
1139.195, 10370.00
1140.288, 10423.00
1141.380, 10426.00
1142.473, 10404.00
1143.565, 10389.00
1144.657, 10360.00
1145.749, 10370.00
1146.841, 10301.00
1147.932, 10404.00
1149.024, 10402.00
1150.115, 10373.00
1151.206, 10359.00
1152.297, 10341.29
1153.388, 10319.22
1154.479, 10285.00
1155.569, 10303.00
1156.659, 10242.00
1157.750, 10279.00
1158.839, 10333.00
1159.929, 10273.00
1161.019, 10319.00
1162.108, 10285.00
1163.198, 10316.00
1164.287, 10142.00
1165.376, 10250.00
1166.465, 10270.00
1167.553, 10198.00
1168.642, 10287.00
1169.730, 10211.00
1170.818, 10254.00
1171.906, 10205.00
1172.994, 10266.00
1174.082, 10329.00
1175.170, 10251.00
1176.257, 10244.00
1177.344, 10182.00
1178.431, 10226.00
1179.518, 10230.00
1180.605, 10171.00
1181.691, 10194.29
1182.778, 10099.00
1183.864, 10157.00
1184.950, 10226.00
1186.036, 10181.00
1187.122, 10252.00
1188.207, 10052.00
1189.292, 10185.00
1190.378, 10102.00
1191.463, 10203.00
1192.548, 10015.00
1193.632, 10065.00
1194.717, 10120.00
1195.801, 10036.00
1196.886, 10029.00
1197.970, 10055.00
1199.054, 10057.00
1200.137, 10137.00
1201.221, 10176.00
1202.305, 10093.00
1203.388, 10079.00
1204.471, 9983.000
1205.554, 10142.00
1206.637, 10086.94
1207.719, 10090.00
1208.802, 10079.00
1209.884, 10101.00
1210.966, 10007.00
1212.048, 10009.00
1213.130, 10085.00
1214.212, 10180.00
1215.293, 10072.00
1216.374, 10094.00
1217.456, 10287.00
1218.536, 9993.000
1219.617, 10021.00
1220.698, 10151.00
1221.778, 10082.00
1222.859, 10065.00
1223.939, 10088.00
1225.019, 9974.000
1226.099, 10099.00
1227.178, 10114.00
1228.258, 10074.00
1229.337, 10065.00
1230.417, 10024.00
1231.496, 10053.00
1232.574, 10011.00
1233.653, 10003.00
1234.732, 10076.00
1235.810, 10010.00
1236.888, 10076.00
