##NAMES=Chloritoid
##RRUFFID=R050334
##IDEAL CHEMISTRY=Fe^2+^Al_2_OSiO_4_(OH)_2_
##LOCALITY=Selçuk, Mugla Province, Turkey
##OWNER=RRUFF
##SOURCE=George Rossman
##DESCRIPTION=Dark greenish-black foliated cleavage fragments
##STATUS=The identification of this mineral is confirmed by single-crystal X-ray diffraction and chemical analysis.
##URL=rruff.info/R050334
##MEASURED CHEMISTRY=(Fe^2+^_1.84_Mg_0.12_Mn_0.04_)_Σ=2_(Al_3.95_Fe^3+^_0.05_)_Σ=4_Si_2.00_O_10_(OH)_4_ ; H not measured but estimated by difference and stoichiometry
##PIN_ID=M01491
##ORIENTATION=Laser parallel to (1 0 1). Fiducial mark perpendicular to laser is parallel to b [0 1 0]
172.0730, 12879.00
173.3000, 12923.00
174.5280, 12898.00
175.7550, 12868.00
176.9820, 12931.53
178.2090, 13009.00
179.4350, 12929.00
180.6620, 12878.00
181.8880, 12935.13
183.1150, 12857.68
184.3410, 13003.00
185.5670, 13165.00
186.7920, 13215.00
188.0180, 13222.00
189.2430, 13312.00
190.4690, 13345.00
191.6940, 13423.00
192.9180, 13667.00
194.1430, 13594.00
195.3680, 13752.00
196.5920, 13859.00
197.8160, 13857.00
199.0400, 14054.00
200.2640, 14175.00
201.4880, 14366.00
202.7110, 14183.00
203.9350, 13949.00
205.1580, 13522.00
206.3810, 13608.00
207.6040, 13514.00
208.8270, 13306.00
210.0490, 13324.00
211.2710, 13476.00
212.4940, 13592.00
213.7160, 13653.00
214.9370, 13409.00
216.1590, 13361.00
217.3810, 13263.00
218.6020, 13260.00
219.8230, 13181.00
221.0440, 13264.00
222.2650, 13213.60
223.4860, 13165.00
224.7060, 13172.00
225.9260, 13122.00
227.1470, 13061.00
228.3670, 12905.00
229.5860, 12795.00
230.8060, 12869.00
232.0260, 12848.10
233.2450, 12899.00
234.4640, 12963.00
235.6830, 12973.00
236.9020, 12955.00
238.1200, 13224.00
239.3390, 13412.00
240.5570, 13357.00
241.7750, 13660.00
242.9930, 13713.00
244.2110, 14052.00
245.4290, 14240.00
246.6460, 14438.00
247.8630, 14566.00
249.0810, 15364.00
250.2980, 15304.00
251.5140, 15584.00
252.7310, 15390.00
253.9470, 15520.00
255.1640, 15480.00
256.3800, 15576.00
257.5960, 16074.00
258.8120, 15931.99
260.0270, 15801.38
261.2430, 15783.00
262.4580, 15291.00
263.6730, 14760.00
264.8880, 14734.00
266.1030, 14468.00
267.3170, 14538.00
268.5320, 14638.00
269.7460, 14680.00
270.9600, 15008.00
272.1740, 15298.00
273.3880, 15536.00
274.6010, 15886.75
275.8150, 16184.40
277.0280, 16495.00
278.2410, 16820.00
279.4540, 17028.00
280.6670, 17285.00
281.8790, 17449.00
283.0920, 17496.00
284.3040, 17285.00
285.5160, 17036.00
286.7280, 16322.00
287.9400, 15912.00
289.1510, 15534.00
290.3630, 15214.00
291.5740, 15035.00
292.7850, 14899.00
293.9960, 14603.00
295.2070, 14799.00
296.4170, 14548.00
297.6280, 14519.00
298.8380, 14477.00
300.0480, 14469.00
301.2580, 14347.00
302.4680, 14527.00
303.6770, 14590.00
304.8870, 14377.00
306.0960, 14516.00
307.3050, 14328.00
308.5140, 14246.00
309.7230, 14117.00
310.9310, 14033.60
312.1400, 13890.00
313.3480, 13927.00
314.5560, 13855.00
315.7640, 13854.00
316.9720, 13992.00
318.1790, 13798.00
319.3870, 13675.00
320.5940, 13755.00
321.8010, 13776.00
323.0080, 14069.00
324.2150, 14211.00
325.4210, 14288.00
326.6280, 14322.00
327.8340, 14443.00
329.0400, 14591.00
330.2460, 14707.00
331.4510, 14841.00
332.6570, 14984.00
333.8620, 15057.00
335.0680, 15018.00
336.2730, 14928.00
337.4780, 14927.00
338.6820, 14632.00
339.8870, 14511.00
341.0910, 14296.00
342.2950, 14185.00
343.5000, 14141.00
344.7030, 14249.00
345.9070, 14145.00
347.1110, 14169.00
348.3140, 14113.00
349.5170, 14136.00
350.7200, 14145.00
351.9230, 13967.00
353.1260, 14117.00
354.3290, 13987.00
355.5310, 14161.00
356.7330, 14178.00
357.9350, 14431.00
359.1370, 14488.00
360.3390, 14615.92
361.5400, 14682.00
362.7420, 14844.00
363.9430, 14831.00
365.1440, 14916.00
366.3450, 15021.00
367.5460, 14964.00
368.7460, 15097.00
369.9470, 15060.21
371.1470, 14956.00
372.3470, 15024.00
373.5470, 14981.00
374.7460, 14960.00
375.9460, 14986.00
377.1450, 15100.00
378.3450, 15270.00
379.5440, 15405.00
380.7430, 15536.03
381.9410, 15787.00
383.1400, 15819.00
384.3380, 15964.00
385.5370, 16148.00
386.7350, 16404.00
387.9320, 16425.81
389.1300, 16552.00
390.3280, 16497.00
391.5250, 16411.00
392.7220, 16413.00
393.9190, 16447.00
395.1160, 16311.00
396.3130, 16472.00
397.5100, 16559.00
398.7060, 16456.00
399.9020, 16563.00
401.0980, 16568.00
402.2940, 16738.00
403.4900, 16661.00
404.6860, 17011.00
405.8810, 16884.00
407.0760, 17113.00
408.2710, 17030.00
409.4660, 17094.97
410.6610, 17240.66
411.8550, 17338.72
413.0500, 17391.76
414.2440, 17264.83
415.4380, 17370.26
416.6320, 18074.00
417.8260, 18477.00
419.0190, 18943.00
420.2130, 18476.00
421.4060, 17779.00
422.5990, 16482.00
423.7920, 16456.00
424.9850, 16223.00
426.1770, 16207.00
427.3700, 16206.00
428.5620, 16277.00
429.7540, 16332.00
430.9460, 16188.00
432.1380, 16089.00
433.3290, 16077.00
434.5210, 15934.00
435.7120, 15852.00
436.9030, 15742.00
438.0940, 15862.00
439.2850, 15824.00
440.4750, 15871.00
441.6660, 15823.00
442.8560, 15945.00
444.0460, 15972.00
445.2360, 16012.00
446.4260, 16147.00
447.6160, 16201.00
448.8050, 16293.78
449.9940, 16238.00
451.1830, 16454.00
452.3720, 16455.00
453.5610, 16489.00
454.7500, 16695.00
455.9380, 16631.21
457.1260, 16726.00
458.3150, 16633.00
459.5020, 16665.00
460.6900, 16679.00
461.8780, 16807.00
463.0650, 16732.00
464.2530, 16930.00
465.4400, 16939.00
466.6270, 17122.00
467.8130, 17146.00
469.0000, 17205.00
470.1870, 17335.00
471.3730, 17348.00
472.5590, 17477.05
473.7450, 17640.00
474.9310, 17705.00
476.1160, 17791.00
477.3020, 17923.00
478.4870, 17891.00
479.6720, 17913.00
480.8570, 17938.00
482.0420, 18066.00
483.2270, 18108.00
484.4110, 18285.00
485.5960, 18356.00
486.7800, 18785.00
487.9640, 19391.00
489.1480, 19586.31
490.3310, 21788.00
491.5150, 20653.00
492.6980, 21322.00
493.8810, 22665.00
495.0640, 22284.00
496.2470, 22859.00
497.4300, 23284.00
498.6120, 23789.00
499.7950, 23873.00
500.9770, 23655.00
502.1590, 23542.00
503.3410, 22867.00
504.5220, 22470.00
505.7040, 22121.00
506.8850, 21996.00
508.0660, 21696.00
509.2470, 21434.32
510.4280, 21502.00
511.6090, 21049.00
512.7890, 20691.00
513.9700, 20818.00
515.1500, 20835.00
516.3300, 19629.00
517.5100, 19007.00
518.6900, 18726.00
519.8690, 18583.00
521.0490, 18690.00
522.2280, 18533.00
523.4070, 18518.00
524.5860, 18543.00
525.7640, 18787.00
526.9430, 18728.00
528.1210, 18662.00
529.3000, 18959.00
530.4780, 18945.00
531.6560, 18947.00
532.8330, 18955.00
534.0110, 18625.00
535.1880, 18543.00
536.3650, 18390.00
537.5430, 18106.00
538.7190, 18181.00
539.8960, 18184.00
541.0730, 18448.00
542.2490, 18925.00
543.4250, 19478.00
544.6020, 20169.00
545.7780, 20682.77
546.9530, 21324.00
548.1290, 21798.00
549.3040, 22497.00
550.4800, 22946.00
551.6550, 23740.00
552.8300, 24072.00
554.0040, 23869.00
555.1790, 23391.00
556.3540, 22143.00
557.5280, 20858.00
558.7020, 19595.00
559.8760, 18728.00
561.0500, 18098.00
562.2230, 17595.00
563.3970, 17422.00
564.5700, 17291.00
565.7430, 17152.00
566.9160, 16958.00
568.0890, 16940.79
569.2620, 17020.00
570.4340, 16955.00
571.6070, 17122.00
572.7790, 17282.00
573.9510, 17245.00
575.1230, 17480.00
576.2940, 18188.00
577.4660, 19020.00
578.6370, 18205.00
579.8080, 18962.00
580.9790, 19695.00
582.1500, 21043.00
583.3210, 23060.00
584.4910, 26946.00
585.6620, 32391.00
586.8320, 39118.00
588.0020, 44838.00
589.1720, 47295.00
590.3410, 49724.00
591.5110, 53595.00
592.6800, 59398.00
593.8500, 64404.00
595.0190, 65535.00
596.1880, 65535.00
597.3560, 60827.00
598.5250, 50107.00
599.6930, 39455.00
600.8620, 31445.00
602.0300, 26390.00
603.1970, 23613.00
604.3650, 21619.00
605.5330, 20624.00
606.7000, 19742.00
607.8680, 19081.00
609.0350, 18890.00
610.2020, 18454.00
611.3680, 18233.00
612.5350, 18031.00
613.7010, 17767.00
614.8680, 17550.00
616.0340, 17573.00
617.2000, 17283.00
618.3660, 17350.00
619.5310, 17261.00
620.6970, 17030.00
621.8620, 16994.00
623.0270, 17104.00
624.1920, 16993.00
625.3570, 16955.00
626.5220, 17026.00
627.6860, 16692.00
628.8500, 16745.00
630.0140, 16772.00
631.1780, 16646.00
632.3420, 16677.00
633.5060, 16721.00
634.6700, 16731.00
635.8330, 16549.00
636.9960, 16542.00
638.1590, 16937.00
639.3220, 16816.00
640.4850, 16622.00
641.6470, 16723.00
642.8100, 16401.00
643.9720, 16582.00
645.1340, 16686.00
646.2960, 16725.00
647.4570, 16696.00
648.6190, 16737.12
649.7800, 16612.00
650.9420, 16707.00
652.1030, 16622.00
653.2640, 16559.00
654.4240, 16705.00
655.5850, 16517.00
656.7450, 16598.00
657.9060, 16656.00
659.0660, 16871.00
660.2260, 16920.00
661.3850, 16785.00
662.5450, 16795.00
663.7040, 16805.00
664.8640, 16849.00
666.0230, 16963.00
667.1820, 16906.00
668.3410, 16903.00
669.4990, 17012.00
670.6580, 17005.00
671.8160, 16988.00
672.9740, 16781.00
674.1320, 16817.00
675.2900, 16621.00
676.4480, 16727.00
677.6050, 16802.00
678.7630, 16856.00
679.9200, 16810.00
681.0770, 16788.00
682.2340, 16698.05
683.3900, 16808.47
684.5470, 16871.29
685.7030, 16889.07
686.8590, 16726.89
688.0150, 16797.09
689.1710, 16774.16
690.3270, 16747.41
691.4830, 16850.31
692.6380, 16714.31
693.7930, 16815.15
694.9480, 16821.45
696.1030, 16871.01
697.2580, 16999.00
698.4130, 17116.00
699.5670, 16885.00
700.7210, 17050.00
701.8750, 17329.00
703.0290, 17196.00
704.1830, 17043.00
705.3370, 17327.00
706.4900, 17295.00
707.6430, 17163.00
708.7970, 17468.00
709.9490, 17398.00
711.1020, 17364.00
712.2550, 17697.00
713.4070, 17703.00
714.5600, 17623.00
715.7120, 17752.00
716.8640, 17871.00
718.0160, 17954.00
719.1670, 18063.00
720.3190, 18169.00
721.4700, 18571.00
722.6210, 18740.00
723.7720, 18845.00
724.9230, 18839.00
726.0740, 19090.00
727.2250, 19447.00
728.3750, 19542.00
729.5250, 19760.00
730.6750, 19738.00
731.8250, 19735.00
732.9750, 19916.00
734.1240, 19964.00
735.2740, 20139.00
736.4230, 19963.00
737.5720, 19988.00
738.7210, 19564.00
739.8700, 19430.00
741.0190, 19370.00
742.1670, 19441.00
743.3150, 19220.00
744.4630, 18820.00
745.6110, 18836.00
746.7590, 18676.00
747.9070, 18584.00
749.0540, 18481.00
750.2020, 18248.00
751.3490, 18068.00
752.4960, 18007.15
753.6430, 17884.72
754.7890, 17888.00
755.9360, 17846.00
757.0820, 17801.90
758.2280, 17929.00
759.3740, 17830.00
760.5200, 17863.00
761.6660, 17832.00
762.8120, 17810.00
763.9570, 17748.00
765.1020, 17820.00
766.2470, 17842.00
767.3920, 17902.00
768.5370, 17849.00
769.6810, 17856.00
770.8260, 17822.00
771.9700, 18039.00
773.1140, 17822.00
774.2580, 17982.00
775.4020, 18077.00
776.5460, 17877.00
777.6890, 17836.00
778.8320, 18089.00
779.9750, 17878.00
781.1180, 18378.00
782.2610, 18052.00
783.4040, 17801.00
784.5460, 17848.00
785.6890, 18114.00
786.8310, 18087.00
787.9730, 18322.00
789.1150, 18053.00
790.2560, 18350.00
791.3980, 19153.00
792.5390, 19312.00
793.6810, 19276.00
794.8220, 19913.00
795.9630, 19241.00
797.1030, 18906.00
798.2440, 18681.00
799.3840, 18494.89
800.5240, 18660.00
801.6650, 18386.00
802.8040, 18582.00
803.9440, 18373.00
805.0840, 18682.00
806.2230, 18641.00
807.3630, 18655.17
808.5020, 18701.00
809.6410, 18720.00
810.7790, 18734.00
811.9180, 18819.00
813.0570, 18770.00
814.1950, 18788.00
815.3330, 18850.00
816.4710, 18845.37
817.6090, 19092.00
818.7470, 18937.00
819.8840, 19161.00
821.0220, 19286.00
822.1590, 19293.00
823.2960, 19488.43
824.4330, 19598.00
825.5690, 19728.00
826.7060, 20046.00
827.8420, 20148.00
828.9790, 20414.00
830.1150, 20663.00
831.2510, 20858.00
832.3860, 21140.00
833.5220, 21498.00
834.6570, 21649.00
835.7930, 21928.00
836.9280, 22262.00
838.0630, 22403.00
839.1980, 22512.40
840.3320, 22671.27
841.4670, 22589.00
842.6010, 22725.00
843.7350, 22817.00
844.8690, 22595.00
846.0030, 22459.00
847.1370, 22309.00
848.2700, 22295.00
849.4040, 22161.00
850.5370, 22227.00
851.6700, 22131.00
852.8030, 21955.00
853.9360, 21846.00
855.0680, 21888.00
856.2000, 21857.00
857.3330, 21788.00
858.4650, 22058.00
859.5970, 22148.00
860.7290, 22239.00
861.8600, 22738.00
862.9920, 22682.00
864.1230, 23098.00
865.2540, 23196.00
866.3850, 23612.00
867.5160, 24468.00
868.6460, 24623.00
869.7770, 25219.00
870.9070, 26203.00
872.0370, 27076.00
873.1670, 27725.00
874.2970, 28559.00
875.4270, 29373.00
876.5570, 30179.00
877.6860, 30578.00
878.8150, 31019.00
879.9440, 31132.00
881.0730, 30746.00
882.2020, 30601.00
883.3300, 30094.00
884.4590, 29329.00
885.5870, 28510.00
886.7150, 27874.63
887.8430, 27145.09
888.9710, 26494.00
890.0990, 25888.00
891.2260, 25356.00
892.3530, 24909.00
893.4810, 24642.00
894.6080, 24342.00
895.7340, 24296.28
896.8610, 24319.07
897.9880, 24294.26
899.1140, 24224.48
900.2400, 23974.76
901.3660, 23957.40
902.4920, 23846.92
903.6180, 23732.62
904.7430, 23748.05
905.8690, 23524.49
906.9940, 23537.86
908.1190, 23456.69
909.2440, 23418.78
910.3690, 23287.18
911.4930, 23184.59
912.6180, 23175.66
913.7420, 23114.90
914.8660, 22972.58
915.9900, 22937.51
917.1140, 22710.84
918.2380, 22652.29
919.3610, 22666.36
920.4850, 22528.76
921.6080, 22495.47
922.7310, 22422.48
923.8540, 22169.08
924.9760, 21929.00
926.0990, 22074.00
927.2210, 21927.00
928.3440, 21840.00
929.4660, 21893.00
930.5880, 21827.00
931.7090, 22038.00
932.8310, 22052.00
933.9520, 22083.00
935.0740, 22020.00
936.1950, 21998.00
937.3160, 22105.00
938.4360, 22148.00
939.5570, 22033.00
940.6780, 22281.00
941.7980, 22136.00
942.9180, 22485.00
944.0380, 22270.00
945.1580, 22423.00
946.2780, 22429.00
947.3970, 22543.00
948.5170, 22724.00
949.6360, 22713.19
950.7550, 22909.00
951.8740, 22789.00
952.9930, 22849.00
954.1110, 22905.00
955.2300, 22823.00
956.3480, 22759.00
957.4660, 22818.00
958.5840, 22824.59
959.7020, 22901.42
960.8190, 22930.67
961.9370, 22914.85
963.0540, 22719.11
964.1710, 22755.73
965.2880, 22699.24
966.4050, 22638.92
967.5220, 22708.26
968.6380, 22538.72
969.7550, 22606.00
970.8710, 22609.00
971.9870, 22363.00
973.1030, 22310.00
974.2190, 22058.00
975.3340, 22022.00
976.4500, 22167.00
977.5650, 22141.00
978.6800, 22112.00
979.7950, 22112.00
980.9100, 22194.00
982.0250, 22112.00
983.1390, 22182.00
984.2530, 22104.00
985.3680, 22098.64
986.4820, 21891.00
987.5950, 22041.00
988.7090, 22045.00
989.8230, 21976.00
990.9360, 22154.00
992.0490, 22187.00
993.1620, 22046.00
994.2750, 22201.00
995.3880, 22212.00
996.5010, 22117.00
997.6130, 22366.00
998.7250, 22249.00
999.8370, 22167.00
1000.949, 22237.00
1002.061, 22364.00
1003.173, 22146.00
1004.284, 22099.00
1005.396, 22256.00
1006.507, 22167.00
1007.618, 22225.00
1008.729, 22231.00
1009.839, 22208.00
1010.950, 22329.00
1012.060, 22462.00
1013.171, 22358.00
1014.281, 22198.00
1015.391, 22211.00
1016.500, 22255.00
1017.610, 22211.00
1018.719, 22156.00
1019.829, 22477.00
1020.938, 22160.00
1022.047, 22289.00
1023.156, 22125.00
1024.264, 22121.00
1025.373, 22365.00
1026.481, 22283.00
1027.589, 22352.00
1028.697, 22247.00
1029.805, 22187.00
1030.913, 22134.00
1032.020, 22132.69
1033.128, 22360.00
1034.235, 22217.00
1035.342, 22322.00
1036.449, 22450.00
1037.556, 22245.00
1038.663, 22507.00
1039.769, 22205.00
1040.875, 22389.00
1041.981, 22383.00
1043.087, 22210.00
1044.193, 22247.00
1045.299, 22358.00
1046.404, 22408.00
1047.510, 22358.00
1048.615, 22493.00
1049.720, 22274.00
1050.825, 22450.00
1051.930, 22442.00
1053.034, 22477.00
1054.139, 22592.00
1055.243, 22490.00
1056.347, 22622.00
1057.451, 22615.00
1058.555, 22638.00
1059.658, 22595.00
1060.762, 22621.59
1061.865, 22582.00
1062.968, 22658.00
1064.071, 22726.00
1065.174, 22772.78
1066.277, 22785.17
1067.380, 22800.00
1068.482, 22764.00
1069.584, 22662.00
1070.686, 22620.00
1071.788, 22663.00
1072.890, 22809.00
1073.992, 22784.00
1075.093, 22865.00
1076.194, 22884.00
1077.295, 22716.00
1078.396, 22988.00
1079.497, 22876.00
1080.598, 22767.00
1081.698, 22805.00
1082.799, 23028.00
1083.899, 23074.00
1084.999, 23069.00
1086.099, 22975.00
1087.199, 23127.00
1088.298, 23116.00
1089.398, 23105.00
1090.497, 23219.00
1091.596, 23346.00
1092.695, 23526.00
1093.794, 23248.00
1094.892, 23489.00
1095.991, 23271.00
1097.089, 23309.00
1098.187, 23133.00
1099.285, 23073.00
1100.383, 23174.00
1101.481, 22998.00
1102.579, 23014.00
1103.676, 23121.00
1104.773, 23217.00
1105.870, 23213.75
1106.967, 23178.12
1108.064, 23184.00
1109.161, 23091.00
1110.257, 22965.00
1111.353, 23129.00
1112.449, 23173.00
1113.545, 23013.00
1114.641, 23166.00
1115.737, 23180.00
1116.832, 23389.00
1117.928, 23540.00
1119.023, 23894.00
1120.118, 23919.00
1121.213, 23631.00
1122.308, 23787.00
1123.402, 23371.00
1124.497, 23455.00
1125.591, 23507.00
1126.685, 23447.00
1127.779, 23276.00
1128.873, 23230.00
1129.967, 23155.00
1131.060, 23195.00
1132.153, 23268.00
1133.247, 23223.00
1134.340, 23225.00
1135.433, 23161.00
1136.525, 23117.00
1137.618, 23248.00
1138.710, 23092.00
1139.802, 23136.00
1140.895, 23306.00
1141.987, 23123.00
1143.078, 23379.00
1144.170, 23321.00
1145.261, 23144.00
1146.353, 23339.00
1147.444, 23271.00
1148.535, 23288.00
1149.626, 23331.00
1150.716, 23318.00
1151.807, 23542.00
1152.897, 23119.00
1153.988, 23415.00
1155.078, 23408.00
1156.168, 23233.00
1157.257, 23456.00
1158.347, 23327.00
1159.436, 23309.00
1160.526, 23594.00
1161.615, 23445.00
1162.704, 23579.00
1163.793, 23297.00
1164.881, 23398.00
1165.970, 23486.00
1167.058, 23660.00
1168.147, 23564.00
1169.235, 23534.00
1170.323, 23437.00
1171.410, 23538.00
1172.498, 23465.00
1173.585, 23415.00
1174.673, 23611.00
1175.760, 23476.00
1176.847, 23716.00
1177.934, 23648.00
1179.020, 23461.00
1180.107, 23670.00
1181.193, 23438.00
1182.279, 23516.00
1183.365, 23608.00
1184.451, 23612.00
1185.537, 23537.00
1186.623, 23598.00
1187.708, 23723.00
1188.793, 23569.00
1189.878, 23946.00
1190.963, 23764.00
1192.048, 23779.00
1193.133, 23647.00
1194.217, 23582.00
1195.302, 23546.00
1196.386, 23708.00
1197.470, 23916.00
1198.554, 24181.00
1199.638, 23770.00
1200.721, 23903.00
1201.805, 23909.00
1202.888, 23860.00
1203.971, 23957.10
1205.054, 23878.00
1206.137, 24020.00
1207.219, 23991.00
1208.302, 23954.00
1209.384, 23911.00
1210.466, 24021.00
1211.548, 24098.00
1212.630, 23964.00
1213.712, 24133.00
1214.794, 24025.00
1215.875, 23911.00
1216.956, 24063.00
1218.037, 24097.00
1219.118, 24194.00
1220.199, 24108.00
1221.280, 24106.65
1222.360, 24321.00
1223.441, 24171.00
1224.521, 23955.00
1225.601, 24371.00
1226.681, 24305.00
1227.760, 24235.00
1228.840, 24377.00
1229.919, 24520.00
1230.999, 24385.00
1232.078, 24538.00
1233.157, 24481.81
1234.236, 24404.00
1235.314, 24432.00
1236.393, 24320.00
1237.471, 24320.00
1238.549, 24334.33
1239.627, 24331.55
1240.705, 24372.00
1241.783, 24433.00
1242.860, 24428.00
1243.938, 24523.00
1245.015, 24533.07
1246.092, 24521.00
1247.169, 24600.00
1248.246, 24613.00
1249.323, 24673.00
1250.399, 24553.00
1251.475, 24635.00
1252.552, 24569.00
1253.628, 24535.00
1254.703, 24726.00
1255.779, 24766.00
1256.855, 24664.00
1257.930, 24595.00
1259.005, 24706.00
1260.080, 24815.00
1261.155, 24676.00
1262.230, 24735.00
1263.305, 24852.00
1264.379, 25073.00
1265.454, 25080.00
1266.528, 25178.62
1267.602, 24966.00
1268.676, 25116.00
1269.750, 25313.00
1270.823, 24995.56
1271.897, 25138.31
1272.970, 25009.00
1274.043, 25051.00
1275.116, 25088.00
1276.189, 25030.00
1277.261, 25279.00
1278.334, 25253.00
1279.406, 25166.00
1280.478, 25261.16
1281.550, 25097.00
1282.622, 25284.00
1283.694, 25146.00
1284.766, 25211.00
1285.837, 25329.00
1286.908, 24947.00
1287.979, 25245.00
1289.050, 25243.00
1290.121, 25323.00
1291.192, 25409.00
1292.262, 25446.00
1293.333, 25457.00
1294.403, 25164.00
1295.473, 25491.00
1296.543, 25439.00
1297.613, 25401.00
1298.682, 25586.00
1299.752, 25552.00
1300.821, 25558.00
1301.890, 25520.00
1302.959, 25557.00
1304.028, 25629.00
1305.096, 25639.00
1306.165, 25671.00
1307.233, 25776.00
1308.301, 25719.00
1309.370, 25919.00
1310.437, 26209.00
1311.505, 26023.00
1312.573, 25887.00
1313.640, 26196.00
1314.708, 26019.00
1315.775, 26122.00
1316.842, 26004.00
1317.908, 26019.95
1318.975, 26032.39
1320.042, 26091.00
1321.108, 26072.00
1322.174, 26186.00
1323.240, 26279.00
1324.306, 26058.00
1325.372, 26132.00
1326.438, 26193.00
1327.503, 26262.00
1328.568, 26159.00
1329.634, 26316.00
1330.699, 26498.00
1331.763, 26418.00
1332.828, 26763.00
1333.893, 26423.00
1334.957, 26310.00
1336.021, 26181.00
