##NAMES=Chloritoid
##RRUFFID=R060292
##IDEAL CHEMISTRY=Fe^2+^Al_2_OSiO_4_(OH)_2_
##LOCALITY=Pech, Kunar Province, Afghanistan
##OWNER=RRUFF
##SOURCE=Herb Obodda
##DESCRIPTION=Black tabular crystal
##STATUS=The identification of this mineral has been confirmed by X-ray diffraction and chemical analysis
##URL=rruff.info/R060292
##MEASURED CHEMISTRY=(Fe^2+^_1.55_Mg_0.43_Mn_0.02_)_Σ=2_(Al_3.93_Fe^3+^_0.07_)_Σ=4_Si_2.00_O_10_(OH)_4_
##PIN_ID=M00356
##ORIENTATION=Laser parallel to b* (0 1 0). Fiducial mark perpendicular to laser is parallel to -c [0 0 -1]
89.77700, 12192.57
91.01200, 12362.00
92.24600, 12363.00
93.48000, 12426.00
94.71400, 12463.00
95.94800, 12566.00
97.18200, 12616.00
98.41600, 12407.00
99.64900, 12280.00
100.8830, 12558.00
102.1160, 13151.00
103.3490, 13974.00
104.5820, 15406.00
105.8150, 14790.93
107.0470, 16722.00
108.2800, 14050.00
109.5120, 13376.00
110.7440, 13524.00
111.9760, 13895.00
113.2080, 14207.00
114.4400, 13890.00
115.6710, 13819.00
116.9030, 13428.00
118.1340, 13009.00
119.3650, 12873.00
120.5960, 12561.06
121.8270, 12613.00
123.0580, 12282.00
124.2880, 12242.00
125.5190, 12388.00
126.7490, 12472.00
127.9790, 12451.00
129.2090, 12315.00
130.4390, 12108.00
131.6680, 12155.00
132.8980, 12205.00
134.1270, 12399.00
135.3560, 12607.00
136.5850, 12549.00
137.8140, 12475.00
139.0430, 12214.00
140.2710, 12253.00
141.5000, 12140.00
142.7280, 12185.00
143.9560, 12241.00
145.1840, 12226.00
146.4120, 12051.00
147.6390, 12183.00
148.8670, 12608.00
150.0940, 12367.00
151.3210, 12316.00
152.5490, 12267.00
153.7750, 12080.00
155.0020, 12000.00
156.2290, 12072.00
157.4550, 12101.00
158.6810, 12095.00
159.9080, 12346.00
161.1340, 12436.00
162.3590, 12443.00
163.5850, 12554.00
164.8110, 12406.00
166.0360, 12404.00
167.2610, 12436.92
168.4860, 12500.00
169.7110, 12486.00
170.9360, 12333.00
172.1610, 12347.00
173.3850, 12564.00
174.6100, 12574.00
175.8340, 12373.00
177.0580, 12479.00
178.2820, 12408.00
179.5050, 12569.00
180.7290, 12453.00
181.9520, 12621.00
183.1760, 12593.00
184.3990, 12837.00
185.6220, 12727.00
186.8450, 12829.00
188.0670, 12928.00
189.2900, 12959.00
190.5120, 13130.00
191.7340, 13129.00
192.9560, 13221.00
194.1780, 13291.00
195.4000, 13252.00
196.6220, 13418.00
197.8430, 13396.00
199.0640, 13744.00
200.2860, 13589.00
201.5070, 13191.00
202.7270, 12785.00
203.9480, 12411.00
205.1690, 12427.00
206.3890, 12336.00
207.6090, 12195.00
208.8290, 12212.00
210.0490, 12377.00
211.2690, 12466.00
212.4890, 12363.00
213.7080, 12351.00
214.9280, 12434.00
216.1470, 12306.00
217.3660, 12225.00
218.5850, 12429.00
219.8030, 12363.00
221.0220, 12379.00
222.2400, 12379.00
223.4590, 12239.00
224.6770, 12318.00
225.8950, 12252.88
227.1120, 12255.00
228.3300, 12253.00
229.5480, 12334.00
230.7650, 12434.00
231.9820, 12453.00
233.1990, 12381.00
234.4160, 12411.00
235.6330, 12373.00
236.8490, 12393.38
238.0660, 12423.00
239.2820, 12430.00
240.4980, 12437.00
241.7140, 12412.00
242.9300, 12580.00
244.1460, 12352.00
245.3610, 12572.00
246.5770, 12572.00
247.7920, 12433.00
249.0070, 12544.00
250.2220, 12704.00
251.4370, 12612.00
252.6510, 12770.00
253.8660, 13034.00
255.0800, 13101.00
256.2940, 13168.60
257.5080, 13095.71
258.7220, 13075.00
259.9360, 12907.00
261.1490, 12872.97
262.3630, 12782.00
263.5760, 12771.00
264.7890, 12846.00
266.0020, 12901.00
267.2150, 13059.00
268.4270, 13025.00
269.6400, 13076.00
270.8520, 13260.00
272.0640, 13270.00
273.2760, 13298.00
274.4880, 13348.00
275.7000, 13228.00
276.9120, 13294.00
278.1230, 13308.00
279.3340, 13492.00
280.5450, 13390.00
281.7560, 13408.00
282.9670, 13437.00
284.1780, 13355.00
285.3880, 13410.00
286.5980, 13334.00
287.8090, 13190.00
289.0190, 13355.00
290.2290, 12991.00
291.4380, 12807.00
292.6480, 12924.00
293.8570, 13006.00
295.0670, 12972.00
296.2760, 12776.00
297.4850, 12932.00
298.6930, 12848.00
299.9020, 12949.00
301.1110, 12970.00
302.3190, 12933.00
303.5270, 13111.00
304.7350, 13030.00
305.9430, 12980.00
307.1510, 12962.00
308.3580, 12999.04
309.5660, 12992.79
310.7730, 13146.00
311.9800, 13117.00
313.1870, 13196.00
314.3940, 13416.00
315.6010, 13469.00
316.8070, 13527.00
318.0130, 13577.00
319.2200, 13928.00
320.4260, 14068.00
321.6310, 14397.00
322.8370, 14621.00
324.0430, 14723.00
325.2480, 14602.00
326.4540, 14550.00
327.6590, 14420.00
328.8640, 14435.00
330.0680, 14587.00
331.2730, 14437.00
332.4780, 14633.00
333.6820, 14567.00
334.8860, 14706.00
336.0900, 14601.00
337.2940, 14336.00
338.4980, 14253.00
339.7010, 14039.00
340.9050, 13850.00
342.1080, 13601.00
343.3110, 13695.00
344.5140, 13597.00
345.7170, 13718.00
346.9200, 13644.00
348.1220, 13537.00
349.3240, 13711.00
350.5270, 13533.00
351.7290, 13433.00
352.9310, 13356.00
354.1320, 13457.00
355.3340, 13518.00
356.5350, 13486.00
357.7370, 13426.00
358.9380, 13298.00
360.1390, 13376.00
361.3400, 13394.00
362.5400, 13473.00
363.7410, 13513.00
364.9410, 13526.00
366.1410, 13532.48
367.3410, 13475.00
368.5410, 13524.00
369.7410, 13474.00
370.9400, 13538.00
372.1400, 13650.00
373.3390, 13573.00
374.5380, 13709.00
375.7370, 13562.00
376.9360, 13480.00
378.1350, 13672.00
379.3330, 13901.00
380.5310, 13654.00
381.7300, 13883.00
382.9280, 13783.00
384.1260, 13904.00
385.3230, 14114.00
386.5210, 14061.00
387.7180, 14249.00
388.9160, 14263.00
390.1130, 14274.00
391.3100, 14346.00
392.5060, 14463.00
393.7030, 14399.00
394.9000, 14415.00
396.0960, 14275.00
397.2920, 14443.00
398.4880, 14363.00
399.6840, 14497.00
400.8800, 14502.00
402.0750, 14505.00
403.2710, 14464.00
404.4660, 14295.00
405.6610, 14504.00
406.8560, 14253.00
408.0510, 14338.00
409.2450, 14208.00
410.4400, 14415.00
411.6340, 14395.00
412.8280, 14373.00
414.0220, 14416.00
415.2160, 14536.00
416.4100, 14430.00
417.6030, 14589.00
418.7970, 14630.00
419.9900, 14509.00
421.1830, 14597.00
422.3760, 14487.00
423.5690, 14499.00
424.7610, 14500.00
425.9540, 14549.00
427.1460, 14510.00
428.3380, 14618.00
429.5300, 14494.00
430.7220, 14528.00
431.9140, 14539.00
433.1050, 14402.00
434.2970, 14410.00
435.4880, 14526.00
436.6790, 14580.00
437.8700, 14576.00
439.0610, 14609.00
440.2510, 14503.00
441.4420, 14525.00
442.6320, 14621.00
443.8220, 14514.00
445.0120, 14615.00
446.2020, 14643.00
447.3910, 14781.00
448.5810, 14713.00
449.7700, 14627.00
450.9600, 14845.00
452.1490, 14639.00
453.3370, 14938.00
454.5260, 14900.00
455.7150, 14879.00
456.9030, 14983.00
458.0910, 14927.00
459.2800, 15071.00
460.4670, 15177.00
461.6550, 15169.00
462.8430, 15183.00
464.0300, 15290.00
465.2180, 15355.00
466.4050, 15392.00
467.5920, 15444.00
468.7790, 15553.00
469.9650, 15629.00
471.1520, 15637.00
472.3380, 15690.00
473.5250, 15688.00
474.7110, 15774.00
475.8970, 15897.00
477.0820, 16076.00
478.2680, 16072.00
479.4540, 16169.00
480.6390, 16335.00
481.8240, 16412.00
483.0090, 16565.00
484.1940, 16650.00
485.3780, 17035.00
486.5630, 17373.00
487.7470, 17942.00
488.9320, 19101.00
490.1160, 19358.00
491.3000, 19219.00
492.4830, 19294.00
493.6670, 19122.00
494.8500, 19290.00
496.0340, 19325.00
497.2170, 19430.00
498.4000, 19769.00
499.5820, 19834.00
500.7650, 19754.00
501.9480, 19700.00
503.1300, 19063.00
504.3120, 19177.00
505.4940, 18311.00
506.6760, 17673.00
507.8580, 17514.00
509.0390, 17183.00
510.2210, 17031.00
511.4020, 16994.00
512.5830, 16649.00
513.7640, 16346.00
514.9450, 16466.00
516.1250, 16173.00
517.3060, 16231.00
518.4860, 16315.00
519.6660, 16183.00
520.8460, 16090.00
522.0260, 16303.00
523.2060, 16296.00
524.3850, 16380.00
525.5650, 16349.00
526.7440, 16269.00
527.9230, 16386.00
529.1020, 16439.00
530.2810, 16289.00
531.4590, 16535.00
532.6380, 16598.00
533.8160, 16529.00
534.9940, 16568.00
536.1720, 16561.00
537.3500, 16666.00
538.5270, 16864.00
539.7050, 16954.00
540.8820, 17376.00
542.0590, 17744.00
543.2360, 18358.00
544.4130, 18917.00
545.5900, 19248.00
546.7660, 19270.00
547.9430, 18914.00
549.1190, 18787.00
550.2950, 18740.00
551.4710, 18774.00
552.6470, 19043.00
553.8220, 19262.00
554.9980, 19119.00
556.1730, 18779.00
557.3480, 18314.00
558.5230, 17860.00
559.6980, 17346.00
560.8730, 17021.00
562.0470, 16820.00
563.2220, 16737.00
564.3960, 16989.00
565.5700, 18738.00
566.7440, 19244.00
567.9170, 17829.00
569.0910, 16992.00
570.2640, 16821.00
571.4380, 16935.00
572.6110, 17176.00
573.7840, 17010.00
574.9570, 17458.00
576.1290, 17549.00
577.3020, 17839.00
578.4740, 18713.00
579.6460, 20335.00
580.8180, 22278.00
581.9900, 24177.00
583.1620, 29059.00
584.3330, 36578.00
585.5040, 46906.00
586.6760, 55774.00
587.8470, 56000.00
589.0180, 50688.00
590.1880, 45429.00
591.3590, 43248.00
592.5290, 44015.00
593.7000, 46506.00
594.8700, 50017.00
596.0400, 51578.00
597.2090, 49420.00
598.3790, 42854.00
599.5490, 34302.00
600.7180, 27701.00
601.8870, 23534.00
603.0560, 21119.00
604.2250, 19537.00
605.3940, 18848.00
606.5620, 17903.00
607.7300, 17527.00
608.8990, 17097.00
610.0670, 16807.00
611.2350, 16517.06
612.4020, 16346.00
613.5700, 16110.00
614.7370, 16004.00
615.9050, 15961.00
617.0720, 15864.00
618.2390, 15777.00
619.4060, 15716.30
620.5720, 15663.89
621.7390, 15597.00
622.9050, 15581.00
624.0710, 15572.00
625.2370, 15505.00
626.4030, 15348.00
627.5690, 15875.00
628.7340, 16077.00
629.9000, 16049.00
631.0650, 15373.00
632.2300, 15288.00
633.3950, 15372.00
634.5600, 15197.00
635.7240, 15312.00
636.8890, 15290.00
638.0530, 15186.00
639.2170, 15236.00
640.3810, 15145.92
641.5450, 15065.00
642.7080, 15059.00
643.8720, 14993.00
645.0350, 15014.00
646.1980, 15048.00
647.3610, 15042.53
648.5240, 14987.00
649.6870, 15114.00
650.8490, 15095.00
652.0120, 15173.00
653.1740, 15020.00
654.3360, 14979.00
655.4980, 15131.00
656.6600, 15055.00
657.8210, 15141.00
658.9830, 15092.00
660.1440, 15133.16
661.3050, 15276.00
662.4660, 15169.00
663.6270, 15204.00
664.7870, 15129.00
665.9480, 15243.00
667.1080, 15195.00
668.2680, 15385.00
669.4280, 15295.00
670.5880, 15319.00
671.7480, 15257.00
672.9070, 15176.00
674.0670, 15039.00
675.2260, 15048.32
676.3850, 15014.52
677.5440, 15054.00
678.7030, 15024.00
679.8610, 15064.00
681.0200, 15028.00
682.1780, 14933.00
683.3360, 14908.00
684.4940, 15031.00
685.6520, 14986.00
686.8090, 15083.00
687.9670, 15033.00
689.1240, 15084.00
690.2810, 15059.00
691.4380, 15080.00
692.5950, 15082.00
693.7520, 15115.00
694.9080, 15082.00
696.0650, 15112.00
697.2210, 15084.00
698.3770, 15214.00
699.5330, 14992.00
700.6880, 15162.00
701.8440, 15000.00
702.9990, 15128.00
704.1550, 15111.00
705.3100, 15257.00
706.4650, 15136.00
707.6190, 15251.00
708.7740, 15312.00
709.9290, 15206.00
711.0830, 15348.00
712.2370, 15408.00
713.3910, 15540.00
714.5450, 15534.00
715.6980, 15594.00
716.8520, 15560.00
718.0050, 15675.99
719.1580, 15844.00
720.3110, 15857.00
721.4640, 16030.00
722.6170, 16041.00
723.7700, 16383.00
724.9220, 16391.00
726.0740, 16328.00
727.2260, 16640.00
728.3780, 16688.00
729.5300, 16882.00
730.6810, 16969.00
731.8330, 16988.00
732.9840, 17130.00
734.1350, 17272.00
735.2860, 17462.00
736.4370, 17332.00
737.5880, 17351.00
738.7380, 17182.00
739.8880, 16970.00
741.0390, 17080.00
742.1890, 16929.00
743.3380, 16840.00
744.4880, 16567.00
745.6380, 16382.00
746.7870, 16246.00
747.9360, 16199.00
749.0850, 16120.00
750.2340, 16106.00
751.3830, 15956.00
752.5310, 15847.00
753.6800, 15808.89
754.8280, 15674.00
755.9760, 15707.00
757.1240, 15658.00
758.2720, 15621.00
759.4190, 15574.00
760.5670, 15610.00
761.7140, 15377.00
762.8610, 15522.00
764.0080, 15404.00
765.1550, 15401.00
766.3020, 15424.00
767.4480, 15345.00
768.5950, 15484.00
769.7410, 15579.00
770.8870, 15423.00
772.0330, 15453.00
773.1780, 15533.00
774.3240, 15477.00
775.4690, 15477.00
776.6140, 15486.00
777.7590, 15535.00
778.9040, 15585.00
780.0490, 15505.00
781.1940, 15313.00
782.3380, 15628.00
783.4820, 15425.00
784.6260, 15557.00
785.7700, 15420.00
786.9140, 15607.00
788.0580, 15518.00
789.2010, 15492.00
790.3450, 15556.00
791.4880, 15603.00
792.6310, 15575.02
793.7730, 15467.00
794.9160, 15540.00
796.0590, 15505.00
797.2010, 15479.00
798.3430, 15537.18
799.4850, 15617.00
800.6270, 15576.00
801.7690, 15581.00
802.9100, 15521.00
804.0520, 15582.00
805.1930, 15609.00
806.3340, 15538.00
807.4750, 15704.00
808.6160, 15661.00
809.7560, 15679.00
810.8970, 15560.00
812.0370, 15709.00
813.1770, 15719.00
814.3170, 15684.00
815.4570, 15485.00
816.5960, 15725.00
817.7360, 15645.00
818.8750, 15750.00
820.0140, 15826.00
821.1530, 15761.00
822.2920, 15805.00
823.4310, 15804.00
824.5690, 15713.00
825.7070, 15792.00
826.8460, 15938.00
827.9840, 15953.00
829.1220, 15938.00
830.2590, 16281.00
831.3970, 15951.00
832.5340, 16031.00
833.6710, 16229.00
834.8080, 16400.00
835.9450, 16370.25
837.0820, 16335.00
838.2190, 16433.00
839.3550, 16286.00
840.4910, 16567.00
841.6270, 16620.00
842.7630, 16604.00
843.8990, 16527.00
845.0350, 16661.00
846.1700, 16790.00
847.3060, 16927.00
848.4410, 16704.00
849.5760, 16818.00
850.7100, 16931.00
851.8450, 17204.00
852.9800, 17267.00
854.1140, 17392.00
855.2480, 17477.00
856.3820, 17578.00
857.5160, 17640.00
858.6500, 17745.71
859.7830, 18043.00
860.9170, 18001.00
862.0500, 18231.00
863.1830, 18500.21
864.3160, 18874.00
865.4480, 19462.00
866.5810, 20014.00
867.7130, 20821.00
868.8460, 21116.00
869.9780, 22016.00
871.1100, 22565.00
872.2410, 23374.00
873.3730, 24119.00
874.5050, 24725.00
875.6360, 24994.00
876.7670, 25168.00
877.8980, 25382.00
879.0290, 25269.94
880.1590, 25080.00
881.2900, 24811.00
882.4200, 24398.00
883.5500, 23872.00
884.6800, 23352.00
885.8100, 22575.00
886.9400, 21985.00
888.0690, 21166.00
889.1990, 20637.00
890.3280, 19951.00
891.4570, 19493.20
892.5860, 19286.00
893.7140, 18754.00
894.8430, 18601.00
895.9710, 18427.00
897.1000, 18300.00
898.2280, 18025.00
899.3560, 18080.00
900.4830, 17871.00
901.6110, 17746.00
902.7380, 17742.00
903.8660, 17568.00
904.9930, 17517.00
906.1200, 17372.00
907.2460, 17454.00
908.3730, 17396.84
909.5000, 17362.00
910.6260, 17396.00
911.7520, 17410.00
912.8780, 17380.00
914.0040, 17267.00
915.1290, 17355.00
916.2550, 17244.00
917.3800, 17423.00
918.5050, 17471.00
919.6300, 17486.00
920.7550, 17400.00
921.8800, 17399.00
923.0040, 17317.00
924.1290, 17231.00
925.2530, 17437.00
926.3770, 17413.00
927.5010, 17397.00
928.6250, 17480.00
929.7480, 17294.00
930.8720, 17494.00
931.9950, 17312.00
933.1180, 17368.00
934.2410, 17437.00
935.3640, 17600.00
936.4860, 17644.00
937.6090, 17436.00
938.7310, 17662.00
939.8530, 17485.00
940.9750, 17715.00
942.0970, 17626.00
943.2180, 17807.00
944.3400, 17883.00
945.4610, 17832.00
946.5820, 17874.00
947.7030, 17811.00
948.8240, 18058.00
949.9450, 18104.00
951.0650, 18387.00
952.1860, 18171.00
953.3060, 18045.00
954.4260, 18137.00
955.5460, 17824.00
956.6650, 18096.00
957.7850, 17973.00
958.9040, 17883.00
960.0230, 17891.00
961.1420, 17735.00
962.2610, 17671.00
963.3800, 17590.00
964.4990, 17500.63
965.6170, 17493.25
966.7350, 17354.00
967.8530, 17466.00
968.9710, 17386.00
970.0890, 17337.00
971.2070, 17324.00
972.3240, 17230.00
973.4410, 17224.00
974.5580, 17194.88
975.6750, 17227.00
976.7920, 17119.00
977.9090, 16958.00
979.0250, 16811.00
980.1410, 16929.00
981.2580, 16888.00
982.3740, 16962.00
983.4890, 16958.68
984.6050, 16932.00
985.7200, 16936.00
986.8360, 16754.00
987.9510, 16718.00
989.0660, 16714.00
990.1810, 16743.00
991.2950, 16849.00
992.4100, 16752.00
993.5240, 16785.00
994.6390, 16664.00
995.7530, 16875.00
996.8660, 16558.00
997.9800, 16697.00
999.0940, 16792.00
1000.207, 16642.00
1001.320, 16796.00
1002.433, 16603.00
1003.546, 16848.00
1004.659, 16584.00
1005.772, 16835.00
1006.884, 16713.00
1007.996, 16617.00
1009.108, 16840.00
1010.220, 16615.00
1011.332, 16676.00
1012.444, 16625.00
1013.555, 16755.00
1014.666, 16751.00
1015.777, 16735.00
1016.888, 16764.00
1017.999, 16765.00
1019.110, 16657.00
1020.220, 16768.00
1021.331, 16680.00
1022.441, 16794.00
1023.551, 16663.00
1024.661, 16624.00
1025.770, 16730.00
1026.880, 16849.00
1027.989, 16832.00
1029.098, 16718.00
1030.207, 16845.00
1031.316, 16747.00
1032.425, 16930.00
1033.533, 16953.00
1034.642, 16715.00
1035.750, 16695.00
1036.858, 16639.00
1037.966, 16617.62
1039.073, 16951.00
1040.181, 16792.00
1041.288, 16774.00
1042.396, 17068.00
1043.503, 16997.00
1044.610, 16878.00
1045.716, 16864.00
1046.823, 16930.00
1047.929, 16720.00
1049.036, 16793.00
1050.142, 16871.00
1051.248, 16814.00
1052.353, 16966.00
1053.459, 16829.00
1054.564, 16869.00
1055.670, 16966.00
1056.775, 16946.00
1057.880, 16782.00
1058.985, 16811.00
1060.089, 16701.00
1061.194, 16982.00
1062.298, 16853.00
1063.402, 16915.00
1064.506, 17025.00
1065.610, 16865.00
1066.713, 16931.00
1067.817, 16871.00
1068.920, 16871.00
1070.023, 16944.00
1071.126, 16977.00
1072.229, 16843.00
1073.332, 16878.00
1074.435, 16832.00
1075.537, 16961.00
1076.639, 16842.00
1077.741, 16788.00
1078.843, 16925.00
1079.945, 16921.00
1081.046, 16901.00
1082.148, 16822.00
1083.249, 16882.57
1084.350, 16883.43
1085.451, 16894.00
1086.551, 17027.00
1087.652, 16878.00
1088.752, 17057.00
1089.853, 16913.00
1090.953, 16949.00
1092.053, 16839.00
1093.152, 17004.00
1094.252, 16847.00
1095.351, 16790.00
1096.451, 16904.00
1097.550, 16810.00
1098.649, 16864.00
1099.748, 16813.00
1100.846, 16739.00
1101.945, 16834.00
1103.043, 16765.00
1104.141, 16889.00
1105.239, 16833.00
1106.337, 16745.00
1107.434, 16693.00
1108.532, 16759.00
1109.629, 16728.01
1110.726, 16831.00
1111.823, 16830.00
1112.920, 16795.00
1114.017, 16942.00
1115.113, 17029.00
1116.210, 16983.33
1117.306, 16635.00
1118.402, 16852.00
1119.498, 16899.00
1120.593, 16694.00
1121.689, 16818.00
1122.784, 16876.00
1123.879, 16765.00
1124.974, 16597.00
1126.069, 16736.00
1127.164, 16897.00
1128.259, 16681.00
1129.353, 16675.00
1130.447, 16725.00
1131.541, 16795.00
1132.635, 16746.00
1133.729, 16511.00
1134.822, 16654.00
1135.916, 16563.00
1137.009, 16659.00
1138.102, 16573.00
1139.195, 16568.00
1140.288, 16731.00
1141.380, 16680.00
1142.473, 16709.00
1143.565, 16595.00
1144.657, 16712.00
1145.749, 16524.00
1146.841, 16662.00
1147.932, 16539.00
1149.024, 16672.00
1150.115, 16524.00
1151.206, 16721.00
1152.297, 16589.00
1153.388, 16576.00
1154.479, 16602.81
1155.569, 16607.00
1156.659, 16535.00
1157.750, 16587.00
1158.839, 16494.00
1159.929, 16568.00
1161.019, 16373.00
1162.108, 16563.00
1163.198, 16534.00
1164.287, 16746.00
1165.376, 16556.00
1166.465, 16476.00
1167.553, 16535.00
1168.642, 16476.00
1169.730, 16475.00
1170.818, 16470.29
1171.906, 16436.00
1172.994, 16446.00
1174.082, 16429.00
1175.170, 16432.00
1176.257, 16387.00
1177.344, 16404.00
1178.431, 16403.92
1179.518, 16459.00
1180.605, 16381.00
1181.691, 16445.00
1182.778, 16335.00
1183.864, 16487.00
1184.950, 16556.00
1186.036, 16273.00
1187.122, 16444.00
1188.207, 16281.00
1189.292, 16336.00
1190.378, 16427.00
1191.463, 16307.00
1192.548, 16377.00
1193.632, 16445.00
1194.717, 16337.00
1195.801, 16396.00
1196.886, 16243.00
1197.970, 16391.00
1199.054, 16336.00
1200.137, 16282.00
1201.221, 16291.00
1202.305, 16232.00
1203.388, 16242.78
1204.471, 16257.51
1205.554, 16266.00
1206.637, 16332.00
1207.719, 16369.00
1208.802, 16450.00
1209.884, 16378.00
1210.966, 16344.00
1212.048, 16353.00
1213.130, 16420.00
1214.212, 16410.00
1215.293, 16419.00
1216.374, 16413.00
1217.456, 16310.00
1218.536, 16331.00
1219.617, 16291.00
1220.698, 16277.00
1221.778, 16339.00
1222.859, 16350.00
1223.939, 16265.00
1225.019, 16492.00
1226.099, 16331.00
1227.178, 16320.00
1228.258, 16333.00
1229.337, 16485.00
1230.417, 16398.00
1231.496, 16406.00
1232.574, 16228.00
1233.653, 16421.00
1234.732, 16313.00
1235.810, 16367.00
1236.888, 16150.00
1237.966, 16449.00
1239.044, 16286.00
1240.122, 16444.00
1241.199, 16331.00
1242.277, 16348.00
1243.354, 16336.00
1244.431, 16347.00
1245.508, 16284.00
1246.585, 16379.00
1247.661, 16267.00
1248.738, 16417.00
1249.814, 16344.00
1250.890, 16157.00
1251.966, 16358.00
1253.042, 16275.00
1254.117, 16229.00
1255.193, 16256.00
1256.268, 16314.00
1257.343, 16441.00
1258.418, 16443.00
1259.493, 16274.00
1260.567, 16339.00
1261.642, 16187.00
1262.716, 16469.00
1263.790, 16421.00
1264.864, 16332.00
1265.938, 16243.00
1267.011, 16228.00
1268.085, 16346.00
1269.158, 16467.00
1270.231, 16198.00
