##NAMES=Chloritoid
##RRUFFID=R050334
##IDEAL CHEMISTRY=Fe^2+^Al_2_OSiO_4_(OH)_2_
##LOCALITY=Selçuk, Mugla Province, Turkey
##OWNER=RRUFF
##SOURCE=George Rossman
##DESCRIPTION=Dark greenish-black foliated cleavage fragments
##STATUS=The identification of this mineral is confirmed by single-crystal X-ray diffraction and chemical analysis.
##URL=rruff.info/R050334
##MEASURED CHEMISTRY=(Fe^2+^_1.84_Mg_0.12_Mn_0.04_)_Σ=2_(Al_3.95_Fe^3+^_0.05_)_Σ=4_Si_2.00_O_10_(OH)_4_ ; H not measured but estimated by difference and stoichiometry
##PIN_ID=M01684
##ORIENTATION=Laser parallel to c* (0 0 1). Fiducial mark perpendicular to laser is parallel to a [1 0 0]
147.4850, 12132.00
148.7160, 12101.00
149.9470, 12090.00
151.1780, 12282.00
152.4080, 12357.00
153.6380, 12114.00
154.8690, 12215.00
156.0980, 12121.00
157.3280, 12085.00
158.5580, 12232.00
159.7870, 12218.00
161.0170, 12281.00
162.2460, 12313.00
163.4750, 12341.14
164.7030, 12412.00
165.9320, 12429.00
167.1600, 12448.00
168.3890, 12516.00
169.6170, 12557.00
170.8450, 12544.00
172.0730, 12545.25
173.3000, 12544.89
174.5280, 12525.00
175.7550, 12554.00
176.9820, 12646.00
178.2090, 12728.00
179.4350, 12658.00
180.6620, 12608.00
181.8880, 12681.00
183.1150, 12609.00
184.3410, 12687.00
185.5670, 12717.50
186.7920, 12825.00
188.0180, 12870.00
189.2430, 12887.00
190.4690, 13070.00
191.6940, 13214.00
192.9180, 13166.00
194.1430, 13214.00
195.3680, 13379.00
196.5920, 13280.00
197.8160, 13503.00
199.0400, 13476.00
200.2640, 13651.00
201.4880, 13527.00
202.7110, 13552.00
203.9350, 13479.00
205.1580, 13505.00
206.3810, 13323.00
207.6040, 13214.00
208.8270, 13321.00
210.0490, 13436.00
211.2710, 13349.00
212.4940, 13368.00
213.7160, 13339.00
214.9370, 13331.00
216.1590, 13257.00
217.3810, 13440.00
218.6020, 13202.00
219.8230, 13181.00
221.0440, 13389.00
222.2650, 13216.00
223.4860, 13237.00
224.7060, 13197.55
225.9260, 13168.14
227.1470, 13075.00
228.3670, 13160.00
229.5860, 13183.00
230.8060, 13135.00
232.0260, 12940.00
233.2450, 13014.00
234.4640, 12920.00
235.6830, 12941.00
236.9020, 13003.00
238.1200, 13087.00
239.3390, 13224.00
240.5570, 13178.00
241.7750, 13209.00
242.9930, 13155.00
244.2110, 13345.00
245.4290, 13426.00
246.6460, 13776.00
247.8630, 13828.00
249.0810, 13839.00
250.2980, 13838.00
251.5140, 13970.00
252.7310, 13960.00
253.9470, 13725.00
255.1640, 13912.00
256.3800, 13884.00
257.5960, 14017.00
258.8120, 14478.00
260.0270, 14850.00
261.2430, 14130.00
262.4580, 13588.00
263.6730, 13613.00
264.8880, 13773.00
266.1030, 13693.00
267.3170, 13869.00
268.5320, 13688.00
269.7460, 13729.00
270.9600, 13872.00
272.1740, 13990.00
273.3880, 14150.00
274.6010, 14307.00
275.8150, 14597.00
277.0280, 14845.00
278.2410, 15192.00
279.4540, 15501.00
280.6670, 15724.00
281.8790, 15677.00
283.0920, 15282.00
284.3040, 15036.00
285.5160, 14856.00
286.7280, 14639.00
287.9400, 14329.00
289.1510, 14370.00
290.3630, 14233.00
291.5740, 14137.00
292.7850, 14232.00
293.9960, 14082.00
295.2070, 14210.00
296.4170, 14329.00
297.6280, 14474.00
298.8380, 14416.00
300.0480, 14550.00
301.2580, 14524.00
302.4680, 14507.00
303.6770, 14501.00
304.8870, 14471.00
306.0960, 14443.00
307.3050, 14396.00
308.5140, 14215.00
309.7230, 14227.00
310.9310, 14246.00
312.1400, 13978.00
313.3480, 14123.00
314.5560, 14044.00
315.7640, 13957.00
316.9720, 14095.00
318.1790, 14138.00
319.3870, 14131.00
320.5940, 14308.00
321.8010, 14179.00
323.0080, 14164.00
324.2150, 14233.00
325.4210, 14273.71
326.6280, 14516.00
327.8340, 14564.00
329.0400, 14831.00
330.2460, 15110.00
331.4510, 15143.00
332.6570, 15247.00
333.8620, 15206.00
335.0680, 15184.00
336.2730, 14898.00
337.4780, 14642.00
338.6820, 14739.00
339.8870, 14585.00
341.0910, 14516.00
342.2950, 14643.00
343.5000, 14822.00
344.7030, 14881.00
345.9070, 14831.00
347.1110, 14642.00
348.3140, 14566.00
349.5170, 14549.00
350.7200, 14521.00
351.9230, 14537.00
353.1260, 14391.00
354.3290, 14480.18
355.5310, 14742.00
356.7330, 14616.00
357.9350, 14740.00
359.1370, 14877.00
360.3390, 14755.00
361.5400, 14740.00
362.7420, 14935.00
363.9430, 14999.00
365.1440, 15125.00
366.3450, 15044.00
367.5460, 15043.00
368.7460, 15053.00
369.9470, 14934.00
371.1470, 14966.13
372.3470, 15031.00
373.5470, 14949.00
374.7460, 14989.00
375.9460, 14987.00
377.1450, 14953.00
378.3450, 15121.00
379.5440, 15178.00
380.7430, 15388.00
381.9410, 15379.00
383.1400, 15364.00
384.3380, 15390.00
385.5370, 15447.00
386.7350, 15735.00
387.9320, 15687.00
389.1300, 15694.00
390.3280, 15434.00
391.5250, 15705.00
392.7220, 16000.00
393.9190, 15872.00
395.1160, 16076.00
396.3130, 16114.00
397.5100, 16295.00
398.7060, 16087.00
399.9020, 16139.00
401.0980, 16168.00
402.2940, 16062.00
403.4900, 16190.00
404.6860, 16185.00
405.8810, 16215.00
407.0760, 16161.00
408.2710, 16430.00
409.4660, 16645.00
410.6610, 16620.00
411.8550, 16640.00
413.0500, 16887.00
414.2440, 16777.15
415.4380, 16728.21
416.6320, 16701.00
417.8260, 16464.00
419.0190, 16362.00
420.2130, 16279.00
421.4060, 16287.00
422.5990, 16405.00
423.7920, 16321.00
424.9850, 16360.00
426.1770, 16198.00
427.3700, 16387.00
428.5620, 16269.00
429.7540, 16247.00
430.9460, 16023.00
432.1380, 16048.74
433.3290, 16178.00
434.5210, 16063.00
435.7120, 16057.00
436.9030, 16142.00
438.0940, 16014.00
439.2850, 16078.00
440.4750, 16244.00
441.6660, 16161.00
442.8560, 16091.00
444.0460, 15994.00
445.2360, 16155.00
446.4260, 16172.00
447.6160, 16173.00
448.8050, 16380.00
449.9940, 16371.00
451.1830, 16451.00
452.3720, 16442.00
453.5610, 16614.00
454.7500, 16626.00
455.9380, 16645.00
457.1260, 16490.00
458.3150, 16682.00
459.5020, 16652.00
460.6900, 16683.00
461.8780, 16785.00
463.0650, 16817.00
464.2530, 16927.00
465.4400, 16834.00
466.6270, 16805.00
467.8130, 16949.00
469.0000, 16960.00
470.1870, 17063.00
471.3730, 17128.33
472.5590, 17186.00
473.7450, 17194.00
474.9310, 17241.00
476.1160, 17279.47
477.3020, 17259.00
478.4870, 17332.00
479.6720, 17259.00
480.8570, 17216.00
482.0420, 17186.00
483.2270, 17193.00
484.4110, 17513.00
485.5960, 17587.00
486.7800, 17584.00
487.9640, 17716.00
489.1480, 17799.00
490.3310, 18011.00
491.5150, 18255.00
492.6980, 18622.00
493.8810, 18901.00
495.0640, 19212.00
496.2470, 19411.00
497.4300, 19444.00
498.6120, 19474.21
499.7950, 19492.00
500.9770, 19269.00
502.1590, 19108.00
503.3410, 18945.00
504.5220, 18909.00
505.7040, 18683.00
506.8850, 18559.00
508.0660, 18497.00
509.2470, 18302.00
510.4280, 18180.00
511.6090, 18184.00
512.7890, 18143.00
513.9700, 17954.00
515.1500, 18061.00
516.3300, 17767.00
517.5100, 17778.00
518.6900, 17963.00
519.8690, 17941.00
521.0490, 17832.00
522.2280, 17914.00
523.4070, 18055.00
524.5860, 18212.00
525.7640, 18291.00
526.9430, 18451.00
528.1210, 18540.00
529.3000, 18525.00
530.4780, 18537.00
531.6560, 18397.00
532.8330, 18439.00
534.0110, 18010.00
535.1880, 17978.00
536.3650, 17918.00
537.5430, 17717.00
538.7190, 17592.00
539.8960, 17660.00
541.0730, 17739.00
542.2490, 17745.00
543.4250, 17878.00
544.6020, 17939.00
545.7780, 18086.00
546.9530, 18248.00
548.1290, 18669.00
549.3040, 19049.00
550.4800, 19105.00
551.6550, 19286.00
552.8300, 19310.00
554.0040, 18864.00
555.1790, 18530.00
556.3540, 18309.00
557.5280, 17944.00
558.7020, 17867.00
559.8760, 17783.00
561.0500, 17715.00
562.2230, 17710.00
563.3970, 17531.00
564.5700, 17797.00
565.7430, 17601.00
566.9160, 17761.00
568.0890, 17596.00
569.2620, 17699.00
570.4340, 17636.00
571.6070, 17906.00
572.7790, 17816.00
573.9510, 17830.00
575.1230, 18097.00
576.2940, 18115.00
577.4660, 18297.00
578.6370, 18358.00
579.8080, 18571.00
580.9790, 18778.00
582.1500, 19354.00
583.3210, 19954.00
584.4910, 20870.00
585.6620, 22356.00
586.8320, 24347.00
588.0020, 27667.00
589.1720, 31752.00
590.3410, 38749.00
591.5110, 49463.00
592.6800, 60199.00
593.8500, 63487.00
595.0190, 57126.00
596.1880, 46592.00
597.3560, 37348.00
598.5250, 31351.00
599.6930, 27392.00
600.8620, 24475.00
602.0300, 22678.00
603.1970, 21437.00
604.3650, 20624.00
605.5330, 20061.00
606.7000, 19639.00
607.8680, 19422.00
609.0350, 19143.00
610.2020, 18840.00
611.3680, 18856.00
612.5350, 18658.00
613.7010, 18526.00
614.8680, 18257.00
616.0340, 18574.00
617.2000, 18118.00
618.3660, 18414.00
619.5310, 18281.00
620.6970, 18257.00
621.8620, 18217.00
623.0270, 18101.00
624.1920, 18025.00
625.3570, 18216.00
626.5220, 18210.00
627.6860, 18282.00
628.8500, 18201.00
630.0140, 18015.00
631.1780, 18182.00
632.3420, 18046.00
633.5060, 18132.00
634.6700, 18046.00
635.8330, 18051.00
636.9960, 18056.00
638.1590, 18142.00
639.3220, 18183.00
640.4850, 18121.00
641.6470, 18161.00
642.8100, 18107.00
643.9720, 18163.00
645.1340, 17862.00
646.2960, 18170.00
647.4570, 18023.00
648.6190, 18174.00
649.7800, 18289.00
650.9420, 18170.00
652.1030, 18189.00
653.2640, 18138.00
654.4240, 18208.00
655.5850, 18167.00
656.7450, 18286.00
657.9060, 18265.00
659.0660, 18075.00
660.2260, 18310.00
661.3850, 18216.00
662.5450, 18246.76
663.7040, 18304.52
664.8640, 18310.00
666.0230, 18303.00
667.1820, 18361.00
668.3410, 18303.00
669.4990, 18422.00
670.6580, 18275.00
671.8160, 18296.00
672.9740, 18197.00
674.1320, 18276.00
675.2900, 18374.00
676.4480, 18296.00
677.6050, 18399.00
678.7630, 18469.00
679.9200, 18405.00
681.0770, 18287.00
682.2340, 18520.00
683.3900, 18602.00
684.5470, 18448.00
685.7030, 18524.00
686.8590, 18458.00
688.0150, 18284.00
689.1710, 18479.00
690.3270, 18527.00
691.4830, 18630.00
692.6380, 18647.70
693.7930, 18659.00
694.9480, 18607.00
696.1030, 18571.00
697.2580, 18525.00
698.4130, 18516.00
699.5670, 18534.00
700.7210, 18704.00
701.8750, 18804.00
703.0290, 18796.74
704.1830, 18788.00
705.3370, 18796.00
706.4900, 18718.00
707.6430, 18731.00
708.7970, 18772.00
709.9490, 19040.00
711.1020, 18886.00
712.2550, 18891.00
713.4070, 19156.00
714.5600, 18947.00
715.7120, 19286.00
716.8640, 19228.00
718.0160, 19259.00
719.1670, 19130.00
720.3190, 19374.00
721.4700, 19355.00
722.6210, 19699.00
723.7720, 19698.00
724.9230, 19568.00
726.0740, 19787.00
727.2250, 19827.00
728.3750, 19961.00
729.5250, 20185.00
730.6750, 20236.00
731.8250, 20210.00
732.9750, 20185.00
734.1240, 20232.00
735.2740, 20235.00
736.4230, 20113.00
737.5720, 20203.65
738.7210, 20153.28
739.8700, 20261.00
741.0190, 20093.00
742.1670, 20052.00
743.3150, 19908.00
744.4630, 19822.48
745.6110, 19767.06
746.7590, 19668.00
747.9070, 19649.00
749.0540, 19619.00
750.2020, 19553.00
751.3490, 19552.59
752.4960, 19535.00
753.6430, 19508.00
754.7890, 19511.61
755.9360, 19453.71
757.0820, 19571.00
758.2280, 19407.00
759.3740, 19641.00
760.5200, 19618.00
761.6660, 19476.00
762.8120, 19503.00
763.9570, 19508.00
765.1020, 19448.00
766.2470, 19635.00
767.3920, 19543.00
768.5370, 19670.00
769.6810, 19638.00
770.8260, 19604.00
771.9700, 19582.00
773.1140, 19649.97
774.2580, 19523.00
775.4020, 19579.88
776.5460, 19673.00
777.6890, 19630.00
778.8320, 19652.00
779.9750, 19728.00
781.1180, 19763.00
782.2610, 19838.00
783.4040, 19801.00
784.5460, 19890.00
785.6890, 20034.00
786.8310, 19777.00
787.9730, 19858.00
789.1150, 19990.00
790.2560, 20004.00
791.3980, 19961.00
792.5390, 19954.00
793.6810, 19979.53
794.8220, 20143.00
795.9630, 20048.00
797.1030, 20128.00
798.2440, 20191.00
799.3840, 20182.00
800.5240, 20151.00
801.6650, 20283.00
802.8040, 20320.00
803.9440, 20351.00
805.0840, 20413.41
806.2230, 20462.00
807.3630, 20465.00
808.5020, 20363.00
809.6410, 20352.00
810.7790, 20418.00
811.9180, 20284.00
813.0570, 20272.00
814.1950, 20424.00
815.3330, 20474.00
816.4710, 20556.00
817.6090, 20542.00
818.7470, 20609.00
819.8840, 20452.00
821.0220, 20680.00
822.1590, 20825.00
823.2960, 20984.00
824.4330, 20747.00
825.5690, 20775.00
826.7060, 21007.00
827.8420, 21075.00
828.9790, 21248.00
830.1150, 21338.00
831.2510, 21489.00
832.3860, 21623.00
833.5220, 21802.00
834.6570, 21910.00
835.7930, 22027.11
836.9280, 22166.00
838.0630, 22215.00
839.1980, 22390.00
840.3320, 22473.00
841.4670, 22577.00
842.6010, 22349.00
843.7350, 22396.00
844.8690, 22476.00
846.0030, 22372.00
847.1370, 22382.00
848.2700, 22277.00
849.4040, 22270.00
850.5370, 22368.00
851.6700, 22261.00
852.8030, 22045.00
853.9360, 22174.00
855.0680, 22253.00
856.2000, 22200.00
857.3330, 21955.00
858.4650, 22435.00
859.5970, 22205.00
860.7290, 22455.00
861.8600, 22357.00
862.9920, 22388.00
864.1230, 22610.01
865.2540, 22708.25
866.3850, 22951.00
867.5160, 23184.00
868.6460, 23256.00
869.7770, 23556.00
870.9070, 23968.00
872.0370, 24345.00
873.1670, 24571.00
874.2970, 25182.00
875.4270, 25674.00
876.5570, 25942.00
877.6860, 26630.00
878.8150, 26643.00
879.9440, 26876.00
881.0730, 27019.00
882.2020, 26491.00
883.3300, 26404.00
884.4590, 26080.00
885.5870, 25291.00
886.7150, 25019.00
887.8430, 24575.00
888.9710, 24514.00
890.0990, 24227.00
891.2260, 24080.00
892.3530, 23807.00
893.4810, 23713.00
894.6080, 23566.27
895.7340, 23278.00
896.8610, 23328.00
897.9880, 23130.00
899.1140, 22949.00
900.2400, 23155.00
901.3660, 23184.00
902.4920, 23154.00
903.6180, 23095.00
904.7430, 23070.00
905.8690, 23112.00
906.9940, 22993.00
908.1190, 23213.00
909.2440, 23145.00
910.3690, 22902.00
911.4930, 23034.00
912.6180, 22944.00
913.7420, 22837.00
914.8660, 23021.00
915.9900, 23066.00
917.1140, 23093.00
918.2380, 23046.00
919.3610, 22954.00
920.4850, 23320.00
921.6080, 23148.00
922.7310, 23099.00
923.8540, 22863.00
924.9760, 23089.00
926.0990, 22936.00
927.2210, 22866.00
928.3440, 23065.00
929.4660, 23252.00
930.5880, 23249.00
931.7090, 23229.00
932.8310, 23247.00
933.9520, 23160.00
935.0740, 23308.00
936.1950, 23319.00
937.3160, 23263.00
938.4360, 23282.00
939.5570, 23366.00
940.6780, 23559.00
941.7980, 23433.00
942.9180, 23501.00
944.0380, 23405.00
945.1580, 23477.00
946.2780, 23762.00
947.3970, 23606.00
948.5170, 23680.00
949.6360, 23775.00
950.7550, 23732.00
951.8740, 23723.00
952.9930, 24072.00
954.1110, 23708.00
955.2300, 24003.00
956.3480, 23730.00
957.4660, 23782.00
958.5840, 23576.00
959.7020, 23786.00
960.8190, 23790.00
961.9370, 23377.00
963.0540, 23507.00
964.1710, 23518.00
965.2880, 23790.00
966.4050, 23339.00
967.5220, 23521.00
968.6380, 23529.00
969.7550, 23458.00
970.8710, 23614.00
971.9870, 23545.00
973.1030, 23577.00
974.2190, 23608.09
975.3340, 23581.19
976.4500, 23588.00
977.5650, 23516.00
978.6800, 23430.00
979.7950, 23255.00
980.9100, 23451.00
982.0250, 23140.00
983.1390, 23262.00
984.2530, 23406.00
985.3680, 23296.00
986.4820, 23589.00
987.5950, 23573.00
988.7090, 23229.00
989.8230, 23415.00
990.9360, 23491.00
992.0490, 23344.00
993.1620, 23575.00
994.2750, 23765.00
995.3880, 23296.00
996.5010, 23539.00
997.6130, 23678.00
998.7250, 23681.00
999.8370, 23541.00
1000.949, 23598.00
1002.061, 23723.00
1003.173, 23554.00
1004.284, 23628.00
1005.396, 23609.00
1006.507, 23700.00
1007.618, 23593.00
1008.729, 23434.00
1009.839, 23666.00
1010.950, 23538.00
1012.060, 23876.00
1013.171, 23746.00
1014.281, 23924.00
1015.391, 23610.00
1016.500, 23835.00
1017.610, 23648.00
1018.719, 23637.00
1019.829, 23578.00
1020.938, 23783.00
1022.047, 24064.00
1023.156, 23876.00
1024.264, 23583.00
1025.373, 23584.00
1026.481, 23860.00
1027.589, 23688.00
1028.697, 23756.00
1029.805, 23855.00
1030.913, 23895.00
1032.020, 23731.00
1033.128, 23917.79
1034.235, 23832.12
1035.342, 23935.00
1036.449, 23946.00
1037.556, 23901.12
1038.663, 23836.00
1039.769, 23838.00
1040.875, 23899.00
1041.981, 23889.00
1043.087, 24084.00
1044.193, 24004.00
1045.299, 24030.00
1046.404, 24144.00
1047.510, 24060.00
1048.615, 23854.00
1049.720, 23872.00
1050.825, 23941.00
1051.930, 24018.00
1053.034, 24059.00
1054.139, 24216.00
1055.243, 24085.00
1056.347, 24289.00
1057.451, 24181.00
1058.555, 24102.00
1059.658, 24265.00
1060.762, 24192.00
1061.865, 24289.00
1062.968, 24180.00
1064.071, 24152.00
1065.174, 24184.00
1066.277, 24235.00
1067.380, 24209.63
1068.482, 24192.00
1069.584, 24195.00
1070.686, 24269.21
1071.788, 24261.22
1072.890, 24498.00
1073.992, 24293.00
1075.093, 24316.00
1076.194, 24581.00
1077.295, 24465.00
1078.396, 24471.00
1079.497, 24239.00
1080.598, 24401.00
1081.698, 24420.00
1082.799, 24512.00
1083.899, 24476.00
1084.999, 24552.12
1086.099, 24727.00
1087.199, 24661.00
1088.298, 24655.00
1089.398, 24719.00
1090.497, 24676.00
1091.596, 24771.00
1092.695, 24758.12
1093.794, 24809.00
1094.892, 24742.00
1095.991, 24745.00
1097.089, 24675.00
1098.187, 24638.00
1099.285, 24837.00
1100.383, 24649.00
1101.481, 24890.00
1102.579, 24840.00
1103.676, 24849.00
1104.773, 24869.00
1105.870, 24954.00
1106.967, 24963.00
1108.064, 24891.00
1109.161, 24873.00
1110.257, 24748.00
1111.353, 25088.00
1112.449, 25007.00
1113.545, 24694.00
1114.641, 25050.00
1115.737, 25029.00
1116.832, 24951.00
1117.928, 25094.00
1119.023, 25227.00
1120.118, 25115.00
1121.213, 24980.00
1122.308, 25006.00
1123.402, 25164.00
1124.497, 25030.00
1125.591, 25216.00
1126.685, 25242.00
1127.779, 25114.00
1128.873, 24936.00
1129.967, 25070.00
1131.060, 25194.00
1132.153, 25151.00
1133.247, 25092.00
1134.340, 25006.00
1135.433, 24884.00
1136.525, 25044.00
1137.618, 25243.00
1138.710, 25177.00
1139.802, 25152.00
1140.895, 25187.00
1141.987, 25104.00
1143.078, 25200.00
1144.170, 25056.00
1145.261, 25241.00
1146.353, 25144.00
1147.444, 25068.00
1148.535, 25200.00
1149.626, 25074.00
1150.716, 25154.00
1151.807, 25346.00
1152.897, 25271.63
1153.988, 25293.00
1155.078, 25311.00
1156.168, 25297.00
1157.257, 25329.00
1158.347, 25462.00
1159.436, 25502.00
1160.526, 25413.00
1161.615, 25329.00
1162.704, 25462.00
1163.793, 25385.00
1164.881, 25375.00
1165.970, 25496.00
1167.058, 25662.00
1168.147, 25307.00
1169.235, 25456.00
1170.323, 25397.00
1171.410, 25606.00
1172.498, 25455.00
1173.585, 25697.00
1174.673, 25558.00
1175.760, 25554.00
1176.847, 25728.00
1177.934, 25732.00
1179.020, 25704.25
1180.107, 25580.00
1181.193, 25598.00
1182.279, 25614.00
1183.365, 25583.00
1184.451, 25739.00
1185.537, 25898.00
1186.623, 25761.00
1187.708, 25753.00
1188.793, 25774.00
1189.878, 25756.00
1190.963, 25776.00
1192.048, 25625.00
1193.133, 25750.00
1194.217, 25751.00
1195.302, 25950.00
1196.386, 25830.00
1197.470, 25931.00
1198.554, 26000.00
1199.638, 25957.00
1200.721, 25800.00
1201.805, 26055.00
1202.888, 25810.00
1203.971, 25929.00
1205.054, 25769.00
1206.137, 25901.00
1207.219, 25921.00
1208.302, 25857.00
1209.384, 26159.00
1210.466, 26106.00
1211.548, 26089.00
1212.630, 26141.00
1213.712, 26063.00
1214.794, 26088.00
1215.875, 26074.00
1216.956, 26035.00
1218.037, 26222.00
1219.118, 25873.00
1220.199, 26307.00
1221.280, 26302.00
1222.360, 26148.00
1223.441, 26209.00
1224.521, 26158.00
1225.601, 26250.00
1226.681, 26383.00
1227.760, 26225.00
1228.840, 26417.00
1229.919, 26272.00
1230.999, 26480.00
1232.078, 26305.00
1233.157, 26374.00
1234.236, 26378.00
1235.314, 26530.00
1236.393, 26288.00
1237.471, 26451.00
1238.549, 26507.00
1239.627, 26324.00
1240.705, 26592.00
1241.783, 26405.00
1242.860, 26385.00
1243.938, 26404.00
1245.015, 26481.00
1246.092, 26400.00
1247.169, 26458.00
1248.246, 26472.00
1249.323, 26679.00
1250.399, 26460.00
1251.475, 26579.00
1252.552, 26517.00
1253.628, 26519.00
1254.703, 26561.00
1255.779, 26619.00
1256.855, 26777.00
1257.930, 26552.00
1259.005, 26609.00
1260.080, 26614.00
1261.155, 26420.00
1262.230, 26616.00
1263.305, 26478.00
1264.379, 26713.00
1265.454, 26799.00
1266.528, 26913.00
1267.602, 26698.00
1268.676, 26576.00
1269.750, 26970.00
1270.823, 26767.00
1271.897, 26911.00
1272.970, 26784.00
1274.043, 26816.00
1275.116, 27075.00
1276.189, 27063.00
1277.261, 26992.00
1278.334, 27031.00
1279.406, 27043.00
1280.478, 27027.00
1281.550, 27029.42
1282.622, 27076.61
1283.694, 27020.00
1284.766, 27182.00
1285.837, 27250.00
1286.908, 27304.00
1287.979, 27218.00
1289.050, 27322.00
1290.121, 27342.84
1291.192, 27229.00
1292.262, 27384.00
1293.333, 27368.00
1294.403, 27222.00
1295.473, 27268.00
1296.543, 27506.00
1297.613, 27363.00
1298.682, 27464.00
1299.752, 27325.00
1300.821, 27538.00
1301.890, 27633.00
1302.959, 27460.00
1304.028, 27605.00
1305.096, 27597.00
1306.165, 27629.00
1307.233, 27398.00
1308.301, 27681.00
1309.370, 27500.00
1310.437, 27842.00
1311.505, 27787.00
1312.573, 27887.00
1313.640, 27715.00
1314.708, 27600.00
