##NAMES=Chrysoberyl
##RRUFFID=R040073
##IDEAL CHEMISTRY=BeAl_2_O_4_
##LOCALITY=Brazil
##OWNER=RRUFF
##SOURCE=University of Arizona Mineral Museum
##DESCRIPTION=Pair of green prismatic crystals
##STATUS=The identification of this mineral has been confirmed by X-ray diffraction and chemical analysis
##URL=rruff.info/R040073
##MEASURED CHEMISTRY=(Be_0.89_Al_0.06_Fe_0.02_)Al_2.00_O_4_
##PIN_ID=M00464
##ORIENTATION=Laser parallel to -c* (0 0 -1). Fiducial mark perpendicular to laser is parallel to a [1 0 0]
84.311, 12360.000
85.706, 12570.000
87.101, 12640.000
88.496, 12780.000
89.890, 13430.000
91.284, 13970.000
92.678, 14300.000
94.071, 14700.000
95.465, 15120.000
96.858, 15810.000
98.251, 16090.000
99.644, 16700.000
101.036, 16770.000
102.428, 17350.000
103.820, 17670.000
105.212, 17840.000
106.604, 18630.000
107.995, 19690.000
109.387, 20260.000
110.777, 20150.000
112.168, 19350.000
113.559, 19070.000
114.949, 18900.000
116.339, 19090.000
117.729, 18760.000
119.119, 18770.000
120.508, 18990.000
121.897, 18930.000
123.286, 18400.000
124.675, 18230.000
126.063, 18040.000
127.452, 17920.000
128.840, 18040.000
130.228, 17720.000
131.615, 17940.000
133.003, 17660.000
134.390, 17440.000
135.777, 17520.000
137.164, 17130.000
138.550, 17330.000
139.937, 17020.000
141.323, 16890.000
142.709, 16710.000
144.094, 16440.000
145.480, 16500.000
146.865, 16400.000
148.250, 16410.000
149.635, 16120.000
151.019, 16100.000
152.403, 15910.000
153.788, 15960.000
155.171, 15890.000
156.555, 15740.000
157.939, 15810.000
159.322, 15590.000
160.705, 15430.000
162.088, 15480.000
163.470, 15330.000
164.853, 15300.000
166.235, 15170.000
167.617, 15310.000
168.998, 15250.000
170.380, 15090.000
171.761, 15180.000
173.142, 15100.000
174.523, 15130.000
175.904, 15000.000
177.284, 15120.000
178.664, 14840.000
180.044, 14870.000
181.424, 14900.000
182.803, 14820.000
184.183, 15000.000
185.562, 14750.000
186.940, 14860.000
188.319, 14850.000
189.698, 14680.000
191.076, 14580.000
192.454, 14850.000
193.831, 14580.000
195.209, 14640.000
196.586, 14620.000
197.963, 14660.000
199.340, 14740.000
200.717, 14700.000
202.093, 14600.000
203.470, 14580.000
204.846, 14650.000
206.221, 14640.000
207.597, 14580.000
208.972, 14780.000
210.347, 14990.000
211.722, 14550.000
213.097, 14620.000
214.472, 14560.000
215.846, 14770.000
217.220, 14660.000
218.594, 14520.000
219.967, 14760.000
221.341, 14520.000
222.714, 14720.000
224.087, 14650.000
225.460, 14770.000
226.832, 14840.000
228.204, 14950.000
229.577, 14880.000
230.948, 14900.000
232.320, 15270.000
233.692, 15180.000
235.063, 15610.000
236.434, 15780.000
237.805, 16060.000
239.175, 16390.000
240.545, 16310.000
241.916, 16350.000
243.286, 15830.000
244.655, 15600.000
246.025, 15320.000
247.394, 15240.000
248.763, 15220.000
250.132, 15130.000
251.501, 15060.000
252.869, 15060.000
254.237, 14910.000
255.605, 15200.000
256.973, 15080.000
258.340, 15150.000
259.708, 14910.000
261.075, 15140.000
262.442, 15120.000
263.808, 15000.000
265.175, 15100.000
266.541, 14950.000
267.907, 15180.000
269.273, 15070.000
270.639, 14960.000
272.004, 15020.000
273.369, 14970.000
274.734, 14990.000
276.099, 14820.000
277.463, 14990.000
278.828, 14950.000
280.192, 14850.000
281.556, 14840.000
282.919, 14650.000
284.283, 14930.000
285.646, 14790.000
287.009, 14710.000
288.372, 14800.000
289.734, 14700.000
291.097, 14970.000
292.459, 14720.000
293.821, 14830.000
295.183, 14750.000
296.544, 14890.000
297.905, 14830.000
299.266, 14740.000
300.627, 14980.000
301.988, 14930.000
303.348, 15120.000
304.709, 15060.000
306.069, 15020.000
307.428, 15230.000
308.788, 15060.000
310.147, 15110.000
311.507, 15180.000
312.865, 15130.000
314.224, 15260.000
315.583, 15150.000
316.941, 15310.000
318.299, 15260.000
319.657, 15400.000
321.015, 15290.000
322.372, 15200.000
323.729, 15370.000
325.086, 15220.000
326.443, 15330.000
327.800, 15200.000
329.156, 15290.000
330.512, 15340.000
331.868, 15270.000
333.224, 15390.000
334.579, 15310.000
335.935, 15430.000
337.290, 15410.000
338.645, 15510.000
339.999, 15740.000
341.354, 15650.000
342.708, 15950.000
344.062, 16110.000
345.416, 16480.000
346.769, 16470.000
348.123, 16490.000
349.476, 16360.000
350.829, 16130.000
352.182, 15940.000
353.534, 15840.000
354.887, 15890.000
356.239, 15770.000
357.591, 15730.000
358.942, 15930.000
360.294, 15970.000
361.645, 16130.000
362.996, 16470.000
364.347, 16810.000
365.698, 17290.000
367.048, 17560.000
368.398, 17610.000
369.748, 17150.000
371.098, 16580.000
372.448, 16370.000
373.797, 15840.000
375.146, 15790.000
376.495, 15640.000
377.844, 15540.000
379.192, 15600.000
380.540, 15420.000
381.889, 15580.000
383.236, 15590.000
384.584, 15750.000
385.932, 15710.000
387.279, 15960.000
388.626, 15990.000
389.973, 15850.000
391.319, 15880.000
392.666, 15860.000
394.012, 15850.000
395.358, 15730.000
396.704, 15660.000
398.049, 15880.000
399.394, 15640.000
400.740, 15640.000
402.084, 15670.000
403.429, 15630.000
404.774, 15720.000
406.118, 15700.000
407.462, 15840.000
408.806, 15730.000
410.150, 15870.000
411.493, 15920.000
412.836, 16040.000
414.179, 16010.000
415.522, 16100.000
416.865, 16410.000
418.207, 16480.000
419.549, 16710.000
420.891, 16670.000
422.233, 16390.000
423.575, 16250.000
424.916, 16090.000
426.257, 16390.000
427.598, 16100.000
428.939, 16280.000
430.279, 16390.000
431.619, 16310.000
432.959, 16560.000
434.299, 16650.000
435.639, 16690.000
436.978, 16620.000
438.318, 16440.000
439.657, 16730.000
440.996, 16560.000
442.334, 16620.000
443.673, 16700.000
445.011, 16670.000
446.349, 16750.000
447.687, 16790.000
449.024, 16760.000
450.361, 16770.000
451.699, 16780.000
453.036, 17060.000
454.372, 16910.000
455.709, 17220.000
457.045, 17400.000
458.381, 17350.000
459.717, 17470.000
461.053, 17200.000
462.388, 17120.000
463.724, 17010.000
465.059, 17220.000
466.394, 17410.000
467.728, 17360.000
469.063, 18180.000
470.397, 17990.000
471.731, 18070.000
473.065, 18410.000
474.398, 18830.000
475.732, 19030.000
477.065, 18740.000
478.398, 18330.000
479.731, 17960.000
481.063, 17780.000
482.396, 17680.000
483.728, 17530.000
485.060, 17950.000
486.391, 17610.000
487.723, 17530.000
489.054, 17800.000
490.385, 17570.000
491.716, 17600.000
493.047, 17760.000
494.377, 17660.000
495.708, 17790.000
497.038, 17720.000
498.368, 17970.000
499.697, 17910.000
501.027, 18020.000
502.356, 18170.000
503.685, 18080.000
505.014, 18300.000
506.342, 18210.000
507.671, 18640.000
508.999, 18630.000
510.327, 18600.000
511.655, 19180.000
512.982, 19760.000
514.310, 20540.000
515.637, 21210.000
516.964, 21380.000
518.291, 21680.000
519.617, 21550.000
520.944, 21580.000
522.270, 20880.000
523.596, 20240.000
524.921, 19770.000
526.247, 19140.000
527.572, 18840.000
528.897, 18740.000
530.222, 18640.000
531.547, 18710.000
532.871, 18560.000
534.196, 18640.000
535.520, 18650.000
536.844, 18670.000
538.167, 18920.000
539.491, 18930.000
540.814, 19300.000
542.137, 19360.000
543.460, 19740.000
544.783, 19920.000
546.105, 19680.000
547.427, 19930.000
548.749, 19610.000
550.071, 19480.000
551.393, 19180.000
552.714, 19230.000
554.035, 19230.000
555.356, 19150.000
556.677, 19140.000
557.998, 19280.000
559.318, 19230.000
560.638, 19410.000
561.958, 19440.000
563.278, 19380.000
564.597, 19410.000
565.917, 19500.000
567.236, 19670.000
568.555, 19510.000
569.874, 19400.000
571.192, 19590.000
572.511, 19450.000
573.829, 19590.000
575.147, 19650.000
576.464, 19530.000
577.782, 19690.000
579.099, 19660.000
580.416, 19990.000
581.733, 19640.000
583.050, 19950.000
584.366, 20060.000
585.683, 20040.000
586.999, 20020.000
588.315, 19980.000
589.630, 20090.000
590.946, 19980.000
592.261, 20260.000
593.576, 20450.000
594.891, 20330.000
596.206, 20590.000
597.520, 20540.000
598.834, 20730.000
600.148, 20940.000
601.462, 20500.000
602.776, 20620.000
604.089, 20530.000
605.402, 20700.000
606.715, 20750.000
608.028, 20560.000
609.341, 20610.000
610.653, 20710.000
611.965, 20950.000
613.277, 21090.000
614.589, 21380.000
615.901, 21630.000
617.212, 21490.000
618.523, 22210.000
619.834, 22380.000
621.145, 23020.000
622.456, 23540.000
623.766, 23730.000
625.076, 23950.000
626.386, 23260.000
627.696, 22860.000
629.006, 22480.000
630.315, 21810.000
631.624, 21830.000
632.933, 21360.000
634.242, 21700.000
635.551, 21840.000
636.859, 21980.000
638.167, 22220.000
639.475, 22190.000
640.783, 22310.000
642.090, 22810.000
643.398, 22910.000
644.705, 23130.000
646.012, 23140.000
647.318, 23270.000
648.625, 23250.000
649.931, 22910.000
651.237, 23280.000
652.543, 22650.000
653.849, 22590.000
655.155, 22120.000
656.460, 21690.000
657.765, 21470.000
659.070, 21180.000
660.375, 20870.000
661.679, 21030.000
662.984, 20620.000
664.288, 20720.000
665.592, 20670.000
666.895, 20500.000
668.199, 20660.000
669.502, 20420.000
670.805, 20530.000
672.108, 20520.000
673.411, 20630.000
674.713, 20620.000
676.016, 20510.000
677.318, 20680.000
678.620, 20480.000
679.921, 20410.000
681.223, 20520.000
682.524, 20470.000
683.825, 20340.000
685.126, 20260.000
686.427, 20470.000
687.727, 20530.000
689.028, 20390.000
690.328, 20390.000
691.628, 20450.000
692.927, 20320.000
694.227, 20570.000
695.526, 20490.000
696.825, 20620.000
698.124, 20690.000
699.423, 20780.000
700.721, 20940.000
702.020, 21020.000
703.318, 21350.000
704.616, 21590.000
705.913, 22030.000
707.211, 22810.000
708.508, 23570.000
709.805, 23640.000
711.102, 23320.000
712.399, 22370.000
713.695, 22170.000
714.992, 21970.000
716.288, 21500.000
717.584, 21620.000
718.879, 21320.000
720.175, 21500.000
721.470, 21430.000
722.765, 21560.000
724.060, 21640.000
725.355, 21540.000
726.649, 21870.000
727.944, 21830.000
729.238, 21840.000
730.532, 22030.000
731.825, 21720.000
733.119, 22160.000
734.412, 21940.000
735.705, 21930.000
736.998, 22100.000
738.291, 21980.000
739.584, 22030.000
740.876, 21940.000
742.168, 22250.000
743.460, 22240.000
744.752, 22260.000
746.043, 22400.000
747.334, 22340.000
748.626, 22590.000
749.916, 22550.000
751.207, 22500.000
752.498, 22610.000
753.788, 22480.000
755.078, 22580.000
756.368, 22850.000
757.658, 23030.000
758.947, 23230.000
760.237, 23270.000
761.526, 23480.000
762.815, 23880.000
764.104, 24010.000
765.392, 24830.000
766.680, 25030.000
767.969, 25710.000
769.257, 27030.000
770.544, 27860.000
771.832, 29610.000
773.119, 31380.000
774.406, 32960.000
775.693, 34650.000
776.980, 34530.000
778.267, 34420.000
779.553, 32840.000
780.839, 31020.000
782.125, 29760.000
783.411, 28090.000
784.697, 27180.000
785.982, 26080.000
787.267, 25580.000
788.552, 25070.000
789.837, 24760.000
791.122, 24620.000
792.406, 24400.000
793.690, 24170.000
794.974, 24290.000
796.258, 24110.000
797.542, 24020.000
798.825, 23770.000
800.108, 23790.000
801.391, 23800.000
802.674, 23890.000
803.957, 23800.000
805.239, 23810.000
806.522, 23760.000
807.804, 23710.000
809.085, 23760.000
810.367, 23890.000
811.649, 23900.000
812.930, 24030.000
814.211, 23960.000
815.492, 24170.000
816.772, 24400.000
818.053, 24480.000
819.333, 24130.000
820.613, 24560.000
821.893, 24570.000
823.173, 24550.000
824.452, 24730.000
825.732, 24640.000
827.011, 25020.000
828.290, 25090.000
829.568, 25170.000
830.847, 24960.000
832.125, 24930.000
833.403, 24990.000
834.681, 25290.000
835.959, 25100.000
837.236, 25340.000
838.514, 25130.000
839.791, 25610.000
841.068, 25680.000
842.345, 25560.000
843.621, 25930.000
844.898, 26030.000
846.174, 25890.000
847.450, 26280.000
848.726, 25890.000
850.001, 26250.000
851.277, 26490.000
852.552, 26580.000
853.827, 26980.000
855.102, 27080.000
856.376, 27480.000
857.651, 27790.000
858.925, 28100.000
860.199, 28120.000
861.473, 27450.000
862.746, 27330.000
864.020, 27280.000
865.293, 26520.000
866.566, 26500.000
867.839, 26220.000
869.112, 26180.000
870.384, 26300.000
871.656, 26000.000
872.928, 26220.000
874.200, 25980.000
875.472, 26350.000
876.744, 26010.000
878.015, 25940.000
879.286, 26410.000
880.557, 26030.000
881.828, 25960.000
883.098, 26040.000
884.369, 25980.000
885.639, 26180.000
886.909, 26160.000
888.178, 26150.000
889.448, 26270.000
890.717, 26280.000
891.987, 26550.000
893.256, 26310.000
894.524, 26270.000
895.793, 26550.000
897.061, 26460.000
898.330, 26450.000
899.598, 26660.000
900.865, 26370.000
902.133, 26610.000
903.401, 26510.000
904.668, 26680.000
905.935, 26690.000
907.202, 26610.000
908.468, 26890.000
909.735, 26910.000
911.001, 26790.000
912.267, 27450.000
913.533, 27050.000
914.799, 27110.000
916.064, 27250.000
917.330, 27090.000
918.595, 27790.000
919.860, 27950.000
921.124, 28740.000
922.389, 29180.000
923.653, 30220.000
924.918, 31140.000
926.182, 32390.000
927.445, 33490.000
928.709, 34980.000
929.972, 35190.000
931.236, 35690.000
932.499, 35000.000
933.761, 34290.000
935.024, 33340.000
936.286, 32070.000
937.549, 31250.000
938.811, 30560.000
940.073, 29800.000
941.334, 29580.000
942.596, 28630.000
943.857, 28330.000
945.118, 28240.000
946.379, 27960.000
947.640, 27830.000
948.900, 27910.000
950.161, 27640.000
951.421, 27700.000
952.681, 27390.000
953.940, 27610.000
955.200, 27310.000
956.459, 27300.000
957.719, 27140.000
958.978, 27100.000
960.236, 27150.000
961.495, 27220.000
962.753, 26820.000
964.012, 27100.000
965.270, 26760.000
966.527, 26960.000
967.785, 27190.000
969.043, 26400.000
970.300, 26900.000
971.557, 26710.000
972.814, 26570.000
974.071, 26540.000
975.327, 26450.000
976.583, 26370.000
977.840, 26750.000
979.095, 26560.000
980.351, 26630.000
981.607, 26478.150
982.862, 26702.252
984.117, 26835.164
985.372, 26881.791
986.627, 26583.525
987.882, 26730.750
989.136, 26699.508
990.390, 26661.006
991.644, 26871.080
992.898, 26623.262
994.152, 26829.510
995.405, 26854.570
996.659, 26962.646
997.912, 26891.156
999.165, 26875.199
1000.417, 27038.955
1001.670, 27103.297
1002.922, 27011.346
1004.174, 27125.012
1005.426, 26871.465
1006.678, 26940.260
1007.930, 27148.162
1009.181, 27065.516
1010.432, 27182.738
1011.683, 27223.916
1012.934, 26919.312
1014.185, 27216.217
1015.435, 27253.057
1016.685, 27022.879
1017.935, 27299.332
1019.185, 27106.088
1020.435, 27080.574
1021.684, 27181.289
1022.934, 27150.531
1024.183, 27327.209
1025.432, 27304.146
1026.680, 27263.277
1027.929, 27300.379
1029.177, 27116.773
1030.425, 27342.764
1031.673, 27289.061
1032.921, 27374.473
1034.169, 27491.459
1035.416, 27367.146
1036.663, 27498.395
1037.911, 27233.488
1039.157, 27300.145
1040.404, 27331.176
1041.650, 27574.156
1042.897, 27311.393
1044.143, 27369.064
1045.389, 27563.215
1046.634, 27566.523
1047.880, 27649.711
1049.125, 27496.676
1050.371, 27565.664
1051.615, 27573.502
1052.860, 27792.818
1054.105, 27845.295
1055.349, 27696.535
1056.593, 27548.684
1057.837, 27783.426
1059.081, 27655.652
1060.325, 27723.537
1061.568, 27589.447
1062.812, 27629.857
1064.055, 27667.541
1065.298, 27794.695
1066.540, 27650.760
1067.783, 27858.598
1069.025, 27863.201
1070.267, 27927.740
1071.509, 27985.674
1072.751, 27770.889
1073.993, 27779.771
1075.234, 28108.656
1076.475, 27949.637
1077.716, 27889.158
1078.957, 27898.752
1080.198, 28238.820
1081.438, 28271.807
1082.679, 27937.762
1083.919, 28263.422
1085.159, 28183.301
1086.398, 28223.816
1087.638, 28220.408
1088.877, 28230.062
1090.116, 28074.098
1091.355, 28136.520
1092.594, 28376.521
1093.833, 28313.926
1095.071, 28457.021
1096.309, 28225.383
1097.547, 28216.270
1098.785, 28266.264
1100.023, 28337.848
1101.260, 28237.395
1102.498, 28481.148
1103.735, 28495.803
1104.972, 28311.953
1106.208, 28343.541
1107.445, 28339.436
1108.681, 28707.695
1109.918, 28564.125
1111.154, 28384.346
1112.389, 28610.416
1113.625, 28706.486
1114.860, 28626.750
1116.096, 28640.525
1117.331, 28477.068
1118.566, 28585.521
1119.800, 28600.516
1121.035, 28769.633
1122.269, 28607.092
1123.503, 28826.459
1124.737, 28672.926
1125.971, 28907.861
1127.205, 28746.553
1128.438, 28938.311
1129.671, 28708.736
1130.904, 28784.215
1132.137, 28883.922
1133.370, 29061.773
1134.602, 28939.453
1135.834, 29135.916
1137.066, 29052.730
1138.298, 29151.656
1139.530, 29149.686
1140.762, 29021.410
1141.993, 29249.559
1143.224, 29152.723
1144.455, 29275.416
1145.686, 29042.682
1146.917, 29242.146
1148.147, 29348.613
1149.377, 29435.969
1150.607, 29442.771
1151.837, 29413.707
1153.067, 29441.064
1154.296, 29374.383
1155.526, 29170.406
1156.755, 29251.496
1157.984, 29418.867
1159.213, 29543.551
1160.441, 29378.891
1161.670, 29525.730
1162.898, 29532.387
1164.126, 29671.789
1165.354, 29556.895
1166.581, 29744.850
1167.809, 29525.732
1169.036, 29744.553
1170.263, 29844.609
1171.490, 29497.482
1172.717, 29884.924
1173.943, 29609.205
1175.170, 29724.521
1176.396, 29815.197
1177.622, 29714.000
1178.848, 29985.900
1180.073, 29662.406
1181.299, 29759.189
1182.524, 30011.848
1183.749, 29888.586
1184.974, 30133.910
1186.199, 30008.969
1187.423, 29806.266
1188.648, 30149.869
1189.872, 29931.510
1191.096, 30082.230
1192.320, 29926.238
1193.543, 30291.756
1194.767, 30149.301
1195.990, 30030.398
1197.213, 30193.555
1198.436, 30345.127
1199.659, 30166.164
1200.881, 30235.613
1202.104, 30211.256
1203.326, 30393.637
1204.548, 30528.014
1205.770, 30240.527
1206.991, 30480.490
1208.213, 30355.234
1209.434, 30619.381
1210.655, 30273.691
1211.876, 30305.318
1213.096, 30665.910
1214.317, 30567.527
1215.537, 30758.326
1216.757, 30412.264
1217.977, 30441.127
1219.197, 30766.799
1220.417, 30513.113
1221.636, 30886.119
1222.855, 30640.834
1224.074, 30633.920
1225.293, 30898.377
1226.512, 30758.893
1227.731, 30968.924
1228.949, 30897.033
1230.167, 31070.283
1231.385, 31004.219
1232.603, 30801.807
1233.820, 31122.062
1235.038, 31047.807
1236.255, 30819.971
1237.472, 31040.447
1238.689, 31193.584
1239.906, 31181.693
1241.122, 31276.365
1242.338, 31238.123
1243.555, 31036.170
1244.771, 31121.033
1245.986, 31247.580
1247.202, 31116.141
1248.417, 31205.166
1249.633, 31368.285
1250.848, 31286.072
1252.063, 31255.467
1253.277, 31368.596
1254.492, 31365.396
1255.706, 31309.557
1256.920, 31483.461
1258.134, 31394.205
1259.348, 31627.738
1260.562, 31591.607
1261.775, 31703.273
1262.988, 31479.557
1264.201, 31603.273
1265.414, 31512.555
1266.627, 31618.531
1267.839, 31781.172
1269.052, 31905.539
1270.264, 31890.342
1271.476, 31716.625
1272.688, 31685.502
1273.899, 31750.697
1275.111, 31868.934
1276.322, 31828.139
1277.533, 31838.135
1278.744, 31867.500
1279.955, 32192.596
1281.165, 31940.283
1282.376, 32130.105
1283.586, 32244.244
1284.796, 32246.941
1286.006, 32126.682
1287.215, 31989.975
1288.425, 32032.844
1289.634, 32096.646
1290.843, 32333.123
1292.052, 32079.975
1293.261, 32204.732
1294.469, 32311.785
1295.678, 32361.777
1296.886, 32349.441
1298.094, 32228.051
1299.302, 32304.980
1300.509, 32400.334
1301.717, 32409.055
1302.924, 32595.162
1304.131, 32553.109
1305.338, 32736.633
1306.545, 32707.404
1307.752, 32835.066
1308.958, 32567.824
1310.164, 32586.070
1311.370, 32616.906
1312.576, 32959.371
1313.782, 32761.750
1314.987, 32928.168
1316.193, 32719.471
1317.398, 33014.277
1318.603, 33010.426
1319.807, 32837.730
1321.012, 32972.312
1322.216, 33196.742
1323.421, 32987.344
1324.625, 33107.148
1325.829, 32901.645
1327.032, 33320.789
1328.236, 33354.262
1329.439, 33258.180
1330.642, 33120.359
1331.845, 33216.602
1333.048, 33347.293
1334.251, 33410.582
1335.453, 33523.648
1336.656, 33343.551
1337.858, 33445.984
1339.060, 33607.434
1340.261, 33631.461
1341.463, 33344.391
1342.664, 33461.980
1343.866, 33503.508
1345.067, 33512.629
1346.267, 33612.348
1347.468, 33724.418
1348.669, 33534.500
1349.869, 33695.465
1351.069, 33767.098
1352.269, 33741.312
1353.469, 33769.395
1354.668, 33888.258
1355.868, 33754.031
1357.067, 34001.887
1358.266, 33742.137
1359.465, 33783.359
1360.664, 33948.297
1361.862, 34100.180
1363.061, 34246.219
1364.259, 33897.918
1365.457, 34096.758
1366.655, 34169.832
1367.852, 34102.234
1369.050, 34396.328
1370.247, 34286.738
1371.444, 34234.051
1372.641, 34349.297
1373.838, 34344.195
1375.035, 34307.746
1376.231, 34482.441
1377.427, 34309.785
1378.623, 34590.598
1379.819, 34527.562
1381.015, 34699.387
1382.211, 34737.266
1383.406, 34696.934
1384.601, 34736.863
1385.796, 34598.176
