##NAMES=Clinoptilolite-Na
##RRUFFID=R061099
##IDEAL CHEMISTRY=Na_6_(Si_30_Al_6_)O_72_&#183;20H_2_O
##LOCALITY=Richardson Ranch, Madras, Jefferson County, Oregon, USA
##OWNER=RRUFF
##SOURCE=Michael Scott
##DESCRIPTION=Red-brown to salmon, somewhat coffin shaped tabular crystals in a fragmented geode
##STATUS=The identification of this mineral has been confirmed by X-ray diffraction and chemical analysis
##URL=rruff.info/R061099
##MEASURED CHEMISTRY=(Na_2.70_Ca_1.46_K_0.89_Fe_0.08_Mg_0.02_)_Σ=5.15_(Si_29.29_Al_6.71_)O_72_·18.51H_2_O
##PIN_ID=M01022
##ORIENTATION=Laser parallel to a* (1 0 0). Fiducial mark perpendicular to laser is parallel to b [0 1 0]
91.83800, 2247.000
93.07300, 2648.000
94.30700, 3158.000
95.54100, 3694.000
96.77500, 4298.000
98.00900, 4936.000
99.24300, 5624.000
100.4770, 6403.000
101.7100, 6948.000
102.9440, 7680.000
104.1770, 8194.000
105.4100, 8963.000
106.6430, 9453.000
107.8750, 10210.00
109.1080, 10894.00
110.3400, 11381.00
111.5720, 11378.00
112.8040, 11502.00
114.0360, 11972.00
115.2680, 12129.00
116.5000, 12326.00
117.7310, 12426.00
118.9620, 12521.10
120.1940, 12589.10
121.4250, 12617.28
122.6550, 12606.46
123.8860, 12517.01
125.1170, 12547.00
126.3470, 12318.00
127.5770, 12329.88
128.8070, 12365.62
130.0370, 12394.77
131.2670, 12417.91
132.4970, 12405.21
133.7260, 12447.79
134.9550, 12473.71
136.1850, 12502.75
137.4140, 12564.36
138.6420, 12577.05
139.8710, 12646.06
141.1000, 12698.11
142.3280, 12763.60
143.5560, 12827.00
144.7840, 13014.00
146.0120, 12877.00
147.2400, 12988.00
148.4680, 12978.84
149.6950, 12945.91
150.9220, 12899.00
152.1500, 12838.81
153.3770, 12725.86
154.6030, 12681.16
155.8300, 12609.08
157.0570, 12535.88
158.2830, 12437.00
159.5090, 12375.00
160.7350, 12202.00
161.9610, 11944.00
163.1870, 11848.00
164.4130, 11619.00
165.6380, 11448.00
166.8630, 11119.00
168.0880, 10814.00
169.3130, 10581.00
170.5380, 10386.00
171.7630, 10180.00
172.9870, 10075.00
174.2120, 9945.000
175.4360, 9798.000
176.6600, 9674.000
177.8840, 9679.000
179.1080, 9548.000
180.3310, 9571.000
181.5550, 9628.000
182.7780, 9630.000
184.0010, 9637.000
185.2240, 9749.000
186.4470, 9893.000
187.6700, 9884.000
188.8920, 10061.00
190.1150, 10180.00
191.3370, 10261.00
192.5590, 10333.00
193.7810, 10380.00
195.0020, 10388.00
196.2240, 10359.00
197.4450, 10364.83
198.6670, 10331.29
199.8880, 10259.02
201.1090, 10118.18
202.3300, 9999.902
203.5500, 9832.393
204.7710, 9572.000
205.9910, 9345.000
207.2110, 9123.000
208.4310, 8928.000
209.6510, 8809.000
210.8710, 8583.519
212.0910, 8283.000
213.3100, 8202.000
214.5290, 8028.000
215.7480, 7845.000
216.9670, 7741.000
218.1860, 7656.000
219.4050, 7493.000
220.6230, 7243.000
221.8420, 7292.000
223.0600, 7121.000
224.2780, 7200.000
225.4960, 7029.000
226.7130, 6919.000
227.9310, 6973.000
229.1480, 6782.000
230.3660, 6779.000
231.5830, 6697.000
232.8000, 6791.000
234.0160, 6666.000
235.2330, 6765.000
236.4490, 6724.000
237.6660, 6766.000
238.8820, 6714.000
240.0980, 6727.000
241.3140, 6742.000
242.5300, 6790.665
243.7450, 6879.000
244.9600, 6949.000
246.1760, 6995.000
247.3910, 7087.000
248.6060, 7137.908
249.8200, 7228.000
251.0350, 7266.000
252.2500, 7265.795
253.4640, 7335.159
254.6780, 7390.549
255.8920, 7432.718
257.1060, 7422.060
258.3190, 7479.585
259.5330, 7509.805
260.7460, 7538.873
261.9600, 7606.029
263.1730, 7603.025
264.3850, 7669.517
265.5980, 7708.285
266.8110, 7759.756
268.0230, 7783.691
269.2360, 7816.151
270.4480, 7876.096
271.6600, 7920.806
272.8710, 7941.544
274.0830, 7917.000
275.2950, 8011.000
276.5060, 8090.000
277.7170, 8096.000
278.9280, 8130.000
280.1390, 8153.000
281.3500, 8212.000
282.5600, 8183.035
283.7710, 8187.312
284.9810, 8123.000
286.1910, 8082.000
287.4010, 8033.000
288.6110, 7852.000
289.8200, 7792.000
291.0300, 7727.000
292.2390, 7740.000
293.4480, 7650.000
294.6570, 7643.000
295.8660, 7583.549
297.0750, 7486.000
298.2830, 7477.000
299.4920, 7381.000
300.7000, 7350.000
301.9080, 7277.000
303.1160, 7375.000
304.3240, 7316.000
305.5310, 7278.000
306.7390, 7382.000
307.9460, 7200.000
309.1530, 7178.000
310.3600, 7262.000
311.5670, 7213.000
312.7740, 7197.000
313.9800, 7088.000
315.1870, 7072.629
316.3930, 7102.821
317.5990, 7123.578
318.8050, 7135.466
320.0110, 7108.664
321.2160, 7134.306
322.4220, 7140.458
323.6270, 7146.843
324.8320, 7182.971
326.0370, 7167.377
327.2420, 7205.223
328.4460, 7223.241
329.6510, 7251.923
330.8550, 7260.964
332.0590, 7277.484
333.2630, 7315.809
334.4670, 7343.744
335.6710, 7354.735
336.8740, 7390.495
338.0780, 7385.006
339.2810, 7417.742
340.4840, 7467.596
341.6870, 7485.021
342.8900, 7526.926
344.0920, 7551.375
345.2950, 7577.598
346.4970, 7644.718
347.6990, 7644.572
348.9010, 7716.818
350.1030, 7764.176
351.3050, 7818.000
352.5060, 7848.000
353.7080, 8022.000
354.9090, 8102.000
356.1100, 8275.000
357.3110, 8392.000
358.5110, 8575.000
359.7120, 8688.000
360.9120, 8679.000
362.1130, 9006.000
363.3130, 9046.000
364.5130, 9216.000
365.7120, 9506.000
366.9120, 9640.000
368.1120, 9789.000
369.3110, 9876.000
370.5100, 10109.00
371.7090, 10319.00
372.9080, 10488.00
374.1070, 10592.00
375.3050, 10798.00
376.5040, 10933.00
377.7020, 11208.00
378.9000, 11494.00
380.0980, 11789.00
381.2950, 12061.84
382.4930, 12331.59
383.6910, 12660.00
384.8880, 12907.00
386.0850, 13293.00
387.2820, 13704.00
388.4790, 14162.00
389.6750, 14735.05
390.8720, 15219.00
392.0680, 15977.00
393.2640, 16713.00
394.4600, 17351.00
395.6560, 18087.00
396.8520, 18875.00
398.0480, 19634.00
399.2430, 20381.00
400.4380, 20704.00
401.6330, 21412.00
402.8280, 21801.00
404.0230, 22092.00
405.2180, 21990.00
406.4120, 21980.00
407.6060, 21754.00
408.8000, 21053.00
409.9940, 20815.00
411.1880, 20043.00
412.3820, 19456.00
413.5750, 18692.00
414.7690, 18028.00
415.9620, 17230.00
417.1550, 16392.00
418.3480, 15672.00
419.5410, 15032.00
420.7330, 14396.00
421.9260, 13811.00
423.1180, 13061.00
424.3100, 12489.00
425.5020, 11973.00
426.6940, 11517.00
427.8850, 11012.67
429.0770, 10541.00
430.2680, 10116.00
431.4590, 9594.000
432.6500, 9199.000
433.8410, 8917.000
435.0320, 8478.000
436.2220, 8334.000
437.4130, 8134.000
438.6030, 7992.000
439.7930, 7682.000
440.9830, 7611.000
442.1730, 7317.000
443.3620, 7450.000
444.5520, 7313.000
445.7410, 7312.000
446.9300, 7283.000
448.1190, 7285.000
449.3080, 7357.000
450.4960, 7389.000
451.6850, 7572.000
452.8730, 7666.000
454.0610, 7935.000
455.2490, 8117.000
456.4370, 8406.000
457.6250, 8732.000
458.8130, 8954.000
460.0000, 9310.000
461.1870, 9662.000
462.3740, 9911.000
463.5610, 10098.00
464.7480, 10478.00
465.9340, 10646.00
467.1210, 10819.00
468.3070, 10884.00
469.4930, 11060.00
470.6790, 11191.00
471.8650, 11350.00
473.0510, 11408.00
474.2360, 11660.00
475.4210, 12038.00
476.6070, 12505.00
477.7920, 12874.00
478.9770, 13237.00
480.1610, 13485.00
481.3460, 13964.00
482.5300, 14007.00
483.7140, 13914.00
484.8980, 13859.00
486.0820, 13448.00
487.2660, 12828.00
488.4500, 12167.00
489.6330, 11436.00
490.8160, 10793.00
492.0000, 9921.000
493.1830, 9216.000
494.3650, 8611.000
495.5480, 8095.000
496.7300, 7676.000
497.9130, 7205.000
499.0950, 6844.000
500.2770, 6431.000
501.4590, 6188.000
502.6410, 5948.000
503.8220, 5797.000
505.0030, 5509.000
506.1850, 5466.000
507.3660, 5291.000
508.5470, 5192.000
509.7270, 5129.000
510.9080, 5074.000
512.0880, 5007.000
513.2690, 4939.000
514.4490, 4870.000
515.6290, 4805.000
516.8090, 4820.000
517.9880, 4783.000
519.1680, 4634.000
520.3470, 4751.000
521.5260, 4607.000
522.7050, 4643.000
523.8840, 4536.000
525.0630, 4539.000
526.2410, 4489.000
527.4200, 4462.000
528.5980, 4560.000
529.7760, 4491.000
530.9540, 4371.000
532.1320, 4452.000
533.3090, 4408.000
534.4870, 4420.000
535.6640, 4361.000
536.8410, 4254.000
538.0180, 4275.000
539.1950, 4307.000
540.3710, 4288.000
541.5480, 4192.000
542.7240, 4169.000
543.9000, 4223.000
545.0760, 4229.000
546.2520, 4266.000
547.4280, 4249.000
548.6040, 4229.000
549.7790, 4200.000
550.9540, 4178.000
552.1290, 4168.000
553.3040, 4175.000
554.4790, 4172.000
555.6530, 4161.000
556.8280, 4125.000
558.0020, 4155.000
559.1760, 4169.000
560.3500, 4076.000
561.5240, 4105.000
562.6980, 4100.000
563.8710, 4143.000
565.0440, 4161.000
566.2170, 4163.767
567.3900, 4152.000
568.5630, 4159.000
569.7360, 4158.000
570.9090, 4161.775
572.0810, 4167.705
573.2530, 4178.000
574.4250, 4181.000
575.5970, 4195.000
576.7690, 4205.501
577.9400, 4232.000
579.1120, 4247.000
580.2830, 4223.000
581.4540, 4289.000
582.6250, 4224.000
583.7960, 4337.000
584.9660, 4317.000
586.1370, 4238.000
587.3070, 4370.000
588.4770, 4341.000
589.6470, 4330.000
590.8170, 4400.000
591.9870, 4452.000
593.1560, 4469.000
594.3260, 4482.000
595.4950, 4561.000
596.6640, 4594.000
597.8330, 4665.000
599.0010, 4751.000
600.1700, 4804.000
601.3380, 4802.000
602.5070, 4941.000
603.6750, 5104.000
604.8430, 5179.000
606.0100, 5391.000
607.1780, 5433.000
608.3450, 5480.000
609.5130, 5590.000
610.6800, 5796.000
611.8470, 5862.000
613.0140, 5974.889
614.1800, 6120.000
615.3470, 6117.000
616.5130, 6208.000
617.6790, 6236.000
618.8450, 6298.000
620.0110, 6234.000
621.1770, 6199.980
622.3420, 6072.000
623.5080, 5992.000
624.6730, 5845.000
625.8380, 5639.000
627.0030, 5578.000
628.1680, 5509.000
629.3320, 5304.000
630.4970, 5115.000
631.6610, 5021.000
632.8250, 4849.000
633.9890, 4807.000
635.1530, 4643.000
636.3160, 4601.000
637.4800, 4608.000
638.6430, 4454.000
639.8060, 4454.000
640.9690, 4463.000
642.1320, 4365.000
643.2950, 4342.000
644.4570, 4254.000
645.6200, 4279.000
646.7820, 4197.000
647.9440, 4125.000
649.1060, 4112.000
650.2670, 4115.000
651.4290, 4130.000
652.5900, 4099.000
653.7520, 4079.000
654.9130, 4008.000
656.0740, 3992.408
657.2340, 4061.000
658.3950, 3924.000
659.5550, 3979.000
660.7160, 3935.000
661.8760, 3939.000
663.0360, 3901.000
664.1960, 3882.000
665.3550, 3775.000
666.5150, 3762.000
667.6740, 3755.000
668.8330, 3760.000
669.9920, 3742.000
671.1510, 3769.000
672.3100, 3735.000
673.4680, 3729.457
674.6270, 3697.000
675.7850, 3700.000
676.9430, 3742.000
678.1010, 3743.000
679.2590, 3675.000
680.4160, 3681.000
681.5740, 3639.000
682.7310, 3673.000
683.8880, 3694.000
685.0450, 3662.000
686.2020, 3653.000
687.3580, 3630.000
688.5150, 3654.000
689.6710, 3635.000
690.8270, 3582.000
691.9830, 3655.000
693.1390, 3573.000
694.2950, 3602.000
695.4500, 3514.000
696.6050, 3621.000
697.7610, 3600.000
698.9160, 3629.000
700.0710, 3546.000
701.2250, 3644.000
702.3800, 3639.000
703.5340, 3570.000
704.6880, 3609.000
705.8420, 3601.000
706.9960, 3574.000
708.1500, 3577.000
709.3040, 3655.000
710.4570, 3579.000
711.6100, 3638.000
712.7640, 3643.000
713.9160, 3639.000
715.0690, 3621.000
716.2220, 3604.000
717.3740, 3598.000
718.5270, 3605.000
719.6790, 3610.000
720.8310, 3521.000
721.9830, 3617.000
723.1340, 3527.000
724.2860, 3581.000
725.4370, 3584.000
726.5880, 3645.000
727.7390, 3627.000
728.8900, 3645.000
730.0410, 3571.000
731.1910, 3647.000
732.3420, 3619.000
733.4920, 3652.000
734.6420, 3655.000
735.7920, 3635.000
736.9420, 3642.524
738.0910, 3597.000
739.2410, 3619.000
740.3900, 3615.000
741.5390, 3598.000
742.6880, 3626.000
743.8370, 3577.000
744.9860, 3629.000
746.1340, 3660.000
747.2820, 3597.000
748.4310, 3602.000
749.5790, 3679.000
750.7260, 3621.000
751.8740, 3631.000
753.0220, 3701.000
754.1690, 3656.000
755.3160, 3668.000
756.4630, 3671.000
757.6100, 3810.000
758.7570, 3802.000
759.9030, 3850.000
761.0500, 3895.823
762.1960, 3901.567
763.3420, 3951.000
764.4880, 3923.000
765.6340, 3960.000
766.7790, 3940.000
767.9250, 3968.000
769.0700, 3992.000
770.2150, 4053.000
771.3600, 4103.000
772.5050, 4053.000
773.6490, 4020.000
774.7940, 4054.000
775.9380, 4083.000
777.0820, 4151.000
778.2260, 4152.000
779.3700, 4121.000
780.5140, 4102.000
781.6570, 4097.000
782.8010, 4086.892
783.9440, 4103.804
785.0870, 4106.742
786.2300, 4096.457
787.3720, 4033.359
788.5150, 4038.462
789.6570, 4016.242
790.8000, 3992.887
791.9420, 4007.604
793.0840, 3952.191
794.2250, 3966.318
795.3670, 3952.677
796.5080, 3926.000
797.6500, 3829.000
798.7910, 3883.000
799.9320, 3780.000
801.0720, 3732.000
802.2130, 3770.000
803.3530, 3799.000
804.4940, 3814.000
805.6340, 3830.000
806.7740, 3747.000
807.9140, 3717.000
809.0530, 3697.000
810.1930, 3686.000
811.3320, 3798.000
812.4710, 3736.000
813.6100, 3776.000
814.7490, 3829.000
815.8880, 3779.000
817.0270, 3824.000
818.1650, 3794.000
819.3030, 3869.000
820.4410, 3919.000
821.5790, 3876.000
822.7170, 3771.000
823.8540, 3831.000
824.9920, 3732.000
826.1290, 3748.000
827.2660, 3733.000
828.4030, 3605.000
829.5400, 3565.000
830.6760, 3514.000
831.8130, 3538.000
832.9490, 3506.000
834.0850, 3424.000
835.2210, 3493.000
836.3570, 3356.000
837.4930, 3432.000
838.6280, 3407.000
839.7640, 3447.000
840.8990, 3373.000
842.0340, 3450.000
843.1690, 3375.000
844.3030, 3368.000
845.4380, 3431.000
846.5720, 3311.000
847.7060, 3392.000
848.8400, 3385.000
849.9740, 3418.000
851.1080, 3403.000
852.2420, 3382.000
853.3750, 3347.000
854.5080, 3401.000
855.6410, 3474.000
856.7740, 3379.000
857.9070, 3426.000
859.0400, 3407.000
860.1720, 3349.000
861.3040, 3481.000
862.4360, 3363.000
863.5680, 3433.000
864.7000, 3413.000
865.8320, 3344.000
866.9630, 3393.000
868.0950, 3312.000
869.2260, 3357.000
870.3570, 3352.000
871.4880, 3352.000
872.6180, 3354.000
873.7490, 3382.000
874.8790, 3302.000
876.0090, 3296.000
877.1390, 3231.000
878.2690, 3327.000
879.3990, 3333.000
880.5280, 3361.000
881.6580, 3313.000
882.7870, 3265.000
883.9160, 3344.000
885.0450, 3311.000
886.1740, 3304.000
887.3020, 3304.000
888.4310, 3287.000
889.5590, 3290.000
890.6870, 3317.000
891.8150, 3305.000
892.9430, 3317.000
894.0700, 3311.000
895.1980, 3335.000
896.3250, 3256.000
897.4520, 3306.000
898.5790, 3308.000
899.7060, 3342.000
900.8330, 3263.000
901.9590, 3361.000
903.0850, 3302.000
904.2120, 3345.000
905.3380, 3296.000
906.4630, 3340.000
907.5890, 3348.000
908.7150, 3327.000
909.8400, 3404.000
910.9650, 3294.000
912.0900, 3324.000
913.2150, 3300.000
914.3400, 3358.000
915.4640, 3315.000
916.5890, 3288.000
917.7130, 3318.000
918.8370, 3273.000
919.9610, 3323.000
921.0850, 3318.000
922.2080, 3352.000
923.3320, 3355.000
924.4550, 3322.000
925.5780, 3399.000
926.7010, 3320.000
927.8240, 3345.000
928.9460, 3365.000
930.0690, 3371.000
931.1910, 3375.000
932.3130, 3447.000
933.4350, 3431.000
934.5570, 3485.000
935.6790, 3444.000
936.8000, 3446.000
937.9220, 3435.000
939.0430, 3451.000
940.1640, 3435.000
941.2850, 3489.000
942.4050, 3510.000
943.5260, 3494.000
944.6460, 3621.000
945.7660, 3534.000
946.8860, 3489.000
948.0060, 3536.000
949.1260, 3645.000
950.2460, 3616.000
951.3650, 3576.000
952.4840, 3541.000
953.6030, 3556.745
954.7220, 3671.000
955.8410, 3611.000
956.9590, 3615.000
958.0780, 3667.000
959.1960, 3573.000
960.3140, 3704.000
961.4320, 3692.000
962.5500, 3642.000
963.6680, 3744.000
964.7850, 3717.000
965.9020, 3721.000
967.0190, 3765.000
968.1360, 3720.000
969.2530, 3703.000
970.3700, 3731.000
971.4860, 3744.000
972.6030, 3737.000
973.7190, 3735.000
974.8350, 3796.000
975.9510, 3768.000
977.0660, 3754.000
978.1820, 3841.000
979.2970, 3832.000
980.4130, 3861.000
981.5280, 3865.000
982.6420, 3807.000
983.7570, 3817.000
984.8720, 3835.000
985.9860, 3882.000
987.1000, 3859.000
988.2140, 3934.000
989.3280, 3860.000
990.4420, 3876.000
991.5560, 3869.000
992.6690, 3902.000
993.7820, 3917.378
994.8950, 3950.058
996.0080, 3974.000
997.1210, 4023.000
998.2340, 4066.000
999.3460, 4090.000
1000.458, 4179.000
1001.571, 4211.000
1002.683, 4285.000
1003.794, 4278.630
1004.906, 4258.473
1006.017, 4254.000
1007.129, 4194.000
1008.240, 4188.000
1009.351, 4226.000
1010.462, 4160.000
1011.572, 4187.000
1012.683, 4301.000
1013.793, 4257.000
1014.904, 4344.000
1016.014, 4340.000
1017.123, 4343.000
1018.233, 4296.000
1019.343, 4324.000
1020.452, 4398.000
1021.561, 4430.000
1022.670, 4351.000
1023.779, 4477.000
1024.888, 4423.000
1025.997, 4426.000
1027.105, 4321.000
1028.213, 4433.000
1029.321, 4380.000
1030.429, 4386.000
1031.537, 4375.000
1032.645, 4350.000
1033.752, 4300.000
1034.859, 4347.000
1035.966, 4323.000
1037.073, 4278.000
1038.180, 4304.000
1039.287, 4316.000
1040.393, 4223.000
1041.500, 4280.000
1042.606, 4254.000
1043.712, 4305.000
1044.818, 4318.000
1045.923, 4225.000
1047.029, 4240.000
1048.134, 4259.000
1049.239, 4258.000
1050.344, 4183.000
1051.449, 4244.000
1052.554, 4177.000
1053.658, 4189.000
1054.763, 4178.000
1055.867, 4200.000
1056.971, 4192.000
1058.075, 4138.000
1059.179, 4111.000
1060.282, 4120.000
1061.385, 4146.000
1062.489, 4112.000
1063.592, 4177.000
1064.695, 4113.000
1065.797, 4098.000
1066.900, 4146.000
1068.002, 4089.000
1069.105, 4136.000
1070.207, 4087.000
1071.309, 4111.000
1072.411, 4077.000
1073.512, 4080.000
1074.614, 4136.000
1075.715, 4114.000
1076.816, 4233.000
1077.917, 4105.000
1079.018, 4221.000
1080.118, 4180.000
1081.219, 4207.000
1082.319, 4318.000
1083.419, 4319.000
1084.519, 4354.930
1085.619, 4389.988
1086.719, 4346.000
1087.818, 4447.000
1088.918, 4372.000
1090.017, 4448.000
1091.116, 4463.107
1092.215, 4442.000
1093.314, 4507.000
1094.412, 4515.000
1095.510, 4528.000
1096.609, 4615.000
1097.707, 4675.000
1098.805, 4628.000
1099.902, 4647.000
1101.000, 4765.000
1102.097, 4726.000
1103.195, 4732.000
1104.292, 4782.000
1105.389, 4903.000
1106.485, 4797.000
1107.582, 4918.000
1108.678, 4853.000
1109.775, 4945.000
1110.871, 4997.000
1111.967, 4947.000
1113.062, 5033.000
1114.158, 4974.000
1115.254, 4970.000
1116.349, 5092.000
1117.444, 5125.000
1118.539, 5126.000
1119.634, 5139.000
1120.728, 5157.945
1121.823, 5123.000
1122.917, 5190.000
1124.011, 5164.000
1125.105, 5181.000
1126.199, 5256.000
1127.293, 5237.000
1128.386, 5335.000
1129.480, 5272.000
1130.573, 5330.000
1131.666, 5231.000
1132.759, 5372.000
1133.851, 5434.000
1134.944, 5394.000
1136.036, 5403.000
1137.129, 5375.000
1138.221, 5391.000
1139.313, 5427.000
1140.404, 5460.000
1141.496, 5567.000
1142.587, 5454.000
1143.678, 5551.000
1144.770, 5483.000
1145.860, 5459.000
1146.951, 5577.000
1148.042, 5575.000
1149.132, 5638.000
1150.223, 5562.000
1151.313, 5602.000
1152.403, 5640.000
1153.492, 5540.000
1154.582, 5611.000
1155.671, 5553.000
1156.761, 5566.000
1157.850, 5552.000
1158.939, 5582.000
1160.028, 5546.000
1161.116, 5587.000
1162.205, 5513.000
1163.293, 5447.000
1164.381, 5463.000
1165.469, 5432.000
1166.557, 5425.000
1167.645, 5378.000
1168.732, 5345.000
1169.820, 5300.000
1170.907, 5343.000
1171.994, 5327.000
1173.081, 5269.935
1174.167, 5220.000
1175.254, 5138.000
1176.340, 5123.000
1177.426, 5045.000
1178.512, 5101.000
1179.598, 4990.000
1180.684, 4995.000
1181.770, 4919.000
1182.855, 4923.000
1183.940, 4876.000
1185.025, 4895.000
1186.110, 4831.415
1187.195, 4593.000
1188.280, 4699.000
1189.364, 4620.000
1190.448, 4518.000
1191.532, 4539.000
1192.616, 4461.000
1193.700, 4424.000
1194.784, 4351.000
1195.867, 4459.000
1196.950, 4345.000
1198.034, 4238.000
1199.117, 4259.000
1200.199, 4121.000
1201.282, 4115.000
1202.364, 4087.000
1203.447, 4126.000
1204.529, 4085.000
1205.611, 4065.170
1206.693, 4040.614
1207.774, 4000.000
1208.856, 3944.000
1209.937, 3918.000
1211.018, 3841.000
1212.099, 3859.000
1213.180, 3813.000
1214.261, 3806.000
1215.341, 3839.000
1216.422, 3797.000
1217.502, 3802.000
1218.582, 3747.000
1219.662, 3747.000
1220.742, 3601.000
1221.821, 3658.000
1222.900, 3639.000
1223.980, 3765.000
1225.059, 3663.000
1226.138, 3708.000
1227.216, 3653.000
1228.295, 3634.000
1229.373, 3648.000
1230.452, 3578.000
1231.530, 3665.000
1232.608, 3644.000
1233.685, 3600.000
1234.763, 3655.000
1235.840, 3705.000
1236.918, 3661.000
1237.995, 3645.000
1239.072, 3638.000
1240.149, 3633.000
1241.225, 3567.000
1242.302, 3569.000
1243.378, 3607.000
1244.454, 3660.000
1245.530, 3613.000
1246.606, 3701.000
1247.681, 3674.000
1248.757, 3597.000
1249.832, 3652.000
1250.907, 3566.000
1251.982, 3628.000
1253.057, 3609.000
1254.132, 3598.000
1255.206, 3614.000
1256.281, 3651.000
1257.355, 3615.000
1258.429, 3645.612
1259.503, 3628.000
1260.576, 3647.000
1261.650, 3660.000
1262.723, 3622.000
1263.797, 3583.000
1264.870, 3707.000
