##NAMES=Clinohumite
##RRUFFID=R040122
##IDEAL CHEMISTRY=Mg_9_(SiO_4_)_4_F_2_
##LOCALITY=Anzahamazonono,  Madagascar
##OWNER=RRUFF
##SOURCE=University of Arizona Mineral Museum
##DESCRIPTION=Orange-brown blebs embedded in calcite matrix
##STATUS=The identification of this mineral has been confirmed by X-ray diffraction and chemical analysis
##URL=rruff.info/R040122
##MEASURED CHEMISTRY=(Mg_0.96_Fe_0.02_Ti_0.01_Ca_0.01_)_9_(SiO_4_)_4_(F_0.59_(OH)_0.41_)_2_
##PIN_ID=M01103
##ORIENTATION=Laser parallel to -a* (-1 0 0). Fiducial mark perpendicular to laser is parallel to b [0 1 0]
63.96800, 2345.000
65.21800, 1584.000
66.46800, 1478.000
67.71800, 1496.000
68.96700, 1649.000
70.21700, 1589.000
71.46600, 1507.000
72.71500, 1605.000
73.96300, 1566.000
75.21200, 1488.000
76.46000, 1590.000
77.70800, 1757.000
78.95600, 1773.000
80.20300, 1933.000
81.45100, 1963.000
82.69800, 2087.000
83.94500, 2362.000
85.19100, 2530.000
86.43800, 2808.000
87.68400, 3182.000
88.93100, 3631.000
90.17600, 4219.000
91.42200, 4915.000
92.66800, 5554.000
93.91300, 6406.000
95.15800, 7234.000
96.40300, 8372.884
97.64800, 9639.000
98.89200, 10916.00
100.1370, 12305.00
101.3810, 13736.00
102.6250, 14984.37
103.8680, 16259.71
105.1120, 17526.00
106.3550, 18612.00
107.5980, 19812.00
108.8410, 20877.00
110.0840, 21861.00
111.3260, 22597.00
112.5680, 23491.00
113.8100, 24251.00
115.0520, 25217.00
116.2940, 26169.00
117.5350, 26900.00
118.7770, 27083.00
120.0180, 27123.00
121.2590, 27808.00
122.4990, 28278.00
123.7400, 28649.00
124.9800, 28947.00
126.2200, 28980.00
127.4600, 28873.00
128.6990, 29446.00
129.9390, 29669.00
131.1780, 30094.00
132.4170, 30291.00
133.6560, 30188.00
134.8940, 30551.00
136.1330, 30695.00
137.3710, 30783.00
138.6090, 31079.00
139.8470, 31232.73
141.0840, 31527.00
142.3220, 31715.00
143.5590, 31923.00
144.7960, 32252.00
146.0320, 32414.34
147.2690, 32532.00
148.5050, 32805.00
149.7420, 32857.53
150.9780, 32985.39
152.2130, 33067.00
153.4490, 33137.00
154.6840, 33139.00
155.9190, 33283.55
157.1540, 33731.00
158.3890, 33565.00
159.6240, 33854.00
160.8580, 34076.00
162.0920, 34042.00
163.3260, 34254.00
164.5600, 34745.00
165.7930, 34610.00
167.0270, 34870.00
168.2600, 34913.00
169.4930, 35111.17
170.7260, 35492.00
171.9580, 35753.00
173.1900, 35994.00
174.4230, 36654.00
175.6550, 37137.00
176.8860, 37212.00
178.1180, 37761.00
179.3490, 37701.00
180.5800, 38216.00
181.8110, 38785.00
183.0420, 39263.00
184.2730, 39514.61
185.5030, 40051.00
186.7330, 39695.00
187.9630, 39903.00
189.1930, 39542.00
190.4220, 39408.00
191.6520, 38932.00
192.8810, 38273.00
194.1100, 38122.00
195.3390, 37724.00
196.5670, 38366.00
197.7960, 38129.00
199.0240, 38623.00
200.2520, 38629.00
201.4790, 39196.00
202.7070, 39338.00
203.9340, 40070.00
205.1620, 40719.00
206.3890, 41326.00
207.6150, 42199.00
208.8420, 42875.00
210.0680, 43308.00
211.2940, 43521.00
212.5200, 43926.00
213.7460, 43688.00
214.9720, 43287.00
216.1970, 42567.00
217.4220, 41568.00
218.6470, 41193.00
219.8720, 40719.00
221.0970, 40408.00
222.3210, 40051.00
223.5450, 39890.00
224.7690, 39896.00
225.9930, 39815.00
227.2170, 40199.00
228.4400, 39988.00
229.6630, 40107.00
230.8860, 40258.00
232.1090, 40256.00
233.3320, 40449.89
234.5540, 40349.00
235.7770, 40742.00
236.9990, 40959.00
238.2210, 41079.00
239.4420, 40995.00
240.6640, 41032.00
241.8850, 41420.00
243.1060, 41720.00
244.3270, 41769.00
245.5480, 41833.00
246.7680, 42184.00
247.9880, 42521.00
249.2080, 42743.00
250.4280, 43109.00
251.6480, 43316.00
252.8670, 43907.00
254.0870, 44418.00
255.3060, 44709.99
256.5250, 44927.00
257.7440, 45452.00
258.9620, 45521.92
260.1800, 45948.00
261.3990, 45761.00
262.6160, 45585.00
263.8340, 45182.00
265.0520, 44799.00
266.2690, 45106.00
267.4860, 44483.00
268.7030, 44779.00
269.9200, 44299.00
271.1370, 43917.00
272.3530, 44111.00
273.5690, 44070.49
274.7850, 44516.00
276.0010, 44567.00
277.2170, 44934.00
278.4320, 45191.00
279.6470, 45444.00
280.8620, 45820.00
282.0770, 46167.00
283.2920, 46471.44
284.5060, 46913.00
285.7210, 47087.00
286.9350, 47340.00
288.1490, 47565.00
289.3620, 47521.29
290.5760, 47635.00
291.7890, 47388.00
293.0020, 47282.00
294.2150, 47206.00
295.4280, 47210.00
296.6400, 47157.00
297.8530, 46989.00
299.0650, 46791.00
300.2770, 46588.00
301.4890, 46580.68
302.7000, 46687.00
303.9120, 46636.00
305.1230, 46798.00
306.3340, 46936.00
307.5450, 46722.00
308.7550, 46599.00
309.9660, 46638.00
311.1760, 46663.00
312.3860, 46592.00
313.5960, 46874.00
314.8050, 46849.00
316.0150, 46576.00
317.2240, 46865.00
318.4330, 46697.00
319.6420, 46841.00
320.8510, 46856.00
322.0590, 46649.00
323.2680, 46844.00
324.4760, 46712.04
325.6840, 47262.17
326.8910, 47591.04
328.0990, 47710.62
329.3060, 46993.84
330.5140, 47357.02
331.7210, 47287.39
332.9270, 47199.96
334.1340, 47715.11
335.3400, 47119.93
336.5470, 47625.52
337.7530, 47691.68
338.9590, 47995.00
340.1640, 48575.00
341.3700, 48616.00
342.5750, 49101.00
343.7800, 49476.00
344.9850, 49450.00
346.1900, 49648.00
347.3940, 49898.00
348.5990, 49913.00
349.8030, 49724.00
351.0070, 49880.00
352.2100, 49994.00
353.4140, 49660.00
354.6170, 49704.00
355.8210, 49370.00
357.0240, 49316.00
358.2260, 49528.00
359.4290, 49353.00
360.6320, 49301.00
361.8340, 49573.00
363.0360, 48793.00
364.2380, 48349.00
365.4400, 48116.00
366.6410, 48226.00
367.8420, 48288.00
369.0440, 48396.00
370.2440, 48244.00
371.4450, 48117.00
372.6460, 48634.00
373.8460, 48620.00
375.0460, 49167.00
376.2460, 49122.00
377.4460, 49415.74
378.6460, 49680.00
379.8450, 49777.00
381.0450, 49856.00
382.2440, 49814.00
383.4430, 49836.00
384.6410, 49895.53
385.8400, 49937.00
387.0380, 50148.00
388.2360, 50108.00
389.4340, 50528.00
390.6320, 50862.00
391.8300, 50531.00
393.0270, 51379.00
394.2240, 51649.00
395.4210, 51477.00
396.6180, 51521.00
397.8150, 51575.00
399.0110, 51495.00
400.2080, 51314.00
401.4040, 51355.00
402.6000, 50768.00
403.7950, 51206.00
404.9910, 50638.00
406.1860, 51320.00
407.3810, 51351.00
408.5760, 51836.00
409.7710, 52175.64
410.9660, 52333.62
412.1600, 52812.00
413.3540, 52885.00
414.5490, 53132.00
415.7420, 53674.00
416.9360, 53891.00
418.1300, 53841.00
419.3230, 53793.00
420.5160, 54189.00
421.7090, 54069.00
422.9020, 53726.00
424.0940, 54041.00
425.2870, 53313.00
426.4790, 53261.00
427.6710, 53257.00
428.8630, 52955.00
430.0550, 52840.00
431.2460, 52879.00
432.4370, 52411.00
433.6290, 52404.00
434.8190, 52396.00
436.0100, 51868.00
437.2010, 51890.00
438.3910, 51877.00
439.5810, 51846.00
440.7710, 51540.00
441.9610, 51455.00
443.1510, 51350.00
444.3400, 51536.00
445.5300, 51492.00
446.7190, 51522.00
447.9080, 51188.00
449.0960, 51432.00
450.2850, 51370.00
451.4730, 51615.00
452.6620, 51828.00
453.8500, 52080.00
455.0370, 51925.00
456.2250, 51984.00
457.4120, 52098.00
458.6000, 52165.00
459.7870, 52210.00
460.9740, 52507.00
462.1610, 52977.00
463.3470, 53581.00
464.5330, 53587.14
465.7200, 53787.09
466.9060, 53513.00
468.0910, 53759.00
469.2770, 53345.00
470.4630, 53357.00
471.6480, 53955.00
472.8330, 54076.00
474.0180, 54242.00
475.2030, 54640.37
476.3870, 54874.03
477.5720, 55379.00
478.7560, 55314.00
479.9400, 55988.00
481.1240, 55708.00
482.3070, 56048.00
483.4910, 56245.00
484.6740, 56567.00
485.8570, 56347.00
487.0400, 56724.00
488.2230, 56559.00
489.4050, 56484.00
490.5880, 56411.00
491.7700, 56116.00
492.9520, 56009.00
494.1340, 56167.00
495.3160, 55856.00
496.4970, 56131.00
497.6780, 56411.00
498.8600, 56356.00
500.0400, 55974.00
501.2210, 56117.00
502.4020, 55921.00
503.5820, 55987.00
504.7630, 56002.00
505.9430, 55973.57
507.1220, 56083.27
508.3020, 56114.00
509.4820, 56230.00
510.6610, 56488.00
511.8400, 56510.20
513.0190, 56552.00
514.1980, 56870.00
515.3770, 56655.00
516.5550, 56755.00
517.7330, 56694.00
518.9110, 57142.00
520.0890, 57316.00
521.2670, 57534.00
522.4450, 57660.00
523.6220, 57619.00
524.7990, 58333.00
525.9760, 58274.00
527.1530, 58608.00
528.3300, 59031.00
529.5060, 59290.00
530.6830, 59629.00
531.8590, 60085.00
533.0350, 60119.00
534.2100, 60721.00
535.3860, 61038.00
536.5610, 61309.58
537.7370, 61801.00
538.9120, 61870.00
540.0870, 62362.00
541.2610, 62514.00
542.4360, 62680.00
543.6100, 62913.00
544.7850, 63199.00
545.9590, 63349.00
547.1320, 63507.00
548.3060, 63334.00
549.4800, 63329.00
550.6530, 63090.00
551.8260, 62831.00
552.9990, 62567.00
554.1720, 61866.00
555.3440, 61724.00
556.5170, 61084.00
557.6890, 60393.00
558.8610, 60142.00
560.0330, 59940.00
561.2050, 60185.00
562.3760, 60206.00
563.5480, 59965.00
564.7190, 59659.00
565.8900, 59857.00
567.0610, 59573.00
568.2310, 60032.00
569.4020, 59775.00
570.5720, 60063.00
571.7420, 60037.00
572.9120, 60026.00
574.0820, 60452.00
575.2520, 60299.00
576.4210, 60504.00
577.5900, 60538.00
578.7590, 60282.00
579.9280, 60903.00
581.0970, 60696.00
582.2660, 60491.00
583.4340, 60875.00
584.6020, 61191.00
585.7700, 61244.00
586.9380, 61226.00
588.1060, 61382.00
589.2730, 61400.00
590.4410, 61782.00
591.6080, 61730.00
592.7750, 62549.00
593.9420, 62117.00
595.1080, 62763.00
596.2750, 62891.00
597.4410, 63283.00
598.6070, 63335.00
599.7730, 64260.00
600.9390, 64561.00
602.1050, 65463.00
603.2700, 65437.00
604.4350, 66380.00
605.6010, 66825.00
606.7660, 67602.00
607.9300, 68063.00
609.0950, 67740.00
610.2590, 67672.00
611.4230, 67695.00
612.5880, 67411.00
613.7510, 66837.00
614.9150, 66264.00
616.0790, 65973.00
617.2420, 65375.00
618.4050, 65090.00
619.5680, 64792.00
620.7310, 64676.00
621.8940, 64188.00
623.0560, 63820.00
624.2190, 63817.37
625.3810, 64097.00
626.5430, 63696.00
627.7050, 63671.00
628.8660, 63439.00
630.0280, 63609.00
631.1890, 63824.00
632.3500, 63489.00
633.5110, 63806.00
634.6720, 63905.00
635.8330, 63661.00
636.9930, 63624.00
638.1530, 63655.00
639.3130, 63650.00
640.4730, 63668.89
641.6330, 63621.00
642.7930, 63739.00
643.9520, 63788.00
645.1110, 63860.61
646.2710, 63823.00
647.4290, 63975.00
648.5880, 63884.00
649.7470, 63893.00
650.9050, 63902.00
652.0630, 64112.00
653.2210, 64115.00
654.3790, 64068.00
655.5370, 64365.00
656.6950, 64109.00
657.8520, 64769.00
659.0090, 64359.00
660.1660, 64949.00
661.3230, 64954.00
662.4800, 64914.00
663.6360, 64953.00
664.7930, 65010.00
665.9490, 65635.00
667.1050, 65320.00
668.2610, 65542.00
669.4160, 65273.00
670.5720, 65668.00
671.7270, 65694.00
672.8830, 65789.00
674.0380, 65703.00
675.1920, 65981.00
676.3470, 65864.00
677.5020, 66128.00
678.6560, 66427.00
679.8100, 66372.00
680.9640, 66715.00
682.1180, 66468.00
683.2720, 66582.00
684.4250, 66848.00
685.5780, 66732.00
686.7320, 67136.00
687.8850, 67417.00
689.0370, 67382.00
690.1900, 67282.00
691.3420, 67799.00
692.4950, 67542.00
693.6470, 67579.00
694.7990, 68098.00
695.9510, 68253.00
697.1020, 68412.00
698.2540, 68155.00
699.4050, 68756.00
700.5560, 68756.77
701.7070, 69340.00
702.8580, 69142.00
704.0090, 69195.00
705.1590, 69290.00
706.3100, 69286.00
707.4600, 69773.00
708.6100, 70049.00
709.7590, 70195.00
710.9090, 70555.00
712.0590, 70600.00
713.2080, 70997.00
714.3570, 70903.00
715.5060, 71247.68
716.6550, 71591.00
717.8030, 71863.00
718.9520, 72208.00
720.1000, 72667.00
721.2480, 73022.00
722.3960, 73600.52
723.5440, 74528.00
724.6920, 74927.00
725.8390, 74985.00
726.9870, 75903.00
728.1340, 76744.00
729.2810, 77717.00
730.4280, 78253.00
731.5740, 79285.02
732.7210, 80292.00
733.8670, 81319.00
735.0130, 82412.00
736.1590, 83619.34
737.3050, 84895.00
738.4510, 86197.00
739.5960, 87522.00
740.7410, 88934.00
741.8870, 89922.00
743.0320, 90876.56
744.1760, 91798.00
745.3210, 92338.00
746.4660, 93076.00
747.6100, 93641.00
748.7540, 94213.00
749.8980, 95085.00
751.0420, 95072.00
752.1860, 95581.00
753.3290, 94892.00
754.4720, 94624.00
755.6160, 94094.00
756.7590, 94031.00
757.9020, 93348.00
759.0440, 92740.00
760.1870, 91644.00
761.3290, 90701.00
762.4710, 89834.00
763.6130, 88309.00
764.7550, 88277.00
765.8970, 87297.00
767.0390, 87109.00
768.1800, 86713.00
769.3210, 86346.00
770.4620, 87084.00
771.6030, 88223.00
772.7440, 88530.00
773.8840, 89716.00
775.0250, 91095.00
776.1650, 92844.00
777.3050, 94929.00
778.4450, 97399.00
779.5850, 99812.00
780.7240, 102782.0
781.8640, 104764.0
783.0030, 107403.0
784.1420, 109305.0
785.2810, 110970.0
786.4200, 111405.0
787.5590, 111276.0
788.6970, 110019.0
789.8350, 108573.0
790.9730, 106694.0
792.1110, 104953.0
793.2490, 102972.0
794.3870, 102210.0
795.5240, 100848.0
796.6620, 100396.0
797.7990, 100449.0
798.9360, 100173.0
800.0730, 101225.0
801.2090, 102433.0
802.3460, 103801.0
803.4820, 106424.0
804.6180, 109743.0
805.7540, 112249.0
806.8900, 115411.0
808.0260, 117374.0
809.1620, 118416.0
810.2970, 119313.0
811.4320, 118709.0
812.5670, 118271.0
813.7020, 117074.0
814.8370, 116293.0
815.9710, 115855.0
817.1060, 115728.2
818.2400, 116173.0
819.3740, 116452.0
820.5080, 117665.0
821.6420, 118711.0
822.7760, 120723.0
823.9090, 124386.0
825.0420, 129140.0
826.1760, 135486.0
827.3090, 142630.0
828.4410, 149103.0
829.5740, 154737.0
830.7060, 159379.0
831.8390, 159426.0
832.9710, 158244.0
834.1030, 154704.0
835.2350, 150729.0
836.3670, 147424.0
837.4980, 145661.0
838.6300, 146750.0
839.7610, 148737.0
840.8920, 154295.0
842.0230, 160126.0
843.1530, 167886.0
844.2840, 175616.0
845.4140, 182125.0
846.5450, 187172.0
847.6750, 189280.0
848.8050, 190083.0
849.9350, 187836.0
851.0640, 186825.0
852.1940, 185974.0
853.3230, 187296.0
854.4520, 191699.0
855.5810, 201455.0
856.7100, 213287.0
857.8390, 226107.0
858.9670, 239813.0
860.0960, 249608.0
861.2240, 253302.0
862.3520, 249156.0
863.4800, 237752.0
864.6080, 222315.0
865.7350, 203928.0
866.8630, 186799.0
867.9900, 171649.0
869.1170, 159568.0
870.2440, 150451.0
871.3710, 143201.0
872.4970, 138136.0
873.6240, 133331.0
874.7500, 129971.0
875.8760, 127263.0
877.0020, 123620.0
878.1280, 121188.0
879.2540, 118333.0
880.3790, 114888.0
881.5050, 112182.0
882.6300, 109651.0
883.7550, 106958.0
884.8800, 105222.0
886.0050, 103406.0
887.1290, 101291.0
888.2540, 100475.0
889.3780, 98534.00
890.5020, 98697.00
891.6260, 97434.00
892.7500, 96923.00
893.8730, 95796.00
894.9970, 95395.00
896.1200, 95153.00
897.2440, 94780.00
898.3670, 94259.00
899.4890, 94217.00
900.6120, 93776.00
901.7350, 93578.00
902.8570, 92980.00
903.9790, 93063.00
905.1010, 93081.00
906.2230, 93042.00
907.3450, 92652.00
908.4670, 92599.00
909.5880, 92744.00
910.7100, 92185.00
911.8310, 92590.00
912.9520, 92705.00
914.0730, 92504.00
915.1930, 92328.00
916.3140, 92188.00
917.4340, 92189.00
918.5550, 92435.00
919.6750, 92231.00
920.7950, 91848.00
921.9140, 92360.00
923.0340, 92310.00
924.1530, 92734.00
925.2730, 93021.00
926.3920, 92688.00
927.5110, 93203.00
928.6300, 93407.00
929.7480, 94469.00
930.8670, 94277.00
931.9850, 94620.00
933.1040, 94445.00
934.2220, 94223.00
935.3400, 93914.00
936.4570, 92886.00
937.5750, 93052.00
938.6920, 91943.00
939.8100, 92014.00
940.9270, 91754.00
942.0440, 92381.00
943.1610, 92143.00
944.2770, 92047.00
945.3940, 92217.00
946.5100, 92446.00
947.6270, 92460.00
948.7430, 93105.00
949.8590, 93637.00
950.9740, 93868.00
952.0900, 94215.00
953.2050, 95102.00
954.3210, 95971.00
955.4360, 97182.00
956.5510, 99623.00
957.6660, 100995.0
958.7800, 102764.0
959.8950, 105168.0
961.0090, 109006.0
962.1240, 113287.0
963.2380, 118593.0
964.3520, 124095.0
965.4650, 129815.0
966.5790, 134060.0
967.6930, 135822.0
968.8060, 135900.0
969.9190, 132118.0
971.0320, 127229.0
972.1450, 121174.0
973.2580, 114271.0
974.3700, 109849.0
975.4830, 105615.0
976.5950, 102010.0
977.7070, 99801.00
978.8190, 97823.00
979.9310, 96387.00
981.0430, 95324.00
982.1540, 94782.00
983.2650, 94134.00
984.3770, 93590.00
985.4880, 93887.00
986.5990, 93312.00
987.7090, 93212.00
988.8200, 92802.00
989.9300, 92852.00
991.0410, 92889.00
992.1510, 92580.00
993.2610, 92434.00
994.3710, 92608.00
995.4810, 92562.00
996.5900, 92382.00
997.6990, 92589.00
998.8090, 92154.00
999.9180, 92837.00
1001.027, 93042.00
1002.136, 92983.00
1003.244, 93124.00
1004.353, 93153.30
1005.461, 93335.00
1006.569, 93259.00
1007.677, 93160.00
1008.785, 93315.00
1009.893, 93288.00
1011.001, 93297.00
1012.108, 92996.00
1013.215, 93436.00
1014.323, 93549.00
1015.430, 93839.00
1016.536, 93251.00
1017.643, 93251.00
1018.750, 93495.00
1019.856, 94054.00
1020.962, 94078.00
1022.068, 94011.00
1023.174, 93974.00
1024.280, 93999.00
1025.386, 93924.00
1026.491, 94085.23
1027.597, 94344.00
1028.702, 94340.00
1029.807, 94522.00
1030.912, 94502.00
1032.017, 94639.98
1033.121, 94804.00
1034.226, 94806.00
1035.330, 95069.00
1036.434, 95007.00
1037.538, 95529.00
1038.642, 95533.00
1039.746, 95280.00
1040.850, 95076.00
1041.953, 95338.00
1043.056, 95408.00
1044.159, 95381.00
1045.262, 95983.00
1046.365, 95532.00
1047.468, 95557.00
1048.571, 95876.00
1049.673, 96100.00
1050.775, 96033.00
1051.877, 95984.00
1052.979, 96153.00
1054.081, 96080.00
1055.183, 96192.00
1056.284, 96017.00
1057.386, 96002.00
1058.487, 96274.00
1059.588, 96141.00
1060.689, 95922.00
1061.790, 96573.00
1062.890, 96327.80
1063.991, 96707.00
1065.091, 96398.00
1066.191, 96520.00
1067.291, 96520.00
1068.391, 96419.00
1069.491, 96843.00
1070.591, 96719.00
1071.690, 97558.00
1072.790, 97189.00
1073.889, 97667.00
1074.988, 96740.00
1076.087, 97679.00
1077.185, 97414.00
1078.284, 97654.00
1079.382, 98325.00
1080.481, 98034.53
1081.579, 98654.00
1082.677, 98259.00
1083.775, 98297.00
1084.872, 99023.00
1085.970, 98270.00
1087.067, 98495.00
1088.165, 98611.00
1089.262, 98956.00
1090.359, 99034.00
1091.456, 98921.00
1092.552, 99585.00
1093.649, 99442.00
1094.745, 99332.00
1095.842, 99605.00
1096.938, 99675.00
1098.034, 99954.00
1099.130, 99504.00
1100.225, 100378.0
1101.321, 100046.0
1102.416, 100516.0
1103.511, 100220.0
1104.607, 100169.0
1105.702, 100486.0
1106.796, 100358.0
1107.891, 100397.0
1108.986, 100714.0
1110.080, 100741.0
1111.174, 100382.0
1112.268, 100910.0
1113.362, 101236.0
1114.456, 100828.0
1115.550, 101013.0
1116.643, 100945.0
1117.737, 100893.0
1118.830, 101638.0
1119.923, 101405.0
1121.016, 101964.0
1122.109, 101856.0
1123.201, 101307.0
1124.294, 101780.0
1125.386, 101846.0
1126.478, 102415.0
1127.571, 102121.0
1128.663, 102277.0
1129.754, 102048.0
1130.846, 102705.0
1131.937, 102767.0
1133.029, 102647.0
1134.120, 103372.0
1135.211, 102627.0
1136.302, 102700.0
1137.393, 103169.0
1138.484, 102969.0
1139.574, 103180.0
1140.664, 103204.0
1141.755, 103751.0
1142.845, 103224.0
1143.935, 103794.0
1145.025, 103741.0
1146.114, 103744.0
1147.204, 104057.0
1148.293, 104242.0
1149.382, 103991.0
1150.471, 104649.0
1151.560, 104382.0
1152.649, 104287.0
1153.738, 104670.0
1154.826, 104699.0
1155.915, 104760.0
1157.003, 104958.0
1158.091, 104951.0
1159.179, 105141.2
1160.267, 105473.0
1161.355, 105347.0
1162.442, 105362.0
1163.529, 105212.0
1164.617, 105689.0
1165.704, 105686.0
1166.791, 105372.0
1167.878, 105800.0
1168.964, 106280.0
1170.051, 106084.0
1171.137, 106008.0
1172.224, 106019.0
1173.310, 106281.0
1174.396, 106370.0
1175.481, 106778.0
1176.567, 106625.0
1177.653, 106523.0
1178.738, 107365.0
1179.823, 106679.0
1180.909, 107064.0
1181.994, 106907.0
1183.078, 107161.0
1184.163, 107029.0
1185.248, 107052.0
1186.332, 107258.0
1187.416, 107132.0
1188.501, 107546.0
1189.585, 107791.0
1190.669, 107359.0
1191.752, 107653.0
1192.836, 107622.0
1193.919, 107863.0
1195.003, 108167.0
1196.086, 108074.0
1197.169, 108503.0
1198.252, 108316.0
1199.334, 108459.0
1200.417, 108598.0
1201.500, 108518.0
1202.582, 109111.0
1203.664, 108457.0
1204.746, 109195.0
1205.828, 109402.0
1206.910, 109154.0
1207.992, 109326.0
1209.073, 109590.0
1210.154, 109666.0
1211.236, 109576.0
1212.317, 109980.0
1213.398, 109940.0
1214.479, 109911.0
1215.559, 110132.0
1216.640, 110172.0
1217.720, 110352.0
1218.800, 110253.0
1219.881, 110599.0
1220.961, 111014.0
1222.040, 111002.0
1223.120, 111405.0
1224.200, 111113.0
1225.279, 111322.0
1226.358, 111390.0
1227.438, 111579.0
1228.517, 111339.0
1229.595, 111666.0
1230.674, 111377.0
1231.753, 112072.0
1232.831, 111647.0
1233.910, 111717.0
1234.988, 112059.0
1236.066, 112559.0
1237.144, 112244.0
1238.222, 112134.0
1239.299, 112968.0
1240.377, 113136.0
1241.454, 113396.0
1242.531, 113286.0
1243.608, 113461.4
1244.685, 113552.8
