##NAMES=Clinozoisite
##RRUFFID=R060284
##IDEAL CHEMISTRY=Ca_2_Al_3_(Si_2_O_7_)(SiO_4_)O(OH)
##LOCALITY=near Zagi Mountain, Khaffor Dehri, North-West Frontier Province, Pakistan
##OWNER=RRUFF
##SOURCE=Herb Obodda
##DESCRIPTION=Greenish-brown fragment of a prismatic crystal
##STATUS=The identification of this mineral has been confirmed by X-ray diffraction and chemical analysis
##URL=rruff.info/R060284
##MEASURED CHEMISTRY=Ca_2.00_(Al_0.90_Fe^3+^_0.10_)_3_(Si_1.00_O_4_)(Si_2.00_O_7_)O(OH)
##PIN_ID=L01751
##ORIENTATION=Laser parallel to (1 0 1). Fiducial mark perpendicular to laser is parallel to -b [0 -1 0]
118.1340, 14598.00
119.3650, 14758.00
120.5960, 14921.00
121.8270, 14882.00
123.0580, 15148.00
124.2880, 15451.00
125.5190, 15443.00
126.7490, 15449.00
127.9790, 16008.00
129.2090, 16511.00
130.4390, 17024.00
131.6680, 17493.00
132.8980, 17998.00
134.1270, 18691.00
135.3560, 19182.00
136.5850, 19823.00
137.8140, 20444.00
139.0430, 21271.00
140.2710, 21747.00
141.5000, 22186.00
142.7280, 22225.00
143.9560, 22582.00
145.1840, 22699.00
146.4120, 22906.00
147.6390, 22846.00
148.8670, 22698.00
150.0940, 22520.00
151.3210, 22428.00
152.5490, 22671.00
153.7750, 22230.00
155.0020, 22110.00
156.2290, 22334.00
157.4550, 21999.00
158.6810, 22314.00
159.9080, 22401.00
161.1340, 22645.00
162.3590, 22715.00
163.5850, 22875.00
164.8110, 23291.00
166.0360, 23360.00
167.2610, 23379.00
168.4860, 23273.00
169.7110, 23058.00
170.9360, 22899.00
172.1610, 22375.00
173.3850, 22080.00
174.6100, 21275.00
175.8340, 20448.00
177.0580, 19998.00
178.2820, 19235.00
179.5050, 18580.00
180.7290, 18063.00
181.9520, 17679.00
183.1760, 16918.00
184.3990, 16648.00
185.6220, 16114.00
186.8450, 15867.00
188.0670, 15863.00
189.2900, 15534.00
190.5120, 15480.00
191.7340, 15357.00
192.9560, 15326.00
194.1780, 15337.00
195.4000, 15424.80
196.6220, 15628.00
197.8430, 15718.00
199.0640, 15866.00
200.2860, 16002.00
201.5070, 16169.69
202.7270, 16457.00
203.9480, 16496.00
205.1690, 16702.00
206.3890, 16773.00
207.6090, 16859.00
208.8290, 16967.00
210.0490, 17072.93
211.2690, 17423.00
212.4890, 17312.00
213.7080, 17485.00
214.9280, 17600.00
216.1470, 17570.00
217.3660, 17716.00
218.5850, 17784.00
219.8030, 17999.00
221.0220, 18142.00
222.2400, 18544.00
223.4590, 18613.00
224.6770, 19120.00
225.8950, 19545.00
227.1120, 20182.00
228.3300, 20864.00
229.5480, 21747.00
230.7650, 22619.00
231.9820, 23549.00
233.1990, 24120.00
234.4160, 24865.00
235.6330, 25585.00
236.8490, 26122.00
238.0660, 26743.00
239.2820, 27120.00
240.4980, 27674.00
241.7140, 28462.00
242.9300, 29232.00
244.1460, 30236.00
245.3610, 30990.00
246.5770, 32337.00
247.7920, 33357.00
249.0070, 34592.00
250.2220, 36029.00
251.4370, 36885.00
252.6510, 37414.00
253.8660, 37945.00
255.0800, 37913.38
256.2940, 37830.14
257.5080, 37217.00
258.7220, 36751.00
259.9360, 35793.00
261.1490, 34471.00
262.3630, 33715.00
263.5760, 32951.00
264.7890, 32828.00
266.0020, 32869.00
267.2150, 32925.00
268.4270, 33484.00
269.6400, 34072.00
270.8520, 34489.00
272.0640, 35033.00
273.2760, 35467.00
274.4880, 35212.00
275.7000, 35173.00
276.9120, 34649.00
278.1230, 33971.00
279.3340, 33257.00
280.5450, 32248.00
281.7560, 31263.00
282.9670, 30151.00
284.1780, 28915.00
285.3880, 28219.00
286.5980, 27551.00
287.8090, 26759.00
289.0190, 26233.00
290.2290, 25844.00
291.4380, 25433.00
292.6480, 25120.00
293.8570, 24849.00
295.0670, 24710.00
296.2760, 24470.00
297.4850, 24122.00
298.6930, 24129.00
299.9020, 24046.00
301.1110, 23911.00
302.3190, 24024.00
303.5270, 23755.00
304.7350, 23628.00
305.9430, 23727.00
307.1510, 23680.00
308.3580, 23708.00
309.5660, 24029.00
310.7730, 24192.00
311.9800, 24446.00
313.1870, 24678.00
314.3940, 25013.00
315.6010, 25477.00
316.8070, 26076.00
318.0130, 26339.00
319.2200, 26951.00
320.4260, 27392.00
321.6310, 28017.00
322.8370, 28343.00
324.0430, 28717.00
325.2480, 29254.00
326.4540, 29670.00
327.6590, 30196.00
328.8640, 30683.00
330.0680, 31471.00
331.2730, 32378.00
332.4780, 33267.00
333.6820, 34223.00
334.8860, 35495.00
336.0900, 36837.00
337.2940, 37789.00
338.4980, 38963.00
339.7010, 40124.00
340.9050, 41476.00
342.1080, 42571.00
343.3110, 43538.00
344.5140, 44592.00
345.7170, 45485.00
346.9200, 46240.00
348.1220, 46988.00
349.3240, 47347.00
350.5270, 47287.00
351.7290, 46774.00
352.9310, 45484.00
354.1320, 43734.00
355.3340, 41664.00
356.5350, 39251.00
357.7370, 36729.00
358.9380, 34114.00
360.1390, 31649.00
361.3400, 29531.00
362.5400, 27752.00
363.7410, 26776.00
364.9410, 25827.00
366.1410, 24932.00
367.3410, 24499.00
368.5410, 24048.00
369.7410, 23494.00
370.9400, 23419.00
372.1400, 23057.00
373.3390, 22510.00
374.5380, 22376.00
375.7370, 22073.00
376.9360, 21923.00
378.1350, 21976.00
379.3330, 21801.00
380.5310, 21722.00
381.7300, 21961.00
382.9280, 22457.00
384.1260, 22737.00
385.3230, 23355.00
386.5210, 23746.00
387.7180, 23940.00
388.9160, 24199.00
390.1130, 24223.00
391.3100, 24164.00
392.5060, 23872.00
393.7030, 23617.00
394.9000, 23168.00
396.0960, 22672.00
397.2920, 21946.00
398.4880, 21345.00
399.6840, 20819.00
400.8800, 20183.00
402.0750, 19735.00
403.2710, 19504.00
404.4660, 18882.00
405.6610, 18578.00
406.8560, 18141.00
408.0510, 18115.00
409.2450, 18173.00
410.4400, 18101.00
411.6340, 18145.00
412.8280, 18198.00
414.0220, 18766.00
415.2160, 19039.00
416.4100, 19601.00
417.6030, 20258.00
418.7970, 21054.00
419.9900, 21945.00
421.1830, 22971.00
422.3760, 24149.00
423.5690, 25004.00
424.7610, 25739.00
425.9540, 26358.13
427.1460, 26869.13
428.3380, 27198.00
429.5300, 27482.00
430.7220, 27815.00
431.9140, 27716.00
433.1050, 27489.00
434.2970, 27423.00
435.4880, 27631.00
436.6790, 28131.00
437.8700, 28776.00
439.0610, 29752.00
440.2510, 31634.00
441.4420, 33363.00
442.6320, 36029.00
443.8220, 38734.00
445.0120, 41481.00
446.2020, 44649.00
447.3910, 48163.00
448.5810, 50797.00
449.7700, 53306.00
450.9600, 55095.00
452.1490, 56298.00
453.3370, 56730.00
454.5260, 56085.00
455.7150, 54834.00
456.9030, 53020.00
458.0910, 50620.00
459.2800, 48237.00
460.4670, 45534.00
461.6550, 43537.00
462.8430, 41335.00
464.0300, 39808.00
465.2180, 39011.00
466.4050, 38286.00
467.5920, 37671.00
468.7790, 37396.00
469.9650, 36728.00
471.1520, 36741.00
472.3380, 36513.00
473.5250, 36671.00
474.7110, 36632.00
475.8970, 36450.00
477.0820, 36396.00
478.2680, 35940.00
479.4540, 35806.00
480.6390, 35916.00
481.8240, 35344.00
483.0090, 34927.00
484.1940, 34268.00
485.3780, 33544.00
486.5630, 32670.00
487.7470, 31465.00
488.9320, 30505.00
490.1160, 29531.00
491.3000, 28197.00
492.4830, 27351.00
493.6670, 26590.00
494.8500, 25887.00
496.0340, 25363.00
497.2170, 25013.52
498.4000, 24836.00
499.5820, 24728.00
500.7650, 24931.00
501.9480, 25151.00
503.1300, 25410.45
504.3120, 26269.00
505.4940, 26239.00
506.6760, 26701.00
507.8580, 27284.00
509.0390, 27385.00
510.2210, 27540.00
511.4020, 27440.00
512.5830, 27418.00
513.7640, 27294.00
514.9450, 27271.00
516.1250, 27496.00
517.3060, 27227.00
518.4860, 27401.00
519.6660, 27240.00
520.8460, 27009.00
522.0260, 27030.00
523.2060, 26757.00
524.3850, 26572.00
525.5650, 26467.00
526.7440, 26194.00
527.9230, 25787.00
529.1020, 25484.00
530.2810, 24967.00
531.4590, 24166.00
532.6380, 23450.00
533.8160, 22806.00
534.9940, 22050.00
536.1720, 21253.00
537.3500, 20606.00
538.5270, 20084.00
539.7050, 19644.83
540.8820, 19412.00
542.0590, 19164.00
543.2360, 18873.00
544.4130, 18961.00
545.5900, 18812.00
546.7660, 18918.00
547.9430, 18922.00
549.1190, 19035.00
550.2950, 19202.00
551.4710, 19528.00
552.6470, 19729.00
553.8220, 20182.00
554.9980, 20769.00
556.1730, 21377.00
557.3480, 21838.00
558.5230, 23149.00
559.6980, 24252.00
560.8730, 25729.00
562.0470, 27605.00
563.2220, 30127.00
564.3960, 32847.00
565.5700, 36311.00
566.7440, 39378.00
567.9170, 42196.00
569.0910, 45161.00
570.2640, 46568.00
571.4380, 46774.00
572.6110, 45589.00
573.7840, 43692.00
574.9570, 40588.00
576.1290, 37365.00
577.3020, 33486.00
578.4740, 30222.00
579.6460, 27470.00
580.8180, 25615.00
581.9900, 24672.00
583.1620, 23954.00
584.3330, 23648.00
585.5040, 23715.00
586.6760, 23983.00
587.8470, 24348.00
589.0180, 24649.00
590.1880, 25343.00
591.3590, 25875.00
592.5290, 26642.00
593.7000, 27245.00
594.8700, 28161.00
596.0400, 28972.00
597.2090, 29961.00
598.3790, 30767.00
599.5490, 31920.00
600.7180, 32741.00
601.8870, 33290.00
603.0560, 33726.00
604.2250, 34086.00
605.3940, 33977.00
606.5620, 33597.00
607.7300, 32914.00
608.8990, 32007.00
610.0670, 30846.00
611.2350, 29919.00
612.4020, 28816.00
613.5700, 27618.00
614.7370, 26647.00
615.9050, 25915.00
617.0720, 24980.00
618.2390, 24315.00
619.4060, 23232.00
620.5720, 22553.00
621.7390, 21738.00
622.9050, 20988.00
624.0710, 20440.00
625.2370, 19609.00
626.4030, 19258.00
627.5690, 18738.00
628.7340, 18346.00
629.9000, 18198.00
631.0650, 17927.00
632.2300, 17942.00
633.3950, 17582.00
634.5600, 17425.00
635.7240, 17599.00
636.8890, 17497.00
638.0530, 17373.00
639.2170, 17349.00
640.3810, 17235.00
641.5450, 17507.00
642.7080, 17479.00
643.8720, 17500.00
645.0350, 17659.00
646.1980, 17611.00
647.3610, 17816.00
648.5240, 18045.00
649.6870, 18544.00
650.8490, 18719.00
652.0120, 19059.00
653.1740, 19411.00
654.3360, 19645.00
655.4980, 19729.00
656.6600, 19880.00
657.8210, 19883.00
658.9830, 19842.00
660.1440, 19645.00
661.3050, 19529.73
662.4660, 19360.00
663.6270, 19183.00
664.7870, 18961.00
665.9480, 18887.00
667.1080, 18709.00
668.2680, 18509.00
669.4280, 18446.64
670.5880, 18410.00
671.7480, 18304.00
672.9070, 18167.00
674.0670, 18174.00
675.2260, 18206.00
676.3850, 18484.00
677.5440, 18601.00
678.7030, 18678.00
679.8610, 18912.00
681.0200, 18948.00
682.1780, 18966.00
683.3360, 19259.00
684.4940, 19403.00
685.6520, 19360.00
686.8090, 19603.00
687.9670, 19377.00
689.1240, 19599.00
690.2810, 19508.00
691.4380, 19524.00
692.5950, 19604.00
693.7520, 19522.00
694.9080, 19729.00
696.0650, 19890.00
697.2210, 19615.00
698.3770, 19849.00
699.5330, 19735.00
700.6880, 19889.00
701.8440, 19589.00
702.9990, 19653.00
704.1550, 19636.00
705.3100, 19475.00
706.4650, 18999.00
707.6190, 18607.00
708.7740, 18368.00
709.9290, 18155.00
711.0830, 17911.00
712.2370, 17843.00
713.3910, 17368.00
714.5450, 17099.00
715.6980, 17120.00
716.8520, 17027.00
718.0050, 16914.00
719.1580, 16720.00
720.3110, 16633.00
721.4640, 16420.00
722.6170, 16581.00
723.7700, 16496.00
724.9220, 16272.00
726.0740, 16488.00
727.2260, 16393.00
728.3780, 16230.00
729.5300, 16314.00
730.6810, 16238.00
731.8330, 16305.00
732.9840, 16074.00
734.1350, 16292.00
735.2860, 16150.00
736.4370, 16296.00
737.5880, 16120.00
738.7380, 16163.00
739.8880, 16240.00
741.0390, 16098.00
742.1890, 16052.00
743.3380, 16091.00
744.4880, 16018.00
745.6380, 16115.00
746.7870, 16123.00
747.9360, 16193.00
749.0850, 15963.00
750.2340, 16068.00
751.3830, 16044.00
752.5310, 16050.00
753.6800, 16258.00
754.8280, 16183.00
755.9760, 16191.00
757.1240, 16124.00
758.2720, 16256.00
759.4190, 16146.00
760.5670, 16151.00
761.7140, 16104.00
762.8610, 16213.00
764.0080, 16228.00
765.1550, 16214.00
766.3020, 16289.00
767.4480, 16232.00
768.5950, 16249.00
769.7410, 16304.00
770.8870, 16285.00
772.0330, 16245.00
773.1780, 16226.00
774.3240, 16335.00
775.4690, 16377.00
776.6140, 16426.00
777.7590, 16369.00
778.9040, 16316.00
780.0490, 16392.83
781.1940, 16381.91
782.3380, 16504.00
783.4820, 16481.00
784.6260, 16511.00
785.7700, 16584.00
786.9140, 16681.00
788.0580, 16791.00
789.2010, 16806.05
790.3450, 16865.06
791.4880, 16810.00
792.6310, 16881.00
793.7730, 16821.00
794.9160, 16763.00
796.0590, 16743.00
797.2010, 16843.00
798.3430, 16857.22
799.4850, 16948.91
800.6270, 17034.00
801.7690, 17109.00
802.9100, 17252.00
804.0520, 17255.00
805.1930, 17427.00
806.3340, 17502.00
807.4750, 17599.00
808.6160, 17703.95
809.7560, 17761.00
810.8970, 17862.00
812.0370, 17954.00
813.1770, 18073.95
814.3170, 18207.07
815.4570, 18350.00
816.5960, 18511.00
817.7360, 18670.00
818.8750, 18850.00
820.0140, 18957.00
821.1530, 19137.00
822.2920, 19267.00
823.4310, 19322.00
824.5690, 19414.00
825.7070, 19449.00
826.8460, 19717.00
827.9840, 19797.00
829.1220, 20014.00
830.2590, 20269.00
831.3970, 20296.00
832.5340, 20326.00
833.6710, 20509.00
834.8080, 20419.00
835.9450, 20901.00
837.0820, 21005.00
838.2190, 20996.00
839.3550, 21589.00
840.4910, 21610.00
841.6270, 21814.00
842.7630, 21981.00
843.8990, 22373.00
845.0350, 22605.00
846.1700, 22910.00
847.3060, 23257.00
848.4410, 23461.00
849.5760, 23998.00
850.7100, 24487.00
851.8450, 24868.00
852.9800, 25234.00
854.1140, 25694.00
855.2480, 26690.00
856.3820, 27170.00
857.5160, 28106.00
858.6500, 28728.00
859.7830, 30003.00
860.9170, 30930.00
862.0500, 32218.00
863.1830, 33507.00
864.3160, 35069.00
865.4480, 36630.00
866.5810, 38164.00
867.7130, 40291.00
868.8460, 41358.00
869.9780, 43173.00
871.1100, 44410.00
872.2410, 45019.00
873.3730, 45927.00
874.5050, 46660.00
875.6360, 47239.00
876.7670, 47643.00
877.8980, 48462.00
879.0290, 48872.00
880.1590, 49568.00
881.2900, 50252.00
882.4200, 50613.00
883.5500, 50799.00
884.6800, 50843.00
885.8100, 51751.00
886.9400, 51979.00
888.0690, 52628.00
889.1990, 53362.00
890.3280, 54409.00
891.4570, 55663.00
892.5860, 56378.00
893.7140, 57495.00
894.8430, 57765.00
895.9710, 57832.00
897.1000, 57467.00
898.2280, 56479.00
899.3560, 55235.00
900.4830, 53927.00
901.6110, 52269.00
902.7380, 51063.00
903.8660, 49866.00
904.9930, 49095.00
906.1200, 48893.00
907.2460, 48785.00
908.3730, 49326.00
909.5000, 49530.00
910.6260, 50225.00
911.7520, 50289.00
912.8780, 50466.00
914.0040, 49931.00
915.1290, 49815.00
916.2550, 48893.00
917.3800, 47749.00
918.5050, 46786.00
919.6300, 45264.00
920.7550, 43908.00
921.8800, 42628.00
923.0040, 41687.00
924.1290, 40516.00
925.2530, 39534.00
926.3770, 38043.00
927.5010, 37084.00
928.6250, 36306.00
929.7480, 35199.00
930.8720, 34477.00
931.9950, 33455.00
933.1180, 32588.00
934.2410, 31867.00
935.3640, 30917.00
936.4860, 30085.59
937.6090, 29132.00
938.7310, 28353.00
939.8530, 27334.00
940.9750, 26521.00
942.0970, 25885.00
943.2180, 25338.00
944.3400, 24872.00
945.4610, 24445.06
946.5820, 23820.00
947.7030, 23754.00
948.8240, 23502.00
949.9450, 23193.00
951.0650, 23215.00
952.1860, 22914.00
953.3060, 22921.00
954.4260, 22818.00
955.5460, 22771.00
956.6650, 22869.00
957.7850, 22851.00
958.9040, 22897.00
960.0230, 23116.00
961.1420, 23045.00
962.2610, 22946.00
963.3800, 23015.00
964.4990, 23268.00
965.6170, 23457.00
966.7350, 23438.00
967.8530, 23545.00
968.9710, 23454.00
970.0890, 23882.00
971.2070, 24151.00
972.3240, 24595.00
973.4410, 24835.00
974.5580, 25582.00
975.6750, 26405.00
976.7920, 27456.00
977.9090, 28429.00
979.0250, 29484.00
980.1410, 30644.00
981.2580, 31856.00
982.3740, 32937.00
983.4890, 33851.00
984.6050, 34337.00
985.7200, 34248.00
986.8360, 33623.00
987.9510, 33150.00
989.0660, 32001.00
990.1810, 30602.00
991.2950, 29367.00
992.4100, 28108.00
993.5240, 26999.00
994.6390, 26102.00
995.7530, 25232.00
996.8660, 24385.00
997.9800, 23812.00
999.0940, 23585.00
1000.207, 23008.00
1001.320, 22800.00
1002.433, 22489.00
1003.546, 22192.00
1004.659, 21921.00
1005.772, 21732.00
1006.884, 21613.00
1007.996, 21577.00
1009.108, 21535.00
1010.220, 21387.00
1011.332, 21259.00
1012.444, 21335.00
1013.555, 21379.00
1014.666, 21500.00
1015.777, 21573.00
1016.888, 21668.00
1017.999, 21880.00
1019.110, 22061.00
1020.220, 22385.00
1021.331, 22796.00
1022.441, 23075.00
1023.551, 23805.00
1024.661, 24229.00
1025.770, 24630.00
1026.880, 25133.00
1027.989, 25485.00
1029.098, 25568.00
1030.207, 25884.00
1031.316, 25712.00
1032.425, 25683.00
1033.533, 25465.00
1034.642, 24944.00
1035.750, 24773.00
1036.858, 24311.00
1037.966, 24250.00
1039.073, 24206.00
1040.181, 24287.00
1041.288, 24106.00
1042.396, 24033.00
1043.503, 24037.00
1044.610, 24092.00
1045.716, 24142.00
1046.823, 24115.00
1047.929, 23958.00
1049.036, 23995.00
1050.142, 23692.00
1051.248, 23607.00
1052.353, 23508.00
1053.459, 23434.00
1054.564, 23369.00
1055.670, 23033.00
1056.775, 22805.00
1057.880, 22762.00
1058.985, 22582.00
1060.089, 22357.00
1061.194, 22127.00
1062.298, 22330.00
1063.402, 21979.00
1064.506, 22115.00
1065.610, 21990.00
1066.713, 22000.00
1067.817, 22257.00
1068.920, 22124.00
1070.023, 22148.00
1071.126, 22205.00
1072.229, 22595.00
1073.332, 22796.00
1074.435, 23110.00
1075.537, 23474.00
1076.639, 23861.00
1077.741, 24191.00
1078.843, 24559.00
1079.945, 25122.00
1081.046, 25562.00
1082.148, 26519.00
1083.249, 27000.00
1084.350, 27888.00
1085.451, 29074.00
1086.551, 30380.00
1087.652, 31712.00
1088.752, 33158.00
1089.853, 34565.00
1090.953, 35851.00
1092.053, 36872.00
1093.152, 37312.00
1094.252, 37141.00
1095.351, 36265.00
1096.451, 34911.00
1097.550, 33281.00
1098.649, 31105.00
1099.748, 29642.00
1100.846, 27728.00
1101.945, 26860.00
1103.043, 25580.00
1104.141, 25054.00
1105.239, 24487.00
1106.337, 23911.00
1107.434, 23647.00
1108.532, 23542.00
1109.629, 23231.00
1110.726, 23076.00
1111.823, 22816.00
1112.920, 22830.00
1114.017, 22589.00
1115.113, 22709.00
1116.210, 22723.00
1117.306, 22513.00
1118.402, 22789.00
1119.498, 22727.00
1120.593, 22694.00
1121.689, 22735.00
1122.784, 22468.00
1123.879, 22343.00
1124.974, 22350.00
1126.069, 22130.00
1127.164, 22035.00
1128.259, 22143.00
1129.353, 21773.00
1130.447, 21680.00
1131.541, 21624.00
1132.635, 21607.00
1133.729, 21569.00
1134.822, 21408.00
1135.916, 21293.00
1137.009, 21338.00
1138.102, 21237.38
1139.195, 21369.00
1140.288, 21233.00
1141.380, 21276.00
1142.473, 21374.00
1143.565, 21188.00
1144.657, 21395.00
1145.749, 21404.00
1146.841, 21193.00
1147.932, 21273.00
1149.024, 21295.00
1150.115, 21380.00
1151.206, 21441.00
1152.297, 21368.00
1153.388, 21289.00
1154.479, 21319.00
1155.569, 21298.00
1156.659, 21271.00
1157.750, 21341.00
1158.839, 21253.00
1159.929, 21268.32
1161.019, 21118.00
1162.108, 21181.00
1163.198, 21373.00
1164.287, 21236.00
1165.376, 21348.00
1166.465, 21314.00
1167.553, 21242.00
1168.642, 21479.00
1169.730, 21339.00
1170.818, 21499.00
1171.906, 21347.00
1172.994, 21246.00
1174.082, 21427.00
1175.170, 21429.00
1176.257, 21393.00
1177.344, 21403.00
1178.431, 21229.00
1179.518, 21243.00
1180.605, 21535.00
1181.691, 21717.00
1182.778, 21428.00
1183.864, 21411.00
1184.950, 21401.00
1186.036, 21390.00
1187.122, 21527.00
1188.207, 21398.00
1189.292, 21517.00
1190.378, 21327.00
1191.463, 21412.00
1192.548, 21375.00
1193.632, 21465.00
1194.717, 21641.00
1195.801, 21567.00
1196.886, 21688.00
1197.970, 21414.00
1199.054, 21426.00
1200.137, 21457.00
1201.221, 21680.00
1202.305, 21630.00
1203.388, 21587.00
1204.471, 21659.00
1205.554, 21568.00
1206.637, 21502.00
1207.719, 21535.00
1208.802, 21545.00
1209.884, 21463.00
1210.966, 21595.00
1212.048, 21564.00
1213.130, 21613.00
1214.212, 21504.00
1215.293, 21536.00
1216.374, 21444.00
1217.456, 21573.00
1218.536, 21491.00
1219.617, 21488.00
1220.698, 21576.00
1221.778, 21460.00
1222.859, 21719.00
1223.939, 21634.00
1225.019, 21413.00
1226.099, 21512.00
1227.178, 21634.00
1228.258, 21457.00
1229.337, 21703.00
1230.417, 21657.00
1231.496, 21809.00
1232.574, 21614.00
1233.653, 21926.00
1234.732, 21594.00
1235.810, 21884.00
1236.888, 21608.00
1237.966, 21635.00
1239.044, 21784.00
1240.122, 21745.00
1241.199, 21794.00
1242.277, 21611.00
1243.354, 21802.00
1244.431, 21719.00
1245.508, 21716.00
1246.585, 21780.00
1247.661, 21681.00
1248.738, 21758.00
1249.814, 21756.22
1250.890, 21757.00
1251.966, 21812.00
1253.042, 21774.00
1254.117, 21825.00
1255.193, 21676.00
1256.268, 21844.00
1257.343, 21723.00
1258.418, 21926.00
1259.493, 21860.00
1260.567, 21922.00
1261.642, 22028.00
1262.716, 21962.00
1263.790, 21826.00
1264.864, 22017.00
1265.938, 21986.00
1267.011, 22061.00
1268.085, 22144.00
1269.158, 21903.00
1270.231, 21947.00
1271.304, 22059.00
1272.377, 21958.00
1273.450, 22003.00
1274.522, 22115.00
1275.594, 22207.00
1276.666, 22231.00
1277.738, 22079.00
1278.810, 22156.00
1279.882, 22107.00
1280.953, 22021.00
1282.025, 22070.00
1283.096, 22085.00
1284.167, 22146.00
1285.238, 22056.00
1286.308, 22062.00
1287.379, 22124.00
1288.449, 22176.00
1289.519, 22202.00
1290.589, 22230.65
1291.659, 22255.00
