##NAMES=Clinochlore
##RRUFFID=R060725
##IDEAL CHEMISTRY=Mg_5_Al(AlSi_3_O_10_)(OH)_8_
##LOCALITY=Crestmore Quarry, Riverside, California, USA
##OWNER=RRUFF
##SOURCE=Bob Jenkins
##DESCRIPTION=Green transparent books of mica
##STATUS=The identification of this mineral has been confirmed by X-ray diffraction and chemical analysis
##URL=rruff.info/R060725
##MEASURED CHEMISTRY=(Mg_4.65_Al_1.12_Fe^2+^_0.17_[box]_0.06_)_Σ=6_(Si_3.00_Al_1.00_)_Σ=4_O_10_(OH)_8_
##PIN_ID=L01967
135.9700, 20362.00
137.2030, 20495.00
138.4350, 20358.00
139.6670, 20500.00
140.9000, 20744.00
142.1310, 20605.00
143.3630, 20770.00
144.5950, 20740.00
145.8260, 20853.00
147.0580, 20870.00
148.2890, 20635.00
149.5200, 20920.00
150.7510, 20699.00
151.9810, 20962.00
153.2120, 21156.00
154.4420, 21090.00
155.6720, 21017.00
156.9020, 21037.00
158.1320, 21104.00
159.3620, 21208.00
160.5910, 21181.00
161.8200, 21282.00
163.0500, 21290.00
164.2790, 21290.00
165.5070, 21370.00
166.7360, 21541.00
167.9650, 21397.00
169.1930, 21378.00
170.4210, 21553.00
171.6490, 21522.00
172.8770, 21740.00
174.1050, 21694.00
175.3320, 21713.00
176.5600, 21738.00
177.7870, 21796.66
179.0140, 21974.00
180.2410, 22000.00
181.4670, 22028.00
182.6940, 22185.00
183.9200, 21974.00
185.1470, 22182.00
186.3730, 22177.00
187.5990, 22362.00
188.8240, 22380.00
190.0500, 22486.00
191.2750, 22774.00
192.5010, 22980.00
193.7260, 23077.00
194.9510, 23557.00
196.1750, 23958.00
197.4000, 24450.00
198.6240, 24750.00
199.8490, 25272.00
201.0730, 25617.00
202.2970, 26161.00
203.5200, 26561.00
204.7440, 27186.00
205.9670, 27157.00
207.1910, 26795.00
208.4140, 26491.00
209.6370, 25917.00
210.8600, 25370.00
212.0820, 24821.00
213.3050, 24395.00
214.5270, 24149.00
215.7490, 24045.00
216.9710, 23637.00
218.1930, 23608.00
219.4150, 23663.00
220.6360, 23553.00
221.8570, 23689.00
223.0790, 23734.00
224.3000, 23777.00
225.5200, 23541.00
226.7410, 23623.00
227.9620, 23619.00
229.1820, 23694.00
230.4020, 23754.00
231.6220, 23873.00
232.8420, 23574.00
234.0620, 23674.00
235.2810, 23760.00
236.5010, 23743.00
237.7200, 23813.00
238.9390, 23780.00
240.1580, 23951.00
241.3760, 23841.00
242.5950, 23990.00
243.8130, 24103.00
245.0320, 24102.00
246.2500, 23822.00
247.4680, 24054.00
248.6850, 23967.00
249.9030, 24099.00
251.1200, 24119.00
252.3370, 24181.00
253.5550, 24178.00
254.7710, 24150.00
255.9880, 24296.00
257.2050, 24386.00
258.4210, 24405.00
259.6370, 24409.00
260.8540, 24671.00
262.0690, 24527.00
263.2850, 24621.00
264.5010, 24548.00
265.7160, 24699.00
266.9320, 24811.00
268.1470, 24758.00
269.3620, 24742.00
270.5760, 24787.00
271.7910, 24828.87
273.0050, 24921.33
274.2200, 25003.00
275.4340, 25173.00
276.6480, 25280.00
277.8620, 25440.00
279.0750, 25647.00
280.2890, 25478.00
281.5020, 25461.00
282.7150, 25566.00
283.9280, 25739.00
285.1410, 25482.00
286.3540, 25474.00
287.5660, 25504.00
288.7780, 25238.00
289.9910, 25377.00
291.2030, 25541.00
292.4140, 25566.00
293.6260, 25682.00
294.8380, 25349.00
296.0490, 25589.00
297.2600, 25651.00
298.4710, 25654.00
299.6820, 25878.00
300.8930, 25678.00
302.1030, 25550.00
303.3140, 25878.00
304.5240, 25727.00
305.7340, 25650.00
306.9440, 25825.00
308.1530, 25655.00
309.3630, 25900.00
310.5720, 25953.00
311.7820, 25835.00
312.9910, 26189.00
314.1990, 26001.00
315.4080, 26098.00
316.6170, 26227.00
317.8250, 26084.00
319.0330, 26227.00
320.2410, 26123.00
321.4490, 26292.00
322.6570, 26311.00
323.8650, 26312.00
325.0720, 26484.00
326.2790, 26377.00
327.4860, 26368.00
328.6930, 26373.00
329.9000, 26537.00
331.1070, 26547.25
332.3130, 26706.00
333.5190, 26757.00
334.7250, 26769.00
335.9310, 26999.00
337.1370, 26836.00
338.3430, 26850.00
339.5480, 27047.00
340.7540, 27096.00
341.9590, 27212.00
343.1640, 27451.00
344.3680, 27766.00
345.5730, 27718.00
346.7770, 27712.00
347.9820, 27941.00
349.1860, 28242.00
350.3900, 28210.00
351.5940, 28544.00
352.7970, 28994.00
354.0010, 29107.00
355.2040, 29213.00
356.4070, 29343.00
357.6100, 29116.00
358.8130, 29260.00
360.0160, 28920.00
361.2180, 28881.00
362.4210, 28836.00
363.6230, 28221.00
364.8250, 28335.00
366.0270, 28206.00
367.2280, 28193.00
368.4300, 27985.00
369.6310, 28027.00
370.8320, 28108.00
372.0330, 27771.00
373.2340, 27981.00
374.4350, 27827.00
375.6350, 27981.00
376.8360, 27763.00
378.0360, 28034.00
379.2360, 27981.00
380.4360, 28226.00
381.6350, 28148.00
382.8350, 28151.00
384.0340, 28197.00
385.2340, 28103.00
386.4330, 28284.00
387.6320, 28304.00
388.8300, 28496.00
390.0290, 28332.00
391.2270, 28277.00
392.4250, 28411.00
393.6230, 28508.00
394.8210, 28517.00
396.0190, 28404.00
397.2170, 28536.00
398.4140, 28328.00
399.6110, 28477.00
400.8080, 28512.00
402.0050, 28541.00
403.2020, 28624.00
404.3990, 28609.00
405.5950, 28589.00
406.7910, 28732.00
407.9870, 28642.00
409.1830, 28774.00
410.3790, 28715.00
411.5750, 28945.00
412.7700, 28907.00
413.9650, 29008.00
415.1610, 29073.00
416.3550, 28750.00
417.5500, 28987.00
418.7450, 28807.00
419.9390, 29112.00
421.1340, 28886.00
422.3280, 28989.00
423.5220, 29087.00
424.7150, 29096.00
425.9090, 29207.85
427.1030, 29212.00
428.2960, 29425.00
429.4890, 29466.00
430.6820, 29698.00
431.8750, 29534.00
433.0670, 29611.00
434.2600, 29673.00
435.4520, 29587.00
436.6440, 29696.00
437.8360, 29727.00
439.0280, 29523.00
440.2200, 29739.00
441.4110, 29670.66
442.6030, 29787.00
443.7940, 29703.00
444.9850, 29926.00
446.1760, 29917.00
447.3660, 30039.00
448.5570, 29984.00
449.7470, 30125.00
450.9370, 30049.00
452.1270, 30393.00
453.3170, 30218.00
454.5070, 30283.00
455.6960, 30287.00
456.8860, 30202.00
458.0750, 30269.58
459.2640, 30536.00
460.4530, 30331.00
461.6420, 30538.00
462.8300, 30620.00
464.0190, 30603.00
465.2070, 30663.00
466.3950, 30705.99
467.5830, 30739.00
468.7700, 30789.00
469.9580, 30837.00
471.1450, 30859.00
472.3330, 30842.00
473.5200, 30900.00
474.7060, 30965.00
475.8930, 30816.00
477.0800, 31104.00
478.2660, 30855.00
479.4520, 31137.00
480.6390, 30851.00
481.8240, 30959.00
483.0100, 30916.00
484.1960, 30864.00
485.3810, 30934.00
486.5660, 31021.00
487.7510, 30930.00
488.9360, 30996.00
490.1210, 30937.00
491.3060, 31156.00
492.4900, 31055.00
493.6740, 31077.00
494.8590, 31175.00
496.0420, 30970.00
497.2260, 31048.00
498.4100, 31076.00
499.5930, 31150.00
500.7770, 31122.00
501.9600, 31356.00
503.1430, 31460.00
504.3250, 31670.00
505.5080, 31408.00
506.6900, 31221.00
507.8730, 31488.00
509.0550, 31691.00
510.2370, 31696.00
511.4190, 31852.00
512.6000, 31598.00
513.7820, 31708.00
514.9630, 31696.00
516.1440, 31987.00
517.3250, 31931.00
518.5060, 32008.00
519.6870, 32047.00
520.8670, 32086.04
522.0470, 32165.00
523.2280, 32256.00
524.4080, 32290.00
525.5870, 32460.00
526.7670, 32569.00
527.9470, 32684.00
529.1260, 32751.09
530.3050, 32693.00
531.4840, 32881.00
532.6630, 32770.00
533.8420, 32913.00
535.0200, 32929.00
536.1980, 33104.00
537.3770, 33311.00
538.5550, 33355.00
539.7320, 33419.00
540.9100, 33614.00
542.0880, 34061.00
543.2650, 34285.00
544.4420, 34658.00
545.6190, 34929.00
546.7960, 35344.00
547.9730, 35664.00
549.1490, 36000.00
550.3260, 36459.00
551.5020, 36692.00
552.6780, 36453.00
553.8540, 36221.00
555.0300, 35958.00
556.2050, 35257.00
557.3800, 34634.00
558.5560, 34093.00
559.7310, 33845.00
560.9060, 33916.00
562.0800, 33608.00
563.2550, 33510.00
564.4290, 33689.00
565.6040, 33407.00
566.7780, 33441.00
567.9510, 33375.00
569.1250, 33363.00
570.2990, 33362.20
571.4720, 33410.00
572.6450, 33348.00
573.8190, 33367.00
574.9910, 33356.81
576.1640, 33308.00
577.3370, 33449.00
578.5090, 33574.00
579.6810, 33602.34
580.8540, 33561.00
582.0250, 33586.00
583.1970, 33537.00
584.3690, 33521.00
585.5400, 33565.00
586.7120, 33545.00
587.8830, 33648.00
589.0540, 33684.00
590.2240, 33662.60
591.3950, 33528.00
592.5650, 33620.00
593.7360, 33740.00
594.9060, 33729.00
596.0760, 33848.40
597.2460, 34044.00
598.4150, 34011.00
599.5850, 34091.00
600.7540, 34177.00
601.9230, 34184.00
603.0920, 34280.00
604.2610, 34297.27
605.4290, 34421.00
606.5980, 34363.00
607.7660, 34439.00
608.9340, 34509.04
610.1020, 34612.00
611.2700, 34634.00
612.4380, 34391.00
613.6050, 34544.00
614.7730, 34562.00
615.9400, 34745.00
617.1070, 34939.00
618.2730, 34875.00
619.4400, 34840.00
620.6070, 34968.00
621.7730, 35249.00
622.9390, 35069.00
624.1050, 35160.00
625.2710, 35565.00
626.4370, 35348.00
627.6020, 35398.00
628.7670, 35316.00
629.9330, 35298.00
631.0980, 35398.00
632.2630, 35466.00
633.4270, 35405.00
634.5920, 35344.00
635.7560, 35523.00
636.9200, 35338.00
638.0840, 35487.00
639.2480, 35617.00
640.4120, 35675.00
641.5750, 35729.00
642.7390, 36069.00
643.9020, 35745.00
645.0650, 35858.00
646.2280, 35985.00
647.3910, 36258.00
648.5530, 36342.00
649.7150, 36463.83
650.8780, 36384.00
652.0400, 36653.00
653.2020, 36582.00
654.3630, 36720.00
655.5250, 36655.00
656.6860, 37012.00
657.8470, 37145.00
659.0080, 37145.00
660.1690, 37152.00
661.3300, 37217.00
662.4910, 37719.00
663.6510, 37606.00
664.8110, 37598.00
665.9710, 38151.00
667.1310, 37990.00
668.2910, 38154.00
669.4510, 38301.00
670.6100, 38753.00
671.7690, 38811.00
672.9280, 39010.00
674.0870, 39258.00
675.2460, 39410.00
676.4050, 39807.00
677.5630, 39753.00
678.7210, 39945.00
679.8790, 39936.00
681.0370, 39971.00
682.1950, 40118.00
683.3530, 39794.00
684.5100, 39767.00
685.6670, 39878.00
686.8240, 39709.00
687.9810, 39367.00
689.1380, 39071.00
690.2950, 39273.00
691.4510, 38899.00
692.6070, 38830.00
693.7640, 38843.00
694.9200, 38412.00
696.0750, 38520.00
697.2310, 38424.00
698.3860, 38201.00
699.5420, 38199.00
700.6970, 38200.00
701.8520, 38190.00
703.0070, 37875.00
704.1610, 38037.00
705.3160, 38057.00
706.4700, 38066.00
707.6240, 37660.00
708.7780, 37695.00
709.9320, 37571.00
711.0860, 37569.00
712.2390, 37964.00
713.3920, 37898.00
714.5450, 37879.00
715.6980, 37768.00
716.8510, 37936.00
718.0040, 37993.00
719.1560, 38165.00
720.3090, 37759.00
721.4610, 37816.00
722.6130, 38016.00
723.7650, 37655.00
724.9160, 37906.00
726.0680, 37918.00
727.2190, 37650.00
728.3700, 38204.00
729.5210, 37935.00
730.6720, 37860.00
731.8230, 37965.00
732.9730, 38005.00
734.1240, 37893.00
735.2740, 37947.00
736.4240, 37897.00
737.5740, 37901.00
738.7230, 38048.00
739.8730, 37978.00
741.0220, 37927.00
742.1720, 38111.00
743.3210, 38007.00
744.4690, 38030.00
745.6180, 37938.00
746.7670, 37928.00
747.9150, 38209.00
749.0630, 38000.00
750.2110, 38304.00
751.3590, 38323.00
752.5070, 38153.00
753.6540, 38483.00
754.8020, 38426.00
755.9490, 38382.00
757.0960, 38219.00
758.2430, 38456.00
759.3900, 38540.00
760.5360, 38498.00
761.6830, 38533.00
762.8290, 38494.00
763.9750, 38598.00
765.1210, 38615.00
766.2660, 38872.00
767.4120, 38563.00
768.5570, 38648.00
769.7030, 38858.00
770.8480, 38664.00
771.9930, 38838.00
773.1370, 38886.00
774.2820, 38797.00
775.4260, 38865.00
776.5710, 38945.00
777.7150, 38943.00
778.8590, 39225.00
780.0020, 39200.00
781.1460, 38963.00
782.2890, 39359.00
783.4330, 39083.00
784.5760, 39375.00
785.7190, 39186.00
786.8610, 39163.00
788.0040, 39282.00
789.1460, 39379.00
790.2890, 39371.00
791.4310, 39268.00
792.5730, 39482.00
793.7150, 39239.00
794.8560, 39299.00
795.9980, 39475.00
797.1390, 39336.00
798.2800, 39320.00
799.4210, 39341.00
800.5620, 39590.00
801.7020, 39483.00
802.8430, 39809.00
803.9830, 39550.00
805.1230, 39387.00
806.2630, 39781.00
807.4030, 39683.00
808.5430, 39746.00
809.6820, 39846.00
810.8210, 39855.98
811.9600, 39880.23
813.0990, 39949.00
814.2380, 39852.00
815.3770, 39781.00
816.5150, 39728.00
817.6540, 40005.00
818.7920, 40151.00
819.9300, 40102.00
821.0680, 40165.00
822.2050, 40051.00
823.3430, 39769.00
824.4800, 39854.00
825.6170, 39835.11
826.7540, 40163.00
827.8910, 40082.00
829.0280, 40028.00
830.1640, 40264.00
831.3000, 40323.00
832.4370, 40151.00
833.5730, 40416.00
834.7080, 40195.00
835.8440, 40596.00
836.9800, 40817.00
838.1150, 40429.00
839.2500, 40750.00
840.3850, 40808.00
841.5200, 40911.00
842.6550, 41012.47
843.7890, 41016.82
844.9240, 41020.00
846.0580, 40975.00
847.1920, 40834.00
848.3260, 40684.00
849.4590, 40839.00
850.5930, 41271.00
851.7260, 41274.00
852.8590, 41299.00
853.9920, 40837.00
855.1250, 41072.00
856.2580, 41230.00
857.3910, 41367.00
858.5230, 41423.00
859.6550, 41740.00
860.7870, 41605.00
861.9190, 41365.00
863.0510, 41454.00
864.1820, 41685.00
865.3140, 41489.00
866.4450, 41637.00
867.5760, 41616.00
868.7070, 41509.00
869.8380, 41620.00
870.9680, 41458.00
872.0990, 41522.00
873.2290, 41418.00
874.3590, 41460.00
875.4890, 41535.55
876.6180, 41499.00
877.7480, 41673.00
878.8770, 41763.00
880.0070, 41713.00
881.1360, 41571.00
882.2650, 42058.00
883.3930, 41563.00
884.5220, 42001.00
885.6500, 41956.00
886.7790, 41744.00
887.9070, 41969.00
889.0350, 41787.00
890.1620, 42238.00
891.2900, 41902.00
892.4170, 42052.00
893.5450, 42159.00
894.6720, 42042.00
895.7990, 42018.00
896.9250, 41818.00
898.0520, 41941.41
899.1780, 42509.00
900.3050, 42210.00
901.4310, 42329.00
902.5570, 42577.00
903.6830, 42132.00
904.8080, 42446.00
905.9340, 42493.00
907.0590, 42655.00
908.1840, 42334.00
909.3090, 42462.00
910.4340, 42563.00
911.5580, 42833.00
912.6830, 42724.00
913.8070, 42482.00
914.9310, 42660.00
916.0550, 42747.00
917.1790, 42582.00
918.3030, 42601.00
919.4260, 42633.00
920.5490, 42845.00
921.6730, 42913.00
922.7960, 42817.00
923.9180, 42660.00
925.0410, 43030.00
926.1630, 43002.00
927.2860, 42842.00
928.4080, 43038.00
929.5300, 42858.00
930.6520, 43119.00
931.7730, 43308.00
932.8950, 43055.00
934.0160, 43197.00
935.1370, 43261.00
936.2580, 43079.00
937.3790, 43357.00
938.5000, 43203.00
939.6200, 43141.00
940.7410, 43436.00
941.8610, 43164.00
942.9810, 43431.00
944.1010, 43257.00
945.2200, 43514.00
946.3400, 43665.00
947.4590, 43826.00
948.5780, 43779.00
949.6970, 43681.00
950.8160, 43787.00
951.9350, 43835.00
953.0530, 43738.00
954.1720, 43815.00
955.2900, 43855.34
956.4080, 43891.26
957.5260, 43979.00
958.6430, 43987.00
959.7610, 43992.00
960.8780, 43917.00
961.9960, 44108.00
963.1130, 44138.00
964.2290, 44185.00
965.3460, 44118.00
966.4630, 43999.00
967.5790, 44330.00
968.6950, 44175.00
969.8110, 44374.00
970.9270, 44109.00
972.0430, 44449.00
973.1580, 44418.00
974.2740, 44263.00
975.3890, 44216.00
976.5040, 44241.27
977.6190, 44548.00
978.7340, 44291.00
979.8480, 44454.00
980.9630, 44395.00
982.0770, 44434.00
983.1910, 44903.00
984.3050, 44831.00
985.4190, 44822.00
986.5320, 44926.00
987.6460, 44833.00
988.7590, 45011.00
989.8720, 45170.00
990.9850, 44929.00
992.0980, 44994.00
993.2100, 45141.00
994.3230, 45665.00
995.4350, 45614.00
996.5470, 45961.00
997.6590, 45899.00
998.7710, 46250.00
999.8820, 46679.00
1000.994, 46895.00
1002.105, 47117.00
1003.216, 46879.00
1004.327, 46966.00
1005.438, 46468.00
1006.548, 46367.00
1007.659, 46136.00
1008.769, 45745.00
1009.879, 45771.00
1010.989, 45559.00
1012.099, 45442.00
1013.208, 45710.00
1014.318, 45346.00
1015.427, 45531.00
1016.536, 45737.00
1017.645, 45542.00
1018.754, 45944.00
1019.863, 45814.00
1020.971, 45690.00
1022.079, 46238.00
1023.188, 45811.00
1024.295, 46121.00
1025.403, 45872.00
1026.511, 45962.00
1027.618, 46065.00
1028.726, 46179.00
1029.833, 46372.00
1030.940, 46435.20
1032.047, 46319.00
1033.153, 46556.00
1034.260, 46623.00
1035.366, 46556.00
1036.472, 46670.00
1037.578, 46655.00
1038.684, 46674.07
1039.790, 46689.06
1040.895, 46784.00
1042.000, 46743.00
1043.106, 46944.00
1044.211, 47154.00
1045.315, 46895.00
1046.420, 47151.00
1047.525, 47365.00
1048.629, 47372.00
1049.733, 47420.00
1050.837, 47378.00
1051.941, 47271.00
1053.045, 47415.00
1054.148, 47428.00
1055.251, 47267.00
1056.355, 47451.00
1057.458, 47321.00
1058.561, 47257.00
1059.663, 47368.00
1060.766, 47416.00
1061.868, 47273.00
1062.970, 47216.00
1064.072, 47379.00
1065.174, 47209.00
1066.276, 47488.00
1067.377, 47205.00
1068.479, 47339.00
1069.580, 47327.00
1070.681, 47291.00
1071.782, 47049.00
1072.883, 47095.00
1073.983, 47233.00
1075.083, 47298.00
1076.184, 47372.00
1077.284, 47368.00
1078.384, 47616.00
1079.483, 47617.00
1080.583, 47822.00
1081.682, 47956.00
1082.782, 48139.00
1083.881, 48215.00
1084.979, 48636.00
1086.078, 48620.00
1087.177, 49055.00
1088.275, 48705.00
1089.373, 48241.00
1090.471, 47864.00
1091.569, 47868.00
1092.667, 47970.00
1093.765, 47815.00
1094.862, 47598.00
1095.959, 47914.00
1097.056, 47513.00
1098.153, 47803.00
1099.250, 47813.00
1100.347, 47918.00
1101.443, 48019.37
1102.539, 48059.00
1103.635, 48150.00
1104.731, 48167.97
1105.827, 47950.00
1106.923, 48111.00
1108.018, 48197.00
1109.113, 47994.00
1110.209, 48146.00
1111.303, 48213.00
1112.398, 48064.00
1113.493, 48030.00
1114.587, 48282.00
1115.682, 48091.00
1116.776, 48373.00
1117.870, 48350.00
1118.963, 48376.00
1120.057, 48483.00
1121.150, 48559.00
1122.244, 48632.00
1123.337, 48492.00
1124.430, 48610.00
1125.523, 48582.00
1126.615, 48458.00
1127.708, 48570.00
1128.800, 48802.00
1129.892, 48852.00
1130.984, 48533.00
1132.076, 48963.00
1133.168, 49072.00
1134.259, 48882.00
1135.350, 49209.00
1136.442, 48960.00
1137.532, 48865.00
1138.623, 48819.00
1139.714, 49217.00
1140.804, 49143.00
1141.895, 49197.00
1142.985, 49337.00
1144.075, 49181.00
1145.165, 49329.00
1146.254, 49310.00
1147.344, 49354.00
1148.433, 49323.00
1149.522, 49537.00
1150.611, 49292.00
1151.700, 49447.00
1152.789, 49222.00
1153.877, 49430.00
1154.966, 49480.00
1156.054, 49692.00
1157.142, 49435.00
1158.230, 49651.00
1159.318, 49801.00
1160.405, 50027.00
1161.492, 49634.00
1162.580, 50091.00
1163.667, 49493.00
1164.753, 49923.00
1165.840, 49899.00
1166.927, 50202.00
1168.013, 50120.00
1169.099, 50087.00
1170.185, 50083.00
1171.271, 50119.00
1172.357, 50106.00
1173.442, 50153.00
1174.528, 50400.00
1175.613, 50428.00
1176.698, 50438.00
1177.783, 50486.00
1178.868, 50421.00
1179.952, 50398.00
1181.037, 50596.00
1182.121, 50745.00
1183.205, 50521.00
1184.289, 50699.00
1185.373, 50743.00
1186.456, 50881.00
1187.540, 50668.00
1188.623, 50813.00
1189.706, 50931.00
1190.789, 51068.00
1191.871, 50849.00
1192.954, 50859.00
1194.036, 51166.00
1195.119, 51250.00
1196.201, 50969.00
1197.283, 50990.00
1198.364, 51326.00
1199.446, 50921.00
1200.527, 51058.00
1201.609, 51285.00
1202.690, 51293.00
1203.771, 51250.00
1204.852, 51380.00
1205.932, 51395.00
1207.013, 51200.00
1208.093, 51389.00
1209.173, 51347.00
1210.253, 51304.00
1211.333, 51323.00
1212.412, 51506.00
1213.492, 51539.00
1214.571, 51787.00
1215.650, 51639.00
1216.729, 51906.00
1217.808, 51809.00
1218.886, 52070.00
1219.965, 52057.77
1221.043, 52012.00
1222.121, 52077.00
1223.199, 52094.00
1224.277, 52104.00
1225.355, 52176.51
1226.432, 52239.00
1227.510, 52278.00
1228.587, 52138.00
1229.664, 52128.00
1230.740, 52517.00
1231.817, 52465.00
1232.894, 52194.00
1233.970, 52441.00
1235.046, 52298.00
1236.122, 52708.00
1237.198, 52575.00
1238.274, 52513.00
1239.349, 52524.00
1240.424, 52401.00
1241.500, 52799.00
1242.575, 52505.00
1243.649, 52409.00
1244.724, 52725.00
1245.799, 52385.00
1246.873, 52585.00
1247.947, 52586.00
1249.021, 52575.00
1250.095, 52820.00
1251.169, 52394.00
1252.242, 52806.00
1253.316, 52602.00
1254.389, 53027.00
1255.462, 53032.00
1256.535, 53120.00
1257.607, 53110.00
1258.680, 53536.00
1259.752, 53206.00
1260.824, 53444.00
1261.896, 53114.00
1262.968, 53474.00
1264.040, 53339.00
1265.112, 53211.00
1266.183, 53315.00
1267.254, 53727.00
1268.325, 53534.00
1269.396, 53722.00
1270.467, 53560.00
1271.537, 53800.00
1272.608, 54091.00
1273.678, 53883.00
1274.748, 53794.00
1275.818, 53938.00
1276.888, 53843.00
1277.957, 53976.00
1279.027, 54238.00
1280.096, 54084.00
1281.165, 54070.00
1282.234, 54263.00
1283.303, 54729.00
1284.371, 54734.00
1285.440, 54689.00
1286.508, 55163.00
1287.576, 54912.00
1288.644, 55130.00
1289.712, 54882.00
1290.779, 55004.00
1291.847, 55015.00
1292.914, 54739.00
1293.981, 54773.00
1295.048, 55025.00
1296.115, 54992.00
1297.181, 55267.00
1298.248, 55048.00
1299.314, 55042.00
1300.380, 54960.00
1301.446, 54820.00
1302.512, 54902.00
1303.578, 54929.00
1304.643, 55073.00
1305.708, 55063.24
1306.773, 55085.00
1307.838, 55165.00
1308.903, 55312.00
1309.968, 55547.00
1311.032, 55556.00
1312.097, 55163.00
1313.161, 55253.00
1314.225, 55449.00
