##NAMES=Clinohumite
##RRUFFID=R040122
##IDEAL CHEMISTRY=Mg_9_(SiO_4_)_4_F_2_
##LOCALITY=Anzahamazonono,  Madagascar
##OWNER=RRUFF
##SOURCE=University of Arizona Mineral Museum
##DESCRIPTION=Orange-brown blebs embedded in calcite matrix
##STATUS=The identification of this mineral has been confirmed by X-ray diffraction and chemical analysis
##URL=rruff.info/R040122
##MEASURED CHEMISTRY=(Mg_0.96_Fe_0.02_Ti_0.01_Ca_0.01_)_9_(SiO_4_)_4_(F_0.59_(OH)_0.41_)_2_
##PIN_ID=M01103
##ORIENTATION=Laser parallel to -a* (-1 0 0). Fiducial mark perpendicular to laser is parallel to b [0 1 0]
63.96800, 1370.000
65.21800, 1415.000
66.46800, 1402.000
67.71800, 1474.000
68.96700, 1555.000
70.21700, 1521.000
71.46600, 1440.000
72.71500, 1564.000
73.96300, 1542.000
75.21200, 1649.337
76.46000, 1929.000
77.70800, 1957.000
78.95600, 1997.000
80.20300, 2291.000
81.45100, 2426.000
82.69800, 2713.000
83.94500, 3331.000
85.19100, 3781.000
86.43800, 4551.000
87.68400, 5398.000
88.93100, 6422.000
90.17600, 7870.000
91.42200, 9180.000
92.66800, 10782.00
93.91300, 12857.00
95.15800, 14867.00
96.40300, 17087.00
97.64800, 19794.00
98.89200, 22508.00
100.1370, 25464.00
101.3810, 28065.00
102.6250, 30938.00
103.8680, 33781.00
105.1120, 36437.00
106.3550, 39212.00
107.5980, 41278.00
108.8410, 43392.00
110.0840, 45326.00
111.3260, 46876.00
112.5680, 48566.00
113.8100, 49847.00
115.0520, 51627.00
116.2940, 52627.00
117.5350, 54181.00
118.7770, 54516.00
120.0180, 55189.00
121.2590, 55745.00
122.4990, 56451.00
123.7400, 56369.00
124.9800, 56705.00
126.2200, 56985.00
127.4600, 57236.00
128.6990, 57521.00
129.9390, 57392.00
131.1780, 58222.00
132.4170, 58209.00
133.6560, 58789.00
134.8940, 59034.00
136.1330, 58735.00
137.3710, 59265.00
138.6090, 59709.00
139.8470, 60073.00
141.0840, 60788.00
142.3220, 61262.00
143.5590, 61087.00
144.7960, 61546.00
146.0320, 61056.00
147.2690, 61603.00
148.5050, 61407.00
149.7420, 62047.00
150.9780, 61454.00
152.2130, 61931.00
153.4490, 62317.00
154.6840, 62932.00
155.9190, 62836.00
157.1540, 62835.00
158.3890, 63168.00
159.6240, 63425.00
160.8580, 63502.00
162.0920, 63784.00
163.3260, 64268.00
164.5600, 64599.00
165.7930, 64944.50
167.0270, 65194.00
168.2600, 65507.00
169.4930, 65595.00
170.7260, 65609.00
171.9580, 66139.00
173.1900, 66724.00
174.4230, 66382.00
175.6550, 66807.00
176.8860, 67215.00
178.1180, 67096.00
179.3490, 67337.00
180.5800, 67666.00
181.8110, 67907.00
183.0420, 68208.00
184.2730, 69122.00
185.5030, 68911.00
186.7330, 69206.00
187.9630, 68829.00
189.1930, 69185.00
190.4220, 69376.00
191.6520, 69562.00
192.8810, 69328.00
194.1100, 69378.00
195.3390, 69572.00
196.5670, 69668.66
197.7960, 70038.00
199.0240, 70303.00
200.2520, 70619.00
201.4790, 71227.00
202.7070, 71415.00
203.9340, 71719.00
205.1620, 72302.00
206.3890, 72213.00
207.6150, 72450.00
208.8420, 72669.00
210.0680, 72318.00
211.2940, 72258.00
212.5200, 73061.00
213.7460, 72834.00
214.9720, 72716.00
216.1970, 72645.00
217.4220, 72370.00
218.6470, 73050.00
219.8720, 72660.00
221.0970, 72957.00
222.3210, 73267.00
223.5450, 73023.00
224.7690, 73507.00
225.9930, 73682.00
227.2170, 73778.00
228.4400, 74536.00
229.6630, 74136.00
230.8860, 75106.00
232.1090, 74774.00
233.3320, 75605.00
234.5540, 75652.00
235.7770, 75933.00
236.9990, 76181.00
238.2210, 76704.00
239.4420, 76657.33
240.6640, 76832.00
241.8850, 76676.00
243.1060, 76789.00
244.3270, 76818.00
245.5480, 76829.00
246.7680, 76891.00
247.9880, 77163.00
249.2080, 77542.00
250.4280, 77465.00
251.6480, 77583.00
252.8670, 77956.00
254.0870, 78067.00
255.3060, 78406.00
256.5250, 78452.00
257.7440, 78631.00
258.9620, 78805.35
260.1800, 79074.00
261.3990, 79046.00
262.6160, 79026.00
263.8340, 79039.00
265.0520, 78935.12
266.2690, 78843.33
267.4860, 78802.00
268.7030, 78621.00
269.9200, 78689.00
271.1370, 78707.00
272.3530, 78836.00
273.5690, 78738.00
274.7850, 78740.00
276.0010, 78911.00
277.2170, 78931.00
278.4320, 78896.00
279.6470, 79032.00
280.8620, 79071.00
282.0770, 79869.00
283.2920, 79653.00
284.5060, 80087.00
285.7210, 79714.00
286.9350, 80110.00
288.1490, 80456.00
289.3620, 80578.00
290.5760, 80594.00
291.7890, 80795.00
293.0020, 80717.00
294.2150, 80559.00
295.4280, 80977.00
296.6400, 81043.00
297.8530, 81443.00
299.0650, 81466.00
300.2770, 80988.00
301.4890, 81191.00
302.7000, 81024.12
303.9120, 81230.00
305.1230, 81242.00
306.3340, 81243.00
307.5450, 82004.00
308.7550, 81955.23
309.9660, 82368.00
311.1760, 82402.00
312.3860, 82849.00
313.5960, 83095.00
314.8050, 83284.04
316.0150, 83831.00
317.2240, 83878.00
318.4330, 84158.00
319.6420, 84791.00
320.8510, 85137.00
322.0590, 85409.00
323.2680, 85478.00
324.4760, 85560.00
325.6840, 85182.00
326.8910, 85334.00
328.0990, 84815.00
329.3060, 84540.00
330.5140, 84431.00
331.7210, 84447.00
332.9270, 84546.00
334.1340, 84439.00
335.3400, 84433.00
336.5470, 84343.00
337.7530, 84927.00
338.9590, 84596.00
340.1640, 84610.00
341.3700, 84308.00
342.5750, 84357.85
343.7800, 84457.60
344.9850, 84524.00
346.1900, 84742.00
347.3940, 84970.00
348.5990, 84974.00
349.8030, 84725.00
351.0070, 85035.00
352.2100, 84806.00
353.4140, 85321.00
354.6170, 85146.00
355.8210, 85549.00
357.0240, 85874.00
358.2260, 85391.00
359.4290, 85451.00
360.6320, 85437.00
361.8340, 85742.00
363.0360, 85429.00
364.2380, 86117.00
365.4400, 86019.00
366.6410, 86324.00
367.8420, 85938.00
369.0440, 85861.00
370.2440, 86393.00
371.4450, 86529.00
372.6460, 86368.00
373.8460, 86435.00
375.0460, 86744.00
376.2460, 86401.00
377.4460, 86693.00
378.6460, 86750.00
379.8450, 87142.00
381.0450, 87363.00
382.2440, 87730.00
383.4430, 87850.48
384.6410, 88170.00
385.8400, 87985.00
387.0380, 87860.00
388.2360, 87747.00
389.4340, 88614.00
390.6320, 88842.00
391.8300, 88402.00
393.0270, 89310.00
394.2240, 89414.00
395.4210, 89521.00
396.6180, 89570.00
397.8150, 89895.00
399.0110, 89877.00
400.2080, 89648.00
401.4040, 90116.00
402.6000, 89662.00
403.7950, 89954.00
404.9910, 89971.00
406.1860, 90210.00
407.3810, 90573.00
408.5760, 90550.00
409.7710, 90531.00
410.9660, 91122.00
412.1600, 91057.00
413.3540, 91102.00
414.5490, 91387.00
415.7420, 91884.00
416.9360, 91809.00
418.1300, 91949.00
419.3230, 92165.00
420.5160, 92025.00
421.7090, 92333.00
422.9020, 92375.18
424.0940, 92533.62
425.2870, 92514.00
426.4790, 92812.00
427.6710, 92713.00
428.8630, 92608.00
430.0550, 92776.00
431.2460, 92381.00
432.4370, 92673.00
433.6290, 93093.00
434.8190, 93493.00
436.0100, 93313.00
437.2010, 93498.00
438.3910, 93703.00
439.5810, 93599.00
440.7710, 93867.00
441.9610, 94027.00
443.1510, 94316.00
444.3400, 94467.00
445.5300, 94382.00
446.7190, 94249.00
447.9080, 94436.00
449.0960, 94346.00
450.2850, 94299.00
451.4730, 94280.00
452.6620, 94538.00
453.8500, 94466.43
455.0370, 94760.00
456.2250, 94779.00
457.4120, 94961.00
458.6000, 95171.95
459.7870, 95311.70
460.9740, 95617.00
462.1610, 95697.00
463.3470, 95988.00
464.5330, 96159.00
465.7200, 96174.00
466.9060, 96259.00
468.0910, 96978.00
469.2770, 96599.00
470.4630, 96467.00
471.6480, 97304.00
472.8330, 97242.00
474.0180, 97361.00
475.2030, 97185.00
476.3870, 97330.00
477.5720, 97549.00
478.7560, 97630.00
479.9400, 97611.00
481.1240, 97546.00
482.3070, 97738.00
483.4910, 97709.00
484.6740, 98129.00
485.8570, 97664.00
487.0400, 98081.00
488.2230, 97775.00
489.4050, 98315.00
490.5880, 98304.00
491.7700, 97948.00
492.9520, 98550.00
494.1340, 97977.00
495.3160, 98713.00
496.4970, 98273.00
497.6780, 98381.00
498.8600, 98921.00
500.0400, 98749.00
501.2210, 98409.00
502.4020, 99077.00
503.5820, 98932.00
504.7630, 99598.00
505.9430, 99105.00
507.1220, 99244.00
508.3020, 100032.0
509.4820, 99697.00
510.6610, 100207.0
511.8400, 99734.00
513.0190, 100606.0
514.1980, 100316.0
515.3770, 100427.0
516.5550, 100199.0
517.7330, 100550.0
518.9110, 100952.0
520.0890, 100703.0
521.2670, 100853.0
522.4450, 100993.0
523.6220, 101397.0
524.7990, 101707.0
525.9760, 101794.1
527.1530, 101572.0
528.3300, 101986.0
529.5060, 102258.0
530.6830, 102350.0
531.8590, 102720.0
533.0350, 102587.0
534.2100, 103335.0
535.3860, 103208.0
536.5610, 103230.0
537.7370, 103504.0
538.9120, 104088.0
540.0870, 103600.0
541.2610, 103280.0
542.4360, 104101.0
543.6100, 103738.0
544.7850, 104206.0
545.9590, 104215.0
547.1320, 104609.0
548.3060, 104747.0
549.4800, 104679.0
550.6530, 104985.0
551.8260, 104813.0
552.9990, 105206.0
554.1720, 104923.0
555.3440, 104989.0
556.5170, 104603.0
557.6890, 104734.0
558.8610, 104550.0
560.0330, 105020.0
561.2050, 105164.0
562.3760, 104852.0
563.5480, 105429.0
564.7190, 105423.0
565.8900, 105871.0
567.0610, 105856.0
568.2310, 106072.0
569.4020, 106132.0
570.5720, 106574.0
571.7420, 106837.0
572.9120, 106863.0
574.0820, 106981.0
575.2520, 106979.0
576.4210, 107950.0
577.5900, 108200.0
578.7590, 108507.0
579.9280, 108825.0
581.0970, 109952.0
582.2660, 110262.0
583.4340, 110423.0
584.6020, 111145.0
585.7700, 111217.0
586.9380, 111818.0
588.1060, 112131.0
589.2730, 112115.0
590.4410, 112191.0
591.6080, 112495.0
592.7750, 112320.0
593.9420, 112648.0
595.1080, 113108.0
596.2750, 113031.0
597.4410, 113776.0
598.6070, 114836.0
599.7730, 115616.0
600.9390, 117147.0
602.1050, 118379.0
603.2700, 119700.0
604.4350, 121517.0
605.6010, 122536.0
606.7660, 123849.0
607.9300, 125431.0
609.0950, 125869.0
610.2590, 126348.0
611.4230, 126089.0
612.5880, 125384.0
613.7510, 123457.0
614.9150, 122636.0
616.0790, 121150.0
617.2420, 119134.0
618.4050, 117958.0
619.5680, 116694.0
620.7310, 115821.0
621.8940, 114701.0
623.0560, 114582.0
624.2190, 114210.0
625.3810, 113761.0
626.5430, 113390.0
627.7050, 112948.0
628.8660, 112767.1
630.0280, 113168.0
631.1890, 112493.0
632.3500, 112850.0
633.5110, 112842.0
634.6720, 112793.0
635.8330, 113028.0
636.9930, 113012.0
638.1530, 113100.0
639.3130, 113353.0
640.4730, 113175.0
641.6330, 113152.0
642.7930, 113096.0
643.9520, 113377.0
645.1110, 113650.0
646.2710, 113073.0
647.4290, 113646.0
648.5880, 113295.0
649.7470, 113661.0
650.9050, 113500.0
652.0630, 113873.0
653.2210, 113553.0
654.3790, 114244.0
655.5370, 113847.0
656.6950, 114665.0
657.8520, 114534.0
659.0090, 114321.0
660.1660, 114624.0
661.3230, 114879.0
662.4800, 115176.0
663.6360, 115339.9
664.7930, 115546.8
665.9490, 115654.0
667.1050, 115784.0
668.2610, 115961.0
669.4160, 115902.0
670.5720, 116036.0
671.7270, 115846.0
672.8830, 116428.0
674.0380, 116785.0
675.1920, 116610.0
676.3470, 117185.0
677.5020, 116915.0
678.6560, 117833.0
679.8100, 117062.0
680.9640, 117636.0
682.1180, 117256.0
683.2720, 117643.0
684.4250, 117439.8
685.5780, 118102.7
686.7320, 118544.5
687.8850, 118776.8
689.0370, 118172.7
690.1900, 118648.6
691.3420, 118691.6
692.4950, 118717.0
693.6470, 119344.8
694.7990, 118862.3
695.9510, 119480.5
697.1020, 119659.3
698.2540, 120039.2
699.4050, 120188.0
700.5560, 120361.1
701.7070, 120745.0
702.8580, 120727.0
704.0090, 120935.2
705.1590, 120565.0
706.3100, 121025.0
707.4600, 121446.0
708.6100, 121249.0
709.7590, 121756.0
710.9090, 121958.0
712.0590, 122514.0
713.2080, 122779.9
714.3570, 122370.0
715.5060, 123194.0
716.6550, 123303.0
717.8030, 123081.0
718.9520, 123821.0
720.1000, 124364.0
721.2480, 124425.0
722.3960, 124920.0
723.5440, 124700.0
724.6920, 125122.0
725.8390, 125422.0
726.9870, 125844.0
728.1340, 126780.0
729.2810, 127186.0
730.4280, 127326.0
731.5740, 127643.0
732.7210, 128595.0
733.8670, 129294.0
735.0130, 129809.0
736.1590, 130617.2
737.3050, 131112.0
738.4510, 131944.0
739.5960, 132502.0
740.7410, 133129.0
741.8870, 133888.0
743.0320, 134438.0
744.1760, 135219.0
745.3210, 136267.0
746.4660, 136544.0
747.6100, 136717.0
748.7540, 137695.0
749.8980, 137925.0
751.0420, 137623.0
752.1860, 138481.0
753.3290, 138004.0
754.4720, 138206.0
755.6160, 138179.0
756.7590, 138061.0
757.9020, 137136.0
759.0440, 137103.0
760.1870, 137031.0
761.3290, 136122.0
762.4710, 136468.0
763.6130, 135550.0
764.7550, 135983.0
765.8970, 135657.0
767.0390, 135817.0
768.1800, 135538.0
769.3210, 135719.0
770.4620, 136060.0
771.6030, 136055.0
772.7440, 137254.0
773.8840, 137354.0
775.0250, 138706.0
776.1650, 139905.0
777.3050, 141475.0
778.4450, 143036.0
779.5850, 144508.0
780.7240, 146609.0
781.8640, 147889.0
783.0030, 149787.0
784.1420, 150951.0
785.2810, 151627.0
786.4200, 152317.0
787.5590, 152548.0
788.6970, 151366.0
789.8350, 151114.0
790.9730, 149417.0
792.1110, 147972.0
793.2490, 147496.0
794.3870, 147160.0
795.5240, 147258.0
796.6620, 146079.0
797.7990, 146709.0
798.9360, 147116.0
800.0730, 147813.0
801.2090, 148878.0
802.3460, 150067.0
803.4820, 151705.0
804.6180, 154577.0
805.7540, 155688.0
806.8900, 157640.0
808.0260, 158542.0
809.1620, 160352.0
810.2970, 161269.0
811.4320, 161980.0
812.5670, 161329.0
813.7020, 161217.0
814.8370, 161412.0
815.9710, 161658.0
817.1060, 162310.0
818.2400, 162528.0
819.3740, 164085.0
820.5080, 165576.0
821.6420, 168283.0
822.7760, 171506.0
823.9090, 175202.0
825.0420, 180596.0
826.1760, 186012.0
827.3090, 193243.0
828.4410, 199099.0
829.5740, 205730.0
830.7060, 209969.0
831.8390, 211909.0
832.9710, 211066.0
834.1030, 207273.0
835.2350, 202436.0
836.3670, 197584.0
837.4980, 194108.0
838.6300, 193299.0
839.7610, 192946.0
840.8920, 195658.0
842.0230, 198428.0
843.1530, 203206.0
844.2840, 207398.0
845.4140, 210906.0
846.5450, 214379.0
847.6750, 215402.0
848.8050, 215314.0
849.9350, 213385.0
851.0640, 212156.0
852.1940, 209591.0
853.3230, 208943.0
854.4520, 210469.0
855.5810, 214082.0
856.7100, 220216.0
857.8390, 225659.0
858.9670, 231990.0
860.0960, 237276.0
861.2240, 240359.0
862.3520, 239805.0
863.4800, 234017.0
864.6080, 226133.0
865.7350, 216191.0
866.8630, 206655.0
867.9900, 198140.0
869.1170, 192011.0
870.2440, 187342.0
871.3710, 183610.0
872.4970, 181604.0
873.6240, 179631.0
874.7500, 179433.0
875.8760, 178112.0
877.0020, 178738.0
878.1280, 177614.0
879.2540, 177073.0
880.3790, 175271.0
881.5050, 172662.0
882.6300, 169913.0
883.7550, 167450.0
884.8800, 165150.0
886.0050, 162527.0
887.1290, 160487.0
888.2540, 158848.0
889.3780, 157597.0
890.5020, 156811.0
891.6260, 155525.0
892.7500, 155731.0
893.8730, 154443.0
894.9970, 154718.0
896.1200, 154246.0
897.2440, 153157.0
898.3670, 153985.0
899.4890, 153816.0
900.6120, 154017.0
901.7350, 153546.0
902.8570, 153660.0
903.9790, 154390.0
905.1010, 153927.0
906.2230, 154574.0
907.3450, 154338.0
908.4670, 155094.0
909.5880, 155537.0
910.7100, 155375.0
911.8310, 155920.0
912.9520, 155687.0
914.0730, 156160.0
915.1930, 156236.0
916.3140, 155632.0
917.4340, 155676.0
918.5550, 155576.0
919.6750, 155429.8
920.7950, 155697.0
921.9140, 155459.0
923.0340, 155492.0
924.1530, 155252.4
925.2730, 155758.5
926.3920, 156043.3
927.5110, 156118.8
928.6300, 155358.0
929.7480, 155677.1
930.8670, 155563.5
931.9850, 155432.0
933.1040, 155903.1
934.2220, 155264.0
935.3400, 155725.5
936.4570, 155747.7
937.5750, 155970.9
938.6920, 155159.0
939.8100, 155411.0
940.9270, 155444.0
942.0440, 155475.0
943.1610, 155883.0
944.2770, 155443.0
945.3940, 156070.0
946.5100, 156440.0
947.6270, 156823.0
948.7430, 156463.0
949.8590, 156714.0
950.9740, 157305.0
952.0900, 156968.0
953.2050, 158150.0
954.3210, 158373.0
955.4360, 159042.0
956.5510, 160131.0
957.6660, 160601.0
958.7800, 162369.0
959.8950, 164102.0
961.0090, 167310.0
962.1240, 168423.0
963.2380, 171703.0
964.3520, 174783.0
965.4650, 177844.0
966.5790, 180994.0
967.6930, 182555.0
968.8060, 182999.0
969.9190, 182466.0
971.0320, 180953.0
972.1450, 178095.0
973.2580, 174444.0
974.3700, 172070.0
975.4830, 169720.0
976.5950, 168919.0
977.7070, 166184.0
978.8190, 165597.0
979.9310, 164837.0
981.0430, 163499.0
982.1540, 163545.0
983.2650, 162647.0
984.3770, 162713.0
985.4880, 162121.0
986.5990, 161859.0
987.7090, 162816.0
988.8200, 163029.0
989.9300, 162528.0
991.0410, 161598.0
992.1510, 162213.0
993.2610, 161930.0
994.3710, 161870.0
995.4810, 162443.0
996.5900, 162274.0
997.6990, 162570.0
998.8090, 162706.0
999.9180, 163031.0
1001.027, 163018.0
1002.136, 162859.0
1003.244, 163486.0
1004.353, 163744.0
1005.461, 163548.0
1006.569, 163611.0
1007.677, 163489.0
1008.785, 163796.0
1009.893, 164075.0
1011.001, 164658.0
1012.108, 164656.5
1013.215, 164952.0
1014.323, 164848.0
1015.430, 164878.0
1016.536, 165097.0
1017.643, 164711.0
1018.750, 165551.0
1019.856, 164876.0
1020.962, 165874.0
1022.068, 165875.0
1023.174, 166325.0
1024.280, 165905.0
1025.386, 165919.0
1026.491, 166629.0
1027.597, 167123.0
1028.702, 167229.0
1029.807, 167796.2
1030.912, 167845.8
1032.017, 168432.0
1033.121, 167792.0
1034.226, 167841.0
1035.330, 167337.0
1036.434, 168052.0
1037.538, 168275.0
1038.642, 168773.5
1039.746, 169344.7
1040.850, 169694.7
1041.953, 169835.3
1043.056, 169139.6
1044.159, 169523.8
1045.262, 169475.2
1046.365, 169408.9
1047.468, 169945.2
1048.571, 169371.1
1049.673, 169897.7
1050.775, 169984.9
1051.877, 169452.0
1052.979, 170394.0
1054.081, 169437.0
1055.183, 170382.0
1056.284, 170048.0
1057.386, 169563.0
1058.487, 170456.0
1059.588, 170300.0
1060.689, 170574.0
1061.790, 171216.0
1062.890, 170496.0
1063.991, 170863.0
1065.091, 170485.0
1066.191, 171179.0
1067.291, 170868.0
1068.391, 171143.1
1069.491, 171029.0
1070.591, 171629.0
1071.690, 172387.0
1072.790, 172828.0
1073.889, 172528.0
1074.988, 172465.0
1076.087, 173015.0
1077.185, 172547.0
1078.284, 173439.0
1079.382, 174121.0
1080.481, 173682.0
1081.579, 174948.0
1082.677, 174580.5
1083.775, 174906.0
1084.872, 174585.0
1085.970, 174867.0
1087.067, 175344.0
1088.165, 175017.0
1089.262, 176162.0
1090.359, 176249.0
1091.456, 176169.0
1092.552, 176066.0
1093.649, 176502.0
1094.745, 176546.1
1095.842, 176902.7
1096.938, 176959.0
1098.034, 177747.0
1099.130, 177792.0
1100.225, 178361.0
1101.321, 179642.0
1102.416, 178928.0
1103.511, 178008.0
1104.607, 178849.0
1105.702, 179009.0
1106.796, 179056.0
1107.891, 180018.0
1108.986, 178497.0
1110.080, 179443.0
1111.174, 179768.0
1112.268, 179525.0
1113.362, 180345.0
1114.456, 179820.0
1115.550, 181205.0
1116.643, 180683.0
1117.737, 180616.0
1118.830, 180665.0
1119.923, 181448.0
1121.016, 181374.0
1122.109, 181713.0
1123.201, 181985.0
1124.294, 181640.0
1125.386, 182082.0
1126.478, 182117.7
1127.571, 181863.0
1128.663, 182491.0
1129.754, 182759.0
1130.846, 183027.0
1131.937, 182903.0
1133.029, 183521.0
1134.120, 183861.0
1135.211, 183283.0
1136.302, 184616.0
1137.393, 184193.0
1138.484, 183733.0
1139.574, 184473.0
1140.664, 183644.0
1141.755, 184683.0
1142.845, 184955.0
1143.935, 185375.0
1145.025, 185414.0
1146.114, 185637.0
1147.204, 186167.0
1148.293, 186181.0
1149.382, 186271.6
1150.471, 186861.0
1151.560, 186195.0
1152.649, 186778.0
1153.738, 186859.0
1154.826, 187740.0
1155.915, 187477.0
1157.003, 187256.0
1158.091, 187815.0
1159.179, 187805.0
1160.267, 188128.5
1161.355, 188189.0
1162.442, 188667.0
1163.529, 189057.0
1164.617, 189013.0
1165.704, 188957.0
1166.791, 189197.0
1167.878, 190269.0
1168.964, 189066.0
1170.051, 189963.0
1171.137, 190995.0
1172.224, 190163.0
1173.310, 191059.0
1174.396, 189879.0
1175.481, 190974.0
1176.567, 191520.0
1177.653, 191809.0
1178.738, 192274.0
1179.823, 191210.0
1180.909, 191651.0
1181.994, 191772.0
1183.078, 192103.0
1184.163, 192586.0
1185.248, 192387.0
1186.332, 193128.0
1187.416, 193371.0
1188.501, 193210.0
1189.585, 194002.0
1190.669, 193307.0
1191.752, 193650.0
1192.836, 193461.0
1193.919, 194163.0
1195.003, 194051.0
1196.086, 194628.0
1197.169, 195082.0
1198.252, 194867.0
1199.334, 195152.7
1200.417, 195806.0
1201.500, 195069.0
1202.582, 195469.0
1203.664, 195387.0
1204.746, 196116.0
1205.828, 196706.0
1206.910, 196661.0
1207.992, 197077.0
1209.073, 196575.1
1210.154, 197296.4
1211.236, 197796.6
1212.317, 198087.4
1213.398, 197541.8
1214.479, 198076.1
1215.559, 198177.4
1216.640, 198261.2
1217.720, 198947.4
1218.800, 198523.2
1219.881, 199200.0
1220.961, 199437.2
1222.040, 199875.3
1223.120, 199878.1
1224.200, 200015.4
1225.279, 200588.1
1226.358, 200919.7
1227.438, 200872.3
1228.517, 201323.2
1229.595, 200883.4
1230.674, 201225.2
1231.753, 201904.2
1232.831, 201878.4
1233.910, 202337.2
1234.988, 202611.3
1236.066, 202047.0
1237.144, 202940.8
1238.222, 203204.0
1239.299, 202819.5
1240.377, 203663.4
1241.454, 203368.2
1242.531, 203479.5
1243.608, 203896.8
1244.685, 204075.0
