##NAMES=Clinoptilolite-Ca
##RRUFFID=R060662
##IDEAL CHEMISTRY=Ca_3_(Si_30_Al_6_)O_72_&#183;20H_2_O
##LOCALITY=Succor Creek, Malheur County, Oregon, USA
##OWNER=RRUFF
##SOURCE=Michael Scott
##DESCRIPTION=Group of colorless platy prismatic crystals
##STATUS=The identification of this mineral has been confirmed by X-ray diffraction and chemical analysis
##URL=rruff.info/R060662
##MEASURED CHEMISTRY=(Ca_1.02_Na_0.97_K_0.59_)_Σ=2.58_(Si_14.40_Al_3.60_)_Σ=18_O_36_·10.96H_2_O
##PIN_ID=M00221
##ORIENTATION=Laser parallel to b* (0 1 0). Fiducial mark perpendicular to laser is parallel to c [0 0 1]
221.0220, 17739.00
222.2400, 17737.00
223.4590, 17835.00
224.6770, 18057.00
225.8950, 17921.00
227.1120, 17874.00
228.3300, 17954.00
229.5480, 17837.00
230.7650, 18033.00
231.9820, 18038.00
233.1990, 18067.00
234.4160, 18250.00
235.6330, 18178.00
236.8490, 18395.00
238.0660, 18412.00
239.2820, 18589.00
240.4980, 18529.00
241.7140, 18800.00
242.9300, 18832.00
244.1460, 18955.00
245.3610, 19158.00
246.5770, 19293.00
247.7920, 19387.25
249.0070, 19444.00
250.2220, 19534.00
251.4370, 19611.00
252.6510, 19647.00
253.8660, 19759.00
255.0800, 19587.70
256.2940, 19805.88
257.5080, 19911.13
258.7220, 19909.51
259.9360, 19480.93
261.1490, 19603.71
262.3630, 19505.52
263.5760, 19398.29
264.7890, 19598.67
266.0020, 19311.00
267.2150, 19213.44
268.4270, 19315.00
269.6400, 19124.00
270.8520, 19096.00
272.0640, 19181.00
273.2760, 18910.00
274.4880, 19033.00
275.7000, 19024.00
276.9120, 18990.00
278.1230, 18968.54
279.3340, 18844.00
280.5450, 18782.00
281.7560, 18600.00
282.9670, 18425.00
284.1780, 18223.00
285.3880, 18165.47
286.5980, 18388.00
287.8090, 18131.00
289.0190, 18277.00
290.2290, 18418.00
291.4380, 18082.00
292.6480, 18150.00
293.8570, 18017.00
295.0670, 18314.00
296.2760, 18215.00
297.4850, 18399.00
298.6930, 18261.00
299.9020, 18428.00
301.1110, 18304.00
302.3190, 18414.00
303.5270, 18363.00
304.7350, 18403.00
305.9430, 18398.00
307.1510, 18403.00
308.3580, 18617.00
309.5660, 18548.00
310.7730, 18548.00
311.9800, 18721.00
313.1870, 18486.00
314.3940, 18531.00
315.6010, 18495.00
316.8070, 18590.00
318.0130, 18569.00
319.2200, 18569.29
320.4260, 18643.00
321.6310, 18560.00
322.8370, 18580.00
324.0430, 18605.00
325.2480, 18654.00
326.4540, 18790.00
327.6590, 18808.00
328.8640, 18655.00
330.0680, 18658.00
331.2730, 18840.00
332.4780, 18966.00
333.6820, 19137.00
334.8860, 19205.79
336.0900, 19013.00
337.2940, 19294.00
338.4980, 19354.00
339.7010, 19332.00
340.9050, 19543.00
342.1080, 19524.00
343.3110, 19931.00
344.5140, 19847.00
345.7170, 20009.00
346.9200, 20173.00
348.1220, 20257.00
349.3240, 20587.00
350.5270, 20891.00
351.7290, 21137.13
352.9310, 21330.00
354.1320, 21701.00
355.3340, 21609.00
356.5350, 21746.00
357.7370, 22184.00
358.9380, 22434.00
360.1390, 22455.00
361.3400, 22835.00
362.5400, 23122.00
363.7410, 23397.00
364.9410, 23699.00
366.1410, 23830.00
367.3410, 24129.00
368.5410, 24414.89
369.7410, 24689.82
370.9400, 25077.00
372.1400, 25336.00
373.3390, 25750.00
374.5380, 26081.00
375.7370, 26408.93
376.9360, 26887.70
378.1350, 27119.00
379.3330, 27474.00
380.5310, 27903.46
381.7300, 28503.00
382.9280, 28994.00
384.1260, 29614.00
385.3230, 30345.00
386.5210, 31018.00
387.7180, 31732.00
388.9160, 32883.00
390.1130, 33747.00
391.3100, 34691.00
392.5060, 35903.00
393.7030, 37019.00
394.9000, 38259.00
396.0960, 39409.00
397.2920, 40612.00
398.4880, 41907.00
399.6840, 42597.00
400.8800, 43663.00
402.0750, 44202.00
403.2710, 44274.00
404.4660, 44495.00
405.6610, 44385.00
406.8560, 43827.00
408.0510, 43407.00
409.2450, 42386.00
410.4400, 41724.00
411.6340, 40645.00
412.8280, 39034.00
414.0220, 38295.00
415.2160, 36847.21
416.4100, 35692.00
417.6030, 34377.00
418.7970, 33336.00
419.9900, 32321.00
421.1830, 31060.00
422.3760, 30056.00
423.5690, 29073.00
424.7610, 28105.00
425.9540, 27306.00
427.1460, 26386.00
428.3380, 25612.00
429.5300, 24724.00
430.7220, 24121.00
431.9140, 23484.28
433.1050, 23043.00
434.2970, 22523.00
435.4880, 22168.00
436.6790, 21946.00
437.8700, 21665.00
439.0610, 21257.00
440.2510, 21128.00
441.4420, 20721.00
442.6320, 20753.00
443.8220, 20915.00
445.0120, 20731.00
446.2020, 20655.00
447.3910, 20670.00
448.5810, 20741.69
449.7700, 21004.07
450.9600, 21139.00
452.1490, 21703.00
453.3370, 22101.00
454.5260, 22474.00
455.7150, 23024.00
456.9030, 23561.00
458.0910, 24047.00
459.2800, 24458.00
460.4670, 25220.00
461.6550, 25631.00
462.8430, 26310.00
464.0300, 26633.00
465.2180, 26947.00
466.4050, 27325.00
467.5920, 27571.00
468.7790, 27823.00
469.9650, 27997.00
471.1520, 28227.00
472.3380, 28528.00
473.5250, 29056.00
474.7110, 29549.00
475.8970, 30030.00
477.0820, 30516.00
478.2680, 31081.00
479.4540, 31459.50
480.6390, 32099.00
481.8240, 31866.00
483.0090, 31662.00
484.1940, 30990.00
485.3780, 30261.00
486.5630, 29344.00
487.7470, 28394.00
488.9320, 27258.00
490.1160, 26238.00
491.3000, 25147.00
492.4830, 24196.00
493.6670, 23340.00
494.8500, 22411.00
496.0340, 21895.00
497.2170, 21289.00
498.4000, 20586.00
499.5820, 20006.00
500.7650, 19667.00
501.9480, 19462.00
503.1300, 19188.00
504.3120, 18863.00
505.4940, 18578.00
506.6760, 18623.00
507.8580, 18167.00
509.0390, 18242.00
510.2210, 17801.00
511.4020, 17846.00
512.5830, 17732.00
513.7640, 17868.00
514.9450, 17614.00
516.1250, 17614.00
517.3060, 17467.00
518.4860, 17380.00
519.6660, 17373.00
520.8460, 17217.00
522.0260, 17270.00
523.2060, 17246.00
524.3850, 17339.00
525.5650, 16995.00
526.7440, 17099.00
527.9230, 17128.00
529.1020, 17133.00
530.2810, 17207.00
531.4590, 17139.00
532.6380, 17049.00
533.8160, 17029.00
534.9940, 17118.00
536.1720, 17053.00
537.3500, 17115.00
538.5270, 17034.00
539.7050, 17140.00
540.8820, 17146.00
542.0590, 17032.00
543.2360, 16942.00
544.4130, 17018.00
545.5900, 17185.00
546.7660, 17134.38
547.9430, 17046.00
549.1190, 17155.00
550.2950, 17087.00
551.4710, 17038.00
552.6470, 17073.00
553.8220, 17111.00
554.9980, 17261.00
556.1730, 17048.00
557.3480, 17107.00
558.5230, 17260.00
559.6980, 17082.00
560.8730, 17178.00
562.0470, 17127.00
563.2220, 16991.00
564.3960, 17159.00
565.5700, 17346.00
566.7440, 17291.00
567.9170, 17264.00
569.0910, 17306.00
570.2640, 17318.97
571.4380, 17291.00
572.6110, 17404.00
573.7840, 17374.00
574.9570, 17365.00
576.1290, 17371.00
577.3020, 17465.00
578.4740, 17685.00
579.6460, 17591.00
580.8180, 17638.00
581.9900, 17818.00
583.1620, 17702.00
584.3330, 17894.00
585.5040, 17947.00
586.6760, 17944.00
587.8470, 17961.00
589.0180, 18043.00
590.1880, 18201.00
591.3590, 18446.00
592.5290, 18372.00
593.7000, 18684.00
594.8700, 18804.00
596.0400, 18941.00
597.2090, 19146.00
598.3790, 19201.00
599.5490, 19280.00
600.7180, 19301.00
601.8870, 19751.00
603.0560, 19973.00
604.2250, 20368.00
605.3940, 20370.00
606.5620, 20780.00
607.7300, 21548.00
608.8990, 21428.87
610.0670, 21725.50
611.2350, 21553.00
612.4020, 21824.00
613.5700, 21815.00
614.7370, 21952.00
615.9050, 22259.00
617.0720, 22180.00
618.2390, 22256.00
619.4060, 22261.00
620.5720, 22106.00
621.7390, 22003.00
622.9050, 21828.00
624.0710, 21683.00
625.2370, 21455.00
626.4030, 21330.00
627.5690, 21005.00
628.7340, 20632.00
629.9000, 20282.00
631.0650, 20142.00
632.2300, 19791.00
633.3950, 19589.00
634.5600, 19499.00
635.7240, 19367.44
636.8890, 19347.00
638.0530, 19315.00
639.2170, 19341.00
640.3810, 19342.38
641.5450, 19299.80
642.7080, 19251.00
643.8720, 19192.00
645.0350, 19187.00
646.1980, 19081.00
647.3610, 19033.00
648.5240, 18993.00
649.6870, 18850.00
650.8490, 18869.00
652.0120, 18670.00
653.1740, 18676.00
654.3360, 18597.00
655.4980, 18493.00
656.6600, 18419.55
657.8210, 18309.63
658.9830, 18199.00
660.1440, 18101.00
661.3050, 17992.00
662.4660, 17902.00
663.6270, 17890.00
664.7870, 17933.00
665.9480, 17861.00
667.1080, 17758.00
668.2680, 17584.00
669.4280, 17609.00
670.5880, 17642.00
671.7480, 17677.00
672.9070, 17708.00
674.0670, 17703.07
675.2260, 17674.00
676.3850, 17671.00
677.5440, 17619.00
678.7030, 17577.00
679.8610, 17557.52
681.0200, 17501.00
682.1780, 17525.00
683.3360, 17519.00
684.4940, 17554.83
685.6520, 17596.00
686.8090, 17537.00
687.9670, 17536.00
689.1240, 17415.00
690.2810, 17527.00
691.4380, 17592.00
692.5950, 17451.00
693.7520, 17421.00
694.9080, 17675.00
696.0650, 17746.00
697.2210, 17575.00
698.3770, 17482.00
699.5330, 17781.00
700.6880, 17556.00
701.8440, 17617.00
702.9990, 17925.00
704.1550, 17723.00
705.3100, 17582.00
706.4650, 17627.00
707.6190, 17617.00
708.7740, 17681.00
709.9290, 17758.00
711.0830, 17787.00
712.2370, 17696.00
713.3910, 17772.00
714.5450, 17903.00
715.6980, 17752.00
716.8520, 17943.00
718.0050, 17973.00
719.1580, 17844.00
720.3110, 18060.00
721.4640, 17854.00
722.6170, 18239.00
723.7700, 18098.00
724.9220, 18080.00
726.0740, 18133.00
727.2260, 18272.00
728.3780, 18423.00
729.5300, 18351.12
730.6810, 18711.00
731.8330, 18290.00
732.9840, 18190.00
734.1350, 18306.00
735.2860, 18470.00
736.4370, 18270.00
737.5880, 18288.00
738.7380, 18365.00
739.8880, 18359.00
741.0390, 18259.00
742.1890, 18382.00
743.3380, 18430.00
744.4880, 18453.00
745.6380, 18552.00
746.7870, 18538.00
747.9360, 18566.00
749.0850, 18554.00
750.2340, 18757.00
751.3830, 18634.00
752.5310, 18755.00
753.6800, 18670.00
754.8280, 18833.00
755.9760, 18658.00
757.1240, 18855.00
758.2720, 18815.00
759.4190, 19106.00
760.5670, 19334.00
761.7140, 19051.00
762.8610, 19140.00
764.0080, 19258.00
765.1550, 19259.00
766.3020, 19305.00
767.4480, 19384.00
768.5950, 19301.00
769.7410, 19362.00
770.8870, 19524.00
772.0330, 19485.00
773.1780, 19370.00
774.3240, 19545.00
775.4690, 19574.00
776.6140, 19529.23
777.7590, 20073.00
778.9040, 19659.00
780.0490, 19819.00
781.1940, 20306.00
782.3380, 20401.00
783.4820, 19786.00
784.6260, 19767.00
785.7700, 19947.00
786.9140, 20114.00
788.0580, 19952.47
789.2010, 20013.00
790.3450, 19769.00
791.4880, 19865.00
792.6310, 20014.00
793.7730, 19994.00
794.9160, 19898.00
796.0590, 19900.00
797.2010, 19901.00
798.3430, 19970.00
799.4850, 19877.00
800.6270, 20079.00
801.7690, 20194.00
802.9100, 20059.00
804.0520, 20085.00
805.1930, 20199.00
806.3340, 20239.00
807.4750, 20107.00
808.6160, 20243.00
809.7560, 20522.00
810.8970, 20381.00
812.0370, 20619.00
813.1770, 20758.00
814.3170, 20608.00
815.4570, 20454.00
816.5960, 20667.00
817.7360, 20743.00
818.8750, 20793.00
820.0140, 20701.00
821.1530, 20703.00
822.2920, 20613.00
823.4310, 20461.00
824.5690, 20403.00
825.7070, 20291.66
826.8460, 20350.00
827.9840, 20189.00
829.1220, 19977.00
830.2590, 20090.00
831.3970, 19781.00
832.5340, 20012.00
833.6710, 19867.01
834.8080, 19842.99
835.9450, 19804.00
837.0820, 19819.00
838.2190, 19938.00
839.3550, 19952.00
840.4910, 19895.00
841.6270, 20298.00
842.7630, 19977.00
843.8990, 20067.00
845.0350, 20066.00
846.1700, 20436.00
847.3060, 20349.00
848.4410, 20449.00
849.5760, 20541.00
850.7100, 20665.00
851.8450, 20863.00
852.9800, 21036.00
854.1140, 21310.00
855.2480, 21431.20
856.3820, 21542.00
857.5160, 21620.00
858.6500, 21633.13
859.7830, 21643.00
860.9170, 21550.00
862.0500, 21548.00
863.1830, 21393.00
864.3160, 21246.00
865.4480, 20944.00
866.5810, 20831.00
867.7130, 20666.00
868.8460, 20401.00
869.9780, 20428.00
871.1100, 20445.00
872.2410, 20583.00
873.3730, 20408.00
874.5050, 20397.00
875.6360, 20227.00
876.7670, 20208.00
877.8980, 20138.00
879.0290, 20153.00
880.1590, 20128.00
881.2900, 20143.00
882.4200, 20169.16
883.5500, 20141.00
884.6800, 20260.00
885.8100, 20083.00
886.9400, 20159.00
888.0690, 20225.00
889.1990, 20170.00
890.3280, 19991.00
891.4570, 20231.00
892.5860, 20075.00
893.7140, 20118.00
894.8430, 20231.00
895.9710, 20066.00
897.1000, 20163.00
898.2280, 20159.00
899.3560, 20223.00
900.4830, 20270.00
901.6110, 20209.00
902.7380, 20366.00
903.8660, 20327.00
904.9930, 20257.00
906.1200, 20249.00
907.2460, 20219.00
908.3730, 20204.24
909.5000, 20212.01
910.6260, 20248.00
911.7520, 20224.00
912.8780, 20351.00
914.0040, 20346.00
915.1290, 20405.00
916.2550, 20283.00
917.3800, 20195.00
918.5050, 20321.00
919.6300, 20178.00
920.7550, 20204.00
921.8800, 20173.00
923.0040, 20206.00
924.1290, 20139.00
925.2530, 20051.00
926.3770, 20180.00
927.5010, 20350.00
928.6250, 20401.00
929.7480, 20302.00
930.8720, 20407.00
931.9950, 20148.00
933.1180, 20358.00
934.2410, 20319.00
935.3640, 20339.00
936.4860, 20494.00
937.6090, 20672.00
938.7310, 20562.00
939.8530, 20401.00
940.9750, 20484.00
942.0970, 20374.00
943.2180, 20333.00
944.3400, 20522.00
945.4610, 20759.00
946.5820, 20446.00
947.7030, 20704.00
948.8240, 20495.00
949.9450, 20664.00
951.0650, 20663.00
952.1860, 20818.00
953.3060, 20755.00
954.4260, 20937.00
955.5460, 20931.00
956.6650, 20752.00
957.7850, 20764.00
958.9040, 20683.00
960.0230, 20956.00
961.1420, 20967.00
962.2610, 20930.00
963.3800, 20941.36
964.4990, 20936.00
965.6170, 20789.00
966.7350, 20959.00
967.8530, 20980.00
968.9710, 21068.00
970.0890, 20863.00
971.2070, 21150.00
972.3240, 20987.00
973.4410, 21091.00
974.5580, 21049.00
975.6750, 21073.72
976.7920, 20958.00
977.9090, 21200.00
979.0250, 21181.00
980.1410, 21296.00
981.2580, 21278.00
982.3740, 21476.00
983.4890, 21350.00
984.6050, 21328.00
985.7200, 21653.00
986.8360, 21386.00
987.9510, 21650.00
989.0660, 21713.00
990.1810, 21688.00
991.2950, 21686.00
992.4100, 21895.00
993.5240, 21911.81
994.6390, 21976.00
995.7530, 22131.00
996.8660, 22420.00
997.9800, 22565.00
999.0940, 22667.00
1000.207, 23059.00
1001.320, 23279.00
1002.433, 23251.00
1003.546, 23021.00
1004.659, 22888.00
1005.772, 22687.00
1006.884, 22636.00
1007.996, 22377.00
1009.108, 22453.00
1010.220, 22008.78
1011.332, 22326.41
1012.444, 22531.11
1013.555, 22628.88
1014.666, 22299.71
1015.777, 22521.85
1016.888, 22523.04
1017.999, 22515.18
1019.110, 22814.92
1020.220, 22547.79
1021.331, 22842.65
1022.441, 22913.14
1023.551, 23086.30
1024.661, 22827.00
1025.770, 22786.00
1026.880, 22907.00
1027.989, 22899.00
1029.098, 22923.00
1030.207, 22986.00
1031.316, 23068.00
1032.425, 22829.00
1033.533, 22882.00
1034.642, 22779.00
1035.750, 22769.88
1036.858, 22738.00
1037.966, 22881.00
1039.073, 22849.00
1040.181, 23041.00
1041.288, 22802.00
1042.396, 22635.00
1043.503, 22930.00
1044.610, 22843.00
1045.716, 23080.00
1046.823, 22685.00
1047.929, 22857.00
1049.036, 22851.00
1050.142, 23042.00
1051.248, 22955.00
1052.353, 22766.00
1053.459, 23048.00
1054.564, 22966.00
1055.670, 22784.00
1056.775, 22711.00
1057.880, 22909.00
1058.985, 22744.00
1060.089, 22860.00
1061.194, 22860.00
1062.298, 22594.00
1063.402, 22831.00
1064.506, 22715.00
1065.610, 22682.00
1066.713, 22631.00
1067.817, 22819.00
1068.920, 22864.00
1070.023, 22942.00
1071.126, 22902.00
1072.229, 23089.00
1073.332, 23049.13
1074.435, 22996.00
1075.537, 22974.00
1076.639, 23122.00
1077.741, 22915.00
1078.843, 23139.00
1079.945, 23152.00
1081.046, 23481.00
1082.148, 23520.00
1083.249, 23586.00
1084.350, 23603.00
1085.451, 23682.00
1086.551, 23826.00
1087.652, 23589.00
1088.752, 23448.00
1089.853, 23728.00
1090.953, 23859.00
1092.053, 23641.00
1093.152, 23739.00
1094.252, 23920.00
1095.351, 23909.00
1096.451, 24141.00
1097.550, 24154.00
1098.649, 24190.00
1099.748, 24368.00
1100.846, 24136.00
1101.945, 24422.00
1103.043, 24602.00
1104.141, 24420.00
1105.239, 24558.00
1106.337, 24735.00
1107.434, 24740.00
1108.532, 24868.30
1109.629, 25021.00
1110.726, 25034.00
1111.823, 24934.00
1112.920, 25051.00
1114.017, 25033.00
1115.113, 25146.00
1116.210, 25258.00
1117.306, 25269.00
1118.402, 25396.00
1119.498, 25246.00
1120.593, 25284.00
1121.689, 25599.00
1122.784, 25383.00
1123.879, 25551.00
1124.974, 25430.00
1126.069, 25284.00
1127.164, 24855.00
1128.259, 24755.00
1129.353, 24789.00
1130.447, 24468.00
1131.541, 24373.00
1132.635, 24652.00
1133.729, 24352.00
1134.822, 24462.00
1135.916, 24309.00
1137.009, 24466.00
1138.102, 24389.00
1139.195, 24372.00
1140.288, 24460.00
1141.380, 24252.00
1142.473, 24464.00
1143.565, 24422.00
1144.657, 24629.00
1145.749, 24379.00
1146.841, 24606.00
1147.932, 24688.00
1149.024, 24385.00
1150.115, 24610.00
1151.206, 24657.00
1152.297, 24717.00
1153.388, 24532.00
1154.479, 24635.26
1155.569, 24798.00
1156.659, 24633.00
1157.750, 24821.00
1158.839, 24733.00
1159.929, 24746.00
1161.019, 24698.00
1162.108, 24781.00
1163.198, 24670.00
1164.287, 24879.00
1165.376, 24733.00
1166.465, 24653.00
1167.553, 24713.00
1168.642, 24548.00
1169.730, 24562.00
1170.818, 24729.00
1171.906, 24541.00
1172.994, 24500.00
1174.082, 24149.00
1175.170, 24634.00
1176.257, 24489.00
1177.344, 24386.00
1178.431, 24053.00
1179.518, 24049.00
1180.605, 24030.00
1181.691, 24074.00
1182.778, 23730.00
1183.864, 23800.00
1184.950, 24051.00
1186.036, 23718.00
1187.122, 23757.00
1188.207, 23634.00
1189.292, 23464.00
1190.378, 23394.00
1191.463, 23274.00
1192.548, 23203.00
1193.632, 23089.00
1194.717, 23091.00
1195.801, 23001.00
1196.886, 22752.00
1197.970, 22955.00
1199.054, 23079.00
1200.137, 23177.00
1201.221, 22889.00
1202.305, 22718.00
1203.388, 22840.00
1204.471, 22746.00
1205.554, 22702.77
1206.637, 22683.00
1207.719, 22607.00
1208.802, 22611.00
1209.884, 22561.00
1210.966, 22532.00
1212.048, 22518.27
1213.130, 22642.00
1214.212, 22448.00
1215.293, 22579.00
1216.374, 22489.00
1217.456, 22560.00
1218.536, 22665.00
1219.617, 22445.00
1220.698, 22306.00
1221.778, 22581.00
1222.859, 22392.00
1223.939, 22521.00
1225.019, 22470.00
1226.099, 22556.00
1227.178, 22494.00
1228.258, 22639.00
1229.337, 22666.00
1230.417, 22574.00
1231.496, 22463.00
1232.574, 22522.00
1233.653, 23012.00
1234.732, 22796.00
1235.810, 22835.00
1236.888, 23062.00
1237.966, 22864.00
1239.044, 22868.00
1240.122, 23220.00
1241.199, 22963.00
1242.277, 22865.00
1243.354, 22810.00
1244.431, 22929.00
1245.508, 22953.00
1246.585, 22914.00
1247.661, 22701.00
1248.738, 22941.00
1249.814, 22790.40
1250.890, 23331.00
1251.966, 22787.00
1253.042, 22830.00
1254.117, 22969.00
1255.193, 22677.00
1256.268, 22983.00
1257.343, 22938.00
1258.418, 22938.00
1259.493, 23065.00
1260.567, 22835.00
1261.642, 22905.00
1262.716, 23239.00
1263.790, 23171.00
1264.864, 22999.00
1265.938, 23204.00
1267.011, 23096.00
1268.085, 23219.00
1269.158, 23350.00
1270.231, 23248.00
1271.304, 23250.00
1272.377, 23386.00
1273.450, 23171.00
1274.522, 23240.00
1275.594, 23387.00
1276.666, 23127.00
1277.738, 23261.00
1278.810, 23029.00
1279.882, 23270.00
1280.953, 23323.00
1282.025, 23335.00
1283.096, 23112.00
1284.167, 23151.00
1285.238, 23156.00
1286.308, 23187.00
1287.379, 23221.00
1288.449, 23039.00
1289.519, 23256.00
1290.589, 23167.00
1291.659, 23315.00
1292.729, 23261.00
1293.798, 23327.00
1294.868, 23297.00
1295.937, 23220.00
1297.006, 23365.00
1298.075, 23227.00
1299.143, 23219.00
1300.212, 23028.00
1301.280, 23058.00
1302.348, 23290.00
1303.416, 23269.00
1304.484, 23319.00
1305.552, 23297.00
1306.620, 23360.00
1307.687, 23397.00
1308.754, 23520.00
1309.821, 23544.00
1310.888, 23365.00
1311.955, 23539.00
1313.021, 23370.00
1314.088, 23429.31
1315.154, 23529.00
1316.220, 23489.00
1317.286, 23531.00
1318.352, 23537.00
1319.417, 23504.00
1320.483, 23755.00
1321.548, 23565.00
1322.613, 23549.00
1323.678, 23400.00
1324.743, 23189.00
1325.807, 23310.00
1326.872, 23252.00
1327.936, 23232.00
1329.000, 23141.00
1330.064, 23123.00
1331.128, 23191.00
1332.191, 22886.00
1333.255, 23024.00
1334.318, 22966.00
1335.381, 23074.00
1336.444, 22961.00
1337.507, 23024.00
1338.569, 22955.00
1339.632, 23059.00
1340.694, 23147.00
1341.756, 23019.00
1342.818, 22810.00
1343.880, 23063.00
1344.941, 23068.00
1346.003, 22901.00
1347.064, 23077.00
1348.125, 23045.00
1349.186, 23048.00
1350.247, 22921.00
1351.308, 22877.00
1352.368, 22953.00
1353.428, 23070.00
1354.489, 22778.00
1355.549, 23066.00
1356.608, 22836.00
1357.668, 22627.68
1358.727, 22914.30
1359.787, 23088.01
1360.846, 23154.82
1361.905, 22794.67
1362.964, 22985.85
1364.022, 22956.06
1365.081, 22917.23
1366.139, 23185.98
1367.197, 22887.91
1368.255, 23151.78
1369.313, 23191.33
1370.371, 23333.55
1371.428, 23084.00
1372.486, 23082.00
1373.543, 23127.00
1374.600, 23090.87
1375.657, 23080.00
1376.713, 23106.00
1377.770, 23151.00
1378.826, 23160.00
1379.882, 23085.00
1380.938, 23269.00
1381.994, 23264.00
