##NAMES=Clinoptilolite-Ca
##RRUFFID=R060662
##IDEAL CHEMISTRY=Ca_3_(Si_30_Al_6_)O_72_&#183;20H_2_O
##LOCALITY=Succor Creek, Malheur County, Oregon, USA
##OWNER=RRUFF
##SOURCE=Michael Scott
##DESCRIPTION=Group of colorless platy prismatic crystals
##STATUS=The identification of this mineral has been confirmed by X-ray diffraction and chemical analysis
##URL=rruff.info/R060662
##MEASURED CHEMISTRY=(Ca_1.02_Na_0.97_K_0.59_)_Σ=2.58_(Si_14.40_Al_3.60_)_Σ=18_O_36_·10.96H_2_O
##PIN_ID=M00221
##ORIENTATION=Laser parallel to b* (0 1 0). Fiducial mark perpendicular to laser is parallel to c [0 0 1]
221.0220, 22351.00
222.2400, 22277.00
223.4590, 22297.00
224.6770, 22271.00
225.8950, 22626.00
227.1120, 22536.00
228.3300, 22730.00
229.5480, 22663.00
230.7650, 23163.00
231.9820, 22980.00
233.1990, 23266.00
234.4160, 23428.00
235.6330, 23594.00
236.8490, 23855.00
238.0660, 23829.00
239.2820, 24200.00
240.4980, 24239.00
241.7140, 24460.00
242.9300, 24540.00
244.1460, 24529.00
245.3610, 24882.00
246.5770, 24890.00
247.7920, 25146.00
249.0070, 25327.00
250.2220, 25292.00
251.4370, 25323.00
252.6510, 25570.00
253.8660, 25476.00
255.0800, 25879.00
256.2940, 25517.00
257.5080, 26253.00
258.7220, 26287.50
259.9360, 26089.09
261.1490, 26636.00
262.3630, 25690.00
263.5760, 25500.00
264.7890, 25348.00
266.0020, 25365.00
267.2150, 25617.00
268.4270, 25320.00
269.6400, 25299.00
270.8520, 25042.00
272.0640, 25596.00
273.2760, 25714.00
274.4880, 25502.00
275.7000, 25305.00
276.9120, 25217.00
278.1230, 25090.00
279.3340, 24955.00
280.5450, 24807.00
281.7560, 24627.00
282.9670, 24675.00
284.1780, 24476.00
285.3880, 24456.00
286.5980, 24390.00
287.8090, 24211.00
289.0190, 24178.00
290.2290, 23929.00
291.4380, 23946.00
292.6480, 23999.00
293.8570, 23728.00
295.0670, 23761.00
296.2760, 23883.00
297.4850, 23922.00
298.6930, 23940.00
299.9020, 23809.00
301.1110, 24012.00
302.3190, 24101.00
303.5270, 23947.00
304.7350, 23975.00
305.9430, 23803.00
307.1510, 23908.00
308.3580, 23985.00
309.5660, 23664.00
310.7730, 23849.00
311.9800, 23799.00
313.1870, 23386.00
314.3940, 23474.00
315.6010, 23462.00
316.8070, 23230.00
318.0130, 23320.00
319.2200, 23334.00
320.4260, 23409.00
321.6310, 23393.00
322.8370, 23325.00
324.0430, 23460.00
325.2480, 23502.00
326.4540, 23471.00
327.6590, 23406.00
328.8640, 23623.00
330.0680, 23707.00
331.2730, 23571.00
332.4780, 23787.00
333.6820, 23984.00
334.8860, 23718.00
336.0900, 23792.00
337.2940, 23816.00
338.4980, 23896.00
339.7010, 24152.00
340.9050, 23970.00
342.1080, 24454.00
343.3110, 23907.00
344.5140, 23924.00
345.7170, 24097.00
346.9200, 23934.00
348.1220, 24086.00
349.3240, 24379.00
350.5270, 24196.00
351.7290, 24455.00
352.9310, 24420.00
354.1320, 24360.00
355.3340, 24334.00
356.5350, 24449.54
357.7370, 24546.00
358.9380, 24713.00
360.1390, 24942.00
361.3400, 25037.00
362.5400, 25201.21
363.7410, 25309.00
364.9410, 25512.00
366.1410, 25538.00
367.3410, 25806.00
368.5410, 25957.00
369.7410, 26199.00
370.9400, 26390.00
372.1400, 27062.00
373.3390, 27074.48
374.5380, 27788.00
375.7370, 27423.00
376.9360, 27771.00
378.1350, 28062.00
379.3330, 28324.66
380.5310, 28739.00
381.7300, 29247.00
382.9280, 29455.00
384.1260, 29863.00
385.3230, 30525.00
386.5210, 30894.00
387.7180, 31618.00
388.9160, 32223.00
390.1130, 33000.00
391.3100, 33817.00
392.5060, 34432.00
393.7030, 35277.00
394.9000, 36055.00
396.0960, 36903.23
397.2920, 37893.00
398.4880, 38687.00
399.6840, 39388.00
400.8800, 40226.00
402.0750, 40686.00
403.2710, 40963.00
404.4660, 41126.00
405.6610, 41013.00
406.8560, 40744.00
408.0510, 40295.00
409.2450, 39671.00
410.4400, 38926.00
411.6340, 38184.00
412.8280, 37342.00
414.0220, 36485.00
415.2160, 35632.00
416.4100, 34496.00
417.6030, 33865.00
418.7970, 32923.00
419.9900, 32259.00
421.1830, 31484.00
422.3760, 30687.00
423.5690, 30123.00
424.7610, 29317.00
425.9540, 28739.00
427.1460, 28201.00
428.3380, 27621.00
429.5300, 27154.00
430.7220, 26696.00
431.9140, 26263.00
433.1050, 26044.00
434.2970, 25898.00
435.4880, 25521.00
436.6790, 25128.00
437.8700, 25102.00
439.0610, 24888.00
440.2510, 24951.00
441.4420, 24535.00
442.6320, 24588.00
443.8220, 24781.00
445.0120, 24311.00
446.2020, 24397.00
447.3910, 24423.00
448.5810, 24348.00
449.7700, 24321.00
450.9600, 24632.00
452.1490, 24510.00
453.3370, 24715.00
454.5260, 24771.00
455.7150, 24944.00
456.9030, 25194.00
458.0910, 25428.00
459.2800, 25913.00
460.4670, 26209.00
461.6550, 26610.00
462.8430, 26693.00
464.0300, 27206.00
465.2180, 27712.00
466.4050, 28196.00
467.5920, 28828.00
468.7790, 29468.00
469.9650, 30133.64
471.1520, 30871.00
472.3380, 31663.00
473.5250, 32544.00
474.7110, 33504.00
475.8970, 34339.00
477.0820, 35240.00
478.2680, 36102.00
479.4540, 36293.00
480.6390, 37100.00
481.8240, 37207.00
483.0090, 36791.00
484.1940, 36014.00
485.3780, 35436.00
486.5630, 34319.00
487.7470, 33611.00
488.9320, 32560.00
490.1160, 31644.06
491.3000, 30282.00
492.4830, 29785.00
493.6670, 28738.00
494.8500, 27813.00
496.0340, 27259.00
497.2170, 27012.00
498.4000, 26300.00
499.5820, 25893.00
500.7650, 25596.00
501.9480, 25284.00
503.1300, 25031.51
504.3120, 24951.00
505.4940, 24656.00
506.6760, 24523.00
507.8580, 24462.00
509.0390, 24242.00
510.2210, 24286.00
511.4020, 23985.00
512.5830, 23916.00
513.7640, 23906.00
514.9450, 23936.00
516.1250, 23791.00
517.3060, 23709.00
518.4860, 23833.00
519.6660, 23773.00
520.8460, 23727.00
522.0260, 23597.00
523.2060, 23828.00
524.3850, 23845.00
525.5650, 23765.00
526.7440, 23692.00
527.9230, 23659.00
529.1020, 23609.00
530.2810, 23767.00
531.4590, 23795.00
532.6380, 23881.00
533.8160, 23677.00
534.9940, 23733.00
536.1720, 23524.00
537.3500, 23802.00
538.5270, 24048.00
539.7050, 23648.00
540.8820, 23721.00
542.0590, 23888.00
543.2360, 23888.00
544.4130, 23981.00
545.5900, 23904.00
546.7660, 23835.00
547.9430, 23962.00
549.1190, 24057.00
550.2950, 23862.00
551.4710, 23901.00
552.6470, 23936.00
553.8220, 24097.00
554.9980, 23886.00
556.1730, 24159.00
557.3480, 24110.00
558.5230, 23970.00
559.6980, 24092.00
560.8730, 24142.00
562.0470, 23980.00
563.2220, 23976.00
564.3960, 24199.00
565.5700, 24098.00
566.7440, 24354.00
567.9170, 24467.00
569.0910, 24306.00
570.2640, 24439.00
571.4380, 24289.00
572.6110, 24512.00
573.7840, 24449.00
574.9570, 24369.00
576.1290, 24675.00
577.3020, 24505.00
578.4740, 24524.00
579.6460, 24832.00
580.8180, 24653.00
581.9900, 24658.00
583.1620, 24797.00
584.3330, 24822.00
585.5040, 24984.00
586.6760, 25055.00
587.8470, 24999.00
589.0180, 25130.00
590.1880, 25238.00
591.3590, 25195.00
592.5290, 25212.00
593.7000, 25475.00
594.8700, 25579.00
596.0400, 25590.00
597.2090, 25827.00
598.3790, 25791.00
599.5490, 26230.00
600.7180, 26250.00
601.8870, 26428.00
603.0560, 26611.00
604.2250, 26736.00
605.3940, 26875.00
606.5620, 27119.00
607.7300, 27385.00
608.8990, 27584.00
610.0670, 27671.00
611.2350, 27808.00
612.4020, 28037.00
613.5700, 28337.00
614.7370, 28545.00
615.9050, 28370.00
617.0720, 28641.00
618.2390, 28352.00
619.4060, 28331.00
620.5720, 28192.00
621.7390, 28201.00
622.9050, 28066.00
624.0710, 27968.00
625.2370, 27837.00
626.4030, 27533.00
627.5690, 27318.00
628.7340, 27392.00
629.9000, 26869.00
631.0650, 26909.00
632.2300, 26592.00
633.3950, 26603.00
634.5600, 26527.00
635.7240, 26398.00
636.8890, 26181.00
638.0530, 26245.00
639.2170, 26204.00
640.3810, 26058.00
641.5450, 26214.00
642.7080, 26211.00
643.8720, 26300.00
645.0350, 26314.59
646.1980, 26263.00
647.3610, 26237.00
648.5240, 26174.00
649.6870, 25973.00
650.8490, 25939.00
652.0120, 25931.00
653.1740, 25873.00
654.3360, 26053.00
655.4980, 26007.00
656.6600, 25817.00
657.8210, 25911.00
658.9830, 25710.00
660.1440, 25895.00
661.3050, 25803.00
662.4660, 25598.00
663.6270, 25573.00
664.7870, 25612.00
665.9480, 25549.00
667.1080, 25469.00
668.2680, 25515.00
669.4280, 25486.00
670.5880, 25617.00
671.7480, 25556.00
672.9070, 25527.00
674.0670, 25629.00
675.2260, 25564.00
676.3850, 25504.00
677.5440, 25554.00
678.7030, 25451.00
679.8610, 25342.00
681.0200, 25504.00
682.1780, 25706.00
683.3360, 25545.00
684.4940, 25614.00
685.6520, 25643.00
686.8090, 25782.00
687.9670, 25594.00
689.1240, 25636.00
690.2810, 25670.00
691.4380, 25684.00
692.5950, 25797.00
693.7520, 25679.00
694.9080, 25949.00
696.0650, 25913.00
697.2210, 25793.00
698.3770, 26000.00
699.5330, 25856.00
700.6880, 25964.00
701.8440, 26079.00
702.9990, 26044.00
704.1550, 26043.00
705.3100, 26114.00
706.4650, 26034.00
707.6190, 26302.00
708.7740, 26102.00
709.9290, 26454.00
711.0830, 26353.00
712.2370, 26450.00
713.3910, 26199.00
714.5450, 26368.00
715.6980, 26436.00
716.8520, 26210.00
718.0050, 26599.00
719.1580, 26568.00
720.3110, 26456.00
721.4640, 26579.00
722.6170, 26744.00
723.7700, 26695.00
724.9220, 26829.00
726.0740, 26880.00
727.2260, 26851.00
728.3780, 26993.00
729.5300, 26788.00
730.6810, 26825.00
731.8330, 26934.00
732.9840, 27023.00
734.1350, 27113.00
735.2860, 27008.00
736.4370, 27117.00
737.5880, 27096.00
738.7380, 27280.00
739.8880, 27239.00
741.0390, 27463.00
742.1890, 27417.48
743.3380, 27321.00
744.4880, 27412.00
745.6380, 27376.00
746.7870, 27459.00
747.9360, 27468.00
749.0850, 27471.00
750.2340, 27617.00
751.3830, 27664.00
752.5310, 27730.83
753.6800, 27838.46
754.8280, 27872.00
755.9760, 27925.00
757.1240, 28006.00
758.2720, 27850.00
759.4190, 28279.00
760.5670, 28378.00
761.7140, 28138.00
762.8610, 28306.00
764.0080, 28398.00
765.1550, 28550.00
766.3020, 28632.00
767.4480, 28767.00
768.5950, 28972.00
769.7410, 28973.00
770.8870, 29184.00
772.0330, 29231.00
773.1780, 29486.00
774.3240, 29470.00
775.4690, 29761.00
776.6140, 29810.00
777.7590, 29888.00
778.9040, 30180.00
780.0490, 30346.00
781.1940, 30216.00
782.3380, 30585.79
783.4820, 30625.16
784.6260, 30941.00
785.7700, 30984.00
786.9140, 30860.00
788.0580, 31155.00
789.2010, 31318.00
790.3450, 31386.00
791.4880, 31197.00
792.6310, 31291.00
793.7730, 31180.00
794.9160, 31327.00
796.0590, 31240.00
797.2010, 31386.00
798.3430, 31251.69
799.4850, 31225.00
800.6270, 30982.00
801.7690, 30966.00
802.9100, 30829.00
804.0520, 31066.00
805.1930, 30747.00
806.3340, 30544.00
807.4750, 30658.00
808.6160, 30907.00
809.7560, 30635.00
810.8970, 30856.00
812.0370, 30741.00
813.1770, 30389.00
814.3170, 30448.00
815.4570, 30670.00
816.5960, 30531.00
817.7360, 30559.00
818.8750, 30610.00
820.0140, 30687.00
821.1530, 30539.08
822.2920, 30525.00
823.4310, 30273.00
824.5690, 30148.00
825.7070, 30115.00
826.8460, 29748.00
827.9840, 29819.00
829.1220, 29714.00
830.2590, 29657.00
831.3970, 29604.00
832.5340, 29659.00
833.6710, 29510.00
834.8080, 29390.00
835.9450, 29569.00
837.0820, 29438.00
838.2190, 29555.00
839.3550, 29600.00
840.4910, 29411.00
841.6270, 29577.00
842.7630, 29775.00
843.8990, 29752.00
845.0350, 29503.00
846.1700, 29889.00
847.3060, 30004.00
848.4410, 29991.00
849.5760, 30288.00
850.7100, 30289.00
851.8450, 30435.00
852.9800, 30480.00
854.1140, 30836.00
855.2480, 30732.00
856.3820, 30712.00
857.5160, 30942.00
858.6500, 30814.00
859.7830, 30905.00
860.9170, 31039.00
862.0500, 30800.00
863.1830, 30730.00
864.3160, 30628.00
865.4480, 30470.00
866.5810, 30516.00
867.7130, 30247.00
868.8460, 29971.00
869.9780, 30208.00
871.1100, 29943.00
872.2410, 30088.00
873.3730, 30046.00
874.5050, 29953.00
875.6360, 30029.00
876.7670, 30032.00
877.8980, 30203.00
879.0290, 30109.00
880.1590, 29797.00
881.2900, 30121.00
882.4200, 30182.00
883.5500, 29791.00
884.6800, 29941.00
885.8100, 29928.00
886.9400, 29856.00
888.0690, 29962.18
889.1990, 29917.00
890.3280, 30042.00
891.4570, 30044.00
892.5860, 30058.00
893.7140, 30225.00
894.8430, 30288.00
895.9710, 30108.00
897.1000, 30346.00
898.2280, 30233.00
899.3560, 30386.00
900.4830, 30479.00
901.6110, 30288.00
902.7380, 30508.00
903.8660, 30217.00
904.9930, 30489.00
906.1200, 30521.00
907.2460, 30593.00
908.3730, 30238.00
909.5000, 30407.00
910.6260, 30458.00
911.7520, 30590.00
912.8780, 30662.00
914.0040, 30525.00
915.1290, 30451.00
916.2550, 30654.00
917.3800, 30584.00
918.5050, 30746.00
919.6300, 30605.00
920.7550, 30684.00
921.8800, 30461.00
923.0040, 30700.00
924.1290, 30411.00
925.2530, 30663.00
926.3770, 30621.00
927.5010, 30836.00
928.6250, 31205.00
929.7480, 30941.00
930.8720, 30667.00
931.9950, 30813.00
933.1180, 30841.00
934.2410, 30976.00
935.3640, 30864.00
936.4860, 30967.00
937.6090, 30919.00
938.7310, 30981.00
939.8530, 31118.00
940.9750, 31134.00
942.0970, 31077.00
943.2180, 31054.00
944.3400, 31290.00
945.4610, 31097.00
946.5820, 31225.00
947.7030, 31188.00
948.8240, 31225.00
949.9450, 31454.00
951.0650, 31660.00
952.1860, 31697.70
953.3060, 31725.00
954.4260, 31817.00
955.5460, 31629.00
956.6650, 31627.00
957.7850, 31463.00
958.9040, 31754.00
960.0230, 31629.00
961.1420, 31919.00
962.2610, 31788.00
963.3800, 31836.00
964.4990, 31608.00
965.6170, 31769.00
966.7350, 31986.00
967.8530, 32009.00
968.9710, 31778.00
970.0890, 31826.00
971.2070, 31875.00
972.3240, 31920.00
973.4410, 31941.07
974.5580, 31860.00
975.6750, 31991.00
976.7920, 32024.00
977.9090, 32087.00
979.0250, 32228.00
980.1410, 32073.00
981.2580, 32247.07
982.3740, 32151.00
983.4890, 32429.00
984.6050, 32496.00
985.7200, 32568.43
986.8360, 32315.00
987.9510, 32542.00
989.0660, 32403.00
990.1810, 32368.00
991.2950, 32682.00
992.4100, 32613.00
993.5240, 32786.00
994.6390, 32603.00
995.7530, 32892.00
996.8660, 32716.00
997.9800, 33170.00
999.0940, 33342.00
1000.207, 33692.00
1001.320, 33717.00
1002.433, 33824.00
1003.546, 33559.00
1004.659, 33550.00
1005.772, 33408.00
1006.884, 33439.00
1007.996, 33366.00
1009.108, 33136.00
1010.220, 33257.00
1011.332, 33424.00
1012.444, 33207.00
1013.555, 33357.00
1014.666, 33568.00
1015.777, 33596.00
1016.888, 33487.00
1017.999, 33656.00
1019.110, 33923.00
1020.220, 33768.00
1021.331, 33811.00
1022.441, 33689.00
1023.551, 33840.00
1024.661, 33983.00
1025.770, 33917.00
1026.880, 33915.73
1027.989, 34177.44
1029.098, 34326.21
1030.207, 34368.11
1031.316, 33983.05
1032.425, 34149.32
1033.533, 34094.64
1034.642, 34030.91
1035.750, 34274.77
1036.858, 33951.81
1037.966, 34190.79
1039.073, 34205.45
1040.181, 34322.79
1041.288, 34217.80
1042.396, 34181.48
1043.503, 34367.55
1044.610, 34336.00
1045.716, 34238.00
1046.823, 34232.00
1047.929, 34546.00
1049.036, 34229.00
1050.142, 34339.00
1051.248, 34216.00
1052.353, 34385.00
1053.459, 34088.00
1054.564, 34469.00
1055.670, 34290.00
1056.775, 34394.00
1057.880, 34340.00
1058.985, 34199.00
1060.089, 34450.00
1061.194, 34410.00
1062.298, 34295.00
1063.402, 34343.00
1064.506, 34313.88
1065.610, 34430.00
1066.713, 34333.00
1067.817, 34512.00
1068.920, 34503.00
1070.023, 34550.00
1071.126, 34615.47
1072.229, 34488.00
1073.332, 34635.00
1074.435, 34758.00
1075.537, 34676.00
1076.639, 34772.00
1077.741, 34514.00
1078.843, 35054.00
1079.945, 34810.00
1081.046, 35114.00
1082.148, 35349.00
1083.249, 35419.00
1084.350, 35670.00
1085.451, 35588.23
1086.551, 35470.00
1087.652, 35432.00
1088.752, 35350.00
1089.853, 35319.00
1090.953, 35525.00
1092.053, 35412.00
1093.152, 35560.00
1094.252, 35670.00
1095.351, 35622.00
1096.451, 35775.00
1097.550, 35833.00
1098.649, 36051.00
1099.748, 35944.00
1100.846, 35931.00
1101.945, 35923.00
1103.043, 36332.00
1104.141, 36388.00
1105.239, 36585.00
1106.337, 36137.00
1107.434, 36660.00
1108.532, 36579.00
1109.629, 36460.00
1110.726, 36893.00
1111.823, 36750.55
1112.920, 36730.00
1114.017, 36884.00
1115.113, 36840.00
1116.210, 36987.00
1117.306, 36738.00
1118.402, 36894.00
1119.498, 36797.00
1120.593, 36488.00
1121.689, 36897.00
1122.784, 36541.00
1123.879, 37083.00
1124.974, 36865.00
1126.069, 36751.00
1127.164, 36625.00
1128.259, 36652.00
1129.353, 36614.90
1130.447, 36346.00
1131.541, 36695.00
1132.635, 36664.00
1133.729, 36756.00
1134.822, 36599.00
1135.916, 36585.00
1137.009, 36591.00
1138.102, 36511.48
1139.195, 36484.00
1140.288, 36505.00
1141.380, 36578.00
1142.473, 36562.98
1143.565, 36596.44
1144.657, 36571.00
1145.749, 36610.70
1146.841, 36566.00
1147.932, 36542.00
1149.024, 36435.00
1150.115, 36424.00
1151.206, 36445.00
1152.297, 36768.00
1153.388, 36835.00
1154.479, 36746.00
1155.569, 36807.00
1156.659, 36724.00
1157.750, 36859.00
1158.839, 36589.00
1159.929, 36408.00
1161.019, 36771.00
1162.108, 36763.00
1163.198, 36556.00
1164.287, 36591.00
1165.376, 36517.00
1166.465, 36549.00
1167.553, 36440.00
1168.642, 36521.00
1169.730, 36435.64
1170.818, 36429.00
1171.906, 36326.00
1172.994, 36335.00
1174.082, 36304.00
1175.170, 36394.00
1176.257, 36483.00
1177.344, 36269.00
1178.431, 36156.00
1179.518, 36013.00
1180.605, 35997.30
1181.691, 35917.71
1182.778, 35979.00
1183.864, 35863.00
1184.950, 35721.00
1186.036, 35715.00
1187.122, 36041.00
1188.207, 35905.00
1189.292, 35889.86
1190.378, 35650.00
1191.463, 35566.00
1192.548, 35572.00
1193.632, 35235.00
1194.717, 35360.00
1195.801, 35422.00
1196.886, 35366.00
1197.970, 35445.00
1199.054, 34984.00
1200.137, 35371.00
1201.221, 35147.00
1202.305, 35151.00
1203.388, 35231.00
1204.471, 35158.00
1205.554, 35263.00
1206.637, 35071.00
1207.719, 35311.00
1208.802, 35018.00
1209.884, 34979.00
1210.966, 35003.00
1212.048, 35031.00
1213.130, 35098.00
1214.212, 35223.00
1215.293, 35085.00
1216.374, 35130.00
1217.456, 35132.00
1218.536, 35081.65
1219.617, 35110.25
1220.698, 35049.00
1221.778, 35145.00
1222.859, 35142.41
1223.939, 35241.57
1225.019, 35325.00
1226.099, 35306.00
1227.178, 35200.00
1228.258, 35109.00
1229.337, 35127.00
1230.417, 34921.00
1231.496, 35242.00
1232.574, 35180.00
1233.653, 35213.00
1234.732, 35449.00
1235.810, 35311.00
1236.888, 35562.00
1237.966, 35297.00
1239.044, 35773.00
1240.122, 35581.00
1241.199, 35350.00
1242.277, 35333.00
1243.354, 35412.00
1244.431, 35442.00
1245.508, 35496.00
1246.585, 35405.00
1247.661, 35710.00
1248.738, 35761.00
1249.814, 35366.00
1250.890, 35734.00
1251.966, 35563.00
1253.042, 35350.00
1254.117, 35578.00
1255.193, 35629.00
1256.268, 35416.00
1257.343, 35391.00
1258.418, 35602.00
1259.493, 35619.00
1260.567, 35518.00
1261.642, 35659.00
1262.716, 35833.00
1263.790, 35878.00
1264.864, 35876.00
1265.938, 35943.00
1267.011, 35621.00
1268.085, 36056.00
1269.158, 36040.00
1270.231, 35727.00
1271.304, 36105.00
1272.377, 35929.00
1273.450, 36173.00
1274.522, 36254.00
1275.594, 36126.00
1276.666, 36147.00
1277.738, 35991.00
1278.810, 36186.00
1279.882, 35882.00
1280.953, 35936.00
1282.025, 35727.00
1283.096, 36007.00
1284.167, 35919.00
1285.238, 36068.00
1286.308, 35918.00
1287.379, 36022.50
1288.449, 35995.00
1289.519, 36163.00
1290.589, 36086.00
1291.659, 36157.00
1292.729, 35969.00
1293.798, 36258.00
1294.868, 36162.00
1295.937, 36520.00
1297.006, 36292.00
1298.075, 36183.00
1299.143, 36157.00
1300.212, 36068.00
1301.280, 36109.00
1302.348, 36022.00
1303.416, 36268.00
1304.484, 36463.00
1305.552, 36481.00
1306.620, 36319.00
1307.687, 36472.00
1308.754, 36583.00
1309.821, 36314.00
1310.888, 36417.00
1311.955, 36390.00
1313.021, 36433.00
1314.088, 36471.40
1315.154, 36409.00
1316.220, 36523.00
1317.286, 36612.00
1318.352, 36628.00
1319.417, 36583.70
1320.483, 36513.00
1321.548, 36347.00
1322.613, 36486.00
1323.678, 36294.00
1324.743, 36653.00
1325.807, 36575.00
1326.872, 36275.00
1327.936, 36408.00
1329.000, 36290.00
1330.064, 36545.00
1331.128, 36209.00
1332.191, 36224.00
1333.255, 36472.00
1334.318, 36325.00
1335.381, 36250.00
1336.444, 36151.00
1337.507, 36211.00
1338.569, 36305.00
1339.632, 36139.00
1340.694, 36497.00
1341.756, 36137.00
1342.818, 36388.00
1343.880, 36278.00
1344.941, 36258.00
1346.003, 36443.00
1347.064, 36455.00
1348.125, 36250.00
1349.186, 36321.00
1350.247, 36362.00
1351.308, 36286.00
1352.368, 36425.00
1353.428, 36214.00
1354.489, 36218.00
1355.549, 36116.00
1356.608, 36371.00
1357.668, 36365.00
1358.727, 36271.00
1359.787, 36239.00
1360.846, 36279.00
1361.905, 36437.00
1362.964, 36324.00
1364.022, 36576.00
1365.081, 36396.00
1366.139, 36545.00
1367.197, 36408.00
1368.255, 36300.00
1369.313, 36191.00
1370.371, 36460.00
1371.428, 36599.00
1372.486, 36639.00
1373.543, 36565.00
1374.600, 36771.00
1375.657, 36594.00
1376.713, 36648.00
1377.770, 36544.00
1378.826, 36632.00
1379.882, 36780.00
1380.938, 36427.00
1381.994, 36398.00
