##NAMES=Clinozoisite
##RRUFFID=R060284
##IDEAL CHEMISTRY=Ca_2_Al_3_(Si_2_O_7_)(SiO_4_)O(OH)
##LOCALITY=near Zagi Mountain, Khaffor Dehri, North-West Frontier Province, Pakistan
##OWNER=RRUFF
##SOURCE=Herb Obodda
##DESCRIPTION=Greenish-brown fragment of a prismatic crystal
##STATUS=The identification of this mineral has been confirmed by X-ray diffraction and chemical analysis
##URL=rruff.info/R060284
##MEASURED CHEMISTRY=Ca_2.00_(Al_0.90_Fe^3+^_0.10_)_3_(Si_1.00_O_4_)(Si_2.00_O_7_)O(OH)
##PIN_ID=L01751
##ORIENTATION=Laser parallel to (1 0 1). Fiducial mark perpendicular to laser is parallel to -b [0 -1 0]
118.1340, 14167.00
119.3650, 14076.00
120.5960, 14296.00
121.8270, 14279.00
123.0580, 14455.00
124.2880, 14741.00
125.5190, 14763.00
126.7490, 14944.00
127.9790, 15241.00
129.2090, 15384.00
130.4390, 15721.00
131.6680, 16205.00
132.8980, 16557.00
134.1270, 17030.00
135.3560, 17596.00
136.5850, 17999.00
137.8140, 18643.00
139.0430, 19356.00
140.2710, 19899.00
141.5000, 20527.00
142.7280, 20755.00
143.9560, 21168.00
145.1840, 21264.00
146.4120, 21674.00
147.6390, 21612.00
148.8670, 21758.00
150.0940, 21706.00
151.3210, 21743.00
152.5490, 21738.00
153.7750, 21727.00
155.0020, 21818.00
156.2290, 21885.00
157.4550, 22171.00
158.6810, 22162.00
159.9080, 22371.00
161.1340, 22483.00
162.3590, 22824.00
163.5850, 23248.00
164.8110, 23734.00
166.0360, 23910.00
167.2610, 23935.00
168.4860, 23748.00
169.7110, 23991.00
170.9360, 23817.00
172.1610, 23689.00
173.3850, 23157.00
174.6100, 22500.00
175.8340, 21599.00
177.0580, 20950.00
178.2820, 20275.00
179.5050, 19760.00
180.7290, 19183.00
181.9520, 18625.00
183.1760, 18160.00
184.3990, 17759.18
185.6220, 17431.41
186.8450, 17179.00
188.0670, 16965.00
189.2900, 16900.00
190.5120, 16779.00
191.7340, 16733.85
192.9560, 16606.00
194.1780, 16761.00
195.4000, 16826.00
196.6220, 16963.00
197.8430, 16801.00
199.0640, 17002.00
200.2860, 17109.00
201.5070, 17481.00
202.7270, 17700.00
203.9480, 17803.00
205.1690, 17956.00
206.3890, 18074.00
207.6090, 17994.00
208.8290, 18276.00
210.0490, 18473.00
211.2690, 18527.00
212.4890, 18803.00
213.7080, 18948.00
214.9280, 19068.00
216.1470, 18962.00
217.3660, 19102.00
218.5850, 19249.00
219.8030, 19321.00
221.0220, 19395.00
222.2400, 19705.00
223.4590, 20062.00
224.6770, 20224.00
225.8950, 20750.00
227.1120, 21448.00
228.3300, 21864.00
229.5480, 22769.00
230.7650, 23707.00
231.9820, 24486.00
233.1990, 25327.00
234.4160, 26101.00
235.6330, 26736.00
236.8490, 27248.00
238.0660, 27679.00
239.2820, 28180.00
240.4980, 28419.00
241.7140, 28873.00
242.9300, 29213.00
244.1460, 29964.00
245.3610, 31014.00
246.5770, 31852.00
247.7920, 32927.00
249.0070, 34303.00
250.2220, 35591.00
251.4370, 36463.00
252.6510, 37132.00
253.8660, 37492.00
255.0800, 37599.00
256.2940, 37238.00
257.5080, 36384.00
258.7220, 35941.00
259.9360, 34429.00
261.1490, 32907.00
262.3630, 31660.00
263.5760, 30608.00
264.7890, 29934.00
266.0020, 29593.00
267.2150, 29297.00
268.4270, 29251.00
269.6400, 29199.00
270.8520, 29263.00
272.0640, 29821.00
273.2760, 29629.00
274.4880, 29505.00
275.7000, 29225.00
276.9120, 28553.00
278.1230, 27949.00
279.3340, 27324.00
280.5450, 26453.00
281.7560, 25758.00
282.9670, 25002.00
284.1780, 24319.00
285.3880, 24027.00
286.5980, 23634.00
287.8090, 23443.00
289.0190, 23200.00
290.2290, 23051.00
291.4380, 22967.00
292.6480, 22846.00
293.8570, 22697.00
295.0670, 22675.00
296.2760, 22680.00
297.4850, 22654.00
298.6930, 22551.00
299.9020, 22721.00
301.1110, 22576.00
302.3190, 22632.00
303.5270, 22561.00
304.7350, 22615.00
305.9430, 22581.00
307.1510, 22603.00
308.3580, 22810.00
309.5660, 22748.00
310.7730, 22692.00
311.9800, 23011.00
313.1870, 23090.00
314.3940, 23014.00
315.6010, 23243.00
316.8070, 23169.00
318.0130, 23556.00
319.2200, 23530.00
320.4260, 23871.00
321.6310, 24207.00
322.8370, 24396.00
324.0430, 24652.00
325.2480, 24970.00
326.4540, 25501.00
327.6590, 26349.00
328.8640, 26787.00
330.0680, 27588.00
331.2730, 28557.00
332.4780, 29274.00
333.6820, 30503.00
334.8860, 31345.00
336.0900, 32273.00
337.2940, 33431.00
338.4980, 34499.00
339.7010, 35344.00
340.9050, 36607.00
342.1080, 37761.00
343.3110, 38794.00
344.5140, 40281.00
345.7170, 41850.00
346.9200, 42905.00
348.1220, 44821.00
349.3240, 45892.00
350.5270, 46445.00
351.7290, 46338.00
352.9310, 45634.89
354.1320, 44264.00
355.3340, 42458.00
356.5350, 40016.00
357.7370, 37004.00
358.9380, 34482.00
360.1390, 31815.00
361.3400, 29598.00
362.5400, 27775.00
363.7410, 26508.00
364.9410, 25602.00
366.1410, 24140.00
367.3410, 23730.00
368.5410, 23017.00
369.7410, 22766.00
370.9400, 22292.00
372.1400, 21489.00
373.3390, 21313.00
374.5380, 21091.00
375.7370, 20883.00
376.9360, 20739.00
378.1350, 20580.22
379.3330, 20468.00
380.5310, 20426.00
381.7300, 20426.00
382.9280, 20561.00
384.1260, 20653.00
385.3230, 20890.00
386.5210, 21406.00
387.7180, 21691.00
388.9160, 21918.00
390.1130, 21926.00
391.3100, 21972.00
392.5060, 21960.00
393.7030, 21739.00
394.9000, 21772.00
396.0960, 21681.00
397.2920, 21705.00
398.4880, 21453.00
399.6840, 20926.00
400.8800, 20886.00
402.0750, 20495.00
403.2710, 20078.00
404.4660, 19705.00
405.6610, 19601.00
406.8560, 19374.00
408.0510, 19046.00
409.2450, 19005.00
410.4400, 19286.00
411.6340, 19235.00
412.8280, 19628.00
414.0220, 19883.00
415.2160, 20199.00
416.4100, 20958.00
417.6030, 21713.00
418.7970, 22290.00
419.9900, 23248.00
421.1830, 24290.00
422.3760, 25362.00
423.5690, 26558.00
424.7610, 27672.00
425.9540, 28701.00
427.1460, 29335.00
428.3380, 30113.00
429.5300, 30308.00
430.7220, 30217.00
431.9140, 29957.00
433.1050, 29993.00
434.2970, 30045.00
435.4880, 30082.00
436.6790, 30410.00
437.8700, 31167.00
439.0610, 32205.00
440.2510, 33463.00
441.4420, 35309.00
442.6320, 37755.00
443.8220, 40712.00
445.0120, 43353.00
446.2020, 46571.00
447.3910, 49993.00
448.5810, 53260.00
449.7700, 56124.00
450.9600, 58477.00
452.1490, 59886.00
453.3370, 60663.00
454.5260, 60135.00
455.7150, 58977.00
456.9030, 57190.00
458.0910, 54948.00
459.2800, 52054.00
460.4670, 49451.00
461.6550, 47059.00
462.8430, 45086.00
464.0300, 43443.00
465.2180, 42359.00
466.4050, 41536.00
467.5920, 41036.00
468.7790, 40405.00
469.9650, 40335.00
471.1520, 40225.00
472.3380, 39826.00
473.5250, 39478.00
474.7110, 39576.00
475.8970, 39162.00
477.0820, 39103.00
478.2680, 39215.00
479.4540, 38615.00
480.6390, 38427.00
481.8240, 38344.00
483.0090, 37847.00
484.1940, 37335.00
485.3780, 36915.00
486.5630, 35968.00
487.7470, 34666.00
488.9320, 33673.00
490.1160, 32377.00
491.3000, 31260.00
492.4830, 30217.00
493.6670, 29187.00
494.8500, 28235.00
496.0340, 27906.00
497.2170, 27149.00
498.4000, 26916.00
499.5820, 27066.00
500.7650, 26833.00
501.9480, 27224.00
503.1300, 27539.00
504.3120, 27789.00
505.4940, 28109.00
506.6760, 28491.00
507.8580, 28469.00
509.0390, 28503.00
510.2210, 29011.00
511.4020, 29056.00
512.5830, 28936.00
513.7640, 28932.00
514.9450, 28800.00
516.1250, 29151.00
517.3060, 28828.00
518.4860, 29230.00
519.6660, 29036.00
520.8460, 29105.00
522.0260, 28718.00
523.2060, 28571.00
524.3850, 28311.00
525.5650, 28077.00
526.7440, 28137.00
527.9230, 27655.00
529.1020, 27492.00
530.2810, 26893.00
531.4590, 26405.00
532.6380, 25680.00
533.8160, 24942.00
534.9940, 24139.00
536.1720, 23409.00
537.3500, 22526.00
538.5270, 22030.00
539.7050, 21634.00
540.8820, 21508.00
542.0590, 21311.00
543.2360, 21146.00
544.4130, 20887.00
545.5900, 20770.00
546.7660, 20959.00
547.9430, 20957.00
549.1190, 21185.00
550.2950, 21289.00
551.4710, 21753.00
552.6470, 21703.00
553.8220, 22313.00
554.9980, 22553.00
556.1730, 23426.00
557.3480, 24346.00
558.5230, 25006.00
559.6980, 26433.00
560.8730, 27775.00
562.0470, 30001.00
563.2220, 32541.00
564.3960, 35467.00
565.5700, 38755.00
566.7440, 42826.00
567.9170, 45953.00
569.0910, 49140.00
570.2640, 51617.00
571.4380, 51863.00
572.6110, 50782.00
573.7840, 48344.00
574.9570, 44708.00
576.1290, 40595.00
577.3020, 36214.00
578.4740, 32595.00
579.6460, 29902.00
580.8180, 27964.00
581.9900, 26914.00
583.1620, 26305.00
584.3330, 26017.00
585.5040, 25985.00
586.6760, 26311.00
587.8470, 26715.00
589.0180, 27224.00
590.1880, 27911.00
591.3590, 28450.00
592.5290, 29106.00
593.7000, 30184.00
594.8700, 30859.00
596.0400, 31830.00
597.2090, 32552.00
598.3790, 33707.00
599.5490, 34881.00
600.7180, 35915.00
601.8870, 36550.00
603.0560, 37353.00
604.2250, 37573.00
605.3940, 37302.00
606.5620, 37009.00
607.7300, 35908.00
608.8990, 34974.00
610.0670, 33746.00
611.2350, 32134.00
612.4020, 30839.00
613.5700, 29529.00
614.7370, 28498.00
615.9050, 27346.00
617.0720, 26711.00
618.2390, 25689.00
619.4060, 25076.00
620.5720, 24342.00
621.7390, 23413.00
622.9050, 22856.00
624.0710, 22355.00
625.2370, 22061.00
626.4030, 21441.00
627.5690, 21220.00
628.7340, 20958.00
629.9000, 20769.00
631.0650, 20603.47
632.2300, 20449.95
633.3950, 20349.00
634.5600, 20240.00
635.7240, 20169.86
636.8890, 20116.00
638.0530, 20062.00
639.2170, 19976.00
640.3810, 19985.00
641.5450, 20159.00
642.7080, 20178.00
643.8720, 20175.00
645.0350, 20429.00
646.1980, 20484.00
647.3610, 20644.00
648.5240, 20850.00
649.6870, 21098.73
650.8490, 21582.00
652.0120, 21774.00
653.1740, 22081.00
654.3360, 22528.00
655.4980, 22702.00
656.6600, 22708.00
657.8210, 22761.00
658.9830, 22721.00
660.1440, 22619.00
661.3050, 22484.00
662.4660, 22207.00
663.6270, 22136.00
664.7870, 21895.00
665.9480, 21623.00
667.1080, 21515.00
668.2680, 21304.00
669.4280, 21374.00
670.5880, 21059.00
671.7480, 21215.00
672.9070, 21148.00
674.0670, 20906.00
675.2260, 20940.00
676.3850, 20849.00
677.5440, 21028.00
678.7030, 21151.00
679.8610, 21393.00
681.0200, 21558.00
682.1780, 21693.00
683.3360, 21760.00
684.4940, 21917.00
685.6520, 21904.00
686.8090, 21963.00
687.9670, 22002.16
689.1240, 21986.00
690.2810, 22059.00
691.4380, 21984.00
692.5950, 22059.00
693.7520, 22188.00
694.9080, 22374.00
696.0650, 22484.00
697.2210, 22568.69
698.3770, 22548.00
699.5330, 22694.00
700.6880, 22612.00
701.8440, 22662.00
702.9990, 22623.00
704.1550, 22276.00
705.3100, 21939.00
706.4650, 21846.00
707.6190, 21771.00
708.7740, 21221.00
709.9290, 20938.00
711.0830, 20683.00
712.2370, 20298.00
713.3910, 20257.00
714.5450, 19980.00
715.6980, 19731.00
716.8520, 19563.00
718.0050, 19729.00
719.1580, 19325.00
720.3110, 19440.00
721.4640, 19239.00
722.6170, 19272.00
723.7700, 19055.00
724.9220, 19255.00
726.0740, 19081.00
727.2260, 19228.00
728.3780, 19206.00
729.5300, 19265.00
730.6810, 18954.00
731.8330, 19143.00
732.9840, 19036.00
734.1350, 19130.00
735.2860, 19093.00
736.4370, 18971.00
737.5880, 19198.00
738.7380, 19046.00
739.8880, 19047.00
741.0390, 18998.00
742.1890, 19105.00
743.3380, 18944.00
744.4880, 18948.00
745.6380, 19107.00
746.7870, 18890.00
747.9360, 19100.00
749.0850, 19052.00
750.2340, 18908.00
751.3830, 18976.00
752.5310, 18969.00
753.6800, 19219.00
754.8280, 18925.00
755.9760, 19044.00
757.1240, 19144.00
758.2720, 18855.00
759.4190, 19067.00
760.5670, 19074.00
761.7140, 19095.00
762.8610, 19189.00
764.0080, 18954.00
765.1550, 19013.00
766.3020, 19310.00
767.4480, 19030.00
768.5950, 19270.00
769.7410, 19205.00
770.8870, 19283.00
772.0330, 19171.00
773.1780, 19289.00
774.3240, 19145.00
775.4690, 19188.00
776.6140, 19215.00
777.7590, 19318.00
778.9040, 19161.00
780.0490, 19549.00
781.1940, 19407.00
782.3380, 19519.00
783.4820, 19367.00
784.6260, 19518.00
785.7700, 19392.00
786.9140, 19459.00
788.0580, 19585.00
789.2010, 19566.00
790.3450, 19688.00
791.4880, 19581.00
792.6310, 19776.00
793.7730, 19611.00
794.9160, 19910.00
796.0590, 19848.00
797.2010, 19844.00
798.3430, 19786.00
799.4850, 19799.00
800.6270, 19792.00
801.7690, 19887.58
802.9100, 19870.00
804.0520, 20069.00
805.1930, 20258.00
806.3340, 20219.00
807.4750, 20412.00
808.6160, 20437.00
809.7560, 20443.00
810.8970, 20510.00
812.0370, 20591.00
813.1770, 20709.00
814.3170, 20739.00
815.4570, 20903.00
816.5960, 20877.00
817.7360, 21090.00
818.8750, 21210.00
820.0140, 21412.00
821.1530, 21393.00
822.2920, 21478.00
823.4310, 21923.00
824.5690, 21821.00
825.7070, 22084.00
826.8460, 22036.00
827.9840, 22196.00
829.1220, 22301.00
830.2590, 22505.00
831.3970, 22683.00
832.5340, 22547.00
833.6710, 22992.00
834.8080, 22918.00
835.9450, 23355.00
837.0820, 23198.00
838.2190, 23354.00
839.3550, 23480.00
840.4910, 23719.00
841.6270, 23811.00
842.7630, 24011.91
843.8990, 24178.51
845.0350, 24385.00
846.1700, 24526.00
847.3060, 24740.00
848.4410, 24945.00
849.5760, 25363.00
850.7100, 25618.00
851.8450, 26126.00
852.9800, 26305.00
854.1140, 26872.00
855.2480, 27342.00
856.3820, 27658.00
857.5160, 28311.00
858.6500, 29054.00
859.7830, 29563.00
860.9170, 30451.00
862.0500, 31441.00
863.1830, 31771.00
864.3160, 33017.00
865.4480, 34051.00
866.5810, 35219.00
867.7130, 36439.00
868.8460, 37554.00
869.9780, 38642.00
871.1100, 39729.00
872.2410, 40747.00
873.3730, 41857.00
874.5050, 42785.15
875.6360, 43504.00
876.7670, 44611.00
877.8980, 45325.00
879.0290, 46156.00
880.1590, 46419.00
881.2900, 46784.00
882.4200, 46966.00
883.5500, 47025.00
884.6800, 46762.00
885.8100, 46265.00
886.9400, 46243.00
888.0690, 46323.00
889.1990, 46087.00
890.3280, 46495.00
891.4570, 46773.00
892.5860, 47082.00
893.7140, 47516.00
894.8430, 47914.00
895.9710, 48023.00
897.1000, 47420.00
898.2280, 47684.00
899.3560, 47357.00
900.4830, 46605.00
901.6110, 46413.00
902.7380, 46487.00
903.8660, 46274.00
904.9930, 46508.00
906.1200, 47294.00
907.2460, 48140.00
908.3730, 49180.00
909.5000, 49944.00
910.6260, 50973.00
911.7520, 51665.00
912.8780, 51789.00
914.0040, 52125.00
915.1290, 51631.00
916.2550, 50872.00
917.3800, 50211.00
918.5050, 48780.00
919.6300, 47447.00
920.7550, 46563.00
921.8800, 45111.00
923.0040, 44166.00
924.1290, 42952.00
925.2530, 41906.00
926.3770, 40764.00
927.5010, 39903.00
928.6250, 38816.00
929.7480, 37967.00
930.8720, 37292.00
931.9950, 36234.00
933.1180, 35270.00
934.2410, 34563.00
935.3640, 33301.00
936.4860, 32609.00
937.6090, 31318.00
938.7310, 30965.00
939.8530, 29919.00
940.9750, 29272.00
942.0970, 28942.00
943.2180, 28060.00
944.3400, 27355.00
945.4610, 27086.00
946.5820, 26761.00
947.7030, 26570.00
948.8240, 26378.00
949.9450, 26202.61
951.0650, 26054.42
952.1860, 26007.00
953.3060, 25780.00
954.4260, 25808.00
955.5460, 25683.00
956.6650, 25815.00
957.7850, 25741.00
958.9040, 25965.00
960.0230, 25929.00
961.1420, 26146.00
962.2610, 26109.00
963.3800, 26112.00
964.4990, 26141.00
965.6170, 26245.00
966.7350, 26458.00
967.8530, 26516.10
968.9710, 26316.00
970.0890, 26781.00
971.2070, 27007.00
972.3240, 27212.00
973.4410, 27911.00
974.5580, 28364.00
975.6750, 29206.00
976.7920, 29886.00
977.9090, 30857.00
979.0250, 32128.00
980.1410, 33380.00
981.2580, 34574.00
982.3740, 35536.00
983.4890, 36858.00
984.6050, 37152.00
985.7200, 36942.00
986.8360, 36564.00
987.9510, 35828.00
989.0660, 34893.00
990.1810, 33410.00
991.2950, 32212.00
992.4100, 30864.00
993.5240, 29717.00
994.6390, 28509.00
995.7530, 27765.00
996.8660, 27257.00
997.9800, 27003.00
999.0940, 26056.00
1000.207, 25845.00
1001.320, 25433.00
1002.433, 25276.00
1003.546, 25190.00
1004.659, 24788.00
1005.772, 24588.00
1006.884, 24351.00
1007.996, 24305.00
1009.108, 24169.00
1010.220, 24108.00
1011.332, 24034.00
1012.444, 24276.00
1013.555, 24231.00
1014.666, 24096.00
1015.777, 24367.00
1016.888, 24240.00
1017.999, 24531.00
1019.110, 24636.00
1020.220, 24824.00
1021.331, 25168.00
1022.441, 25400.00
1023.551, 25589.00
1024.661, 25853.00
1025.770, 26322.00
1026.880, 26676.00
1027.989, 26879.00
1029.098, 27066.01
1030.207, 27068.00
1031.316, 27172.00
1032.425, 27113.00
1033.533, 27075.00
1034.642, 26766.00
1035.750, 26568.00
1036.858, 26778.00
1037.966, 26493.00
1039.073, 26625.00
1040.181, 26374.00
1041.288, 26596.00
1042.396, 26816.00
1043.503, 26566.00
1044.610, 26783.00
1045.716, 26749.00
1046.823, 26724.00
1047.929, 26821.00
1049.036, 26481.00
1050.142, 26699.00
1051.248, 26532.00
1052.353, 26515.00
1053.459, 26068.00
1054.564, 25896.00
1055.670, 25908.00
1056.775, 25715.00
1057.880, 25487.00
1058.985, 25532.00
1060.089, 25372.00
1061.194, 25104.00
1062.298, 25196.00
1063.402, 25093.00
1064.506, 24910.00
1065.610, 25092.00
1066.713, 24878.00
1067.817, 24999.00
1068.920, 25300.00
1070.023, 25344.00
1071.126, 25318.00
1072.229, 25652.00
1073.332, 25690.00
1074.435, 26063.00
1075.537, 26258.00
1076.639, 26567.00
1077.741, 26795.00
1078.843, 27262.00
1079.945, 27781.00
1081.046, 28244.00
1082.148, 29013.00
1083.249, 29809.00
1084.350, 30659.00
1085.451, 31622.00
1086.551, 32688.00
1087.652, 34069.00
1088.752, 35480.00
1089.853, 36923.00
1090.953, 38332.00
1092.053, 39584.00
1093.152, 39872.00
1094.252, 40049.00
1095.351, 39375.00
1096.451, 37769.00
1097.550, 36061.00
1098.649, 34153.00
1099.748, 32516.00
1100.846, 30820.00
1101.945, 29612.00
1103.043, 28397.00
1104.141, 27645.00
1105.239, 27346.00
1106.337, 26762.00
1107.434, 26608.00
1108.532, 26554.00
1109.629, 26385.00
1110.726, 26186.00
1111.823, 26159.00
1112.920, 26011.40
1114.017, 25902.00
1115.113, 25788.00
1116.210, 25779.00
1117.306, 25570.00
1118.402, 25772.00
1119.498, 25496.00
1120.593, 25740.00
1121.689, 25524.00
1122.784, 25559.00
1123.879, 25666.00
1124.974, 25577.00
1126.069, 25400.00
1127.164, 25106.00
1128.259, 24906.00
1129.353, 24846.00
1130.447, 24724.00
1131.541, 24775.00
1132.635, 24819.00
1133.729, 24683.00
1134.822, 24658.00
1135.916, 24642.00
1137.009, 24630.00
1138.102, 24589.92
1139.195, 24558.51
1140.288, 24532.00
1141.380, 24511.00
1142.473, 24525.00
1143.565, 24588.00
1144.657, 24526.00
1145.749, 24538.00
1146.841, 24411.00
1147.932, 24472.00
1149.024, 24641.00
1150.115, 24463.00
1151.206, 24636.00
1152.297, 24656.00
1153.388, 24487.00
1154.479, 24321.00
1155.569, 24555.00
1156.659, 24565.00
1157.750, 24690.00
1158.839, 24647.00
1159.929, 24529.00
1161.019, 24507.00
1162.108, 24511.00
1163.198, 24644.00
1164.287, 24631.56
1165.376, 24534.00
1166.465, 24690.00
1167.553, 24638.00
1168.642, 24605.00
1169.730, 24699.00
1170.818, 24727.00
1171.906, 24625.00
1172.994, 24713.00
1174.082, 24710.00
1175.170, 24781.00
1176.257, 24494.00
1177.344, 24762.00
1178.431, 24402.00
1179.518, 24555.00
1180.605, 24541.00
1181.691, 24536.00
1182.778, 24811.00
1183.864, 24682.00
1184.950, 24637.00
1186.036, 24622.00
1187.122, 24960.00
1188.207, 24730.00
1189.292, 24685.00
1190.378, 24450.00
1191.463, 24870.00
1192.548, 24812.00
1193.632, 25009.00
1194.717, 24731.00
1195.801, 24644.00
1196.886, 24935.00
1197.970, 24807.00
1199.054, 24922.00
1200.137, 24757.00
1201.221, 24886.00
1202.305, 24873.00
1203.388, 24809.00
1204.471, 24795.00
1205.554, 24840.00
1206.637, 24878.00
1207.719, 24951.00
1208.802, 24798.00
1209.884, 24886.00
1210.966, 24696.00
1212.048, 24861.00
1213.130, 24795.00
1214.212, 24814.00
1215.293, 24982.00
1216.374, 25022.00
1217.456, 24926.00
1218.536, 25062.00
1219.617, 24841.00
1220.698, 24948.00
1221.778, 25061.00
1222.859, 25019.00
1223.939, 25109.00
1225.019, 25144.00
1226.099, 24815.00
1227.178, 24854.00
1228.258, 24921.00
1229.337, 24817.00
1230.417, 24843.00
1231.496, 25009.00
1232.574, 25167.00
1233.653, 24927.00
1234.732, 24965.00
1235.810, 25099.00
1236.888, 25016.00
1237.966, 25215.00
1239.044, 25097.00
1240.122, 25075.00
1241.199, 24993.00
1242.277, 25113.00
1243.354, 25180.00
1244.431, 25193.00
1245.508, 25132.00
1246.585, 25110.00
1247.661, 24932.00
1248.738, 25038.00
1249.814, 25133.00
1250.890, 25063.00
1251.966, 25298.00
1253.042, 25205.00
1254.117, 25215.00
1255.193, 25139.00
1256.268, 25363.00
1257.343, 25059.00
1258.418, 25099.00
1259.493, 25336.00
1260.567, 25330.00
1261.642, 25216.00
1262.716, 25235.00
1263.790, 25354.00
1264.864, 25356.00
1265.938, 25344.00
1267.011, 25293.00
1268.085, 25403.00
1269.158, 25219.00
1270.231, 25520.00
1271.304, 25438.00
1272.377, 25340.00
1273.450, 25619.00
1274.522, 25630.00
1275.594, 25389.00
1276.666, 25379.00
1277.738, 25448.00
1278.810, 25616.00
1279.882, 25536.00
1280.953, 25498.00
1282.025, 25461.00
1283.096, 25444.96
1284.167, 25478.30
1285.238, 25481.00
1286.308, 25549.00
1287.379, 25645.00
1288.449, 25620.00
1289.519, 25671.65
1290.589, 25497.00
1291.659, 25631.00
