##NAMES=Clinozoisite
##RRUFFID=R040085
##IDEAL CHEMISTRY=Ca_2_Al_3_(Si_2_O_7_)(SiO_4_)O(OH)
##LOCALITY=Alamos, Sonora, Mexico
##OWNER=RRUFF
##SOURCE=University of Arizona Mineral Museum
##DESCRIPTION=Divergent aggregate of red thin prismatic crystals
##STATUS=The identification of this mineral has been confirmed by X-ray diffraction and chemical analysis
##URL=rruff.info/R040085
##MEASURED CHEMISTRY=Ca_2.03_(Al_0.90_Fe_0.13_)_3_(Si_1.00_O_4_)(Si_2.00_O_7_)O(OH)
##PIN_ID=M00391
##ORIENTATION=Laser parallel to c* (0 0 1). Fiducial mark perpendicular to laser is parallel to a [1 0 0]
178.2820, 22897.00
179.5050, 22978.00
180.7290, 23081.00
181.9520, 23138.00
183.1760, 23281.00
184.3990, 23418.00
185.6220, 23431.00
186.8450, 23613.00
188.0670, 23672.56
189.2900, 23741.00
190.5120, 23904.00
191.7340, 24000.21
192.9560, 24131.34
194.1780, 24273.00
195.4000, 24459.00
196.6220, 24594.00
197.8430, 24886.00
199.0640, 25105.00
200.2860, 25284.00
201.5070, 25454.00
202.7270, 25634.00
203.9480, 25662.00
205.1690, 25912.00
206.3890, 26026.00
207.6090, 26092.00
208.8290, 26385.00
210.0490, 26585.00
211.2690, 26893.00
212.4890, 26799.00
213.7080, 27149.00
214.9280, 26847.00
216.1470, 27133.00
217.3660, 26970.00
218.5850, 27050.00
219.8030, 27398.00
221.0220, 27218.00
222.2400, 27640.00
223.4590, 27544.00
224.6770, 27849.00
225.8950, 27756.00
227.1120, 27938.00
228.3300, 27764.00
229.5480, 27859.00
230.7650, 27874.00
231.9820, 27891.00
233.1990, 27945.00
234.4160, 27831.00
235.6330, 27766.00
236.8490, 28090.00
238.0660, 28209.00
239.2820, 28513.00
240.4980, 29064.00
241.7140, 29589.00
242.9300, 30184.00
244.1460, 31164.00
245.3610, 32207.00
246.5770, 32828.00
247.7920, 33629.00
249.0070, 34169.00
250.2220, 34461.00
251.4370, 34746.00
252.6510, 34869.00
253.8660, 34233.00
255.0800, 33822.00
256.2940, 33375.00
257.5080, 32931.00
258.7220, 32610.00
259.9360, 31898.00
261.1490, 31125.00
262.3630, 30742.00
263.5760, 30974.00
264.7890, 30916.00
266.0020, 31278.00
267.2150, 31649.00
268.4270, 31990.00
269.6400, 32413.00
270.8520, 32768.00
272.0640, 32718.00
273.2760, 32449.00
274.4880, 31641.00
275.7000, 30783.00
276.9120, 29883.00
278.1230, 29021.00
279.3340, 27850.00
280.5450, 27653.00
281.7560, 26767.00
282.9670, 26349.00
284.1780, 25962.00
285.3880, 25813.00
286.5980, 25527.00
287.8090, 25284.00
289.0190, 25485.00
290.2290, 25283.00
291.4380, 25406.00
292.6480, 25451.00
293.8570, 25522.00
295.0670, 25539.00
296.2760, 25720.00
297.4850, 25721.00
298.6930, 25844.00
299.9020, 26186.00
301.1110, 26101.00
302.3190, 26337.00
303.5270, 26434.00
304.7350, 26782.00
305.9430, 26570.00
307.1510, 27049.00
308.3580, 27143.00
309.5660, 27005.00
310.7730, 27195.00
311.9800, 27090.00
313.1870, 27408.00
314.3940, 27483.00
315.6010, 27302.00
316.8070, 27329.00
318.0130, 27170.73
319.2200, 26929.00
320.4260, 26832.00
321.6310, 26780.00
322.8370, 26596.00
324.0430, 26802.00
325.2480, 26609.00
326.4540, 26867.00
327.6590, 26962.00
328.8640, 26783.00
330.0680, 26613.00
331.2730, 26472.00
332.4780, 26491.00
333.6820, 26334.00
334.8860, 26189.00
336.0900, 25938.00
337.2940, 26194.00
338.4980, 26006.00
339.7010, 26229.00
340.9050, 26162.00
342.1080, 25967.00
343.3110, 26026.00
344.5140, 25991.00
345.7170, 25888.00
346.9200, 25912.00
348.1220, 26204.00
349.3240, 26043.00
350.5270, 26194.00
351.7290, 26007.00
352.9310, 26045.00
354.1320, 25998.00
355.3340, 26058.00
356.5350, 26000.00
357.7370, 25629.00
358.9380, 25870.00
360.1390, 25812.00
361.3400, 25599.00
362.5400, 25691.00
363.7410, 25624.00
364.9410, 25780.00
366.1410, 25692.00
367.3410, 25855.00
368.5410, 25675.00
369.7410, 25910.00
370.9400, 26013.00
372.1400, 25980.00
373.3390, 25822.00
374.5380, 25938.00
375.7370, 25954.00
376.9360, 26023.00
378.1350, 26365.00
379.3330, 26353.00
380.5310, 26723.00
381.7300, 27080.00
382.9280, 27322.00
384.1260, 27665.00
385.3230, 28197.00
386.5210, 28356.00
387.7180, 29064.00
388.9160, 29518.24
390.1130, 30317.00
391.3100, 30496.00
392.5060, 30716.00
393.7030, 30826.00
394.9000, 30864.22
396.0960, 31111.00
397.2920, 30764.00
398.4880, 30564.00
399.6840, 30334.00
400.8800, 29646.00
402.0750, 28962.00
403.2710, 28645.00
404.4660, 28581.00
405.6610, 28037.00
406.8560, 27989.00
408.0510, 28152.00
409.2450, 28170.00
410.4400, 28382.00
411.6340, 28974.00
412.8280, 29219.00
414.0220, 30237.00
415.2160, 31138.00
416.4100, 32108.00
417.6030, 33739.00
418.7970, 35325.00
419.9900, 37014.00
421.1830, 38926.00
422.3760, 42919.00
423.5690, 45542.00
424.7610, 44228.00
425.9540, 44237.00
427.1460, 44079.00
428.3380, 43902.00
429.5300, 42688.00
430.7220, 41292.00
431.9140, 39146.00
433.1050, 38305.00
434.2970, 37367.00
435.4880, 36912.00
436.6790, 36906.00
437.8700, 35992.00
439.0610, 37091.00
440.2510, 36514.98
441.4420, 36213.00
442.6320, 36753.00
443.8220, 37440.00
445.0120, 38524.00
446.2020, 40120.00
447.3910, 41877.00
448.5810, 43180.00
449.7700, 43371.34
450.9600, 43549.39
452.1490, 42865.00
453.3370, 42147.00
454.5260, 41278.00
455.7150, 39802.00
456.9030, 38840.00
458.0910, 37299.00
459.2800, 36507.00
460.4670, 35628.00
461.6550, 34921.00
462.8430, 34459.00
464.0300, 33972.00
465.2180, 33594.00
466.4050, 33577.00
467.5920, 33252.00
468.7790, 33326.00
469.9650, 33404.00
471.1520, 33498.00
472.3380, 33870.00
473.5250, 33867.29
474.7110, 34009.72
475.8970, 33985.00
477.0820, 34108.00
478.2680, 34022.00
479.4540, 33980.00
480.6390, 34089.00
481.8240, 34069.00
483.0090, 33928.00
484.1940, 33941.00
485.3780, 33914.00
486.5630, 34079.00
487.7470, 33610.00
488.9320, 33750.00
490.1160, 33747.00
491.3000, 33249.00
492.4830, 33138.00
493.6670, 32875.00
494.8500, 32704.00
496.0340, 32565.00
497.2170, 32529.00
498.4000, 32644.00
499.5820, 32413.00
500.7650, 32521.00
501.9480, 32655.00
503.1300, 32650.00
504.3120, 32669.00
505.4940, 32800.00
506.6760, 32923.00
507.8580, 33045.00
509.0390, 32920.00
510.2210, 33336.00
511.4020, 33569.00
512.5830, 33773.00
513.7640, 33407.00
514.9450, 33734.00
516.1250, 33530.00
517.3060, 33618.00
518.4860, 33625.00
519.6660, 33806.00
520.8460, 33802.00
522.0260, 33931.00
523.2060, 33928.00
524.3850, 34015.00
525.5650, 33955.00
526.7440, 33698.00
527.9230, 33464.00
529.1020, 33031.00
530.2810, 32690.00
531.4590, 32239.00
532.6380, 31687.00
533.8160, 31557.00
534.9940, 31065.00
536.1720, 30613.00
537.3500, 30694.00
538.5270, 30561.00
539.7050, 30773.00
540.8820, 30965.00
542.0590, 30786.00
543.2360, 31034.00
544.4130, 31198.00
545.5900, 31207.00
546.7660, 31415.00
547.9430, 31506.00
549.1190, 31453.00
550.2950, 31995.00
551.4710, 31958.00
552.6470, 32420.00
553.8220, 32946.00
554.9980, 33005.00
556.1730, 33511.00
557.3480, 34293.00
558.5230, 34788.00
559.6980, 35668.00
560.8730, 37226.00
562.0470, 38819.00
563.2220, 41071.00
564.3960, 43635.00
565.5700, 45761.00
566.7440, 48194.00
567.9170, 50068.00
569.0910, 50915.00
570.2640, 50363.00
571.4380, 48731.00
572.6110, 45929.00
573.7840, 43360.00
574.9570, 40411.00
576.1290, 38050.00
577.3020, 35932.00
578.4740, 34148.00
579.6460, 32909.00
580.8180, 32343.00
581.9900, 31753.00
583.1620, 31272.00
584.3330, 31246.00
585.5040, 31227.00
586.6760, 31094.00
587.8470, 31354.00
589.0180, 31515.00
590.1880, 31845.00
591.3590, 32341.00
592.5290, 32663.00
593.7000, 33426.00
594.8700, 34113.00
596.0400, 35567.00
597.2090, 36746.00
598.3790, 37439.00
599.5490, 38295.48
600.7180, 38662.00
601.8870, 39206.00
603.0560, 39519.00
604.2250, 39574.00
605.3940, 39312.68
606.5620, 39115.00
607.7300, 38108.00
608.8990, 37115.00
610.0670, 36061.00
611.2350, 35150.00
612.4020, 34386.00
613.5700, 33494.00
614.7370, 32724.00
615.9050, 31969.00
617.0720, 31416.00
618.2390, 31068.00
619.4060, 31059.00
620.5720, 30996.00
621.7390, 30535.00
622.9050, 30583.00
624.0710, 30374.00
625.2370, 30187.00
626.4030, 29878.00
627.5690, 29738.10
628.7340, 29613.99
629.9000, 29416.00
631.0650, 29449.00
632.2300, 29351.00
633.3950, 29251.00
634.5600, 29144.00
635.7240, 29069.00
636.8890, 28667.00
638.0530, 28880.00
639.2170, 28917.00
640.3810, 28528.00
641.5450, 28938.00
642.7080, 28781.00
643.8720, 28685.00
645.0350, 28733.00
646.1980, 28768.00
647.3610, 28794.20
648.5240, 28969.00
649.6870, 28995.00
650.8490, 29062.00
652.0120, 29307.00
653.1740, 29451.00
654.3360, 29582.00
655.4980, 29809.00
656.6600, 30066.00
657.8210, 30077.00
658.9830, 30222.00
660.1440, 30463.00
661.3050, 30668.00
662.4660, 30836.00
663.6270, 30819.00
664.7870, 30888.00
665.9480, 31011.00
667.1080, 30785.00
668.2680, 30702.00
669.4280, 30547.00
670.5880, 30736.00
671.7480, 30634.00
672.9070, 30603.39
674.0670, 30661.30
675.2260, 30515.00
676.3850, 30645.00
677.5440, 30647.00
678.7030, 30571.00
679.8610, 30348.00
681.0200, 30954.00
682.1780, 30530.00
683.3360, 30674.00
684.4940, 30966.00
685.6520, 30711.00
686.8090, 30852.00
687.9670, 30931.00
689.1240, 30908.00
690.2810, 31264.00
691.4380, 30897.00
692.5950, 31196.00
693.7520, 31015.00
694.9080, 30720.00
696.0650, 31056.00
697.2210, 30956.00
698.3770, 30609.00
699.5330, 30508.00
700.6880, 30287.00
701.8440, 29947.00
702.9990, 29807.69
704.1550, 29606.00
705.3100, 29398.00
706.4650, 29279.00
707.6190, 29117.00
708.7740, 28995.55
709.9290, 28812.00
711.0830, 28777.00
712.2370, 28524.00
713.3910, 28397.00
714.5450, 28385.00
715.6980, 28225.00
716.8520, 28143.00
718.0050, 28139.02
719.1580, 28091.00
720.3110, 28189.00
721.4640, 28136.00
722.6170, 28284.00
723.7700, 27997.00
724.9220, 28079.00
726.0740, 28014.00
727.2260, 28358.00
728.3780, 27880.00
729.5300, 28081.00
730.6810, 28088.00
731.8330, 27929.00
732.9840, 28127.00
734.1350, 28053.00
735.2860, 28129.00
736.4370, 28109.00
737.5880, 28204.00
738.7380, 28074.00
739.8880, 28011.00
741.0390, 28104.00
742.1890, 28200.00
743.3380, 28220.00
744.4880, 28137.00
745.6380, 28050.00
746.7870, 28056.00
747.9360, 28042.77
749.0850, 28088.07
750.2340, 28112.00
751.3830, 28203.00
752.5310, 28266.00
753.6800, 28251.00
754.8280, 28453.00
755.9760, 28237.00
757.1240, 28554.00
758.2720, 28580.00
759.4190, 28462.00
760.5670, 28710.00
761.7140, 28463.00
762.8610, 28513.00
764.0080, 28642.00
765.1550, 28516.00
766.3020, 28606.00
767.4480, 28402.00
768.5950, 28749.00
769.7410, 28832.00
770.8870, 28425.00
772.0330, 28978.00
773.1780, 28703.00
774.3240, 28865.00
775.4690, 28686.00
776.6140, 28975.00
777.7590, 28777.00
778.9040, 29114.00
780.0490, 28951.00
781.1940, 28812.00
782.3380, 29042.00
783.4820, 28998.00
784.6260, 28841.00
785.7700, 28794.00
786.9140, 28800.31
788.0580, 29055.00
789.2010, 28891.00
790.3450, 29088.00
791.4880, 29213.00
792.6310, 29286.00
793.7730, 29178.00
794.9160, 29321.00
796.0590, 29351.00
797.2010, 29412.00
798.3430, 29186.00
799.4850, 29425.00
800.6270, 29496.00
801.7690, 29520.00
802.9100, 29773.00
804.0520, 29496.00
805.1930, 29866.00
806.3340, 29712.00
807.4750, 29906.00
808.6160, 29949.00
809.7560, 30045.00
810.8970, 29864.00
812.0370, 30108.00
813.1770, 30060.00
814.3170, 30495.00
815.4570, 30363.00
816.5960, 30448.00
817.7360, 30794.00
818.8750, 30870.00
820.0140, 30840.00
821.1530, 31134.00
822.2920, 31375.00
823.4310, 31534.00
824.5690, 31952.00
825.7070, 32293.00
826.8460, 32631.00
827.9840, 32420.00
829.1220, 32688.00
830.2590, 32762.00
831.3970, 32976.00
832.5340, 32844.00
833.6710, 33206.00
834.8080, 33111.00
835.9450, 32797.00
837.0820, 32918.00
838.2190, 32870.00
839.3550, 32706.00
840.4910, 32776.00
841.6270, 32574.00
842.7630, 32641.00
843.8990, 32407.00
845.0350, 32568.00
846.1700, 32619.00
847.3060, 32632.00
848.4410, 32819.00
849.5760, 32849.00
850.7100, 32970.00
851.8450, 33151.00
852.9800, 33141.00
854.1140, 33191.00
855.2480, 33506.00
856.3820, 33413.00
857.5160, 33371.00
858.6500, 33579.00
859.7830, 33807.00
860.9170, 34029.00
862.0500, 34246.00
863.1830, 34322.00
864.3160, 34419.00
865.4480, 34875.00
866.5810, 34747.00
867.7130, 35246.00
868.8460, 35508.00
869.9780, 35493.00
871.1100, 35935.00
872.2410, 36142.00
873.3730, 36257.00
874.5050, 36650.00
875.6360, 37076.00
876.7670, 37022.00
877.8980, 36896.00
879.0290, 37085.00
880.1590, 36808.00
881.2900, 36838.00
882.4200, 36446.00
883.5500, 36351.00
884.6800, 36174.21
885.8100, 35852.00
886.9400, 35777.00
888.0690, 35633.00
889.1990, 35359.00
890.3280, 35332.00
891.4570, 35366.00
892.5860, 35364.00
893.7140, 35361.00
894.8430, 35698.00
895.9710, 35706.00
897.1000, 35841.00
898.2280, 36105.00
899.3560, 36536.00
900.4830, 36996.00
901.6110, 37527.00
902.7380, 37873.00
903.8660, 38234.00
904.9930, 38829.00
906.1200, 39190.00
907.2460, 39865.00
908.3730, 40258.00
909.5000, 41152.00
910.6260, 41206.00
911.7520, 41978.00
912.8780, 42636.00
914.0040, 42559.00
915.1290, 43284.00
916.2550, 43791.00
917.3800, 43966.00
918.5050, 44341.00
919.6300, 44216.00
920.7550, 44387.00
921.8800, 44197.00
923.0040, 44041.00
924.1290, 43927.00
925.2530, 43851.00
926.3770, 43546.00
927.5010, 43572.00
928.6250, 43318.00
929.7480, 43189.00
930.8720, 42951.00
931.9950, 42808.00
933.1180, 42426.00
934.2410, 42366.00
935.3640, 41849.00
936.4860, 41397.00
937.6090, 41248.00
938.7310, 40866.00
939.8530, 40602.00
940.9750, 40447.00
942.0970, 40076.27
943.2180, 39810.00
944.3400, 39474.00
945.4610, 39223.00
946.5820, 38941.00
947.7030, 38724.18
948.8240, 38588.00
949.9450, 38397.00
951.0650, 38307.00
952.1860, 38289.44
953.3060, 38312.00
954.4260, 38301.00
955.5460, 38522.00
956.6650, 38642.00
957.7850, 38843.00
958.9040, 38574.00
960.0230, 38674.00
961.1420, 38545.00
962.2610, 38499.00
963.3800, 38403.00
964.4990, 38332.00
965.6170, 38167.00
966.7350, 37664.00
967.8530, 37933.00
968.9710, 37731.00
970.0890, 37772.00
971.2070, 37977.00
972.3240, 37930.00
973.4410, 38146.00
974.5580, 38217.00
975.6750, 38524.00
976.7920, 38859.00
977.9090, 39368.00
979.0250, 40213.00
980.1410, 40768.00
981.2580, 41476.00
982.3740, 41733.00
983.4890, 41839.00
984.6050, 41641.00
985.7200, 41388.00
986.8360, 40807.00
987.9510, 40268.00
989.0660, 39630.00
990.1810, 39070.00
991.2950, 38230.00
992.4100, 37855.00
993.5240, 37354.00
994.6390, 37167.00
995.7530, 36596.00
996.8660, 36442.00
997.9800, 36383.00
999.0940, 36035.00
1000.207, 36142.00
1001.320, 36129.00
1002.433, 35695.00
1003.546, 35571.00
1004.659, 35469.00
1005.772, 35060.00
1006.884, 35052.00
1007.996, 35092.00
1009.108, 34931.00
1010.220, 34937.00
1011.332, 34875.00
1012.444, 35056.00
1013.555, 34883.00
1014.666, 35037.00
1015.777, 34884.00
1016.888, 35112.00
1017.999, 34809.00
1019.110, 35203.00
1020.220, 35025.00
1021.331, 35023.00
1022.441, 35162.00
1023.551, 35242.00
1024.661, 35351.00
1025.770, 35591.00
1026.880, 35531.00
1027.989, 35749.00
1029.098, 35714.00
1030.207, 35696.00
1031.316, 35909.00
1032.425, 35897.00
1033.533, 36057.00
1034.642, 36145.00
1035.750, 36364.00
1036.858, 36484.00
1037.966, 36623.00
1039.073, 36710.00
1040.181, 36945.00
1041.288, 36804.00
1042.396, 37161.00
1043.503, 37257.00
1044.610, 37527.00
1045.716, 37416.00
1046.823, 37784.00
1047.929, 37601.00
1049.036, 38008.00
1050.142, 37701.00
1051.248, 37432.00
1052.353, 37793.00
1053.459, 37734.00
1054.564, 37207.00
1055.670, 37465.00
1056.775, 37578.00
1057.880, 37373.00
1058.985, 37258.00
1060.089, 37393.00
1061.194, 37661.00
1062.298, 38056.00
1063.402, 37865.00
1064.506, 38314.00
1065.610, 38540.00
1066.713, 38749.00
1067.817, 39146.00
1068.920, 39267.00
1070.023, 39773.00
1071.126, 40233.00
1072.229, 40746.00
1073.332, 41315.60
1074.435, 42029.00
1075.537, 42527.00
1076.639, 43334.00
1077.741, 44035.00
1078.843, 44742.00
1079.945, 45367.00
1081.046, 46111.00
1082.148, 47075.00
1083.249, 48482.00
1084.350, 49787.00
1085.451, 51309.00
1086.551, 53003.00
1087.652, 54900.00
1088.752, 56786.00
1089.853, 58990.00
1090.953, 60544.00
1092.053, 60895.00
1093.152, 60815.00
1094.252, 59418.00
1095.351, 57229.00
1096.451, 54626.00
1097.550, 51848.00
1098.649, 49230.00
1099.748, 46932.00
1100.846, 45213.00
1101.945, 43455.00
1103.043, 42180.00
1104.141, 41115.00
1105.239, 40279.00
1106.337, 39673.00
1107.434, 39508.00
1108.532, 38903.00
1109.629, 38570.00
1110.726, 38491.00
1111.823, 38056.00
1112.920, 38131.00
1114.017, 38027.00
1115.113, 38118.00
1116.210, 38095.00
1117.306, 38083.00
1118.402, 38022.00
1119.498, 37980.00
1120.593, 38005.00
1121.689, 37789.00
1122.784, 37826.00
1123.879, 37704.00
1124.974, 37959.00
1126.069, 37938.00
1127.164, 37674.00
1128.259, 38044.00
1129.353, 37900.00
1130.447, 38005.00
1131.541, 38150.00
1132.635, 38058.00
1133.729, 37945.00
1134.822, 37946.00
1135.916, 37947.00
1137.009, 38062.00
1138.102, 37804.00
1139.195, 38215.00
1140.288, 37936.00
1141.380, 38061.00
1142.473, 38168.00
1143.565, 38025.00
1144.657, 37974.00
1145.749, 38005.00
1146.841, 38198.00
1147.932, 38126.00
1149.024, 38008.00
1150.115, 38318.00
1151.206, 38061.00
1152.297, 38112.00
1153.388, 38159.00
1154.479, 38116.00
1155.569, 38176.12
1156.659, 38191.73
1157.750, 38259.00
1158.839, 38256.00
1159.929, 38356.00
1161.019, 38398.00
1162.108, 38354.00
1163.198, 38453.00
1164.287, 38455.00
1165.376, 38575.00
1166.465, 38432.00
1167.553, 38726.00
1168.642, 38504.00
1169.730, 38560.00
1170.818, 38643.00
1171.906, 38624.00
1172.994, 38780.00
1174.082, 38766.66
1175.170, 38892.00
1176.257, 38815.00
1177.344, 38798.00
1178.431, 38845.00
1179.518, 38953.00
1180.605, 38905.00
1181.691, 38930.00
1182.778, 39084.00
1183.864, 39438.00
1184.950, 38881.00
1186.036, 38933.00
1187.122, 39187.00
1188.207, 38899.00
1189.292, 38995.00
1190.378, 39238.00
1191.463, 39379.00
1192.548, 39206.00
1193.632, 39254.00
1194.717, 39176.00
1195.801, 39179.00
1196.886, 39292.00
1197.970, 39607.00
1199.054, 39597.00
1200.137, 39365.00
1201.221, 39613.00
1202.305, 39447.00
1203.388, 39732.00
1204.471, 39623.00
1205.554, 39643.00
1206.637, 39647.00
1207.719, 39674.63
1208.802, 39773.00
1209.884, 39862.00
1210.966, 39933.00
1212.048, 40147.00
1213.130, 40134.00
1214.212, 39925.00
1215.293, 40099.00
1216.374, 40117.00
1217.456, 39969.00
1218.536, 40152.00
1219.617, 40368.00
1220.698, 40115.00
1221.778, 40288.00
1222.859, 40419.00
1223.939, 40530.00
1225.019, 40392.00
1226.099, 40602.00
1227.178, 40475.00
1228.258, 40272.00
1229.337, 40363.00
1230.417, 40503.00
1231.496, 40386.00
1232.574, 40711.00
1233.653, 40685.00
1234.732, 40816.00
1235.810, 40757.00
1236.888, 40868.00
1237.966, 41037.00
1239.044, 41018.00
1240.122, 41021.37
1241.199, 41182.00
1242.277, 40961.00
1243.354, 40929.00
1244.431, 41063.00
1245.508, 40833.00
1246.585, 41134.00
1247.661, 41012.00
1248.738, 41145.00
1249.814, 41184.00
1250.890, 41251.00
1251.966, 41354.00
1253.042, 41294.00
1254.117, 41353.00
1255.193, 41374.00
1256.268, 41499.00
1257.343, 41099.00
1258.418, 41387.00
1259.493, 41321.00
1260.567, 41303.00
1261.642, 41471.00
1262.716, 41591.00
1263.790, 41674.00
1264.864, 41637.00
1265.938, 41844.00
1267.011, 41826.00
1268.085, 41842.00
1269.158, 42015.00
1270.231, 41835.00
1271.304, 41855.00
1272.377, 41901.00
1273.450, 41870.00
1274.522, 42001.00
1275.594, 41998.00
1276.666, 42221.00
1277.738, 42323.00
1278.810, 42288.00
1279.882, 42125.00
1280.953, 42191.00
1282.025, 42283.00
1283.096, 41966.00
1284.167, 42100.00
1285.238, 42096.00
1286.308, 42205.00
1287.379, 42301.11
1288.449, 42466.00
1289.519, 42549.00
1290.589, 42716.00
1291.659, 42721.02
1292.729, 42733.00
1293.798, 42708.00
1294.868, 42741.00
1295.937, 42760.30
1297.006, 42830.00
1298.075, 42842.00
1299.143, 42908.00
1300.212, 42980.66
1301.280, 42934.00
1302.348, 43132.00
1303.416, 42967.00
1304.484, 43066.00
1305.552, 43211.00
1306.620, 43127.00
1307.687, 43242.00
1308.754, 43096.00
1309.821, 42974.00
1310.888, 43143.00
1311.955, 43198.00
1313.021, 43338.00
1314.088, 43453.00
1315.154, 43441.00
1316.220, 43444.00
1317.286, 43756.00
1318.352, 43684.00
1319.417, 43752.00
1320.483, 43857.00
1321.548, 43522.00
1322.613, 43875.00
1323.678, 43845.00
1324.743, 43562.00
1325.807, 43538.00
1326.872, 43870.00
1327.936, 44016.00
1329.000, 44087.00
1330.064, 44120.00
1331.128, 44217.11
1332.191, 44224.00
1333.255, 44268.00
1334.318, 44263.00
1335.381, 44129.00
1336.444, 44041.00
1337.507, 44342.00
1338.569, 44175.00
1339.632, 44364.00
1340.694, 44412.00
1341.756, 44494.00
1342.818, 44311.00
1343.880, 44432.00
1344.941, 44763.00
