##NAMES=Clinozoisite
##RRUFFID=R060284
##IDEAL CHEMISTRY=Ca_2_Al_3_(Si_2_O_7_)(SiO_4_)O(OH)
##LOCALITY=near Zagi Mountain, Khaffor Dehri, North-West Frontier Province, Pakistan
##OWNER=RRUFF
##SOURCE=Herb Obodda
##DESCRIPTION=Greenish-brown fragment of a prismatic crystal
##STATUS=The identification of this mineral has been confirmed by X-ray diffraction and chemical analysis
##URL=rruff.info/R060284
##MEASURED CHEMISTRY=Ca_2.00_(Al_0.90_Fe^3+^_0.10_)_3_(Si_1.00_O_4_)(Si_2.00_O_7_)O(OH)
##PIN_ID=L00506
##ORIENTATION=Laser parallel to -a* (-1 0 0). Fiducial mark perpendicular to laser is parallel to b [0 1 0]
118.1340, 10541.00
119.3650, 10503.33
120.5960, 10377.00
121.8270, 10414.00
123.0580, 10411.00
124.2880, 10412.42
125.5190, 10394.29
126.7490, 10351.00
127.9790, 10360.00
129.2090, 10265.00
130.4390, 10305.00
131.6680, 10386.00
132.8980, 10327.00
134.1270, 10403.00
135.3560, 10393.00
136.5850, 10317.00
137.8140, 10495.00
139.0430, 10628.00
140.2710, 10677.00
141.5000, 10920.00
142.7280, 10985.00
143.9560, 11061.00
145.1840, 11284.00
146.4120, 11645.00
147.6390, 11781.00
148.8670, 12005.00
150.0940, 12133.00
151.3210, 12348.44
152.5490, 12572.37
153.7750, 12796.00
155.0020, 13044.00
156.2290, 13338.00
157.4550, 13576.00
158.6810, 13686.00
159.9080, 14015.00
161.1340, 13982.00
162.3590, 14213.00
163.5850, 14472.00
164.8110, 14609.00
166.0360, 14950.00
167.2610, 15181.00
168.4860, 15268.00
169.7110, 15758.00
170.9360, 15935.00
172.1610, 16014.00
173.3850, 16068.00
174.6100, 16144.00
175.8340, 15692.00
177.0580, 15314.00
178.2820, 14830.00
179.5050, 14543.00
180.7290, 14107.00
181.9520, 13748.00
183.1760, 13470.00
184.3990, 13143.00
185.6220, 13050.00
186.8450, 12941.00
188.0670, 12829.00
189.2900, 12941.00
190.5120, 12872.00
191.7340, 13020.00
192.9560, 13003.00
194.1780, 13114.00
195.4000, 13313.00
196.6220, 13395.00
197.8430, 13540.00
199.0640, 13856.00
200.2860, 14213.00
201.5070, 14340.00
202.7270, 14608.00
203.9480, 14846.00
205.1690, 15144.00
206.3890, 15441.00
207.6090, 15634.00
208.8290, 15888.00
210.0490, 16260.00
211.2690, 16607.00
212.4890, 16840.00
213.7080, 16998.00
214.9280, 17194.00
216.1470, 17375.59
217.3660, 17532.29
218.5850, 17653.00
219.8030, 17838.00
221.0220, 17828.00
222.2400, 17940.00
223.4590, 18098.00
224.6770, 18353.00
225.8950, 18840.00
227.1120, 19422.00
228.3300, 19922.00
229.5480, 20835.00
230.7650, 21641.00
231.9820, 22274.00
233.1990, 23294.00
234.4160, 23699.00
235.6330, 23864.00
236.8490, 23982.00
238.0660, 23210.00
239.2820, 22762.00
240.4980, 22031.00
241.7140, 21593.00
242.9300, 20709.00
244.1460, 20339.00
245.3610, 20087.00
246.5770, 19782.00
247.7920, 19800.00
249.0070, 19967.00
250.2220, 19953.00
251.4370, 19927.00
252.6510, 19789.00
253.8660, 19617.00
255.0800, 19171.00
256.2940, 18674.00
257.5080, 18081.00
258.7220, 18010.00
259.9360, 17391.00
261.1490, 16460.00
262.3630, 16273.00
263.5760, 16047.00
264.7890, 16350.00
266.0020, 16504.00
267.2150, 16756.00
268.4270, 16932.00
269.6400, 17425.00
270.8520, 18018.00
272.0640, 18561.00
273.2760, 18882.00
274.4880, 18870.00
275.7000, 18705.00
276.9120, 18004.00
278.1230, 17564.00
279.3340, 17023.00
280.5450, 16505.00
281.7560, 16043.00
282.9670, 15683.00
284.1780, 15573.00
285.3880, 15339.00
286.5980, 15240.00
287.8090, 15330.00
289.0190, 15298.00
290.2290, 15331.00
291.4380, 15332.79
292.6480, 15338.00
293.8570, 15301.00
295.0670, 15277.00
296.2760, 15237.00
297.4850, 15373.00
298.6930, 15450.00
299.9020, 15392.00
301.1110, 15498.08
302.3190, 15412.00
303.5270, 15598.00
304.7350, 15757.00
305.9430, 15859.00
307.1510, 16100.00
308.3580, 16211.00
309.5660, 16623.00
310.7730, 16823.00
311.9800, 16869.00
313.1870, 16933.00
314.3940, 16800.00
315.6010, 16600.00
316.8070, 16535.00
318.0130, 16380.00
319.2200, 15782.00
320.4260, 15694.00
321.6310, 15675.00
322.8370, 15771.00
324.0430, 15822.00
325.2480, 15885.00
326.4540, 15969.00
327.6590, 16418.00
328.8640, 16577.00
330.0680, 17482.00
331.2730, 17876.00
332.4780, 18454.00
333.6820, 19300.00
334.8860, 20197.00
336.0900, 21107.00
337.2940, 21955.00
338.4980, 22911.00
339.7010, 23961.00
340.9050, 24837.00
342.1080, 25935.00
343.3110, 27279.00
344.5140, 28748.00
345.7170, 30032.00
346.9200, 31694.00
348.1220, 33444.00
349.3240, 34689.00
350.5270, 35759.00
351.7290, 36158.00
352.9310, 35577.00
354.1320, 34203.00
355.3340, 32331.00
356.5350, 29791.00
357.7370, 27611.00
358.9380, 25319.00
360.1390, 23193.00
361.3400, 21409.00
362.5400, 19826.00
363.7410, 18436.00
364.9410, 17582.00
366.1410, 16547.00
367.3410, 16057.00
368.5410, 15391.00
369.7410, 15017.00
370.9400, 14557.00
372.1400, 14270.00
373.3390, 14003.00
374.5380, 13849.00
375.7370, 13525.00
376.9360, 13327.00
378.1350, 13104.00
379.3330, 12956.00
380.5310, 12687.00
381.7300, 12730.00
382.9280, 12736.15
384.1260, 12962.00
385.3230, 12898.00
386.5210, 13236.00
387.7180, 13185.00
388.9160, 13203.00
390.1130, 13608.00
391.3100, 13730.00
392.5060, 14000.00
393.7030, 14313.00
394.9000, 14638.00
396.0960, 14656.00
397.2920, 14837.00
398.4880, 14939.00
399.6840, 14895.00
400.8800, 14821.00
402.0750, 14632.00
403.2710, 14232.00
404.4660, 14064.00
405.6610, 13653.00
406.8560, 13520.00
408.0510, 13084.00
409.2450, 13228.00
410.4400, 13026.00
411.6340, 13133.00
412.8280, 13233.00
414.0220, 13510.00
415.2160, 13873.00
416.4100, 14413.00
417.6030, 15036.00
418.7970, 15784.00
419.9900, 16582.00
421.1830, 17626.00
422.3760, 18676.00
423.5690, 19682.00
424.7610, 20889.00
425.9540, 21574.00
427.1460, 22201.00
428.3380, 22186.00
429.5300, 22406.00
430.7220, 22097.00
431.9140, 21864.00
433.1050, 21508.00
434.2970, 21346.00
435.4880, 21309.73
436.6790, 21378.01
437.8700, 21568.00
439.0610, 22050.00
440.2510, 22620.00
441.4420, 23532.00
442.6320, 24777.00
443.8220, 26183.00
445.0120, 27578.00
446.2020, 29346.00
447.3910, 31020.00
448.5810, 32321.00
449.7700, 33777.00
450.9600, 34571.00
452.1490, 34947.00
453.3370, 35048.00
454.5260, 34436.00
455.7150, 33431.00
456.9030, 32504.00
458.0910, 31332.00
459.2800, 29630.00
460.4670, 28762.00
461.6550, 27681.00
462.8430, 26787.00
464.0300, 26193.00
465.2180, 25718.00
466.4050, 25602.00
467.5920, 25501.00
468.7790, 25331.00
469.9650, 24963.00
471.1520, 25048.00
472.3380, 24875.00
473.5250, 24851.00
474.7110, 24364.00
475.8970, 24383.00
477.0820, 23797.00
478.2680, 23594.00
479.4540, 23240.00
480.6390, 23028.00
481.8240, 22648.00
483.0090, 22351.00
484.1940, 21771.00
485.3780, 21279.00
486.5630, 20593.00
487.7470, 19955.00
488.9320, 19510.00
490.1160, 19173.00
491.3000, 18611.00
492.4830, 18226.00
493.6670, 17993.00
494.8500, 17933.00
496.0340, 18227.00
497.2170, 18048.00
498.4000, 18382.00
499.5820, 18642.00
500.7650, 18720.00
501.9480, 19201.00
503.1300, 19599.00
504.3120, 19884.00
505.4940, 20174.00
506.6760, 20235.00
507.8580, 20375.00
509.0390, 20218.00
510.2210, 19941.00
511.4020, 19793.00
512.5830, 19586.26
513.7640, 19247.00
514.9450, 19193.00
516.1250, 19128.00
517.3060, 18914.00
518.4860, 18972.00
519.6660, 18605.00
520.8460, 18309.00
522.0260, 18030.00
523.2060, 17381.00
524.3850, 17255.00
525.5650, 16674.00
526.7440, 16462.00
527.9230, 15978.00
529.1020, 15623.00
530.2810, 15289.00
531.4590, 15026.00
532.6380, 14925.00
533.8160, 14714.00
534.9940, 14579.00
536.1720, 14567.00
537.3500, 14343.00
538.5270, 14487.00
539.7050, 14571.00
540.8820, 14661.00
542.0590, 14694.00
543.2360, 14581.00
544.4130, 14609.00
545.5900, 14770.00
546.7660, 14948.00
547.9430, 15058.00
549.1190, 15379.00
550.2950, 15495.00
551.4710, 15790.00
552.6470, 16024.00
553.8220, 16597.00
554.9980, 17042.00
556.1730, 17579.00
557.3480, 18317.00
558.5230, 19521.00
559.6980, 20782.00
560.8730, 22399.00
562.0470, 24550.00
563.2220, 27373.00
564.3960, 30815.00
565.5700, 34545.00
566.7440, 39149.00
567.9170, 43985.00
569.0910, 49251.00
570.2640, 52996.00
571.4380, 54591.00
572.6110, 53715.00
573.7840, 49773.00
574.9570, 44568.00
576.1290, 39533.00
577.3020, 34221.00
578.4740, 30077.00
579.6460, 26763.00
580.8180, 24534.00
581.9900, 23079.00
583.1620, 22552.00
584.3330, 22062.00
585.5040, 23031.00
586.6760, 22414.00
587.8470, 23141.00
589.0180, 24175.00
590.1880, 24890.00
591.3590, 26007.00
592.5290, 27031.00
593.7000, 28064.00
594.8700, 29277.00
596.0400, 30745.00
597.2090, 32072.00
598.3790, 33476.00
599.5490, 35051.00
600.7180, 36555.00
601.8870, 37852.00
603.0560, 38958.00
604.2250, 39364.00
605.3940, 39548.00
606.5620, 39057.00
607.7300, 37634.00
608.8990, 35866.00
610.0670, 33566.00
611.2350, 31187.00
612.4020, 28982.00
613.5700, 27346.00
614.7370, 25543.00
615.9050, 24039.00
617.0720, 22671.00
618.2390, 21535.00
619.4060, 20436.00
620.5720, 19732.00
621.7390, 18865.00
622.9050, 18125.00
624.0710, 17711.00
625.2370, 17061.00
626.4030, 16485.00
627.5690, 16397.00
628.7340, 16021.00
629.9000, 15720.00
631.0650, 15438.00
632.2300, 15377.00
633.3950, 15252.00
634.5600, 15323.00
635.7240, 15102.00
636.8890, 15014.00
638.0530, 15042.00
639.2170, 14990.00
640.3810, 14909.00
641.5450, 14997.00
642.7080, 14980.00
643.8720, 15016.00
645.0350, 15124.00
646.1980, 15213.00
647.3610, 15493.86
648.5240, 15789.00
649.6870, 16227.00
650.8490, 16615.00
652.0120, 17188.00
653.1740, 17367.00
654.3360, 17683.00
655.4980, 18019.00
656.6600, 17883.00
657.8210, 17975.00
658.9830, 17807.00
660.1440, 17662.00
661.3050, 17353.00
662.4660, 17115.00
663.6270, 16714.00
664.7870, 16607.00
665.9480, 16260.00
667.1080, 16048.00
668.2680, 15957.00
669.4280, 15743.00
670.5880, 15649.00
671.7480, 15519.00
672.9070, 15500.00
674.0670, 15293.00
675.2260, 15335.00
676.3850, 15248.00
677.5440, 15393.00
678.7030, 15550.00
679.8610, 15539.00
681.0200, 15691.00
682.1780, 15620.00
683.3360, 15544.00
684.4940, 15562.00
685.6520, 15702.00
686.8090, 15842.00
687.9670, 15724.00
689.1240, 15888.00
690.2810, 15949.00
691.4380, 15904.00
692.5950, 16147.00
693.7520, 16192.00
694.9080, 16563.00
696.0650, 16602.00
697.2210, 16876.00
698.3770, 16902.00
699.5330, 16999.00
700.6880, 17218.00
701.8440, 17237.00
702.9990, 16908.00
704.1550, 16884.00
705.3100, 16603.00
706.4650, 16324.00
707.6190, 15941.00
708.7740, 15834.00
709.9290, 15461.00
711.0830, 15196.98
712.2370, 14845.00
713.3910, 14647.00
714.5450, 14444.00
715.6980, 14242.00
716.8520, 14042.00
718.0050, 13909.00
719.1580, 13785.00
720.3110, 13694.79
721.4640, 13641.00
722.6170, 13624.00
723.7700, 13610.00
724.9220, 13680.00
726.0740, 13708.00
727.2260, 13673.02
728.3780, 13689.40
729.5300, 13614.00
730.6810, 13668.00
731.8330, 13673.00
732.9840, 13714.68
734.1350, 13713.00
735.2860, 13765.00
736.4370, 13655.00
737.5880, 13719.00
738.7380, 13487.00
739.8880, 13523.00
741.0390, 13387.00
742.1890, 13549.00
743.3380, 13414.00
744.4880, 13508.00
745.6380, 13502.00
746.7870, 13472.62
747.9360, 13390.00
749.0850, 13453.00
750.2340, 13407.00
751.3830, 13376.00
752.5310, 13441.00
753.6800, 13210.00
754.8280, 13322.00
755.9760, 13517.00
757.1240, 13478.00
758.2720, 13297.00
759.4190, 13422.00
760.5670, 13335.00
761.7140, 13477.00
762.8610, 13460.00
764.0080, 13444.00
765.1550, 13417.00
766.3020, 13532.00
767.4480, 13533.00
768.5950, 13562.00
769.7410, 13603.00
770.8870, 13602.00
772.0330, 13570.00
773.1780, 13558.00
774.3240, 13586.00
775.4690, 13575.00
776.6140, 13709.00
777.7590, 13669.00
778.9040, 13732.00
780.0490, 13703.00
781.1940, 13711.00
782.3380, 13563.00
783.4820, 13673.00
784.6260, 13826.00
785.7700, 13681.00
786.9140, 13718.00
788.0580, 13888.00
789.2010, 13969.00
790.3450, 13872.00
791.4880, 13863.00
792.6310, 13976.00
793.7730, 13975.00
794.9160, 14097.00
796.0590, 14100.00
797.2010, 14290.00
798.3430, 14189.00
799.4850, 14200.00
800.6270, 14311.00
801.7690, 14280.00
802.9100, 14208.00
804.0520, 14238.00
805.1930, 14273.00
806.3340, 14300.00
807.4750, 14369.50
808.6160, 14531.00
809.7560, 14541.00
810.8970, 14624.00
812.0370, 14767.00
813.1770, 14831.00
814.3170, 14725.00
815.4570, 14870.00
816.5960, 14877.00
817.7360, 15011.00
818.8750, 14932.00
820.0140, 15458.00
821.1530, 15570.00
822.2920, 15510.00
823.4310, 15786.00
824.5690, 15893.00
825.7070, 15968.00
826.8460, 16060.00
827.9840, 16400.00
829.1220, 16569.00
830.2590, 16688.00
831.3970, 16770.00
832.5340, 16977.00
833.6710, 17176.00
834.8080, 17063.00
835.9450, 17321.00
837.0820, 17394.00
838.2190, 17392.00
839.3550, 17515.00
840.4910, 17526.00
841.6270, 17586.02
842.7630, 17710.00
843.8990, 17709.00
845.0350, 17729.00
846.1700, 17827.26
847.3060, 18011.00
848.4410, 18025.00
849.5760, 18246.00
850.7100, 18269.00
851.8450, 18368.00
852.9800, 18429.00
854.1140, 18622.26
855.2480, 18819.83
856.3820, 19120.00
857.5160, 19317.00
858.6500, 19703.00
859.7830, 19952.00
860.9170, 20163.00
862.0500, 20429.00
863.1830, 20705.00
864.3160, 21043.00
865.4480, 21462.00
866.5810, 21903.96
867.7130, 22417.89
868.8460, 22978.00
869.9780, 23557.00
871.1100, 24234.00
872.2410, 24848.00
873.3730, 25394.00
874.5050, 26167.00
875.6360, 26751.00
876.7670, 27695.00
877.8980, 28373.00
879.0290, 28849.00
880.1590, 29465.00
881.2900, 29808.00
882.4200, 30460.00
883.5500, 30334.00
884.6800, 30619.00
885.8100, 30709.00
886.9400, 30487.00
888.0690, 30822.00
889.1990, 30933.00
890.3280, 31433.00
891.4570, 31683.00
892.5860, 32256.00
893.7140, 33271.00
894.8430, 34013.00
895.9710, 34841.00
897.1000, 36001.00
898.2280, 36992.00
899.3560, 38360.00
900.4830, 39907.00
901.6110, 41356.00
902.7380, 43254.00
903.8660, 45695.00
904.9930, 48360.00
906.1200, 50836.00
907.2460, 53713.00
908.3730, 56564.00
909.5000, 59134.00
910.6260, 61791.00
911.7520, 63269.00
912.8780, 64288.00
914.0040, 65024.00
915.1290, 64343.00
916.2550, 63804.00
917.3800, 61990.00
918.5050, 60501.00
919.6300, 58485.00
920.7550, 56680.00
921.8800, 54813.00
923.0040, 52852.00
924.1290, 51391.00
925.2530, 49822.00
926.3770, 47987.00
927.5010, 46656.00
928.6250, 44981.00
929.7480, 43778.00
930.8720, 42108.00
931.9950, 40463.00
933.1180, 39084.00
934.2410, 37233.00
935.3640, 35832.00
936.4860, 34030.00
937.6090, 32481.00
938.7310, 30863.00
939.8530, 29382.00
940.9750, 28187.00
942.0970, 27018.00
943.2180, 25828.00
944.3400, 25217.00
945.4610, 24217.00
946.5820, 23585.00
947.7030, 22980.00
948.8240, 22612.00
949.9450, 22457.00
951.0650, 22065.00
952.1860, 21775.00
953.3060, 21694.00
954.4260, 21485.00
955.5460, 21643.00
956.6650, 21693.00
957.7850, 21567.00
958.9040, 21540.00
960.0230, 21797.00
961.1420, 21502.00
962.2610, 21713.00
963.3800, 21754.00
964.4990, 21521.00
965.6170, 21641.00
966.7350, 21539.00
967.8530, 21809.00
968.9710, 21807.00
970.0890, 21979.00
971.2070, 22159.00
972.3240, 22339.00
973.4410, 22714.00
974.5580, 23041.00
975.6750, 23900.00
976.7920, 24578.00
977.9090, 25464.00
979.0250, 26892.00
980.1410, 27903.00
981.2580, 29160.00
982.3740, 30035.00
983.4890, 30760.00
984.6050, 31300.00
985.7200, 31048.00
986.8360, 30618.00
987.9510, 29699.00
989.0660, 28285.00
990.1810, 26945.00
991.2950, 25714.00
992.4100, 24453.00
993.5240, 23159.00
994.6390, 22288.00
995.7530, 21770.00
996.8660, 20898.00
997.9800, 20491.00
999.0940, 20045.00
1000.207, 19757.00
1001.320, 19492.00
1002.433, 19217.00
1003.546, 18961.00
1004.659, 18955.00
1005.772, 18629.00
1006.884, 18528.29
1007.996, 18277.00
1009.108, 18225.00
1010.220, 18222.00
1011.332, 18066.00
1012.444, 18127.00
1013.555, 18058.00
1014.666, 18149.00
1015.777, 18203.00
1016.888, 18172.00
1017.999, 18291.84
1019.110, 18415.00
1020.220, 18557.00
1021.331, 18642.00
1022.441, 18981.00
1023.551, 19065.00
1024.661, 19490.00
1025.770, 19582.00
1026.880, 19751.00
1027.989, 19926.00
1029.098, 20181.00
1030.207, 20408.00
1031.316, 20484.00
1032.425, 20785.00
1033.533, 20852.00
1034.642, 20732.00
1035.750, 21004.00
1036.858, 21113.00
1037.966, 21365.00
1039.073, 21541.00
1040.181, 21797.00
1041.288, 21947.00
1042.396, 22178.00
1043.503, 22420.00
1044.610, 22468.00
1045.716, 22474.00
1046.823, 22667.00
1047.929, 22551.00
1049.036, 22625.00
1050.142, 22535.00
1051.248, 22193.00
1052.353, 21942.00
1053.459, 21954.00
1054.564, 21426.00
1055.670, 21230.00
1056.775, 20726.00
1057.880, 20389.00
1058.985, 20176.00
1060.089, 20071.00
1061.194, 19743.00
1062.298, 19519.00
1063.402, 19545.00
1064.506, 19341.00
1065.610, 19029.00
1066.713, 18936.00
1067.817, 18893.00
1068.920, 19076.00
1070.023, 19047.00
1071.126, 19129.00
1072.229, 19242.00
1073.332, 19236.00
1074.435, 19157.00
1075.537, 19363.00
1076.639, 19462.00
1077.741, 19843.00
1078.843, 19833.00
1079.945, 20437.00
1081.046, 20528.00
1082.148, 21104.00
1083.249, 21670.00
1084.350, 22189.00
1085.451, 22978.00
1086.551, 23905.00
1087.652, 24876.00
1088.752, 26304.00
1089.853, 27654.00
1090.953, 28814.00
1092.053, 29718.00
1093.152, 30505.00
1094.252, 30719.00
1095.351, 30082.00
1096.451, 29389.00
1097.550, 28002.00
1098.649, 26712.00
1099.748, 25177.00
1100.846, 23717.00
1101.945, 22692.00
1103.043, 22011.00
1104.141, 21059.00
1105.239, 20826.00
1106.337, 20293.00
1107.434, 19960.00
1108.532, 19757.00
1109.629, 19631.00
1110.726, 19495.00
1111.823, 19427.00
1112.920, 19492.00
1114.017, 19252.00
1115.113, 19242.00
1116.210, 19294.00
1117.306, 19445.00
1118.402, 19288.00
1119.498, 19368.00
1120.593, 19369.00
1121.689, 19331.00
1122.784, 19378.00
1123.879, 19301.00
1124.974, 19285.00
1126.069, 19050.00
1127.164, 19122.00
1128.259, 18961.00
1129.353, 18712.00
1130.447, 18759.00
1131.541, 18881.00
1132.635, 18716.00
1133.729, 18715.00
1134.822, 18775.00
1135.916, 18680.00
1137.009, 18617.00
1138.102, 18668.00
1139.195, 18549.00
1140.288, 18521.00
1141.380, 18594.00
1142.473, 18617.00
1143.565, 18636.00
1144.657, 18649.00
1145.749, 18789.00
1146.841, 18617.00
1147.932, 18883.00
1149.024, 18684.00
1150.115, 18850.00
1151.206, 18691.00
1152.297, 18567.00
1153.388, 18631.00
1154.479, 18639.00
1155.569, 18714.00
1156.659, 18584.00
1157.750, 18671.00
1158.839, 18755.00
1159.929, 18657.00
1161.019, 18778.00
1162.108, 18674.00
1163.198, 18829.00
1164.287, 18613.00
1165.376, 18746.00
1166.465, 18631.00
1167.553, 18695.00
1168.642, 18418.00
1169.730, 18621.00
1170.818, 18863.00
1171.906, 18693.00
1172.994, 18785.00
1174.082, 18919.00
1175.170, 18843.00
1176.257, 18709.00
1177.344, 18859.00
1178.431, 18798.00
1179.518, 18818.00
1180.605, 18913.00
1181.691, 18909.00
1182.778, 18834.00
1183.864, 18755.00
1184.950, 18776.00
1186.036, 18740.00
1187.122, 18763.04
1188.207, 18794.00
1189.292, 18885.00
1190.378, 18780.00
1191.463, 18938.00
1192.548, 18940.00
1193.632, 19003.00
1194.717, 18799.00
1195.801, 18856.00
1196.886, 18895.00
1197.970, 19012.00
1199.054, 18956.00
1200.137, 19106.00
1201.221, 18846.00
1202.305, 18845.00
1203.388, 18970.00
1204.471, 18915.00
1205.554, 19102.00
1206.637, 19133.00
1207.719, 19112.00
1208.802, 19215.00
1209.884, 19191.69
1210.966, 19079.00
1212.048, 19159.00
1213.130, 19123.00
1214.212, 19012.00
1215.293, 19238.00
1216.374, 19025.00
1217.456, 18986.00
1218.536, 18981.00
1219.617, 19138.00
1220.698, 19011.00
1221.778, 19174.00
1222.859, 19102.00
1223.939, 19149.00
1225.019, 19227.00
1226.099, 19116.00
1227.178, 19238.00
1228.258, 19146.00
1229.337, 19202.00
1230.417, 19263.00
1231.496, 19230.00
1232.574, 19358.00
1233.653, 19294.00
1234.732, 19210.00
1235.810, 19478.00
1236.888, 19261.00
1237.966, 19334.00
1239.044, 19274.00
1240.122, 19107.00
1241.199, 19241.00
1242.277, 19416.00
1243.354, 19197.00
1244.431, 19402.00
1245.508, 19237.00
1246.585, 19347.00
1247.661, 19307.00
1248.738, 19389.00
1249.814, 19452.00
1250.890, 19383.00
1251.966, 19464.00
1253.042, 19458.00
1254.117, 19551.00
1255.193, 19570.91
1256.268, 19720.00
1257.343, 19612.00
1258.418, 19613.00
1259.493, 19587.00
1260.567, 19466.00
1261.642, 19595.00
1262.716, 19467.00
1263.790, 19604.00
1264.864, 19634.00
1265.938, 19671.00
1267.011, 19685.95
1268.085, 19715.00
1269.158, 19619.00
1270.231, 19624.00
1271.304, 19535.00
1272.377, 19579.66
1273.450, 19631.00
1274.522, 19670.00
1275.594, 19735.00
1276.666, 19767.00
1277.738, 19760.00
1278.810, 19760.00
1279.882, 19863.00
1280.953, 19836.00
1282.025, 19708.00
1283.096, 19624.00
1284.167, 19695.00
1285.238, 19823.00
1286.308, 19974.00
1287.379, 19945.00
1288.449, 19913.00
1289.519, 19875.00
1290.589, 19703.00
1291.659, 19945.00
