##NAMES=Clinochlore
##RRUFFID=R060725
##IDEAL CHEMISTRY=Mg_5_Al(AlSi_3_O_10_)(OH)_8_
##LOCALITY=Crestmore Quarry, Riverside, California, USA
##OWNER=RRUFF
##SOURCE=Bob Jenkins
##DESCRIPTION=Green transparent books of mica
##STATUS=The identification of this mineral has been confirmed by X-ray diffraction and chemical analysis
##URL=rruff.info/R060725
##MEASURED CHEMISTRY=(Mg_4.65_Al_1.12_Fe^2+^_0.17_[box]_0.06_)_Σ=6_(Si_3.00_Al_1.00_)_Σ=4_O_10_(OH)_8_
##PIN_ID=L01861
162.2460, 21902.00
163.4750, 21929.79
164.7030, 21890.00
165.9320, 22055.00
167.1600, 22049.00
168.3890, 22095.00
169.6170, 22171.00
170.8450, 22367.00
172.0730, 22278.00
173.3000, 22319.00
174.5280, 22484.00
175.7550, 22358.00
176.9820, 22505.00
178.2090, 22525.00
179.4350, 22577.00
180.6620, 22683.00
181.8880, 22749.00
183.1150, 22684.00
184.3410, 22846.00
185.5670, 22861.00
186.7920, 22807.00
188.0180, 23122.00
189.2430, 23085.00
190.4690, 23192.00
191.6940, 23407.00
192.9180, 23263.00
194.1430, 23388.00
195.3680, 23722.00
196.5920, 23918.00
197.8160, 23801.00
199.0400, 24034.00
200.2640, 24352.00
201.4880, 24436.00
202.7110, 24835.00
203.9350, 24887.00
205.1580, 25055.00
206.3810, 25071.00
207.6040, 24932.00
208.8270, 24837.00
210.0490, 24607.00
211.2710, 24635.00
212.4940, 24266.00
213.7160, 24219.00
214.9370, 24401.00
216.1590, 24097.00
217.3810, 23985.00
218.6020, 24172.00
219.8230, 24101.00
221.0440, 24106.00
222.2650, 24164.00
223.4860, 24206.00
224.7060, 24144.00
225.9260, 24389.00
227.1470, 24383.00
228.3670, 24201.00
229.5860, 24107.00
230.8060, 24481.00
232.0260, 24657.00
233.2450, 24636.00
234.4640, 24637.00
235.6830, 24521.00
236.9020, 24598.00
238.1200, 24898.00
239.3390, 24655.00
240.5570, 24841.00
241.7750, 24540.00
242.9930, 24833.00
244.2110, 24968.00
245.4290, 24760.00
246.6460, 24863.00
247.8630, 24950.00
249.0810, 25166.00
250.2980, 24901.00
251.5140, 25063.00
252.7310, 25064.00
253.9470, 25352.00
255.1640, 25285.00
256.3800, 25417.00
257.5960, 25365.00
258.8120, 25647.00
260.0270, 25527.00
261.2430, 25536.00
262.4580, 25639.00
263.6730, 25559.00
264.8880, 25493.00
266.1030, 25613.00
267.3170, 26017.00
268.5320, 25947.00
269.7460, 26206.00
270.9600, 26291.00
272.1740, 26344.00
273.3880, 26149.00
274.6010, 26394.00
275.8150, 26519.00
277.0280, 26560.00
278.2410, 26848.00
279.4540, 26869.00
280.6670, 26792.00
281.8790, 26715.00
283.0920, 26615.00
284.3040, 26831.00
285.5160, 26784.00
286.7280, 26866.00
287.9400, 26779.00
289.1510, 26826.28
290.3630, 26966.00
291.5740, 26869.00
292.7850, 26883.00
293.9960, 26895.00
295.2070, 26878.00
296.4170, 26979.00
297.6280, 26847.00
298.8380, 27037.00
300.0480, 26944.00
301.2580, 26882.00
302.4680, 27118.00
303.6770, 27055.00
304.8870, 27145.00
306.0960, 27079.00
307.3050, 27238.00
308.5140, 27211.00
309.7230, 27251.65
310.9310, 27263.00
312.1400, 27367.00
313.3480, 27562.00
314.5560, 27744.00
315.7640, 27658.00
316.9720, 27598.00
318.1790, 27636.00
319.3870, 27706.00
320.5940, 27916.00
321.8010, 27855.00
323.0080, 27885.00
324.2150, 27858.00
325.4210, 28109.00
326.6280, 28184.00
327.8340, 28384.00
329.0400, 28338.00
330.2460, 28343.00
331.4510, 28281.00
332.6570, 28353.36
333.8620, 28390.54
335.0680, 28542.00
336.2730, 28577.00
337.4780, 28759.00
338.6820, 28930.00
339.8870, 29001.00
341.0910, 29137.00
342.2950, 29300.00
343.5000, 29425.00
344.7030, 29782.00
345.9070, 29990.00
347.1110, 30497.00
348.3140, 30482.00
349.5170, 30890.00
350.7200, 31460.00
351.9230, 31497.00
353.1260, 32328.00
354.3290, 32405.00
355.5310, 32491.00
356.7330, 32473.00
357.9350, 32735.00
359.1370, 32350.00
360.3390, 32191.00
361.5400, 31651.00
362.7420, 31585.00
363.9430, 31193.00
365.1440, 31058.00
366.3450, 30345.00
367.5460, 30326.00
368.7460, 30115.00
369.9470, 29963.00
371.1470, 30051.00
372.3470, 29842.00
373.5470, 29926.00
374.7460, 29768.00
375.9460, 29917.00
377.1450, 29913.00
378.3450, 29919.00
379.5440, 30051.00
380.7430, 30203.00
381.9410, 29964.00
383.1400, 30041.00
384.3380, 30063.00
385.5370, 29905.00
386.7350, 30236.00
387.9320, 30168.00
389.1300, 30400.00
390.3280, 30304.00
391.5250, 30552.00
392.7220, 30653.00
393.9190, 30203.00
395.1160, 30311.00
396.3130, 30248.00
397.5100, 30312.00
398.7060, 30554.00
399.9020, 30565.00
401.0980, 30528.00
402.2940, 30350.00
403.4900, 30356.00
404.6860, 30627.00
405.8810, 30375.00
407.0760, 30599.00
408.2710, 30585.00
409.4660, 30624.00
410.6610, 30722.00
411.8550, 30816.00
413.0500, 30735.00
414.2440, 30853.00
415.4380, 31162.00
416.6320, 31336.00
417.8260, 31204.00
419.0190, 31322.00
420.2130, 31254.00
421.4060, 31502.00
422.5990, 31124.00
423.7920, 31578.00
424.9850, 31518.00
426.1770, 31395.00
427.3700, 31663.00
428.5620, 31737.00
429.7540, 32006.00
430.9460, 31827.00
432.1380, 31741.00
433.3290, 31812.00
434.5210, 31682.87
435.7120, 31890.00
436.9030, 31660.00
438.0940, 31800.00
439.2850, 31950.00
440.4750, 31908.00
441.6660, 32095.00
442.8560, 32180.00
444.0460, 32058.00
445.2360, 32209.00
446.4260, 31931.00
447.6160, 32153.00
448.8050, 32016.00
449.9940, 32074.00
451.1830, 32109.00
452.3720, 32200.00
453.5610, 32129.00
454.7500, 32485.00
455.9380, 32299.00
457.1260, 32428.00
458.3150, 32152.00
459.5020, 32210.00
460.6900, 32519.00
461.8780, 32726.00
463.0650, 32630.00
464.2530, 32532.00
465.4400, 32562.00
466.6270, 32519.00
467.8130, 32820.00
469.0000, 32687.00
470.1870, 32888.00
471.3730, 32494.00
472.5590, 32688.00
473.7450, 32753.00
474.9310, 32609.00
476.1160, 32678.00
477.3020, 32599.00
478.4870, 32682.00
479.6720, 32723.00
480.8570, 32861.00
482.0420, 32988.00
483.2270, 32832.00
484.4110, 32807.00
485.5960, 33143.00
486.7800, 32913.00
487.9640, 33125.00
489.1480, 32879.00
490.3310, 33070.00
491.5150, 32954.00
492.6980, 33071.00
493.8810, 33127.00
495.0640, 33123.00
496.2470, 33175.50
497.4300, 33159.00
498.6120, 33188.00
499.7950, 33361.00
500.9770, 33367.00
502.1590, 33467.00
503.3410, 33573.00
504.5220, 33776.00
505.7040, 33598.00
506.8850, 33463.00
508.0660, 33761.00
509.2470, 33711.00
510.4280, 33706.00
511.6090, 33771.00
512.7890, 33941.00
513.9700, 33967.00
515.1500, 34147.00
516.3300, 34030.00
517.5100, 34135.00
518.6900, 34234.00
519.8690, 34317.00
521.0490, 34529.00
522.2280, 34748.00
523.4070, 34778.00
524.5860, 34840.00
525.7640, 35191.00
526.9430, 35230.00
528.1210, 35280.00
529.3000, 35288.00
530.4780, 35356.74
531.6560, 35447.00
532.8330, 35474.48
534.0110, 35579.00
535.1880, 35640.00
536.3650, 35755.00
537.5430, 35821.34
538.7190, 35946.83
539.8960, 36183.00
541.0730, 36237.00
542.2490, 36565.00
543.4250, 36805.22
544.6020, 37408.00
545.7780, 37715.00
546.9530, 38453.00
548.1290, 39175.00
549.3040, 39552.00
550.4800, 40088.00
551.6550, 40266.00
552.8300, 39823.00
554.0040, 39065.00
555.1790, 38438.00
556.3540, 37796.00
557.5280, 37109.00
558.7020, 36639.00
559.8760, 36381.00
561.0500, 36449.00
562.2230, 36377.00
563.3970, 36079.00
564.5700, 35899.00
565.7430, 35799.00
566.9160, 35716.02
568.0890, 35642.00
569.2620, 35742.00
570.4340, 35739.00
571.6070, 35815.00
572.7790, 35667.00
573.9510, 35534.00
575.1230, 35792.00
576.2940, 35505.00
577.4660, 35584.00
578.6370, 35374.00
579.8080, 35438.00
580.9790, 35596.00
582.1500, 35748.00
583.3210, 35498.00
584.4910, 35738.00
585.6620, 35542.00
586.8320, 35700.00
588.0020, 35806.00
589.1720, 35721.00
590.3410, 35661.00
591.5110, 35617.00
592.6800, 35914.00
593.8500, 35744.00
595.0190, 36006.00
596.1880, 35498.00
597.3560, 36165.00
598.5250, 36159.00
599.6930, 35661.00
600.8620, 36214.00
602.0300, 36092.00
603.1970, 36330.00
604.3650, 36369.00
605.5330, 36357.00
606.7000, 36328.00
607.8680, 36215.00
609.0350, 36224.00
610.2020, 36373.00
611.3680, 36525.00
612.5350, 36322.00
613.7010, 36379.00
614.8680, 36377.00
616.0340, 36357.00
617.2000, 36518.00
618.3660, 36655.00
619.5310, 36571.00
620.6970, 36619.00
621.8620, 36781.00
623.0270, 36809.00
624.1920, 36920.00
625.3570, 36936.00
626.5220, 37004.75
627.6860, 36962.00
628.8500, 37099.00
630.0140, 37197.00
631.1780, 37210.00
632.3420, 36999.00
633.5060, 37193.00
634.6700, 36924.00
635.8330, 37243.00
636.9960, 36992.00
638.1590, 37239.00
639.3220, 37547.00
640.4850, 37299.00
641.6470, 37423.00
642.8100, 37471.00
643.9720, 37663.00
645.1340, 37709.00
646.2960, 37784.29
647.4570, 37771.00
648.6190, 37906.00
649.7800, 37996.00
650.9420, 38087.00
652.1030, 38227.00
653.2640, 38310.00
654.4240, 38399.24
655.5850, 38525.94
656.7450, 38576.00
657.9060, 38790.00
659.0660, 38934.00
660.2260, 39139.00
661.3850, 39453.00
662.5450, 39347.00
663.7040, 39597.00
664.8640, 40011.00
666.0230, 40163.00
667.1820, 40538.00
668.3410, 40793.00
669.4990, 41031.00
670.6580, 41314.00
671.8160, 41422.00
672.9740, 41942.00
674.1320, 41992.00
675.2900, 42274.00
676.4480, 42620.00
677.6050, 42703.00
678.7630, 42569.00
679.9200, 42929.00
681.0770, 43002.00
682.2340, 42673.00
683.3900, 42917.00
684.5470, 42909.00
685.7030, 42859.00
686.8590, 42609.00
688.0150, 42408.00
689.1710, 42053.00
690.3270, 42281.00
691.4830, 41766.00
692.6380, 41827.00
693.7930, 41532.00
694.9480, 41350.00
696.1030, 41153.00
697.2580, 40886.00
698.4130, 41106.00
699.5670, 40468.00
700.7210, 40707.00
701.8750, 40667.00
703.0290, 40535.00
704.1830, 40400.00
705.3370, 40298.00
706.4900, 40226.00
707.6430, 40161.00
708.7970, 40061.00
709.9490, 40164.00
711.1020, 39928.00
712.2550, 39917.00
713.4070, 39884.00
714.5600, 39674.00
715.7120, 39742.00
716.8640, 39733.00
718.0160, 39704.06
719.1670, 39781.12
720.3190, 39702.00
721.4700, 39842.00
722.6210, 39748.00
723.7720, 39661.00
724.9230, 40060.00
726.0740, 40036.00
727.2250, 39774.00
728.3750, 39776.00
729.5250, 39649.00
730.6750, 39805.00
731.8250, 39744.00
732.9750, 39594.00
734.1240, 39725.00
735.2740, 39796.00
736.4230, 39602.00
737.5720, 40090.00
738.7210, 39640.00
739.8700, 39925.00
741.0190, 39993.00
742.1670, 39785.00
743.3150, 39863.00
744.4630, 40114.00
745.6110, 39969.00
746.7590, 39995.00
747.9070, 40041.00
749.0540, 40068.00
750.2020, 40101.52
751.3490, 40214.00
752.4960, 40164.00
753.6430, 40329.00
754.7890, 40370.00
755.9360, 40127.00
757.0820, 40538.00
758.2280, 40220.00
759.3740, 40454.00
760.5200, 40511.00
761.6660, 40443.00
762.8120, 40202.00
763.9570, 40731.00
765.1020, 40505.00
766.2470, 40166.00
767.3920, 40502.00
768.5370, 40340.00
769.6810, 40291.00
770.8260, 40625.00
771.9700, 40343.00
773.1140, 40474.00
774.2580, 40645.00
775.4020, 40709.00
776.5460, 40769.00
777.6890, 40823.00
778.8320, 40837.08
779.9750, 40896.71
781.1180, 40817.00
782.2610, 40956.00
783.4040, 40894.00
784.5460, 40855.00
785.6890, 40975.00
786.8310, 41268.00
787.9730, 40815.00
789.1150, 40593.00
790.2560, 40915.00
791.3980, 41058.00
792.5390, 40924.00
793.6810, 40904.00
794.8220, 41148.00
795.9630, 41056.00
797.1030, 40907.00
798.2440, 41102.00
799.3840, 41448.00
800.5240, 41095.00
801.6650, 40884.00
802.8040, 41264.00
803.9440, 41319.00
805.0840, 41340.00
806.2230, 41536.00
807.3630, 41221.00
808.5020, 41087.00
809.6410, 41363.00
810.7790, 41454.00
811.9180, 41750.00
813.0570, 41708.00
814.1950, 41397.00
815.3330, 41653.00
816.4710, 41518.00
817.6090, 41532.00
818.7470, 41788.00
819.8840, 41391.00
821.0220, 41588.00
822.1590, 41558.00
823.2960, 41440.00
824.4330, 41592.00
825.5690, 41594.00
826.7060, 41867.00
827.8420, 42049.00
828.9790, 42141.00
830.1150, 41785.00
831.2510, 41773.00
832.3860, 41695.00
833.5220, 41849.00
834.6570, 41606.00
835.7930, 42035.00
836.9280, 42019.00
838.0630, 41928.00
839.1980, 41981.00
840.3320, 41810.00
841.4670, 41986.00
842.6010, 41628.00
843.7350, 42070.00
844.8690, 41976.00
846.0030, 42304.00
847.1370, 42411.15
848.2700, 42582.00
849.4040, 42656.00
850.5370, 42303.00
851.6700, 42439.00
852.8030, 42311.00
853.9360, 42862.00
855.0680, 42440.00
856.2000, 42710.00
857.3330, 42745.00
858.4650, 42795.00
859.5970, 42613.00
860.7290, 42593.00
861.8600, 42673.00
862.9920, 42769.00
864.1230, 42737.00
865.2540, 42678.00
866.3850, 42718.00
867.5160, 42862.00
868.6460, 42751.00
869.7770, 42716.00
870.9070, 43022.00
872.0370, 42995.00
873.1670, 42865.00
874.2970, 42946.00
875.4270, 42734.00
876.5570, 42738.00
877.6860, 42999.00
878.8150, 42975.00
879.9440, 43014.00
881.0730, 42883.00
882.2020, 42964.00
883.3300, 43028.00
884.4590, 42877.00
885.5870, 43065.00
886.7150, 42668.00
887.8430, 42698.00
888.9710, 43047.00
890.0990, 42795.00
891.2260, 43046.00
892.3530, 43389.00
893.4810, 43239.00
894.6080, 43073.00
895.7340, 43214.00
896.8610, 43473.00
897.9880, 43171.00
899.1140, 43390.00
900.2400, 43194.00
901.3660, 43469.00
902.4920, 43572.00
903.6180, 43588.00
904.7430, 43446.00
905.8690, 43761.00
906.9940, 43746.00
908.1190, 43943.00
909.2440, 43706.00
910.3690, 43777.00
911.4930, 43906.00
912.6180, 44125.00
913.7420, 44044.00
914.8660, 44020.00
915.9900, 44148.00
917.1140, 44159.00
918.2380, 44134.87
919.3610, 44118.00
920.4850, 44142.00
921.6080, 44142.00
922.7310, 44318.00
923.8540, 44405.00
924.9760, 44359.00
926.0990, 44434.09
927.2210, 44294.00
928.3440, 44365.00
929.4660, 44500.00
930.5880, 44352.00
931.7090, 44170.00
932.8310, 44210.00
933.9520, 44610.00
935.0740, 44312.00
936.1950, 44741.00
937.3160, 44550.00
938.4360, 44651.00
939.5570, 44729.00
940.6780, 44477.00
941.7980, 44889.00
942.9180, 44737.00
944.0380, 44731.00
945.1580, 44716.00
946.2780, 44704.52
947.3970, 44949.00
948.5170, 44772.00
949.6360, 44839.00
950.7550, 44878.00
951.8740, 44805.27
952.9930, 44960.00
954.1110, 44858.00
955.2300, 45023.00
956.3480, 45261.00
957.4660, 45188.00
958.5840, 45026.00
959.7020, 44823.00
960.8190, 45169.00
961.9370, 45026.00
963.0540, 45086.00
964.1710, 45415.00
965.2880, 45407.00
966.4050, 45327.00
967.5220, 45458.00
968.6380, 45526.00
969.7550, 45458.00
970.8710, 45751.00
971.9870, 45532.00
973.1030, 45303.00
974.2190, 45644.00
975.3340, 45654.00
976.4500, 45861.00
977.5650, 45746.00
978.6800, 45702.00
979.7950, 45753.00
980.9100, 45646.00
982.0250, 45947.00
983.1390, 45791.00
984.2530, 45967.00
985.3680, 46236.00
986.4820, 46016.00
987.5950, 46040.00
988.7090, 45914.00
989.8230, 46300.00
990.9360, 45808.00
992.0490, 46424.00
993.1620, 46331.00
994.2750, 45970.00
995.3880, 46075.00
996.5010, 46276.00
997.6130, 45895.00
998.7250, 46253.00
999.8370, 46520.00
1000.949, 46313.00
1002.061, 46687.00
1003.173, 46275.00
1004.284, 46516.00
1005.396, 46540.00
1006.507, 46504.00
1007.618, 46568.00
1008.729, 46605.42
1009.839, 46594.30
1010.950, 46698.00
1012.060, 46589.00
1013.171, 46546.00
1014.281, 46515.77
1015.391, 46700.00
1016.500, 46581.00
1017.610, 46731.00
1018.719, 46822.00
1019.829, 46551.00
1020.938, 46633.00
1022.047, 46684.00
1023.156, 46798.00
1024.264, 46781.57
1025.373, 47036.00
1026.481, 46829.00
1027.589, 46894.00
1028.697, 47077.00
1029.805, 46836.00
1030.913, 46926.00
1032.020, 46879.00
1033.128, 47046.00
1034.235, 47315.00
1035.342, 47341.00
1036.449, 47179.00
1037.556, 47433.00
1038.663, 47347.00
1039.769, 47469.00
1040.875, 47573.00
1041.981, 47342.00
1043.087, 47800.00
1044.193, 47494.00
1045.299, 47604.00
1046.404, 47693.00
1047.510, 47748.00
1048.615, 47722.00
1049.720, 47591.00
1050.825, 47848.00
1051.930, 48015.00
1053.034, 47982.00
1054.139, 48226.00
1055.243, 48004.00
1056.347, 47876.00
1057.451, 48068.00
1058.555, 47728.00
1059.658, 48075.00
1060.762, 48042.00
1061.865, 48092.00
1062.968, 48024.00
1064.071, 48379.00
1065.174, 48351.00
1066.277, 48179.00
1067.380, 48565.00
1068.482, 48388.00
1069.584, 48312.00
1070.686, 48775.00
1071.788, 48441.00
1072.890, 48198.00
1073.992, 48504.00
1075.093, 48725.00
1076.194, 48722.00
1077.295, 48619.00
1078.396, 48910.00
1079.497, 48785.00
1080.598, 49096.00
1081.698, 49028.00
1082.799, 49098.00
1083.899, 49666.00
1084.999, 49134.00
1086.099, 49492.00
1087.199, 49406.00
1088.298, 49077.00
1089.398, 49068.00
1090.497, 49369.00
1091.596, 48854.00
1092.695, 49347.00
1093.794, 48954.00
1094.892, 49270.00
1095.991, 48831.00
1097.089, 48955.00
1098.187, 49219.00
1099.285, 49377.00
1100.383, 48912.00
1101.481, 49007.00
1102.579, 48879.00
1103.676, 49096.00
1104.773, 49028.00
1105.870, 48899.00
1106.967, 48971.00
1108.064, 48916.54
1109.161, 49077.00
1110.257, 49010.00
1111.353, 49089.00
1112.449, 49303.00
1113.545, 48809.00
1114.641, 49601.00
1115.737, 48954.00
1116.832, 49055.00
1117.928, 49111.00
1119.023, 49454.00
1120.118, 49411.00
1121.213, 49498.00
1122.308, 49641.00
1123.402, 49868.00
1124.497, 49784.00
1125.591, 49766.00
1126.685, 49924.00
1127.779, 49561.00
1128.873, 49785.00
1129.967, 49372.00
1131.060, 49860.00
1132.153, 49761.00
1133.247, 49963.00
1134.340, 49976.00
1135.433, 50017.00
1136.525, 50073.00
1137.618, 50054.00
1138.710, 49778.00
1139.802, 50028.00
1140.895, 49983.00
1141.987, 50205.00
1143.078, 50070.00
1144.170, 49951.00
1145.261, 50121.00
1146.353, 50291.00
1147.444, 50302.00
1148.535, 50455.00
1149.626, 50498.00
1150.716, 50339.00
1151.807, 50267.00
1152.897, 50416.00
1153.988, 50021.00
1155.078, 50429.00
1156.168, 50151.00
1157.257, 50218.00
1158.347, 50567.00
1159.436, 50636.00
1160.526, 50764.00
1161.615, 50861.13
1162.704, 50373.00
1163.793, 50844.00
1164.881, 50771.00
1165.970, 50592.00
1167.058, 50994.00
1168.147, 50704.00
1169.235, 50883.00
1170.323, 50766.00
1171.410, 50967.00
1172.498, 51150.00
1173.585, 51094.00
1174.673, 51143.00
1175.760, 51146.00
1176.847, 51162.69
1177.934, 51088.00
1179.020, 51258.00
1180.107, 51162.00
1181.193, 51272.00
1182.279, 51473.00
1183.365, 51416.00
1184.451, 51276.00
1185.537, 51530.00
1186.623, 51546.00
1187.708, 51663.00
1188.793, 51642.00
1189.878, 51703.01
1190.963, 51626.00
1192.048, 51743.00
1193.133, 51790.00
1194.217, 51740.00
1195.302, 51747.00
1196.386, 51928.00
1197.470, 51898.62
1198.554, 51857.00
1199.638, 52033.00
1200.721, 51807.00
1201.805, 51927.00
1202.888, 52078.00
1203.971, 51702.00
1205.054, 51698.00
1206.137, 51998.00
1207.219, 52302.00
1208.302, 52256.00
1209.384, 52078.00
1210.466, 52121.00
1211.548, 52221.00
1212.630, 52279.00
1213.712, 52545.00
1214.794, 52515.06
1215.875, 52478.00
1216.956, 52618.00
1218.037, 52498.00
1219.118, 52664.00
1220.199, 52684.00
1221.280, 52513.00
1222.360, 52553.29
1223.441, 52465.00
1224.521, 52481.00
1225.601, 52446.00
1226.681, 52586.00
1227.760, 52914.00
1228.840, 52665.00
1229.919, 52994.00
1230.999, 52723.00
1232.078, 53206.00
1233.157, 52895.00
1234.236, 52987.00
1235.314, 53126.00
1236.393, 53155.00
1237.471, 53246.56
1238.549, 53075.00
1239.627, 53332.00
1240.705, 53210.00
1241.783, 53161.00
1242.860, 53306.00
1243.938, 53266.00
1245.015, 53335.00
1246.092, 53333.00
1247.169, 53440.00
1248.246, 53480.00
1249.323, 53381.00
1250.399, 53561.00
1251.475, 53601.00
1252.552, 53545.00
1253.628, 53772.00
1254.703, 53765.00
1255.779, 53800.00
1256.855, 53864.00
1257.930, 53664.00
1259.005, 53637.00
1260.080, 53671.54
1261.155, 53631.39
1262.230, 53788.00
1263.305, 53720.00
1264.379, 53846.00
1265.454, 53922.00
1266.528, 53824.00
1267.602, 54114.00
1268.676, 54316.00
1269.750, 54270.00
1270.823, 53974.00
1271.897, 54086.00
1272.970, 54427.00
1274.043, 54040.00
1275.116, 54427.00
1276.189, 54137.00
1277.261, 54320.00
1278.334, 54232.00
1279.406, 54394.00
1280.478, 54292.00
1281.550, 54265.00
1282.622, 54578.00
1283.694, 54444.00
1284.766, 54388.00
1285.837, 54420.00
1286.908, 54582.00
1287.979, 54604.16
1289.050, 54778.00
1290.121, 54788.00
1291.192, 54990.00
1292.262, 55063.00
1293.333, 54825.00
1294.403, 54698.00
1295.473, 55240.00
1296.543, 55218.00
1297.613, 54986.00
1298.682, 55189.00
1299.752, 55104.00
1300.821, 54986.00
1301.890, 55232.00
1302.959, 55340.00
1304.028, 55120.00
1305.096, 55173.00
1306.165, 55471.00
1307.233, 55507.00
1308.301, 55680.00
1309.370, 55766.43
1310.437, 55805.00
1311.505, 55865.00
1312.573, 55783.00
1313.640, 55791.00
1314.708, 55659.00
1315.775, 55786.00
1316.842, 55715.00
1317.908, 55826.00
1318.975, 55944.00
1320.042, 56013.00
1321.108, 56039.11
1322.174, 55775.00
1323.240, 56039.00
1324.306, 55962.14
1325.372, 55961.00
1326.438, 56154.00
1327.503, 56194.00
1328.568, 56393.00
1329.634, 56505.00
1330.699, 56687.00
1331.763, 56320.00
1332.828, 56442.00
1333.893, 56326.00
1334.957, 56378.00
1336.021, 56265.00
1337.085, 56823.00
