##NAMES=Clinoptilolite-Ca
##RRUFFID=R060662
##IDEAL CHEMISTRY=Ca_3_(Si_30_Al_6_)O_72_&#183;20H_2_O
##LOCALITY=Succor Creek, Malheur County, Oregon, USA
##OWNER=RRUFF
##SOURCE=Michael Scott
##DESCRIPTION=Group of colorless platy prismatic crystals
##STATUS=The identification of this mineral has been confirmed by X-ray diffraction and chemical analysis
##URL=rruff.info/R060662
##MEASURED CHEMISTRY=(Ca_1.02_Na_0.97_K_0.59_)_Σ=2.58_(Si_14.40_Al_3.60_)_Σ=18_O_36_·10.96H_2_O
##PIN_ID=M00397
##ORIENTATION=Laser parallel to c* (0 0 1). Fiducial mark perpendicular to laser is parallel to -a [-1 0 0]
84.83700, 22646.00
86.07200, 23692.00
87.30800, 24581.00
88.54200, 25517.00
89.77700, 26211.00
91.01200, 26802.00
92.24600, 27465.00
93.48000, 27522.00
94.71400, 28141.00
95.94800, 28424.00
97.18200, 28680.00
98.41600, 28990.00
99.64900, 29140.00
100.8830, 29589.00
102.1160, 29751.00
103.3490, 30074.00
104.5820, 30410.00
105.8150, 31045.00
107.0470, 32203.00
108.2800, 32809.00
109.5120, 32379.00
110.7440, 32065.00
111.9760, 32140.00
113.2080, 32520.00
114.4400, 32804.00
115.6710, 33068.00
116.9030, 32857.00
118.1340, 32551.00
119.3650, 32001.00
120.5960, 31493.00
121.8270, 30956.00
123.0580, 30558.00
124.2880, 29822.00
125.5190, 29372.00
126.7490, 28295.00
127.9790, 27938.00
129.2090, 27134.00
130.4390, 26957.00
131.6680, 26207.00
132.8980, 25812.00
134.1270, 25591.00
135.3560, 25316.00
136.5850, 25309.00
137.8140, 25140.00
139.0430, 24811.00
140.2710, 25110.00
141.5000, 24933.00
142.7280, 24677.00
143.9560, 24435.00
145.1840, 24430.00
146.4120, 24291.00
147.6390, 24085.00
148.8670, 24122.00
150.0940, 23641.00
151.3210, 23593.00
152.5490, 23060.00
153.7750, 22797.00
155.0020, 22585.00
156.2290, 22166.00
157.4550, 22041.00
158.6810, 21619.00
159.9080, 21312.00
161.1340, 20969.00
162.3590, 20590.00
163.5850, 20260.00
164.8110, 19922.00
166.0360, 19831.00
167.2610, 19421.00
168.4860, 19128.00
169.7110, 18948.00
170.9360, 18589.00
172.1610, 18446.00
173.3850, 18040.00
174.6100, 18028.00
175.8340, 17682.00
177.0580, 17378.00
178.2820, 17493.00
179.5050, 17374.00
180.7290, 17195.00
181.9520, 17065.00
183.1760, 16905.00
184.3990, 16818.00
185.6220, 16948.00
186.8450, 16894.00
188.0670, 16870.00
189.2900, 16817.13
190.5120, 16574.00
191.7340, 16651.00
192.9560, 16523.00
194.1780, 16523.00
195.4000, 16493.00
196.6220, 16503.00
197.8430, 16445.00
199.0640, 16350.00
200.2860, 16681.00
201.5070, 16564.00
202.7270, 16331.00
203.9480, 16168.00
205.1690, 15856.00
206.3890, 15601.00
207.6090, 15611.00
208.8290, 15366.00
210.0490, 15265.00
211.2690, 15361.00
212.4890, 15462.00
213.7080, 15367.00
214.9280, 15388.00
216.1470, 15208.00
217.3660, 15343.00
218.5850, 15408.00
219.8030, 15248.00
221.0220, 15369.00
222.2400, 15276.00
223.4590, 15313.00
224.6770, 15264.00
225.8950, 15290.00
227.1120, 15406.00
228.3300, 15567.00
229.5480, 15513.00
230.7650, 15433.00
231.9820, 15666.00
233.1990, 15716.00
234.4160, 15833.00
235.6330, 15919.00
236.8490, 16022.00
238.0660, 15955.00
239.2820, 16019.00
240.4980, 16227.00
241.7140, 16487.00
242.9300, 16605.00
244.1460, 16578.00
245.3610, 16567.00
246.5770, 16796.00
247.7920, 16942.00
249.0070, 17052.00
250.2220, 17114.00
251.4370, 17402.00
252.6510, 17342.00
253.8660, 17365.00
255.0800, 17566.00
256.2940, 17721.00
257.5080, 17982.00
258.7220, 17950.31
259.9360, 18187.00
261.1490, 17956.00
262.3630, 17811.00
263.5760, 17951.00
264.7890, 17607.00
266.0020, 17820.00
267.2150, 17721.00
268.4270, 17622.00
269.6400, 17573.00
270.8520, 17460.00
272.0640, 17324.00
273.2760, 17495.00
274.4880, 17496.00
275.7000, 17422.00
276.9120, 17382.00
278.1230, 17362.56
279.3340, 17330.00
280.5450, 17360.00
281.7560, 17370.00
282.9670, 17473.00
284.1780, 17572.00
285.3880, 17359.00
286.5980, 17573.00
287.8090, 17398.00
289.0190, 17639.00
290.2290, 17526.00
291.4380, 17603.00
292.6480, 17378.00
293.8570, 17770.00
295.0670, 17572.00
296.2760, 17616.00
297.4850, 17546.00
298.6930, 17627.00
299.9020, 17748.00
301.1110, 17672.00
302.3190, 17602.00
303.5270, 17828.00
304.7350, 17859.00
305.9430, 17832.00
307.1510, 18111.00
308.3580, 18220.00
309.5660, 18139.00
310.7730, 18346.00
311.9800, 18339.00
313.1870, 18550.00
314.3940, 18949.00
315.6010, 19237.00
316.8070, 19298.00
318.0130, 19620.00
319.2200, 19626.00
320.4260, 19890.00
321.6310, 20089.00
322.8370, 20202.00
324.0430, 20475.00
325.2480, 20354.00
326.4540, 20624.00
327.6590, 20632.00
328.8640, 20653.00
330.0680, 20649.00
331.2730, 20659.00
332.4780, 20674.75
333.6820, 20712.00
334.8860, 20737.00
336.0900, 20815.00
337.2940, 20920.00
338.4980, 20907.00
339.7010, 21350.00
340.9050, 21170.00
342.1080, 21473.00
343.3110, 21429.00
344.5140, 21554.00
345.7170, 21846.00
346.9200, 21985.00
348.1220, 22025.00
349.3240, 22312.00
350.5270, 22426.00
351.7290, 22698.00
352.9310, 23019.00
354.1320, 23229.00
355.3340, 23680.00
356.5350, 23858.00
357.7370, 24095.00
358.9380, 24744.00
360.1390, 24993.00
361.3400, 25492.00
362.5400, 25935.00
363.7410, 26378.00
364.9410, 26990.00
366.1410, 27409.00
367.3410, 27833.00
368.5410, 28233.00
369.7410, 28989.00
370.9400, 29403.00
372.1400, 30321.00
373.3390, 30632.00
374.5380, 31149.00
375.7370, 31996.00
376.9360, 32701.00
378.1350, 33475.00
379.3330, 34483.00
380.5310, 35166.00
381.7300, 36306.00
382.9280, 37278.00
384.1260, 38202.00
385.3230, 39591.00
386.5210, 41107.00
387.7180, 42649.00
388.9160, 44399.00
390.1130, 46008.25
391.3100, 47570.00
392.5060, 49485.00
393.7030, 51425.00
394.9000, 53333.00
396.0960, 55064.00
397.2920, 56779.00
398.4880, 58228.00
399.6840, 59341.00
400.8800, 59806.00
402.0750, 60123.00
403.2710, 59893.00
404.4660, 59730.00
405.6610, 58683.00
406.8560, 57454.00
408.0510, 56338.00
409.2450, 54292.00
410.4400, 52803.00
411.6340, 50723.00
412.8280, 48784.00
414.0220, 46570.00
415.2160, 44763.00
416.4100, 42776.00
417.6030, 41045.00
418.7970, 39017.00
419.9900, 36970.00
421.1830, 35819.00
422.3760, 33523.00
423.5690, 31964.00
424.7610, 30515.00
425.9540, 29027.00
427.1460, 27777.00
428.3380, 26555.00
429.5300, 25494.00
430.7220, 24793.00
431.9140, 23878.00
433.1050, 23170.00
434.2970, 22420.00
435.4880, 21798.00
436.6790, 21536.00
437.8700, 21086.00
439.0610, 20673.00
440.2510, 20520.00
441.4420, 20166.00
442.6320, 20061.00
443.8220, 20242.00
445.0120, 20032.00
446.2020, 20263.00
447.3910, 20432.00
448.5810, 20713.00
449.7700, 21064.19
450.9600, 21399.00
452.1490, 21963.00
453.3370, 22438.00
454.5260, 23127.00
455.7150, 23902.00
456.9030, 24903.00
458.0910, 25926.00
459.2800, 26787.00
460.4670, 27950.00
461.6550, 28701.00
462.8430, 29585.00
464.0300, 30425.00
465.2180, 30978.00
466.4050, 31783.00
467.5920, 32173.00
468.7790, 32938.00
469.9650, 33504.00
471.1520, 34563.00
472.3380, 35451.00
473.5250, 36933.00
474.7110, 38051.00
475.8970, 39908.00
477.0820, 40877.00
478.2680, 41919.00
479.4540, 43150.00
480.6390, 43392.00
481.8240, 43816.00
483.0090, 43038.00
484.1940, 42206.00
485.3780, 40401.00
486.5630, 38513.00
487.7470, 36286.00
488.9320, 34118.00
490.1160, 31777.00
491.3000, 29242.00
492.4830, 27310.00
493.6670, 25421.00
494.8500, 23781.00
496.0340, 22397.00
497.2170, 21110.00
498.4000, 20172.00
499.5820, 19338.00
500.7650, 18464.00
501.9480, 18088.00
503.1300, 17426.00
504.3120, 17076.00
505.4940, 16673.00
506.6760, 16506.00
507.8580, 16157.00
509.0390, 15885.00
510.2210, 15862.00
511.4020, 15492.00
512.5830, 15416.00
513.7640, 15215.00
514.9450, 15304.00
516.1250, 15177.00
517.3060, 14991.00
518.4860, 14855.00
519.6660, 14806.00
520.8460, 14727.00
522.0260, 14544.00
523.2060, 14558.00
524.3850, 14658.00
525.5650, 14482.00
526.7440, 14487.00
527.9230, 14360.00
529.1020, 14276.00
530.2810, 14146.00
531.4590, 13942.00
532.6380, 14032.00
533.8160, 13874.00
534.9940, 13806.00
536.1720, 13938.00
537.3500, 13813.00
538.5270, 13888.00
539.7050, 13873.00
540.8820, 13849.00
542.0590, 13751.00
543.2360, 13887.00
544.4130, 13875.00
545.5900, 13723.00
546.7660, 13712.00
547.9430, 13844.00
549.1190, 13705.00
550.2950, 13745.00
551.4710, 13793.00
552.6470, 13801.00
553.8220, 13916.00
554.9980, 13877.00
556.1730, 13770.00
557.3480, 13765.00
558.5230, 13903.00
559.6980, 13820.00
560.8730, 13881.00
562.0470, 13958.00
563.2220, 13897.00
564.3960, 13952.00
565.5700, 14027.00
566.7440, 14060.00
567.9170, 14083.00
569.0910, 14195.00
570.2640, 14013.00
571.4380, 13890.00
572.6110, 13978.00
573.7840, 14171.00
574.9570, 14155.00
576.1290, 14175.00
577.3020, 14245.00
578.4740, 14321.00
579.6460, 14360.81
580.8180, 14580.00
581.9900, 14488.00
583.1620, 14627.00
584.3330, 14735.00
585.5040, 14724.00
586.6760, 14846.00
587.8470, 14911.00
589.0180, 15067.00
590.1880, 15137.00
591.3590, 15129.00
592.5290, 15506.00
593.7000, 15430.00
594.8700, 15662.00
596.0400, 15777.00
597.2090, 16123.00
598.3790, 16292.00
599.5490, 16558.00
600.7180, 16881.00
601.8870, 17010.00
603.0560, 17243.00
604.2250, 17709.00
605.3940, 17719.00
606.5620, 18429.00
607.7300, 18431.00
608.8990, 18879.00
610.0670, 19309.00
611.2350, 19331.00
612.4020, 19501.00
613.5700, 19883.00
614.7370, 19587.00
615.9050, 19695.00
617.0720, 19833.00
618.2390, 19474.00
619.4060, 19556.00
620.5720, 19644.00
621.7390, 19291.00
622.9050, 19279.00
624.0710, 18857.00
625.2370, 18520.00
626.4030, 18053.00
627.5690, 17555.00
628.7340, 17218.00
629.9000, 16805.00
631.0650, 16528.77
632.2300, 16270.00
633.3950, 16120.00
634.5600, 15949.00
635.7240, 15916.00
636.8890, 15797.00
638.0530, 15902.00
639.2170, 15867.00
640.3810, 15904.00
641.5450, 15809.00
642.7080, 15950.00
643.8720, 15999.00
645.0350, 15892.00
646.1980, 15801.00
647.3610, 15795.00
648.5240, 15790.00
649.6870, 15528.00
650.8490, 15396.00
652.0120, 15262.00
653.1740, 15213.00
654.3360, 15121.00
655.4980, 14875.00
656.6600, 14592.00
657.8210, 14496.00
658.9830, 14501.00
660.1440, 14316.00
661.3050, 14362.00
662.4660, 14310.00
663.6270, 14155.00
664.7870, 14118.00
665.9480, 13971.00
667.1080, 14183.00
668.2680, 14142.00
669.4280, 14080.00
670.5880, 13944.00
671.7480, 14042.00
672.9070, 13884.00
674.0670, 13846.00
675.2260, 13922.00
676.3850, 13865.00
677.5440, 13894.99
678.7030, 14068.00
679.8610, 13916.00
681.0200, 13905.00
682.1780, 13903.00
683.3360, 13796.00
684.4940, 13861.00
685.6520, 13822.00
686.8090, 13773.00
687.9670, 13935.00
689.1240, 14021.00
690.2810, 13966.00
691.4380, 13989.00
692.5950, 14051.00
693.7520, 14036.15
694.9080, 13910.00
696.0650, 14041.00
697.2210, 14053.00
698.3770, 13976.00
699.5330, 14118.00
700.6880, 14278.00
701.8440, 14134.00
702.9990, 14144.00
704.1550, 14418.00
705.3100, 14231.00
706.4650, 14423.00
707.6190, 14634.00
708.7740, 14720.00
709.9290, 14902.00
711.0830, 15007.00
712.2370, 15193.00
713.3910, 15186.00
714.5450, 15196.00
715.6980, 15246.00
716.8520, 15179.00
718.0050, 15136.00
719.1580, 15125.00
720.3110, 15215.00
721.4640, 14992.00
722.6170, 15198.00
723.7700, 15018.00
724.9220, 14974.00
726.0740, 14871.00
727.2260, 14935.00
728.3780, 14909.00
729.5300, 14865.00
730.6810, 14738.00
731.8330, 14918.00
732.9840, 15055.00
734.1350, 14944.00
735.2860, 15023.00
736.4370, 15002.00
737.5880, 15047.00
738.7380, 14949.00
739.8880, 15075.00
741.0390, 15029.00
742.1890, 15009.00
743.3380, 15114.00
744.4880, 15163.00
745.6380, 15299.00
746.7870, 15523.00
747.9360, 15396.64
749.0850, 15513.00
750.2340, 15227.00
751.3830, 15157.00
752.5310, 15131.00
753.6800, 15307.00
754.8280, 15221.00
755.9760, 15288.00
757.1240, 15371.00
758.2720, 15524.00
759.4190, 15533.00
760.5670, 15586.00
761.7140, 15844.00
762.8610, 15843.00
764.0080, 15890.00
765.1550, 15959.38
766.3020, 15924.00
767.4480, 15944.00
768.5950, 16004.00
769.7410, 15926.00
770.8870, 16145.00
772.0330, 16023.00
773.1780, 16120.00
774.3240, 16146.00
775.4690, 16217.00
776.6140, 16125.00
777.7590, 16308.00
778.9040, 16126.00
780.0490, 16206.00
781.1940, 16233.00
782.3380, 16110.32
783.4820, 16054.00
784.6260, 15964.00
785.7700, 15961.01
786.9140, 15952.13
788.0580, 15975.00
789.2010, 16006.00
790.3450, 15987.00
791.4880, 16030.00
792.6310, 15938.00
793.7730, 15878.00
794.9160, 15912.00
796.0590, 15848.00
797.2010, 15871.00
798.3430, 15808.00
799.4850, 15813.00
800.6270, 15666.00
801.7690, 15730.00
802.9100, 15568.00
804.0520, 15652.00
805.1930, 15797.00
806.3340, 15644.00
807.4750, 15554.00
808.6160, 15541.00
809.7560, 15478.48
810.8970, 15638.29
812.0370, 15730.79
813.1770, 15759.60
814.3170, 15533.96
815.4570, 15636.89
816.5960, 15608.13
817.7360, 15573.98
818.8750, 15723.15
820.0140, 15534.51
821.1530, 15680.77
822.2920, 15693.35
823.4310, 15767.10
824.5690, 15708.37
825.7070, 15690.55
826.8460, 15805.28
827.9840, 15846.61
829.1220, 15772.62
830.2590, 15850.26
831.3970, 15656.99
832.5340, 15701.44
833.6710, 15848.47
834.8080, 15781.14
835.9450, 15861.20
837.0820, 15885.12
838.2190, 15653.94
839.3550, 15866.41
840.4910, 15887.01
841.6270, 15710.61
842.7630, 15907.88
843.8990, 15758.63
845.0350, 15733.07
846.1700, 15800.59
847.3060, 15771.07
848.4410, 15894.54
849.5760, 15870.62
850.7100, 15833.54
851.8450, 15853.92
852.9800, 15711.46
854.1140, 15871.10
855.2480, 15824.38
856.3820, 15880.23
857.5160, 15959.33
858.6500, 15860.41
859.7830, 15949.96
860.9170, 15747.23
862.0500, 15789.06
863.1830, 15804.55
864.3160, 15976.36
865.4480, 15775.05
866.5810, 15810.08
867.7130, 15945.74
868.8460, 15940.60
869.9780, 15994.32
871.1100, 15873.76
872.2410, 15916.93
873.3730, 15914.96
874.5050, 16068.95
875.6360, 16099.81
876.7670, 15982.21
877.8980, 15865.23
879.0290, 16030.43
880.1590, 15928.17
881.2900, 15970.21
882.4200, 15863.22
883.5500, 15884.90
884.6800, 15904.54
885.8100, 15990.13
886.9400, 15875.73
888.0690, 16020.75
889.1990, 16015.83
890.3280, 16055.08
891.4570, 16089.41
892.5860, 15922.53
893.7140, 15920.59
894.8430, 16154.68
895.9710, 16028.82
897.1000, 15975.61
898.2280, 15974.04
899.3560, 16216.21
900.4830, 16231.82
901.6110, 15976.65
902.7380, 16208.06
903.8660, 16140.12
904.9930, 16161.14
906.1200, 16149.70
907.2460, 16147.86
908.3730, 16023.81
909.5000, 16060.82
910.6260, 16228.77
911.7520, 16173.47
912.8780, 16269.86
914.0040, 16089.80
915.1290, 16073.83
916.2550, 16101.43
917.3800, 16144.91
918.5050, 16061.46
919.6300, 16231.85
920.7550, 16233.22
921.8800, 16088.13
923.0040, 16101.92
924.1290, 16089.33
925.2530, 16351.38
926.3770, 16235.83
927.5010, 16093.54
928.6250, 16250.59
929.7480, 16311.69
930.8720, 16243.09
931.9950, 16243.40
933.1180, 16112.95
934.2410, 16183.04
935.3640, 16184.16
936.4860, 16298.90
937.6090, 16168.98
938.7310, 16320.72
939.8530, 16197.35
940.9750, 16360.50
942.0970, 16231.32
943.2180, 16362.54
944.3400, 16182.93
945.4610, 16228.30
946.5820, 16291.50
947.7030, 16412.29
948.8240, 16311.65
949.9450, 16446.11
951.0650, 16374.24
952.1860, 16436.67
953.3060, 16424.63
954.4260, 16319.38
955.5460, 16477.01
956.6650, 16394.88
957.7850, 16474.65
958.9040, 16292.19
960.0230, 16428.50
961.1420, 16471.00
962.2610, 16292.00
963.3800, 16258.00
964.4990, 16758.00
965.6170, 16491.07
966.7350, 16721.00
967.8530, 16273.99
968.9710, 16462.86
970.0890, 16584.42
971.2070, 16642.29
972.3240, 16445.68
973.4410, 16577.64
974.5580, 16577.92
975.6750, 16572.80
976.7920, 16751.01
977.9090, 16591.41
979.0250, 16766.67
980.1410, 16808.25
981.2580, 16911.05
982.3740, 16881.32
983.4890, 16892.49
984.6050, 17036.22
985.7200, 17106.53
986.8360, 17061.55
987.9510, 17168.18
989.0660, 17003.88
990.1810, 17077.33
991.2950, 17253.30
992.4100, 17214.96
993.5240, 17323.97
994.6390, 17376.88
995.7530, 17174.65
996.8660, 17416.05
997.9800, 17465.61
999.0940, 17318.16
1000.207, 17544.36
1001.320, 17424.04
1002.433, 17427.41
1003.546, 17523.86
1004.659, 17523.27
1005.772, 17675.67
1006.884, 17680.66
1007.996, 17672.47
1009.108, 17721.76
1010.220, 17608.21
1011.332, 17796.75
1012.444, 17778.93
1013.555, 17863.66
1014.666, 17971.64
1015.777, 17901.59
1016.888, 18020.02
1017.999, 17846.17
1019.110, 17916.88
1020.220, 17961.22
1021.331, 18161.91
1022.441, 17989.45
1023.551, 18053.34
1024.661, 18217.85
1025.770, 18241.52
1026.880, 18324.10
1027.989, 18232.37
1029.098, 18304.35
1030.207, 18331.21
1031.316, 18518.00
1032.425, 18348.00
1033.533, 18464.00
1034.642, 18429.00
1035.750, 18486.00
1036.858, 18595.00
1037.966, 18374.00
1039.073, 18596.00
1040.181, 18405.00
1041.288, 18609.00
1042.396, 18518.00
1043.503, 18550.00
1044.610, 18550.00
1045.716, 18421.00
1046.823, 18514.00
1047.929, 18480.00
1049.036, 18665.00
1050.142, 18496.00
1051.248, 18590.00
1052.353, 18624.00
1053.459, 18493.00
1054.564, 18467.00
1055.670, 18535.00
1056.775, 18494.00
1057.880, 18548.19
1058.985, 18422.00
1060.089, 18629.00
1061.194, 18739.00
1062.298, 18772.00
1063.402, 18660.00
1064.506, 18801.80
1065.610, 18755.00
1066.713, 18911.00
1067.817, 18847.00
1068.920, 18797.00
1070.023, 18941.00
1071.126, 19041.00
1072.229, 19164.00
1073.332, 19227.00
1074.435, 19456.00
1075.537, 19674.00
1076.639, 19797.00
1077.741, 19916.00
1078.843, 20161.00
1079.945, 20124.00
1081.046, 20378.00
1082.148, 20382.00
1083.249, 20474.00
1084.350, 20582.00
1085.451, 20498.00
1086.551, 20653.00
1087.652, 20708.00
1088.752, 20581.00
1089.853, 20678.00
1090.953, 20736.00
1092.053, 20808.00
1093.152, 20733.00
1094.252, 20933.00
1095.351, 21051.00
1096.451, 20985.00
1097.550, 21233.00
1098.649, 21511.00
1099.748, 21492.00
1100.846, 21545.00
1101.945, 21638.00
1103.043, 21680.00
1104.141, 21880.00
1105.239, 21944.00
1106.337, 22055.00
1107.434, 22042.00
1108.532, 22421.00
1109.629, 22421.00
1110.726, 22723.00
1111.823, 22835.00
1112.920, 22637.00
1114.017, 22704.00
1115.113, 22791.00
1116.210, 22999.00
1117.306, 22968.00
1118.402, 22964.00
1119.498, 23119.00
1120.593, 23314.00
1121.689, 23191.00
1122.784, 23394.00
1123.879, 23442.00
1124.974, 23321.00
1126.069, 23485.00
1127.164, 23650.00
1128.259, 23710.00
1129.353, 23801.00
1130.447, 23781.00
1131.541, 23825.76
1132.635, 23869.32
1133.729, 23883.00
1134.822, 23901.00
1135.916, 23911.54
1137.009, 23943.00
1138.102, 23929.00
1139.195, 23913.00
1140.288, 23950.00
1141.380, 23966.00
1142.473, 23864.00
1143.565, 23922.00
1144.657, 23968.00
1145.749, 24040.00
1146.841, 23888.00
1147.932, 24033.00
1149.024, 24231.00
1150.115, 24009.00
1151.206, 24172.00
1152.297, 24106.00
1153.388, 24144.00
1154.479, 24152.46
1155.569, 24132.00
1156.659, 24096.00
1157.750, 24025.00
1158.839, 23957.00
1159.929, 23941.09
1161.019, 23841.56
1162.108, 23907.00
1163.198, 23705.00
1164.287, 23683.00
1165.376, 23684.00
1166.465, 23706.00
1167.553, 23659.29
1168.642, 23495.00
1169.730, 23504.00
1170.818, 23531.00
1171.906, 23286.00
1172.994, 23088.00
1174.082, 23178.00
1175.170, 23008.00
1176.257, 22992.00
1177.344, 22726.00
1178.431, 22727.00
1179.518, 22684.00
1180.605, 22548.00
1181.691, 22492.00
1182.778, 22254.00
1183.864, 22122.00
1184.950, 22039.00
1186.036, 21992.00
1187.122, 21881.00
1188.207, 21652.00
1189.292, 21307.00
1190.378, 21305.00
1191.463, 21148.00
1192.548, 21219.00
1193.632, 20975.00
1194.717, 20850.00
1195.801, 20585.00
1196.886, 20708.00
1197.970, 20517.00
1199.054, 20499.00
1200.137, 20256.00
1201.221, 20197.00
1202.305, 20328.00
1203.388, 20189.00
1204.471, 20195.00
1205.554, 20110.00
1206.637, 20017.00
1207.719, 19920.00
1208.802, 19950.00
1209.884, 19930.00
1210.966, 19931.00
1212.048, 19951.00
1213.130, 20104.00
1214.212, 19955.00
1215.293, 20059.00
1216.374, 19877.00
1217.456, 20032.00
1218.536, 19804.00
1219.617, 19939.00
1220.698, 19909.00
1221.778, 19916.00
1222.859, 20032.00
1223.939, 20062.00
1225.019, 20031.00
1226.099, 19978.00
1227.178, 19847.00
1228.258, 19886.56
1229.337, 20071.00
1230.417, 19932.00
1231.496, 20203.00
1232.574, 20280.00
1233.653, 19957.00
1234.732, 20212.00
1235.810, 20243.00
1236.888, 20067.00
1237.966, 20073.00
1239.044, 20148.00
1240.122, 20041.00
1241.199, 20014.00
1242.277, 20091.00
1243.354, 20138.91
1244.431, 20297.49
1245.508, 20388.76
1246.585, 20416.35
1247.661, 20189.47
1248.738, 20291.18
1249.814, 20261.20
1250.890, 20225.82
1251.966, 20373.76
1253.042, 20183.90
1254.117, 20328.93
1255.193, 20340.28
1256.268, 20412.81
1257.343, 20352.85
1258.418, 20333.81
1259.493, 20447.30
1260.567, 20487.41
1261.642, 20412.20
1262.716, 20488.61
1263.790, 20294.11
