##NAMES=Clinoptilolite-Ca
##RRUFFID=R060662
##IDEAL CHEMISTRY=Ca_3_(Si_30_Al_6_)O_72_&#183;20H_2_O
##LOCALITY=Succor Creek, Malheur County, Oregon, USA
##OWNER=RRUFF
##SOURCE=Michael Scott
##DESCRIPTION=Group of colorless platy prismatic crystals
##STATUS=The identification of this mineral has been confirmed by X-ray diffraction and chemical analysis
##URL=rruff.info/R060662
##MEASURED CHEMISTRY=(Ca_1.02_Na_0.97_K_0.59_)_Σ=2.58_(Si_14.40_Al_3.60_)_Σ=18_O_36_·10.96H_2_O
##PIN_ID=M00397
##ORIENTATION=Laser parallel to c* (0 0 1). Fiducial mark perpendicular to laser is parallel to -a [-1 0 0]
84.83700, 25886.00
86.07200, 27190.00
87.30800, 28536.00
88.54200, 29983.00
89.77700, 31325.00
91.01200, 32641.00
92.24600, 33623.00
93.48000, 34507.00
94.71400, 35179.00
95.94800, 36105.00
97.18200, 36592.00
98.41600, 37277.00
99.64900, 37674.00
100.8830, 38281.00
102.1160, 38217.00
103.3490, 38842.00
104.5820, 39573.00
105.8150, 40078.00
107.0470, 41261.00
108.2800, 41141.00
109.5120, 41767.00
110.7440, 41116.00
111.9760, 41439.00
113.2080, 41503.00
114.4400, 41735.00
115.6710, 41883.00
116.9030, 42014.00
118.1340, 41748.00
119.3650, 41710.00
120.5960, 41528.00
121.8270, 41419.00
123.0580, 41590.00
124.2880, 41660.00
125.5190, 41242.00
126.7490, 41146.00
127.9790, 41610.00
129.2090, 41356.00
130.4390, 41496.00
131.6680, 41569.00
132.8980, 41881.00
134.1270, 42116.00
135.3560, 42205.00
136.5850, 42548.00
137.8140, 42835.00
139.0430, 43200.00
140.2710, 43670.00
141.5000, 43658.00
142.7280, 43428.00
143.9560, 43179.00
145.1840, 43574.00
146.4120, 43366.00
147.6390, 43382.00
148.8670, 43114.00
150.0940, 43168.00
151.3210, 43324.00
152.5490, 42630.00
153.7750, 42117.00
155.0020, 42108.00
156.2290, 41385.00
157.4550, 41006.00
158.6810, 40120.00
159.9080, 39468.00
161.1340, 38812.00
162.3590, 37908.00
163.5850, 37210.00
164.8110, 36467.63
166.0360, 35735.00
167.2610, 35004.00
168.4860, 34391.00
169.7110, 33654.00
170.9360, 33346.00
172.1610, 32475.00
173.3850, 31982.00
174.6100, 31373.00
175.8340, 31170.00
177.0580, 30761.00
178.2820, 30329.00
179.5050, 29743.00
180.7290, 29659.00
181.9520, 29414.00
183.1760, 29222.00
184.3990, 29203.00
185.6220, 29002.00
186.8450, 28914.00
188.0670, 28945.33
189.2900, 29146.00
190.5120, 29067.00
191.7340, 29015.00
192.9560, 29149.00
194.1780, 28714.00
195.4000, 28825.00
196.6220, 28900.00
197.8430, 28630.00
199.0640, 28445.00
200.2860, 28287.00
201.5070, 28066.00
202.7270, 27778.00
203.9480, 27302.00
205.1690, 26759.00
206.3890, 26424.00
207.6090, 25966.00
208.8290, 25487.00
210.0490, 25078.00
211.2690, 24883.00
212.4890, 24551.00
213.7080, 24325.00
214.9280, 23990.00
216.1470, 23829.00
217.3660, 23587.00
218.5850, 23477.00
219.8030, 23254.00
221.0220, 23143.60
222.2400, 22978.00
223.4590, 22920.00
224.6770, 22823.00
225.8950, 22697.00
227.1120, 22549.00
228.3300, 22623.00
229.5480, 22522.00
230.7650, 22821.00
231.9820, 22596.00
233.1990, 22855.00
234.4160, 22783.00
235.6330, 23066.00
236.8490, 23081.00
238.0660, 23098.00
239.2820, 23304.00
240.4980, 23229.00
241.7140, 23680.00
242.9300, 23670.00
244.1460, 23842.00
245.3610, 23963.00
246.5770, 24183.00
247.7920, 24176.00
249.0070, 24387.00
250.2220, 24643.00
251.4370, 24501.00
252.6510, 24813.00
253.8660, 24651.00
255.0800, 24686.00
256.2940, 24854.00
257.5080, 25163.00
258.7220, 25093.02
259.9360, 25246.00
261.1490, 24959.00
262.3630, 24904.00
263.5760, 24561.00
264.7890, 24805.00
266.0020, 24743.00
267.2150, 24724.00
268.4270, 24738.00
269.6400, 24467.00
270.8520, 24750.00
272.0640, 24407.00
273.2760, 24575.00
274.4880, 24424.00
275.7000, 24351.00
276.9120, 24262.00
278.1230, 24389.00
279.3340, 24219.00
280.5450, 24373.00
281.7560, 24300.00
282.9670, 24209.00
284.1780, 24195.00
285.3880, 24249.00
286.5980, 24257.00
287.8090, 24293.09
289.0190, 24306.00
290.2290, 24320.23
291.4380, 24329.00
292.6480, 24340.00
293.8570, 24367.00
295.0670, 24368.00
296.2760, 24338.72
297.4850, 24173.00
298.6930, 24250.00
299.9020, 24176.82
301.1110, 24114.00
302.3190, 24196.00
303.5270, 24326.00
304.7350, 24496.00
305.9430, 24383.00
307.1510, 24434.00
308.3580, 24585.00
309.5660, 24594.00
310.7730, 24542.00
311.9800, 24556.00
313.1870, 24436.00
314.3940, 24630.18
315.6010, 25015.00
316.8070, 25008.00
318.0130, 25188.00
319.2200, 25374.00
320.4260, 25559.00
321.6310, 25751.00
322.8370, 25808.00
324.0430, 25894.00
325.2480, 26203.00
326.4540, 26140.00
327.6590, 26504.00
328.8640, 26293.00
330.0680, 26432.00
331.2730, 26506.00
332.4780, 26458.00
333.6820, 26610.00
334.8860, 26682.00
336.0900, 27235.00
337.2940, 27303.00
338.4980, 27645.00
339.7010, 27921.00
340.9050, 27678.00
342.1080, 26783.00
343.3110, 26866.00
344.5140, 26972.00
345.7170, 27302.00
346.9200, 26974.00
348.1220, 27450.00
349.3240, 27447.00
350.5270, 27703.00
351.7290, 28153.00
352.9310, 28141.00
354.1320, 28436.00
355.3340, 28481.00
356.5350, 29172.00
357.7370, 29235.00
358.9380, 29853.00
360.1390, 30062.00
361.3400, 30616.00
362.5400, 30993.00
363.7410, 31488.00
364.9410, 32169.00
366.1410, 32447.00
367.3410, 33326.00
368.5410, 33711.00
369.7410, 34230.00
370.9400, 34785.00
372.1400, 35163.00
373.3390, 35904.00
374.5380, 36420.00
375.7370, 37273.00
376.9360, 37885.00
378.1350, 38470.00
379.3330, 39413.00
380.5310, 40266.00
381.7300, 40794.00
382.9280, 41764.00
384.1260, 43137.00
385.3230, 43900.00
386.5210, 45280.00
387.7180, 46673.00
388.9160, 47866.00
390.1130, 49431.00
391.3100, 51008.00
392.5060, 52618.00
393.7030, 54088.00
394.9000, 55610.00
396.0960, 57067.00
397.2920, 58532.00
398.4880, 59536.00
399.6840, 60372.00
400.8800, 61395.00
402.0750, 61496.00
403.2710, 61394.00
404.4660, 61024.00
405.6610, 60203.00
406.8560, 59240.00
408.0510, 57706.00
409.2450, 56666.00
410.4400, 54793.00
411.6340, 53536.00
412.8280, 51815.00
414.0220, 49902.00
415.2160, 48260.00
416.4100, 46343.00
417.6030, 44742.72
418.7970, 43223.00
419.9900, 41603.00
421.1830, 40155.00
422.3760, 38755.00
423.5690, 37335.00
424.7610, 36032.93
425.9540, 34830.67
427.1460, 33585.00
428.3380, 32617.00
429.5300, 31664.00
430.7220, 30705.00
431.9140, 30120.00
433.1050, 29423.00
434.2970, 28706.00
435.4880, 28136.00
436.6790, 27591.00
437.8700, 27398.00
439.0610, 27164.00
440.2510, 27275.00
441.4420, 26497.00
442.6320, 26380.00
443.8220, 26267.00
445.0120, 26499.00
446.2020, 26200.00
447.3910, 26393.00
448.5810, 26570.00
449.7700, 26640.00
450.9600, 27054.00
452.1490, 27331.00
453.3370, 27669.00
454.5260, 28017.00
455.7150, 28737.00
456.9030, 29359.00
458.0910, 30042.00
459.2800, 30678.00
460.4670, 31585.00
461.6550, 32295.00
462.8430, 33145.00
464.0300, 33941.00
465.2180, 34485.54
466.4050, 35399.00
467.5920, 35557.00
468.7790, 36596.00
469.9650, 37188.00
471.1520, 38084.00
472.3380, 39120.00
473.5250, 40624.00
474.7110, 41946.00
475.8970, 43760.00
477.0820, 44775.00
478.2680, 46406.00
479.4540, 47590.00
480.6390, 48542.00
481.8240, 48677.00
483.0090, 48615.00
484.1940, 47717.00
485.3780, 46356.00
486.5630, 44840.00
487.7470, 42898.00
488.9320, 40579.00
490.1160, 38445.00
491.3000, 36104.00
492.4830, 34192.00
493.6670, 32528.00
494.8500, 30704.00
496.0340, 29385.00
497.2170, 28317.00
498.4000, 27361.00
499.5820, 26490.00
500.7650, 25756.26
501.9480, 25091.64
503.1300, 24580.00
504.3120, 24093.00
505.4940, 23726.00
506.6760, 23500.00
507.8580, 23267.00
509.0390, 23237.00
510.2210, 22797.00
511.4020, 22895.00
512.5830, 22722.00
513.7640, 22393.00
514.9450, 22563.00
516.1250, 22268.00
517.3060, 22221.00
518.4860, 22220.00
519.6660, 22196.00
520.8460, 21973.00
522.0260, 22020.00
523.2060, 21940.00
524.3850, 21776.00
525.5650, 22024.00
526.7440, 21869.00
527.9230, 21893.00
529.1020, 21852.00
530.2810, 21822.00
531.4590, 21810.00
532.6380, 21670.00
533.8160, 21567.00
534.9940, 21571.00
536.1720, 21506.00
537.3500, 21629.00
538.5270, 21759.00
539.7050, 21623.00
540.8820, 21717.50
542.0590, 21415.00
543.2360, 21668.00
544.4130, 21552.00
545.5900, 21438.00
546.7660, 21712.00
547.9430, 21416.00
549.1190, 21551.00
550.2950, 21382.00
551.4710, 21596.00
552.6470, 21807.00
553.8220, 21655.00
554.9980, 21520.00
556.1730, 21559.00
557.3480, 21620.00
558.5230, 21436.00
559.6980, 21418.00
560.8730, 21597.00
562.0470, 21433.00
563.2220, 21597.00
564.3960, 21516.00
565.5700, 21766.00
566.7440, 21652.00
567.9170, 21591.00
569.0910, 21699.00
570.2640, 21938.00
571.4380, 21718.00
572.6110, 21582.00
573.7840, 21979.00
574.9570, 21904.00
576.1290, 21941.00
577.3020, 21752.00
578.4740, 22064.00
579.6460, 22189.00
580.8180, 22122.00
581.9900, 22024.00
583.1620, 22097.00
584.3330, 22341.00
585.5040, 22271.00
586.6760, 22479.00
587.8470, 22620.00
589.0180, 22754.00
590.1880, 22825.00
591.3590, 22743.00
592.5290, 22946.00
593.7000, 22952.00
594.8700, 23169.00
596.0400, 23420.00
597.2090, 23461.00
598.3790, 23615.00
599.5490, 24000.00
600.7180, 24264.00
601.8870, 24429.00
603.0560, 24819.00
604.2250, 25169.00
605.3940, 25429.00
606.5620, 25617.00
607.7300, 25929.00
608.8990, 26353.00
610.0670, 26389.00
611.2350, 26846.00
612.4020, 26739.00
613.5700, 26870.00
614.7370, 26674.00
615.9050, 26812.00
617.0720, 26618.00
618.2390, 26501.00
619.4060, 26327.00
620.5720, 25774.00
621.7390, 25605.00
622.9050, 25366.00
624.0710, 25158.00
625.2370, 25043.00
626.4030, 24779.00
627.5690, 24568.26
628.7340, 23992.00
629.9000, 24009.00
631.0650, 23661.00
632.2300, 23233.00
633.3950, 23273.00
634.5600, 23261.00
635.7240, 23017.00
636.8890, 22997.00
638.0530, 22901.00
639.2170, 22858.00
640.3810, 22777.35
641.5450, 22696.00
642.7080, 22574.00
643.8720, 22437.00
645.0350, 22428.53
646.1980, 22253.00
647.3610, 22389.00
648.5240, 22398.00
649.6870, 22352.00
650.8490, 22296.00
652.0120, 22465.00
653.1740, 22229.00
654.3360, 22162.00
655.4980, 22106.00
656.6600, 22249.00
657.8210, 21925.00
658.9830, 22190.00
660.1440, 22201.00
661.3050, 22056.00
662.4660, 21915.00
663.6270, 22002.00
664.7870, 22082.00
665.9480, 21984.00
667.1080, 22139.00
668.2680, 22110.00
669.4280, 22053.00
670.5880, 22030.00
671.7480, 21973.00
672.9070, 21855.00
674.0670, 21930.00
675.2260, 22064.00
676.3850, 22286.00
677.5440, 22227.00
678.7030, 22244.00
679.8610, 22050.00
681.0200, 22179.00
682.1780, 22076.00
683.3360, 22055.00
684.4940, 22247.00
685.6520, 22115.00
686.8090, 22422.00
687.9670, 22138.00
689.1240, 22237.00
690.2810, 22387.00
691.4380, 22297.00
692.5950, 22260.00
693.7520, 22249.00
694.9080, 22286.00
696.0650, 22563.00
697.2210, 22318.00
698.3770, 22446.00
699.5330, 22316.00
700.6880, 22536.00
701.8440, 22638.00
702.9990, 22624.00
704.1550, 22625.00
705.3100, 22604.00
706.4650, 22746.00
707.6190, 22587.00
708.7740, 22836.00
709.9290, 22782.00
711.0830, 22877.00
712.2370, 22779.00
713.3910, 22905.00
714.5450, 22913.00
715.6980, 22887.00
716.8520, 22980.00
718.0050, 22925.00
719.1580, 23080.00
720.3110, 22985.00
721.4640, 23097.00
722.6170, 22959.00
723.7700, 23158.00
724.9220, 23088.00
726.0740, 23052.00
727.2260, 23214.00
728.3780, 23097.00
729.5300, 23066.00
730.6810, 23092.00
731.8330, 23164.00
732.9840, 23157.00
734.1350, 22898.00
735.2860, 23162.00
736.4370, 23203.00
737.5880, 22920.00
738.7380, 22941.00
739.8880, 22976.32
741.0390, 23346.00
742.1890, 23064.00
743.3380, 23281.00
744.4880, 23181.00
745.6380, 23336.00
746.7870, 23363.00
747.9360, 23321.00
749.0850, 23354.00
750.2340, 23487.00
751.3830, 23388.00
752.5310, 23509.00
753.6800, 23527.00
754.8280, 23860.00
755.9760, 23372.00
757.1240, 23749.00
758.2720, 23617.00
759.4190, 23841.00
760.5670, 24028.00
761.7140, 23978.00
762.8610, 24195.00
764.0080, 24125.00
765.1550, 24037.00
766.3020, 24194.00
767.4480, 24336.00
768.5950, 24517.00
769.7410, 24597.00
770.8870, 24794.00
772.0330, 24781.00
773.1780, 24961.00
774.3240, 24832.00
775.4690, 25166.00
776.6140, 25146.00
777.7590, 25262.00
778.9040, 25165.00
780.0490, 25358.00
781.1940, 25439.00
782.3380, 25518.00
783.4820, 25628.00
784.6260, 25657.00
785.7700, 25698.00
786.9140, 25689.00
788.0580, 25682.00
789.2010, 25489.00
790.3450, 25744.00
791.4880, 25767.00
792.6310, 25573.00
793.7730, 25585.00
794.9160, 25825.00
796.0590, 25589.00
797.2010, 25620.00
798.3430, 25600.00
799.4850, 25412.00
800.6270, 25305.00
801.7690, 25416.00
802.9100, 25328.00
804.0520, 25226.00
805.1930, 25089.00
806.3340, 25168.00
807.4750, 24876.00
808.6160, 24940.00
809.7560, 24746.00
810.8970, 24681.00
812.0370, 24648.00
813.1770, 24829.00
814.3170, 24624.00
815.4570, 24741.00
816.5960, 24852.00
817.7360, 24790.00
818.8750, 24787.00
820.0140, 24674.00
821.1530, 24619.71
822.2920, 24633.00
823.4310, 24427.00
824.5690, 24424.00
825.7070, 24272.00
826.8460, 24208.00
827.9840, 24328.00
829.1220, 24035.00
830.2590, 23938.00
831.3970, 24162.00
832.5340, 24040.00
833.6710, 23802.00
834.8080, 23831.00
835.9450, 23931.00
837.0820, 23897.00
838.2190, 23953.00
839.3550, 23850.00
840.4910, 23827.00
841.6270, 23964.00
842.7630, 24067.00
843.8990, 23961.00
845.0350, 23948.00
846.1700, 23804.00
847.3060, 24109.00
848.4410, 24079.00
849.5760, 23851.00
850.7100, 24148.00
851.8450, 24125.00
852.9800, 24162.00
854.1140, 24061.00
855.2480, 24125.00
856.3820, 24161.00
857.5160, 24122.00
858.6500, 24063.00
859.7830, 24100.00
860.9170, 24198.00
862.0500, 24121.00
863.1830, 24131.00
864.3160, 24189.00
865.4480, 24168.52
866.5810, 24182.00
867.7130, 24198.00
868.8460, 24223.00
869.9780, 24205.00
871.1100, 24315.00
872.2410, 24197.00
873.3730, 24363.00
874.5050, 24238.00
875.6360, 24499.00
876.7670, 24241.00
877.8980, 24323.00
879.0290, 24316.00
880.1590, 24293.00
881.2900, 24414.00
882.4200, 24504.00
883.5500, 24604.00
884.6800, 24289.00
885.8100, 24555.00
886.9400, 24405.00
888.0690, 24567.00
889.1990, 24354.00
890.3280, 24466.00
891.4570, 24552.00
892.5860, 24468.00
893.7140, 24453.00
894.8430, 24490.00
895.9710, 24574.00
897.1000, 24721.00
898.2280, 24728.14
899.3560, 24776.00
900.4830, 24762.00
901.6110, 24733.00
902.7380, 24661.00
903.8660, 24720.00
904.9930, 24741.00
906.1200, 24896.00
907.2460, 24815.00
908.3730, 24789.00
909.5000, 24929.00
910.6260, 24911.00
911.7520, 24840.00
912.8780, 24748.00
914.0040, 24762.00
915.1290, 25009.00
916.2550, 25032.00
917.3800, 25047.00
918.5050, 25025.00
919.6300, 25200.00
920.7550, 25005.00
921.8800, 25110.00
923.0040, 25019.00
924.1290, 24956.00
925.2530, 25193.00
926.3770, 25227.00
927.5010, 25024.00
928.6250, 25237.00
929.7480, 25310.00
930.8720, 25335.00
931.9950, 25291.00
933.1180, 25369.29
934.2410, 25477.00
935.3640, 25452.00
936.4860, 25487.00
937.6090, 25518.37
938.7310, 25658.00
939.8530, 25599.00
940.9750, 25708.00
942.0970, 25665.00
943.2180, 25627.00
944.3400, 25695.49
945.4610, 25741.00
946.5820, 25767.00
947.7030, 25791.70
948.8240, 25808.55
949.9450, 25825.00
951.0650, 25831.00
952.1860, 25888.00
953.3060, 25914.00
954.4260, 25889.00
955.5460, 26079.00
956.6650, 26010.00
957.7850, 26090.00
958.9040, 25991.00
960.0230, 26199.00
961.1420, 26434.00
962.2610, 26411.00
963.3800, 26393.00
964.4990, 26103.00
965.6170, 26365.00
966.7350, 26394.00
967.8530, 26408.00
968.9710, 26709.00
970.0890, 26264.00
971.2070, 26610.00
972.3240, 26593.00
973.4410, 26725.00
974.5580, 26730.00
975.6750, 26940.00
976.7920, 26874.00
977.9090, 26870.00
979.0250, 27074.00
980.1410, 27031.00
981.2580, 27210.00
982.3740, 27271.00
983.4890, 27489.00
984.6050, 27203.00
985.7200, 27375.00
986.8360, 27415.00
987.9510, 27640.00
989.0660, 27468.00
990.1810, 27271.00
991.2950, 27658.00
992.4100, 27435.00
993.5240, 27856.00
994.6390, 27830.00
995.7530, 27942.00
996.8660, 27764.00
997.9800, 27980.00
999.0940, 28198.00
1000.207, 28055.00
1001.320, 28186.00
1002.433, 28297.00
1003.546, 28340.00
1004.659, 28256.00
1005.772, 28333.00
1006.884, 28382.00
1007.996, 28418.00
1009.108, 28546.00
1010.220, 28507.82
1011.332, 28727.00
1012.444, 28554.00
1013.555, 28662.00
1014.666, 28871.00
1015.777, 28881.00
1016.888, 29062.00
1017.999, 28904.00
1019.110, 29055.00
1020.220, 29056.00
1021.331, 29104.46
1022.441, 29160.38
1023.551, 29295.00
1024.661, 29285.00
1025.770, 29425.00
1026.880, 29633.00
1027.989, 29444.00
1029.098, 29421.00
1030.207, 29428.00
1031.316, 29723.00
1032.425, 29478.00
1033.533, 29723.00
1034.642, 29764.00
1035.750, 29656.00
1036.858, 29656.00
1037.966, 29857.00
1039.073, 29601.00
1040.181, 29910.00
1041.288, 29796.00
1042.396, 29878.00
1043.503, 29971.00
1044.610, 29985.00
1045.716, 30059.00
1046.823, 30058.00
1047.929, 29810.00
1049.036, 29988.48
1050.142, 29913.18
1051.248, 30045.00
1052.353, 30034.00
1053.459, 29812.00
1054.564, 30016.00
1055.670, 29910.00
1056.775, 30197.00
1057.880, 30160.51
1058.985, 29943.00
1060.089, 30118.00
1061.194, 30002.00
1062.298, 29817.00
1063.402, 30049.00
1064.506, 30158.00
1065.610, 30225.00
1066.713, 30111.00
1067.817, 30238.00
1068.920, 30184.57
1070.023, 30171.00
1071.126, 30206.00
1072.229, 30201.00
1073.332, 30331.00
1074.435, 30237.00
1075.537, 30324.00
1076.639, 30278.00
1077.741, 30483.00
1078.843, 30755.00
1079.945, 30697.00
1081.046, 30869.86
1082.148, 30636.00
1083.249, 30942.00
1084.350, 30964.00
1085.451, 30892.00
1086.551, 31336.00
1087.652, 31107.00
1088.752, 31511.00
1089.853, 31596.00
1090.953, 31692.00
1092.053, 31662.00
1093.152, 31914.00
1094.252, 31985.00
1095.351, 32244.00
1096.451, 32359.00
1097.550, 32587.00
1098.649, 32604.00
1099.748, 32518.00
1100.846, 32622.00
1101.945, 32900.00
1103.043, 32823.00
1104.141, 33193.00
1105.239, 32951.00
1106.337, 33036.00
1107.434, 33518.00
1108.532, 33652.00
1109.629, 33582.00
1110.726, 33547.00
1111.823, 33686.00
1112.920, 33793.00
1114.017, 33702.00
1115.113, 34031.00
1116.210, 34117.00
1117.306, 34070.00
1118.402, 34252.00
1119.498, 34336.00
1120.593, 34441.00
1121.689, 34355.00
1122.784, 34689.00
1123.879, 34594.00
1124.974, 34976.00
1126.069, 35111.00
1127.164, 34877.00
1128.259, 34925.00
1129.353, 34802.00
1130.447, 34849.00
1131.541, 34882.00
1132.635, 34929.00
1133.729, 35012.51
1134.822, 35150.00
1135.916, 35234.00
1137.009, 35126.00
1138.102, 35307.00
1139.195, 35311.00
1140.288, 35304.00
1141.380, 35590.00
1142.473, 35566.00
1143.565, 35585.00
1144.657, 35611.00
1145.749, 35554.00
1146.841, 35360.00
1147.932, 35724.00
1149.024, 35507.00
1150.115, 35440.00
1151.206, 35642.00
1152.297, 35648.00
1153.388, 35728.00
1154.479, 35632.00
1155.569, 35490.00
1156.659, 35417.00
1157.750, 35517.00
1158.839, 35335.89
1159.929, 35693.00
1161.019, 35086.00
1162.108, 35482.00
1163.198, 35326.00
1164.287, 35433.00
1165.376, 35315.00
1166.465, 35192.00
1167.553, 35179.00
1168.642, 35063.00
1169.730, 34922.00
1170.818, 34998.00
1171.906, 34946.00
1172.994, 34837.00
1174.082, 34737.00
1175.170, 34815.00
1176.257, 34693.00
1177.344, 34671.00
1178.431, 34454.00
1179.518, 34541.00
1180.605, 34159.00
1181.691, 34418.00
1182.778, 34237.00
1183.864, 34133.00
1184.950, 33964.00
1186.036, 33973.00
1187.122, 34002.00
1188.207, 33819.00
1189.292, 33892.50
1190.378, 33611.00
1191.463, 33750.00
1192.548, 33697.00
1193.632, 33284.00
1194.717, 33402.00
1195.801, 33031.00
1196.886, 33102.00
1197.970, 33164.00
1199.054, 32809.00
1200.137, 32742.00
1201.221, 32759.00
1202.305, 32832.00
1203.388, 32549.00
1204.471, 32553.00
1205.554, 32530.00
1206.637, 32334.00
1207.719, 32477.00
1208.802, 32389.00
1209.884, 32286.00
1210.966, 32226.00
1212.048, 32416.00
1213.130, 32284.00
1214.212, 32398.00
1215.293, 32048.00
1216.374, 32268.00
1217.456, 31894.00
1218.536, 32266.00
1219.617, 31829.00
1220.698, 31796.00
1221.778, 32206.00
1222.859, 32180.00
1223.939, 31963.00
1225.019, 32157.00
1226.099, 31888.00
1227.178, 31973.00
1228.258, 31994.00
1229.337, 31902.00
1230.417, 31804.00
1231.496, 32033.00
1232.574, 31852.00
1233.653, 31996.00
1234.732, 31943.00
1235.810, 32044.00
1236.888, 31829.00
1237.966, 32107.00
1239.044, 31931.00
1240.122, 32033.00
1241.199, 32184.00
1242.277, 32148.00
1243.354, 32148.00
1244.431, 32350.00
1245.508, 32160.00
1246.585, 32329.00
1247.661, 32059.00
1248.738, 32107.00
1249.814, 32309.00
1250.890, 32349.00
1251.966, 32367.00
1253.042, 32445.07
1254.117, 32270.00
1255.193, 32432.00
1256.268, 32389.77
1257.343, 32261.00
1258.418, 32494.00
1259.493, 32378.00
1260.567, 32446.00
1261.642, 32381.00
1262.716, 32093.00
1263.790, 32601.00
