##NAMES=Clinohumite
##RRUFFID=R040122
##IDEAL CHEMISTRY=Mg_9_(SiO_4_)_4_F_2_
##LOCALITY=Anzahamazonono,  Madagascar
##OWNER=RRUFF
##SOURCE=University of Arizona Mineral Museum
##DESCRIPTION=Orange-brown blebs embedded in calcite matrix
##STATUS=The identification of this mineral has been confirmed by X-ray diffraction and chemical analysis
##URL=rruff.info/R040122
##MEASURED CHEMISTRY=(Mg_0.96_Fe_0.02_Ti_0.01_Ca_0.01_)_9_(SiO_4_)_4_(F_0.59_(OH)_0.41_)_2_
##PIN_ID=M00126
##ORIENTATION=Laser parallel to -b* (0 -1 0). Fiducial mark perpendicular to laser is parallel to -c [0 0 -1]
124.2880, 7233.000
125.5190, 7302.000
126.7490, 7369.346
127.9790, 7466.000
129.2090, 7515.000
130.4390, 7598.000
131.6680, 7656.000
132.8980, 7633.000
134.1270, 7664.000
135.3560, 7808.000
136.5850, 7849.000
137.8140, 7960.000
139.0430, 7952.000
140.2710, 8116.000
141.5000, 8111.000
142.7280, 8215.000
143.9560, 8266.000
145.1840, 8257.000
146.4120, 8245.000
147.6390, 8340.000
148.8670, 8327.000
150.0940, 8349.138
151.3210, 8375.000
152.5490, 8370.000
153.7750, 8412.000
155.0020, 8433.000
156.2290, 8343.000
157.4550, 8570.000
158.6810, 8448.000
159.9080, 8502.000
161.1340, 8404.000
162.3590, 8622.000
163.5850, 8509.000
164.8110, 8681.000
166.0360, 8802.000
167.2610, 8667.000
168.4860, 8717.000
169.7110, 8826.000
170.9360, 8842.000
172.1610, 8966.000
173.3850, 8963.000
174.6100, 9095.000
175.8340, 9125.000
177.0580, 9326.000
178.2820, 9300.000
179.5050, 9537.000
180.7290, 9537.000
181.9520, 9777.000
183.1760, 9911.000
184.3990, 9994.000
185.6220, 9898.000
186.8450, 9936.000
188.0670, 9757.000
189.2900, 9666.000
190.5120, 9586.000
191.7340, 9527.104
192.9560, 9453.000
194.1780, 9505.000
195.4000, 9574.000
196.6220, 9615.000
197.8430, 9615.000
199.0640, 9787.000
200.2860, 9776.000
201.5070, 9865.000
202.7270, 9983.000
203.9480, 9966.000
205.1690, 10197.00
206.3890, 10173.00
207.6090, 10295.00
208.8290, 10588.00
210.0490, 10718.00
211.2690, 10656.00
212.4890, 10423.00
213.7080, 10395.00
214.9280, 10123.00
216.1470, 10034.00
217.3660, 9963.000
218.5850, 9930.000
219.8030, 9871.000
221.0220, 9825.000
222.2400, 9825.113
223.4590, 9940.000
224.6770, 9847.000
225.8950, 9806.000
227.1120, 9844.000
228.3300, 10054.00
229.5480, 9960.000
230.7650, 10004.00
231.9820, 10137.00
233.1990, 10005.00
234.4160, 10024.00
235.6330, 10174.00
236.8490, 10082.00
238.0660, 10145.00
239.2820, 10113.00
240.4980, 10180.00
241.7140, 10273.00
242.9300, 10251.00
244.1460, 10271.00
245.3610, 10432.00
246.5770, 10337.00
247.7920, 10421.00
249.0070, 10489.00
250.2220, 10531.00
251.4370, 10639.00
252.6510, 10700.00
253.8660, 10783.00
255.0800, 10879.00
256.2940, 10914.00
257.5080, 10915.00
258.7220, 11019.00
259.9360, 10980.87
261.1490, 11076.00
262.3630, 10956.00
263.5760, 10998.00
264.7890, 11007.00
266.0020, 10856.00
267.2150, 10830.00
268.4270, 10697.00
269.6400, 10786.00
270.8520, 10823.00
272.0640, 10978.00
273.2760, 10985.00
274.4880, 10895.00
275.7000, 10876.00
276.9120, 10986.00
278.1230, 11101.00
279.3340, 11205.00
280.5450, 11318.00
281.7560, 11404.00
282.9670, 11308.00
284.1780, 11427.00
285.3880, 11495.00
286.5980, 11477.00
287.8090, 11607.00
289.0190, 11578.00
290.2290, 11519.00
291.4380, 11479.00
292.6480, 11488.00
293.8570, 11446.38
295.0670, 11457.00
296.2760, 11422.00
297.4850, 11441.00
298.6930, 11454.00
299.9020, 11383.00
301.1110, 11522.00
302.3190, 11528.00
303.5270, 11513.00
304.7350, 11695.00
305.9430, 11577.00
307.1510, 11593.00
308.3580, 11400.00
309.5660, 11567.00
310.7730, 11456.00
311.9800, 11549.00
313.1870, 11531.00
314.3940, 11614.00
315.6010, 11706.00
316.8070, 11786.00
318.0130, 11719.00
319.2200, 11774.00
320.4260, 11765.56
321.6310, 11682.00
322.8370, 11779.00
324.0430, 11781.00
325.2480, 11838.00
326.4540, 11817.00
327.6590, 11660.00
328.8640, 11671.00
330.0680, 11789.00
331.2730, 11664.00
332.4780, 11930.00
333.6820, 11931.00
334.8860, 11994.00
336.0900, 12108.00
337.2940, 12053.00
338.4980, 12180.00
339.7010, 12302.00
340.9050, 12279.00
342.1080, 12419.00
343.3110, 12457.05
344.5140, 12507.00
345.7170, 12504.00
346.9200, 12472.00
348.1220, 12341.00
349.3240, 12396.00
350.5270, 12559.00
351.7290, 12416.00
352.9310, 12437.00
354.1320, 12381.00
355.3340, 12363.00
356.5350, 12362.00
357.7370, 12429.00
358.9380, 12301.00
360.1390, 12246.00
361.3400, 12408.00
362.5400, 12198.00
363.7410, 12247.00
364.9410, 12254.00
366.1410, 12389.00
367.3410, 12337.00
368.5410, 12366.00
369.7410, 12346.00
370.9400, 12345.00
372.1400, 12497.00
373.3390, 12509.00
374.5380, 12536.00
375.7370, 12593.00
376.9360, 12580.00
378.1350, 12611.70
379.3330, 12627.00
380.5310, 12637.00
381.7300, 12746.00
382.9280, 12767.00
384.1260, 12764.00
385.3230, 12950.00
386.5210, 12938.00
387.7180, 12994.00
388.9160, 13093.00
390.1130, 12996.00
391.3100, 13045.00
392.5060, 13285.00
393.7030, 13096.00
394.9000, 13170.00
396.0960, 13081.00
397.2920, 13147.00
398.4880, 12981.00
399.6840, 13117.00
400.8800, 13051.00
402.0750, 12972.00
403.2710, 13016.00
404.4660, 13060.00
405.6610, 13108.00
406.8560, 13238.00
408.0510, 13245.00
409.2450, 13439.00
410.4400, 13308.00
411.6340, 13472.00
412.8280, 13429.00
414.0220, 13567.00
415.2160, 13699.00
416.4100, 13632.00
417.6030, 13766.00
418.7970, 13783.00
419.9900, 13579.00
421.1830, 13662.00
422.3760, 13493.00
423.5690, 13691.00
424.7610, 13475.00
425.9540, 13465.00
427.1460, 13573.00
428.3380, 13542.00
429.5300, 13515.00
430.7220, 13517.00
431.9140, 13536.00
433.1050, 13494.63
434.2970, 13481.42
435.4880, 13418.00
436.6790, 13424.00
437.8700, 13357.00
439.0610, 13348.00
440.2510, 13340.00
441.4420, 13335.00
442.6320, 13312.00
443.8220, 13385.00
445.0120, 13449.00
446.2020, 13243.00
447.3910, 13536.00
448.5810, 13516.00
449.7700, 13384.00
450.9600, 13482.00
452.1490, 13461.51
453.3370, 13495.00
454.5260, 13564.00
455.7150, 13613.00
456.9030, 13707.00
458.0910, 13655.00
459.2800, 13640.00
460.4670, 13801.00
461.6550, 13746.00
462.8430, 13876.00
464.0300, 13956.00
465.2180, 13779.00
466.4050, 14037.00
467.5920, 14129.00
468.7790, 14035.00
469.9650, 14102.00
471.1520, 14039.00
472.3380, 14180.00
473.5250, 14193.00
474.7110, 14247.00
475.8970, 14523.00
477.0820, 14434.57
478.2680, 14511.16
479.4540, 14414.00
480.6390, 14531.00
481.8240, 14533.00
483.0090, 14627.00
484.1940, 14489.00
485.3780, 14626.00
486.5630, 14595.00
487.7470, 14552.00
488.9320, 14625.00
490.1160, 14588.00
491.3000, 14592.53
492.4830, 14627.00
493.6670, 14592.00
494.8500, 14538.00
496.0340, 14559.00
497.2170, 14467.00
498.4000, 14651.00
499.5820, 14688.00
500.7650, 14834.00
501.9480, 14617.00
503.1300, 14774.00
504.3120, 14897.00
505.4940, 14694.00
506.6760, 14871.00
507.8580, 14725.00
509.0390, 14806.00
510.2210, 14840.00
511.4020, 14904.00
512.5830, 14726.00
513.7640, 14814.00
514.9450, 14655.00
516.1250, 14883.00
517.3060, 15017.00
518.4860, 14920.00
519.6660, 15122.00
520.8460, 15146.00
522.0260, 15148.00
523.2060, 15267.00
524.3850, 15222.00
525.5650, 15327.00
526.7440, 15342.00
527.9230, 15553.00
529.1020, 15470.00
530.2810, 15647.00
531.4590, 15824.00
532.6380, 15703.00
533.8160, 16013.00
534.9940, 16045.00
536.1720, 16054.00
537.3500, 16103.00
538.5270, 16116.30
539.7050, 16149.00
540.8820, 16167.00
542.0590, 16188.00
543.2360, 16232.00
544.4130, 16300.00
545.5900, 16311.09
546.7660, 16418.00
547.9430, 16382.00
549.1190, 16314.00
550.2950, 16393.00
551.4710, 16196.00
552.6470, 15962.00
553.8220, 16095.00
554.9980, 15946.00
556.1730, 15696.00
557.3480, 15634.00
558.5230, 15741.00
559.6980, 15736.00
560.8730, 15731.00
562.0470, 15837.00
563.2220, 15688.00
564.3960, 15666.00
565.5700, 15805.00
566.7440, 15755.00
567.9170, 15856.00
569.0910, 15774.00
570.2640, 15904.00
571.4380, 15829.00
572.6110, 15900.00
573.7840, 15946.00
574.9570, 16050.00
576.1290, 16016.00
577.3020, 16045.00
578.4740, 15985.00
579.6460, 16124.00
580.8180, 16202.00
581.9900, 16210.00
583.1620, 16224.00
584.3330, 16103.00
585.5040, 16249.00
586.6760, 16253.00
587.8470, 16447.00
589.0180, 16571.00
590.1880, 16245.00
591.3590, 16677.00
592.5290, 16302.00
593.7000, 16478.00
594.8700, 16507.00
596.0400, 16700.00
597.2090, 16687.00
598.3790, 16838.00
599.5490, 17106.00
600.7180, 17089.00
601.8870, 17124.00
603.0560, 17309.00
604.2250, 17590.00
605.3940, 17559.00
606.5620, 17697.00
607.7300, 17568.00
608.8990, 17523.00
610.0670, 17637.00
611.2350, 17478.00
612.4020, 17356.00
613.5700, 17298.00
614.7370, 17328.00
615.9050, 17152.00
617.0720, 17101.00
618.2390, 16966.00
619.4060, 17154.00
620.5720, 17114.00
621.7390, 17004.00
622.9050, 17136.00
624.0710, 16959.00
625.2370, 16994.00
626.4030, 17112.00
627.5690, 16993.00
628.7340, 17043.00
629.9000, 17090.00
631.0650, 17007.00
632.2300, 17007.00
633.3950, 16977.00
634.5600, 16995.00
635.7240, 17043.00
636.8890, 17111.00
638.0530, 17208.00
639.2170, 17204.76
640.3810, 16970.00
641.5450, 17160.00
642.7080, 17180.00
643.8720, 17041.00
645.0350, 17267.00
646.1980, 17090.00
647.3610, 17168.00
648.5240, 17207.00
649.6870, 17412.00
650.8490, 17262.00
652.0120, 17344.00
653.1740, 17492.00
654.3360, 17424.00
655.4980, 17441.00
656.6600, 17459.00
657.8210, 17501.00
658.9830, 17447.00
660.1440, 17309.00
661.3050, 17548.00
662.4660, 17389.00
663.6270, 17352.00
664.7870, 17723.00
665.9480, 17550.00
667.1080, 17569.00
668.2680, 17764.00
669.4280, 17709.00
670.5880, 17605.00
671.7480, 17702.00
672.9070, 17736.00
674.0670, 17728.00
675.2260, 17883.00
676.3850, 17801.00
677.5440, 17907.00
678.7030, 18118.00
679.8610, 17973.00
681.0200, 18022.00
682.1780, 18038.00
683.3360, 17966.00
684.4940, 18069.00
685.6520, 18045.00
686.8090, 18158.00
687.9670, 18147.00
689.1240, 18208.00
690.2810, 18252.00
691.4380, 18335.00
692.5950, 18306.00
693.7520, 18277.00
694.9080, 18439.00
696.0650, 18423.00
697.2210, 18429.00
698.3770, 18623.00
699.5330, 18391.00
700.6880, 18596.00
701.8440, 18519.00
702.9990, 18571.00
704.1550, 18765.00
705.3100, 18786.00
706.4650, 18737.00
707.6190, 18839.00
708.7740, 18854.00
709.9290, 18950.00
711.0830, 18952.00
712.2370, 19006.00
713.3910, 19127.00
714.5450, 18957.00
715.6980, 19194.00
716.8520, 19051.00
718.0050, 19292.00
719.1580, 19410.00
720.3110, 19440.00
721.4640, 19538.00
722.6170, 19728.00
723.7700, 19713.00
724.9220, 20019.00
726.0740, 19996.00
727.2260, 20158.00
728.3780, 20431.00
729.5300, 20494.00
730.6810, 20817.00
731.8330, 20899.00
732.9840, 21292.00
734.1350, 21328.00
735.2860, 21730.00
736.4370, 21758.00
737.5880, 22070.00
738.7380, 22541.00
739.8880, 22520.00
741.0390, 22632.00
742.1890, 22879.00
743.3380, 22915.00
744.4880, 22960.00
745.6380, 23204.00
746.7870, 23425.00
747.9360, 23658.00
749.0850, 23629.00
750.2340, 23908.00
751.3830, 23587.00
752.5310, 23653.00
753.6800, 23677.00
754.8280, 23619.00
755.9760, 23490.00
757.1240, 23349.00
758.2720, 23216.00
759.4190, 23057.00
760.5670, 22872.00
761.7140, 22684.00
762.8610, 22597.42
764.0080, 22471.54
765.1550, 22438.00
766.3020, 22340.00
767.4480, 22277.00
768.5950, 22280.00
769.7410, 22344.00
770.8870, 22371.00
772.0330, 22495.00
773.1780, 22695.00
774.3240, 23104.00
775.4690, 23643.00
776.6140, 23958.00
777.7590, 24152.00
778.9040, 24835.00
780.0490, 25148.00
781.1940, 25661.00
782.3380, 26082.00
783.4820, 26746.00
784.6260, 27056.00
785.7700, 26944.00
786.9140, 26647.00
788.0580, 26538.00
789.2010, 25835.00
790.3450, 25614.00
791.4880, 25180.00
792.6310, 25065.00
793.7730, 24755.00
794.9160, 24560.00
796.0590, 24645.00
797.2010, 24633.00
798.3430, 24481.00
799.4850, 24787.00
800.6270, 25123.00
801.7690, 25310.00
802.9100, 25878.00
804.0520, 26576.00
805.1930, 26998.00
806.3340, 27653.00
807.4750, 27916.00
808.6160, 27792.00
809.7560, 28008.00
810.8970, 27722.00
812.0370, 27621.00
813.1770, 27461.00
814.3170, 27181.00
815.4570, 27303.00
816.5960, 27445.00
817.7360, 27649.00
818.8750, 27574.00
820.0140, 27781.00
821.1530, 28169.00
822.2920, 28747.00
823.4310, 29526.00
824.5690, 30684.00
825.7070, 32309.00
826.8460, 33960.00
827.9840, 35519.00
829.1220, 36836.00
830.2590, 37607.00
831.3970, 37410.00
832.5340, 36517.00
833.6710, 35621.00
834.8080, 34802.00
835.9450, 34078.00
837.0820, 33746.00
838.2190, 34394.00
839.3550, 35087.00
840.4910, 36451.00
841.6270, 37861.00
842.7630, 39738.00
843.8990, 41626.00
845.0350, 42934.00
846.1700, 43904.00
847.3060, 43749.00
848.4410, 43114.00
849.5760, 42061.00
850.7100, 41246.00
851.8450, 41197.00
852.9800, 41375.00
854.1140, 42910.00
855.2480, 44932.00
856.3820, 47430.00
857.5160, 50964.00
858.6500, 53747.00
859.7830, 56004.00
860.9170, 55502.00
862.0500, 53547.00
863.1830, 49786.00
864.3160, 46306.00
865.4480, 42667.00
866.5810, 39743.00
867.7130, 37474.00
868.8460, 35543.00
869.9780, 33987.00
871.1100, 33188.00
872.2410, 32393.00
873.3730, 31875.00
874.5050, 31486.00
875.6360, 31054.00
876.7670, 30388.00
877.8980, 29757.00
879.0290, 29026.00
880.1590, 28459.00
881.2900, 28025.00
882.4200, 27440.00
883.5500, 27060.00
884.6800, 26632.00
885.8100, 26359.00
886.9400, 26080.00
888.0690, 25832.00
889.1990, 25511.00
890.3280, 25578.00
891.4570, 25256.00
892.5860, 25080.00
893.7140, 25231.00
894.8430, 25055.00
895.9710, 24896.00
897.1000, 24964.00
898.2280, 24886.00
899.3560, 24827.00
900.4830, 24925.00
901.6110, 24835.73
902.7380, 24698.00
903.8660, 24768.00
904.9930, 24765.00
906.1200, 24711.00
907.2460, 24791.00
908.3730, 24729.00
909.5000, 24724.00
910.6260, 24612.00
911.7520, 24768.00
912.8780, 24599.00
914.0040, 24669.00
915.1290, 24927.00
916.2550, 24730.00
917.3800, 24770.00
918.5050, 24708.00
919.6300, 24799.00
920.7550, 24769.00
921.8800, 24752.00
923.0040, 25041.00
924.1290, 24960.00
925.2530, 25032.00
926.3770, 25111.00
927.5010, 25375.00
928.6250, 25278.00
929.7480, 25366.00
930.8720, 25611.00
931.9950, 25534.00
933.1180, 25541.00
934.2410, 25496.00
935.3640, 25139.00
936.4860, 25294.00
937.6090, 24980.00
938.7310, 25140.00
939.8530, 24887.00
940.9750, 25044.00
942.0970, 25104.00
943.2180, 25233.00
944.3400, 25252.00
945.4610, 25100.00
946.5820, 25323.00
947.7030, 25288.00
948.8240, 25365.00
949.9450, 25482.00
951.0650, 25666.00
952.1860, 25605.00
953.3060, 25873.00
954.4260, 26132.00
955.5460, 26426.00
956.6650, 26354.00
957.7850, 26765.00
958.9040, 27388.00
960.0230, 28065.00
961.1420, 28775.00
962.2610, 29807.00
963.3800, 30829.00
964.4990, 32131.00
965.6170, 33386.00
966.7350, 34130.00
967.8530, 34438.00
968.9710, 33955.00
970.0890, 32687.00
971.2070, 31270.00
972.3240, 29985.00
973.4410, 28860.00
974.5580, 28079.00
975.6750, 27540.00
976.7920, 26969.00
977.9090, 26874.00
979.0250, 26213.00
980.1410, 26385.00
981.2580, 26035.00
982.3740, 26079.00
983.4890, 25740.00
984.6050, 25799.00
985.7200, 25924.00
986.8360, 25720.00
987.9510, 25545.00
989.0660, 25835.00
990.1810, 25673.00
991.2950, 25630.00
992.4100, 25803.00
993.5240, 25681.00
994.6390, 25798.00
995.7530, 25666.00
996.8660, 25812.00
997.9800, 25799.00
999.0940, 25886.00
1000.207, 25861.00
1001.320, 26015.00
1002.433, 26003.00
1003.546, 25778.00
1004.659, 26198.00
1005.772, 25794.00
1006.884, 25987.00
1007.996, 26218.00
1009.108, 26048.00
1010.220, 26171.00
1011.332, 26262.00
1012.444, 26284.00
1013.555, 26195.00
1014.666, 26024.00
1015.777, 26158.00
1016.888, 26404.00
1017.999, 26267.00
1019.110, 26310.00
1020.220, 26247.00
1021.331, 26401.00
1022.441, 26345.00
1023.551, 26414.00
1024.661, 26425.00
1025.770, 26422.00
1026.880, 26439.14
1027.989, 26452.00
1029.098, 26416.00
1030.207, 26503.00
1031.316, 26478.00
1032.425, 26627.00
1033.533, 26508.00
1034.642, 26641.00
1035.750, 26693.00
1036.858, 26623.00
1037.966, 26583.00
1039.073, 26662.00
1040.181, 26593.00
1041.288, 26705.00
1042.396, 26907.00
1043.503, 26904.00
1044.610, 26804.00
1045.716, 26935.00
1046.823, 26808.00
1047.929, 27108.00
1049.036, 26828.00
1050.142, 27025.00
1051.248, 26972.00
1052.353, 26897.00
1053.459, 26879.00
1054.564, 26986.00
1055.670, 27148.00
1056.775, 27243.00
1057.880, 26986.00
1058.985, 27265.00
1060.089, 27150.00
1061.194, 27244.00
1062.298, 27448.00
1063.402, 27215.00
1064.506, 27256.00
1065.610, 27307.00
1066.713, 27267.00
1067.817, 27409.00
1068.920, 27191.00
1070.023, 27479.00
1071.126, 27535.00
1072.229, 27692.00
1073.332, 27565.00
1074.435, 27451.00
1075.537, 27645.00
1076.639, 27609.00
1077.741, 27610.00
1078.843, 27850.00
1079.945, 27674.00
1081.046, 27742.00
1082.148, 27756.00
1083.249, 27723.00
1084.350, 27643.00
1085.451, 27654.00
1086.551, 27659.34
1087.652, 27652.19
1088.752, 27761.00
1089.853, 27745.00
1090.953, 27863.00
1092.053, 28036.00
1093.152, 27930.00
1094.252, 28242.00
1095.351, 28175.00
1096.451, 28156.00
1097.550, 28430.00
1098.649, 28427.00
1099.748, 28103.00
1100.846, 28112.00
1101.945, 28141.00
1103.043, 28273.00
1104.141, 28456.00
1105.239, 28315.00
1106.337, 28417.00
1107.434, 28324.00
1108.532, 28340.00
1109.629, 28232.00
1110.726, 28510.00
1111.823, 28506.00
1112.920, 28465.00
1114.017, 28693.00
1115.113, 28608.00
1116.210, 28655.00
1117.306, 28524.00
1118.402, 28845.00
1119.498, 28782.00
1120.593, 29033.00
1121.689, 28990.00
1122.784, 29037.00
1123.879, 28924.00
1124.974, 29091.00
1126.069, 29049.00
1127.164, 29169.00
1128.259, 29138.76
1129.353, 29103.46
1130.447, 29063.00
1131.541, 28970.00
1132.635, 28930.00
1133.729, 28821.00
1134.822, 28926.00
1135.916, 28974.00
1137.009, 28988.00
1138.102, 29218.00
1139.195, 29225.00
1140.288, 29092.00
1141.380, 29427.00
1142.473, 29276.00
1143.565, 29288.00
1144.657, 29241.00
1145.749, 29458.00
1146.841, 29338.00
1147.932, 29476.00
1149.024, 29394.00
1150.115, 29390.00
1151.206, 29395.00
1152.297, 29439.70
1153.388, 29449.00
1154.479, 29601.00
1155.569, 29604.00
1156.659, 29680.00
1157.750, 29677.00
1158.839, 29820.00
1159.929, 29758.00
1161.019, 29856.00
1162.108, 29836.00
1163.198, 29898.00
1164.287, 29612.00
1165.376, 30048.00
1166.465, 29681.00
1167.553, 30059.00
1168.642, 30005.00
1169.730, 29873.00
1170.818, 29923.00
1171.906, 30260.00
1172.994, 29960.00
1174.082, 30343.00
1175.170, 30103.00
1176.257, 30259.00
1177.344, 30219.00
1178.431, 30131.00
1179.518, 30366.00
1180.605, 30197.00
1181.691, 30458.00
1182.778, 30279.00
1183.864, 30229.00
1184.950, 30349.00
1186.036, 30414.00
1187.122, 30359.00
1188.207, 30455.00
1189.292, 30598.00
1190.378, 30472.00
1191.463, 30647.00
1192.548, 30492.00
1193.632, 30588.00
1194.717, 30640.00
1195.801, 30624.63
1196.886, 30676.00
1197.970, 30729.00
1199.054, 30812.00
1200.137, 30929.00
1201.221, 30730.00
1202.305, 30793.00
1203.388, 31015.00
1204.471, 30858.00
1205.554, 30937.00
1206.637, 31020.00
1207.719, 31160.00
1208.802, 31001.00
1209.884, 31425.00
1210.966, 31180.00
1212.048, 31446.00
1213.130, 31197.00
1214.212, 31267.00
1215.293, 31166.00
1216.374, 31077.00
1217.456, 31466.00
1218.536, 31417.00
1219.617, 31393.00
1220.698, 31296.00
1221.778, 31508.00
1222.859, 31324.00
1223.939, 31568.00
1225.019, 31381.00
1226.099, 31425.37
1227.178, 31701.00
1228.258, 31488.00
1229.337, 31673.00
1230.417, 31844.00
1231.496, 31709.00
1232.574, 31914.00
1233.653, 31675.00
1234.732, 31858.00
1235.810, 31860.00
1236.888, 31955.00
1237.966, 32140.00
1239.044, 31978.00
1240.122, 32217.00
1241.199, 32060.00
1242.277, 32043.00
1243.354, 32036.00
1244.431, 32133.00
1245.508, 32226.00
1246.585, 32436.00
1247.661, 32352.00
1248.738, 32456.00
1249.814, 32328.00
1250.890, 32604.00
1251.966, 32366.00
1253.042, 32241.00
1254.117, 32632.00
1255.193, 32365.00
1256.268, 32545.00
1257.343, 32415.00
1258.418, 32392.00
1259.493, 32564.00
1260.567, 32321.00
1261.642, 32812.00
1262.716, 32582.00
1263.790, 32685.00
1264.864, 32580.00
1265.938, 32804.00
1267.011, 32842.00
1268.085, 32771.00
1269.158, 32812.00
1270.231, 32832.79
1271.304, 32794.00
1272.377, 32916.00
1273.450, 32811.00
1274.522, 32858.00
1275.594, 32783.00
1276.666, 32786.00
1277.738, 32843.00
1278.810, 33120.00
1279.882, 33031.00
1280.953, 33071.00
1282.025, 32924.00
1283.096, 33012.00
1284.167, 33177.00
1285.238, 33320.00
1286.308, 33368.00
1287.379, 33189.00
1288.449, 33526.00
1289.519, 33256.00
1290.589, 33422.00
1291.659, 33535.00
1292.729, 33399.00
1293.798, 33468.00
1294.868, 33523.00
1295.937, 33506.00
1297.006, 33667.00
1298.075, 33614.00
