##NAMES=Clinoptilolite-Ca
##RRUFFID=R060662
##IDEAL CHEMISTRY=Ca_3_(Si_30_Al_6_)O_72_&#183;20H_2_O
##LOCALITY=Succor Creek, Malheur County, Oregon, USA
##OWNER=RRUFF
##SOURCE=Michael Scott
##DESCRIPTION=Group of colorless platy prismatic crystals
##STATUS=The identification of this mineral has been confirmed by X-ray diffraction and chemical analysis
##URL=rruff.info/R060662
##MEASURED CHEMISTRY=(Ca_1.02_Na_0.97_K_0.59_)_Σ=2.58_(Si_14.40_Al_3.60_)_Σ=18_O_36_·10.96H_2_O
##PIN_ID=M00221
##ORIENTATION=Laser parallel to b* (0 1 0). Fiducial mark perpendicular to laser is parallel to c [0 0 1]
221.0220, 20175.00
222.2400, 20433.00
223.4590, 20465.00
224.6770, 20247.00
225.8950, 20132.00
227.1120, 20354.00
228.3300, 20764.00
229.5480, 20663.72
230.7650, 20720.00
231.9820, 20855.00
233.1990, 20833.00
234.4160, 21158.00
235.6330, 21229.00
236.8490, 21428.00
238.0660, 21564.00
239.2820, 21986.00
240.4980, 21982.00
241.7140, 22143.00
242.9300, 22098.00
244.1460, 22149.00
245.3610, 22349.00
246.5770, 22367.91
247.7920, 22538.00
249.0070, 22530.00
250.2220, 22735.00
251.4370, 22735.00
252.6510, 22664.00
253.8660, 22800.00
255.0800, 22765.00
256.2940, 23122.00
257.5080, 23582.00
258.7220, 23488.08
259.9360, 23268.57
261.1490, 23478.00
262.3630, 22499.00
263.5760, 22312.00
264.7890, 22343.00
266.0020, 22414.00
267.2150, 22326.00
268.4270, 22113.00
269.6400, 22154.00
270.8520, 21769.00
272.0640, 21641.00
273.2760, 21781.00
274.4880, 21785.00
275.7000, 21730.00
276.9120, 21587.00
278.1230, 21602.00
279.3340, 21534.00
280.5450, 21446.00
281.7560, 21408.00
282.9670, 21227.00
284.1780, 20897.70
285.3880, 21119.85
286.5980, 21229.05
287.8090, 21231.36
289.0190, 20806.74
290.2290, 20933.45
291.4380, 20839.24
292.6480, 20735.95
293.8570, 20940.28
295.0670, 20577.76
296.2760, 20777.22
297.4850, 20752.36
298.6930, 20830.19
299.9020, 20685.68
301.1110, 20609.84
302.3190, 20756.41
303.5270, 20779.84
304.7350, 20609.77
305.9430, 20694.13
307.1510, 20301.00
308.3580, 20288.00
309.5660, 20386.00
310.7730, 20309.00
311.9800, 20196.00
313.1870, 20055.00
314.3940, 19951.00
315.6010, 19951.00
316.8070, 19816.00
318.0130, 19930.00
319.2200, 19801.00
320.4260, 19995.00
321.6310, 19920.00
322.8370, 20087.00
324.0430, 19937.00
325.2480, 19962.00
326.4540, 20039.00
327.6590, 19974.00
328.8640, 20072.74
330.0680, 20291.00
331.2730, 20159.00
332.4780, 20285.00
333.6820, 20234.00
334.8860, 20346.00
336.0900, 20376.00
337.2940, 20481.00
338.4980, 20534.69
339.7010, 20507.00
340.9050, 20668.00
342.1080, 20577.00
343.3110, 20672.00
344.5140, 20728.00
345.7170, 20935.00
346.9200, 21038.34
348.1220, 21158.00
349.3240, 21310.00
350.5270, 21502.00
351.7290, 21571.00
352.9310, 21880.00
354.1320, 21911.00
355.3340, 22061.39
356.5350, 22176.00
357.7370, 22270.00
358.9380, 22403.00
360.1390, 22496.00
361.3400, 22645.00
362.5400, 22832.87
363.7410, 23003.00
364.9410, 23269.00
366.1410, 23568.00
367.3410, 23840.00
368.5410, 24241.00
369.7410, 24340.00
370.9400, 24856.00
372.1400, 24850.00
373.3390, 25261.00
374.5380, 25550.00
375.7370, 26002.00
376.9360, 26382.00
378.1350, 26560.00
379.3330, 27182.00
380.5310, 27867.00
381.7300, 28012.00
382.9280, 28647.00
384.1260, 29326.00
385.3230, 29949.00
386.5210, 30437.00
387.7180, 31373.00
388.9160, 32029.00
390.1130, 32678.00
391.3100, 33639.00
392.5060, 34572.00
393.7030, 35466.00
394.9000, 36556.00
396.0960, 37398.59
397.2920, 38490.00
398.4880, 39171.00
399.6840, 39891.00
400.8800, 40722.00
402.0750, 40993.51
403.2710, 41177.00
404.4660, 41184.00
405.6610, 41017.00
406.8560, 40332.00
408.0510, 39680.00
409.2450, 38980.00
410.4400, 38056.00
411.6340, 37040.00
412.8280, 35805.00
414.0220, 34941.00
415.2160, 33767.00
416.4100, 32770.00
417.6030, 31932.00
418.7970, 30744.00
419.9900, 30012.00
421.1830, 28857.00
422.3760, 28086.00
423.5690, 27424.00
424.7610, 26572.00
425.9540, 25924.00
427.1460, 25465.00
428.3380, 24669.00
429.5300, 24194.00
430.7220, 23768.00
431.9140, 23299.00
433.1050, 23033.00
434.2970, 22536.00
435.4880, 22166.00
436.6790, 21939.00
437.8700, 21723.00
439.0610, 21446.00
440.2510, 21205.00
441.4420, 21122.00
442.6320, 21014.00
443.8220, 20890.00
445.0120, 20975.00
446.2020, 20586.00
447.3910, 20824.00
448.5810, 20816.00
449.7700, 20745.00
450.9600, 21064.00
452.1490, 21012.00
453.3370, 21098.00
454.5260, 21205.00
455.7150, 21373.39
456.9030, 21739.00
458.0910, 21935.00
459.2800, 22224.00
460.4670, 22716.00
461.6550, 22990.00
462.8430, 23210.00
464.0300, 23832.00
465.2180, 24096.00
466.4050, 24678.00
467.5920, 25101.72
468.7790, 25509.00
469.9650, 26013.00
471.1520, 26943.00
472.3380, 27497.00
473.5250, 28304.00
474.7110, 28988.00
475.8970, 30021.00
477.0820, 30874.00
478.2680, 31285.00
479.4540, 31871.00
480.6390, 32104.00
481.8240, 32080.68
483.0090, 32006.00
484.1940, 31466.00
485.3780, 30960.00
486.5630, 30048.00
487.7470, 29098.00
488.9320, 28301.00
490.1160, 27101.00
491.3000, 26135.00
492.4830, 25273.00
493.6670, 24428.00
494.8500, 23633.00
496.0340, 23166.00
497.2170, 22590.00
498.4000, 22036.00
499.5820, 21735.00
500.7650, 21328.00
501.9480, 21010.00
503.1300, 20897.00
504.3120, 20587.00
505.4940, 20518.00
506.6760, 20249.00
507.8580, 20160.00
509.0390, 20144.00
510.2210, 19973.00
511.4020, 19873.00
512.5830, 19632.00
513.7640, 19605.00
514.9450, 19524.48
516.1250, 19415.00
517.3060, 19481.00
518.4860, 19428.00
519.6660, 19431.00
520.8460, 19375.00
522.0260, 19394.04
523.2060, 19327.00
524.3850, 19391.00
525.5650, 19347.00
526.7440, 19257.00
527.9230, 19331.00
529.1020, 19150.00
530.2810, 19295.00
531.4590, 19292.00
532.6380, 19176.00
533.8160, 19044.00
534.9940, 19250.00
536.1720, 19209.00
537.3500, 19190.00
538.5270, 19261.00
539.7050, 19103.00
540.8820, 19270.00
542.0590, 19119.00
543.2360, 19361.00
544.4130, 19253.00
545.5900, 19427.00
546.7660, 19233.00
547.9430, 19267.00
549.1190, 19298.00
550.2950, 19337.00
551.4710, 19253.00
552.6470, 19512.00
553.8220, 19345.00
554.9980, 19473.00
556.1730, 19514.00
557.3480, 19432.00
558.5230, 19399.00
559.6980, 19260.00
560.8730, 19292.00
562.0470, 19319.00
563.2220, 19397.00
564.3960, 19392.76
565.5700, 19408.00
566.7440, 19408.00
567.9170, 19540.00
569.0910, 19552.00
570.2640, 19597.00
571.4380, 19654.00
572.6110, 19578.00
573.7840, 19661.00
574.9570, 19583.00
576.1290, 19785.00
577.3020, 19628.00
578.4740, 19799.00
579.6460, 19677.00
580.8180, 19671.00
581.9900, 19987.00
583.1620, 19940.00
584.3330, 19919.00
585.5040, 20082.00
586.6760, 20042.00
587.8470, 20155.00
589.0180, 20085.00
590.1880, 20326.00
591.3590, 20386.00
592.5290, 20487.00
593.7000, 20639.00
594.8700, 20706.00
596.0400, 20838.15
597.2090, 21028.00
598.3790, 21107.00
599.5490, 21189.00
600.7180, 21403.00
601.8870, 21750.00
603.0560, 21663.00
604.2250, 21901.00
605.3940, 22383.00
606.5620, 22230.00
607.7300, 22470.00
608.8990, 22657.00
610.0670, 22756.00
611.2350, 22913.00
612.4020, 23165.00
613.5700, 23204.00
614.7370, 23556.00
615.9050, 23394.00
617.0720, 23424.00
618.2390, 23574.00
619.4060, 23496.00
620.5720, 23400.00
621.7390, 23331.00
622.9050, 23314.00
624.0710, 23142.00
625.2370, 23022.00
626.4030, 22830.43
627.5690, 22634.54
628.7340, 22370.00
629.9000, 22135.00
631.0650, 21888.00
632.2300, 21707.75
633.3950, 21450.00
634.5600, 21351.00
635.7240, 21340.00
636.8890, 21130.00
638.0530, 21244.00
639.2170, 21117.00
640.3810, 20936.00
641.5450, 21049.00
642.7080, 21163.00
643.8720, 21042.00
645.0350, 21224.00
646.1980, 21207.00
647.3610, 21149.00
648.5240, 21114.00
649.6870, 21069.83
650.8490, 20989.00
652.0120, 20959.00
653.1740, 20923.00
654.3360, 20834.91
655.4980, 20782.28
656.6600, 20605.00
657.8210, 20600.00
658.9830, 20477.00
660.1440, 20317.00
661.3050, 20283.00
662.4660, 20129.00
663.6270, 20342.00
664.7870, 20160.00
665.9480, 19902.00
667.1080, 20157.00
668.2680, 19957.00
669.4280, 20107.00
670.5880, 20013.00
671.7480, 19920.00
672.9070, 19841.00
674.0670, 19778.00
675.2260, 20026.00
676.3850, 20003.00
677.5440, 19945.00
678.7030, 20077.00
679.8610, 19985.00
681.0200, 19985.00
682.1780, 19986.00
683.3360, 19868.00
684.4940, 19849.00
685.6520, 19883.00
686.8090, 20004.00
687.9670, 19860.00
689.1240, 20145.00
690.2810, 19991.00
691.4380, 19955.00
692.5950, 20075.00
693.7520, 20123.00
694.9080, 20051.00
696.0650, 20028.00
697.2210, 20067.00
698.3770, 20113.00
699.5330, 20113.64
700.6880, 20198.00
701.8440, 20150.00
702.9990, 20259.00
704.1550, 20281.00
705.3100, 20293.00
706.4650, 20142.00
707.6190, 20495.00
708.7740, 20210.00
709.9290, 20410.00
711.0830, 20483.00
712.2370, 20463.00
713.3910, 20596.00
714.5450, 20455.00
715.6980, 20471.00
716.8520, 20557.00
718.0050, 20718.00
719.1580, 20863.00
720.3110, 20879.96
721.4640, 20710.00
722.6170, 20895.00
723.7700, 20777.00
724.9220, 20729.00
726.0740, 20802.00
727.2260, 21102.00
728.3780, 20942.00
729.5300, 21069.00
730.6810, 20958.00
731.8330, 21169.00
732.9840, 21181.00
734.1350, 21048.00
735.2860, 21036.00
736.4370, 21094.00
737.5880, 21287.00
738.7380, 21527.00
739.8880, 21196.00
741.0390, 21427.00
742.1890, 21489.00
743.3380, 21353.00
744.4880, 21614.00
745.6380, 21529.00
746.7870, 21567.00
747.9360, 21473.00
749.0850, 21703.00
750.2340, 21801.00
751.3830, 21700.00
752.5310, 21675.00
753.6800, 21794.00
754.8280, 21902.00
755.9760, 21961.00
757.1240, 22100.08
758.2720, 22091.00
759.4190, 22287.00
760.5670, 22248.00
761.7140, 22209.00
762.8610, 22412.00
764.0080, 22409.00
765.1550, 22788.00
766.3020, 22636.00
767.4480, 22962.00
768.5950, 23151.00
769.7410, 23095.00
770.8870, 23131.00
772.0330, 23192.00
773.1780, 23419.00
774.3240, 23389.00
775.4690, 23811.00
776.6140, 23737.00
777.7590, 23915.00
778.9040, 23962.00
780.0490, 24144.00
781.1940, 24189.00
782.3380, 24279.00
783.4820, 24375.00
784.6260, 24438.52
785.7700, 24542.00
786.9140, 24616.00
788.0580, 24678.00
789.2010, 24720.09
790.3450, 24698.00
791.4880, 24743.00
792.6310, 24716.00
793.7730, 24670.30
794.9160, 24643.97
796.0590, 24594.00
797.2010, 24545.00
798.3430, 24471.00
799.4850, 24452.94
800.6270, 24373.43
801.7690, 24314.00
802.9100, 24260.00
804.0520, 24158.00
805.1930, 24146.00
806.3340, 24078.00
807.4750, 24121.15
808.6160, 24249.00
809.7560, 24204.00
810.8970, 24413.00
812.0370, 24390.00
813.1770, 24643.00
814.3170, 24713.00
815.4570, 24766.00
816.5960, 24822.00
817.7360, 24842.15
818.8750, 24858.18
820.0140, 24827.00
821.1530, 24792.00
822.2920, 24699.00
823.4310, 24522.00
824.5690, 24274.00
825.7070, 24007.00
826.8460, 23707.00
827.9840, 23713.00
829.1220, 23515.00
830.2590, 23301.00
831.3970, 23381.00
832.5340, 23230.00
833.6710, 23125.00
834.8080, 22943.00
835.9450, 22962.00
837.0820, 22899.00
838.2190, 23185.00
839.3550, 22895.00
840.4910, 22941.00
841.6270, 23102.00
842.7630, 22960.00
843.8990, 23266.00
845.0350, 23132.00
846.1700, 23206.00
847.3060, 23248.00
848.4410, 23250.00
849.5760, 23479.00
850.7100, 23653.00
851.8450, 23649.00
852.9800, 23916.00
854.1140, 23817.00
855.2480, 24089.00
856.3820, 24149.00
857.5160, 24316.00
858.6500, 24401.00
859.7830, 24381.00
860.9170, 24337.00
862.0500, 24173.00
863.1830, 24134.00
864.3160, 23937.00
865.4480, 23699.00
866.5810, 23613.00
867.7130, 23556.00
868.8460, 23422.51
869.9780, 23292.00
871.1100, 23277.00
872.2410, 23209.02
873.3730, 23160.00
874.5050, 23252.00
875.6360, 23211.00
876.7670, 23239.00
877.8980, 22983.00
879.0290, 22963.00
880.1590, 22913.00
881.2900, 23075.00
882.4200, 22874.00
883.5500, 22843.00
884.6800, 23048.00
885.8100, 23054.00
886.9400, 23125.00
888.0690, 23079.00
889.1990, 22940.00
890.3280, 23233.00
891.4570, 23030.00
892.5860, 23142.20
893.7140, 23389.00
894.8430, 23273.00
895.9710, 23047.00
897.1000, 23156.00
898.2280, 23037.00
899.3560, 23125.00
900.4830, 23128.00
901.6110, 23082.00
902.7380, 23305.00
903.8660, 23085.00
904.9930, 23370.00
906.1200, 23286.80
907.2460, 23223.79
908.3730, 23310.00
909.5000, 23100.00
910.6260, 23260.00
911.7520, 23274.00
912.8780, 23185.00
914.0040, 23319.00
915.1290, 23312.00
916.2550, 23081.00
917.3800, 23205.00
918.5050, 23313.00
919.6300, 23132.00
920.7550, 23170.00
921.8800, 23149.00
923.0040, 23136.00
924.1290, 23232.00
925.2530, 23318.00
926.3770, 23491.00
927.5010, 23310.00
928.6250, 23129.00
929.7480, 23432.00
930.8720, 23330.00
931.9950, 23408.00
933.1180, 23272.00
934.2410, 23369.00
935.3640, 23409.00
936.4860, 23297.00
937.6090, 23439.00
938.7310, 23263.00
939.8530, 23351.00
940.9750, 23348.00
942.0970, 23511.00
943.2180, 23496.76
944.3400, 23455.00
945.4610, 23544.00
946.5820, 23564.00
947.7030, 23623.00
948.8240, 23717.00
949.9450, 23874.00
951.0650, 23655.00
952.1860, 23727.00
953.3060, 23745.00
954.4260, 23859.00
955.5460, 23863.00
956.6650, 23851.00
957.7850, 23737.00
958.9040, 23779.00
960.0230, 23846.00
961.1420, 23969.00
962.2610, 24086.00
963.3800, 24036.00
964.4990, 23940.00
965.6170, 24048.00
966.7350, 24172.00
967.8530, 23935.00
968.9710, 24042.00
970.0890, 23944.00
971.2070, 24229.00
972.3240, 23975.00
973.4410, 24192.00
974.5580, 24214.00
975.6750, 24263.00
976.7920, 24157.00
977.9090, 24210.00
979.0250, 24341.00
980.1410, 24125.00
981.2580, 24509.00
982.3740, 24357.00
983.4890, 24509.00
984.6050, 24615.00
985.7200, 24550.00
986.8360, 24764.00
987.9510, 24877.00
989.0660, 24562.00
990.1810, 24832.00
991.2950, 24721.00
992.4100, 24975.00
993.5240, 24866.00
994.6390, 24906.00
995.7530, 25327.00
996.8660, 25499.00
997.9800, 25504.00
999.0940, 25837.00
1000.207, 26004.00
1001.320, 26003.00
1002.433, 25996.00
1003.546, 25895.00
1004.659, 25793.00
1005.772, 25721.59
1006.884, 25538.00
1007.996, 25519.00
1009.108, 25415.00
1010.220, 25305.00
1011.332, 25513.00
1012.444, 25452.00
1013.555, 25573.00
1014.666, 25660.00
1015.777, 25746.00
1016.888, 25763.00
1017.999, 25628.00
1019.110, 25895.00
1020.220, 25918.00
1021.331, 26235.00
1022.441, 26002.00
1023.551, 25996.00
1024.661, 25955.00
1025.770, 25990.00
1026.880, 26062.00
1027.989, 26158.00
1029.098, 26000.00
1030.207, 26175.00
1031.316, 26069.00
1032.425, 26049.00
1033.533, 26038.00
1034.642, 25853.00
1035.750, 26261.00
1036.858, 26348.00
1037.966, 26145.00
1039.073, 26174.00
1040.181, 26237.00
1041.288, 26372.00
1042.396, 26323.00
1043.503, 26216.00
1044.610, 26502.00
1045.716, 26069.00
1046.823, 26298.00
1047.929, 26314.00
1049.036, 26439.00
1050.142, 26468.64
1051.248, 26490.00
1052.353, 26448.00
1053.459, 26414.24
1054.564, 26373.90
1055.670, 26272.00
1056.775, 26289.00
1057.880, 26207.00
1058.985, 26230.00
1060.089, 26227.00
1061.194, 26195.08
1062.298, 26303.00
1063.402, 26183.00
1064.506, 26207.00
1065.610, 26236.00
1066.713, 26388.00
1067.817, 26320.00
1068.920, 26190.00
1070.023, 26360.00
1071.126, 26406.00
1072.229, 26339.00
1073.332, 26433.00
1074.435, 26531.00
1075.537, 26390.00
1076.639, 26479.00
1077.741, 26488.00
1078.843, 26818.00
1079.945, 26795.00
1081.046, 26827.00
1082.148, 26888.00
1083.249, 26981.00
1084.350, 27127.00
1085.451, 27122.00
1086.551, 27045.00
1087.652, 27303.00
1088.752, 27098.00
1089.853, 27153.00
1090.953, 27033.00
1092.053, 27054.00
1093.152, 27115.00
1094.252, 27366.00
1095.351, 27370.57
1096.451, 27503.00
1097.550, 27566.00
1098.649, 27458.00
1099.748, 27611.00
1100.846, 27567.00
1101.945, 27615.00
1103.043, 27894.00
1104.141, 27798.00
1105.239, 28047.00
1106.337, 27993.00
1107.434, 28156.00
1108.532, 28015.00
1109.629, 28319.00
1110.726, 28196.00
1111.823, 28427.00
1112.920, 28488.00
1114.017, 28469.00
1115.113, 28524.00
1116.210, 28491.00
1117.306, 28458.25
1118.402, 28400.47
1119.498, 28372.00
1120.593, 28299.00
1121.689, 28291.00
1122.784, 28416.00
1123.879, 28033.00
1124.974, 28216.00
1126.069, 28069.00
1127.164, 27965.00
1128.259, 28122.00
1129.353, 28014.00
1130.447, 28230.00
1131.541, 28074.00
1132.635, 28104.00
1133.729, 28004.00
1134.822, 27979.00
1135.916, 27983.00
1137.009, 27842.00
1138.102, 27957.00
1139.195, 28134.00
1140.288, 27821.00
1141.380, 28107.00
1142.473, 28069.00
1143.565, 28065.00
1144.657, 28136.00
1145.749, 28097.00
1146.841, 28077.54
1147.932, 28194.00
1149.024, 27960.00
1150.115, 28024.00
1151.206, 27922.42
1152.297, 28020.00
1153.388, 27933.00
1154.479, 28056.00
1155.569, 28117.00
1156.659, 27841.00
1157.750, 28116.00
1158.839, 27927.00
1159.929, 27913.00
1161.019, 27956.00
1162.108, 27954.00
1163.198, 27853.00
1164.287, 27871.00
1165.376, 27943.00
1166.465, 27687.00
1167.553, 28093.00
1168.642, 27719.00
1169.730, 27804.00
1170.818, 27749.00
1171.906, 27648.00
1172.994, 27780.00
1174.082, 27637.00
1175.170, 27682.00
1176.257, 27625.00
1177.344, 27510.00
1178.431, 27574.00
1179.518, 27285.00
1180.605, 27453.00
1181.691, 27257.00
1182.778, 27105.00
1183.864, 27390.00
1184.950, 27013.00
1186.036, 27207.00
1187.122, 27197.00
1188.207, 26930.00
1189.292, 27049.00
1190.378, 26940.00
1191.463, 26918.00
1192.548, 26737.00
1193.632, 26746.00
1194.717, 26722.00
1195.801, 26612.00
1196.886, 26624.63
1197.970, 26582.00
1199.054, 26542.00
1200.137, 26562.00
1201.221, 26457.00
1202.305, 26410.00
1203.388, 26418.00
1204.471, 26518.00
1205.554, 26274.00
1206.637, 26173.00
1207.719, 26154.00
1208.802, 26356.00
1209.884, 26297.00
1210.966, 26320.00
1212.048, 26371.00
1213.130, 26278.00
1214.212, 26577.00
1215.293, 26377.00
1216.374, 26567.00
1217.456, 26266.00
1218.536, 26364.00
1219.617, 26053.00
1220.698, 26382.00
1221.778, 26219.00
1222.859, 26300.00
1223.939, 26177.00
1225.019, 26334.00
1226.099, 26386.00
1227.178, 26243.00
1228.258, 26213.00
1229.337, 26495.00
1230.417, 26325.00
1231.496, 26504.00
1232.574, 26691.00
1233.653, 26473.00
1234.732, 26510.00
1235.810, 26805.00
1236.888, 26899.00
1237.966, 26630.00
1239.044, 26726.00
1240.122, 26756.00
1241.199, 26682.00
1242.277, 26639.00
1243.354, 26646.00
1244.431, 26656.00
1245.508, 26783.00
1246.585, 26978.00
1247.661, 26520.00
1248.738, 26891.00
1249.814, 26810.00
1250.890, 26893.00
1251.966, 26511.00
1253.042, 26701.00
1254.117, 26773.00
1255.193, 26770.00
1256.268, 26800.00
1257.343, 26575.00
1258.418, 26827.00
1259.493, 26675.00
1260.567, 26777.00
1261.642, 26912.00
1262.716, 26996.00
1263.790, 27042.00
1264.864, 27028.00
1265.938, 26997.00
1267.011, 27138.00
1268.085, 27143.00
1269.158, 27300.00
1270.231, 27085.00
1271.304, 27162.00
1272.377, 27611.00
1273.450, 27309.00
1274.522, 27323.00
1275.594, 27014.00
1276.666, 27076.44
1277.738, 27038.17
1278.810, 27136.00
1279.882, 27079.00
1280.953, 26994.00
1282.025, 26982.00
1283.096, 27152.00
1284.167, 27004.00
1285.238, 27106.00
1286.308, 26972.00
1287.379, 27057.00
1288.449, 27045.00
1289.519, 26947.00
1290.589, 27007.00
1291.659, 27122.00
1292.729, 27034.00
1293.798, 27083.00
1294.868, 27234.00
1295.937, 27179.00
1297.006, 27313.00
1298.075, 27318.00
1299.143, 27301.00
1300.212, 27126.00
1301.280, 27202.00
1302.348, 27251.00
1303.416, 27409.00
1304.484, 27633.00
1305.552, 27297.00
1306.620, 27422.00
1307.687, 27316.00
1308.754, 27440.00
1309.821, 27488.00
1310.888, 27446.00
1311.955, 27798.00
1313.021, 27826.00
1314.088, 27757.00
1315.154, 27655.00
1316.220, 27464.00
1317.286, 27824.00
1318.352, 27605.00
1319.417, 27820.00
1320.483, 27573.00
1321.548, 27681.00
1322.613, 27802.00
1323.678, 27969.00
1324.743, 27610.00
1325.807, 27341.00
1326.872, 27320.00
1327.936, 27427.00
1329.000, 27314.00
1330.064, 27562.00
1331.128, 27837.00
1332.191, 27436.00
1333.255, 27593.00
1334.318, 27232.00
1335.381, 27109.00
1336.444, 27148.00
1337.507, 27298.00
1338.569, 27360.00
1339.632, 27164.00
1340.694, 27402.00
1341.756, 27279.00
1342.818, 27342.00
1343.880, 27065.00
1344.941, 27196.00
1346.003, 27248.00
1347.064, 27265.00
1348.125, 27199.00
1349.186, 27270.00
1350.247, 27340.00
1351.308, 27220.00
1352.368, 27235.00
1353.428, 27107.00
1354.489, 27493.00
1355.549, 27198.00
1356.608, 27095.00
1357.668, 27427.00
1358.727, 27261.00
1359.787, 27483.00
1360.846, 27483.15
1361.905, 27297.00
1362.964, 27484.00
1364.022, 27311.00
1365.081, 27304.00
1366.139, 27443.00
1367.197, 27186.00
1368.255, 27371.00
1369.313, 27320.00
1370.371, 27160.00
1371.428, 27249.00
1372.486, 27368.00
1373.543, 27460.00
1374.600, 27401.00
1375.657, 27489.00
1376.713, 27429.00
1377.770, 27328.00
1378.826, 27602.00
1379.882, 27432.00
1380.938, 27532.00
1381.994, 27364.00
