##NAMES=Clinoptilolite-Na
##RRUFFID=R061099
##IDEAL CHEMISTRY=Na_6_(Si_30_Al_6_)O_72_&#183;20H_2_O
##LOCALITY=Richardson Ranch, Madras, Jefferson County, Oregon, USA
##OWNER=RRUFF
##SOURCE=Michael Scott
##DESCRIPTION=Red-brown to salmon, somewhat coffin shaped tabular crystals in a fragmented geode
##STATUS=The identification of this mineral has been confirmed by X-ray diffraction and chemical analysis
##URL=rruff.info/R061099
##MEASURED CHEMISTRY=(Na_2.70_Ca_1.46_K_0.89_Fe_0.08_Mg_0.02_)_Σ=5.15_(Si_29.29_Al_6.71_)O_72_·18.51H_2_O
##PIN_ID=M00738
##ORIENTATION=Laser parallel to b* (0 1 0). Fiducial mark perpendicular to laser is parallel to c [0 0 1]
84.42800, 1852.000
85.66300, 2094.000
86.89900, 2475.000
88.13400, 2816.472
89.36900, 3122.000
90.60400, 3682.000
91.83800, 4258.000
93.07300, 4819.000
94.30700, 5575.000
95.54100, 6310.000
96.77500, 7096.000
98.00900, 7810.000
99.24300, 8682.000
100.4770, 9458.000
101.7100, 10259.00
102.9440, 10976.00
104.1770, 11572.00
105.4100, 12344.00
106.6430, 13046.00
107.8750, 13794.00
109.1080, 14642.00
110.3400, 15146.00
111.5720, 15274.00
112.8040, 15524.00
114.0360, 15561.00
115.2680, 16122.00
116.5000, 16304.00
117.7310, 16418.00
118.9620, 16677.00
120.1940, 16506.00
121.4250, 16508.00
122.6550, 16288.00
123.8860, 16499.00
125.1170, 16559.00
126.3470, 16670.00
127.5770, 16650.00
128.8070, 16688.21
130.0370, 16636.00
131.2670, 16687.00
132.4970, 16727.00
133.7260, 16738.00
134.9550, 16897.00
136.1850, 16836.00
137.4140, 16995.00
138.6420, 16933.04
139.8710, 16936.00
141.1000, 16832.00
142.3280, 16655.00
143.5560, 16609.00
144.7840, 16540.00
146.0120, 16416.00
147.2400, 16357.80
148.4680, 16260.83
149.6950, 16162.00
150.9220, 16099.00
152.1500, 15947.00
153.3770, 15889.00
154.6030, 15814.00
155.8300, 15611.68
157.0570, 15438.00
158.2830, 15225.00
159.5090, 15017.00
160.7350, 14832.00
161.9610, 14891.00
163.1870, 14698.00
164.4130, 14695.00
165.6380, 14497.00
166.8630, 14361.00
168.0880, 14316.00
169.3130, 14186.00
170.5380, 14124.00
171.7630, 13967.00
172.9870, 13885.58
174.2120, 13801.78
175.4360, 13679.00
176.6600, 13630.00
177.8840, 13501.00
179.1080, 13378.00
180.3310, 13353.00
181.5550, 13254.00
182.7780, 13285.00
184.0010, 12969.00
185.2240, 13042.00
186.4470, 12957.00
187.6700, 13020.00
188.8920, 12809.00
190.1150, 12773.00
191.3370, 12822.00
192.5590, 12853.00
193.7810, 12746.00
195.0020, 12641.00
196.2240, 12663.00
197.4450, 12613.00
198.6670, 12647.00
199.8880, 12576.00
201.1090, 12655.00
202.3300, 12635.00
203.5500, 12428.00
204.7710, 12456.00
205.9910, 12400.00
207.2110, 12284.00
208.4310, 12247.00
209.6510, 12155.00
210.8710, 12287.00
212.0910, 12255.00
213.3100, 12298.00
214.5290, 12239.00
215.7480, 12249.00
216.9670, 12098.00
218.1860, 12349.00
219.4050, 12323.00
220.6230, 12177.00
221.8420, 12257.00
223.0600, 12207.00
224.2780, 12445.00
225.4960, 12397.00
226.7130, 12370.00
227.9310, 12483.00
229.1480, 12432.00
230.3660, 12457.00
231.5830, 12581.00
232.8000, 12596.00
234.0160, 12507.00
235.2330, 12528.00
236.4490, 12627.00
237.6660, 12667.00
238.8820, 12687.00
240.0980, 12781.00
241.3140, 12950.00
242.5300, 13052.00
243.7450, 13008.00
244.9600, 13009.00
246.1760, 13036.00
247.3910, 13012.00
248.6060, 13091.00
249.8200, 13161.00
251.0350, 13237.00
252.2500, 13139.00
253.4640, 13240.00
254.6780, 13262.00
255.8920, 13402.16
257.1060, 13431.82
258.3190, 13436.77
259.5330, 13418.13
260.7460, 13314.75
261.9600, 13313.62
263.1730, 13267.14
264.3850, 13215.83
265.5980, 13220.17
266.8110, 13113.00
268.0230, 13110.18
269.2360, 13061.30
270.4480, 13028.97
271.6600, 12951.00
272.8710, 12883.09
274.0830, 12515.00
275.2950, 12522.00
276.5060, 12586.00
277.7170, 12430.00
278.9280, 12414.00
280.1390, 12212.00
281.3500, 12273.00
282.5600, 12104.00
283.7710, 12140.00
284.9810, 11974.00
286.1910, 11995.00
287.4010, 12124.00
288.6110, 11860.00
289.8200, 11772.00
291.0300, 11850.00
292.2390, 11888.00
293.4480, 12009.00
294.6570, 11954.00
295.8660, 11892.00
297.0750, 11932.00
298.2830, 11914.86
299.4920, 11929.00
300.7000, 11988.00
301.9080, 11993.00
303.1160, 12082.00
304.3240, 12160.00
305.5310, 12067.00
306.7390, 12175.00
307.9460, 12048.00
309.1530, 12227.00
310.3600, 12339.00
311.5670, 12287.00
312.7740, 12290.00
313.9800, 12302.03
315.1870, 12132.00
316.3930, 12228.00
317.5990, 12247.00
318.8050, 12115.00
320.0110, 12235.00
321.2160, 12198.00
322.4220, 12177.00
323.6270, 12109.00
324.8320, 12228.00
326.0370, 12173.00
327.2420, 12122.00
328.4460, 12202.00
329.6510, 12041.00
330.8550, 12158.00
332.0590, 12192.00
333.2630, 12246.00
334.4670, 12296.00
335.6710, 12313.04
336.8740, 12390.00
338.0780, 12383.00
339.2810, 12393.00
340.4840, 12502.00
341.6870, 12478.00
342.8900, 12451.00
344.0920, 12474.00
345.2950, 12461.80
346.4970, 12476.19
347.6990, 12483.00
348.9010, 12523.00
350.1030, 12551.00
351.3050, 12603.00
352.5060, 12610.45
353.7080, 12655.00
354.9090, 12633.00
356.1100, 12597.00
357.3110, 12611.00
358.5110, 12606.00
359.7120, 12661.80
360.9120, 12826.00
362.1130, 12854.00
363.3130, 12928.00
364.5130, 13133.00
365.7120, 12988.00
366.9120, 13197.00
368.1120, 13158.00
369.3110, 13168.00
370.5100, 13157.00
371.7090, 13460.00
372.9080, 13496.00
374.1070, 13614.00
375.3050, 13663.00
376.5040, 13856.00
377.7020, 13928.00
378.9000, 14165.00
380.0980, 14260.00
381.2950, 14482.00
382.4930, 14705.63
383.6910, 14999.00
384.8880, 15190.00
386.0850, 15414.00
387.2820, 15666.00
388.4790, 15916.00
389.6750, 16246.00
390.8720, 16616.00
392.0680, 16896.00
393.2640, 17418.00
394.4600, 17561.00
395.6560, 18137.00
396.8520, 18546.00
398.0480, 18794.00
399.2430, 19139.00
400.4380, 19602.00
401.6330, 19850.00
402.8280, 20209.00
404.0230, 20382.00
405.2180, 20470.00
406.4120, 20525.00
407.6060, 20421.00
408.8000, 20228.00
409.9940, 19784.00
411.1880, 19470.00
412.3820, 18994.00
413.5750, 18657.00
414.7690, 18230.00
415.9620, 17864.00
417.1550, 17312.00
418.3480, 16894.00
419.5410, 16552.00
420.7330, 16246.00
421.9260, 15743.00
423.1180, 15327.00
424.3100, 14902.00
425.5020, 14619.00
426.6940, 14282.00
427.8850, 14090.00
429.0770, 13850.00
430.2680, 13611.00
431.4590, 13350.00
432.6500, 13151.55
433.8410, 13015.00
435.0320, 12780.00
436.2220, 12722.00
437.4130, 12614.00
438.6030, 12404.00
439.7930, 12377.00
440.9830, 12341.00
442.1730, 12275.00
443.3620, 12311.00
444.5520, 12227.00
445.7410, 12161.00
446.9300, 12222.00
448.1190, 12313.00
449.3080, 12321.00
450.4960, 12340.00
451.6850, 12358.00
452.8730, 12435.00
454.0610, 12579.00
455.2490, 12622.00
456.4370, 12888.00
457.6250, 12876.00
458.8130, 13348.00
460.0000, 13445.00
461.1870, 13483.00
462.3740, 13625.00
463.5610, 13936.00
464.7480, 14118.00
465.9340, 14089.00
467.1210, 14376.00
468.3070, 14397.00
469.4930, 14471.00
470.6790, 14577.00
471.8650, 14735.72
473.0510, 14809.00
474.2360, 15137.00
475.4210, 15373.00
476.6070, 15584.00
477.7920, 15992.00
478.9770, 16181.00
480.1610, 16452.00
481.3460, 16943.00
482.5300, 16969.00
483.7140, 16966.00
484.8980, 17050.00
486.0820, 16749.00
487.2660, 16499.00
488.4500, 16026.00
489.6330, 15568.00
490.8160, 15071.00
492.0000, 14604.00
493.1830, 14234.00
494.3650, 13646.00
495.5480, 13377.00
496.7300, 13127.00
497.9130, 12758.00
499.0950, 12659.00
500.2770, 12377.00
501.4590, 12415.00
502.6410, 12204.00
503.8220, 12094.00
505.0030, 12147.00
506.1850, 12016.00
507.3660, 11922.00
508.5470, 11869.00
509.7270, 11850.00
510.9080, 11919.00
512.0880, 11933.00
513.2690, 11854.00
514.4490, 11855.00
515.6290, 11799.00
516.8090, 11823.00
517.9880, 11777.00
519.1680, 11823.00
520.3470, 11700.00
521.5260, 11726.00
522.7050, 11831.00
523.8840, 11653.00
525.0630, 11697.00
526.2410, 11805.00
527.4200, 11694.00
528.5980, 11732.00
529.7760, 11689.00
530.9540, 11590.00
532.1320, 11607.00
533.3090, 11552.00
534.4870, 11664.00
535.6640, 11542.00
536.8410, 11604.00
538.0180, 11513.00
539.1950, 11566.00
540.3710, 11533.00
541.5480, 11557.00
542.7240, 11431.00
543.9000, 11502.00
545.0760, 11508.00
546.2520, 11588.00
547.4280, 11520.00
548.6040, 11377.00
549.7790, 11553.00
550.9540, 11503.00
552.1290, 11613.00
553.3040, 11627.00
554.4790, 11585.00
555.6530, 11493.00
556.8280, 11583.00
558.0020, 11631.00
559.1760, 11624.00
560.3500, 11636.00
561.5240, 11649.41
562.6980, 11649.00
563.8710, 11655.00
565.0440, 11680.00
566.2170, 11676.34
567.3900, 11685.00
568.5630, 11817.00
569.7360, 11901.00
570.9090, 11927.04
572.0810, 11733.00
573.2530, 11963.00
574.4250, 11953.00
575.5970, 11890.00
576.7690, 12050.00
577.9400, 12090.00
579.1120, 12023.00
580.2830, 12110.00
581.4540, 12123.00
582.6250, 12239.00
583.7960, 12369.00
584.9660, 12356.00
586.1370, 12505.00
587.3070, 12482.00
588.4770, 12572.00
589.6470, 12751.00
590.8170, 12626.00
591.9870, 12676.00
593.1560, 12705.00
594.3260, 12881.00
595.4950, 12803.00
596.6640, 12944.00
597.8330, 13003.00
599.0010, 13081.00
600.1700, 13108.00
601.3380, 13161.78
602.5070, 13239.86
603.6750, 13225.00
604.8430, 13400.00
606.0100, 13415.00
607.1780, 13501.00
608.3450, 13388.00
609.5130, 13667.00
610.6800, 13731.00
611.8470, 13941.00
613.0140, 14143.00
614.1800, 14264.00
615.3470, 14607.00
616.5130, 15073.00
617.6790, 15298.00
618.8450, 15814.00
620.0110, 16070.00
621.1770, 16344.00
622.3420, 16641.00
623.5080, 16814.00
624.6730, 16973.00
625.8380, 16943.00
627.0030, 16628.00
628.1680, 16493.00
629.3320, 15872.00
630.4970, 15339.00
631.6610, 14875.00
632.8250, 14618.00
633.9890, 14198.00
635.1530, 14080.00
636.3160, 13982.00
637.4800, 14071.00
638.6430, 14116.00
639.8060, 14163.00
640.9690, 14457.00
642.1320, 14654.00
643.2950, 14815.00
644.4570, 14851.00
645.6200, 15038.00
646.7820, 14962.00
647.9440, 15045.00
649.1060, 15084.00
650.2670, 14799.00
651.4290, 14721.00
652.5900, 14500.00
653.7520, 14211.00
654.9130, 14082.00
656.0740, 13713.00
657.2340, 13417.00
658.3950, 13011.00
659.5550, 12749.00
660.7160, 12639.00
661.8760, 12444.00
663.0360, 12240.00
664.1960, 12127.00
665.3550, 12046.00
666.5150, 11852.00
667.6740, 11829.09
668.8330, 11834.00
669.9920, 11734.00
671.1510, 11784.00
672.3100, 11741.00
673.4680, 11601.00
674.6270, 11464.00
675.7850, 11358.00
676.9430, 11594.00
678.1010, 11477.00
679.2590, 11388.00
680.4160, 11529.00
681.5740, 11395.00
682.7310, 11311.00
683.8880, 11352.00
685.0450, 11466.00
686.2020, 11297.00
687.3580, 11464.00
688.5150, 11425.00
689.6710, 11521.00
690.8270, 11519.00
691.9830, 11447.00
693.1390, 11451.00
694.2950, 11358.00
695.4500, 11410.00
696.6050, 11398.00
697.7610, 11402.00
698.9160, 11549.00
700.0710, 11517.00
701.2250, 11550.00
702.3800, 11526.00
703.5340, 11601.00
704.6880, 11503.00
705.8420, 11649.00
706.9960, 11432.00
708.1500, 11333.00
709.3040, 11516.00
710.4570, 11528.00
711.6100, 11610.00
712.7640, 11769.00
713.9160, 11560.00
715.0690, 11636.00
716.2220, 11721.00
717.3740, 11761.00
718.5270, 11959.00
719.6790, 11967.99
720.8310, 11785.00
721.9830, 12011.00
723.1340, 11992.00
724.2860, 11892.00
725.4370, 12113.00
726.5880, 12200.00
727.7390, 12152.00
728.8900, 12150.00
730.0410, 12199.00
731.1910, 12347.00
732.3420, 12240.00
733.4920, 12412.00
734.6420, 12265.00
735.7920, 12204.00
736.9420, 12465.00
738.0910, 12324.00
739.2410, 12353.00
740.3900, 12296.00
741.5390, 12343.00
742.6880, 12323.00
743.8370, 12448.00
744.9860, 12465.00
746.1340, 12594.00
747.2820, 12474.00
748.4310, 12569.00
749.5790, 12569.00
750.7260, 12487.00
751.8740, 12584.00
753.0220, 12503.00
754.1690, 12611.00
755.3160, 12528.00
756.4630, 12702.00
757.6100, 12648.00
758.7570, 12740.00
759.9030, 12821.00
761.0500, 12685.00
762.1960, 12895.00
763.3420, 12973.00
764.4880, 12770.00
765.6340, 13102.00
766.7790, 12978.00
767.9250, 13019.00
769.0700, 12987.00
770.2150, 13152.00
771.3600, 13343.00
772.5050, 13344.00
773.6490, 13229.00
774.7940, 13235.00
775.9380, 13200.00
777.0820, 13426.00
778.2260, 13455.00
779.3700, 13479.00
780.5140, 13558.00
781.6570, 13510.00
782.8010, 13610.80
783.9440, 13560.00
785.0870, 13749.00
786.2300, 13785.00
787.3720, 13826.00
788.5150, 13822.00
789.6570, 13994.00
790.8000, 14088.00
791.9420, 14056.00
793.0840, 14074.00
794.2250, 14257.00
795.3670, 14199.00
796.5080, 14298.00
797.6500, 14182.00
798.7910, 14273.00
799.9320, 14156.00
801.0720, 14237.00
802.2130, 14153.00
803.3530, 14173.00
804.4940, 14114.00
805.6340, 14231.00
806.7740, 14077.00
807.9140, 13969.00
809.0530, 14152.00
810.1930, 14073.00
811.3320, 14009.00
812.4710, 14077.00
813.6100, 14324.00
814.7490, 14121.00
815.8880, 14232.00
817.0270, 14369.00
818.1650, 14339.00
819.3030, 14369.00
820.4410, 14574.00
821.5790, 14425.00
822.7170, 14595.00
823.8540, 14583.00
824.9920, 14564.00
826.1290, 14666.00
827.2660, 14681.00
828.4030, 14462.00
829.5400, 14369.00
830.6760, 14552.00
831.8130, 14439.00
832.9490, 14550.00
834.0850, 14535.00
835.2210, 14565.00
836.3570, 14653.00
837.4930, 14761.00
838.6280, 14711.00
839.7640, 14708.00
840.8990, 14842.00
842.0340, 15039.00
843.1690, 15236.00
844.3030, 15167.00
845.4380, 15235.00
846.5720, 15524.00
847.7060, 15487.00
848.8400, 15597.00
849.9740, 15690.00
851.1080, 15979.00
852.2420, 16126.00
853.3750, 16374.00
854.5080, 16619.00
855.6410, 16896.00
856.7740, 17079.00
857.9070, 17315.00
859.0400, 17381.05
860.1720, 17508.00
861.3040, 17395.00
862.4360, 17274.00
863.5680, 17128.00
864.7000, 16754.00
865.8320, 16497.00
866.9630, 16074.00
868.0950, 16006.00
869.2260, 15863.00
870.3570, 15516.00
871.4880, 15573.00
872.6180, 15381.00
873.7490, 15384.00
874.8790, 15322.00
876.0090, 15237.00
877.1390, 15161.00
878.2690, 15278.00
879.3990, 15312.00
880.5280, 15269.09
881.6580, 15262.00
882.7870, 15210.00
883.9160, 15117.00
885.0450, 15082.00
886.1740, 15084.00
887.3020, 15006.00
888.4310, 15236.00
889.5590, 15216.00
890.6870, 15288.00
891.8150, 15243.00
892.9430, 15270.00
894.0700, 15412.00
895.1980, 15145.00
896.3250, 15390.00
897.4520, 15349.00
898.5790, 15392.00
899.7060, 15297.00
900.8330, 15284.00
901.9590, 15224.00
903.0850, 15264.00
904.2120, 15206.53
905.3380, 15099.00
906.4630, 15144.00
907.5890, 15059.00
908.7150, 15043.00
909.8400, 14938.00
910.9650, 14935.00
912.0900, 14927.00
913.2150, 14930.00
914.3400, 14789.00
915.4640, 14696.00
916.5890, 14638.00
917.7130, 14580.00
918.8370, 14307.00
919.9610, 14329.00
921.0850, 14326.00
922.2080, 14135.00
923.3320, 14233.00
924.4550, 14153.00
925.5780, 14440.00
926.7010, 14306.00
927.8240, 14361.00
928.9460, 14450.00
930.0690, 14445.00
931.1910, 14481.98
932.3130, 14363.00
933.4350, 14500.00
934.5570, 14580.00
935.6790, 14604.00
936.8000, 14429.00
937.9220, 14491.00
939.0430, 14361.00
940.1640, 14318.00
941.2850, 14377.00
942.4050, 14289.00
943.5260, 14399.00
944.6460, 14500.00
945.7660, 14386.00
946.8860, 14412.00
948.0060, 14535.00
949.1260, 14525.00
950.2460, 14590.00
951.3650, 14644.00
952.4840, 14683.00
953.6030, 14560.00
954.7220, 14680.00
955.8410, 14629.00
956.9590, 14689.00
958.0780, 14572.00
959.1960, 14610.00
960.3140, 14601.00
961.4320, 14624.00
962.5500, 14716.00
963.6680, 14648.00
964.7850, 14454.00
965.9020, 14666.00
967.0190, 14380.00
968.1360, 14388.00
969.2530, 14397.00
970.3700, 14502.00
971.4860, 14393.00
972.6030, 14222.00
973.7190, 14404.00
974.8350, 14168.00
975.9510, 14179.00
977.0660, 14175.00
978.1820, 14131.00
979.2970, 14171.00
980.4130, 14272.00
981.5280, 14326.00
982.6420, 14303.00
983.7570, 14600.00
984.8720, 14527.00
985.9860, 14774.00
987.1000, 14617.00
988.2140, 14592.00
989.3280, 14741.00
990.4420, 14690.00
991.5560, 14753.00
992.6690, 14683.00
993.7820, 14987.00
994.8950, 15199.00
996.0080, 15642.00
997.1210, 16193.00
998.2340, 16605.00
999.3460, 17144.00
1000.458, 17809.00
1001.571, 18325.00
1002.683, 17981.00
1003.794, 17772.00
1004.906, 16969.00
1006.017, 16225.00
1007.129, 15609.00
1008.240, 15398.00
1009.351, 15128.00
1010.462, 14857.00
1011.572, 14842.00
1012.683, 14918.00
1013.793, 15127.00
1014.904, 15121.00
1016.014, 15340.00
1017.123, 15334.00
1018.233, 15680.00
1019.343, 15867.00
1020.452, 16156.00
1021.561, 16187.00
1022.670, 16297.00
1023.779, 16040.00
1024.888, 16082.00
1025.997, 16068.00
1027.105, 15843.00
1028.213, 15726.00
1029.321, 15750.00
1030.429, 15446.00
1031.537, 15468.00
1032.645, 15410.00
1033.752, 15154.00
1034.859, 15133.00
1035.966, 15099.00
1037.073, 14968.00
1038.180, 15139.00
1039.287, 14962.00
1040.393, 14942.00
1041.500, 15042.00
1042.606, 14956.00
1043.712, 14900.00
1044.818, 15012.00
1045.923, 15004.00
1047.029, 15186.00
1048.134, 15084.00
1049.239, 15304.00
1050.344, 15106.00
1051.449, 15075.00
1052.554, 15123.00
1053.658, 15175.00
1054.763, 15110.00
1055.867, 15097.00
1056.971, 15018.00
1058.075, 14909.00
1059.179, 14886.00
1060.282, 15211.00
1061.385, 14965.00
1062.489, 15137.00
1063.592, 15072.00
1064.695, 15078.00
1065.797, 15006.00
1066.900, 15069.36
1068.002, 15258.00
1069.105, 15191.00
1070.207, 15321.00
1071.309, 15367.51
1072.411, 15629.00
1073.512, 15557.00
1074.614, 15819.00
1075.715, 15900.00
1076.816, 15975.00
1077.917, 16215.00
1079.018, 16499.00
1080.118, 16481.00
1081.219, 16643.00
1082.319, 16759.00
1083.419, 16871.00
1084.519, 16795.00
1085.619, 16576.00
1086.719, 16542.00
1087.818, 16466.00
1088.918, 16338.00
1090.017, 16252.00
1091.116, 16073.00
1092.215, 16299.00
1093.314, 16136.00
1094.412, 16139.00
1095.510, 16030.00
1096.609, 16000.00
1097.707, 16061.00
1098.805, 15862.00
1099.902, 16006.00
1101.000, 15941.00
1102.097, 15980.00
1103.195, 16049.00
1104.292, 16009.00
1105.389, 16234.00
1106.485, 16232.00
1107.582, 16275.00
1108.678, 16525.00
1109.775, 16349.00
1110.871, 16438.00
1111.967, 16322.00
1113.062, 16370.00
1114.158, 16429.00
1115.254, 16506.00
1116.349, 16194.00
1117.444, 16141.00
1118.539, 16238.00
1119.634, 15990.00
1120.728, 16217.00
1121.823, 16342.00
1122.917, 16186.00
1124.011, 16330.00
1125.105, 16394.00
1126.199, 16280.00
1127.293, 16334.00
1128.386, 16212.00
1129.480, 16312.00
1130.573, 16249.00
1131.666, 16285.00
1132.759, 16194.00
1133.851, 16314.00
1134.944, 16171.00
1136.036, 16336.00
1137.129, 16205.00
1138.221, 16249.00
1139.313, 16269.62
1140.404, 16128.00
1141.496, 16232.00
1142.587, 16092.00
1143.678, 15955.00
1144.770, 15988.00
1145.860, 16164.00
1146.951, 16193.00
1148.042, 16288.00
1149.132, 16151.00
1150.223, 16227.00
1151.313, 16129.00
1152.403, 16166.00
1153.492, 16284.00
1154.582, 16286.00
1155.671, 16376.79
1156.761, 16406.07
1157.850, 16473.00
1158.939, 16471.00
1160.028, 16413.00
1161.116, 16462.00
1162.205, 16522.00
1163.293, 16607.00
1164.381, 16505.00
1165.469, 16686.00
1166.557, 16569.00
1167.645, 16577.00
1168.732, 16790.00
1169.820, 16659.00
1170.907, 16638.00
1171.994, 16661.00
1173.081, 16696.00
1174.167, 16689.00
1175.254, 16698.45
1176.340, 16722.00
1177.426, 16656.00
1178.512, 16690.00
1179.598, 16604.00
1180.684, 16611.06
1181.770, 16561.00
1182.855, 16571.00
1183.940, 16624.00
1185.025, 16555.00
1186.110, 16617.00
1187.195, 16548.00
1188.280, 16542.00
1189.364, 16287.00
1190.448, 16410.00
1191.532, 16127.00
1192.616, 16211.00
1193.700, 16108.00
1194.784, 16152.00
1195.867, 16080.00
1196.950, 16145.00
1198.034, 16246.00
1199.117, 16310.00
1200.199, 16259.00
1201.282, 16066.00
1202.364, 16140.00
1203.447, 16160.00
1204.529, 15972.00
1205.611, 15985.00
1206.693, 15773.00
1207.774, 15806.00
1208.856, 15940.00
1209.937, 15963.00
1211.018, 16030.00
1212.099, 16103.00
1213.180, 16153.00
1214.261, 16228.00
1215.341, 16336.00
1216.422, 16096.00
1217.502, 16310.00
1218.582, 16197.00
1219.662, 16314.00
1220.742, 16231.00
1221.821, 16090.00
1222.900, 16065.00
1223.980, 16254.00
1225.059, 16063.00
1226.138, 16287.00
1227.216, 16319.00
1228.295, 16363.00
1229.373, 16346.00
1230.452, 16528.00
1231.530, 16611.00
1232.608, 16789.00
1233.685, 16896.63
1234.763, 17026.00
1235.840, 17042.00
1236.918, 17138.00
1237.995, 17037.00
1239.072, 17083.00
1240.149, 16957.00
1241.225, 17114.00
1242.302, 17068.00
1243.378, 16866.00
1244.454, 17113.00
1245.530, 17066.00
1246.606, 17130.00
1247.681, 17296.00
1248.757, 17172.00
1249.832, 17242.00
1250.907, 17180.00
1251.982, 17002.00
1253.057, 17318.00
1254.132, 17213.00
1255.206, 16925.00
1256.281, 17270.00
1257.355, 17052.00
1258.429, 17323.00
