##NAMES=Clinoptilolite-Ca
##RRUFFID=R060662
##IDEAL CHEMISTRY=Ca_3_(Si_30_Al_6_)O_72_&#183;20H_2_O
##LOCALITY=Succor Creek, Malheur County, Oregon, USA
##OWNER=RRUFF
##SOURCE=Michael Scott
##DESCRIPTION=Group of colorless platy prismatic crystals
##STATUS=The identification of this mineral has been confirmed by X-ray diffraction and chemical analysis
##URL=rruff.info/R060662
##MEASURED CHEMISTRY=(Ca_1.02_Na_0.97_K_0.59_)_Σ=2.58_(Si_14.40_Al_3.60_)_Σ=18_O_36_·10.96H_2_O
##PIN_ID=M00397
##ORIENTATION=Laser parallel to c* (0 0 1). Fiducial mark perpendicular to laser is parallel to -a [-1 0 0]
84.83700, 20978.00
86.07200, 22074.00
87.30800, 23405.00
88.54200, 24244.00
89.77700, 25406.00
91.01200, 26381.00
92.24600, 27301.00
93.48000, 27915.00
94.71400, 28629.00
95.94800, 29184.00
97.18200, 29673.00
98.41600, 30051.00
99.64900, 30798.00
100.8830, 31297.00
102.1160, 31505.00
103.3490, 31726.00
104.5820, 32634.00
105.8150, 33048.00
107.0470, 34434.00
108.2800, 35387.00
109.5120, 35115.00
110.7440, 34815.00
111.9760, 34490.00
113.2080, 35213.00
114.4400, 35355.00
115.6710, 35743.00
116.9030, 36053.00
118.1340, 35786.00
119.3650, 35601.00
120.5960, 35356.00
121.8270, 35361.13
123.0580, 35310.95
124.2880, 35409.00
125.5190, 35510.00
126.7490, 35495.00
127.9790, 35814.00
129.2090, 35977.00
130.4390, 36058.00
131.6680, 36438.00
132.8980, 36431.00
134.1270, 37095.00
135.3560, 36409.00
136.5850, 37083.00
137.8140, 37237.00
139.0430, 37245.00
140.2710, 37504.00
141.5000, 37581.00
142.7280, 37380.00
143.9560, 37012.00
145.1840, 36760.00
146.4120, 36605.00
147.6390, 36339.00
148.8670, 35783.00
150.0940, 35594.00
151.3210, 34993.00
152.5490, 34471.00
153.7750, 34194.00
155.0020, 33759.00
156.2290, 32953.00
157.4550, 32414.00
158.6810, 31813.00
159.9080, 31365.00
161.1340, 30660.00
162.3590, 30143.00
163.5850, 29686.00
164.8110, 29093.00
166.0360, 28562.93
167.2610, 28062.12
168.4860, 27431.00
169.7110, 27007.00
170.9360, 26469.00
172.1610, 25869.00
173.3850, 25658.00
174.6100, 25192.00
175.8340, 24914.00
177.0580, 24540.00
178.2820, 24432.00
179.5050, 24001.00
180.7290, 23563.00
181.9520, 23240.00
183.1760, 23216.00
184.3990, 22851.00
185.6220, 22871.00
186.8450, 22858.00
188.0670, 22721.00
189.2900, 22651.00
190.5120, 22729.00
191.7340, 22788.00
192.9560, 22348.00
194.1780, 22263.00
195.4000, 22025.00
196.6220, 22065.00
197.8430, 21983.00
199.0640, 21690.00
200.2860, 21977.00
201.5070, 21743.00
202.7270, 21403.00
203.9480, 21212.00
205.1690, 20581.00
206.3890, 20216.00
207.6090, 20091.00
208.8290, 19914.00
210.0490, 19773.00
211.2690, 19773.00
212.4890, 19527.00
213.7080, 19459.00
214.9280, 19393.00
216.1470, 19052.00
217.3660, 18845.00
218.5850, 19021.00
219.8030, 18914.00
221.0220, 18833.00
222.2400, 18931.00
223.4590, 18660.00
224.6770, 18817.00
225.8950, 18836.00
227.1120, 18953.00
228.3300, 18898.00
229.5480, 18950.00
230.7650, 18972.00
231.9820, 19017.00
233.1990, 19222.00
234.4160, 19219.00
235.6330, 19504.00
236.8490, 19597.00
238.0660, 19849.00
239.2820, 19965.00
240.4980, 20117.00
241.7140, 20266.00
242.9300, 20509.00
244.1460, 20787.00
245.3610, 20807.00
246.5770, 21005.00
247.7920, 21065.00
249.0070, 21252.00
250.2220, 21203.00
251.4370, 21551.00
252.6510, 21383.00
253.8660, 21526.00
255.0800, 21312.00
256.2940, 21632.00
257.5080, 21793.00
258.7220, 22302.00
259.9360, 22014.00
261.1490, 21648.00
262.3630, 21655.00
263.5760, 21285.00
264.7890, 21442.00
266.0020, 21330.00
267.2150, 21114.00
268.4270, 21007.00
269.6400, 20880.10
270.8520, 21078.00
272.0640, 20716.00
273.2760, 20672.00
274.4880, 20715.00
275.7000, 20456.00
276.9120, 20516.00
278.1230, 20433.00
279.3340, 20208.00
280.5450, 20157.00
281.7560, 20320.00
282.9670, 20261.00
284.1780, 20208.00
285.3880, 20270.00
286.5980, 20029.00
287.8090, 20375.00
289.0190, 20029.00
290.2290, 20230.00
291.4380, 20145.00
292.6480, 20146.00
293.8570, 20057.00
295.0670, 20179.00
296.2760, 20151.00
297.4850, 19960.00
298.6930, 20248.00
299.9020, 20167.00
301.1110, 20260.00
302.3190, 20099.00
303.5270, 20012.00
304.7350, 20215.00
305.9430, 20268.00
307.1510, 20169.00
308.3580, 20088.00
309.5660, 20371.00
310.7730, 20261.00
311.9800, 20582.00
313.1870, 20567.00
314.3940, 20747.00
315.6010, 21008.00
316.8070, 21199.00
318.0130, 21252.00
319.2200, 21359.00
320.4260, 21690.00
321.6310, 21557.00
322.8370, 21990.00
324.0430, 21999.00
325.2480, 22046.00
326.4540, 22124.00
327.6590, 22166.30
328.8640, 22285.00
330.0680, 22292.00
331.2730, 22524.00
332.4780, 22588.00
333.6820, 22446.00
334.8860, 22530.00
336.0900, 22330.00
337.2940, 22495.00
338.4980, 22611.00
339.7010, 22882.00
340.9050, 22616.00
342.1080, 22842.00
343.3110, 22905.00
344.5140, 22947.00
345.7170, 23295.00
346.9200, 23393.00
348.1220, 23481.00
349.3240, 23644.00
350.5270, 23843.00
351.7290, 23872.00
352.9310, 24232.00
354.1320, 24325.00
355.3340, 24489.00
356.5350, 24872.00
357.7370, 25118.69
358.9380, 25617.00
360.1390, 25904.00
361.3400, 26450.00
362.5400, 26990.00
363.7410, 27351.00
364.9410, 27683.00
366.1410, 28161.00
367.3410, 28427.00
368.5410, 29251.00
369.7410, 30144.00
370.9400, 30268.00
372.1400, 30821.00
373.3390, 31212.00
374.5380, 31853.00
375.7370, 32595.00
376.9360, 33365.00
378.1350, 34024.00
379.3330, 34878.00
380.5310, 35522.00
381.7300, 36663.00
382.9280, 37398.00
384.1260, 38639.00
385.3230, 39563.00
386.5210, 41267.00
387.7180, 42282.00
388.9160, 43803.00
390.1130, 45341.00
391.3100, 47073.00
392.5060, 48467.00
393.7030, 50629.00
394.9000, 51850.00
396.0960, 53261.00
397.2920, 54945.00
398.4880, 55815.00
399.6840, 56422.00
400.8800, 57586.00
402.0750, 57596.00
403.2710, 57506.00
404.4660, 56927.00
405.6610, 56243.59
406.8560, 55413.00
408.0510, 54012.00
409.2450, 52746.00
410.4400, 50993.00
411.6340, 49239.00
412.8280, 47285.00
414.0220, 46002.00
415.2160, 44383.00
416.4100, 42285.00
417.6030, 40532.00
418.7970, 39312.00
419.9900, 37325.00
421.1830, 35868.00
422.3760, 34283.00
423.5690, 33109.00
424.7610, 31696.00
425.9540, 30415.00
427.1460, 29511.00
428.3380, 28401.00
429.5300, 27557.00
430.7220, 26710.00
431.9140, 26025.00
433.1050, 25394.00
434.2970, 24736.00
435.4880, 24323.00
436.6790, 23841.00
437.8700, 23446.00
439.0610, 23381.00
440.2510, 23081.00
441.4420, 22851.00
442.6320, 22729.00
443.8220, 22550.00
445.0120, 22519.00
446.2020, 22503.00
447.3910, 22523.00
448.5810, 22464.00
449.7700, 22847.00
450.9600, 23052.00
452.1490, 23389.00
453.3370, 23877.00
454.5260, 24348.00
455.7150, 24777.00
456.9030, 25434.00
458.0910, 26101.00
459.2800, 26969.00
460.4670, 27750.00
461.6550, 28423.00
462.8430, 29193.00
464.0300, 29795.00
465.2180, 30745.00
466.4050, 31380.00
467.5920, 31842.00
468.7790, 32598.00
469.9650, 33600.00
471.1520, 34827.00
472.3380, 36031.00
473.5250, 37331.00
474.7110, 38858.30
475.8970, 40575.00
477.0820, 42083.00
478.2680, 43644.00
479.4540, 44717.62
480.6390, 46145.00
481.8240, 46320.00
483.0090, 46521.00
484.1940, 46540.00
485.3780, 44646.00
486.5630, 41147.00
487.7470, 38910.00
488.9320, 36654.00
490.1160, 34584.00
491.3000, 32303.00
492.4830, 30433.00
493.6670, 28604.00
494.8500, 26812.00
496.0340, 25757.00
497.2170, 24284.00
498.4000, 23502.00
499.5820, 22755.00
500.7650, 22005.00
501.9480, 21373.00
503.1300, 20855.00
504.3120, 20346.00
505.4940, 20050.00
506.6760, 19842.00
507.8580, 19669.00
509.0390, 19378.00
510.2210, 19140.00
511.4020, 19196.00
512.5830, 18961.00
513.7640, 18843.00
514.9450, 18707.00
516.1250, 18582.00
517.3060, 18574.00
518.4860, 18555.00
519.6660, 18492.00
520.8460, 18393.00
522.0260, 18374.00
523.2060, 18384.00
524.3850, 18235.00
525.5650, 18368.00
526.7440, 18241.00
527.9230, 18132.00
529.1020, 18120.00
530.2810, 18038.00
531.4590, 18124.00
532.6380, 17930.00
533.8160, 18026.00
534.9940, 17895.00
536.1720, 17935.00
537.3500, 17890.00
538.5270, 17903.00
539.7050, 17868.00
540.8820, 17885.48
542.0590, 17930.00
543.2360, 17892.00
544.4130, 17952.00
545.5900, 17888.56
546.7660, 17865.00
547.9430, 17930.00
549.1190, 17833.00
550.2950, 17869.00
551.4710, 17810.00
552.6470, 17606.00
553.8220, 18010.00
554.9980, 17869.00
556.1730, 18002.00
557.3480, 17787.00
558.5230, 17856.00
559.6980, 17745.00
560.8730, 17827.00
562.0470, 17759.00
563.2220, 17756.00
564.3960, 17841.00
565.5700, 17766.00
566.7440, 17896.00
567.9170, 17906.03
569.0910, 17993.00
570.2640, 17976.00
571.4380, 17933.00
572.6110, 17925.00
573.7840, 18115.00
574.9570, 18166.00
576.1290, 18280.00
577.3020, 18194.00
578.4740, 18292.00
579.6460, 18345.00
580.8180, 18378.00
581.9900, 18479.74
583.1620, 18598.00
584.3330, 18664.00
585.5040, 18749.02
586.6760, 18814.59
587.8470, 18886.00
589.0180, 18942.00
590.1880, 19016.00
591.3590, 19118.00
592.5290, 19214.00
593.7000, 19336.00
594.8700, 19349.00
596.0400, 19821.00
597.2090, 19948.00
598.3790, 20187.00
599.5490, 20192.00
600.7180, 20586.00
601.8870, 21017.00
603.0560, 21336.00
604.2250, 21583.00
605.3940, 21865.00
606.5620, 22172.00
607.7300, 22649.00
608.8990, 22612.00
610.0670, 23137.00
611.2350, 23073.00
612.4020, 23087.00
613.5700, 23295.00
614.7370, 23220.00
615.9050, 23174.00
617.0720, 23134.00
618.2390, 22850.00
619.4060, 22705.00
620.5720, 22478.00
621.7390, 21875.00
622.9050, 21904.00
624.0710, 21454.00
625.2370, 21346.00
626.4030, 20934.00
627.5690, 20567.00
628.7340, 20291.00
629.9000, 20149.00
631.0650, 20083.00
632.2300, 19766.00
633.3950, 19626.00
634.5600, 19453.00
635.7240, 19320.00
636.8890, 19303.00
638.0530, 19152.00
639.2170, 19133.00
640.3810, 19107.00
641.5450, 18855.00
642.7080, 18891.00
643.8720, 18937.00
645.0350, 18793.00
646.1980, 18736.00
647.3610, 18731.00
648.5240, 18606.00
649.6870, 18574.00
650.8490, 18624.00
652.0120, 18579.00
653.1740, 18423.00
654.3360, 18527.00
655.4980, 18383.00
656.6600, 18317.00
657.8210, 18365.00
658.9830, 18278.00
660.1440, 18230.00
661.3050, 18095.00
662.4660, 18086.00
663.6270, 18160.00
664.7870, 18170.00
665.9480, 18208.00
667.1080, 18080.00
668.2680, 18236.00
669.4280, 18107.00
670.5880, 18104.00
671.7480, 18245.00
672.9070, 18086.00
674.0670, 18167.00
675.2260, 18123.00
676.3850, 18310.00
677.5440, 18208.00
678.7030, 18267.00
679.8610, 18051.00
681.0200, 18222.00
682.1780, 18077.00
683.3360, 18305.00
684.4940, 18193.00
685.6520, 18322.00
686.8090, 18181.00
687.9670, 18216.00
689.1240, 18381.00
690.2810, 18318.00
691.4380, 18322.00
692.5950, 18237.00
693.7520, 18369.00
694.9080, 18330.00
696.0650, 18328.00
697.2210, 18420.00
698.3770, 18444.78
699.5330, 18538.00
700.6880, 18596.00
701.8440, 18482.00
702.9990, 18543.00
704.1550, 18553.00
705.3100, 18735.00
706.4650, 18557.00
707.6190, 18772.00
708.7740, 18781.00
709.9290, 18719.00
711.0830, 18753.00
712.2370, 18892.00
713.3910, 18832.00
714.5450, 19180.00
715.6980, 18960.00
716.8520, 19095.00
718.0050, 18883.00
719.1580, 18916.00
720.3110, 18903.00
721.4640, 19004.00
722.6170, 18845.00
723.7700, 19053.00
724.9220, 19060.00
726.0740, 18822.00
727.2260, 18788.00
728.3780, 18957.00
729.5300, 19120.00
730.6810, 18969.00
731.8330, 18986.00
732.9840, 19108.00
734.1350, 18942.00
735.2860, 18945.00
736.4370, 19000.00
737.5880, 18921.38
738.7380, 19147.00
739.8880, 18973.00
741.0390, 19036.00
742.1890, 19236.00
743.3380, 19215.00
744.4880, 19133.00
745.6380, 19154.00
746.7870, 19069.00
747.9360, 19164.00
749.0850, 19181.36
750.2340, 19327.00
751.3830, 19310.00
752.5310, 19313.00
753.6800, 19384.00
754.8280, 19428.00
755.9760, 19478.83
757.1240, 19502.29
758.2720, 19569.00
759.4190, 19558.00
760.5670, 19529.00
761.7140, 19610.79
762.8610, 19681.19
764.0080, 19861.00
765.1550, 19964.00
766.3020, 20145.00
767.4480, 20392.00
768.5950, 20248.00
769.7410, 20506.00
770.8870, 20504.00
772.0330, 20456.00
773.1780, 20677.00
774.3240, 20778.00
775.4690, 20794.00
776.6140, 20770.00
777.7590, 21057.00
778.9040, 21156.00
780.0490, 21285.00
781.1940, 21209.00
782.3380, 21345.96
783.4820, 21441.37
784.6260, 21526.00
785.7700, 21614.00
786.9140, 21782.00
788.0580, 21695.00
789.2010, 21634.00
790.3450, 21761.00
791.4880, 21614.00
792.6310, 21748.00
793.7730, 21654.00
794.9160, 21759.00
796.0590, 21778.00
797.2010, 21830.00
798.3430, 21639.00
799.4850, 21442.00
800.6270, 21496.00
801.7690, 21261.00
802.9100, 21261.00
804.0520, 21114.00
805.1930, 20928.00
806.3340, 21046.00
807.4750, 20933.00
808.6160, 20830.00
809.7560, 20835.00
810.8970, 20579.00
812.0370, 20725.00
813.1770, 20796.00
814.3170, 20607.00
815.4570, 20620.00
816.5960, 20745.00
817.7360, 20685.00
818.8750, 20838.00
820.0140, 20780.00
821.1530, 20695.00
822.2920, 20615.00
823.4310, 20455.00
824.5690, 20331.00
825.7070, 20238.00
826.8460, 20169.00
827.9840, 20119.19
829.1220, 20056.11
830.2590, 20062.00
831.3970, 19912.00
832.5340, 19858.00
833.6710, 19679.00
834.8080, 19801.00
835.9450, 19625.00
837.0820, 19812.00
838.2190, 19549.00
839.3550, 19583.00
840.4910, 19774.00
841.6270, 19749.00
842.7630, 19811.00
843.8990, 19775.00
845.0350, 19796.00
846.1700, 19843.00
847.3060, 19909.00
848.4410, 19801.00
849.5760, 19738.00
850.7100, 20007.00
851.8450, 19846.00
852.9800, 19933.00
854.1140, 19939.00
855.2480, 19988.00
856.3820, 20021.77
857.5160, 19966.00
858.6500, 20083.00
859.7830, 20143.00
860.9170, 20195.33
862.0500, 20021.00
863.1830, 20279.00
864.3160, 20057.00
865.4480, 20045.00
866.5810, 20065.00
867.7130, 20009.00
868.8460, 19972.00
869.9780, 20077.00
871.1100, 20007.00
872.2410, 20215.00
873.3730, 19935.00
874.5050, 19948.00
875.6360, 20083.00
876.7670, 20012.00
877.8980, 19877.00
879.0290, 19972.00
880.1590, 19987.00
881.2900, 19816.00
882.4200, 19841.00
883.5500, 20015.00
884.6800, 20038.00
885.8100, 20030.00
886.9400, 20117.00
888.0690, 20001.00
889.1990, 20034.00
890.3280, 19998.00
891.4570, 20095.00
892.5860, 20161.00
893.7140, 20073.00
894.8430, 20064.00
895.9710, 20364.00
897.1000, 20084.00
898.2280, 20310.00
899.3560, 20285.00
900.4830, 20287.00
901.6110, 20361.40
902.7380, 20178.00
903.8660, 20325.00
904.9930, 20281.00
906.1200, 20123.00
907.2460, 20199.00
908.3730, 20352.00
909.5000, 20374.00
910.6260, 20341.00
911.7520, 20635.00
912.8780, 20381.00
914.0040, 20224.00
915.1290, 20353.00
916.2550, 20318.00
917.3800, 20462.00
918.5050, 20463.00
919.6300, 20507.00
920.7550, 20289.00
921.8800, 20521.00
923.0040, 20298.00
924.1290, 20554.00
925.2530, 20608.00
926.3770, 20607.00
927.5010, 20631.00
928.6250, 20673.84
929.7480, 20529.00
930.8720, 20726.00
931.9950, 20725.00
933.1180, 20691.00
934.2410, 20508.00
935.3640, 20646.00
936.4860, 20665.00
937.6090, 20568.00
938.7310, 20909.00
939.8530, 20645.00
940.9750, 20783.00
942.0970, 20730.00
943.2180, 20603.00
944.3400, 20894.00
945.4610, 20990.00
946.5820, 20860.00
947.7030, 20832.00
948.8240, 20902.00
949.9450, 21029.00
951.0650, 20966.00
952.1860, 21047.00
953.3060, 21037.00
954.4260, 20990.00
955.5460, 20959.00
956.6650, 20969.00
957.7850, 21010.00
958.9040, 21037.00
960.0230, 21196.00
961.1420, 21062.00
962.2610, 21209.00
963.3800, 21357.00
964.4990, 21177.00
965.6170, 21311.00
966.7350, 21321.00
967.8530, 21260.00
968.9710, 21435.00
970.0890, 21532.00
971.2070, 21538.00
972.3240, 21320.00
973.4410, 21521.00
974.5580, 21596.00
975.6750, 21839.00
976.7920, 21559.00
977.9090, 21790.00
979.0250, 21793.00
980.1410, 21736.00
981.2580, 22092.00
982.3740, 21925.00
983.4890, 21826.00
984.6050, 21965.00
985.7200, 22063.00
986.8360, 22009.00
987.9510, 22203.00
989.0660, 22253.00
990.1810, 22203.00
991.2950, 22277.00
992.4100, 22406.00
993.5240, 22422.07
994.6390, 22528.00
995.7530, 22526.00
996.8660, 22693.00
997.9800, 22674.00
999.0940, 22853.00
1000.207, 22663.00
1001.320, 23071.00
1002.433, 23060.00
1003.546, 22973.00
1004.659, 22780.00
1005.772, 22817.00
1006.884, 22755.00
1007.996, 22822.00
1009.108, 22987.00
1010.220, 23022.00
1011.332, 23078.00
1012.444, 22941.00
1013.555, 23246.00
1014.666, 23221.00
1015.777, 23117.00
1016.888, 23402.00
1017.999, 23500.00
1019.110, 23449.00
1020.220, 23425.00
1021.331, 23716.00
1022.441, 23486.00
1023.551, 23782.00
1024.661, 23536.00
1025.770, 23773.00
1026.880, 23562.00
1027.989, 23797.00
1029.098, 23716.00
1030.207, 23851.00
1031.316, 23892.00
1032.425, 23823.00
1033.533, 23735.00
1034.642, 23748.00
1035.750, 23947.00
1036.858, 23920.00
1037.966, 23979.00
1039.073, 23902.00
1040.181, 23916.00
1041.288, 23984.00
1042.396, 24025.00
1043.503, 24141.00
1044.610, 24059.00
1045.716, 24191.00
1046.823, 24001.00
1047.929, 23963.00
1049.036, 24050.00
1050.142, 24129.00
1051.248, 24081.00
1052.353, 24007.00
1053.459, 24232.00
1054.564, 24067.00
1055.670, 24213.00
1056.775, 24052.00
1057.880, 23973.00
1058.985, 24129.00
1060.089, 24184.00
1061.194, 24336.00
1062.298, 24300.00
1063.402, 24349.90
1064.506, 24194.00
1065.610, 24298.00
1066.713, 24393.00
1067.817, 24265.00
1068.920, 24319.00
1070.023, 24379.00
1071.126, 24337.00
1072.229, 24572.00
1073.332, 24565.00
1074.435, 24358.00
1075.537, 24524.00
1076.639, 24540.00
1077.741, 24906.00
1078.843, 24689.00
1079.945, 25165.00
1081.046, 25057.00
1082.148, 25028.00
1083.249, 25245.00
1084.350, 25177.00
1085.451, 25347.00
1086.551, 25611.00
1087.652, 25483.00
1088.752, 25684.00
1089.853, 25834.00
1090.953, 25589.00
1092.053, 25811.00
1093.152, 25957.00
1094.252, 26121.00
1095.351, 26307.44
1096.451, 26410.38
1097.550, 26609.00
1098.649, 26580.00
1099.748, 26619.00
1100.846, 26592.00
1101.945, 26849.00
1103.043, 26925.00
1104.141, 27039.00
1105.239, 26962.00
1106.337, 27424.00
1107.434, 27155.00
1108.532, 27556.00
1109.629, 27447.00
1110.726, 27605.00
1111.823, 27410.00
1112.920, 27710.00
1114.017, 27750.00
1115.113, 27792.00
1116.210, 27849.00
1117.306, 27893.00
1118.402, 27980.00
1119.498, 28210.00
1120.593, 28183.00
1121.689, 28141.00
1122.784, 28503.00
1123.879, 28327.00
1124.974, 28300.00
1126.069, 28577.00
1127.164, 28233.00
1128.259, 28385.00
1129.353, 28644.00
1130.447, 28396.00
1131.541, 28395.00
1132.635, 28647.00
1133.729, 28698.00
1134.822, 28576.00
1135.916, 28626.00
1137.009, 28761.00
1138.102, 28713.00
1139.195, 28663.00
1140.288, 28649.00
1141.380, 28631.47
1142.473, 28632.00
1143.565, 28607.00
1144.657, 28753.00
1145.749, 28704.00
1146.841, 28561.00
1147.932, 29148.00
1149.024, 28638.00
1150.115, 28981.00
1151.206, 28897.00
1152.297, 28636.00
1153.388, 28678.00
1154.479, 28967.00
1155.569, 28944.00
1156.659, 28987.00
1157.750, 28957.00
1158.839, 28657.00
1159.929, 28449.00
1161.019, 28788.00
1162.108, 28597.00
1163.198, 28789.00
1164.287, 28516.00
1165.376, 28588.00
1166.465, 28477.00
1167.553, 28486.00
1168.642, 28272.00
1169.730, 28269.20
1170.818, 28230.00
1171.906, 28148.00
1172.994, 28252.00
1174.082, 28145.00
1175.170, 27910.00
1176.257, 27992.00
1177.344, 27860.00
1178.431, 27689.00
1179.518, 27875.00
1180.605, 27648.00
1181.691, 27600.00
1182.778, 27521.00
1183.864, 27548.00
1184.950, 27232.00
1186.036, 27276.00
1187.122, 27390.00
1188.207, 26969.00
1189.292, 27170.00
1190.378, 27047.00
1191.463, 26700.00
1192.548, 26594.00
1193.632, 26670.00
1194.717, 26583.00
1195.801, 26544.00
1196.886, 26558.00
1197.970, 26491.00
1199.054, 26270.00
1200.137, 26328.00
1201.221, 26179.00
1202.305, 26035.00
1203.388, 26099.00
1204.471, 25797.00
1205.554, 25721.00
1206.637, 25714.00
1207.719, 25766.00
1208.802, 25622.00
1209.884, 25737.00
1210.966, 25780.00
1212.048, 25667.00
1213.130, 25499.00
1214.212, 25719.00
1215.293, 25494.00
1216.374, 25454.00
1217.456, 25553.00
1218.536, 25492.00
1219.617, 25468.00
1220.698, 25565.00
1221.778, 25583.00
1222.859, 25572.00
1223.939, 25478.00
1225.019, 25614.00
1226.099, 25548.00
1227.178, 25637.00
1228.258, 25579.00
1229.337, 25542.00
1230.417, 25559.00
1231.496, 25522.25
1232.574, 25822.00
1233.653, 25505.00
1234.732, 25328.00
1235.810, 25310.00
1236.888, 25712.00
1237.966, 25472.00
1239.044, 25718.00
1240.122, 25598.00
1241.199, 25716.00
1242.277, 25666.00
1243.354, 25489.00
1244.431, 25563.00
1245.508, 25779.00
1246.585, 25738.00
1247.661, 25856.00
1248.738, 25622.00
1249.814, 25850.00
1250.890, 25735.00
1251.966, 25747.00
1253.042, 25710.00
1254.117, 25710.00
1255.193, 25878.00
1256.268, 25794.00
1257.343, 25835.00
1258.418, 25698.00
1259.493, 25772.44
1260.567, 25871.00
1261.642, 25885.00
1262.716, 26011.00
1263.790, 26081.00
