##NAMES=Clinoptilolite-Ca
##RRUFFID=R060662
##IDEAL CHEMISTRY=Ca_3_(Si_30_Al_6_)O_72_&#183;20H_2_O
##LOCALITY=Succor Creek, Malheur County, Oregon, USA
##OWNER=RRUFF
##SOURCE=Michael Scott
##DESCRIPTION=Group of colorless platy prismatic crystals
##STATUS=The identification of this mineral has been confirmed by X-ray diffraction and chemical analysis
##URL=rruff.info/R060662
##MEASURED CHEMISTRY=(Ca_1.02_Na_0.97_K_0.59_)_Σ=2.58_(Si_14.40_Al_3.60_)_Σ=18_O_36_·10.96H_2_O
##PIN_ID=M00134
##ORIENTATION=Laser parallel to (1 0 1). Fiducial mark perpendicular to laser is parallel to b [0 1 0]
134.1270, 36025.93
135.3560, 36166.00
136.5850, 36314.00
137.8140, 36349.00
139.0430, 36496.00
140.2710, 36251.00
141.5000, 36372.00
142.7280, 36109.00
143.9560, 36197.00
145.1840, 35943.00
146.4120, 35600.00
147.6390, 35453.00
148.8670, 35212.00
150.0940, 34693.00
151.3210, 34284.00
152.5490, 34174.00
153.7750, 33348.00
155.0020, 33250.00
156.2290, 32656.00
157.4550, 32290.00
158.6810, 32099.00
159.9080, 31684.00
161.1340, 31474.00
162.3590, 31212.00
163.5850, 30884.00
164.8110, 30734.00
166.0360, 30550.00
167.2610, 30336.00
168.4860, 30066.97
169.7110, 29841.00
170.9360, 29475.00
172.1610, 29283.00
173.3850, 29023.00
174.6100, 28895.00
175.8340, 28778.02
177.0580, 28661.21
178.2820, 28649.00
179.5050, 28523.00
180.7290, 28489.00
181.9520, 28415.00
183.1760, 28383.00
184.3990, 28086.00
185.6220, 28053.00
186.8450, 28165.00
188.0670, 28253.00
189.2900, 28029.00
190.5120, 28147.00
191.7340, 28057.00
192.9560, 27980.00
194.1780, 28138.00
195.4000, 27837.00
196.6220, 27677.00
197.8430, 27803.00
199.0640, 27694.00
200.2860, 27718.00
201.5070, 27566.00
202.7270, 27788.00
203.9480, 27346.00
205.1690, 26809.00
206.3890, 26590.00
207.6090, 26857.00
208.8290, 26426.00
210.0490, 26428.00
211.2690, 26628.00
212.4890, 26452.00
213.7080, 26468.00
214.9280, 26365.00
216.1470, 26443.00
217.3660, 26114.00
218.5850, 26165.00
219.8030, 26105.00
221.0220, 26176.00
222.2400, 26116.00
223.4590, 26359.00
224.6770, 26065.00
225.8950, 26331.00
227.1120, 26178.00
228.3300, 26141.00
229.5480, 26480.00
230.7650, 26285.00
231.9820, 26191.00
233.1990, 26700.00
234.4160, 26686.00
235.6330, 26496.00
236.8490, 26920.00
238.0660, 27036.00
239.2820, 27038.00
240.4980, 27016.00
241.7140, 27157.00
242.9300, 26959.00
244.1460, 27475.00
245.3610, 27442.00
246.5770, 27450.00
247.7920, 27423.00
249.0070, 27400.00
250.2220, 27515.00
251.4370, 27495.33
252.6510, 27712.00
253.8660, 27583.00
255.0800, 27693.00
256.2940, 27789.00
257.5080, 28153.00
258.7220, 28106.49
259.9360, 28404.00
261.1490, 28081.00
262.3630, 28001.00
263.5760, 27796.00
264.7890, 27841.00
266.0020, 27869.00
267.2150, 28069.00
268.4270, 27948.00
269.6400, 27866.00
270.8520, 27793.00
272.0640, 28114.00
273.2760, 28116.00
274.4880, 28131.00
275.7000, 27943.00
276.9120, 28021.94
278.1230, 28013.00
279.3340, 27992.00
280.5450, 27981.00
281.7560, 27958.03
282.9670, 27924.35
284.1780, 27890.00
285.3880, 27842.00
286.5980, 27761.00
287.8090, 27701.00
289.0190, 27719.00
290.2290, 27686.21
291.4380, 27590.00
292.6480, 27706.00
293.8570, 27602.00
295.0670, 27617.00
296.2760, 27698.00
297.4850, 27576.00
298.6930, 27286.00
299.9020, 27754.00
301.1110, 27462.00
302.3190, 27599.00
303.5270, 27639.00
304.7350, 27681.00
305.9430, 27638.00
307.1510, 27680.00
308.3580, 27689.00
309.5660, 27628.00
310.7730, 27939.00
311.9800, 27967.00
313.1870, 28013.00
314.3940, 28277.00
315.6010, 28338.00
316.8070, 28438.00
318.0130, 28436.00
319.2200, 28629.00
320.4260, 28409.00
321.6310, 28784.00
322.8370, 28723.00
324.0430, 28665.00
325.2480, 29021.00
326.4540, 28914.00
327.6590, 29044.00
328.8640, 28915.00
330.0680, 29181.00
331.2730, 29080.00
332.4780, 29331.00
333.6820, 29310.00
334.8860, 29251.00
336.0900, 29417.00
337.2940, 29540.00
338.4980, 29627.00
339.7010, 29670.21
340.9050, 29570.00
342.1080, 29679.00
343.3110, 29759.85
344.5140, 29766.00
345.7170, 30081.00
346.9200, 29981.00
348.1220, 30100.00
349.3240, 30363.00
350.5270, 30320.00
351.7290, 30455.00
352.9310, 30817.00
354.1320, 31083.00
355.3340, 31122.00
356.5350, 31500.00
357.7370, 31617.00
358.9380, 31814.00
360.1390, 31857.00
361.3400, 32107.00
362.5400, 32357.00
363.7410, 32556.57
364.9410, 32992.00
366.1410, 33123.00
367.3410, 33608.00
368.5410, 34000.00
369.7410, 34063.00
370.9400, 34163.00
372.1400, 34707.00
373.3390, 34913.00
374.5380, 35549.00
375.7370, 35670.00
376.9360, 36142.00
378.1350, 36622.00
379.3330, 36825.00
380.5310, 37577.00
381.7300, 38029.00
382.9280, 38539.00
384.1260, 38974.00
385.3230, 39694.00
386.5210, 40171.00
387.7180, 41084.00
388.9160, 42043.00
390.1130, 42871.00
391.3100, 43761.48
392.5060, 44689.80
393.7030, 45398.00
394.9000, 46413.00
396.0960, 47115.00
397.2920, 47706.00
398.4880, 48503.00
399.6840, 48979.00
400.8800, 49200.00
402.0750, 49530.00
403.2710, 49501.00
404.4660, 49164.00
405.6610, 48899.00
406.8560, 48497.00
408.0510, 47870.02
409.2450, 47369.00
410.4400, 46302.00
411.6340, 45283.00
412.8280, 44110.00
414.0220, 43582.00
415.2160, 42741.00
416.4100, 41606.00
417.6030, 40884.00
418.7970, 39978.25
419.9900, 39256.11
421.1830, 38367.00
422.3760, 37817.00
423.5690, 37104.00
424.7610, 36092.00
425.9540, 35816.00
427.1460, 35102.00
428.3380, 34814.00
429.5300, 34392.00
430.7220, 33836.00
431.9140, 33351.00
433.1050, 33207.00
434.2970, 32660.00
435.4880, 32528.00
436.6790, 32279.00
437.8700, 32109.00
439.0610, 31809.00
440.2510, 31709.00
441.4420, 31572.00
442.6320, 31701.00
443.8220, 31483.00
445.0120, 31587.00
446.2020, 31570.00
447.3910, 31804.00
448.5810, 31726.00
449.7700, 31756.00
450.9600, 32214.00
452.1490, 32162.00
453.3370, 32559.00
454.5260, 32853.00
455.7150, 33356.00
456.9030, 33583.00
458.0910, 33619.00
459.2800, 34235.00
460.4670, 34691.00
461.6550, 34825.00
462.8430, 35498.00
464.0300, 35809.00
465.2180, 36006.00
466.4050, 36096.00
467.5920, 36677.00
468.7790, 36990.00
469.9650, 37255.00
471.1520, 37854.00
472.3380, 38418.00
473.5250, 39023.00
474.7110, 39578.00
475.8970, 40274.00
477.0820, 40675.00
478.2680, 41385.00
479.4540, 41646.00
480.6390, 41632.00
481.8240, 41651.00
483.0090, 41205.00
484.1940, 40632.00
485.3780, 39698.00
486.5630, 39160.00
487.7470, 38225.00
488.9320, 37239.00
490.1160, 36585.00
491.3000, 35531.00
492.4830, 34946.00
493.6670, 34240.00
494.8500, 33693.00
496.0340, 33149.15
497.2170, 32689.00
498.4000, 32186.00
499.5820, 31919.00
500.7650, 31557.00
501.9480, 31502.00
503.1300, 31474.00
504.3120, 31049.00
505.4940, 31016.00
506.6760, 30816.00
507.8580, 30726.00
509.0390, 30908.00
510.2210, 30552.00
511.4020, 30765.00
512.5830, 30730.00
513.7640, 30679.00
514.9450, 30498.00
516.1250, 30715.00
517.3060, 30742.00
518.4860, 30771.00
519.6660, 30763.00
520.8460, 30684.00
522.0260, 30693.22
523.2060, 30548.00
524.3850, 30735.00
525.5650, 30665.75
526.7440, 30889.00
527.9230, 30599.00
529.1020, 30497.00
530.2810, 30512.00
531.4590, 30537.00
532.6380, 30504.00
533.8160, 30484.00
534.9940, 30510.75
536.1720, 30666.00
537.3500, 30562.00
538.5270, 30478.00
539.7050, 30519.77
540.8820, 30749.00
542.0590, 30586.00
543.2360, 30626.00
544.4130, 30458.00
545.5900, 30505.00
546.7660, 30807.00
547.9430, 30929.00
549.1190, 30713.00
550.2950, 30605.00
551.4710, 30913.00
552.6470, 30672.00
553.8220, 30922.00
554.9980, 31002.00
556.1730, 31072.00
557.3480, 30930.00
558.5230, 31127.00
559.6980, 30904.00
560.8730, 31173.00
562.0470, 31221.00
563.2220, 30849.00
564.3960, 31042.00
565.5700, 31211.00
566.7440, 30914.00
567.9170, 31196.00
569.0910, 31216.00
570.2640, 31393.00
571.4380, 31374.00
572.6110, 31427.00
573.7840, 31472.75
574.9570, 31482.00
576.1290, 31490.00
577.3020, 31657.00
578.4740, 31650.00
579.6460, 31647.00
580.8180, 31864.00
581.9900, 32081.00
583.1620, 31927.00
584.3330, 31987.00
585.5040, 31801.00
586.6760, 31883.00
587.8470, 32080.00
589.0180, 32338.00
590.1880, 32116.00
591.3590, 32305.00
592.5290, 32393.00
593.7000, 32405.00
594.8700, 32844.00
596.0400, 32574.00
597.2090, 32650.00
598.3790, 32962.00
599.5490, 33068.00
600.7180, 33351.00
601.8870, 33381.00
603.0560, 33582.00
604.2250, 33762.00
605.3940, 33961.00
606.5620, 34262.00
607.7300, 34219.00
608.8990, 34668.00
610.0670, 34442.00
611.2350, 34534.00
612.4020, 34602.00
613.5700, 34596.23
614.7370, 34763.00
615.9050, 34720.00
617.0720, 34720.00
618.2390, 34702.00
619.4060, 34594.00
620.5720, 34844.00
621.7390, 34759.00
622.9050, 34604.00
624.0710, 34285.00
625.2370, 34076.00
626.4030, 34189.00
627.5690, 34078.00
628.7340, 34053.00
629.9000, 34035.00
631.0650, 33963.00
632.2300, 33486.00
633.3950, 33357.00
634.5600, 33395.00
635.7240, 33357.00
636.8890, 33454.00
638.0530, 33333.00
639.2170, 33460.00
640.3810, 33405.00
641.5450, 33409.00
642.7080, 33536.00
643.8720, 33188.00
645.0350, 33380.00
646.1980, 33341.00
647.3610, 33302.00
648.5240, 33346.00
649.6870, 33314.00
650.8490, 33399.00
652.0120, 33251.00
653.1740, 33186.00
654.3360, 33395.00
655.4980, 33326.00
656.6600, 33236.00
657.8210, 33328.00
658.9830, 33363.00
660.1440, 33243.00
661.3050, 33171.00
662.4660, 33143.00
663.6270, 33132.00
664.7870, 33203.00
665.9480, 33163.00
667.1080, 33204.46
668.2680, 33160.00
669.4280, 33273.00
670.5880, 33308.00
671.7480, 33387.16
672.9070, 33205.00
674.0670, 33474.00
675.2260, 33328.00
676.3850, 33379.00
677.5440, 33442.00
678.7030, 33301.00
679.8610, 33493.00
681.0200, 33585.00
682.1780, 33450.00
683.3360, 33212.00
684.4940, 33490.00
685.6520, 33710.00
686.8090, 33439.00
687.9670, 33913.00
689.1240, 33674.00
690.2810, 33723.00
691.4380, 33804.00
692.5950, 33791.00
693.7520, 33812.00
694.9080, 34009.00
696.0650, 33790.00
697.2210, 33866.00
698.3770, 34226.00
699.5330, 34042.00
700.6880, 34168.00
701.8440, 34128.00
702.9990, 34238.00
704.1550, 34272.60
705.3100, 34205.00
706.4650, 34332.00
707.6190, 34442.00
708.7740, 34415.00
709.9290, 34825.00
711.0830, 34743.00
712.2370, 34744.00
713.3910, 34846.00
714.5450, 34736.00
715.6980, 34953.00
716.8520, 34915.00
718.0050, 35011.00
719.1580, 34956.00
720.3110, 34962.95
721.4640, 34854.00
722.6170, 34966.00
723.7700, 34968.00
724.9220, 35044.00
726.0740, 34812.00
727.2260, 35098.00
728.3780, 35007.00
729.5300, 35466.00
730.6810, 35139.00
731.8330, 35219.00
732.9840, 34894.00
734.1350, 34982.00
735.2860, 35322.00
736.4370, 35259.00
737.5880, 35469.00
738.7380, 35223.00
739.8880, 35304.00
741.0390, 35341.00
742.1890, 35485.00
743.3380, 35536.00
744.4880, 35264.00
745.6380, 35531.00
746.7870, 35560.00
747.9360, 35797.00
749.0850, 35840.00
750.2340, 35568.00
751.3830, 35735.00
752.5310, 35578.00
753.6800, 35873.00
754.8280, 35874.00
755.9760, 36041.00
757.1240, 35895.00
758.2720, 36217.00
759.4190, 36178.00
760.5670, 36238.00
761.7140, 36047.00
762.8610, 36402.00
764.0080, 36268.00
765.1550, 36488.00
766.3020, 36482.00
767.4480, 36539.00
768.5950, 36725.00
769.7410, 36852.00
770.8870, 36738.00
772.0330, 37000.00
773.1780, 36924.00
774.3240, 37082.00
775.4690, 37059.00
776.6140, 37296.00
777.7590, 37317.05
778.9040, 37483.00
780.0490, 37493.00
781.1940, 37378.00
782.3380, 37560.00
783.4820, 37482.00
784.6260, 37804.00
785.7700, 37404.00
786.9140, 37503.00
788.0580, 37278.00
789.2010, 37563.00
790.3450, 37439.00
791.4880, 37715.00
792.6310, 37514.00
793.7730, 37561.70
794.9160, 37305.00
796.0590, 37482.00
797.2010, 37424.00
798.3430, 37315.00
799.4850, 37449.00
800.6270, 37218.00
801.7690, 37374.00
802.9100, 37330.00
804.0520, 37413.00
805.1930, 37402.00
806.3340, 37405.00
807.4750, 37455.00
808.6160, 37504.00
809.7560, 37625.00
810.8970, 37710.00
812.0370, 37937.00
813.1770, 37830.00
814.3170, 38142.00
815.4570, 38347.00
816.5960, 38118.00
817.7360, 38233.00
818.8750, 38236.00
820.0140, 38294.00
821.1530, 38408.00
822.2920, 38456.00
823.4310, 38387.44
824.5690, 38097.00
825.7070, 38078.00
826.8460, 38101.00
827.9840, 37711.00
829.1220, 38026.00
830.2590, 37546.00
831.3970, 37788.00
832.5340, 37700.00
833.6710, 37833.00
834.8080, 37817.00
835.9450, 37918.00
837.0820, 37884.26
838.2190, 37703.00
839.3550, 37819.00
840.4910, 37706.00
841.6270, 37709.00
842.7630, 37615.00
843.8990, 37686.88
845.0350, 38255.00
846.1700, 37915.00
847.3060, 38135.00
848.4410, 38392.00
849.5760, 38142.00
850.7100, 38321.00
851.8450, 37931.00
852.9800, 38057.00
854.1140, 38017.00
855.2480, 38317.00
856.3820, 38549.00
857.5160, 38328.00
858.6500, 38389.00
859.7830, 38587.00
860.9170, 38548.00
862.0500, 38650.00
863.1830, 38527.00
864.3160, 38435.00
865.4480, 38484.00
866.5810, 38446.44
867.7130, 38290.00
868.8460, 38554.00
869.9780, 38353.00
871.1100, 38481.00
872.2410, 38370.00
873.3730, 38737.00
874.5050, 38606.00
875.6360, 38482.00
876.7670, 38708.00
877.8980, 38687.00
879.0290, 38617.00
880.1590, 38753.00
881.2900, 38835.00
882.4200, 38676.00
883.5500, 38688.00
884.6800, 38730.00
885.8100, 38967.00
886.9400, 38841.00
888.0690, 39097.00
889.1990, 38956.00
890.3280, 39007.00
891.4570, 39028.00
892.5860, 39052.00
893.7140, 39148.00
894.8430, 38889.00
895.9710, 39250.00
897.1000, 39462.00
898.2280, 39215.00
899.3560, 39128.00
900.4830, 39362.00
901.6110, 39350.00
902.7380, 39332.81
903.8660, 39604.00
904.9930, 39300.00
906.1200, 39532.00
907.2460, 39609.00
908.3730, 39823.00
909.5000, 39552.00
910.6260, 39663.00
911.7520, 39517.00
912.8780, 39566.00
914.0040, 39689.00
915.1290, 39609.00
916.2550, 39690.30
917.3800, 39930.00
918.5050, 39857.00
919.6300, 39993.00
920.7550, 40333.00
921.8800, 40191.35
923.0040, 40306.23
924.1290, 40240.00
925.2530, 40162.00
926.3770, 40422.00
927.5010, 40167.00
928.6250, 40371.00
929.7480, 40295.00
930.8720, 40329.00
931.9950, 40577.00
933.1180, 40405.00
934.2410, 40265.00
935.3640, 40608.00
936.4860, 40491.00
937.6090, 40583.00
938.7310, 40614.00
939.8530, 40547.00
940.9750, 40886.00
942.0970, 40379.00
943.2180, 40840.00
944.3400, 40907.00
945.4610, 40705.00
946.5820, 40812.00
947.7030, 40973.00
948.8240, 41047.00
949.9450, 41033.00
951.0650, 41066.00
952.1860, 41132.00
953.3060, 41181.00
954.4260, 41172.00
955.5460, 41183.00
956.6650, 41243.00
957.7850, 41360.00
958.9040, 41503.00
960.0230, 41440.00
961.1420, 41398.00
962.2610, 41484.00
963.3800, 41370.00
964.4990, 41551.00
965.6170, 41354.00
966.7350, 41481.00
967.8530, 41692.00
968.9710, 41735.00
970.0890, 41874.89
971.2070, 42015.00
972.3240, 42077.00
973.4410, 42117.42
974.5580, 41837.00
975.6750, 42078.00
976.7920, 41933.00
977.9090, 41821.00
979.0250, 42211.00
980.1410, 42110.00
981.2580, 42332.00
982.3740, 42320.00
983.4890, 42612.00
984.6050, 42594.90
985.7200, 42642.95
986.8360, 42629.00
987.9510, 42619.00
989.0660, 42635.00
990.1810, 42555.00
991.2950, 42630.00
992.4100, 42648.33
993.5240, 42874.00
994.6390, 42795.00
995.7530, 43006.00
996.8660, 43166.00
997.9800, 43016.00
999.0940, 43134.00
1000.207, 43450.00
1001.320, 43647.00
1002.433, 43820.00
1003.546, 43543.00
1004.659, 43762.00
1005.772, 43568.00
1006.884, 43462.00
1007.996, 43707.00
1009.108, 43853.00
1010.220, 43594.00
1011.332, 43859.00
1012.444, 43962.00
1013.555, 43875.00
1014.666, 44053.00
1015.777, 44122.00
1016.888, 43980.00
1017.999, 44379.00
1019.110, 44129.00
1020.220, 44298.00
1021.331, 44410.00
1022.441, 44224.00
1023.551, 44770.00
1024.661, 44577.00
1025.770, 44502.00
1026.880, 44620.00
1027.989, 44422.00
1029.098, 44487.00
1030.207, 44455.80
1031.316, 45094.00
1032.425, 44665.00
1033.533, 44540.00
1034.642, 45161.00
1035.750, 44647.00
1036.858, 44767.00
1037.966, 44938.00
1039.073, 45173.00
1040.181, 44919.00
1041.288, 44871.00
1042.396, 44914.00
1043.503, 45041.00
1044.610, 45156.00
1045.716, 45007.00
1046.823, 45211.00
1047.929, 45033.00
1049.036, 44990.00
1050.142, 45259.00
1051.248, 45455.00
1052.353, 45480.00
1053.459, 45364.00
1054.564, 45439.16
1055.670, 45340.86
1056.775, 45412.00
1057.880, 45258.00
1058.985, 45294.00
1060.089, 45394.00
1061.194, 45390.00
1062.298, 45186.00
1063.402, 45497.00
1064.506, 45107.00
1065.610, 45430.00
1066.713, 45437.00
1067.817, 45622.00
1068.920, 45730.00
1070.023, 45816.00
1071.126, 45699.00
1072.229, 45911.00
1073.332, 45732.00
1074.435, 45855.00
1075.537, 45776.00
1076.639, 45791.00
1077.741, 45960.00
1078.843, 45712.00
1079.945, 46163.00
1081.046, 46148.00
1082.148, 46280.00
1083.249, 46151.00
1084.350, 46286.00
1085.451, 46539.00
1086.551, 46728.00
1087.652, 46610.00
1088.752, 46737.00
1089.853, 46573.00
1090.953, 46831.00
1092.053, 46801.00
1093.152, 46842.00
1094.252, 46823.00
1095.351, 47311.00
1096.451, 47480.00
1097.550, 47413.00
1098.649, 47415.00
1099.748, 47314.00
1100.846, 47519.00
1101.945, 47434.00
1103.043, 47729.00
1104.141, 47798.00
1105.239, 47830.00
1106.337, 47676.00
1107.434, 47815.00
1108.532, 48090.00
1109.629, 47928.00
1110.726, 47748.00
1111.823, 47816.00
1112.920, 48233.00
1114.017, 48196.00
1115.113, 48349.00
1116.210, 48128.00
1117.306, 48511.00
1118.402, 48671.00
1119.498, 48788.00
1120.593, 48594.00
1121.689, 48776.00
1122.784, 48678.00
1123.879, 48507.00
1124.974, 48881.00
1126.069, 48909.00
1127.164, 49019.00
1128.259, 49016.00
1129.353, 48972.00
1130.447, 49073.00
1131.541, 49107.00
1132.635, 49179.00
1133.729, 48986.00
1134.822, 49362.00
1135.916, 48884.00
1137.009, 49113.00
1138.102, 49369.00
1139.195, 49311.00
1140.288, 49411.30
1141.380, 49241.00
1142.473, 49291.00
1143.565, 49524.00
1144.657, 49342.00
1145.749, 49286.00
1146.841, 49389.00
1147.932, 49575.00
1149.024, 49433.00
1150.115, 49611.00
1151.206, 49659.00
1152.297, 49748.00
1153.388, 49822.00
1154.479, 49804.46
1155.569, 49388.00
1156.659, 49712.00
1157.750, 49692.00
1158.839, 49546.00
1159.929, 49778.00
1161.019, 49840.00
1162.108, 49591.00
1163.198, 49538.00
1164.287, 49695.00
1165.376, 49719.00
1166.465, 49659.00
1167.553, 50055.00
1168.642, 49856.00
1169.730, 49536.00
1170.818, 49906.00
1171.906, 49707.00
1172.994, 49560.00
1174.082, 49974.00
1175.170, 50018.00
1176.257, 49877.00
1177.344, 49693.00
1178.431, 49620.00
1179.518, 49772.00
1180.605, 49652.00
1181.691, 49953.00
1182.778, 49553.00
1183.864, 49659.00
1184.950, 49418.00
1186.036, 49735.00
1187.122, 49919.00
1188.207, 49769.00
1189.292, 49859.21
1190.378, 49742.00
1191.463, 49713.00
1192.548, 49607.00
1193.632, 49603.00
1194.717, 49493.00
1195.801, 49701.00
1196.886, 49463.00
1197.970, 49745.00
1199.054, 49202.00
1200.137, 49430.00
1201.221, 49139.00
1202.305, 49733.00
1203.388, 49836.00
1204.471, 49595.00
1205.554, 49311.00
1206.637, 49637.00
1207.719, 49268.00
1208.802, 49291.00
1209.884, 49717.00
1210.966, 49579.00
1212.048, 49641.00
1213.130, 49491.00
1214.212, 49601.00
1215.293, 49518.37
1216.374, 49744.00
1217.456, 49448.00
1218.536, 49375.00
1219.617, 49394.90
1220.698, 49558.00
1221.778, 49564.00
1222.859, 49671.00
1223.939, 49691.00
1225.019, 49752.13
1226.099, 49813.00
1227.178, 49837.00
1228.258, 49884.00
1229.337, 49864.00
1230.417, 49884.00
1231.496, 49882.00
1232.574, 50001.00
1233.653, 49903.00
1234.732, 50090.00
1235.810, 50066.00
1236.888, 50057.00
1237.966, 50122.58
1239.044, 50169.00
1240.122, 50162.00
1241.199, 50233.00
1242.277, 50290.00
1243.354, 50233.00
1244.431, 50020.00
1245.508, 50302.00
1246.585, 50568.00
1247.661, 50583.00
1248.738, 50396.00
1249.814, 50298.00
1250.890, 50314.53
1251.966, 50680.00
1253.042, 50368.00
1254.117, 50443.00
1255.193, 50556.00
1256.268, 50131.00
1257.343, 50416.00
1258.418, 50366.00
1259.493, 50680.00
1260.567, 50688.00
1261.642, 50691.00
1262.716, 50791.00
1263.790, 50932.00
1264.864, 50910.00
1265.938, 50920.00
1267.011, 51217.00
1268.085, 51004.00
1269.158, 50921.00
1270.231, 50947.00
1271.304, 51189.00
1272.377, 51163.00
1273.450, 51103.00
1274.522, 51351.00
1275.594, 51301.00
1276.666, 51146.00
1277.738, 51432.00
1278.810, 51458.00
1279.882, 51292.00
1280.953, 51435.00
1282.025, 51198.00
1283.096, 51357.00
1284.167, 51271.00
1285.238, 51729.00
1286.308, 51426.00
1287.379, 51472.00
1288.449, 51544.00
1289.519, 51378.00
1290.589, 51703.00
1291.659, 51747.00
1292.729, 51559.00
1293.798, 51631.00
1294.868, 52001.00
1295.937, 51911.00
1297.006, 51986.00
1298.075, 51812.00
1299.143, 52072.00
1300.212, 52015.00
1301.280, 51909.00
1302.348, 52221.00
1303.416, 51863.00
1304.484, 52242.00
1305.552, 52090.00
1306.620, 52010.00
