##NAMES=Clinozoisite
##RRUFFID=R060284
##IDEAL CHEMISTRY=Ca_2_Al_3_(Si_2_O_7_)(SiO_4_)O(OH)
##LOCALITY=near Zagi Mountain, Khaffor Dehri, North-West Frontier Province, Pakistan
##OWNER=RRUFF
##SOURCE=Herb Obodda
##DESCRIPTION=Greenish-brown fragment of a prismatic crystal
##STATUS=The identification of this mineral has been confirmed by X-ray diffraction and chemical analysis
##URL=rruff.info/R060284
##MEASURED CHEMISTRY=Ca_2.00_(Al_0.90_Fe^3+^_0.10_)_3_(Si_1.00_O_4_)(Si_2.00_O_7_)O(OH)
##PIN_ID=L01751
##ORIENTATION=Laser parallel to (1 0 1). Fiducial mark perpendicular to laser is parallel to -b [0 -1 0]
118.1340, 8728.000
119.3650, 8503.000
120.5960, 8453.000
121.8270, 8338.000
123.0580, 8340.000
124.2880, 8246.915
125.5190, 8211.530
126.7490, 8129.000
127.9790, 8159.000
129.2090, 8150.000
130.4390, 8169.000
131.6680, 8103.000
132.8980, 8055.000
134.1270, 8137.000
135.3560, 8124.000
136.5850, 8162.000
137.8140, 8198.000
139.0430, 8361.000
140.2710, 8511.000
141.5000, 8683.000
142.7280, 8706.000
143.9560, 8817.000
145.1840, 9187.000
146.4120, 9346.000
147.6390, 9666.000
148.8670, 9866.000
150.0940, 10119.00
151.3210, 10432.00
152.5490, 10656.83
153.7750, 10813.00
155.0020, 11136.00
156.2290, 11441.00
157.4550, 11592.00
158.6810, 11830.00
159.9080, 12021.00
161.1340, 12131.00
162.3590, 12484.00
163.5850, 12655.00
164.8110, 12937.00
166.0360, 13293.00
167.2610, 13561.00
168.4860, 14022.00
169.7110, 14438.00
170.9360, 15014.00
172.1610, 15051.00
173.3850, 15252.00
174.6100, 14917.00
175.8340, 14460.00
177.0580, 14126.00
178.2820, 13594.00
179.5050, 12871.00
180.7290, 12440.00
181.9520, 11870.00
183.1760, 11505.00
184.3990, 11257.00
185.6220, 10844.00
186.8450, 10775.00
188.0670, 10615.00
189.2900, 10662.00
190.5120, 10553.00
191.7340, 10617.00
192.9560, 10705.00
194.1780, 10870.00
195.4000, 11014.00
196.6220, 11125.00
197.8430, 11371.00
199.0640, 11643.00
200.2860, 12108.00
201.5070, 12297.00
202.7270, 12676.00
203.9480, 12976.00
205.1690, 13255.00
206.3890, 13627.00
207.6090, 14045.00
208.8290, 14338.00
210.0490, 14675.00
211.2690, 14977.00
212.4890, 15062.00
213.7080, 15317.00
214.9280, 15547.00
216.1470, 15703.00
217.3660, 15971.00
218.5850, 15949.00
219.8030, 16253.00
221.0220, 16133.00
222.2400, 16465.00
223.4590, 16589.00
224.6770, 17098.00
225.8950, 17755.00
227.1120, 18241.00
228.3300, 19204.00
229.5480, 20208.00
230.7650, 21299.00
231.9820, 22499.00
233.1990, 23227.00
234.4160, 23954.00
235.6330, 23987.00
236.8490, 23817.00
238.0660, 22916.00
239.2820, 22127.00
240.4980, 21376.00
241.7140, 20510.00
242.9300, 19578.00
244.1460, 19069.00
245.3610, 18612.00
246.5770, 18308.00
247.7920, 18337.00
249.0070, 18258.00
250.2220, 18333.00
251.4370, 18323.00
252.6510, 17958.00
253.8660, 17602.00
255.0800, 16958.00
256.2940, 16428.00
257.5080, 15827.00
258.7220, 15445.00
259.9360, 14826.00
261.1490, 14126.00
262.3630, 13565.00
263.5760, 13526.00
264.7890, 13526.00
266.0020, 13900.00
267.2150, 14220.00
268.4270, 14594.00
269.6400, 15354.00
270.8520, 16158.00
272.0640, 16765.00
273.2760, 17440.00
274.4880, 17602.00
275.7000, 17250.00
276.9120, 16625.00
278.1230, 15951.00
279.3340, 15195.00
280.5450, 14446.00
281.7560, 13794.00
282.9670, 13368.00
284.1780, 12964.00
285.3880, 12893.00
286.5980, 12812.00
287.8090, 12713.00
289.0190, 12690.00
290.2290, 12529.00
291.4380, 12697.00
292.6480, 12741.00
293.8570, 12644.00
295.0670, 12565.00
296.2760, 12733.00
297.4850, 12682.00
298.6930, 12555.00
299.9020, 12439.00
301.1110, 12557.00
302.3190, 12627.00
303.5270, 12780.00
304.7350, 12935.19
305.9430, 13026.00
307.1510, 13338.00
308.3580, 13565.00
309.5660, 13859.00
310.7730, 14229.00
311.9800, 14172.00
313.1870, 14336.00
314.3940, 14176.00
315.6010, 13924.00
316.8070, 13717.00
318.0130, 13364.00
319.2200, 13141.00
320.4260, 13010.00
321.6310, 12885.03
322.8370, 12909.81
324.0430, 12922.00
325.2480, 13108.00
326.4540, 13375.00
327.6590, 13767.40
328.8640, 14304.00
330.0680, 14842.00
331.2730, 15521.00
332.4780, 16205.00
333.6820, 17247.00
334.8860, 18026.00
336.0900, 19173.00
337.2940, 20003.00
338.4980, 21030.00
339.7010, 22169.00
340.9050, 23063.00
342.1080, 24117.00
343.3110, 25495.00
344.5140, 27371.00
345.7170, 29330.00
346.9200, 31162.00
348.1220, 33275.00
349.3240, 35156.00
350.5270, 36016.00
351.7290, 36699.00
352.9310, 35951.00
354.1320, 34144.00
355.3340, 32377.00
356.5350, 29320.00
357.7370, 26717.00
358.9380, 23926.00
360.1390, 21348.00
361.3400, 19050.00
362.5400, 17399.00
363.7410, 15961.00
364.9410, 14609.00
366.1410, 13973.00
367.3410, 13165.00
368.5410, 12439.00
369.7410, 11903.00
370.9400, 11419.00
372.1400, 10917.00
373.3390, 10476.00
374.5380, 10184.67
375.7370, 9909.000
376.9360, 9728.000
378.1350, 9572.000
379.3330, 9436.000
380.5310, 9268.000
381.7300, 9135.000
382.9280, 9147.000
384.1260, 9223.000
385.3230, 9288.000
386.5210, 9424.000
387.7180, 9693.000
388.9160, 9763.000
390.1130, 10010.00
391.3100, 10371.00
392.5060, 10624.00
393.7030, 10904.00
394.9000, 11409.00
396.0960, 11667.00
397.2920, 11724.00
398.4880, 11591.00
399.6840, 11577.00
400.8800, 11248.00
402.0750, 10962.00
403.2710, 10458.00
404.4660, 10264.00
405.6610, 9887.000
406.8560, 9582.000
408.0510, 9414.000
409.2450, 9251.000
410.4400, 9191.000
411.6340, 9277.000
412.8280, 9535.000
414.0220, 9611.000
415.2160, 10140.00
416.4100, 10639.00
417.6030, 11385.00
418.7970, 12258.46
419.9900, 13269.00
421.1830, 14382.00
422.3760, 15661.00
423.5690, 17001.00
424.7610, 18320.00
425.9540, 19290.00
427.1460, 20019.00
428.3380, 20284.00
429.5300, 20476.00
430.7220, 20181.00
431.9140, 19854.00
433.1050, 19535.00
434.2970, 19262.00
435.4880, 19220.00
436.6790, 19248.00
437.8700, 19589.00
439.0610, 20309.00
440.2510, 21260.00
441.4420, 22375.00
442.6320, 23896.00
443.8220, 25403.00
445.0120, 26931.00
446.2020, 28863.00
447.3910, 30482.00
448.5810, 32325.00
449.7700, 33780.00
450.9600, 34545.00
452.1490, 34912.00
453.3370, 34812.00
454.5260, 34154.00
455.7150, 33070.00
456.9030, 31723.00
458.0910, 30136.00
459.2800, 28686.00
460.4670, 27512.00
461.6550, 26303.00
462.8430, 25356.00
464.0300, 24518.00
465.2180, 24036.00
466.4050, 23854.00
467.5920, 23676.00
468.7790, 23235.00
469.9650, 23222.00
471.1520, 22942.00
472.3380, 22594.00
473.5250, 22260.00
474.7110, 21634.00
475.8970, 21292.00
477.0820, 20801.00
478.2680, 20472.00
479.4540, 19954.00
480.6390, 19531.00
481.8240, 19052.00
483.0090, 18512.00
484.1940, 17766.00
485.3780, 17263.00
486.5630, 16909.00
487.7470, 16116.00
488.9320, 15689.00
490.1160, 15174.00
491.3000, 14901.00
492.4830, 14313.00
493.6670, 14079.00
494.8500, 13999.00
496.0340, 13957.00
497.2170, 13993.00
498.4000, 14162.26
499.5820, 14655.00
500.7650, 14762.00
501.9480, 15239.00
503.1300, 15826.00
504.3120, 16181.00
505.4940, 16566.00
506.6760, 16912.00
507.8580, 17028.00
509.0390, 17074.00
510.2210, 16751.00
511.4020, 16768.00
512.5830, 16355.00
513.7640, 16180.00
514.9450, 16086.00
516.1250, 16091.00
517.3060, 15655.00
518.4860, 15410.00
519.6660, 15310.00
520.8460, 14738.00
522.0260, 14307.00
523.2060, 13732.00
524.3850, 13198.00
525.5650, 12658.00
526.7440, 12144.00
527.9230, 11613.00
529.1020, 11229.00
530.2810, 10761.00
531.4590, 10464.00
532.6380, 10194.00
533.8160, 10006.00
534.9940, 9863.000
536.1720, 9912.000
537.3500, 9801.000
538.5270, 9752.000
539.7050, 9928.000
540.8820, 9953.000
542.0590, 9788.000
543.2360, 9848.000
544.4130, 10030.00
545.5900, 10146.00
546.7660, 10232.00
547.9430, 10270.00
549.1190, 10575.00
550.2950, 10970.00
551.4710, 11143.00
552.6470, 11568.00
553.8220, 11923.00
554.9980, 12577.00
556.1730, 13196.00
557.3480, 14025.00
558.5230, 15122.00
559.6980, 16332.00
560.8730, 18435.00
562.0470, 20750.00
563.2220, 23683.00
564.3960, 27867.00
565.5700, 32367.00
566.7440, 37734.00
567.9170, 44064.00
569.0910, 49920.00
570.2640, 53942.00
571.4380, 54663.00
572.6110, 52926.00
573.7840, 48429.00
574.9570, 43066.00
576.1290, 37060.00
577.3020, 31494.00
578.4740, 26425.00
579.6460, 23001.00
580.8180, 20471.00
581.9900, 19152.00
583.1620, 18345.00
584.3330, 18245.00
585.5040, 18524.00
586.6760, 18952.00
587.8470, 19752.00
589.0180, 20749.00
590.1880, 21967.00
591.3590, 23111.00
592.5290, 24377.00
593.7000, 25994.00
594.8700, 27471.00
596.0400, 29192.00
597.2090, 31057.00
598.3790, 32945.00
599.5490, 35046.00
600.7180, 36943.00
601.8870, 38354.00
603.0560, 39719.00
604.2250, 40554.00
605.3940, 40275.00
606.5620, 39495.00
607.7300, 37605.00
608.8990, 34917.00
610.0670, 32506.00
611.2350, 29633.00
612.4020, 27043.00
613.5700, 24808.00
614.7370, 22659.00
615.9050, 20848.00
617.0720, 19232.00
618.2390, 17865.00
619.4060, 16364.00
620.5720, 15506.00
621.7390, 14680.00
622.9050, 13805.00
624.0710, 12923.00
625.2370, 12368.00
626.4030, 11632.00
627.5690, 11271.00
628.7340, 11047.00
629.9000, 10649.00
631.0650, 10247.00
632.2300, 10150.00
633.3950, 10032.00
634.5600, 9829.000
635.7240, 9805.000
636.8890, 9557.000
638.0530, 9543.000
639.2170, 9561.000
640.3810, 9472.000
641.5450, 9446.000
642.7080, 9443.000
643.8720, 9452.364
645.0350, 9413.000
646.1980, 9607.000
647.3610, 9665.000
648.5240, 9889.000
649.6870, 10278.00
650.8490, 10676.00
652.0120, 11047.00
653.1740, 11564.00
654.3360, 11727.00
655.4980, 11941.00
656.6600, 11951.00
657.8210, 12251.00
658.9830, 12173.00
660.1440, 11772.00
661.3050, 11450.00
662.4660, 11452.00
663.6270, 11144.00
664.7870, 10799.00
665.9480, 10643.00
667.1080, 10401.00
668.2680, 10165.00
669.4280, 10017.00
670.5880, 9775.000
671.7480, 9644.000
672.9070, 9650.000
674.0670, 9528.000
675.2260, 9424.000
676.3850, 9314.000
677.5440, 9585.000
678.7030, 9373.000
679.8610, 9601.000
681.0200, 9543.000
682.1780, 9743.000
683.3360, 9761.000
684.4940, 9774.000
685.6520, 9924.000
686.8090, 9857.000
687.9670, 9888.000
689.1240, 9890.000
690.2810, 9934.000
691.4380, 9962.000
692.5950, 10097.00
693.7520, 10164.00
694.9080, 10353.00
696.0650, 10436.00
697.2210, 10732.00
698.3770, 10840.00
699.5330, 10942.00
700.6880, 11161.00
701.8440, 11177.00
702.9990, 11048.00
704.1550, 10858.00
705.3100, 10722.00
706.4650, 10336.00
707.6190, 10041.00
708.7740, 9569.000
709.9290, 9262.000
711.0830, 8899.000
712.2370, 8657.000
713.3910, 8337.000
714.5450, 8032.000
715.6980, 7828.000
716.8520, 7641.000
718.0050, 7567.000
719.1580, 7418.000
720.3110, 7331.000
721.4640, 7242.000
722.6170, 7116.000
723.7700, 7142.000
724.9220, 7067.000
726.0740, 7121.000
727.2260, 6955.000
728.3780, 6924.000
729.5300, 6947.000
730.6810, 6916.000
731.8330, 6907.000
732.9840, 6923.000
734.1350, 6816.000
735.2860, 6888.000
736.4370, 6829.000
737.5880, 6969.000
738.7380, 6750.000
739.8880, 6820.000
741.0390, 6763.000
742.1890, 6731.000
743.3380, 6708.000
744.4880, 6627.000
745.6380, 6650.000
746.7870, 6606.000
747.9360, 6608.000
749.0850, 6642.000
750.2340, 6506.000
751.3830, 6569.000
752.5310, 6598.000
753.6800, 6585.000
754.8280, 6655.000
755.9760, 6463.000
757.1240, 6574.000
758.2720, 6524.000
759.4190, 6448.000
760.5670, 6672.000
761.7140, 6566.000
762.8610, 6607.000
764.0080, 6534.000
765.1550, 6539.000
766.3020, 6542.000
767.4480, 6512.804
768.5950, 6598.000
769.7410, 6532.000
770.8870, 6582.000
772.0330, 6673.000
773.1780, 6543.000
774.3240, 6574.000
775.4690, 6701.000
776.6140, 6704.000
777.7590, 6689.000
778.9040, 6688.000
780.0490, 6661.000
781.1940, 6735.000
782.3380, 6717.000
783.4820, 6752.000
784.6260, 6739.000
785.7700, 6785.000
786.9140, 6649.000
788.0580, 6791.000
789.2010, 6717.000
790.3450, 6768.000
791.4880, 6770.000
792.6310, 6863.000
793.7730, 6841.000
794.9160, 6912.000
796.0590, 6942.000
797.2010, 6884.000
798.3430, 6930.000
799.4850, 6942.485
800.6270, 7132.000
801.7690, 7040.000
802.9100, 7098.000
804.0520, 7227.000
805.1930, 7202.000
806.3340, 7214.000
807.4750, 7328.000
808.6160, 7186.000
809.7560, 7381.000
810.8970, 7428.000
812.0370, 7617.000
813.1770, 7567.000
814.3170, 7634.000
815.4570, 7753.000
816.5960, 7877.000
817.7360, 7892.000
818.8750, 8016.000
820.0140, 8131.000
821.1530, 8219.000
822.2920, 8429.000
823.4310, 8438.000
824.5690, 8702.000
825.7070, 9027.000
826.8460, 9127.000
827.9840, 9336.000
829.1220, 9539.000
830.2590, 9638.000
831.3970, 9890.000
832.5340, 10067.00
833.6710, 10245.00
834.8080, 10376.00
835.9450, 10468.30
837.0820, 10510.00
838.2190, 10615.00
839.3550, 10683.00
840.4910, 10795.00
841.6270, 10760.00
842.7630, 10932.00
843.8990, 10903.00
845.0350, 11030.00
846.1700, 11088.74
847.3060, 11094.00
848.4410, 11239.00
849.5760, 11247.00
850.7100, 11380.00
851.8450, 11432.00
852.9800, 11668.00
854.1140, 11875.00
855.2480, 12040.00
856.3820, 12313.00
857.5160, 12622.00
858.6500, 12798.00
859.7830, 13056.00
860.9170, 13391.00
862.0500, 13682.00
863.1830, 14041.00
864.3160, 14504.00
865.4480, 14878.00
866.5810, 15466.00
867.7130, 16099.00
868.8460, 16498.00
869.9780, 17267.00
871.1100, 17826.00
872.2410, 18398.00
873.3730, 19204.00
874.5050, 19895.00
875.6360, 20482.00
876.7670, 21532.00
877.8980, 22297.00
879.0290, 23056.00
880.1590, 23736.00
881.2900, 24381.00
882.4200, 24699.00
883.5500, 25251.00
884.6800, 25121.00
885.8100, 25449.00
886.9400, 25684.00
888.0690, 25991.00
889.1990, 26456.00
890.3280, 26592.00
891.4570, 27528.00
892.5860, 28157.00
893.7140, 29205.00
894.8430, 30126.00
895.9710, 30997.00
897.1000, 32258.00
898.2280, 33561.00
899.3560, 34902.00
900.4830, 36546.00
901.6110, 38262.00
902.7380, 40482.00
903.8660, 42913.00
904.9930, 45671.00
906.1200, 48711.00
907.2460, 52264.00
908.3730, 55788.00
909.5000, 58922.00
910.6260, 61530.00
911.7520, 63687.00
912.8780, 65199.00
914.0040, 65535.00
915.1290, 65401.00
916.2550, 64869.00
917.3800, 63227.00
918.5050, 61532.00
919.6300, 59613.00
920.7550, 56941.00
921.8800, 54900.00
923.0040, 52594.00
924.1290, 50292.00
925.2530, 48613.00
926.3770, 46671.00
927.5010, 44550.00
928.6250, 42806.00
929.7480, 40926.00
930.8720, 38634.00
931.9950, 36750.00
933.1180, 35129.00
934.2410, 32778.00
935.3640, 30748.00
936.4860, 28839.00
937.6090, 26684.00
938.7310, 24927.00
939.8530, 23214.00
940.9750, 21828.00
942.0970, 20627.00
943.2180, 19204.00
944.3400, 18240.00
945.4610, 17415.00
946.5820, 16524.00
947.7030, 15984.00
948.8240, 15385.00
949.9450, 15051.00
951.0650, 14661.00
952.1860, 14561.00
953.3060, 14392.00
954.4260, 14125.00
955.5460, 14122.00
956.6650, 14049.00
957.7850, 13947.00
958.9040, 13913.00
960.0230, 13886.00
961.1420, 14047.00
962.2610, 13974.00
963.3800, 14085.00
964.4990, 14032.00
965.6170, 14140.00
966.7350, 14028.00
967.8530, 14038.00
968.9710, 14196.00
970.0890, 14235.00
971.2070, 14361.00
972.3240, 14603.00
973.4410, 15072.00
974.5580, 15468.00
975.6750, 16213.00
976.7920, 16837.00
977.9090, 18035.00
979.0250, 19279.00
980.1410, 20365.00
981.2580, 21766.00
982.3740, 22801.00
983.4890, 23694.00
984.6050, 24211.00
985.7200, 23763.00
986.8360, 23347.00
987.9510, 22016.00
989.0660, 20810.00
990.1810, 19058.00
991.2950, 17880.00
992.4100, 16468.00
993.5240, 15173.00
994.6390, 14305.00
995.7530, 13385.00
996.8660, 12699.00
997.9800, 12273.00
999.0940, 11772.00
1000.207, 11323.00
1001.320, 11002.00
1002.433, 10641.00
1003.546, 10364.82
1004.659, 10228.00
1005.772, 9945.000
1006.884, 9818.000
1007.996, 9758.000
1009.108, 9602.000
1010.220, 9569.704
1011.332, 9486.000
1012.444, 9473.000
1013.555, 9427.000
1014.666, 9351.000
1015.777, 9481.000
1016.888, 9733.000
1017.999, 9739.828
1019.110, 9917.000
1020.220, 9979.000
1021.331, 10181.00
1022.441, 10371.00
1023.551, 10655.00
1024.661, 10959.00
1025.770, 11101.00
1026.880, 11578.00
1027.989, 11611.00
1029.098, 11915.00
1030.207, 12171.00
1031.316, 12231.00
1032.425, 12270.00
1033.533, 12534.00
1034.642, 12596.00
1035.750, 12607.00
1036.858, 12723.00
1037.966, 13093.00
1039.073, 13253.00
1040.181, 13490.00
1041.288, 13645.00
1042.396, 13902.00
1043.503, 14224.00
1044.610, 14244.00
1045.716, 14505.00
1046.823, 14364.00
1047.929, 14338.00
1049.036, 14383.00
1050.142, 14131.00
1051.248, 13855.00
1052.353, 13742.00
1053.459, 13387.00
1054.564, 13108.00
1055.670, 12768.00
1056.775, 12338.00
1057.880, 11947.00
1058.985, 11665.00
1060.089, 11260.00
1061.194, 10972.00
1062.298, 10758.00
1063.402, 10625.00
1064.506, 10242.00
1065.610, 10110.00
1066.713, 10009.00
1067.817, 9987.000
1068.920, 9990.000
1070.023, 9963.622
1071.126, 9932.000
1072.229, 9988.000
1073.332, 10064.00
1074.435, 10097.00
1075.537, 10340.00
1076.639, 10553.00
1077.741, 10567.00
1078.843, 10922.00
1079.945, 11160.00
1081.046, 11654.00
1082.148, 12080.00
1083.249, 12672.00
1084.350, 13432.00
1085.451, 14253.00
1086.551, 15429.00
1087.652, 16575.00
1088.752, 18157.00
1089.853, 19321.00
1090.953, 20921.00
1092.053, 22041.00
1093.152, 22964.00
1094.252, 23170.00
1095.351, 22466.00
1096.451, 21358.00
1097.550, 19659.00
1098.649, 18085.00
1099.748, 16220.00
1100.846, 14956.00
1101.945, 13520.00
1103.043, 12671.00
1104.141, 12033.00
1105.239, 11303.00
1106.337, 10993.00
1107.434, 10634.00
1108.532, 10393.00
1109.629, 10136.00
1110.726, 9928.000
1111.823, 9808.000
1112.920, 9802.000
1114.017, 9702.000
1115.113, 9698.622
1116.210, 9709.369
1117.306, 9699.000
1118.402, 9708.000
1119.498, 9709.000
1120.593, 9578.000
1121.689, 9534.000
1122.784, 9539.000
1123.879, 9447.000
1124.974, 9220.000
1126.069, 9213.000
1127.164, 9125.000
1128.259, 9065.000
1129.353, 9002.000
1130.447, 8973.000
1131.541, 8803.000
1132.635, 8829.000
1133.729, 8760.000
1134.822, 8698.000
1135.916, 8783.000
1137.009, 8749.000
1138.102, 8607.000
1139.195, 8817.000
1140.288, 8562.000
1141.380, 8598.000
1142.473, 8644.000
1143.565, 8525.000
1144.657, 8568.000
1145.749, 8571.000
1146.841, 8608.000
1147.932, 8612.000
1149.024, 8527.000
1150.115, 8614.000
1151.206, 8444.000
1152.297, 8522.000
1153.388, 8443.000
1154.479, 8625.000
1155.569, 8435.000
1156.659, 8435.000
1157.750, 8464.000
1158.839, 8591.000
1159.929, 8441.000
1161.019, 8313.000
1162.108, 8417.000
1163.198, 8413.000
1164.287, 8615.000
1165.376, 8589.081
1166.465, 8522.000
1167.553, 8551.000
1168.642, 8456.000
1169.730, 8450.057
1170.818, 8413.000
1171.906, 8402.000
1172.994, 8392.000
1174.082, 8370.000
1175.170, 8459.000
1176.257, 8307.000
1177.344, 8317.000
1178.431, 8351.000
1179.518, 8497.000
1180.605, 8311.000
1181.691, 8413.000
1182.778, 8294.000
1183.864, 8434.000
1184.950, 8417.000
1186.036, 8321.000
1187.122, 8317.000
1188.207, 8329.000
1189.292, 8348.000
1190.378, 8344.000
1191.463, 8484.000
1192.548, 8420.000
1193.632, 8427.000
1194.717, 8345.000
1195.801, 8396.000
1196.886, 8359.000
1197.970, 8352.000
1199.054, 8375.000
1200.137, 8320.000
1201.221, 8376.000
1202.305, 8346.000
1203.388, 8345.917
1204.471, 8448.000
1205.554, 8359.000
1206.637, 8391.000
1207.719, 8437.000
1208.802, 8431.000
1209.884, 8428.000
1210.966, 8376.000
1212.048, 8375.000
1213.130, 8255.000
1214.212, 8322.000
1215.293, 8401.000
1216.374, 8264.000
1217.456, 8381.000
1218.536, 8415.000
1219.617, 8410.000
1220.698, 8309.000
1221.778, 8320.000
1222.859, 8303.000
1223.939, 8305.000
1225.019, 8330.000
1226.099, 8391.000
1227.178, 8441.000
1228.258, 8369.000
1229.337, 8329.000
1230.417, 8301.000
1231.496, 8377.000
1232.574, 8340.000
1233.653, 8499.000
1234.732, 8413.000
1235.810, 8451.000
1236.888, 8237.000
1237.966, 8400.000
1239.044, 8338.000
1240.122, 8562.000
1241.199, 8418.000
1242.277, 8371.000
1243.354, 8291.000
1244.431, 8301.000
1245.508, 8305.000
1246.585, 8237.000
1247.661, 8295.000
1248.738, 8350.000
1249.814, 8343.000
1250.890, 8342.000
1251.966, 8352.000
1253.042, 8337.000
1254.117, 8347.086
1255.193, 8344.175
1256.268, 8351.000
1257.343, 8320.000
1258.418, 8308.000
1259.493, 8245.000
1260.567, 8350.000
1261.642, 8436.000
1262.716, 8401.000
1263.790, 8344.000
1264.864, 8321.000
1265.938, 8426.000
1267.011, 8376.000
1268.085, 8457.000
1269.158, 8448.000
1270.231, 8363.000
1271.304, 8357.000
1272.377, 8452.000
1273.450, 8418.000
1274.522, 8435.000
1275.594, 8508.000
1276.666, 8424.000
1277.738, 8508.000
1278.810, 8559.000
1279.882, 8474.000
1280.953, 8423.000
1282.025, 8460.000
1283.096, 8438.000
1284.167, 8427.000
1285.238, 8423.000
1286.308, 8432.896
1287.379, 8378.000
1288.449, 8420.000
1289.519, 8400.745
1290.589, 8486.000
1291.659, 8396.000
