##NAMES=Clinoptilolite-Na
##RRUFFID=R061099
##IDEAL CHEMISTRY=Na_6_(Si_30_Al_6_)O_72_&#183;20H_2_O
##LOCALITY=Richardson Ranch, Madras, Jefferson County, Oregon, USA
##OWNER=RRUFF
##SOURCE=Michael Scott
##DESCRIPTION=Red-brown to salmon, somewhat coffin shaped tabular crystals in a fragmented geode
##STATUS=The identification of this mineral has been confirmed by X-ray diffraction and chemical analysis
##URL=rruff.info/R061099
##MEASURED CHEMISTRY=(Na_2.70_Ca_1.46_K_0.89_Fe_0.08_Mg_0.02_)_Σ=5.15_(Si_29.29_Al_6.71_)O_72_·18.51H_2_O
##PIN_ID=M01086
##ORIENTATION=Laser parallel to (1 0 1). Fiducial mark perpendicular to laser is parallel to b [0 1 0]
86.89900, 1425.000
88.13400, 1647.000
89.36900, 1952.000
90.60400, 2299.000
91.83800, 2675.000
93.07300, 3117.000
94.30700, 3574.000
95.54100, 4060.000
96.77500, 4671.000
98.00900, 5275.000
99.24300, 5792.000
100.4770, 6534.000
101.7100, 7153.000
102.9440, 7662.000
104.1770, 8218.000
105.4100, 8804.000
106.6430, 9353.000
107.8750, 10167.00
109.1080, 10456.20
110.3400, 11046.00
111.5720, 11126.00
112.8040, 11192.00
114.0360, 11473.00
115.2680, 11805.00
116.5000, 12169.00
117.7310, 12308.00
118.9620, 12627.00
120.1940, 12871.00
121.4250, 12845.00
122.6550, 13026.00
123.8860, 13275.00
125.1170, 13473.00
126.3470, 13526.00
127.5770, 13792.00
128.8070, 13731.00
130.0370, 14126.00
131.2670, 14005.00
132.4970, 14311.00
133.7260, 14245.00
134.9550, 14600.00
136.1850, 14652.00
137.4140, 14843.00
138.6420, 14942.00
139.8710, 15156.00
141.1000, 15211.00
142.3280, 15212.00
143.5560, 15181.00
144.7840, 15178.95
146.0120, 15178.19
147.2400, 15138.00
148.4680, 15212.00
149.6950, 15251.00
150.9220, 15330.00
152.1500, 15074.00
153.3770, 14986.00
154.6030, 15121.00
155.8300, 15021.00
157.0570, 15061.00
158.2830, 14925.00
159.5090, 15030.00
160.7350, 15113.00
161.9610, 14901.00
163.1870, 14978.00
164.4130, 14952.00
165.6380, 15061.00
166.8630, 15110.00
168.0880, 14931.00
169.3130, 14982.00
170.5380, 15137.00
171.7630, 14894.00
172.9870, 15028.00
174.2120, 14915.00
175.4360, 15037.00
176.6600, 14994.00
177.8840, 15014.00
179.1080, 15086.00
180.3310, 14882.00
181.5550, 14960.00
182.7780, 14943.00
184.0010, 15009.00
185.2240, 15028.00
186.4470, 15034.00
187.6700, 15087.00
188.8920, 15054.00
190.1150, 15108.00
191.3370, 15116.00
192.5590, 15119.00
193.7810, 15134.16
195.0020, 15218.00
196.2240, 15176.00
197.4450, 15219.00
198.6670, 15338.00
199.8880, 15321.00
201.1090, 15370.00
202.3300, 15375.00
203.5500, 15407.00
204.7710, 15254.00
205.9910, 15147.00
207.2110, 15126.00
208.4310, 15010.00
209.6510, 14991.00
210.8710, 15000.00
212.0910, 14988.00
213.3100, 15152.00
214.5290, 15105.00
215.7480, 15249.00
216.9670, 15113.00
218.1860, 15185.00
219.4050, 15182.00
220.6230, 15280.00
221.8420, 15300.49
223.0600, 15309.00
224.2780, 15377.00
225.4960, 15323.00
226.7130, 15364.00
227.9310, 15488.00
229.1480, 15490.00
230.3660, 15415.00
231.5830, 15393.00
232.8000, 15465.00
234.0160, 15223.00
235.2330, 15554.00
236.4490, 15370.00
237.6660, 15587.00
238.8820, 15486.00
240.0980, 15342.00
241.3140, 15532.00
242.5300, 15616.00
243.7450, 15508.00
244.9600, 15690.00
246.1760, 15704.00
247.3910, 15776.00
248.6060, 15728.00
249.8200, 15658.00
251.0350, 15886.00
252.2500, 15795.00
253.4640, 15855.00
254.6780, 15919.00
255.8920, 15791.00
257.1060, 15985.00
258.3190, 15925.00
259.5330, 16076.00
260.7460, 16117.00
261.9600, 15949.00
263.1730, 15917.00
264.3850, 15883.00
265.5980, 15964.00
266.8110, 15974.00
268.0230, 16106.00
269.2360, 16043.00
270.4480, 15843.00
271.6600, 16088.00
272.8710, 15790.00
274.0830, 16001.00
275.2950, 16075.00
276.5060, 16021.00
277.7170, 16024.00
278.9280, 16045.00
280.1390, 15885.00
281.3500, 16115.00
282.5600, 16286.00
283.7710, 16263.00
284.9810, 16133.00
286.1910, 16256.00
287.4010, 16351.00
288.6110, 16096.00
289.8200, 16414.00
291.0300, 16415.00
292.2390, 16404.00
293.4480, 16562.00
294.6570, 16463.00
295.8660, 16551.00
297.0750, 16502.00
298.2830, 16503.00
299.4920, 16524.00
300.7000, 16599.00
301.9080, 16476.00
303.1160, 16569.00
304.3240, 16535.00
305.5310, 16622.00
306.7390, 16655.00
307.9460, 16443.00
309.1530, 16415.00
310.3600, 16415.00
311.5670, 16500.00
312.7740, 16474.00
313.9800, 16515.00
315.1870, 16475.00
316.3930, 16510.12
317.5990, 16610.00
318.8050, 16604.00
320.0110, 16590.00
321.2160, 16720.00
322.4220, 16814.00
323.6270, 16736.00
324.8320, 16725.00
326.0370, 16842.00
327.2420, 16654.00
328.4460, 16793.00
329.6510, 16916.00
330.8550, 17050.00
332.0590, 16877.00
333.2630, 17039.00
334.4670, 16999.00
335.6710, 16895.00
336.8740, 17031.00
338.0780, 16932.00
339.2810, 16964.00
340.4840, 17083.00
341.6870, 16961.00
342.8900, 17050.00
344.0920, 17086.00
345.2950, 17194.00
346.4970, 17234.00
347.6990, 17245.00
348.9010, 17234.00
350.1030, 17242.00
351.3050, 17444.00
352.5060, 17454.00
353.7080, 17765.00
354.9090, 17624.00
356.1100, 17514.00
357.3110, 17718.00
358.5110, 17752.00
359.7120, 17720.00
360.9120, 17881.00
362.1130, 17896.00
363.3130, 17959.00
364.5130, 18077.00
365.7120, 18155.00
366.9120, 17981.00
368.1120, 18032.00
369.3110, 18307.00
370.5100, 18563.00
371.7090, 18457.00
372.9080, 18778.00
374.1070, 18714.00
375.3050, 18679.00
376.5040, 18697.00
377.7020, 18961.00
378.9000, 19163.00
380.0980, 19209.00
381.2950, 19263.00
382.4930, 19536.00
383.6910, 19459.00
384.8880, 19743.00
386.0850, 19971.00
387.2820, 20039.00
388.4790, 20212.00
389.6750, 20446.00
390.8720, 20596.00
392.0680, 20969.00
393.2640, 21047.00
394.4600, 21340.00
395.6560, 21467.00
396.8520, 21824.00
398.0480, 21992.00
399.2430, 22112.00
400.4380, 22305.00
401.6330, 22473.05
402.8280, 22774.00
404.0230, 22760.00
405.2180, 22839.00
406.4120, 22795.00
407.6060, 22956.00
408.8000, 22747.00
409.9940, 22955.00
411.1880, 22723.00
412.3820, 22565.00
413.5750, 22382.00
414.7690, 21949.00
415.9620, 21782.00
417.1550, 21377.00
418.3480, 21107.00
419.5410, 20981.00
420.7330, 20699.00
421.9260, 20545.00
423.1180, 20492.00
424.3100, 20210.00
425.5020, 20033.00
426.6940, 19883.12
427.8850, 19650.00
429.0770, 19519.00
430.2680, 19396.00
431.4590, 19169.00
432.6500, 19079.00
433.8410, 19084.00
435.0320, 18896.00
436.2220, 18855.00
437.4130, 18772.00
438.6030, 18894.00
439.7930, 18762.00
440.9830, 18796.00
442.1730, 18705.00
443.3620, 18721.00
444.5520, 18553.00
445.7410, 18573.00
446.9300, 18669.00
448.1190, 18725.00
449.3080, 18790.00
450.4960, 18627.00
451.6850, 18817.00
452.8730, 18724.00
454.0610, 18842.00
455.2490, 19066.00
456.4370, 19095.00
457.6250, 19069.00
458.8130, 19139.00
460.0000, 19312.00
461.1870, 19324.00
462.3740, 19467.67
463.5610, 19689.00
464.7480, 19703.00
465.9340, 19862.00
467.1210, 19996.00
468.3070, 20047.00
469.4930, 20083.00
470.6790, 20311.00
471.8650, 20183.00
473.0510, 20535.00
474.2360, 20317.00
475.4210, 20567.00
476.6070, 20754.00
477.7920, 21074.00
478.9770, 21035.00
480.1610, 20955.00
481.3460, 21166.00
482.5300, 21375.00
483.7140, 21377.00
484.8980, 21385.00
486.0820, 21228.00
487.2660, 21194.00
488.4500, 21088.00
489.6330, 20850.00
490.8160, 20575.00
492.0000, 20447.00
493.1830, 20212.00
494.3650, 19963.00
495.5480, 19693.00
496.7300, 19712.00
497.9130, 19709.00
499.0950, 19496.00
500.2770, 19533.00
501.4590, 19360.00
502.6410, 19134.00
503.8220, 19193.00
505.0030, 19272.00
506.1850, 19065.00
507.3660, 19231.00
508.5470, 19110.00
509.7270, 19105.00
510.9080, 19142.00
512.0880, 19001.00
513.2690, 19009.00
514.4490, 19209.00
515.6290, 19163.00
516.8090, 19258.00
517.9880, 19237.00
519.1680, 19126.00
520.3470, 19179.00
521.5260, 19063.00
522.7050, 19139.00
523.8840, 19027.00
525.0630, 19238.00
526.2410, 19212.00
527.4200, 19122.00
528.5980, 19205.00
529.7760, 19092.00
530.9540, 19288.00
532.1320, 19247.00
533.3090, 19363.00
534.4870, 19379.00
535.6640, 19349.00
536.8410, 19266.00
538.0180, 19476.00
539.1950, 19321.00
540.3710, 19440.00
541.5480, 19485.00
542.7240, 19399.00
543.9000, 19350.00
545.0760, 19518.00
546.2520, 19563.00
547.4280, 19472.00
548.6040, 19524.00
549.7790, 19531.00
550.9540, 19532.00
552.1290, 19397.00
553.3040, 19624.00
554.4790, 19674.00
555.6530, 19479.00
556.8280, 19603.00
558.0020, 19524.00
559.1760, 19635.00
560.3500, 19744.00
561.5240, 19733.00
562.6980, 19712.00
563.8710, 19586.00
565.0440, 19868.00
566.2170, 19679.00
567.3900, 19819.00
568.5630, 19943.00
569.7360, 19895.00
570.9090, 19861.00
572.0810, 19979.00
573.2530, 19871.00
574.4250, 19990.00
575.5970, 19952.00
576.7690, 20033.00
577.9400, 19949.00
579.1120, 19929.00
580.2830, 19931.00
581.4540, 19948.00
582.6250, 20104.00
583.7960, 19879.00
584.9660, 20170.00
586.1370, 20108.00
587.3070, 20266.00
588.4770, 20340.00
589.6470, 20332.00
590.8170, 20308.00
591.9870, 20458.00
593.1560, 20184.00
594.3260, 20375.00
595.4950, 20478.00
596.6640, 20367.00
597.8330, 20437.00
599.0010, 20626.00
600.1700, 20743.00
601.3380, 20638.00
602.5070, 20847.00
603.6750, 20806.00
604.8430, 20814.00
606.0100, 20955.00
607.1780, 20997.00
608.3450, 20923.00
609.5130, 20969.00
610.6800, 21118.00
611.8470, 21146.00
613.0140, 21230.46
614.1800, 21333.00
615.3470, 21324.00
616.5130, 21307.00
617.6790, 21265.00
618.8450, 21324.00
620.0110, 21276.31
621.1770, 21306.00
622.3420, 21267.00
623.5080, 21386.00
624.6730, 21456.00
625.8380, 21204.00
627.0030, 21278.00
628.1680, 21213.99
629.3320, 21317.00
630.4970, 21125.00
631.6610, 21203.00
632.8250, 21092.00
633.9890, 21028.00
635.1530, 21209.00
636.3160, 21131.00
637.4800, 21222.00
638.6430, 21154.00
639.8060, 21152.00
640.9690, 21212.00
642.1320, 21088.00
643.2950, 21164.00
644.4570, 21148.00
645.6200, 21315.00
646.7820, 21191.00
647.9440, 21318.00
649.1060, 21356.00
650.2670, 21339.00
651.4290, 21332.00
652.5900, 21362.55
653.7520, 21454.00
654.9130, 21421.00
656.0740, 21454.00
657.2340, 21515.36
658.3950, 21409.00
659.5550, 21541.00
660.7160, 21563.00
661.8760, 21526.00
663.0360, 21471.00
664.1960, 21518.00
665.3550, 21532.00
666.5150, 21439.00
667.6740, 21533.00
668.8330, 21681.00
669.9920, 21488.00
671.1510, 21644.00
672.3100, 21559.00
673.4680, 21577.00
674.6270, 21571.00
675.7850, 21605.00
676.9430, 21647.00
678.1010, 21507.00
679.2590, 21735.00
680.4160, 21577.00
681.5740, 21830.00
682.7310, 21729.00
683.8880, 21781.00
685.0450, 21923.00
686.2020, 21813.00
687.3580, 21947.00
688.5150, 21749.00
689.6710, 21946.00
690.8270, 21702.00
691.9830, 21855.00
693.1390, 21858.00
694.2950, 21891.00
695.4500, 21886.00
696.6050, 21778.00
697.7610, 21880.00
698.9160, 21841.89
700.0710, 22045.00
701.2250, 21923.00
702.3800, 21893.00
703.5340, 22043.00
704.6880, 22047.00
705.8420, 22063.00
706.9960, 22039.00
708.1500, 22056.59
709.3040, 22087.59
710.4570, 22100.00
711.6100, 22123.00
712.7640, 22209.00
713.9160, 22135.00
715.0690, 22334.00
716.2220, 22218.00
717.3740, 22212.00
718.5270, 22384.00
719.6790, 22396.00
720.8310, 22487.00
721.9830, 22383.00
723.1340, 22603.00
724.2860, 22391.00
725.4370, 22471.00
726.5880, 22579.00
727.7390, 22560.00
728.8900, 22690.00
730.0410, 22475.00
731.1910, 22399.00
732.3420, 22577.00
733.4920, 22386.00
734.6420, 22614.00
735.7920, 22700.00
736.9420, 22550.00
738.0910, 22558.00
739.2410, 22774.00
740.3900, 22663.00
741.5390, 22769.00
742.6880, 22898.00
743.8370, 22808.00
744.9860, 22800.00
746.1340, 22592.00
747.2820, 22838.00
748.4310, 22632.00
749.5790, 22846.00
750.7260, 22898.00
751.8740, 22919.00
753.0220, 22889.00
754.1690, 22901.00
755.3160, 22955.00
756.4630, 23165.00
757.6100, 23215.00
758.7570, 23086.00
759.9030, 23116.00
761.0500, 22911.00
762.1960, 23077.00
763.3420, 23074.00
764.4880, 23235.00
765.6340, 23234.00
766.7790, 23360.00
767.9250, 23370.00
769.0700, 23272.00
770.2150, 23163.00
771.3600, 23371.00
772.5050, 23407.00
773.6490, 23333.00
774.7940, 23561.00
775.9380, 23483.00
777.0820, 23478.00
778.2260, 23607.00
779.3700, 23609.00
780.5140, 23582.00
781.6570, 23546.00
782.8010, 23576.68
783.9440, 23518.00
785.0870, 23674.00
786.2300, 23699.00
787.3720, 23849.00
788.5150, 23747.00
789.6570, 23811.00
790.8000, 23779.00
791.9420, 23948.00
793.0840, 23867.00
794.2250, 23937.00
795.3670, 23832.00
796.5080, 23890.00
797.6500, 23818.00
798.7910, 23789.00
799.9320, 23952.00
801.0720, 23866.00
802.2130, 23812.00
803.3530, 24094.00
804.4940, 24170.00
805.6340, 24037.00
806.7740, 24146.00
807.9140, 24018.00
809.0530, 24025.00
810.1930, 24196.00
811.3320, 24094.00
812.4710, 24191.04
813.6100, 24227.00
814.7490, 24259.00
815.8880, 24283.00
817.0270, 24284.00
818.1650, 24291.00
819.3030, 24471.00
820.4410, 24398.00
821.5790, 24466.00
822.7170, 24382.00
823.8540, 24435.00
824.9920, 24538.00
826.1290, 24369.00
827.2660, 24510.00
828.4030, 24207.00
829.5400, 24338.00
830.6760, 24366.00
831.8130, 24622.00
832.9490, 24362.00
834.0850, 24714.00
835.2210, 24398.00
836.3570, 24638.00
837.4930, 24701.00
838.6280, 24592.00
839.7640, 24691.99
840.8990, 24646.32
842.0340, 24629.00
843.1690, 24640.00
844.3030, 24553.00
845.4380, 24606.00
846.5720, 24601.00
847.7060, 24573.00
848.8400, 24663.00
849.9740, 24796.00
851.1080, 24850.00
852.2420, 24982.00
853.3750, 24967.00
854.5080, 24844.00
855.6410, 25040.00
856.7740, 24963.00
857.9070, 25104.00
859.0400, 24922.00
860.1720, 24902.00
861.3040, 24858.00
862.4360, 24906.00
863.5680, 25062.00
864.7000, 25098.00
865.8320, 25038.00
866.9630, 25013.00
868.0950, 25016.04
869.2260, 24987.54
870.3570, 25045.00
871.4880, 25003.00
872.6180, 25111.00
873.7490, 25191.00
874.8790, 25162.00
876.0090, 25291.00
877.1390, 25155.00
878.2690, 25180.00
879.3990, 25354.00
880.5280, 25333.00
881.6580, 25358.00
882.7870, 25336.00
883.9160, 25287.00
885.0450, 25454.00
886.1740, 25481.00
887.3020, 25472.00
888.4310, 25508.00
889.5590, 25456.00
890.6870, 25641.00
891.8150, 25545.00
892.9430, 25580.00
894.0700, 25729.00
895.1980, 25741.00
896.3250, 25653.00
897.4520, 25691.00
898.5790, 25596.00
899.7060, 25498.00
900.8330, 25740.00
901.9590, 25894.00
903.0850, 25678.00
904.2120, 25923.00
905.3380, 25927.00
906.4630, 25883.00
907.5890, 25846.00
908.7150, 26119.00
909.8400, 26021.00
910.9650, 25985.00
912.0900, 26109.00
913.2150, 25918.00
914.3400, 26124.00
915.4640, 26021.00
916.5890, 26057.00
917.7130, 26040.00
918.8370, 26049.57
919.9610, 26089.84
921.0850, 26149.00
922.2080, 26200.00
923.3320, 26323.00
924.4550, 26451.00
925.5780, 26208.00
926.7010, 26395.00
927.8240, 26387.00
928.9460, 26529.00
930.0690, 26493.00
931.1910, 26487.00
932.3130, 26643.00
933.4350, 26642.00
934.5570, 26446.00
935.6790, 26359.00
936.8000, 26610.00
937.9220, 26500.00
939.0430, 26552.00
940.1640, 26481.00
941.2850, 26558.44
942.4050, 26742.00
943.5260, 26749.00
944.6460, 26856.00
945.7660, 26979.00
946.8860, 26749.00
948.0060, 26854.00
949.1260, 26793.00
950.2460, 27188.00
951.3650, 26810.00
952.4840, 26939.00
953.6030, 27061.00
954.7220, 26963.00
955.8410, 26945.00
956.9590, 26926.00
958.0780, 27173.00
959.1960, 27027.00
960.3140, 27190.00
961.4320, 27190.00
962.5500, 27165.00
963.6680, 27208.00
964.7850, 27349.00
965.9020, 27362.95
967.0190, 27177.00
968.1360, 27408.00
969.2530, 27435.00
970.3700, 27254.00
971.4860, 27505.00
972.6030, 27440.00
973.7190, 27549.00
974.8350, 27528.00
975.9510, 27411.00
977.0660, 27530.00
978.1820, 27402.00
979.2970, 27785.00
980.4130, 27517.00
981.5280, 27551.00
982.6420, 27737.00
983.7570, 27592.00
984.8720, 27941.00
985.9860, 27868.00
987.1000, 27825.00
988.2140, 27821.00
989.3280, 27918.00
990.4420, 27764.00
991.5560, 27757.00
992.6690, 27804.00
993.7820, 27958.00
994.8950, 27862.00
996.0080, 28060.00
997.1210, 28041.00
998.2340, 28112.00
999.3460, 28106.00
1000.458, 28073.00
1001.571, 28147.00
1002.683, 28056.00
1003.794, 28302.00
1004.906, 28225.00
1006.017, 28271.00
1007.129, 28242.00
1008.240, 28149.00
1009.351, 28439.00
1010.462, 28384.00
1011.572, 28503.00
1012.683, 28438.00
1013.793, 28425.00
1014.904, 28563.00
1016.014, 28635.00
1017.123, 28491.00
1018.233, 28504.00
1019.343, 28774.00
1020.452, 28596.00
1021.561, 28604.00
1022.670, 28882.00
1023.779, 28663.00
1024.888, 28831.00
1025.997, 28910.00
1027.105, 28738.00
1028.213, 28940.00
1029.321, 28834.00
1030.429, 28818.00
1031.537, 28705.00
1032.645, 28969.00
1033.752, 28947.00
1034.859, 28936.00
1035.966, 28993.00
1037.073, 29005.00
1038.180, 29035.02
1039.287, 29005.00
1040.393, 29119.00
1041.500, 29080.00
1042.606, 29156.00
1043.712, 29146.00
1044.818, 29218.00
1045.923, 29217.00
1047.029, 29344.78
1048.134, 29396.00
1049.239, 29529.00
1050.344, 29522.79
1051.449, 29529.27
1052.554, 29471.00
1053.658, 29503.00
1054.763, 29407.00
1055.867, 29477.00
1056.971, 29244.00
1058.075, 29760.00
1059.179, 29587.00
1060.282, 29491.00
1061.385, 29661.00
1062.489, 29526.00
1063.592, 29563.00
1064.695, 29791.00
1065.797, 29663.00
1066.900, 29788.00
1068.002, 29826.00
1069.105, 29930.00
1070.207, 29833.00
1071.309, 29838.00
1072.411, 29856.00
1073.512, 29825.71
1074.614, 30100.00
1075.715, 29920.00
1076.816, 29940.00
1077.917, 30173.00
1079.018, 30029.00
1080.118, 30066.00
1081.219, 30050.00
1082.319, 30241.00
1083.419, 30381.00
1084.519, 30325.00
1085.619, 30175.00
1086.719, 30361.00
1087.818, 29998.00
1088.918, 30295.00
1090.017, 30338.00
1091.116, 30364.00
1092.215, 30279.00
1093.314, 30492.00
1094.412, 30620.00
1095.510, 30579.00
1096.609, 30536.00
1097.707, 30520.00
1098.805, 30356.00
1099.902, 30844.00
1101.000, 30435.00
1102.097, 30748.00
1103.195, 30791.00
1104.292, 30848.00
1105.389, 30884.00
1106.485, 30793.00
1107.582, 30935.00
1108.678, 31075.00
1109.775, 30803.00
1110.871, 30957.00
1111.967, 30936.00
1113.062, 30956.00
1114.158, 31087.00
1115.254, 31164.00
1116.349, 31156.00
1117.444, 31183.00
1118.539, 31179.00
1119.634, 31174.00
1120.728, 31366.00
1121.823, 31259.00
1122.917, 31600.00
1124.011, 31234.00
1125.105, 31358.00
1126.199, 31407.00
1127.293, 31315.38
1128.386, 31449.00
1129.480, 31419.00
1130.573, 31421.00
1131.666, 31622.00
1132.759, 31592.16
1133.851, 31639.00
1134.944, 31722.00
1136.036, 31679.00
1137.129, 31798.00
1138.221, 31616.00
1139.313, 31803.00
1140.404, 31826.00
1141.496, 31705.00
1142.587, 31983.00
1143.678, 32024.00
1144.770, 31972.00
1145.860, 31905.00
1146.951, 31940.00
1148.042, 31956.00
1149.132, 32114.00
1150.223, 32074.00
1151.313, 32030.00
1152.403, 32207.00
1153.492, 32113.00
1154.582, 32269.00
1155.671, 32177.00
1156.761, 32170.00
1157.850, 32164.00
1158.939, 32364.00
1160.028, 32454.00
1161.116, 32099.00
1162.205, 32454.00
1163.293, 32340.00
1164.381, 32145.00
1165.469, 32515.00
1166.557, 32473.00
1167.645, 32490.00
1168.732, 32583.00
1169.820, 32449.00
1170.907, 32293.00
1171.994, 32732.00
1173.081, 32494.00
1174.167, 32533.00
1175.254, 32609.00
1176.340, 32653.00
1177.426, 32502.00
1178.512, 32763.00
1179.598, 32568.00
1180.684, 32544.00
1181.770, 32759.00
1182.855, 32722.00
1183.940, 32573.00
1185.025, 33100.00
1186.110, 32699.00
1187.195, 32557.00
1188.280, 32950.00
1189.364, 32917.00
1190.448, 32833.00
1191.532, 32804.00
1192.616, 32711.00
1193.700, 32837.00
1194.784, 33008.00
1195.867, 33082.00
1196.950, 32968.00
1198.034, 33054.00
1199.117, 32662.00
1200.199, 32812.00
1201.282, 33227.00
1202.364, 32856.00
1203.447, 32718.00
1204.529, 33245.00
1205.611, 33210.00
1206.693, 33129.00
1207.774, 33132.00
1208.856, 33081.00
1209.937, 33009.00
1211.018, 33208.00
1212.099, 33099.00
1213.180, 33099.14
1214.261, 33666.00
1215.341, 33167.00
1216.422, 33135.00
1217.502, 33524.00
1218.582, 33335.00
1219.662, 33104.00
1220.742, 33474.00
1221.821, 33282.00
1222.900, 33460.00
1223.980, 33428.00
1225.059, 33482.00
1226.138, 33615.00
1227.216, 33583.00
1228.295, 33572.00
1229.373, 33700.70
1230.452, 33599.00
1231.530, 33863.00
1232.608, 33744.00
1233.685, 33718.00
1234.763, 33786.00
1235.840, 33600.00
1236.918, 33727.00
1237.995, 33704.00
1239.072, 33692.00
1240.149, 33976.00
1241.225, 33697.00
1242.302, 34005.00
1243.378, 33829.00
1244.454, 33814.00
1245.530, 33805.00
1246.606, 34291.00
1247.681, 34332.00
1248.757, 34205.00
1249.832, 33968.00
1250.907, 34064.00
1251.982, 33821.00
1253.057, 34075.00
1254.132, 34234.00
1255.206, 34240.00
1256.281, 34225.00
1257.355, 34328.00
1258.429, 34273.17
1259.503, 34454.00
1260.576, 34233.00
1261.650, 34397.00
