##NAMES=Clinoptilolite-Ca
##RRUFFID=R060662
##IDEAL CHEMISTRY=Ca_3_(Si_30_Al_6_)O_72_&#183;20H_2_O
##LOCALITY=Succor Creek, Malheur County, Oregon, USA
##OWNER=RRUFF
##SOURCE=Michael Scott
##DESCRIPTION=Group of colorless platy prismatic crystals
##STATUS=The identification of this mineral has been confirmed by X-ray diffraction and chemical analysis
##URL=rruff.info/R060662
##MEASURED CHEMISTRY=(Ca_1.02_Na_0.97_K_0.59_)_Σ=2.58_(Si_14.40_Al_3.60_)_Σ=18_O_36_·10.96H_2_O
##PIN_ID=M00134
##ORIENTATION=Laser parallel to (1 0 1). Fiducial mark perpendicular to laser is parallel to b [0 1 0]
134.1270, 37950.00
135.3560, 37861.00
136.5850, 38314.00
137.8140, 38141.00
139.0430, 37885.00
140.2710, 37589.00
141.5000, 37068.00
142.7280, 36536.00
143.9560, 36404.00
145.1840, 35667.00
146.4120, 35178.00
147.6390, 34763.00
148.8670, 33974.00
150.0940, 33572.00
151.3210, 33117.00
152.5490, 32228.00
153.7750, 32000.00
155.0020, 31410.00
156.2290, 30692.00
157.4550, 29875.00
158.6810, 29588.00
159.9080, 29071.00
161.1340, 28982.00
162.3590, 28303.00
163.5850, 27911.00
164.8110, 27640.00
166.0360, 27283.00
167.2610, 26811.00
168.4860, 26469.00
169.7110, 26332.00
170.9360, 25904.00
172.1610, 25919.00
173.3850, 25591.00
174.6100, 25394.00
175.8340, 25261.67
177.0580, 25019.96
178.2820, 24915.00
179.5050, 24694.00
180.7290, 24517.00
181.9520, 24426.00
183.1760, 24403.00
184.3990, 24239.00
185.6220, 24181.77
186.8450, 24010.00
188.0670, 24035.00
189.2900, 24035.00
190.5120, 24045.00
191.7340, 23855.00
192.9560, 23868.00
194.1780, 23672.00
195.4000, 23767.00
196.6220, 23681.00
197.8430, 23585.00
199.0640, 23630.00
200.2860, 23851.00
201.5070, 23940.00
202.7270, 23685.00
203.9480, 23272.00
205.1690, 23109.00
206.3890, 23029.00
207.6090, 22966.00
208.8290, 22910.28
210.0490, 22932.00
211.2690, 22933.00
212.4890, 22831.00
213.7080, 22964.00
214.9280, 23031.00
216.1470, 23000.00
217.3660, 23125.00
218.5850, 22981.00
219.8030, 23085.00
221.0220, 23082.00
222.2400, 23186.00
223.4590, 23053.00
224.6770, 23194.00
225.8950, 23236.00
227.1120, 23646.00
228.3300, 23563.00
229.5480, 23691.00
230.7650, 23602.00
231.9820, 24147.00
233.1990, 24193.00
234.4160, 24547.00
235.6330, 24552.00
236.8490, 24664.00
238.0660, 24947.00
239.2820, 24931.00
240.4980, 25126.00
241.7140, 25315.00
242.9300, 25365.00
244.1460, 25405.00
245.3610, 25604.00
246.5770, 25489.00
247.7920, 25658.00
249.0070, 25386.00
250.2220, 25329.00
251.4370, 25297.00
252.6510, 25377.00
253.8660, 25162.00
255.0800, 24949.00
256.2940, 24984.00
257.5080, 25141.00
258.7220, 24891.03
259.9360, 24900.00
261.1490, 24584.00
262.3630, 24264.00
263.5760, 24117.00
264.7890, 23961.00
266.0020, 23867.00
267.2150, 23615.00
268.4270, 23461.00
269.6400, 23340.00
270.8520, 23346.00
272.0640, 23107.00
273.2760, 23136.00
274.4880, 22952.00
275.7000, 22791.00
276.9120, 22628.00
278.1230, 22509.00
279.3340, 22477.00
280.5450, 22340.00
281.7560, 22161.00
282.9670, 22203.00
284.1780, 22037.36
285.3880, 22077.00
286.5980, 21882.00
287.8090, 21946.00
289.0190, 21961.00
290.2290, 21999.00
291.4380, 21574.00
292.6480, 21874.00
293.8570, 21751.00
295.0670, 21709.00
296.2760, 22042.00
297.4850, 21905.00
298.6930, 21736.00
299.9020, 21692.00
301.1110, 21968.00
302.3190, 21882.00
303.5270, 21985.00
304.7350, 21829.00
305.9430, 22002.00
307.1510, 22042.00
308.3580, 22180.00
309.5660, 22191.00
310.7730, 22150.00
311.9800, 22232.00
313.1870, 22277.00
314.3940, 22192.00
315.6010, 22638.00
316.8070, 22643.00
318.0130, 22534.00
319.2200, 22817.00
320.4260, 22662.00
321.6310, 22900.00
322.8370, 23145.00
324.0430, 22988.00
325.2480, 23285.00
326.4540, 23185.00
327.6590, 23605.00
328.8640, 23680.00
330.0680, 23774.00
331.2730, 23989.00
332.4780, 23845.00
333.6820, 24063.00
334.8860, 24045.00
336.0900, 24236.00
337.2940, 24526.00
338.4980, 24396.00
339.7010, 24937.00
340.9050, 24813.00
342.1080, 25160.00
343.3110, 25336.00
344.5140, 25686.00
345.7170, 25681.00
346.9200, 25796.00
348.1220, 26145.00
349.3240, 26222.00
350.5270, 26560.00
351.7290, 26863.00
352.9310, 27173.00
354.1320, 27530.43
355.3340, 27960.00
356.5350, 28244.00
357.7370, 28601.01
358.9380, 28964.54
360.1390, 29233.00
361.3400, 29775.00
362.5400, 30190.00
363.7410, 30654.00
364.9410, 30850.00
366.1410, 31385.00
367.3410, 32079.00
368.5410, 32576.00
369.7410, 32766.00
370.9400, 33653.00
372.1400, 33957.00
373.3390, 34327.00
374.5380, 35137.00
375.7370, 35646.00
376.9360, 36047.00
378.1350, 37228.00
379.3330, 37911.00
380.5310, 38946.00
381.7300, 39406.00
382.9280, 40809.00
384.1260, 41788.00
385.3230, 42845.00
386.5210, 44145.00
387.7180, 45389.04
388.9160, 46768.00
390.1130, 48225.00
391.3100, 49775.00
392.5060, 51354.00
393.7030, 53164.00
394.9000, 54310.00
396.0960, 55251.00
397.2920, 56850.00
398.4880, 57608.00
399.6840, 57908.00
400.8800, 58164.00
402.0750, 58260.00
403.2710, 57784.00
404.4660, 57136.00
405.6610, 56333.00
406.8560, 55060.00
408.0510, 53694.00
409.2450, 52391.00
410.4400, 50927.00
411.6340, 49022.00
412.8280, 47547.00
414.0220, 45796.00
415.2160, 44127.00
416.4100, 42642.00
417.6030, 41251.00
418.7970, 39990.00
419.9900, 38631.00
421.1830, 37484.72
422.3760, 36127.00
423.5690, 35270.00
424.7610, 34195.00
425.9540, 33166.00
427.1460, 32343.00
428.3380, 31536.34
429.5300, 30758.00
430.7220, 30186.00
431.9140, 29627.00
433.1050, 29013.00
434.2970, 28761.00
435.4880, 28382.00
436.6790, 27946.00
437.8700, 27713.00
439.0610, 27456.00
440.2510, 27258.00
441.4420, 27019.00
442.6320, 26939.00
443.8220, 26878.00
445.0120, 26893.00
446.2020, 26862.00
447.3910, 27159.00
448.5810, 27219.00
449.7700, 27555.00
450.9600, 27764.00
452.1490, 27924.00
453.3370, 28447.00
454.5260, 28875.00
455.7150, 29438.00
456.9030, 29931.28
458.0910, 30478.29
459.2800, 30969.00
460.4670, 31552.00
461.6550, 32072.00
462.8430, 32488.00
464.0300, 32955.00
465.2180, 33387.00
466.4050, 33928.00
467.5920, 34139.00
468.7790, 34892.00
469.9650, 35324.00
471.1520, 36193.00
472.3380, 37134.00
473.5250, 38077.00
474.7110, 39120.00
475.8970, 39963.00
477.0820, 40493.00
478.2680, 41061.00
479.4540, 41411.00
480.6390, 41628.00
481.8240, 41107.00
483.0090, 40208.00
484.1940, 39431.00
485.3780, 37989.00
486.5630, 36808.00
487.7470, 35494.00
488.9320, 34131.00
490.1160, 32616.00
491.3000, 31464.00
492.4830, 30467.00
493.6670, 29326.00
494.8500, 28762.00
496.0340, 27987.00
497.2170, 27248.00
498.4000, 26775.00
499.5820, 26390.00
500.7650, 26955.00
501.9480, 26078.94
503.1300, 25935.00
504.3120, 25022.00
505.4940, 25009.00
506.6760, 24650.00
507.8580, 24505.00
509.0390, 24423.00
510.2210, 24471.00
511.4020, 24201.00
512.5830, 24245.00
513.7640, 24072.00
514.9450, 24132.00
516.1250, 23984.00
517.3060, 24127.00
518.4860, 23874.00
519.6660, 23939.00
520.8460, 23797.00
522.0260, 23840.00
523.2060, 23904.00
524.3850, 23794.00
525.5650, 23810.00
526.7440, 23863.00
527.9230, 23796.00
529.1020, 23826.00
530.2810, 23731.00
531.4590, 23663.00
532.6380, 23935.00
533.8160, 23614.00
534.9940, 23833.00
536.1720, 23477.00
537.3500, 23811.00
538.5270, 23587.00
539.7050, 23955.00
540.8820, 23589.00
542.0590, 23645.00
543.2360, 23648.00
544.4130, 23872.00
545.5900, 23498.00
546.7660, 23766.00
547.9430, 23650.00
549.1190, 23635.00
550.2950, 23689.00
551.4710, 23707.00
552.6470, 23572.00
553.8220, 23766.00
554.9980, 23585.00
556.1730, 23764.00
557.3480, 23603.00
558.5230, 23786.00
559.6980, 23820.00
560.8730, 23779.00
562.0470, 23678.00
563.2220, 23624.00
564.3960, 23897.00
565.5700, 23746.00
566.7440, 23915.00
567.9170, 23893.00
569.0910, 23928.80
570.2640, 24143.00
571.4380, 24033.00
572.6110, 24077.00
573.7840, 24116.00
574.9570, 24341.00
576.1290, 23977.00
577.3020, 24455.00
578.4740, 24379.00
579.6460, 24343.00
580.8180, 24697.00
581.9900, 24878.00
583.1620, 24752.00
584.3330, 24767.00
585.5040, 24534.00
586.6760, 24953.00
587.8470, 24948.00
589.0180, 25157.00
590.1880, 25111.00
591.3590, 25213.00
592.5290, 25399.00
593.7000, 25631.00
594.8700, 25624.00
596.0400, 25656.00
597.2090, 26161.00
598.3790, 26339.00
599.5490, 26650.00
600.7180, 26938.00
601.8870, 27136.00
603.0560, 27407.00
604.2250, 27666.00
605.3940, 28013.00
606.5620, 28197.00
607.7300, 28451.00
608.8990, 28640.00
610.0670, 29223.00
611.2350, 28929.00
612.4020, 29323.00
613.5700, 29341.00
614.7370, 29272.00
615.9050, 29148.00
617.0720, 29019.00
618.2390, 28939.00
619.4060, 28823.00
620.5720, 28643.79
621.7390, 28385.00
622.9050, 28316.00
624.0710, 27991.00
625.2370, 27922.00
626.4030, 27650.00
627.5690, 27331.00
628.7340, 27222.04
629.9000, 26677.00
631.0650, 26820.00
632.2300, 26462.00
633.3950, 26127.00
634.5600, 26212.00
635.7240, 26081.00
636.8890, 25891.00
638.0530, 25940.00
639.2170, 25698.00
640.3810, 25666.00
641.5450, 25716.00
642.7080, 25720.00
643.8720, 25644.00
645.0350, 25667.00
646.1980, 25633.00
647.3610, 25601.00
648.5240, 25456.00
649.6870, 25681.00
650.8490, 25389.00
652.0120, 25581.00
653.1740, 25401.00
654.3360, 25415.00
655.4980, 25247.00
656.6600, 25162.00
657.8210, 25425.00
658.9830, 25026.00
660.1440, 25183.00
661.3050, 25117.00
662.4660, 24953.00
663.6270, 25118.00
664.7870, 25177.00
665.9480, 25223.00
667.1080, 25078.00
668.2680, 24969.00
669.4280, 25059.00
670.5880, 25210.00
671.7480, 24958.00
672.9070, 25204.00
674.0670, 24888.00
675.2260, 25119.00
676.3850, 25071.00
677.5440, 25094.00
678.7030, 25228.00
679.8610, 25082.00
681.0200, 25257.00
682.1780, 25286.00
683.3360, 25107.00
684.4940, 25213.00
685.6520, 25048.00
686.8090, 25323.00
687.9670, 25499.00
689.1240, 25271.00
690.2810, 25578.00
691.4380, 25461.45
692.5950, 25512.00
693.7520, 25457.00
694.9080, 25302.00
696.0650, 25448.00
697.2210, 25535.00
698.3770, 25578.00
699.5330, 25527.00
700.6880, 25697.00
701.8440, 25635.00
702.9990, 25500.00
704.1550, 25752.00
705.3100, 25801.00
706.4650, 25854.00
707.6190, 25845.00
708.7740, 25818.00
709.9290, 25842.00
711.0830, 25838.00
712.2370, 25967.00
713.3910, 25917.01
714.5450, 26066.00
715.6980, 25919.00
716.8520, 26017.00
718.0050, 26100.00
719.1580, 26215.00
720.3110, 26204.00
721.4640, 26256.95
722.6170, 26250.00
723.7700, 26243.00
724.9220, 26181.00
726.0740, 26099.00
727.2260, 26090.00
728.3780, 26287.00
729.5300, 26195.00
730.6810, 26228.00
731.8330, 26252.00
732.9840, 26217.00
734.1350, 26420.00
735.2860, 26347.00
736.4370, 26571.00
737.5880, 26477.00
738.7380, 26484.00
739.8880, 26333.00
741.0390, 26480.00
742.1890, 26814.00
743.3380, 26830.00
744.4880, 26785.00
745.6380, 26599.00
746.7870, 26715.00
747.9360, 26755.00
749.0850, 26799.00
750.2340, 26687.00
751.3830, 26916.00
752.5310, 27094.00
753.6800, 27298.00
754.8280, 27123.00
755.9760, 27254.00
757.1240, 27315.00
758.2720, 27295.00
759.4190, 27460.00
760.5670, 27410.00
761.7140, 27672.00
762.8610, 27680.00
764.0080, 27886.00
765.1550, 28087.00
766.3020, 28149.00
767.4480, 28142.00
768.5950, 28304.00
769.7410, 28184.00
770.8870, 28352.00
772.0330, 28610.00
773.1780, 28526.00
774.3240, 28691.00
775.4690, 28734.00
776.6140, 29025.00
777.7590, 29007.00
778.9040, 29062.00
780.0490, 29171.00
781.1940, 29044.00
782.3380, 29086.07
783.4820, 29054.00
784.6260, 29013.00
785.7700, 29096.00
786.9140, 29066.00
788.0580, 29083.00
789.2010, 28875.00
790.3450, 28942.00
791.4880, 28714.00
792.6310, 28798.00
793.7730, 28523.00
794.9160, 28430.00
796.0590, 28597.00
797.2010, 28815.00
798.3430, 28813.00
799.4850, 28363.00
800.6270, 28383.00
801.7690, 28359.00
802.9100, 28401.00
804.0520, 28348.00
805.1930, 28514.00
806.3340, 28786.00
807.4750, 28716.00
808.6160, 29075.00
809.7560, 28988.00
810.8970, 29623.00
812.0370, 29276.00
813.1770, 29656.52
814.3170, 29816.00
815.4570, 30050.00
816.5960, 30203.00
817.7360, 30270.00
818.8750, 30081.00
820.0140, 30209.00
821.1530, 30106.00
822.2920, 29619.00
823.4310, 29622.00
824.5690, 29311.00
825.7070, 28709.00
826.8460, 28578.00
827.9840, 28594.00
829.1220, 28119.00
830.2590, 28391.00
831.3970, 28068.00
832.5340, 28015.00
833.6710, 27847.00
834.8080, 28000.00
835.9450, 27748.00
837.0820, 27747.00
838.2190, 27660.00
839.3550, 27748.00
840.4910, 27738.00
841.6270, 27651.00
842.7630, 27887.00
843.8990, 27658.00
845.0350, 27916.00
846.1700, 27905.00
847.3060, 27915.00
848.4410, 27964.00
849.5760, 27696.00
850.7100, 28055.00
851.8450, 27767.00
852.9800, 28007.00
854.1140, 27911.00
855.2480, 27975.00
856.3820, 28150.00
857.5160, 28037.00
858.6500, 28147.00
859.7830, 28124.00
860.9170, 28073.00
862.0500, 28078.00
863.1830, 28268.00
864.3160, 27981.00
865.4480, 28051.00
866.5810, 27798.00
867.7130, 27979.00
868.8460, 27892.00
869.9780, 27997.00
871.1100, 27850.00
872.2410, 27974.00
873.3730, 28041.00
874.5050, 27970.00
875.6360, 27981.00
876.7670, 27824.00
877.8980, 27977.00
879.0290, 27908.00
880.1590, 28043.00
881.2900, 28052.00
882.4200, 27878.00
883.5500, 28098.00
884.6800, 27843.00
885.8100, 27967.00
886.9400, 28191.00
888.0690, 28077.00
889.1990, 27986.00
890.3280, 28177.00
891.4570, 28065.00
892.5860, 28088.00
893.7140, 28046.00
894.8430, 28044.90
895.9710, 28211.00
897.1000, 28109.00
898.2280, 28205.00
899.3560, 28309.00
900.4830, 28238.00
901.6110, 28150.00
902.7380, 28326.00
903.8660, 28217.00
904.9930, 28119.00
906.1200, 28321.00
907.2460, 28402.00
908.3730, 28201.00
909.5000, 28290.00
910.6260, 28276.00
911.7520, 28337.00
912.8780, 28279.00
914.0040, 28313.34
915.1290, 28435.00
916.2550, 28387.00
917.3800, 28418.00
918.5050, 28563.00
919.6300, 28345.00
920.7550, 28484.00
921.8800, 28462.00
923.0040, 28461.00
924.1290, 28553.00
925.2530, 28531.92
926.3770, 28628.00
927.5010, 28556.00
928.6250, 28641.00
929.7480, 28634.00
930.8720, 28906.00
931.9950, 28801.00
933.1180, 28822.00
934.2410, 28666.00
935.3640, 28832.00
936.4860, 28698.00
937.6090, 28703.00
938.7310, 28817.00
939.8530, 28722.00
940.9750, 28945.00
942.0970, 28959.00
943.2180, 29058.00
944.3400, 28669.00
945.4610, 28923.00
946.5820, 28820.00
947.7030, 28998.00
948.8240, 29145.00
949.9450, 28820.00
951.0650, 29175.00
952.1860, 29072.00
953.3060, 29154.00
954.4260, 29347.00
955.5460, 29119.00
956.6650, 29315.00
957.7850, 29597.00
958.9040, 29380.00
960.0230, 29340.00
961.1420, 29355.00
962.2610, 29366.00
963.3800, 29376.71
964.4990, 29348.00
965.6170, 29464.00
966.7350, 29482.00
967.8530, 29596.00
968.9710, 29392.00
970.0890, 29504.00
971.2070, 29456.00
972.3240, 29689.00
973.4410, 29612.00
974.5580, 29598.00
975.6750, 29585.00
976.7920, 29642.00
977.9090, 29757.00
979.0250, 29852.00
980.1410, 29900.00
981.2580, 29957.00
982.3740, 29728.00
983.4890, 29875.00
984.6050, 29844.00
985.7200, 29932.00
986.8360, 30032.00
987.9510, 30060.00
989.0660, 30173.00
990.1810, 30159.00
991.2950, 30032.00
992.4100, 30097.00
993.5240, 30151.05
994.6390, 30227.00
995.7530, 30442.00
996.8660, 30341.00
997.9800, 30619.00
999.0940, 30703.00
1000.207, 30596.00
1001.320, 30880.00
1002.433, 30831.38
1003.546, 31044.00
1004.659, 30886.00
1005.772, 30857.00
1006.884, 30825.00
1007.996, 30936.00
1009.108, 30862.00
1010.220, 30963.00
1011.332, 30999.16
1012.444, 30889.00
1013.555, 31166.00
1014.666, 31186.00
1015.777, 31396.00
1016.888, 31038.00
1017.999, 31273.00
1019.110, 31085.00
1020.220, 31323.00
1021.331, 31460.00
1022.441, 31475.00
1023.551, 31320.00
1024.661, 31524.00
1025.770, 31371.00
1026.880, 31380.00
1027.989, 31516.00
1029.098, 31508.00
1030.207, 31582.00
1031.316, 31886.00
1032.425, 31882.00
1033.533, 31816.00
1034.642, 31702.00
1035.750, 31856.00
1036.858, 31844.00
1037.966, 31893.00
1039.073, 31971.00
1040.181, 32035.00
1041.288, 31838.00
1042.396, 31994.00
1043.503, 32212.00
1044.610, 31914.00
1045.716, 32257.00
1046.823, 32324.00
1047.929, 32225.00
1049.036, 32154.00
1050.142, 32069.00
1051.248, 32070.00
1052.353, 32398.00
1053.459, 32315.00
1054.564, 32278.00
1055.670, 32240.00
1056.775, 32010.00
1057.880, 32078.00
1058.985, 32299.00
1060.089, 32357.00
1061.194, 31963.00
1062.298, 32359.00
1063.402, 32149.00
1064.506, 32305.00
1065.610, 32173.00
1066.713, 32286.00
1067.817, 32239.13
1068.920, 32343.00
1070.023, 32330.00
1071.126, 32248.00
1072.229, 32662.00
1073.332, 32424.00
1074.435, 32426.00
1075.537, 32685.00
1076.639, 32697.00
1077.741, 32774.00
1078.843, 32991.00
1079.945, 32752.00
1081.046, 33082.00
1082.148, 32877.00
1083.249, 33264.00
1084.350, 33110.00
1085.451, 33323.00
1086.551, 33343.00
1087.652, 33175.00
1088.752, 33595.00
1089.853, 33255.00
1090.953, 33709.00
1092.053, 33476.00
1093.152, 33673.00
1094.252, 33762.00
1095.351, 33617.00
1096.451, 33924.00
1097.550, 33861.00
1098.649, 33991.00
1099.748, 34052.00
1100.846, 34141.00
1101.945, 34183.00
1103.043, 34319.45
1104.141, 34460.00
1105.239, 34511.00
1106.337, 34594.00
1107.434, 34520.00
1108.532, 34680.00
1109.629, 34666.00
1110.726, 34539.00
1111.823, 34799.00
1112.920, 34670.00
1114.017, 34824.00
1115.113, 34729.00
1116.210, 34939.94
1117.306, 34971.05
1118.402, 35203.00
1119.498, 35173.00
1120.593, 34903.00
1121.689, 35076.00
1122.784, 35134.00
1123.879, 35403.00
1124.974, 35119.00
1126.069, 35437.00
1127.164, 35255.00
1128.259, 35150.00
1129.353, 35211.00
1130.447, 35403.00
1131.541, 35115.00
1132.635, 34819.00
1133.729, 35317.00
1134.822, 35075.00
1135.916, 35196.00
1137.009, 35319.00
1138.102, 35140.00
1139.195, 35462.00
1140.288, 35254.00
1141.380, 35224.00
1142.473, 35238.00
1143.565, 35217.00
1144.657, 35501.00
1145.749, 35506.00
1146.841, 35469.92
1147.932, 35568.38
1149.024, 35376.00
1150.115, 35409.00
1151.206, 35505.00
1152.297, 35083.00
1153.388, 35292.00
1154.479, 35228.00
1155.569, 35075.00
1156.659, 35244.00
1157.750, 35164.00
1158.839, 35127.00
1159.929, 35283.00
1161.019, 35373.00
1162.108, 35239.00
1163.198, 35290.00
1164.287, 35281.00
1165.376, 35057.00
1166.465, 35135.00
1167.553, 35119.00
1168.642, 35103.00
1169.730, 35151.00
1170.818, 35023.00
1171.906, 35086.00
1172.994, 35063.11
1174.082, 34896.00
1175.170, 35004.00
1176.257, 34836.00
1177.344, 34655.00
1178.431, 34961.00
1179.518, 34762.00
1180.605, 34686.00
1181.691, 34521.00
1182.778, 34456.00
1183.864, 34670.00
1184.950, 34539.00
1186.036, 34625.00
1187.122, 34586.00
1188.207, 34532.79
1189.292, 34289.00
1190.378, 34430.00
1191.463, 34349.00
1192.548, 34266.00
1193.632, 34474.00
1194.717, 34102.00
1195.801, 34222.00
1196.886, 34099.00
1197.970, 34149.00
1199.054, 34109.00
1200.137, 34277.00
1201.221, 34135.00
1202.305, 34049.00
1203.388, 33982.00
1204.471, 33846.00
1205.554, 33806.00
1206.637, 33844.21
1207.719, 34026.00
1208.802, 33863.00
1209.884, 34056.00
1210.966, 33804.00
1212.048, 33597.00
1213.130, 33979.00
1214.212, 33753.00
1215.293, 33852.00
1216.374, 34021.00
1217.456, 33890.00
1218.536, 34430.00
1219.617, 34031.00
1220.698, 33851.00
1221.778, 33622.00
1222.859, 34033.00
1223.939, 34022.00
1225.019, 33852.00
1226.099, 33916.00
1227.178, 33832.00
1228.258, 33963.00
1229.337, 33931.00
1230.417, 33940.00
1231.496, 33803.00
1232.574, 34038.00
1233.653, 33892.00
1234.732, 33855.00
1235.810, 34084.00
1236.888, 34071.00
1237.966, 34094.00
1239.044, 33882.00
1240.122, 34126.00
1241.199, 34112.00
1242.277, 34367.00
1243.354, 34006.00
1244.431, 34099.00
1245.508, 34178.00
1246.585, 33968.00
1247.661, 34336.00
1248.738, 34271.00
1249.814, 34279.00
1250.890, 34272.00
1251.966, 34344.00
1253.042, 34315.00
1254.117, 34011.00
1255.193, 34252.00
1256.268, 34093.00
1257.343, 34177.00
1258.418, 34276.00
1259.493, 34104.00
1260.567, 34094.00
1261.642, 34376.00
1262.716, 34382.00
1263.790, 34397.00
1264.864, 34766.00
1265.938, 34691.00
1267.011, 34756.00
1268.085, 34659.00
1269.158, 34518.00
1270.231, 34659.00
1271.304, 34690.00
1272.377, 34638.00
1273.450, 34736.00
1274.522, 34591.00
1275.594, 34714.00
1276.666, 34522.00
1277.738, 34700.00
1278.810, 34774.00
1279.882, 34735.00
1280.953, 34698.00
1282.025, 34748.88
1283.096, 34793.00
1284.167, 34838.00
1285.238, 34879.80
1286.308, 34902.00
1287.379, 34918.00
1288.449, 34954.00
1289.519, 34885.00
1290.589, 34900.00
1291.659, 35117.00
1292.729, 34981.00
1293.798, 35137.00
1294.868, 35039.00
1295.937, 35091.00
1297.006, 35317.00
1298.075, 35125.00
1299.143, 34915.00
1300.212, 34921.00
1301.280, 35190.00
1302.348, 35268.00
1303.416, 35103.00
1304.484, 35301.00
1305.552, 35298.00
1306.620, 35298.79
