##NAMES=Clinozoisite
##RRUFFID=R040085
##IDEAL CHEMISTRY=Ca_2_Al_3_(Si_2_O_7_)(SiO_4_)O(OH)
##LOCALITY=Alamos, Sonora, Mexico
##OWNER=RRUFF
##SOURCE=University of Arizona Mineral Museum
##DESCRIPTION=Divergent aggregate of red thin prismatic crystals
##STATUS=The identification of this mineral has been confirmed by X-ray diffraction and chemical analysis
##URL=rruff.info/R040085
##MEASURED CHEMISTRY=Ca_2.03_(Al_0.90_Fe_0.13_)_3_(Si_1.00_O_4_)(Si_2.00_O_7_)O(OH)
##PIN_ID=M00327
##ORIENTATION=Laser parallel to (1 0 1). Fiducial mark perpendicular to laser is parallel to -b [0 -1 0]
191.7340, 28058.00
192.9560, 28073.00
194.1780, 28058.00
195.4000, 28112.87
196.6220, 28084.00
197.8430, 28215.00
199.0640, 28205.00
200.2860, 28185.00
201.5070, 28489.00
202.7270, 28605.00
203.9480, 28439.00
205.1690, 28527.00
206.3890, 28746.00
207.6090, 28591.00
208.8290, 28681.00
210.0490, 28525.00
211.2690, 28654.00
212.4890, 28679.00
213.7080, 28817.00
214.9280, 28888.00
216.1470, 28807.00
217.3660, 29108.00
218.5850, 29125.00
219.8030, 29071.00
221.0220, 29111.00
222.2400, 29253.00
223.4590, 29127.00
224.6770, 29361.00
225.8950, 29328.00
227.1120, 29402.00
228.3300, 29895.00
229.5480, 29945.00
230.7650, 29882.00
231.9820, 30290.00
233.1990, 30222.00
234.4160, 30469.00
235.6330, 30627.00
236.8490, 30616.00
238.0660, 30616.00
239.2820, 30664.00
240.4980, 30792.80
241.7140, 30963.00
242.9300, 31210.00
244.1460, 31522.00
245.3610, 31923.00
246.5770, 32030.00
247.7920, 32669.00
249.0070, 33094.00
250.2220, 33273.00
251.4370, 33737.00
252.6510, 33909.00
253.8660, 33978.00
255.0800, 33853.00
256.2940, 33829.00
257.5080, 33495.00
258.7220, 33415.00
259.9360, 33207.00
261.1490, 32987.00
262.3630, 32850.00
263.5760, 32592.00
264.7890, 32473.56
266.0020, 32355.00
267.2150, 32289.00
268.4270, 32252.00
269.6400, 32343.00
270.8520, 32282.26
272.0640, 32301.31
273.2760, 32236.00
274.4880, 32235.00
275.7000, 32142.00
276.9120, 31974.41
278.1230, 31946.00
279.3340, 31738.00
280.5450, 31638.00
281.7560, 31605.00
282.9670, 31391.00
284.1780, 31675.00
285.3880, 31618.00
286.5980, 31490.00
287.8090, 31533.00
289.0190, 31500.00
290.2290, 31690.00
291.4380, 31425.00
292.6480, 31458.00
293.8570, 31648.00
295.0670, 31581.00
296.2760, 31714.00
297.4850, 31798.00
298.6930, 31672.00
299.9020, 31724.00
301.1110, 31541.00
302.3190, 31555.00
303.5270, 31536.00
304.7350, 31569.00
305.9430, 31782.00
307.1510, 31677.00
308.3580, 31504.00
309.5660, 31861.00
310.7730, 31511.00
311.9800, 31553.00
313.1870, 31874.00
314.3940, 31872.00
315.6010, 32027.00
316.8070, 31849.00
318.0130, 32014.00
319.2200, 32004.00
320.4260, 32007.00
321.6310, 32075.00
322.8370, 32295.00
324.0430, 32199.00
325.2480, 32482.00
326.4540, 32598.00
327.6590, 32594.00
328.8640, 32562.00
330.0680, 32825.00
331.2730, 32998.00
332.4780, 33316.00
333.6820, 33209.00
334.8860, 33405.00
336.0900, 33470.00
337.2940, 33639.00
338.4980, 33645.00
339.7010, 33800.00
340.9050, 34051.05
342.1080, 34444.00
343.3110, 34626.00
344.5140, 34848.00
345.7170, 35150.00
346.9200, 35397.00
348.1220, 35860.00
349.3240, 36050.00
350.5270, 36335.00
351.7290, 36062.00
352.9310, 36022.00
354.1320, 35123.00
355.3340, 35216.00
356.5350, 34541.00
357.7370, 34291.00
358.9380, 33902.00
360.1390, 33881.00
361.3400, 33583.00
362.5400, 33633.00
363.7410, 33124.00
364.9410, 33235.00
366.1410, 32946.00
367.3410, 33102.00
368.5410, 32794.00
369.7410, 32851.00
370.9400, 32986.00
372.1400, 32803.00
373.3390, 32680.00
374.5380, 32668.00
375.7370, 32598.77
376.9360, 32675.00
378.1350, 32633.00
379.3330, 32689.00
380.5310, 32790.00
381.7300, 32683.00
382.9280, 32856.00
384.1260, 32919.34
385.3230, 33200.00
386.5210, 33104.00
387.7180, 33125.00
388.9160, 33094.00
390.1130, 33399.00
391.3100, 33358.00
392.5060, 33183.00
393.7030, 33566.00
394.9000, 33395.00
396.0960, 33374.00
397.2920, 33200.00
398.4880, 33411.00
399.6840, 33561.00
400.8800, 33312.00
402.0750, 33317.00
403.2710, 33387.00
404.4660, 33426.00
405.6610, 33234.00
406.8560, 33576.00
408.0510, 33488.00
409.2450, 33312.00
410.4400, 33553.00
411.6340, 33395.00
412.8280, 33501.00
414.0220, 33384.00
415.2160, 33457.40
416.4100, 33668.00
417.6030, 33689.00
418.7970, 33817.00
419.9900, 34113.00
421.1830, 34046.00
422.3760, 34459.00
423.5690, 34389.00
424.7610, 34673.00
425.9540, 34904.00
427.1460, 34813.00
428.3380, 34949.00
429.5300, 34731.00
430.7220, 34998.00
431.9140, 35089.00
433.1050, 34902.00
434.2970, 35156.00
435.4880, 35166.00
436.6790, 35300.00
437.8700, 35618.00
439.0610, 35842.00
440.2510, 36128.00
441.4420, 36409.00
442.6320, 36801.00
443.8220, 37085.00
445.0120, 37744.00
446.2020, 37954.00
447.3910, 38486.00
448.5810, 38949.00
449.7700, 39067.00
450.9600, 39244.00
452.1490, 39362.00
453.3370, 38933.00
454.5260, 38577.00
455.7150, 37867.00
456.9030, 37708.00
458.0910, 37434.00
459.2800, 36869.00
460.4670, 36776.00
461.6550, 36529.00
462.8430, 36265.00
464.0300, 35985.00
465.2180, 36040.00
466.4050, 35991.00
467.5920, 35705.00
468.7790, 36059.00
469.9650, 35854.00
471.1520, 36064.00
472.3380, 36032.00
473.5250, 36057.00
474.7110, 36062.00
475.8970, 35974.00
477.0820, 35980.00
478.2680, 36115.95
479.4540, 36381.00
480.6390, 36436.00
481.8240, 36480.00
483.0090, 36595.00
484.1940, 36629.00
485.3780, 36493.00
486.5630, 36253.00
487.7470, 36272.00
488.9320, 36297.00
490.1160, 36216.00
491.3000, 35862.00
492.4830, 36062.00
493.6670, 35811.00
494.8500, 35974.00
496.0340, 35777.00
497.2170, 35907.00
498.4000, 35778.00
499.5820, 35974.00
500.7650, 35923.00
501.9480, 36047.00
503.1300, 36185.00
504.3120, 36136.00
505.4940, 36277.00
506.6760, 36170.00
507.8580, 36320.00
509.0390, 36353.00
510.2210, 36340.00
511.4020, 36788.00
512.5830, 36691.00
513.7640, 36796.00
514.9450, 36744.00
516.1250, 37094.00
517.3060, 36914.00
518.4860, 37001.00
519.6660, 36868.00
520.8460, 36720.00
522.0260, 37030.00
523.2060, 36664.00
524.3850, 36990.00
525.5650, 36768.00
526.7440, 36880.00
527.9230, 36934.00
529.1020, 36229.00
530.2810, 36500.00
531.4590, 36352.00
532.6380, 35912.00
533.8160, 35961.00
534.9940, 36170.00
536.1720, 36059.00
537.3500, 35831.00
538.5270, 35881.00
539.7050, 35718.00
540.8820, 35992.00
542.0590, 35999.00
543.2360, 35924.00
544.4130, 35851.00
545.5900, 35916.00
546.7660, 35790.00
547.9430, 35914.00
549.1190, 36246.00
550.2950, 35906.00
551.4710, 36106.00
552.6470, 36030.00
553.8220, 36341.00
554.9980, 36156.00
556.1730, 36329.00
557.3480, 36889.00
558.5230, 36726.00
559.6980, 36824.00
560.8730, 37372.00
562.0470, 37597.00
563.2220, 38075.00
564.3960, 38454.00
565.5700, 39150.00
566.7440, 40064.00
567.9170, 40445.00
569.0910, 41057.00
570.2640, 41264.88
571.4380, 41095.93
572.6110, 41127.00
573.7840, 40319.00
574.9570, 39477.00
576.1290, 38840.00
577.3020, 38211.00
578.4740, 37676.00
579.6460, 37535.00
580.8180, 36959.00
581.9900, 37358.00
583.1620, 37052.00
584.3330, 37232.00
585.5040, 37227.00
586.6760, 37223.00
587.8470, 37223.00
589.0180, 37505.00
590.1880, 37520.00
591.3590, 37371.00
592.5290, 37845.00
593.7000, 37714.00
594.8700, 38149.00
596.0400, 38248.00
597.2090, 38354.00
598.3790, 38460.00
599.5490, 38647.00
600.7180, 38752.00
601.8870, 38881.00
603.0560, 38998.00
604.2250, 39133.00
605.3940, 39079.00
606.5620, 39036.50
607.7300, 38776.00
608.8990, 38730.00
610.0670, 38537.00
611.2350, 38274.00
612.4020, 38134.00
613.5700, 37992.00
614.7370, 37883.00
615.9050, 37742.43
617.0720, 37639.12
618.2390, 37488.00
619.4060, 37481.00
620.5720, 37371.00
621.7390, 37395.00
622.9050, 37235.00
624.0710, 37136.00
625.2370, 37247.00
626.4030, 37255.00
627.5690, 37157.00
628.7340, 37163.00
629.9000, 37217.00
631.0650, 37170.00
632.2300, 37190.56
633.3950, 37370.00
634.5600, 37203.00
635.7240, 37276.00
636.8890, 37337.00
638.0530, 37212.00
639.2170, 37298.00
640.3810, 37159.00
641.5450, 37184.50
642.7080, 37209.50
643.8720, 37231.00
645.0350, 37311.00
646.1980, 37419.00
647.3610, 37558.00
648.5240, 37422.00
649.6870, 37718.00
650.8490, 37726.00
652.0120, 37727.00
653.1740, 37529.00
654.3360, 38033.00
655.4980, 37834.00
656.6600, 38033.00
657.8210, 37841.00
658.9830, 37737.00
660.1440, 37848.00
661.3050, 38142.00
662.4660, 38006.00
663.6270, 37951.00
664.7870, 37816.00
665.9480, 37848.00
667.1080, 37993.00
668.2680, 38051.00
669.4280, 37930.00
670.5880, 37788.00
671.7480, 37796.00
672.9070, 37827.00
674.0670, 37750.00
675.2260, 38133.00
676.3850, 37964.00
677.5440, 38023.00
678.7030, 38078.00
679.8610, 37947.00
681.0200, 37848.00
682.1780, 38074.00
683.3360, 37879.00
684.4940, 38198.00
685.6520, 38145.00
686.8090, 38391.00
687.9670, 38313.00
689.1240, 38095.00
690.2810, 38407.00
691.4380, 38337.00
692.5950, 38277.00
693.7520, 38346.00
694.9080, 38582.00
696.0650, 38360.00
697.2210, 38445.00
698.3770, 38578.00
699.5330, 38382.00
700.6880, 38596.00
701.8440, 38803.00
702.9990, 38498.00
704.1550, 38468.00
705.3100, 38465.00
706.4650, 38583.00
707.6190, 38595.00
708.7740, 38540.64
709.9290, 38328.00
711.0830, 38363.00
712.2370, 38416.00
713.3910, 38279.00
714.5450, 38326.80
715.6980, 38206.00
716.8520, 38308.00
718.0050, 38341.00
719.1580, 38369.00
720.3110, 38456.00
721.4640, 38598.00
722.6170, 38512.00
723.7700, 38496.00
724.9220, 38618.00
726.0740, 38600.49
727.2260, 38486.00
728.3780, 38646.00
729.5300, 38723.00
730.6810, 38602.00
731.8330, 38475.00
732.9840, 38520.00
734.1350, 38593.00
735.2860, 38692.00
736.4370, 38425.00
737.5880, 38688.00
738.7380, 38522.00
739.8880, 38461.00
741.0390, 38625.00
742.1890, 38757.00
743.3380, 38757.00
744.4880, 38932.00
745.6380, 38914.00
746.7870, 38887.00
747.9360, 39111.00
749.0850, 38857.00
750.2340, 38979.00
751.3830, 38819.00
752.5310, 38836.00
753.6800, 39101.00
754.8280, 38689.00
755.9760, 39050.00
757.1240, 38774.00
758.2720, 38886.00
759.4190, 39132.00
760.5670, 38967.00
761.7140, 38915.00
762.8610, 39202.00
764.0080, 39089.00
765.1550, 39117.00
766.3020, 39522.00
767.4480, 38941.00
768.5950, 39294.00
769.7410, 39163.00
770.8870, 39365.00
772.0330, 39099.00
773.1780, 39241.00
774.3240, 39210.00
775.4690, 39537.00
776.6140, 39316.00
777.7590, 39692.00
778.9040, 39172.00
780.0490, 39387.00
781.1940, 39191.00
782.3380, 39724.00
783.4820, 39193.00
784.6260, 39326.00
785.7700, 39528.00
786.9140, 39494.00
788.0580, 39528.00
789.2010, 39513.00
790.3450, 39546.00
791.4880, 39754.00
792.6310, 39532.00
793.7730, 39526.00
794.9160, 39735.00
796.0590, 39536.00
797.2010, 39791.00
798.3430, 39701.00
799.4850, 39810.00
800.6270, 39765.00
801.7690, 40056.00
802.9100, 39915.00
804.0520, 40159.00
805.1930, 40028.00
806.3340, 40020.00
807.4750, 39830.00
808.6160, 39943.00
809.7560, 39965.00
810.8970, 40122.00
812.0370, 39998.00
813.1770, 40268.00
814.3170, 40107.00
815.4570, 40119.00
816.5960, 40315.00
817.7360, 40341.00
818.8750, 40290.00
820.0140, 40364.00
821.1530, 40585.00
822.2920, 40509.00
823.4310, 40574.00
824.5690, 40303.00
825.7070, 40412.00
826.8460, 40686.00
827.9840, 40479.00
829.1220, 40767.00
830.2590, 40737.00
831.3970, 40534.00
832.5340, 41018.00
833.6710, 40712.00
834.8080, 41062.00
835.9450, 40877.00
837.0820, 40929.00
838.2190, 41095.00
839.3550, 40913.00
840.4910, 41232.00
841.6270, 41213.00
842.7630, 40837.00
843.8990, 41155.00
845.0350, 41133.00
846.1700, 41219.00
847.3060, 41286.00
848.4410, 41561.00
849.5760, 41393.00
850.7100, 41550.00
851.8450, 41426.00
852.9800, 41511.00
854.1140, 41600.00
855.2480, 41627.00
856.3820, 42122.00
857.5160, 41911.00
858.6500, 42274.00
859.7830, 42157.00
860.9170, 42696.00
862.0500, 42407.00
863.1830, 42427.00
864.3160, 42740.00
865.4480, 42627.00
866.5810, 42617.00
867.7130, 42925.00
868.8460, 42925.00
869.9780, 43259.00
871.1100, 43560.00
872.2410, 43756.00
873.3730, 43890.00
874.5050, 43967.00
875.6360, 44096.00
876.7670, 44414.00
877.8980, 44365.00
879.0290, 44616.00
880.1590, 44541.00
881.2900, 44473.00
882.4200, 44824.00
883.5500, 44454.00
884.6800, 44569.00
885.8100, 44349.00
886.9400, 44642.00
888.0690, 44585.00
889.1990, 44388.00
890.3280, 44286.00
891.4570, 44940.00
892.5860, 44565.00
893.7140, 44808.00
894.8430, 44845.00
895.9710, 44841.00
897.1000, 44940.29
898.2280, 44516.00
899.3560, 44952.00
900.4830, 44799.00
901.6110, 44715.00
902.7380, 45068.00
903.8660, 45072.00
904.9930, 45392.00
906.1200, 45602.00
907.2460, 45851.00
908.3730, 46079.89
909.5000, 46343.38
910.6260, 46450.00
911.7520, 46740.00
912.8780, 46829.00
914.0040, 46701.00
915.1290, 46523.00
916.2550, 46506.00
917.3800, 46108.00
918.5050, 46131.00
919.6300, 45937.00
920.7550, 45914.00
921.8800, 45544.00
923.0040, 45463.00
924.1290, 45338.00
925.2530, 45289.00
926.3770, 44914.00
927.5010, 44915.00
928.6250, 44547.00
929.7480, 44680.00
930.8720, 44573.00
931.9950, 44323.00
933.1180, 44393.00
934.2410, 44100.00
935.3640, 44178.00
936.4860, 43874.00
937.6090, 43849.00
938.7310, 43797.00
939.8530, 43685.00
940.9750, 43526.00
942.0970, 43352.00
943.2180, 43480.00
944.3400, 43038.00
945.4610, 43304.00
946.5820, 43158.00
947.7030, 43437.00
948.8240, 43612.00
949.9450, 43213.00
951.0650, 43553.00
952.1860, 43419.00
953.3060, 43476.00
954.4260, 43378.00
955.5460, 43392.00
956.6650, 43510.00
957.7850, 43586.00
958.9040, 43479.00
960.0230, 43726.00
961.1420, 43495.00
962.2610, 43477.00
963.3800, 43435.00
964.4990, 43581.00
965.6170, 43726.00
966.7350, 43743.00
967.8530, 43703.00
968.9710, 43718.00
970.0890, 43769.00
971.2070, 43847.00
972.3240, 43792.00
973.4410, 43719.00
974.5580, 44022.00
975.6750, 43853.00
976.7920, 44503.00
977.9090, 44540.00
979.0250, 44610.00
980.1410, 44867.00
981.2580, 45016.00
982.3740, 45081.00
983.4890, 45223.00
984.6050, 45361.00
985.7200, 45052.00
986.8360, 44989.00
987.9510, 45197.00
989.0660, 44762.00
990.1810, 44638.00
991.2950, 44608.00
992.4100, 44659.00
993.5240, 44408.00
994.6390, 44418.00
995.7530, 44065.00
996.8660, 44220.00
997.9800, 44192.00
999.0940, 44022.00
1000.207, 44214.00
1001.320, 44307.00
1002.433, 44096.00
1003.546, 44045.00
1004.659, 44344.00
1005.772, 44053.00
1006.884, 43998.00
1007.996, 44233.00
1009.108, 44199.00
1010.220, 44081.00
1011.332, 44194.00
1012.444, 44125.00
1013.555, 44200.00
1014.666, 44449.00
1015.777, 44193.00
1016.888, 44471.00
1017.999, 44483.00
1019.110, 44305.00
1020.220, 44760.00
1021.331, 44553.00
1022.441, 44411.00
1023.551, 44697.00
1024.661, 44303.00
1025.770, 44865.00
1026.880, 44718.00
1027.989, 45070.00
1029.098, 44663.00
1030.207, 44583.00
1031.316, 45004.00
1032.425, 44836.00
1033.533, 45031.00
1034.642, 45083.00
1035.750, 45182.00
1036.858, 45326.00
1037.966, 45123.00
1039.073, 45296.00
1040.181, 45127.00
1041.288, 45201.00
1042.396, 45175.00
1043.503, 45265.00
1044.610, 45347.00
1045.716, 45272.00
1046.823, 45318.00
1047.929, 45364.00
1049.036, 45371.00
1050.142, 45439.00
1051.248, 45398.11
1052.353, 45637.00
1053.459, 45422.00
1054.564, 45218.00
1055.670, 45427.00
1056.775, 45433.00
1057.880, 45434.00
1058.985, 45814.00
1060.089, 45533.00
1061.194, 45810.00
1062.298, 45614.00
1063.402, 45626.00
1064.506, 45553.00
1065.610, 45685.00
1066.713, 45468.00
1067.817, 45699.00
1068.920, 45955.00
1070.023, 45932.00
1071.126, 45885.00
1072.229, 45645.00
1073.332, 45868.00
1074.435, 45863.00
1075.537, 46028.00
1076.639, 46070.00
1077.741, 46188.00
1078.843, 46165.00
1079.945, 46369.00
1081.046, 46184.00
1082.148, 46535.00
1083.249, 46650.00
1084.350, 46576.00
1085.451, 46726.00
1086.551, 46816.00
1087.652, 47107.00
1088.752, 47054.00
1089.853, 47365.00
1090.953, 47395.00
1092.053, 47475.00
1093.152, 48118.00
1094.252, 47721.00
1095.351, 47773.00
1096.451, 47370.00
1097.550, 47360.00
1098.649, 47269.00
1099.748, 46859.00
1100.846, 46855.00
1101.945, 46551.00
1103.043, 46707.00
1104.141, 46420.00
1105.239, 46793.00
1106.337, 46360.00
1107.434, 46638.00
1108.532, 46462.00
1109.629, 46356.00
1110.726, 46473.00
1111.823, 46497.00
1112.920, 46746.00
1114.017, 46720.70
1115.113, 46744.00
1116.210, 46738.00
1117.306, 46725.00
1118.402, 46679.00
1119.498, 46649.00
1120.593, 46968.00
1121.689, 46716.00
1122.784, 46985.00
1123.879, 46711.00
1124.974, 46885.00
1126.069, 46623.00
1127.164, 46675.00
1128.259, 46660.00
1129.353, 47136.00
1130.447, 46773.00
1131.541, 46961.00
1132.635, 46736.00
1133.729, 46987.00
1134.822, 46833.00
1135.916, 46882.10
1137.009, 46783.00
1138.102, 46981.00
1139.195, 46935.00
1140.288, 47051.00
1141.380, 47256.00
1142.473, 47036.00
1143.565, 47194.00
1144.657, 47135.00
1145.749, 47291.00
1146.841, 47095.00
1147.932, 47011.00
1149.024, 47025.00
1150.115, 47116.00
1151.206, 47318.00
1152.297, 47208.00
1153.388, 46993.00
1154.479, 47335.00
1155.569, 47257.00
1156.659, 47083.00
1157.750, 47087.00
1158.839, 47534.00
1159.929, 47320.00
1161.019, 47368.00
1162.108, 47449.00
1163.198, 47294.00
1164.287, 47392.00
1165.376, 47456.00
1166.465, 47432.00
1167.553, 47455.00
1168.642, 47597.00
1169.730, 47735.00
1170.818, 47683.00
1171.906, 47657.00
1172.994, 47584.00
1174.082, 47699.00
1175.170, 47685.00
1176.257, 47658.00
1177.344, 47860.00
1178.431, 47750.00
1179.518, 47760.00
1180.605, 47840.00
1181.691, 48162.00
1182.778, 47739.00
1183.864, 47979.00
1184.950, 47679.00
1186.036, 48199.00
1187.122, 48017.00
1188.207, 47817.00
1189.292, 48112.00
1190.378, 48191.00
1191.463, 48358.00
1192.548, 48306.00
1193.632, 48148.00
1194.717, 48332.00
1195.801, 48591.00
1196.886, 48247.00
1197.970, 48383.00
1199.054, 48117.00
1200.137, 48419.00
1201.221, 48112.00
1202.305, 47940.00
1203.388, 48474.00
1204.471, 48336.00
1205.554, 48473.00
1206.637, 48284.00
1207.719, 48223.00
1208.802, 48623.00
1209.884, 48131.00
1210.966, 48701.00
1212.048, 48564.00
1213.130, 48613.00
1214.212, 48502.00
1215.293, 48827.00
1216.374, 48533.00
1217.456, 48615.00
1218.536, 48923.00
1219.617, 48893.00
1220.698, 48674.00
1221.778, 48892.00
1222.859, 48753.00
1223.939, 48880.00
1225.019, 48681.00
1226.099, 48868.00
1227.178, 48708.00
1228.258, 49027.00
1229.337, 48971.00
1230.417, 49314.00
1231.496, 49184.00
1232.574, 49270.00
1233.653, 49048.00
1234.732, 49112.00
1235.810, 49085.00
1236.888, 49155.00
1237.966, 49025.00
1239.044, 49140.00
1240.122, 48921.00
1241.199, 49233.00
1242.277, 49334.00
1243.354, 49196.00
1244.431, 49480.00
1245.508, 49313.00
1246.585, 49465.00
1247.661, 49405.00
1248.738, 49765.00
1249.814, 49277.00
1250.890, 49312.00
1251.966, 49750.00
1253.042, 49297.00
1254.117, 49459.00
1255.193, 49587.00
1256.268, 49396.00
1257.343, 49231.00
1258.418, 49350.00
1259.493, 49434.00
1260.567, 49284.00
1261.642, 49655.00
1262.716, 49612.00
1263.790, 49754.00
1264.864, 50033.00
1265.938, 49535.00
1267.011, 49775.00
1268.085, 50128.00
1269.158, 49834.00
1270.231, 50016.00
1271.304, 49890.00
1272.377, 50185.00
1273.450, 50036.00
1274.522, 49865.00
1275.594, 50031.00
1276.666, 49891.00
1277.738, 50059.00
1278.810, 50147.00
1279.882, 49851.00
1280.953, 50126.00
1282.025, 50069.00
1283.096, 50177.00
1284.167, 50145.00
1285.238, 49994.00
1286.308, 50180.00
1287.379, 50125.00
1288.449, 50250.00
1289.519, 50156.00
1290.589, 50356.00
1291.659, 50428.00
1292.729, 50410.00
1293.798, 50463.42
1294.868, 50380.00
1295.937, 50419.00
1297.006, 50486.00
1298.075, 50483.00
1299.143, 50577.00
1300.212, 50472.00
1301.280, 50566.00
1302.348, 50397.00
1303.416, 50500.68
1304.484, 50717.00
1305.552, 50696.00
1306.620, 50840.77
1307.687, 50709.00
1308.754, 50937.00
1309.821, 51103.00
1310.888, 50998.00
1311.955, 51012.00
1313.021, 51090.00
1314.088, 51282.00
1315.154, 51184.00
1316.220, 51196.00
1317.286, 51047.00
1318.352, 51119.00
1319.417, 51077.00
1320.483, 51280.00
1321.548, 51308.00
1322.613, 51103.00
1323.678, 51043.00
1324.743, 51326.00
1325.807, 51231.00
1326.872, 51273.00
1327.936, 51419.00
1329.000, 51470.00
1330.064, 51545.00
1331.128, 51360.00
1332.191, 51536.00
1333.255, 51448.00
1334.318, 51276.00
1335.381, 51438.00
1336.444, 51698.00
1337.507, 51639.00
1338.569, 51664.00
1339.632, 51643.00
1340.694, 51619.00
1341.756, 51693.00
1342.818, 51449.00
1343.880, 51796.00
1344.941, 52015.00
1346.003, 51724.00
1347.064, 51883.00
1348.125, 51938.00
1349.186, 51836.00
1350.247, 51886.00
1351.308, 52100.00
1352.368, 52031.00
1353.428, 52181.00
1354.489, 51989.00
1355.549, 52090.00
1356.608, 52251.00
