##NAMES=Clinoptilolite-Ca
##RRUFFID=R060662
##IDEAL CHEMISTRY=Ca_3_(Si_30_Al_6_)O_72_&#183;20H_2_O
##LOCALITY=Succor Creek, Malheur County, Oregon, USA
##OWNER=RRUFF
##SOURCE=Michael Scott
##DESCRIPTION=Group of colorless platy prismatic crystals
##STATUS=The identification of this mineral has been confirmed by X-ray diffraction and chemical analysis
##URL=rruff.info/R060662
##MEASURED CHEMISTRY=(Ca_1.02_Na_0.97_K_0.59_)_Σ=2.58_(Si_14.40_Al_3.60_)_Σ=18_O_36_·10.96H_2_O
##PIN_ID=M00134
##ORIENTATION=Laser parallel to (1 0 1). Fiducial mark perpendicular to laser is parallel to b [0 1 0]
134.1270, 26342.00
135.3560, 26397.00
136.5850, 26335.00
137.8140, 26161.00
139.0430, 26395.00
140.2710, 26105.00
141.5000, 25997.00
142.7280, 25976.00
143.9560, 25824.00
145.1840, 25749.00
146.4120, 25781.00
147.6390, 25414.00
148.8670, 25345.00
150.0940, 25318.00
151.3210, 25101.00
152.5490, 25237.00
153.7750, 24655.00
155.0020, 24783.00
156.2290, 24447.00
157.4550, 24164.00
158.6810, 23872.00
159.9080, 23506.00
161.1340, 23501.00
162.3590, 23313.00
163.5850, 23232.00
164.8110, 22949.00
166.0360, 22777.00
167.2610, 22383.00
168.4860, 22457.00
169.7110, 22364.00
170.9360, 21966.00
172.1610, 21925.00
173.3850, 21653.00
174.6100, 21541.00
175.8340, 21406.00
177.0580, 21489.00
178.2820, 21308.00
179.5050, 21436.00
180.7290, 21253.00
181.9520, 21106.00
183.1760, 21067.00
184.3990, 20946.00
185.6220, 20984.00
186.8450, 21067.00
188.0670, 21062.00
189.2900, 21300.00
190.5120, 21130.00
191.7340, 21230.00
192.9560, 21074.00
194.1780, 21107.00
195.4000, 21206.00
196.6220, 21179.00
197.8430, 20970.00
199.0640, 21030.00
200.2860, 20996.00
201.5070, 21044.00
202.7270, 21037.00
203.9480, 20605.00
205.1690, 20411.00
206.3890, 20473.00
207.6090, 20068.00
208.8290, 20036.00
210.0490, 20191.00
211.2690, 20138.00
212.4890, 20299.00
213.7080, 20184.00
214.9280, 20101.00
216.1470, 20295.00
217.3660, 20090.00
218.5850, 20207.00
219.8030, 20032.00
221.0220, 20170.00
222.2400, 20149.00
223.4590, 20354.00
224.6770, 20418.00
225.8950, 20240.00
227.1120, 20309.00
228.3300, 20366.59
229.5480, 20407.00
230.7650, 20533.00
231.9820, 20712.00
233.1990, 20738.00
234.4160, 21044.00
235.6330, 21103.00
236.8490, 21162.00
238.0660, 21312.00
239.2820, 21475.00
240.4980, 21559.00
241.7140, 21545.00
242.9300, 21758.00
244.1460, 21687.00
245.3610, 22059.00
246.5770, 21960.00
247.7920, 22035.00
249.0070, 22308.00
250.2220, 22513.00
251.4370, 22507.00
252.6510, 22533.00
253.8660, 22612.00
255.0800, 22776.00
256.2940, 22911.00
257.5080, 23005.00
258.7220, 23067.56
259.9360, 23051.78
261.1490, 23066.00
262.3630, 23017.00
263.5760, 22884.00
264.7890, 23021.00
266.0020, 22961.00
267.2150, 22858.00
268.4270, 22909.00
269.6400, 22781.00
270.8520, 22868.00
272.0640, 23123.00
273.2760, 22957.00
274.4880, 23075.00
275.7000, 22799.00
276.9120, 23047.00
278.1230, 22986.00
279.3340, 23003.00
280.5450, 23065.00
281.7560, 23329.00
282.9670, 23084.00
284.1780, 23392.00
285.3880, 23057.00
286.5980, 23123.00
287.8090, 23394.00
289.0190, 23405.00
290.2290, 23427.00
291.4380, 23479.11
292.6480, 23502.53
293.8570, 23530.50
295.0670, 23557.00
296.2760, 23545.82
297.4850, 23521.00
298.6930, 23453.00
299.9020, 23530.00
301.1110, 23513.00
302.3190, 23586.67
303.5270, 23794.00
304.7350, 23788.00
305.9430, 23851.00
307.1510, 24009.00
308.3580, 23933.00
309.5660, 24028.00
310.7730, 24352.00
311.9800, 24403.00
313.1870, 24831.00
314.3940, 24798.00
315.6010, 25213.00
316.8070, 25227.00
318.0130, 25448.00
319.2200, 25466.00
320.4260, 25585.00
321.6310, 25715.00
322.8370, 25920.00
324.0430, 25878.00
325.2480, 26049.00
326.4540, 25972.00
327.6590, 26005.00
328.8640, 26199.00
330.0680, 26126.00
331.2730, 26049.00
332.4780, 26305.00
333.6820, 26171.00
334.8860, 26231.00
336.0900, 26124.00
337.2940, 26552.00
338.4980, 26425.00
339.7010, 26598.00
340.9050, 26586.00
342.1080, 26707.00
343.3110, 26874.00
344.5140, 27265.00
345.7170, 27154.00
346.9200, 27364.00
348.1220, 27626.00
349.3240, 27692.00
350.5270, 27990.00
351.7290, 28216.00
352.9310, 28581.00
354.1320, 28748.00
355.3340, 28962.00
356.5350, 29407.00
357.7370, 29708.00
358.9380, 29939.00
360.1390, 30237.00
361.3400, 30677.00
362.5400, 31014.00
363.7410, 31383.00
364.9410, 31837.00
366.1410, 32214.00
367.3410, 32626.00
368.5410, 32968.00
369.7410, 33462.00
370.9400, 33494.00
372.1400, 34530.00
373.3390, 34503.00
374.5380, 35143.00
375.7370, 35592.00
376.9360, 36542.00
378.1350, 37144.00
379.3330, 37513.00
380.5310, 38363.00
381.7300, 39118.00
382.9280, 39904.00
384.1260, 40989.00
385.3230, 41921.00
386.5210, 42789.00
387.7180, 43973.00
388.9160, 45519.00
390.1130, 46896.00
391.3100, 48525.00
392.5060, 49596.00
393.7030, 51274.00
394.9000, 52650.00
396.0960, 53996.00
397.2920, 55546.00
398.4880, 56173.00
399.6840, 57098.00
400.8800, 57424.00
402.0750, 57916.00
403.2710, 57589.00
404.4660, 57116.00
405.6610, 56551.00
406.8560, 55698.00
408.0510, 54708.00
409.2450, 53388.00
410.4400, 52365.00
411.6340, 50541.00
412.8280, 49150.00
414.0220, 47869.00
415.2160, 45884.00
416.4100, 44391.00
417.6030, 43223.00
418.7970, 41411.00
419.9900, 40294.00
421.1830, 38834.00
422.3760, 37320.00
423.5690, 36059.00
424.7610, 35007.00
425.9540, 33839.00
427.1460, 32965.00
428.3380, 32042.00
429.5300, 31298.00
430.7220, 30497.00
431.9140, 29939.00
433.1050, 29401.71
434.2970, 29006.00
435.4880, 28601.00
436.6790, 28389.00
437.8700, 28147.00
439.0610, 27992.00
440.2510, 27708.00
441.4420, 27646.00
442.6320, 27393.00
443.8220, 27379.00
445.0120, 27597.00
446.2020, 27634.00
447.3910, 27897.00
448.5810, 28255.00
449.7700, 28487.00
450.9600, 29007.00
452.1490, 29244.00
453.3370, 29605.00
454.5260, 30443.00
455.7150, 31040.00
456.9030, 31857.00
458.0910, 32823.00
459.2800, 33568.00
460.4670, 34087.00
461.6550, 34959.00
462.8430, 35570.00
464.0300, 36246.00
465.2180, 36791.00
466.4050, 37385.00
467.5920, 37857.00
468.7790, 38825.00
469.9650, 39423.00
471.1520, 40144.00
472.3380, 41232.00
473.5250, 42154.00
474.7110, 43270.00
475.8970, 44271.00
477.0820, 44869.00
478.2680, 45177.63
479.4540, 45234.89
480.6390, 44990.00
481.8240, 44387.00
483.0090, 43694.00
484.1940, 42499.00
485.3780, 41009.00
486.5630, 39646.00
487.7470, 37839.00
488.9320, 36105.00
490.1160, 34516.00
491.3000, 32866.00
492.4830, 31657.00
493.6670, 30294.00
494.8500, 29623.00
496.0340, 28674.00
497.2170, 27833.00
498.4000, 27043.00
499.5820, 26623.00
500.7650, 26169.00
501.9480, 25993.00
503.1300, 25544.00
504.3120, 25133.00
505.4940, 25126.00
506.6760, 24749.00
507.8580, 24727.00
509.0390, 24659.00
510.2210, 24476.00
511.4020, 24466.00
512.5830, 24322.00
513.7640, 24312.00
514.9450, 24347.00
516.1250, 24211.91
517.3060, 24063.00
518.4860, 24060.00
519.6660, 23989.00
520.8460, 23973.00
522.0260, 23764.00
523.2060, 23832.00
524.3850, 23706.00
525.5650, 23875.00
526.7440, 23747.00
527.9230, 23651.00
529.1020, 23678.00
530.2810, 23509.00
531.4590, 23653.00
532.6380, 23430.00
533.8160, 23735.00
534.9940, 23433.00
536.1720, 23848.00
537.3500, 23352.00
538.5270, 23645.00
539.7050, 23477.00
540.8820, 23609.00
542.0590, 23333.00
543.2360, 23633.00
544.4130, 23546.00
545.5900, 23525.00
546.7660, 23557.00
547.9430, 23632.00
549.1190, 23567.00
550.2950, 23492.00
551.4710, 23582.00
552.6470, 23516.00
553.8220, 23535.00
554.9980, 23523.00
556.1730, 23548.00
557.3480, 23671.00
558.5230, 23691.00
559.6980, 23805.00
560.8730, 23829.14
562.0470, 23895.51
563.2220, 23869.00
564.3960, 23981.00
565.5700, 23985.95
566.7440, 23957.00
567.9170, 24024.00
569.0910, 23924.00
570.2640, 24057.00
571.4380, 23982.00
572.6110, 24152.00
573.7840, 24229.00
574.9570, 24280.00
576.1290, 24301.00
577.3020, 24262.00
578.4740, 24215.00
579.6460, 24445.00
580.8180, 24601.00
581.9900, 24558.00
583.1620, 24778.00
584.3330, 24778.00
585.5040, 24785.00
586.6760, 24917.00
587.8470, 24925.00
589.0180, 25111.00
590.1880, 25226.00
591.3590, 25288.00
592.5290, 25420.00
593.7000, 25672.00
594.8700, 25701.00
596.0400, 25963.00
597.2090, 25865.00
598.3790, 26021.00
599.5490, 26286.00
600.7180, 26660.00
601.8870, 26771.00
603.0560, 27167.00
604.2250, 27136.00
605.3940, 27703.00
606.5620, 27745.00
607.7300, 28070.00
608.8990, 28494.00
610.0670, 28337.00
611.2350, 28709.00
612.4020, 28324.00
613.5700, 28712.00
614.7370, 28593.00
615.9050, 28416.00
617.0720, 28519.00
618.2390, 28505.00
619.4060, 28272.00
620.5720, 28221.00
621.7390, 28210.00
622.9050, 27707.00
624.0710, 27570.00
625.2370, 27558.00
626.4030, 27426.00
627.5690, 27116.00
628.7340, 26921.00
629.9000, 26639.00
631.0650, 26480.00
632.2300, 26517.00
633.3950, 26188.00
634.5600, 26385.00
635.7240, 26356.00
636.8890, 25880.00
638.0530, 26130.00
639.2170, 25881.00
640.3810, 25625.00
641.5450, 25950.00
642.7080, 25887.00
643.8720, 25820.00
645.0350, 25937.00
646.1980, 25896.00
647.3610, 25715.00
648.5240, 25817.00
649.6870, 25674.00
650.8490, 25823.00
652.0120, 25848.00
653.1740, 25843.00
654.3360, 25705.00
655.4980, 25718.00
656.6600, 25621.00
657.8210, 25466.00
658.9830, 25345.00
660.1440, 25694.00
661.3050, 25344.00
662.4660, 25548.00
663.6270, 25436.00
664.7870, 25487.00
665.9480, 25360.00
667.1080, 25426.00
668.2680, 25292.00
669.4280, 25490.00
670.5880, 25443.00
671.7480, 25432.00
672.9070, 25302.00
674.0670, 25257.00
675.2260, 25530.00
676.3850, 25463.00
677.5440, 25508.00
678.7030, 25454.00
679.8610, 25466.00
681.0200, 25440.00
682.1780, 25627.00
683.3360, 25658.00
684.4940, 25758.00
685.6520, 25760.05
686.8090, 25773.65
687.9670, 25745.00
689.1240, 25735.00
690.2810, 25817.00
691.4380, 25768.00
692.5950, 25788.00
693.7520, 25646.00
694.9080, 25857.00
696.0650, 25902.00
697.2210, 26115.00
698.3770, 25671.00
699.5330, 25770.00
700.6880, 25695.00
701.8440, 25940.00
702.9990, 25870.00
704.1550, 25839.00
705.3100, 25975.00
706.4650, 25999.00
707.6190, 26054.00
708.7740, 25925.00
709.9290, 26123.00
711.0830, 26051.00
712.2370, 26286.00
713.3910, 26074.00
714.5450, 26397.00
715.6980, 26456.00
716.8520, 26293.00
718.0050, 26349.00
719.1580, 26384.00
720.3110, 26308.00
721.4640, 26497.00
722.6170, 26523.00
723.7700, 26536.00
724.9220, 26565.20
726.0740, 26474.00
727.2260, 26483.00
728.3780, 26426.00
729.5300, 26333.00
730.6810, 26402.00
731.8330, 26380.00
732.9840, 26410.00
734.1350, 26448.00
735.2860, 26468.17
736.4370, 26510.66
737.5880, 26548.00
738.7380, 26565.00
739.8880, 26606.00
741.0390, 26582.00
742.1890, 26500.00
743.3380, 26612.00
744.4880, 26738.00
745.6380, 26653.00
746.7870, 26676.00
747.9360, 26703.00
749.0850, 26761.00
750.2340, 26831.00
751.3830, 26774.00
752.5310, 26725.00
753.6800, 26768.00
754.8280, 26759.00
755.9760, 26941.00
757.1240, 26978.00
758.2720, 26976.00
759.4190, 26970.00
760.5670, 26978.00
761.7140, 27047.00
762.8610, 27132.00
764.0080, 27191.53
765.1550, 27299.74
766.3020, 27342.00
767.4480, 27437.00
768.5950, 27473.00
769.7410, 27371.00
770.8870, 27351.00
772.0330, 27373.00
773.1780, 27647.00
774.3240, 27631.00
775.4690, 27341.00
776.6140, 27619.00
777.7590, 27464.00
778.9040, 27551.00
780.0490, 27609.00
781.1940, 27537.00
782.3380, 27799.00
783.4820, 27703.36
784.6260, 27807.00
785.7700, 27641.00
786.9140, 27707.00
788.0580, 27628.00
789.2010, 27618.00
790.3450, 27476.00
791.4880, 27483.89
792.6310, 27757.00
793.7730, 27479.00
794.9160, 27567.00
796.0590, 27630.00
797.2010, 27491.00
798.3430, 27548.00
799.4850, 27502.00
800.6270, 27397.00
801.7690, 27562.00
802.9100, 27609.00
804.0520, 27640.00
805.1930, 27650.00
806.3340, 27429.00
807.4750, 27768.00
808.6160, 27447.00
809.7560, 27629.00
810.8970, 27620.00
812.0370, 27574.00
813.1770, 27695.00
814.3170, 27705.00
815.4570, 27691.00
816.5960, 27660.00
817.7360, 27763.00
818.8750, 27903.00
820.0140, 27852.00
821.1530, 27957.00
822.2920, 28000.00
823.4310, 27630.00
824.5690, 27756.00
825.7070, 27614.00
826.8460, 27793.00
827.9840, 27971.00
829.1220, 27963.00
830.2590, 27840.00
831.3970, 28003.00
832.5340, 27759.00
833.6710, 27721.00
834.8080, 27803.00
835.9450, 27973.00
837.0820, 27949.00
838.2190, 27975.00
839.3550, 27866.00
840.4910, 28002.00
841.6270, 28322.00
842.7630, 27982.00
843.8990, 28229.00
845.0350, 28346.00
846.1700, 27982.00
847.3060, 28554.00
848.4410, 28335.00
849.5760, 28290.00
850.7100, 28242.00
851.8450, 28350.00
852.9800, 28264.00
854.1140, 28425.00
855.2480, 28482.00
856.3820, 28403.00
857.5160, 28528.00
858.6500, 28538.00
859.7830, 28573.00
860.9170, 28608.48
862.0500, 28669.00
863.1830, 28617.00
864.3160, 28742.00
865.4480, 28733.00
866.5810, 28405.00
867.7130, 28688.00
868.8460, 28610.00
869.9780, 28461.00
871.1100, 28701.00
872.2410, 28532.00
873.3730, 28666.00
874.5050, 28517.00
875.6360, 28522.00
876.7670, 28799.00
877.8980, 28677.00
879.0290, 28854.00
880.1590, 28588.00
881.2900, 28650.00
882.4200, 28710.00
883.5500, 28838.00
884.6800, 28638.00
885.8100, 28727.00
886.9400, 28935.00
888.0690, 28755.00
889.1990, 28822.00
890.3280, 28771.00
891.4570, 29076.00
892.5860, 28924.00
893.7140, 28956.00
894.8430, 28995.00
895.9710, 28775.00
897.1000, 28884.00
898.2280, 28955.00
899.3560, 28998.00
900.4830, 29056.58
901.6110, 29037.00
902.7380, 29148.00
903.8660, 29160.00
904.9930, 29254.00
906.1200, 29148.00
907.2460, 29167.00
908.3730, 29141.00
909.5000, 29210.00
910.6260, 29362.00
911.7520, 29290.00
912.8780, 29096.00
914.0040, 29229.00
915.1290, 29153.00
916.2550, 29343.00
917.3800, 29327.00
918.5050, 29405.00
919.6300, 29398.00
920.7550, 29433.00
921.8800, 29281.00
923.0040, 29461.00
924.1290, 29129.00
925.2530, 29626.00
926.3770, 29549.00
927.5010, 29398.00
928.6250, 29691.00
929.7480, 29299.00
930.8720, 29718.00
931.9950, 29732.00
933.1180, 29661.00
934.2410, 29735.00
935.3640, 29780.00
936.4860, 29747.00
937.6090, 29914.00
938.7310, 29723.00
939.8530, 29775.00
940.9750, 29680.00
942.0970, 29863.00
943.2180, 29872.00
944.3400, 29988.00
945.4610, 29979.00
946.5820, 29769.00
947.7030, 30010.00
948.8240, 29947.00
949.9450, 29984.00
951.0650, 30064.00
952.1860, 30136.00
953.3060, 30326.00
954.4260, 30475.00
955.5460, 30231.00
956.6650, 30377.00
957.7850, 30012.00
958.9040, 30353.00
960.0230, 30463.00
961.1420, 30250.00
962.2610, 30436.00
963.3800, 30624.00
964.4990, 30533.00
965.6170, 30587.00
966.7350, 30599.68
967.8530, 30602.00
968.9710, 30600.00
970.0890, 30577.00
971.2070, 30635.00
972.3240, 30862.00
973.4410, 30564.00
974.5580, 30847.00
975.6750, 30857.00
976.7920, 30690.00
977.9090, 30775.00
979.0250, 30893.00
980.1410, 31006.00
981.2580, 31093.00
982.3740, 31027.00
983.4890, 31030.00
984.6050, 31260.00
985.7200, 31056.00
986.8360, 31227.00
987.9510, 31366.00
989.0660, 31430.00
990.1810, 31468.81
991.2950, 31412.00
992.4100, 31439.00
993.5240, 31452.00
994.6390, 31428.00
995.7530, 31437.00
996.8660, 31666.00
997.9800, 31711.00
999.0940, 31865.00
1000.207, 31933.00
1001.320, 31959.00
1002.433, 31939.00
1003.546, 32152.00
1004.659, 32156.00
1005.772, 32087.00
1006.884, 31983.00
1007.996, 31879.00
1009.108, 32010.00
1010.220, 31809.00
1011.332, 31988.00
1012.444, 32022.00
1013.555, 32136.00
1014.666, 32312.00
1015.777, 32104.00
1016.888, 32353.00
1017.999, 32231.00
1019.110, 32495.00
1020.220, 32463.00
1021.331, 32452.00
1022.441, 32508.00
1023.551, 32771.00
1024.661, 32496.00
1025.770, 32736.00
1026.880, 32692.00
1027.989, 32723.00
1029.098, 32793.00
1030.207, 32812.00
1031.316, 32717.00
1032.425, 32778.00
1033.533, 32739.00
1034.642, 32581.00
1035.750, 32789.00
1036.858, 33089.00
1037.966, 32916.00
1039.073, 32968.00
1040.181, 32918.00
1041.288, 33207.00
1042.396, 32883.00
1043.503, 33162.00
1044.610, 33593.00
1045.716, 33169.00
1046.823, 33084.00
1047.929, 33088.00
1049.036, 33174.00
1050.142, 33210.00
1051.248, 33201.03
1052.353, 33385.00
1053.459, 33176.00
1054.564, 33177.00
1055.670, 33164.00
1056.775, 33354.00
1057.880, 33048.00
1058.985, 33592.00
1060.089, 33243.00
1061.194, 33382.00
1062.298, 33569.00
1063.402, 33512.00
1064.506, 33468.00
1065.610, 33389.00
1066.713, 33688.00
1067.817, 33401.00
1068.920, 33658.00
1070.023, 33647.00
1071.126, 33684.00
1072.229, 33650.00
1073.332, 33715.00
1074.435, 33736.00
1075.537, 33839.00
1076.639, 33894.00
1077.741, 33966.82
1078.843, 34217.00
1079.945, 34146.00
1081.046, 34347.00
1082.148, 34494.00
1083.249, 34325.00
1084.350, 34646.00
1085.451, 34456.00
1086.551, 34632.00
1087.652, 34707.00
1088.752, 34973.00
1089.853, 35085.00
1090.953, 35133.21
1092.053, 35055.00
1093.152, 35178.00
1094.252, 35215.00
1095.351, 35217.00
1096.451, 35361.09
1097.550, 35322.00
1098.649, 35589.00
1099.748, 35705.00
1100.846, 35810.00
1101.945, 36095.00
1103.043, 35930.00
1104.141, 36128.00
1105.239, 35785.00
1106.337, 36275.00
1107.434, 36149.00
1108.532, 36522.00
1109.629, 36323.00
1110.726, 36492.00
1111.823, 36646.00
1112.920, 36664.00
1114.017, 36726.00
1115.113, 36756.00
1116.210, 36870.72
1117.306, 36953.89
1118.402, 37080.00
1119.498, 37163.00
1120.593, 37180.25
1121.689, 37251.00
1122.784, 37344.00
1123.879, 37313.00
1124.974, 37474.00
1126.069, 37509.00
1127.164, 37829.00
1128.259, 37730.00
1129.353, 37344.00
1130.447, 37586.00
1131.541, 37511.00
1132.635, 37769.00
1133.729, 37829.00
1134.822, 38032.00
1135.916, 37656.00
1137.009, 38060.00
1138.102, 37918.00
1139.195, 37966.00
1140.288, 38263.00
1141.380, 38110.00
1142.473, 38139.00
1143.565, 38197.00
1144.657, 38132.00
1145.749, 38137.00
1146.841, 38272.00
1147.932, 38341.00
1149.024, 38362.00
1150.115, 38427.44
1151.206, 38414.29
1152.297, 38442.00
1153.388, 38392.00
1154.479, 38316.00
1155.569, 38325.00
1156.659, 38252.66
1157.750, 38155.00
1158.839, 38201.00
1159.929, 38215.00
1161.019, 38294.00
1162.108, 38236.22
1163.198, 37957.00
1164.287, 38094.00
1165.376, 37966.00
1166.465, 37813.00
1167.553, 37966.00
1168.642, 38066.00
1169.730, 38051.00
1170.818, 37723.00
1171.906, 37907.00
1172.994, 37710.00
1174.082, 37786.00
1175.170, 37593.00
1176.257, 37569.00
1177.344, 37437.00
1178.431, 37273.00
1179.518, 37441.00
1180.605, 37397.00
1181.691, 37313.00
1182.778, 37222.00
1183.864, 37334.00
1184.950, 36898.00
1186.036, 37042.00
1187.122, 37036.00
1188.207, 36862.00
1189.292, 37105.00
1190.378, 37037.00
1191.463, 36769.00
1192.548, 36774.00
1193.632, 36814.00
1194.717, 36614.00
1195.801, 36428.00
1196.886, 36384.00
1197.970, 36342.00
1199.054, 36299.00
1200.137, 36392.00
1201.221, 36274.59
1202.305, 36071.00
1203.388, 36172.00
1204.471, 36178.00
1205.554, 36243.00
1206.637, 35743.00
1207.719, 35984.00
1208.802, 35693.00
1209.884, 35875.00
1210.966, 35921.00
1212.048, 36244.00
1213.130, 35920.00
1214.212, 35879.00
1215.293, 35723.00
1216.374, 35963.00
1217.456, 35969.00
1218.536, 36015.00
1219.617, 35939.00
1220.698, 36038.00
1221.778, 35944.00
1222.859, 35834.00
1223.939, 35908.00
1225.019, 35828.00
1226.099, 36077.00
1227.178, 36028.00
1228.258, 36037.00
1229.337, 35977.00
1230.417, 35902.00
1231.496, 35909.00
1232.574, 36186.00
1233.653, 35885.00
1234.732, 36217.00
1235.810, 35933.00
1236.888, 35999.00
1237.966, 35987.00
1239.044, 36104.00
1240.122, 35960.00
1241.199, 36125.00
1242.277, 36115.00
1243.354, 36025.00
1244.431, 36044.00
1245.508, 36205.00
1246.585, 36203.00
1247.661, 36148.00
1248.738, 36385.00
1249.814, 36511.00
1250.890, 36262.00
1251.966, 36361.00
1253.042, 36436.00
1254.117, 36354.00
1255.193, 36227.00
1256.268, 36160.00
1257.343, 36331.00
1258.418, 36267.00
1259.493, 36483.00
1260.567, 36356.00
1261.642, 36624.00
1262.716, 36352.00
1263.790, 36793.00
1264.864, 36989.00
1265.938, 36765.00
1267.011, 36800.00
1268.085, 36777.00
1269.158, 36528.00
1270.231, 36751.00
1271.304, 36619.00
1272.377, 36701.00
1273.450, 36610.00
1274.522, 36811.00
1275.594, 36814.00
1276.666, 37037.00
1277.738, 36896.00
1278.810, 36854.00
1279.882, 36813.00
1280.953, 36751.00
1282.025, 36996.00
1283.096, 36629.00
1284.167, 36984.00
1285.238, 36790.00
1286.308, 36841.00
1287.379, 36900.00
1288.449, 37140.00
1289.519, 36902.00
1290.589, 37148.00
1291.659, 37248.00
1292.729, 37285.00
1293.798, 37224.00
1294.868, 37165.00
1295.937, 37413.00
1297.006, 37273.00
1298.075, 37301.00
1299.143, 37433.00
1300.212, 37330.00
1301.280, 37731.00
1302.348, 37274.00
1303.416, 37593.00
1304.484, 37489.00
1305.552, 37577.00
1306.620, 37370.00
