##NAMES=Clinozoisite
##RRUFFID=R040085
##IDEAL CHEMISTRY=Ca_2_Al_3_(Si_2_O_7_)(SiO_4_)O(OH)
##LOCALITY=Alamos, Sonora, Mexico
##OWNER=RRUFF
##SOURCE=University of Arizona Mineral Museum
##DESCRIPTION=Divergent aggregate of red thin prismatic crystals
##STATUS=The identification of this mineral has been confirmed by X-ray diffraction and chemical analysis
##URL=rruff.info/R040085
##MEASURED CHEMISTRY=Ca_2.03_(Al_0.90_Fe_0.13_)_3_(Si_1.00_O_4_)(Si_2.00_O_7_)O(OH)
##PIN_ID=M00391
##ORIENTATION=Laser parallel to c* (0 0 1). Fiducial mark perpendicular to laser is parallel to a [1 0 0]
178.2820, 28442.00
179.5050, 28778.00
180.7290, 28761.00
181.9520, 29101.00
183.1760, 29099.00
184.3990, 29441.00
185.6220, 29592.00
186.8450, 30154.00
188.0670, 30602.00
189.2900, 30514.00
190.5120, 30662.00
191.7340, 30568.00
192.9560, 30406.00
194.1780, 30363.00
195.4000, 30094.00
196.6220, 29667.00
197.8430, 29486.00
199.0640, 29603.00
200.2860, 29413.00
201.5070, 29429.00
202.7270, 29626.00
203.9480, 29580.00
205.1690, 29470.00
206.3890, 29415.00
207.6090, 29383.00
208.8290, 29656.00
210.0490, 29576.94
211.2690, 29767.12
212.4890, 29720.00
213.7080, 30020.00
214.9280, 30268.00
216.1470, 30297.00
217.3660, 30379.00
218.5850, 30493.00
219.8030, 30670.00
221.0220, 30591.00
222.2400, 30795.73
223.4590, 30771.00
224.6770, 31009.00
225.8950, 31153.00
227.1120, 31141.00
228.3300, 31630.00
229.5480, 31979.00
230.7650, 32085.00
231.9820, 32515.00
233.1990, 32699.00
234.4160, 32674.00
235.6330, 32945.00
236.8490, 33160.00
238.0660, 33377.00
239.2820, 33377.79
240.4980, 33504.00
241.7140, 33315.00
242.9300, 33276.00
244.1460, 33300.00
245.3610, 33645.00
246.5770, 34041.00
247.7920, 34546.00
249.0070, 34853.00
250.2220, 35437.00
251.4370, 35622.00
252.6510, 35956.00
253.8660, 36081.00
255.0800, 36098.00
256.2940, 35874.00
257.5080, 36071.00
258.7220, 36122.00
259.9360, 35409.00
261.1490, 34841.00
262.3630, 34617.00
263.5760, 34042.00
264.7890, 34203.00
266.0020, 34148.00
267.2150, 34364.00
268.4270, 34513.00
269.6400, 34331.00
270.8520, 34556.00
272.0640, 34551.00
273.2760, 34439.00
274.4880, 34398.00
275.7000, 34248.00
276.9120, 33702.00
278.1230, 33438.00
279.3340, 32923.00
280.5450, 32738.00
281.7560, 32598.00
282.9670, 32542.00
284.1780, 32344.00
285.3880, 32384.00
286.5980, 32364.00
287.8090, 32430.00
289.0190, 32504.00
290.2290, 32525.00
291.4380, 32557.42
292.6480, 32539.72
293.8570, 32627.00
295.0670, 32495.00
296.2760, 32623.00
297.4850, 32673.00
298.6930, 32344.00
299.9020, 32055.00
301.1110, 32012.00
302.3190, 31971.00
303.5270, 31658.00
304.7350, 31840.00
305.9430, 31895.00
307.1510, 31838.00
308.3580, 31985.00
309.5660, 32005.00
310.7730, 32014.00
311.9800, 32138.00
313.1870, 31868.00
314.3940, 31933.00
315.6010, 31942.00
316.8070, 31912.00
318.0130, 31653.00
319.2200, 31543.00
320.4260, 31571.00
321.6310, 31303.00
322.8370, 31751.00
324.0430, 31552.00
325.2480, 31847.00
326.4540, 31690.00
327.6590, 31968.00
328.8640, 32077.00
330.0680, 32162.00
331.2730, 32282.00
332.4780, 32414.16
333.6820, 32584.88
334.8860, 32763.00
336.0900, 32994.00
337.2940, 33310.00
338.4980, 33573.00
339.7010, 33943.00
340.9050, 34006.00
342.1080, 34168.00
343.3110, 34498.00
344.5140, 34543.00
345.7170, 35481.00
346.9200, 35679.00
348.1220, 35796.00
349.3240, 36006.00
350.5270, 36112.00
351.7290, 36073.00
352.9310, 35917.00
354.1320, 35541.00
355.3340, 34943.00
356.5350, 34293.00
357.7370, 33820.00
358.9380, 33695.00
360.1390, 33074.00
361.3400, 32591.00
362.5400, 32533.00
363.7410, 32075.00
364.9410, 31645.00
366.1410, 31680.00
367.3410, 31591.00
368.5410, 31414.00
369.7410, 31373.00
370.9400, 31195.00
372.1400, 31167.00
373.3390, 31193.00
374.5380, 31154.00
375.7370, 31085.00
376.9360, 30966.00
378.1350, 31231.00
379.3330, 31107.00
380.5310, 31046.00
381.7300, 31418.00
382.9280, 31605.00
384.1260, 31761.00
385.3230, 31801.00
386.5210, 31733.00
387.7180, 32271.00
388.9160, 32445.00
390.1130, 32282.00
391.3100, 32863.00
392.5060, 33078.00
393.7030, 33016.00
394.9000, 33335.00
396.0960, 33125.00
397.2920, 33385.00
398.4880, 33361.00
399.6840, 33400.00
400.8800, 33234.00
402.0750, 33053.23
403.2710, 32749.00
404.4660, 32530.00
405.6610, 32407.00
406.8560, 32165.00
408.0510, 32198.00
409.2450, 32189.00
410.4400, 32382.00
411.6340, 32641.00
412.8280, 32699.00
414.0220, 33004.00
415.2160, 33249.00
416.4100, 33758.00
417.6030, 34086.00
418.7970, 34699.00
419.9900, 35493.00
421.1830, 36075.00
422.3760, 36915.00
423.5690, 37702.00
424.7610, 38272.00
425.9540, 38679.00
427.1460, 38643.00
428.3380, 38681.00
429.5300, 38386.00
430.7220, 37993.00
431.9140, 37577.00
433.1050, 37250.00
434.2970, 37003.46
435.4880, 36678.00
436.6790, 36638.00
437.8700, 36469.00
439.0610, 36362.00
440.2510, 36563.00
441.4420, 36884.00
442.6320, 37333.00
443.8220, 37858.61
445.0120, 38476.00
446.2020, 39255.00
447.3910, 39951.00
448.5810, 40908.00
449.7700, 41672.00
450.9600, 42409.00
452.1490, 41971.00
453.3370, 42316.00
454.5260, 41924.00
455.7150, 41634.00
456.9030, 41002.00
458.0910, 40369.00
459.2800, 39439.00
460.4670, 38875.00
461.6550, 38695.00
462.8430, 38347.00
464.0300, 38198.00
465.2180, 38071.00
466.4050, 37904.00
467.5920, 38131.00
468.7790, 38059.00
469.9650, 38057.00
471.1520, 38199.00
472.3380, 38734.00
473.5250, 38685.00
474.7110, 38583.00
475.8970, 39195.00
477.0820, 38788.00
478.2680, 38957.00
479.4540, 38649.00
480.6390, 38487.00
481.8240, 38149.00
483.0090, 38014.00
484.1940, 37728.00
485.3780, 37520.00
486.5630, 37199.00
487.7470, 36949.00
488.9320, 36711.00
490.1160, 36581.00
491.3000, 36429.00
492.4830, 36210.00
493.6670, 36155.00
494.8500, 36150.00
496.0340, 36051.00
497.2170, 36377.00
498.4000, 36476.00
499.5820, 36394.00
500.7650, 36801.00
501.9480, 37202.00
503.1300, 37449.00
504.3120, 37404.00
505.4940, 37591.00
506.6760, 37924.00
507.8580, 38092.00
509.0390, 37810.00
510.2210, 37597.00
511.4020, 37544.00
512.5830, 37111.00
513.7640, 37028.00
514.9450, 36812.00
516.1250, 36906.00
517.3060, 36591.00
518.4860, 36712.00
519.6660, 36487.00
520.8460, 36341.00
522.0260, 36104.00
523.2060, 36322.00
524.3850, 36063.00
525.5650, 36209.00
526.7440, 36070.00
527.9230, 35820.00
529.1020, 35600.00
530.2810, 35231.00
531.4590, 35635.00
532.6380, 35365.00
533.8160, 35368.00
534.9940, 35107.00
536.1720, 34989.00
537.3500, 34826.00
538.5270, 34855.00
539.7050, 34800.00
540.8820, 34850.00
542.0590, 35057.00
543.2360, 35148.00
544.4130, 34946.00
545.5900, 34902.00
546.7660, 35236.00
547.9430, 35479.00
549.1190, 35434.00
550.2950, 35636.00
551.4710, 35585.00
552.6470, 35951.00
553.8220, 36036.00
554.9980, 36612.00
556.1730, 36782.00
557.3480, 37067.00
558.5230, 37484.00
559.6980, 38151.00
560.8730, 38867.00
562.0470, 39786.00
563.2220, 41105.00
564.3960, 42475.00
565.5700, 44095.00
566.7440, 46384.00
567.9170, 48400.00
569.0910, 50231.00
570.2640, 51151.00
571.4380, 51240.00
572.6110, 50395.00
573.7840, 48481.00
574.9570, 46276.00
576.1290, 44329.00
577.3020, 42295.00
578.4740, 40717.00
579.6460, 39278.00
580.8180, 38797.00
581.9900, 38085.00
583.1620, 37653.00
584.3330, 37812.00
585.5040, 37486.00
586.6760, 37697.00
587.8470, 38043.00
589.0180, 38262.00
590.1880, 38437.00
591.3590, 38820.00
592.5290, 39155.00
593.7000, 39559.00
594.8700, 40019.00
596.0400, 40559.00
597.2090, 41415.00
598.3790, 41972.00
599.5490, 42690.00
600.7180, 43486.00
601.8870, 43931.00
603.0560, 44453.00
604.2250, 44912.00
605.3940, 44413.00
606.5620, 44204.00
607.7300, 43635.00
608.8990, 42716.00
610.0670, 42046.00
611.2350, 41155.00
612.4020, 40667.00
613.5700, 39841.00
614.7370, 39212.00
615.9050, 38886.00
617.0720, 38180.00
618.2390, 38098.00
619.4060, 37763.00
620.5720, 37637.00
621.7390, 37458.92
622.9050, 37391.00
624.0710, 37149.00
625.2370, 36997.00
626.4030, 36887.00
627.5690, 36729.02
628.7340, 36595.00
629.9000, 36452.00
631.0650, 36398.00
632.2300, 36156.00
633.3950, 36192.00
634.5600, 36310.00
635.7240, 36088.00
636.8890, 36070.00
638.0530, 36042.00
639.2170, 36141.00
640.3810, 36011.00
641.5450, 36174.00
642.7080, 36216.00
643.8720, 36268.00
645.0350, 36530.00
646.1980, 36241.00
647.3610, 36316.00
648.5240, 36392.00
649.6870, 36577.00
650.8490, 36677.03
652.0120, 36919.00
653.1740, 36954.00
654.3360, 37217.00
655.4980, 37343.00
656.6600, 37418.00
657.8210, 37504.90
658.9830, 37157.00
660.1440, 37463.00
661.3050, 37271.00
662.4660, 37068.00
663.6270, 37223.00
664.7870, 37106.00
665.9480, 37152.00
667.1080, 37289.00
668.2680, 36876.00
669.4280, 36726.00
670.5880, 36747.00
671.7480, 36519.00
672.9070, 36667.00
674.0670, 36906.00
675.2260, 36725.00
676.3850, 36570.00
677.5440, 36918.00
678.7030, 36695.00
679.8610, 36835.00
681.0200, 37057.00
682.1780, 36621.00
683.3360, 37102.00
684.4940, 37074.00
685.6520, 36658.00
686.8090, 36855.00
687.9670, 37105.00
689.1240, 37306.00
690.2810, 37274.00
691.4380, 37157.00
692.5950, 37235.00
693.7520, 37300.00
694.9080, 37610.00
696.0650, 37650.00
697.2210, 37677.00
698.3770, 37614.00
699.5330, 37598.00
700.6880, 37417.00
701.8440, 37420.00
702.9990, 37491.00
704.1550, 37071.00
705.3100, 37101.00
706.4650, 37042.00
707.6190, 36831.00
708.7740, 36690.00
709.9290, 36628.00
711.0830, 36577.00
712.2370, 36443.00
713.3910, 36381.00
714.5450, 36316.84
715.6980, 36143.00
716.8520, 36217.00
718.0050, 36199.24
719.1580, 36180.00
720.3110, 36276.00
721.4640, 36243.00
722.6170, 36114.00
723.7700, 36192.00
724.9220, 36148.00
726.0740, 36217.00
727.2260, 36132.00
728.3780, 36054.00
729.5300, 36101.32
730.6810, 36042.54
731.8330, 36142.00
732.9840, 36089.00
734.1350, 36125.00
735.2860, 36284.00
736.4370, 36195.79
737.5880, 36321.00
738.7380, 36183.00
739.8880, 36127.00
741.0390, 36214.00
742.1890, 36006.00
743.3380, 36408.00
744.4880, 36355.00
745.6380, 36112.00
746.7870, 36378.00
747.9360, 36542.00
749.0850, 36429.00
750.2340, 36519.00
751.3830, 36469.00
752.5310, 36701.00
753.6800, 36501.00
754.8280, 36577.00
755.9760, 36425.00
757.1240, 36630.00
758.2720, 36593.00
759.4190, 36537.00
760.5670, 36854.00
761.7140, 36845.00
762.8610, 36987.00
764.0080, 37041.86
765.1550, 36814.00
766.3020, 37115.00
767.4480, 36964.00
768.5950, 37100.00
769.7410, 36986.00
770.8870, 37129.00
772.0330, 36851.00
773.1780, 37343.00
774.3240, 37115.00
775.4690, 37228.00
776.6140, 36973.00
777.7590, 37149.00
778.9040, 37030.00
780.0490, 37123.00
781.1940, 37245.00
782.3380, 37123.00
783.4820, 36876.00
784.6260, 37373.00
785.7700, 37321.00
786.9140, 37134.00
788.0580, 37335.00
789.2010, 37535.00
790.3450, 37645.00
791.4880, 37566.00
792.6310, 37335.00
793.7730, 37635.00
794.9160, 37820.00
796.0590, 37607.00
797.2010, 37756.00
798.3430, 37615.00
799.4850, 37643.00
800.6270, 37755.00
801.7690, 37797.00
802.9100, 37866.00
804.0520, 37702.00
805.1930, 37998.00
806.3340, 37768.00
807.4750, 38012.00
808.6160, 37998.00
809.7560, 38169.00
810.8970, 38258.00
812.0370, 38431.00
813.1770, 38481.00
814.3170, 38335.00
815.4570, 38441.00
816.5960, 38474.00
817.7360, 38370.00
818.8750, 38464.00
820.0140, 38546.85
821.1530, 38496.00
822.2920, 38819.00
823.4310, 38960.00
824.5690, 39105.00
825.7070, 39313.50
826.8460, 39534.00
827.9840, 39600.00
829.1220, 39774.00
830.2590, 39856.00
831.3970, 39825.00
832.5340, 39989.00
833.6710, 40119.00
834.8080, 40107.00
835.9450, 40228.76
837.0820, 40028.00
838.2190, 40286.00
839.3550, 40228.00
840.4910, 40126.00
841.6270, 40392.00
842.7630, 40329.00
843.8990, 40379.00
845.0350, 40417.00
846.1700, 40484.00
847.3060, 40469.00
848.4410, 40532.00
849.5760, 40566.00
850.7100, 40663.77
851.8450, 41025.00
852.9800, 40957.00
854.1140, 41270.00
855.2480, 41558.00
856.3820, 41415.00
857.5160, 41474.00
858.6500, 41528.00
859.7830, 41523.00
860.9170, 41864.00
862.0500, 42129.00
863.1830, 42384.00
864.3160, 42519.00
865.4480, 42894.00
866.5810, 43042.00
867.7130, 43303.00
868.8460, 43742.00
869.9780, 43803.00
871.1100, 44075.00
872.2410, 44179.00
873.3730, 44770.00
874.5050, 44641.00
875.6360, 45123.00
876.7670, 45069.00
877.8980, 45001.00
879.0290, 45370.00
880.1590, 45349.00
881.2900, 45369.00
882.4200, 45367.00
883.5500, 45480.00
884.6800, 45378.00
885.8100, 45151.00
886.9400, 45194.00
888.0690, 45018.00
889.1990, 45104.00
890.3280, 44926.00
891.4570, 45137.00
892.5860, 45458.00
893.7140, 45179.00
894.8430, 45582.00
895.9710, 45984.00
897.1000, 46436.00
898.2280, 46949.02
899.3560, 47129.00
900.4830, 47947.00
901.6110, 48483.00
902.7380, 48783.00
903.8660, 49590.00
904.9930, 50753.00
906.1200, 51551.00
907.2460, 52414.00
908.3730, 53134.00
909.5000, 54063.00
910.6260, 54493.00
911.7520, 55175.00
912.8780, 55498.00
914.0040, 55585.00
915.1290, 55270.00
916.2550, 55325.00
917.3800, 55130.00
918.5050, 54634.00
919.6300, 54343.00
920.7550, 53681.00
921.8800, 53279.00
923.0040, 52959.00
924.1290, 52444.00
925.2530, 52158.00
926.3770, 51870.00
927.5010, 51392.00
928.6250, 51113.00
929.7480, 50448.00
930.8720, 50260.00
931.9950, 50323.00
933.1180, 49940.00
934.2410, 49149.00
935.3640, 48843.00
936.4860, 48070.00
937.6090, 48052.00
938.7310, 47645.00
939.8530, 47274.00
940.9750, 46806.00
942.0970, 46875.00
943.2180, 46517.00
944.3400, 46263.64
945.4610, 46175.23
946.5820, 45929.00
947.7030, 45918.00
948.8240, 46226.00
949.9450, 46262.00
951.0650, 45992.00
952.1860, 46068.00
953.3060, 45993.00
954.4260, 46231.00
955.5460, 45956.00
956.6650, 45818.00
957.7850, 45676.00
958.9040, 45496.00
960.0230, 45419.00
961.1420, 45419.00
962.2610, 45171.00
963.3800, 45386.00
964.4990, 45104.00
965.6170, 44982.00
966.7350, 45064.00
967.8530, 44967.00
968.9710, 44771.00
970.0890, 44708.00
971.2070, 44730.36
972.3240, 44826.90
973.4410, 44969.00
974.5580, 45264.00
975.6750, 45630.00
976.7920, 45974.00
977.9090, 46297.00
979.0250, 46993.00
980.1410, 47230.00
981.2580, 47746.00
982.3740, 48487.00
983.4890, 48642.00
984.6050, 48727.00
985.7200, 48641.00
986.8360, 48617.00
987.9510, 48201.00
989.0660, 47202.00
990.1810, 46846.00
991.2950, 46222.00
992.4100, 45717.00
993.5240, 45424.00
994.6390, 44983.00
995.7530, 44611.00
996.8660, 44316.00
997.9800, 44557.00
999.0940, 44315.00
1000.207, 44204.00
1001.320, 43897.00
1002.433, 43875.00
1003.546, 43878.00
1004.659, 43937.00
1005.772, 43444.00
1006.884, 43186.00
1007.996, 43468.00
1009.108, 43142.00
1010.220, 43205.00
1011.332, 43179.00
1012.444, 43109.00
1013.555, 43282.00
1014.666, 43367.00
1015.777, 43329.00
1016.888, 43456.00
1017.999, 43349.00
1019.110, 43416.40
1020.220, 43388.00
1021.331, 43555.00
1022.441, 43572.00
1023.551, 43816.00
1024.661, 43685.00
1025.770, 43968.00
1026.880, 44085.00
1027.989, 44098.00
1029.098, 43988.00
1030.207, 44018.00
1031.316, 44277.00
1032.425, 44461.00
1033.533, 44276.00
1034.642, 44268.00
1035.750, 44380.00
1036.858, 44847.00
1037.966, 44946.00
1039.073, 44917.00
1040.181, 45194.00
1041.288, 45036.00
1042.396, 45427.00
1043.503, 45151.00
1044.610, 45299.00
1045.716, 45639.00
1046.823, 45241.00
1047.929, 45291.00
1049.036, 45312.00
1050.142, 45520.00
1051.248, 45512.00
1052.353, 45584.00
1053.459, 45340.00
1054.564, 45423.00
1055.670, 45513.00
1056.775, 45056.00
1057.880, 45562.00
1058.985, 45319.00
1060.089, 45038.00
1061.194, 44986.00
1062.298, 45215.00
1063.402, 45015.00
1064.506, 44715.00
1065.610, 45461.00
1066.713, 45097.00
1067.817, 45409.00
1068.920, 45534.00
1070.023, 45606.00
1071.126, 45860.00
1072.229, 46137.00
1073.332, 46400.00
1074.435, 46665.00
1075.537, 47023.00
1076.639, 47288.49
1077.741, 47667.00
1078.843, 47941.00
1079.945, 48184.00
1081.046, 48615.00
1082.148, 49236.00
1083.249, 49722.00
1084.350, 49694.00
1085.451, 50893.00
1086.551, 51413.00
1087.652, 52504.00
1088.752, 53646.00
1089.853, 54595.00
1090.953, 55541.00
1092.053, 56414.00
1093.152, 57018.00
1094.252, 56581.00
1095.351, 56176.00
1096.451, 55256.00
1097.550, 53711.00
1098.649, 52553.00
1099.748, 51150.00
1100.846, 49844.00
1101.945, 49122.00
1103.043, 48314.00
1104.141, 47610.00
1105.239, 47216.00
1106.337, 47071.00
1107.434, 46795.00
1108.532, 46597.00
1109.629, 46228.00
1110.726, 46502.00
1111.823, 46265.00
1112.920, 46128.00
1114.017, 45868.00
1115.113, 45933.00
1116.210, 45913.00
1117.306, 45862.00
1118.402, 45985.00
1119.498, 45840.00
1120.593, 45825.00
1121.689, 45814.00
1122.784, 45994.00
1123.879, 45987.00
1124.974, 46118.00
1126.069, 45971.00
1127.164, 46144.00
1128.259, 46197.00
1129.353, 46043.00
1130.447, 45921.00
1131.541, 45953.00
1132.635, 46077.00
1133.729, 46423.00
1134.822, 46153.00
1135.916, 46188.00
1137.009, 45953.00
1138.102, 46196.00
1139.195, 46184.00
1140.288, 45977.00
1141.380, 46192.00
1142.473, 46121.00
1143.565, 46276.00
1144.657, 46402.00
1145.749, 46254.00
1146.841, 46373.00
1147.932, 46267.00
1149.024, 46392.00
1150.115, 46489.00
1151.206, 46396.00
1152.297, 46466.00
1153.388, 46315.00
1154.479, 46408.00
1155.569, 46458.00
1156.659, 46561.00
1157.750, 46454.00
1158.839, 46231.00
1159.929, 46447.00
1161.019, 46609.00
1162.108, 46779.00
1163.198, 46545.00
1164.287, 46527.00
1165.376, 46983.00
1166.465, 46965.00
1167.553, 46567.00
1168.642, 47000.00
1169.730, 46915.00
1170.818, 46904.00
1171.906, 47020.00
1172.994, 47050.00
1174.082, 46925.00
1175.170, 46837.00
1176.257, 46864.00
1177.344, 46838.77
1178.431, 46909.06
1179.518, 46953.00
1180.605, 47114.00
1181.691, 47265.00
1182.778, 47405.00
1183.864, 47428.00
1184.950, 47123.00
1186.036, 47212.00
1187.122, 47275.00
1188.207, 47644.00
1189.292, 47308.00
1190.378, 47455.00
1191.463, 47310.00
1192.548, 47435.00
1193.632, 47316.00
1194.717, 47557.00
1195.801, 47653.00
1196.886, 47556.00
1197.970, 47557.00
1199.054, 47645.00
1200.137, 47603.00
1201.221, 47475.00
1202.305, 47675.00
1203.388, 48003.00
1204.471, 47988.00
1205.554, 47650.00
1206.637, 47982.00
1207.719, 47740.00
1208.802, 48212.00
1209.884, 47769.00
1210.966, 48052.00
1212.048, 48245.00
1213.130, 47898.00
1214.212, 47660.00
1215.293, 48429.00
1216.374, 48208.00
1217.456, 47966.00
1218.536, 48276.00
1219.617, 48178.00
1220.698, 48181.00
1221.778, 48165.00
1222.859, 48550.00
1223.939, 48195.00
1225.019, 48564.00
1226.099, 48534.00
1227.178, 48447.00
1228.258, 48504.00
1229.337, 48488.63
1230.417, 48490.70
1231.496, 48571.00
1232.574, 48556.00
1233.653, 48650.00
1234.732, 48759.00
1235.810, 48881.00
1236.888, 48760.00
1237.966, 48688.00
1239.044, 48989.00
1240.122, 48839.00
1241.199, 48972.00
1242.277, 49130.00
1243.354, 49082.00
1244.431, 49385.00
1245.508, 49113.00
1246.585, 49043.00
1247.661, 49265.00
1248.738, 49025.00
1249.814, 49378.00
1250.890, 49159.00
1251.966, 49307.00
1253.042, 49223.00
1254.117, 49159.00
1255.193, 48980.00
1256.268, 49248.00
1257.343, 49131.00
1258.418, 49225.00
1259.493, 49234.00
1260.567, 49158.00
1261.642, 49718.00
1262.716, 49708.00
1263.790, 49765.00
1264.864, 49897.00
1265.938, 49895.00
1267.011, 49585.00
1268.085, 50023.00
1269.158, 49763.00
1270.231, 49881.00
1271.304, 50143.00
1272.377, 50146.00
1273.450, 50102.00
1274.522, 50031.00
1275.594, 49863.00
1276.666, 50112.00
1277.738, 50161.00
1278.810, 49929.00
1279.882, 50312.00
1280.953, 50000.00
1282.025, 50118.00
1283.096, 50404.00
1284.167, 50150.00
1285.238, 50382.00
1286.308, 50298.00
1287.379, 50692.00
1288.449, 50242.00
1289.519, 50183.00
1290.589, 50545.00
1291.659, 50624.00
1292.729, 50485.00
1293.798, 50403.00
1294.868, 50633.00
1295.937, 50620.00
1297.006, 50911.00
1298.075, 50835.00
1299.143, 50679.00
1300.212, 50689.00
1301.280, 50729.00
1302.348, 50545.00
1303.416, 51106.00
1304.484, 51076.00
1305.552, 50590.00
1306.620, 51267.00
1307.687, 50942.00
1308.754, 50911.00
1309.821, 51574.00
1310.888, 51259.00
1311.955, 51248.00
1313.021, 51210.00
1314.088, 51476.00
1315.154, 51348.00
1316.220, 51473.00
1317.286, 51683.00
1318.352, 51550.00
1319.417, 51764.00
1320.483, 51748.00
1321.548, 51743.00
1322.613, 51775.00
1323.678, 51785.91
1324.743, 51844.28
1325.807, 51848.64
1326.872, 51869.00
1327.936, 51904.00
1329.000, 51888.00
1330.064, 51866.01
1331.128, 51843.00
1332.191, 51810.00
1333.255, 51875.00
1334.318, 51921.00
1335.381, 51862.00
1336.444, 52017.00
1337.507, 52010.00
1338.569, 52129.00
1339.632, 52020.00
1340.694, 52155.00
1341.756, 52237.00
1342.818, 52256.00
1343.880, 52320.45
1344.941, 52210.00
