##NAMES=Clinozoisite
##RRUFFID=R060284
##IDEAL CHEMISTRY=Ca_2_Al_3_(Si_2_O_7_)(SiO_4_)O(OH)
##LOCALITY=near Zagi Mountain, Khaffor Dehri, North-West Frontier Province, Pakistan
##OWNER=RRUFF
##SOURCE=Herb Obodda
##DESCRIPTION=Greenish-brown fragment of a prismatic crystal
##STATUS=The identification of this mineral has been confirmed by X-ray diffraction and chemical analysis
##URL=rruff.info/R060284
##MEASURED CHEMISTRY=Ca_2.00_(Al_0.90_Fe^3+^_0.10_)_3_(Si_1.00_O_4_)(Si_2.00_O_7_)O(OH)
##PIN_ID=L00766
##ORIENTATION=Laser parallel to b* (0 1 0). Fiducial mark perpendicular to laser is parallel to c [0 0 1]
118.1340, 17552.00
119.3650, 17813.73
120.5960, 17897.00
121.8270, 18461.00
123.0580, 18930.00
124.2880, 19355.00
125.5190, 20182.00
126.7490, 20813.00
127.9790, 21713.00
129.2090, 22977.00
130.4390, 24297.00
131.6680, 25621.00
132.8980, 26768.00
134.1270, 28139.00
135.3560, 29537.00
136.5850, 31036.00
137.8140, 31666.00
139.0430, 32701.00
140.2710, 32742.00
141.5000, 32914.00
142.7280, 32371.00
143.9560, 31913.00
145.1840, 30902.00
146.4120, 30058.00
147.6390, 29348.00
148.8670, 28771.00
150.0940, 28172.00
151.3210, 28010.00
152.5490, 27546.00
153.7750, 27355.00
155.0020, 27098.00
156.2290, 26918.00
157.4550, 27011.00
158.6810, 26945.00
159.9080, 27101.00
161.1340, 27129.00
162.3590, 27477.00
163.5850, 27558.00
164.8110, 27668.00
166.0360, 27344.00
167.2610, 27037.00
168.4860, 26504.00
169.7110, 25630.00
170.9360, 24982.00
172.1610, 24036.00
173.3850, 22970.00
174.6100, 21839.00
175.8340, 21046.00
177.0580, 20013.00
178.2820, 19209.00
179.5050, 18646.00
180.7290, 17747.00
181.9520, 17437.00
183.1760, 17085.00
184.3990, 16699.00
185.6220, 16565.00
186.8450, 16380.00
188.0670, 16162.00
189.2900, 16219.00
190.5120, 16265.00
191.7340, 16183.00
192.9560, 16200.00
194.1780, 16404.00
195.4000, 16474.00
196.6220, 16544.00
197.8430, 16704.00
199.0640, 16845.00
200.2860, 17111.00
201.5070, 17371.00
202.7270, 17649.00
203.9480, 17960.00
205.1690, 18066.00
206.3890, 18246.00
207.6090, 18574.00
208.8290, 18815.00
210.0490, 19239.00
211.2690, 19298.00
212.4890, 19624.00
213.7080, 19753.00
214.9280, 19848.00
216.1470, 19897.00
217.3660, 20169.00
218.5850, 20325.00
219.8030, 20404.00
221.0220, 20753.00
222.2400, 20991.00
223.4590, 21324.00
224.6770, 21778.00
225.8950, 22145.00
227.1120, 22345.00
228.3300, 22942.00
229.5480, 23415.00
230.7650, 23665.00
231.9820, 24438.00
233.1990, 24623.00
234.4160, 25269.00
235.6330, 25277.00
236.8490, 25578.00
238.0660, 25957.00
239.2820, 26532.00
240.4980, 27478.00
241.7140, 28625.00
242.9300, 29789.00
244.1460, 31547.00
245.3610, 33558.00
246.5770, 35577.00
247.7920, 37823.00
249.0070, 39885.00
250.2220, 42037.00
251.4370, 43883.00
252.6510, 44873.00
253.8660, 45342.00
255.0800, 44943.00
256.2940, 44201.00
257.5080, 42756.00
258.7220, 41355.00
259.9360, 38996.00
261.1490, 36649.00
262.3630, 34803.00
263.5760, 33226.00
264.7890, 32318.00
266.0020, 31628.00
267.2150, 31074.00
268.4270, 31472.00
269.6400, 31376.00
270.8520, 32012.00
272.0640, 32223.00
273.2760, 32824.00
274.4880, 32635.00
275.7000, 31903.00
276.9120, 31245.00
278.1230, 29811.00
279.3340, 28510.00
280.5450, 26751.00
281.7560, 25117.00
282.9670, 23947.00
284.1780, 22808.00
285.3880, 21996.00
286.5980, 21601.00
287.8090, 21232.00
289.0190, 20813.00
290.2290, 20807.00
291.4380, 20922.00
292.6480, 20845.00
293.8570, 20910.00
295.0670, 21175.00
296.2760, 20986.00
297.4850, 21438.00
298.6930, 21607.00
299.9020, 21401.00
301.1110, 21596.00
302.3190, 21427.00
303.5270, 21584.00
304.7350, 21328.00
305.9430, 21326.00
307.1510, 21059.00
308.3580, 21149.00
309.5660, 21052.00
310.7730, 20864.00
311.9800, 20863.00
313.1870, 20718.00
314.3940, 20665.00
315.6010, 20720.00
316.8070, 20688.00
318.0130, 20374.00
319.2200, 20462.00
320.4260, 20530.00
321.6310, 20884.00
322.8370, 20849.00
324.0430, 21187.00
325.2480, 21325.00
326.4540, 21721.00
327.6590, 22176.00
328.8640, 22756.00
330.0680, 22749.00
331.2730, 23307.00
332.4780, 23499.00
333.6820, 23836.00
334.8860, 24100.00
336.0900, 24115.00
337.2940, 24542.00
338.4980, 24764.00
339.7010, 25271.00
340.9050, 26003.00
342.1080, 26685.00
343.3110, 27657.04
344.5140, 28752.17
345.7170, 29905.00
346.9200, 31111.00
348.1220, 32526.00
349.3240, 33469.00
350.5270, 34099.00
351.7290, 34338.59
352.9310, 34173.34
354.1320, 33639.00
355.3340, 32662.00
356.5350, 31267.00
357.7370, 29405.00
358.9380, 27559.00
360.1390, 26112.00
361.3400, 24686.00
362.5400, 23413.00
363.7410, 22522.00
364.9410, 21850.00
366.1410, 21200.00
367.3410, 20539.00
368.5410, 20105.00
369.7410, 19728.00
370.9400, 19406.00
372.1400, 19032.00
373.3390, 18874.00
374.5380, 18750.00
375.7370, 18439.00
376.9360, 18377.00
378.1350, 18499.00
379.3330, 18368.00
380.5310, 18613.00
381.7300, 18925.00
382.9280, 19191.00
384.1260, 19472.00
385.3230, 19997.00
386.5210, 20734.00
387.7180, 21150.00
388.9160, 21880.00
390.1130, 22433.00
391.3100, 23250.00
392.5060, 23704.00
393.7030, 24218.00
394.9000, 24846.00
396.0960, 24964.00
397.2920, 24622.00
398.4880, 24759.00
399.6840, 24397.00
400.8800, 23824.00
402.0750, 23222.00
403.2710, 22608.00
404.4660, 21698.00
405.6610, 21350.00
406.8560, 20702.00
408.0510, 20767.00
409.2450, 20479.00
410.4400, 20632.00
411.6340, 20987.00
412.8280, 21516.00
414.0220, 22256.00
415.2160, 23436.00
416.4100, 24862.00
417.6030, 26527.00
418.7970, 28703.00
419.9900, 31105.00
421.1830, 33742.00
422.3760, 36651.00
423.5690, 39151.00
424.7610, 41967.00
425.9540, 43981.00
427.1460, 45656.00
428.3380, 46050.00
429.5300, 45933.00
430.7220, 45177.00
431.9140, 43834.00
433.1050, 42221.00
434.2970, 40870.00
435.4880, 39350.00
436.6790, 38702.00
437.8700, 38371.00
439.0610, 38716.00
440.2510, 39894.00
441.4420, 41563.00
442.6320, 43823.00
443.8220, 46377.00
445.0120, 49434.00
446.2020, 52749.00
447.3910, 55759.00
448.5810, 58801.00
449.7700, 61350.00
450.9600, 63163.00
452.1490, 64204.00
453.3370, 63992.00
454.5260, 62715.00
455.7150, 61216.00
456.9030, 58543.00
458.0910, 55424.00
459.2800, 52172.00
460.4670, 48782.00
461.6550, 46240.00
462.8430, 44014.00
464.0300, 41768.00
465.2180, 40348.00
466.4050, 39791.00
467.5920, 38674.00
468.7790, 38502.00
469.9650, 38291.00
471.1520, 38181.00
472.3380, 38002.00
473.5250, 37797.71
474.7110, 37581.00
475.8970, 37397.00
477.0820, 37228.00
478.2680, 37064.00
479.4540, 36769.00
480.6390, 36931.00
481.8240, 36776.00
483.0090, 36514.00
484.1940, 36143.00
485.3780, 35724.21
486.5630, 35288.00
487.7470, 34613.00
488.9320, 33792.00
490.1160, 33035.00
491.3000, 32281.00
492.4830, 31633.00
493.6670, 30992.58
494.8500, 30386.00
496.0340, 29896.00
497.2170, 29473.79
498.4000, 29100.00
499.5820, 28885.00
500.7650, 28722.00
501.9480, 28747.26
503.1300, 29029.00
504.3120, 29093.00
505.4940, 29533.00
506.6760, 29925.00
507.8580, 30305.00
509.0390, 30884.00
510.2210, 31373.00
511.4020, 31935.00
512.5830, 32509.00
513.7640, 32941.00
514.9450, 33183.00
516.1250, 33741.00
517.3060, 34267.00
518.4860, 34412.00
519.6660, 34615.00
520.8460, 34744.00
522.0260, 34967.00
523.2060, 35077.00
524.3850, 35544.00
525.5650, 35534.00
526.7440, 35658.00
527.9230, 35513.00
529.1020, 35233.00
530.2810, 34498.00
531.4590, 33555.00
532.6380, 31785.00
533.8160, 30429.00
534.9940, 28733.00
536.1720, 27222.00
537.3500, 25751.00
538.5270, 25273.00
539.7050, 24564.00
540.8820, 24244.00
542.0590, 24100.00
543.2360, 24048.00
544.4130, 23704.00
545.5900, 23916.00
546.7660, 23969.00
547.9430, 23928.00
549.1190, 24198.00
550.2950, 24485.00
551.4710, 25076.00
552.6470, 25209.00
553.8220, 25784.00
554.9980, 26333.00
556.1730, 26855.00
557.3480, 27887.00
558.5230, 28862.00
559.6980, 30247.00
560.8730, 31846.00
562.0470, 34429.00
563.2220, 37513.00
564.3960, 41121.00
565.5700, 44736.00
566.7440, 48891.00
567.9170, 53047.00
569.0910, 57347.00
570.2640, 60083.00
571.4380, 60489.00
572.6110, 58606.00
573.7840, 55435.00
574.9570, 50701.00
576.1290, 45047.00
577.3020, 39618.00
578.4740, 34369.00
579.6460, 30747.00
580.8180, 28179.00
581.9900, 26377.00
583.1620, 25208.00
584.3330, 24523.00
585.5040, 24084.00
586.6760, 24180.00
587.8470, 24264.00
589.0180, 24422.00
590.1880, 24769.00
591.3590, 25263.00
592.5290, 25888.00
593.7000, 26851.00
594.8700, 27755.00
596.0400, 28642.00
597.2090, 30235.00
598.3790, 31615.00
599.5490, 33152.00
600.7180, 34505.00
601.8870, 36158.00
603.0560, 37283.00
604.2250, 37956.00
605.3940, 38172.72
606.5620, 38213.00
607.7300, 37191.00
608.8990, 36012.00
610.0670, 34374.00
611.2350, 32660.00
612.4020, 30465.00
613.5700, 28595.00
614.7370, 27147.00
615.9050, 25787.00
617.0720, 24693.00
618.2390, 23530.00
619.4060, 22935.00
620.5720, 22384.00
621.7390, 21492.00
622.9050, 21555.00
624.0710, 20666.00
625.2370, 20448.00
626.4030, 20079.00
627.5690, 19829.00
628.7340, 19523.00
629.9000, 19382.00
631.0650, 19266.00
632.2300, 18791.00
633.3950, 18682.00
634.5600, 18569.00
635.7240, 18297.00
636.8890, 18182.00
638.0530, 17950.00
639.2170, 17700.00
640.3810, 17725.00
641.5450, 17621.00
642.7080, 17583.00
643.8720, 17643.00
645.0350, 17720.00
646.1980, 17539.00
647.3610, 17536.00
648.5240, 17778.00
649.6870, 18031.00
650.8490, 18305.00
652.0120, 18544.00
653.1740, 18881.00
654.3360, 19119.00
655.4980, 19217.00
656.6600, 19683.00
657.8210, 19806.00
658.9830, 20072.00
660.1440, 20420.00
661.3050, 20361.00
662.4660, 20383.00
663.6270, 20636.00
664.7870, 20610.00
665.9480, 20846.00
667.1080, 20428.00
668.2680, 20581.00
669.4280, 20405.00
670.5880, 20218.00
671.7480, 20145.00
672.9070, 20091.00
674.0670, 19956.00
675.2260, 19792.00
676.3850, 19839.00
677.5440, 19909.92
678.7030, 20275.00
679.8610, 20293.00
681.0200, 20418.00
682.1780, 20702.00
683.3360, 20861.00
684.4940, 20968.00
685.6520, 21132.00
686.8090, 21144.00
687.9670, 21527.00
689.1240, 21225.00
690.2810, 21343.00
691.4380, 21394.00
692.5950, 21206.00
693.7520, 21173.00
694.9080, 21214.00
696.0650, 21202.00
697.2210, 21080.00
698.3770, 20841.00
699.5330, 20612.00
700.6880, 20292.00
701.8440, 20185.00
702.9990, 19711.00
704.1550, 19444.00
705.3100, 19081.00
706.4650, 18629.00
707.6190, 18311.00
708.7740, 17972.00
709.9290, 17547.00
711.0830, 17437.00
712.2370, 17110.82
713.3910, 16949.00
714.5450, 16724.00
715.6980, 16615.00
716.8520, 16570.00
718.0050, 16474.00
719.1580, 16310.00
720.3110, 16279.00
721.4640, 16227.00
722.6170, 16305.00
723.7700, 16182.00
724.9220, 16140.00
726.0740, 16038.00
727.2260, 16065.00
728.3780, 16047.00
729.5300, 16111.00
730.6810, 16117.00
731.8330, 15988.00
732.9840, 15912.00
734.1350, 15989.00
735.2860, 16006.00
736.4370, 16021.00
737.5880, 16040.00
738.7380, 16100.00
739.8880, 15828.00
741.0390, 16097.00
742.1890, 15875.00
743.3380, 15874.00
744.4880, 15893.00
745.6380, 15754.00
746.7870, 15704.00
747.9360, 15879.00
749.0850, 15741.00
750.2340, 15968.00
751.3830, 15844.00
752.5310, 15806.00
753.6800, 15886.00
754.8280, 15835.00
755.9760, 15860.00
757.1240, 15933.00
758.2720, 15875.00
759.4190, 15955.00
760.5670, 15982.65
761.7140, 15935.00
762.8610, 16066.00
764.0080, 15939.00
765.1550, 15948.00
766.3020, 15990.00
767.4480, 15971.00
768.5950, 16173.00
769.7410, 16063.00
770.8870, 15913.00
772.0330, 16210.00
773.1780, 16160.00
774.3240, 16175.00
775.4690, 16131.00
776.6140, 16233.00
777.7590, 16235.00
778.9040, 16294.00
780.0490, 16324.00
781.1940, 16326.65
782.3380, 16240.00
783.4820, 16376.00
784.6260, 16319.00
785.7700, 16428.00
786.9140, 16336.00
788.0580, 16193.00
789.2010, 16436.00
790.3450, 16491.00
791.4880, 16448.00
792.6310, 16593.00
793.7730, 16538.00
794.9160, 16677.00
796.0590, 16557.00
797.2010, 16651.00
798.3430, 16750.00
799.4850, 16824.00
800.6270, 16909.00
801.7690, 16819.00
802.9100, 16851.00
804.0520, 16782.00
805.1930, 17012.00
806.3340, 16992.00
807.4750, 17112.00
808.6160, 17116.00
809.7560, 17356.00
810.8970, 17297.00
812.0370, 17350.00
813.1770, 17634.00
814.3170, 17846.00
815.4570, 17927.00
816.5960, 17814.00
817.7360, 18239.00
818.8750, 18417.00
820.0140, 18540.00
821.1530, 18987.00
822.2920, 19019.00
823.4310, 19618.00
824.5690, 19975.00
825.7070, 20287.00
826.8460, 20777.00
827.9840, 21011.00
829.1220, 21299.00
830.2590, 21602.00
831.3970, 21803.00
832.5340, 22018.00
833.6710, 22154.00
834.8080, 22210.00
835.9450, 22103.00
837.0820, 21917.00
838.2190, 22016.00
839.3550, 21935.00
840.4910, 22054.00
841.6270, 21978.18
842.7630, 21639.00
843.8990, 21900.00
845.0350, 21740.00
846.1700, 21787.00
847.3060, 21752.00
848.4410, 22150.00
849.5760, 22188.00
850.7100, 22655.00
851.8450, 22458.00
852.9800, 22972.00
854.1140, 23184.00
855.2480, 23472.00
856.3820, 23962.00
857.5160, 24236.00
858.6500, 24463.00
859.7830, 24767.00
860.9170, 25293.00
862.0500, 25652.00
863.1830, 26042.00
864.3160, 26529.00
865.4480, 27324.00
866.5810, 28083.65
867.7130, 28694.99
868.8460, 29897.00
869.9780, 30116.00
871.1100, 30817.00
872.2410, 31670.00
873.3730, 32721.00
874.5050, 33617.00
875.6360, 34449.00
876.7670, 35371.00
877.8980, 36164.00
879.0290, 36354.00
880.1590, 36703.00
881.2900, 36378.00
882.4200, 35649.00
883.5500, 34815.00
884.6800, 33908.00
885.8100, 32964.00
886.9400, 31669.00
888.0690, 30900.00
889.1990, 29905.00
890.3280, 29099.00
891.4570, 28488.00
892.5860, 28026.00
893.7140, 27817.00
894.8430, 27560.00
895.9710, 27808.00
897.1000, 27662.00
898.2280, 28358.00
899.3560, 28574.00
900.4830, 29165.00
901.6110, 29801.00
902.7380, 30475.00
903.8660, 31598.00
904.9930, 32471.00
906.1200, 33648.00
907.2460, 35009.00
908.3730, 36158.00
909.5000, 37551.00
910.6260, 38467.00
911.7520, 39866.00
912.8780, 40655.00
914.0040, 41315.00
915.1290, 41945.00
916.2550, 42077.00
917.3800, 42148.00
918.5050, 41926.00
919.6300, 41659.00
920.7550, 41068.00
921.8800, 40742.00
923.0040, 40287.00
924.1290, 39933.00
925.2530, 39032.00
926.3770, 38584.00
927.5010, 38072.00
928.6250, 37090.00
929.7480, 36866.00
930.8720, 36553.00
931.9950, 35837.00
933.1180, 35370.00
934.2410, 35015.00
935.3640, 34323.00
936.4860, 33749.00
937.6090, 33689.00
938.7310, 32745.00
939.8530, 32484.00
940.9750, 31597.00
942.0970, 30972.00
943.2180, 30389.00
944.3400, 29767.00
945.4610, 29340.00
946.5820, 28631.00
947.7030, 28361.00
948.8240, 27834.00
949.9450, 27211.00
951.0650, 27222.00
952.1860, 27083.00
953.3060, 26858.00
954.4260, 26947.00
955.5460, 27096.00
956.6650, 27195.00
957.7850, 27183.00
958.9040, 27475.00
960.0230, 27594.00
961.1420, 27603.00
962.2610, 27422.00
963.3800, 27554.00
964.4990, 27659.00
965.6170, 27373.00
966.7350, 27022.00
967.8530, 26608.00
968.9710, 26568.00
970.0890, 26327.00
971.2070, 26099.00
972.3240, 26324.00
973.4410, 26495.00
974.5580, 26771.00
975.6750, 27291.00
976.7920, 28316.00
977.9090, 29121.00
979.0250, 30406.00
980.1410, 31541.00
981.2580, 32917.00
982.3740, 34369.00
983.4890, 35051.00
984.6050, 35641.00
985.7200, 35641.00
986.8360, 35164.00
987.9510, 34461.00
989.0660, 32843.00
990.1810, 31434.00
991.2950, 30017.00
992.4100, 28811.00
993.5240, 27327.00
994.6390, 26352.00
995.7530, 25083.00
996.8660, 24690.00
997.9800, 23871.00
999.0940, 23121.00
1000.207, 22781.00
1001.320, 22408.00
1002.433, 22163.00
1003.546, 21883.00
1004.659, 21507.00
1005.772, 21139.00
1006.884, 20719.00
1007.996, 20668.00
1009.108, 20395.00
1010.220, 20301.00
1011.332, 20255.00
1012.444, 20065.00
1013.555, 19976.00
1014.666, 19973.00
1015.777, 19890.23
1016.888, 20027.00
1017.999, 19924.00
1019.110, 20005.00
1020.220, 20173.00
1021.331, 20231.00
1022.441, 20320.98
1023.551, 20367.00
1024.661, 20503.00
1025.770, 20574.00
1026.880, 20762.00
1027.989, 20947.00
1029.098, 20991.00
1030.207, 21196.00
1031.316, 21309.00
1032.425, 21490.53
1033.533, 21818.00
1034.642, 21949.00
1035.750, 22252.00
1036.858, 22623.00
1037.966, 22879.00
1039.073, 23437.00
1040.181, 23931.00
1041.288, 24203.00
1042.396, 24519.00
1043.503, 24997.00
1044.610, 25288.00
1045.716, 25614.00
1046.823, 25857.00
1047.929, 26112.00
1049.036, 25934.00
1050.142, 25822.00
1051.248, 25825.00
1052.353, 25653.00
1053.459, 25271.00
1054.564, 25075.00
1055.670, 24903.00
1056.775, 24677.00
1057.880, 24529.00
1058.985, 24140.00
1060.089, 24108.00
1061.194, 23837.00
1062.298, 23862.00
1063.402, 24239.00
1064.506, 24101.00
1065.610, 24299.00
1066.713, 24811.00
1067.817, 25472.00
1068.920, 25131.00
1070.023, 25749.00
1071.126, 26475.00
1072.229, 26960.00
1073.332, 27893.00
1074.435, 28621.00
1075.537, 29273.00
1076.639, 30672.00
1077.741, 32038.00
1078.843, 33061.00
1079.945, 34201.00
1081.046, 35718.00
1082.148, 37051.00
1083.249, 38850.00
1084.350, 40975.00
1085.451, 43502.00
1086.551, 46137.00
1087.652, 49232.00
1088.752, 52215.00
1089.853, 55895.00
1090.953, 58303.00
1092.053, 60818.00
1093.152, 61761.00
1094.252, 61558.00
1095.351, 59442.00
1096.451, 56129.00
1097.550, 51241.00
1098.649, 46416.00
1099.748, 41818.00
1100.846, 37202.00
1101.945, 33835.00
1103.043, 31147.00
1104.141, 28582.00
1105.239, 27264.00
1106.337, 25721.00
1107.434, 24812.00
1108.532, 24088.00
1109.629, 23291.00
1110.726, 22852.00
1111.823, 22411.00
1112.920, 22282.00
1114.017, 21906.00
1115.113, 21991.00
1116.210, 21578.00
1117.306, 21641.00
1118.402, 21384.00
1119.498, 21412.00
1120.593, 21307.00
1121.689, 21158.00
1122.784, 21297.00
1123.879, 21040.00
1124.974, 20976.00
1126.069, 20857.00
1127.164, 20750.00
1128.259, 20544.00
1129.353, 20368.00
1130.447, 20326.60
1131.541, 20223.61
1132.635, 20252.00
1133.729, 20224.00
1134.822, 20210.00
1135.916, 20358.00
1137.009, 20289.00
1138.102, 19918.00
1139.195, 20146.00
1140.288, 20300.00
1141.380, 20026.00
1142.473, 20295.00
1143.565, 19946.00
1144.657, 20091.00
1145.749, 20009.00
1146.841, 19903.00
1147.932, 19936.00
1149.024, 19922.00
1150.115, 19883.26
1151.206, 19856.00
1152.297, 19860.00
1153.388, 19777.00
1154.479, 19791.00
1155.569, 19842.00
1156.659, 19622.00
1157.750, 19798.00
1158.839, 19769.00
1159.929, 19562.00
1161.019, 19694.00
1162.108, 19636.00
1163.198, 19524.00
1164.287, 19559.00
1165.376, 19514.00
1166.465, 19495.43
1167.553, 19581.00
1168.642, 19456.00
1169.730, 19482.00
1170.818, 19406.00
1171.906, 19531.00
1172.994, 19581.00
1174.082, 19493.00
1175.170, 19643.00
1176.257, 19500.00
1177.344, 19409.00
1178.431, 19614.00
1179.518, 19533.00
1180.605, 19512.00
1181.691, 19561.00
1182.778, 19365.00
1183.864, 19491.00
1184.950, 19603.00
1186.036, 19521.00
1187.122, 19469.00
1188.207, 19387.00
1189.292, 19425.00
1190.378, 19662.00
1191.463, 19474.00
1192.548, 19502.00
1193.632, 19622.00
1194.717, 19520.00
1195.801, 19495.00
1196.886, 19565.00
1197.970, 19621.00
1199.054, 19407.00
1200.137, 19449.00
1201.221, 19320.00
1202.305, 19455.00
1203.388, 19469.00
1204.471, 19489.00
1205.554, 19504.00
1206.637, 19597.00
1207.719, 19456.00
1208.802, 19459.00
1209.884, 19639.00
1210.966, 19492.00
1212.048, 19583.00
1213.130, 19531.00
1214.212, 19628.00
1215.293, 19574.00
1216.374, 19464.00
1217.456, 19624.00
1218.536, 19551.00
1219.617, 19547.00
1220.698, 19590.00
1221.778, 19659.00
1222.859, 19579.00
1223.939, 19748.00
1225.019, 19716.00
1226.099, 19593.00
1227.178, 19577.00
1228.258, 19693.00
1229.337, 19713.00
1230.417, 19771.00
1231.496, 19715.00
1232.574, 19714.00
1233.653, 19771.00
1234.732, 19760.00
1235.810, 19663.00
1236.888, 19725.00
1237.966, 19891.00
1239.044, 19926.00
1240.122, 19789.00
1241.199, 19899.00
1242.277, 19644.00
1243.354, 19920.00
1244.431, 19893.00
1245.508, 19757.00
1246.585, 19728.00
1247.661, 19892.00
1248.738, 19816.00
1249.814, 19894.00
1250.890, 19920.00
1251.966, 19954.00
1253.042, 19814.00
1254.117, 19854.00
1255.193, 19806.00
1256.268, 19854.00
1257.343, 19966.00
1258.418, 19739.00
1259.493, 19756.00
1260.567, 19799.00
1261.642, 19903.00
1262.716, 19965.00
1263.790, 20042.00
1264.864, 19953.00
1265.938, 20040.00
1267.011, 19990.00
1268.085, 20022.00
1269.158, 20396.00
1270.231, 20069.00
1271.304, 20118.00
1272.377, 19894.00
1273.450, 20133.00
1274.522, 20037.00
1275.594, 20187.00
1276.666, 20219.00
1277.738, 20137.00
1278.810, 20205.00
1279.882, 20366.00
1280.953, 20122.00
1282.025, 20001.00
1283.096, 20071.00
1284.167, 20207.00
1285.238, 20129.00
1286.308, 20066.00
1287.379, 20122.00
1288.449, 20117.00
1289.519, 20210.00
1290.589, 20146.00
1291.659, 20249.00
