##NAMES=Clinozoisite
##RRUFFID=R060284
##IDEAL CHEMISTRY=Ca_2_Al_3_(Si_2_O_7_)(SiO_4_)O(OH)
##LOCALITY=near Zagi Mountain, Khaffor Dehri, North-West Frontier Province, Pakistan
##OWNER=RRUFF
##SOURCE=Herb Obodda
##DESCRIPTION=Greenish-brown fragment of a prismatic crystal
##STATUS=The identification of this mineral has been confirmed by X-ray diffraction and chemical analysis
##URL=rruff.info/R060284
##MEASURED CHEMISTRY=Ca_2.00_(Al_0.90_Fe^3+^_0.10_)_3_(Si_1.00_O_4_)(Si_2.00_O_7_)O(OH)
##PIN_ID=L00506
##ORIENTATION=Laser parallel to -a* (-1 0 0). Fiducial mark perpendicular to laser is parallel to b [0 1 0]
118.1340, 12380.00
119.3650, 12327.00
120.5960, 12497.00
121.8270, 12365.00
123.0580, 12662.00
124.2880, 12886.00
125.5190, 12825.00
126.7490, 13032.00
127.9790, 13322.00
129.2090, 13798.00
130.4390, 14167.00
131.6680, 14528.00
132.8980, 15011.00
134.1270, 15594.00
135.3560, 16315.00
136.5850, 17012.00
137.8140, 17804.00
139.0430, 18467.00
140.2710, 18987.00
141.5000, 19535.00
142.7280, 19482.00
143.9560, 20076.00
145.1840, 20082.00
146.4120, 19900.00
147.6390, 20121.00
148.8670, 20212.00
150.0940, 20124.00
151.3210, 20380.00
152.5490, 20436.00
153.7750, 20247.00
155.0020, 20439.00
156.2290, 20482.00
157.4550, 20720.00
158.6810, 20830.00
159.9080, 21060.00
161.1340, 21386.00
162.3590, 21796.00
163.5850, 22072.00
164.8110, 22537.00
166.0360, 22746.00
167.2610, 22919.00
168.4860, 22868.00
169.7110, 22730.96
170.9360, 22507.59
172.1610, 22076.00
173.3850, 21623.00
174.6100, 21039.00
175.8340, 20189.00
177.0580, 19505.00
178.2820, 18777.00
179.5050, 17955.00
180.7290, 17207.00
181.9520, 16584.00
183.1760, 16140.00
184.3990, 15689.00
185.6220, 15555.00
186.8450, 15220.00
188.0670, 15080.00
189.2900, 14954.00
190.5120, 14737.00
191.7340, 14761.00
192.9560, 14612.00
194.1780, 14859.00
195.4000, 14833.00
196.6220, 14715.00
197.8430, 15011.00
199.0640, 15122.00
200.2860, 15292.00
201.5070, 15335.00
202.7270, 15629.00
203.9480, 15601.00
205.1690, 15837.00
206.3890, 15996.00
207.6090, 16184.00
208.8290, 16337.62
210.0490, 16496.00
211.2690, 16608.00
212.4890, 16828.00
213.7080, 16958.00
214.9280, 17106.00
216.1470, 17067.00
217.3660, 17098.00
218.5850, 17226.00
219.8030, 17322.85
221.0220, 17451.00
222.2400, 17707.00
223.4590, 17948.00
224.6770, 18265.00
225.8950, 18686.00
227.1120, 19245.30
228.3300, 19969.00
229.5480, 20669.00
230.7650, 21649.00
231.9820, 22637.00
233.1990, 23705.00
234.4160, 24445.00
235.6330, 25159.00
236.8490, 25725.00
238.0660, 26138.00
239.2820, 26428.00
240.4980, 26963.00
241.7140, 27013.00
242.9300, 27644.00
244.1460, 28317.00
245.3610, 29386.00
246.5770, 30658.00
247.7920, 32293.00
249.0070, 33526.00
250.2220, 35100.00
251.4370, 36630.00
252.6510, 37504.00
253.8660, 38235.00
255.0800, 38301.00
256.2940, 37577.00
257.5080, 36536.00
258.7220, 35660.00
259.9360, 33901.00
261.1490, 32124.00
262.3630, 30330.00
263.5760, 29409.00
264.7890, 28508.00
266.0020, 28096.00
267.2150, 27767.00
268.4270, 27696.00
269.6400, 27880.00
270.8520, 27751.00
272.0640, 27993.00
273.2760, 28216.00
274.4880, 28067.00
275.7000, 27508.00
276.9120, 26984.00
278.1230, 26132.00
279.3340, 25282.00
280.5450, 24355.00
281.7560, 23807.00
282.9670, 23058.00
284.1780, 22588.00
285.3880, 21751.00
286.5980, 21679.00
287.8090, 21261.00
289.0190, 20904.00
290.2290, 20825.00
291.4380, 20815.00
292.6480, 20691.00
293.8570, 20696.00
295.0670, 20432.00
296.2760, 20567.00
297.4850, 20411.00
298.6930, 20470.00
299.9020, 20267.00
301.1110, 20337.00
302.3190, 20306.00
303.5270, 20150.00
304.7350, 20288.00
305.9430, 20267.00
307.1510, 20240.00
308.3580, 20538.00
309.5660, 20403.00
310.7730, 20664.00
311.9800, 20599.00
313.1870, 20733.00
314.3940, 20830.00
315.6010, 20777.00
316.8070, 20947.00
318.0130, 20952.00
319.2200, 21193.00
320.4260, 21469.00
321.6310, 21575.00
322.8370, 22004.00
324.0430, 22426.00
325.2480, 22901.00
326.4540, 23212.00
327.6590, 24083.00
328.8640, 24435.00
330.0680, 25312.00
331.2730, 26637.00
332.4780, 27429.00
333.6820, 28471.00
334.8860, 29510.00
336.0900, 30446.00
337.2940, 31662.00
338.4980, 32785.00
339.7010, 33819.00
340.9050, 35149.00
342.1080, 36383.00
343.3110, 37651.00
344.5140, 39164.00
345.7170, 40958.00
346.9200, 42783.00
348.1220, 44498.00
349.3240, 46184.00
350.5270, 47224.00
351.7290, 47073.00
352.9310, 46563.00
354.1320, 44626.00
355.3340, 41806.00
356.5350, 38745.00
357.7370, 35694.00
358.9380, 32576.00
360.1390, 29804.00
361.3400, 27450.00
362.5400, 25462.00
363.7410, 23774.00
364.9410, 22633.00
366.1410, 22014.00
367.3410, 21196.00
368.5410, 20602.00
369.7410, 19919.00
370.9400, 19552.00
372.1400, 18995.00
373.3390, 18699.00
374.5380, 18288.00
375.7370, 17969.00
376.9360, 17862.00
378.1350, 17529.00
379.3330, 17483.00
380.5310, 17558.00
381.7300, 17657.00
382.9280, 17813.00
384.1260, 18096.00
385.3230, 18502.00
386.5210, 18954.00
387.7180, 18832.00
388.9160, 19071.00
390.1130, 19086.00
391.3100, 18992.00
392.5060, 19098.00
393.7030, 19172.00
394.9000, 19220.00
396.0960, 19189.00
397.2920, 18971.00
398.4880, 18700.00
399.6840, 18455.62
400.8800, 18063.00
402.0750, 17784.00
403.2710, 17290.00
404.4660, 16914.00
405.6610, 16736.00
406.8560, 16398.00
408.0510, 16394.00
409.2450, 16203.00
410.4400, 16152.00
411.6340, 16331.00
412.8280, 16544.31
414.0220, 16794.00
415.2160, 17399.00
416.4100, 18011.00
417.6030, 18667.00
418.7970, 19425.00
419.9900, 20402.00
421.1830, 21810.00
422.3760, 22840.00
423.5690, 23979.00
424.7610, 25404.00
425.9540, 26290.00
427.1460, 27277.00
428.3380, 27547.00
429.5300, 27780.00
430.7220, 27344.00
431.9140, 27363.00
433.1050, 26946.00
434.2970, 26917.00
435.4880, 27042.00
436.6790, 27130.00
437.8700, 27855.00
439.0610, 29099.00
440.2510, 30515.00
441.4420, 32381.00
442.6320, 34819.00
443.8220, 37789.00
445.0120, 40855.00
446.2020, 44497.00
447.3910, 48423.00
448.5810, 52132.00
449.7700, 55428.00
450.9600, 58137.00
452.1490, 59914.00
453.3370, 60396.00
454.5260, 59778.00
455.7150, 58317.00
456.9030, 55629.00
458.0910, 52529.00
459.2800, 49641.00
460.4670, 46440.00
461.6550, 43942.00
462.8430, 41928.00
464.0300, 40258.00
465.2180, 38946.00
466.4050, 38493.00
467.5920, 37906.00
468.7790, 37170.00
469.9650, 37081.00
471.1520, 37055.00
472.3380, 36861.00
473.5250, 37076.00
474.7110, 36780.00
475.8970, 36991.00
477.0820, 37296.00
478.2680, 36855.00
479.4540, 37252.00
480.6390, 37072.00
481.8240, 37021.00
483.0090, 36403.00
484.1940, 35919.00
485.3780, 35230.00
486.5630, 34256.00
487.7470, 32729.00
488.9320, 31317.00
490.1160, 30091.00
491.3000, 28688.00
492.4830, 27348.00
493.6670, 26328.00
494.8500, 25587.00
496.0340, 25007.00
497.2170, 24454.00
498.4000, 24212.00
499.5820, 24252.00
500.7650, 24209.00
501.9480, 24669.00
503.1300, 24966.00
504.3120, 25433.00
505.4940, 25435.00
506.6760, 25882.00
507.8580, 26092.00
509.0390, 25990.00
510.2210, 25982.00
511.4020, 25914.00
512.5830, 25727.00
513.7640, 26118.00
514.9450, 26175.00
516.1250, 26271.00
517.3060, 26184.00
518.4860, 26692.00
519.6660, 26601.00
520.8460, 26722.00
522.0260, 26439.00
523.2060, 26312.00
524.3850, 26255.00
525.5650, 26196.00
526.7440, 25948.00
527.9230, 25782.00
529.1020, 25381.00
530.2810, 24824.00
531.4590, 24166.00
532.6380, 23380.00
533.8160, 22289.00
534.9940, 21405.00
536.1720, 20572.00
537.3500, 19797.00
538.5270, 19182.00
539.7050, 18888.00
540.8820, 18499.00
542.0590, 18195.00
543.2360, 17855.00
544.4130, 17805.00
545.5900, 17784.00
546.7660, 17774.00
547.9430, 17983.00
549.1190, 18012.00
550.2950, 18213.00
551.4710, 18486.00
552.6470, 18626.00
553.8220, 19156.00
554.9980, 19683.00
556.1730, 20382.00
557.3480, 20904.00
558.5230, 21978.00
559.6980, 23294.00
560.8730, 24893.00
562.0470, 26867.00
563.2220, 29411.00
564.3960, 32602.00
565.5700, 35827.00
566.7440, 39931.00
567.9170, 44447.00
569.0910, 49137.00
570.2640, 52866.00
571.4380, 54574.00
572.6110, 53093.00
573.7840, 49354.00
574.9570, 44657.00
576.1290, 39263.00
577.3020, 34447.00
578.4740, 30505.00
579.6460, 27162.00
580.8180, 25363.00
581.9900, 24031.00
583.1620, 23197.00
584.3330, 22670.00
585.5040, 22854.00
586.6760, 23387.00
587.8470, 23399.00
589.0180, 24103.00
590.1880, 24470.00
591.3590, 25106.00
592.5290, 25930.00
593.7000, 26801.00
594.8700, 27530.00
596.0400, 28399.00
597.2090, 29565.00
598.3790, 30457.00
599.5490, 31353.00
600.7180, 32749.00
601.8870, 33417.00
603.0560, 34409.00
604.2250, 34690.00
605.3940, 34774.00
606.5620, 34512.00
607.7300, 33247.00
608.8990, 32079.00
610.0670, 30676.00
611.2350, 29126.00
612.4020, 27494.00
613.5700, 26382.00
614.7370, 24998.00
615.9050, 24007.00
617.0720, 23094.00
618.2390, 22386.00
619.4060, 21562.00
620.5720, 20843.00
621.7390, 19979.00
622.9050, 19393.00
624.0710, 18723.00
625.2370, 18102.00
626.4030, 17933.00
627.5690, 17597.00
628.7340, 17543.00
629.9000, 17105.00
631.0650, 16862.00
632.2300, 16723.00
633.3950, 16713.00
634.5600, 16673.00
635.7240, 16540.00
636.8890, 16575.00
638.0530, 16468.00
639.2170, 16292.00
640.3810, 16618.00
641.5450, 16239.00
642.7080, 16430.00
643.8720, 16569.00
645.0350, 16743.00
646.1980, 16908.00
647.3610, 17182.08
648.5240, 17465.54
649.6870, 17814.00
650.8490, 18212.00
652.0120, 18626.00
653.1740, 19166.00
654.3360, 19404.00
655.4980, 19550.00
656.6600, 19795.00
657.8210, 19773.00
658.9830, 19617.00
660.1440, 19439.00
661.3050, 19012.00
662.4660, 18894.00
663.6270, 18529.00
664.7870, 18387.00
665.9480, 18028.00
667.1080, 18026.00
668.2680, 17656.00
669.4280, 17469.00
670.5880, 17623.00
671.7480, 17406.00
672.9070, 17353.00
674.0670, 17366.00
675.2260, 17339.00
676.3850, 17392.00
677.5440, 17426.98
678.7030, 17722.00
679.8610, 17628.00
681.0200, 17748.00
682.1780, 18031.00
683.3360, 18100.00
684.4940, 18095.00
685.6520, 18390.00
686.8090, 18295.00
687.9670, 18435.00
689.1240, 18338.00
690.2810, 18548.00
691.4380, 18622.00
692.5950, 18548.00
693.7520, 18642.00
694.9080, 18681.00
696.0650, 18776.00
697.2210, 19041.00
698.3770, 19160.00
699.5330, 19191.00
700.6880, 19062.00
701.8440, 19067.00
702.9990, 18941.00
704.1550, 18831.00
705.3100, 18576.00
706.4650, 18429.00
707.6190, 18062.35
708.7740, 17455.00
709.9290, 17249.00
711.0830, 16893.00
712.2370, 16414.00
713.3910, 16414.00
714.5450, 16181.00
715.6980, 16046.00
716.8520, 15939.34
718.0050, 15887.00
719.1580, 15714.00
720.3110, 15577.00
721.4640, 15547.00
722.6170, 15439.00
723.7700, 15269.00
724.9220, 15362.00
726.0740, 15235.00
727.2260, 15416.00
728.3780, 15338.00
729.5300, 15129.00
730.6810, 15157.00
731.8330, 15100.19
732.9840, 15311.00
734.1350, 15144.00
735.2860, 15175.00
736.4370, 15265.00
737.5880, 15222.00
738.7380, 15083.00
739.8880, 15187.00
741.0390, 15218.00
742.1890, 15163.00
743.3380, 15221.00
744.4880, 15164.77
745.6380, 15067.00
746.7870, 15040.00
747.9360, 15073.00
749.0850, 14935.00
750.2340, 15034.00
751.3830, 15036.00
752.5310, 15064.00
753.6800, 14986.00
754.8280, 15115.00
755.9760, 15013.00
757.1240, 15026.00
758.2720, 15048.00
759.4190, 14976.00
760.5670, 15000.72
761.7140, 14864.00
762.8610, 14993.00
764.0080, 15124.00
765.1550, 15144.00
766.3020, 15025.00
767.4480, 15193.00
768.5950, 15136.00
769.7410, 15156.00
770.8870, 15132.00
772.0330, 15331.00
773.1780, 15211.00
774.3240, 15334.00
775.4690, 15281.00
776.6140, 15234.00
777.7590, 15210.00
778.9040, 15159.00
780.0490, 15212.00
781.1940, 15301.00
782.3380, 15325.00
783.4820, 15299.00
784.6260, 15230.00
785.7700, 15412.00
786.9140, 15291.00
788.0580, 15400.00
789.2010, 15480.00
790.3450, 15417.00
791.4880, 15543.00
792.6310, 15539.00
793.7730, 15500.00
794.9160, 15572.00
796.0590, 15683.00
797.2010, 15801.00
798.3430, 15609.00
799.4850, 15740.00
800.6270, 15818.00
801.7690, 15836.00
802.9100, 15972.00
804.0520, 16010.37
805.1930, 15988.00
806.3340, 16141.00
807.4750, 16203.00
808.6160, 16271.04
809.7560, 16298.00
810.8970, 16359.00
812.0370, 16364.00
813.1770, 16399.00
814.3170, 16553.00
815.4570, 16715.00
816.5960, 16929.00
817.7360, 16958.00
818.8750, 17120.00
820.0140, 17428.08
821.1530, 17432.57
822.2920, 17560.81
823.4310, 17658.00
824.5690, 17680.00
825.7070, 17915.00
826.8460, 18067.00
827.9840, 18230.00
829.1220, 18227.00
830.2590, 18614.00
831.3970, 18441.00
832.5340, 18763.00
833.6710, 18912.00
834.8080, 19051.00
835.9450, 19039.00
837.0820, 19266.00
838.2190, 19378.00
839.3550, 19692.00
840.4910, 19734.00
841.6270, 19850.00
842.7630, 20071.00
843.8990, 20196.00
845.0350, 20507.00
846.1700, 20779.00
847.3060, 21086.00
848.4410, 21316.00
849.5760, 21546.00
850.7100, 21895.00
851.8450, 22072.00
852.9800, 22691.00
854.1140, 22813.00
855.2480, 23603.00
856.3820, 24065.00
857.5160, 24699.00
858.6500, 25148.00
859.7830, 26081.00
860.9170, 26780.00
862.0500, 27535.00
863.1830, 28340.00
864.3160, 29520.00
865.4480, 30618.00
866.5810, 31980.00
867.7130, 33310.00
868.8460, 34543.00
869.9780, 35799.39
871.1100, 36926.67
872.2410, 38149.00
873.3730, 39141.00
874.5050, 40188.00
875.6360, 41364.00
876.7670, 42312.00
877.8980, 43036.96
879.0290, 43656.00
880.1590, 44081.00
881.2900, 44418.00
882.4200, 44468.00
883.5500, 44200.00
884.6800, 43586.00
885.8100, 43404.00
886.9400, 42773.00
888.0690, 42857.00
889.1990, 42603.00
890.3280, 43104.00
891.4570, 43122.00
892.5860, 43840.00
893.7140, 44501.00
894.8430, 44972.00
895.9710, 45096.00
897.1000, 45060.00
898.2280, 45470.00
899.3560, 44872.00
900.4830, 44629.00
901.6110, 44324.00
902.7380, 44288.00
903.8660, 44298.00
904.9930, 45038.00
906.1200, 45678.00
907.2460, 47000.00
908.3730, 48050.00
909.5000, 49452.00
910.6260, 50172.00
911.7520, 51238.00
912.8780, 51915.00
914.0040, 51523.00
915.1290, 51138.00
916.2550, 49893.00
917.3800, 48814.00
918.5050, 47487.00
919.6300, 46042.00
920.7550, 44384.00
921.8800, 43046.00
923.0040, 41866.00
924.1290, 40525.00
925.2530, 39644.00
926.3770, 38272.00
927.5010, 37268.00
928.6250, 36512.00
929.7480, 35725.00
930.8720, 34672.00
931.9950, 33794.79
933.1180, 32588.00
934.2410, 31721.00
935.3640, 30607.00
936.4860, 29391.00
937.6090, 28506.00
938.7310, 27483.29
939.8530, 26562.00
940.9750, 25752.00
942.0970, 25029.00
943.2180, 24368.00
944.3400, 24003.00
945.4610, 23215.00
946.5820, 22962.00
947.7030, 22786.00
948.8240, 22309.00
949.9450, 22204.00
951.0650, 21889.00
952.1860, 21804.00
953.3060, 21670.00
954.4260, 21528.00
955.5460, 21504.00
956.6650, 21611.00
957.7850, 21727.00
958.9040, 21707.00
960.0230, 21643.00
961.1420, 21735.00
962.2610, 21813.00
963.3800, 21887.29
964.4990, 22036.98
965.6170, 22124.00
966.7350, 22348.00
967.8530, 22473.00
968.9710, 22638.00
970.0890, 22687.00
971.2070, 22907.00
972.3240, 23537.00
973.4410, 23791.00
974.5580, 24497.00
975.6750, 25013.00
976.7920, 25939.00
977.9090, 27240.00
979.0250, 28478.00
980.1410, 29865.00
981.2580, 31269.00
982.3740, 32840.00
983.4890, 33884.00
984.6050, 34293.00
985.7200, 34478.00
986.8360, 33915.00
987.9510, 32637.00
989.0660, 31438.00
990.1810, 29998.00
991.2950, 28542.00
992.4100, 27221.00
993.5240, 25822.00
994.6390, 24863.00
995.7530, 23882.00
996.8660, 23319.00
997.9800, 22517.00
999.0940, 21762.00
1000.207, 21661.00
1001.320, 21159.00
1002.433, 20948.00
1003.546, 20662.00
1004.659, 20548.00
1005.772, 20284.00
1006.884, 20063.00
1007.996, 19937.00
1009.108, 19771.16
1010.220, 19604.00
1011.332, 19596.00
1012.444, 19561.00
1013.555, 19573.00
1014.666, 19683.00
1015.777, 19556.00
1016.888, 19616.00
1017.999, 19927.00
1019.110, 19880.00
1020.220, 20019.00
1021.331, 20352.00
1022.441, 20743.00
1023.551, 20853.00
1024.661, 21225.00
1025.770, 21500.00
1026.880, 21862.00
1027.989, 22212.00
1029.098, 22609.00
1030.207, 22652.00
1031.316, 22741.00
1032.425, 22548.00
1033.533, 22641.00
1034.642, 22420.00
1035.750, 22231.00
1036.858, 22252.00
1037.966, 22185.00
1039.073, 22444.00
1040.181, 22360.00
1041.288, 22384.00
1042.396, 22334.00
1043.503, 22593.00
1044.610, 22415.00
1045.716, 22534.00
1046.823, 22387.00
1047.929, 22542.00
1049.036, 22357.00
1050.142, 22321.00
1051.248, 22115.00
1052.353, 21910.00
1053.459, 21866.00
1054.564, 21576.00
1055.670, 21414.00
1056.775, 21212.00
1057.880, 21109.00
1058.985, 20981.00
1060.089, 20772.00
1061.194, 20596.00
1062.298, 20607.00
1063.402, 20395.00
1064.506, 20331.00
1065.610, 20438.00
1066.713, 20611.00
1067.817, 20445.00
1068.920, 20658.00
1070.023, 20777.00
1071.126, 20707.00
1072.229, 20727.00
1073.332, 21099.00
1074.435, 21421.00
1075.537, 21701.00
1076.639, 21718.00
1077.741, 22400.00
1078.843, 22760.00
1079.945, 23198.00
1081.046, 23825.00
1082.148, 24348.00
1083.249, 25037.00
1084.350, 25971.00
1085.451, 27075.00
1086.551, 28202.00
1087.652, 29663.00
1088.752, 31228.00
1089.853, 32862.00
1090.953, 34360.00
1092.053, 35874.00
1093.152, 36629.00
1094.252, 36637.00
1095.351, 35977.00
1096.451, 34653.00
1097.550, 32245.00
1098.649, 30087.00
1099.748, 27966.00
1100.846, 26465.00
1101.945, 25166.00
1103.043, 23999.00
1104.141, 23247.00
1105.239, 22674.00
1106.337, 22172.00
1107.434, 22094.00
1108.532, 21595.00
1109.629, 21518.00
1110.726, 21437.00
1111.823, 21314.00
1112.920, 21135.00
1114.017, 20987.00
1115.113, 20875.00
1116.210, 20956.00
1117.306, 20978.00
1118.402, 20936.00
1119.498, 21173.00
1120.593, 21011.00
1121.689, 21064.00
1122.784, 20939.00
1123.879, 20813.00
1124.974, 20700.00
1126.069, 20624.00
1127.164, 20197.00
1128.259, 20176.00
1129.353, 19792.00
1130.447, 19902.00
1131.541, 19928.00
1132.635, 19762.00
1133.729, 19856.00
1134.822, 19650.00
1135.916, 19660.00
1137.009, 19624.00
1138.102, 19458.00
1139.195, 19616.00
1140.288, 19508.00
1141.380, 19584.00
1142.473, 19356.00
1143.565, 19591.00
1144.657, 19800.00
1145.749, 19524.00
1146.841, 19517.00
1147.932, 19570.00
1149.024, 19639.00
1150.115, 19597.00
1151.206, 19621.00
1152.297, 19589.00
1153.388, 19547.00
1154.479, 19655.00
1155.569, 19561.00
1156.659, 19479.00
1157.750, 19644.00
1158.839, 19401.00
1159.929, 19467.00
1161.019, 19387.00
1162.108, 19534.00
1163.198, 19541.00
1164.287, 19592.00
1165.376, 19490.00
1166.465, 19546.00
1167.553, 19502.00
1168.642, 19570.00
1169.730, 19527.00
1170.818, 19663.00
1171.906, 19565.00
1172.994, 19490.00
1174.082, 19644.00
1175.170, 19351.00
1176.257, 19557.00
1177.344, 19594.00
1178.431, 19381.00
1179.518, 19526.00
1180.605, 19674.00
1181.691, 19624.00
1182.778, 19460.00
1183.864, 19509.00
1184.950, 19590.00
1186.036, 19479.57
1187.122, 19739.00
1188.207, 19510.00
1189.292, 19392.00
1190.378, 19671.00
1191.463, 19674.00
1192.548, 19667.00
1193.632, 19661.00
1194.717, 19646.00
1195.801, 19614.00
1196.886, 19838.00
1197.970, 19793.00
1199.054, 19791.00
1200.137, 19626.00
1201.221, 19623.00
1202.305, 19635.74
1203.388, 19896.00
1204.471, 19655.00
1205.554, 19745.00
1206.637, 19625.00
1207.719, 19810.00
1208.802, 19907.00
1209.884, 19619.00
1210.966, 19602.00
1212.048, 19725.00
1213.130, 19975.00
1214.212, 19699.00
1215.293, 19769.00
1216.374, 19911.00
1217.456, 19731.00
1218.536, 19813.00
1219.617, 19723.00
1220.698, 19869.00
1221.778, 19991.00
1222.859, 19707.00
1223.939, 19823.00
1225.019, 19961.00
1226.099, 19882.00
1227.178, 19855.00
1228.258, 19836.00
1229.337, 19893.00
1230.417, 19937.00
1231.496, 19963.00
1232.574, 19981.00
1233.653, 19868.00
1234.732, 20054.00
1235.810, 20055.00
1236.888, 19945.00
1237.966, 19840.00
1239.044, 20014.00
1240.122, 19808.00
1241.199, 19873.00
1242.277, 20057.00
1243.354, 20028.00
1244.431, 19877.00
1245.508, 20106.00
1246.585, 20058.00
1247.661, 19894.00
1248.738, 19965.00
1249.814, 20101.00
1250.890, 20141.00
1251.966, 20021.00
1253.042, 19953.00
1254.117, 19963.00
1255.193, 19988.00
1256.268, 19988.00
1257.343, 20166.00
1258.418, 20082.00
1259.493, 20174.00
1260.567, 20044.00
1261.642, 20134.00
1262.716, 20050.00
1263.790, 20128.00
1264.864, 20000.00
1265.938, 20043.00
1267.011, 20179.00
1268.085, 20250.00
1269.158, 20137.00
1270.231, 20123.00
1271.304, 20269.00
1272.377, 20353.00
1273.450, 20288.00
1274.522, 20246.00
1275.594, 20254.00
1276.666, 20277.00
1277.738, 20306.00
1278.810, 20312.00
1279.882, 20231.00
1280.953, 20402.00
1282.025, 20236.00
1283.096, 20272.00
1284.167, 20211.00
1285.238, 20604.00
1286.308, 21058.00
1287.379, 20801.00
1288.449, 20900.00
1289.519, 20934.00
1290.589, 20710.00
1291.659, 20565.00
