##NAMES=Clinoptilolite-Na
##RRUFFID=R061099
##IDEAL CHEMISTRY=Na_6_(Si_30_Al_6_)O_72_&#183;20H_2_O
##LOCALITY=Richardson Ranch, Madras, Jefferson County, Oregon, USA
##OWNER=RRUFF
##SOURCE=Michael Scott
##DESCRIPTION=Red-brown to salmon, somewhat coffin shaped tabular crystals in a fragmented geode
##STATUS=The identification of this mineral has been confirmed by X-ray diffraction and chemical analysis
##URL=rruff.info/R061099
##MEASURED CHEMISTRY=(Na_2.70_Ca_1.46_K_0.89_Fe_0.08_Mg_0.02_)_Σ=5.15_(Si_29.29_Al_6.71_)O_72_·18.51H_2_O
##PIN_ID=M00738
##ORIENTATION=Laser parallel to b* (0 1 0). Fiducial mark perpendicular to laser is parallel to c [0 0 1]
93.07300, 4736.000
94.30700, 5404.000
95.54100, 6147.000
96.77500, 7041.000
98.00900, 7743.000
99.24300, 8835.000
100.4770, 9659.000
101.7100, 10491.00
102.9440, 11401.00
104.1770, 12309.00
105.4100, 13223.00
106.6430, 13972.00
107.8750, 14938.00
109.1080, 15824.00
110.3400, 16589.00
111.5720, 16889.00
112.8040, 17242.00
114.0360, 17802.00
115.2680, 18401.00
116.5000, 18720.00
117.7310, 19277.00
118.9620, 19666.00
120.1940, 19889.00
121.4250, 20001.00
122.6550, 20061.00
123.8860, 20526.00
125.1170, 20543.00
126.3470, 21135.00
127.5770, 21071.00
128.8070, 21257.00
130.0370, 21602.00
131.2670, 21956.00
132.4970, 22126.00
133.7260, 22362.00
134.9550, 22594.00
136.1850, 22889.00
137.4140, 22971.52
138.6420, 23134.07
139.8710, 23137.00
141.1000, 23157.00
142.3280, 23222.00
143.5560, 22903.00
144.7840, 23059.00
146.0120, 22720.00
147.2400, 22734.00
148.4680, 22385.00
149.6950, 22204.00
150.9220, 22174.00
152.1500, 21984.00
153.3770, 21845.00
154.6030, 21524.00
155.8300, 21360.00
157.0570, 21166.16
158.2830, 20955.00
159.5090, 20820.00
160.7350, 20748.00
161.9610, 20615.00
163.1870, 20418.00
164.4130, 20294.00
165.6380, 20283.00
166.8630, 20201.00
168.0880, 19844.00
169.3130, 19753.00
170.5380, 19508.00
171.7630, 19682.00
172.9870, 19537.00
174.2120, 19391.00
175.4360, 19172.00
176.6600, 19093.19
177.8840, 18866.00
179.1080, 18886.00
180.3310, 18813.00
181.5550, 18686.00
182.7780, 18760.00
184.0010, 18604.00
185.2240, 18360.00
186.4470, 18436.00
187.6700, 18459.00
188.8920, 18479.00
190.1150, 18454.99
191.3370, 18395.06
192.5590, 18342.00
193.7810, 18231.00
195.0020, 18136.00
196.2240, 18076.00
197.4450, 18170.00
198.6670, 17920.00
199.8880, 17876.00
201.1090, 18044.00
202.3300, 18130.00
203.5500, 17865.00
204.7710, 17825.00
205.9910, 17738.00
207.2110, 17833.00
208.4310, 17861.00
209.6510, 17710.00
210.8710, 17813.00
212.0910, 17907.00
213.3100, 17696.00
214.5290, 17827.00
215.7480, 17736.00
216.9670, 17645.00
218.1860, 17748.00
219.4050, 17849.00
220.6230, 17884.00
221.8420, 17929.00
223.0600, 17828.00
224.2780, 18072.00
225.4960, 17864.00
226.7130, 18051.00
227.9310, 17955.00
229.1480, 18067.00
230.3660, 17987.00
231.5830, 18085.00
232.8000, 18107.00
234.0160, 18098.00
235.2330, 18405.00
236.4490, 18420.00
237.6660, 18592.00
238.8820, 18537.00
240.0980, 18702.00
241.3140, 18683.00
242.5300, 18849.00
243.7450, 18993.00
244.9600, 19128.00
246.1760, 19228.71
247.3910, 19248.00
248.6060, 19389.00
249.8200, 19460.00
251.0350, 19520.00
252.2500, 19437.00
253.4640, 19594.00
254.6780, 19690.00
255.8920, 19515.00
257.1060, 19602.00
258.3190, 19450.00
259.5330, 19702.00
260.7460, 19770.00
261.9600, 19571.00
263.1730, 19465.00
264.3850, 19380.00
265.5980, 19205.00
266.8110, 19360.00
268.0230, 19071.00
269.2360, 19100.00
270.4480, 19153.00
271.6600, 19021.00
272.8710, 18943.00
274.0830, 18944.00
275.2950, 18941.00
276.5060, 18719.00
277.7170, 18819.00
278.9280, 18607.00
280.1390, 18731.00
281.3500, 18604.00
282.5600, 18600.00
283.7710, 18725.00
284.9810, 18459.00
286.1910, 18382.00
287.4010, 18510.00
288.6110, 18449.00
289.8200, 18443.00
291.0300, 18314.00
292.2390, 18441.00
293.4480, 18399.00
294.6570, 18633.00
295.8660, 18596.00
297.0750, 18606.00
298.2830, 18414.00
299.4920, 18495.00
300.7000, 18385.00
301.9080, 18513.00
303.1160, 18538.00
304.3240, 18492.00
305.5310, 18569.00
306.7390, 18578.25
307.9460, 18766.00
309.1530, 18692.00
310.3600, 18715.00
311.5670, 18851.00
312.7740, 18763.00
313.9800, 18814.00
315.1870, 18834.00
316.3930, 18866.71
317.5990, 18854.00
318.8050, 18968.00
320.0110, 18986.00
321.2160, 18970.00
322.4220, 19133.00
323.6270, 19045.00
324.8320, 19212.00
326.0370, 19111.00
327.2420, 19119.00
328.4460, 19235.00
329.6510, 19352.00
330.8550, 19439.00
332.0590, 19209.00
333.2630, 19432.00
334.4670, 19251.00
335.6710, 19516.00
336.8740, 19631.00
338.0780, 19582.00
339.2810, 19662.00
340.4840, 19749.00
341.6870, 19773.00
342.8900, 19674.00
344.0920, 19984.00
345.2950, 19803.00
346.4970, 19948.00
347.6990, 19808.00
348.9010, 20087.00
350.1030, 20047.00
351.3050, 20300.00
352.5060, 20301.00
353.7080, 20475.00
354.9090, 20653.00
356.1100, 20734.00
357.3110, 20857.00
358.5110, 20946.00
359.7120, 20944.00
360.9120, 21208.00
362.1130, 21253.00
363.3130, 21356.00
364.5130, 21542.00
365.7120, 21668.00
366.9120, 21918.00
368.1120, 21911.00
369.3110, 22168.00
370.5100, 22401.00
371.7090, 22482.00
372.9080, 22811.00
374.1070, 23097.00
375.3050, 23319.00
376.5040, 23390.00
377.7020, 23624.00
378.9000, 23903.00
380.0980, 23988.00
381.2950, 24575.00
382.4930, 24921.00
383.6910, 25265.00
384.8880, 25409.00
386.0850, 25944.00
387.2820, 26592.00
388.4790, 26886.00
389.6750, 27478.00
390.8720, 28047.00
392.0680, 28440.00
393.2640, 29258.00
394.4600, 29985.00
395.6560, 30503.00
396.8520, 31374.00
398.0480, 31967.00
399.2430, 32725.00
400.4380, 33227.00
401.6330, 33927.00
402.8280, 34336.00
404.0230, 34530.00
405.2180, 34586.00
406.4120, 34732.00
407.6060, 34305.00
408.8000, 33811.00
409.9940, 33321.00
411.1880, 33103.00
412.3820, 32151.00
413.5750, 31727.00
414.7690, 30958.00
415.9620, 29754.00
417.1550, 29212.00
418.3480, 28476.00
419.5410, 27695.00
420.7330, 27433.00
421.9260, 26562.00
423.1180, 26275.00
424.3100, 25513.00
425.5020, 25089.00
426.6940, 24411.00
427.8850, 24018.00
429.0770, 23641.00
430.2680, 23385.00
431.4590, 23090.00
432.6500, 22674.00
433.8410, 22424.00
435.0320, 22158.00
436.2220, 22182.00
437.4130, 21840.00
438.6030, 21676.00
439.7930, 21422.00
440.9830, 21279.48
442.1730, 21221.00
443.3620, 21116.00
444.5520, 21246.00
445.7410, 21322.00
446.9300, 21251.00
448.1190, 21313.00
449.3080, 21334.00
450.4960, 21395.00
451.6850, 21514.00
452.8730, 21486.00
454.0610, 21619.00
455.2490, 21943.00
456.4370, 22116.00
457.6250, 22180.00
458.8130, 22587.00
460.0000, 22712.00
461.1870, 23102.00
462.3740, 23483.00
463.5610, 23572.00
464.7480, 23657.00
465.9340, 24135.00
467.1210, 24170.00
468.3070, 24445.00
469.4930, 24759.00
470.6790, 25031.00
471.8650, 25306.00
473.0510, 25863.00
474.2360, 26197.00
475.4210, 26803.00
476.6070, 27303.00
477.7920, 27875.00
478.9770, 28413.00
480.1610, 28625.00
481.3460, 29256.00
482.5300, 29243.00
483.7140, 29378.00
484.8980, 29231.00
486.0820, 28856.00
487.2660, 28422.00
488.4500, 27624.00
489.6330, 26951.00
490.8160, 26152.00
492.0000, 25436.00
493.1830, 24760.00
494.3650, 24124.00
495.5480, 23628.00
496.7300, 22984.00
497.9130, 22576.00
499.0950, 22374.00
500.2770, 21910.00
501.4590, 21668.00
502.6410, 21682.00
503.8220, 21258.00
505.0030, 21185.00
506.1850, 20930.00
507.3660, 20846.00
508.5470, 20837.00
509.7270, 20905.00
510.9080, 20717.00
512.0880, 20927.00
513.2690, 20797.00
514.4490, 20687.00
515.6290, 20468.00
516.8090, 20765.00
517.9880, 20797.00
519.1680, 20706.00
520.3470, 20688.00
521.5260, 20681.31
522.7050, 20656.00
523.8840, 20693.00
525.0630, 20616.00
526.2410, 20684.00
527.4200, 20611.00
528.5980, 20599.00
529.7760, 20485.00
530.9540, 20593.00
532.1320, 20482.00
533.3090, 20362.00
534.4870, 20527.00
535.6640, 20677.00
536.8410, 20756.00
538.0180, 20545.00
539.1950, 20691.00
540.3710, 20468.00
541.5480, 20656.00
542.7240, 20532.00
543.9000, 20587.00
545.0760, 20551.00
546.2520, 20557.00
547.4280, 20707.00
548.6040, 20666.00
549.7790, 20597.00
550.9540, 20699.00
552.1290, 20670.00
553.3040, 20778.00
554.4790, 20657.00
555.6530, 20878.00
556.8280, 20702.00
558.0020, 20818.00
559.1760, 21048.00
560.3500, 20905.00
561.5240, 21003.00
562.6980, 20918.00
563.8710, 20818.00
565.0440, 20934.00
566.2170, 20835.00
567.3900, 20974.00
568.5630, 21035.00
569.7360, 21144.00
570.9090, 21071.00
572.0810, 20976.00
573.2530, 21250.00
574.4250, 21223.00
575.5970, 21044.00
576.7690, 21121.00
577.9400, 21245.00
579.1120, 21341.00
580.2830, 21287.00
581.4540, 21380.09
582.6250, 21346.00
583.7960, 21407.00
584.9660, 21510.00
586.1370, 21468.00
587.3070, 21595.00
588.4770, 21560.00
589.6470, 21652.00
590.8170, 21722.17
591.9870, 21733.05
593.1560, 21850.00
594.3260, 21807.00
595.4950, 21807.00
596.6640, 21850.00
597.8330, 21909.39
599.0010, 22092.00
600.1700, 22115.00
601.3380, 22331.00
602.5070, 22468.00
603.6750, 22562.68
604.8430, 22757.00
606.0100, 22761.00
607.1780, 22997.00
608.3450, 23041.00
609.5130, 23157.00
610.6800, 23227.00
611.8470, 23394.71
613.0140, 23601.00
614.1800, 23753.00
615.3470, 23849.00
616.5130, 24012.00
617.6790, 24140.00
618.8450, 24084.00
620.0110, 23906.00
621.1770, 24059.00
622.3420, 24184.00
623.5080, 24007.00
624.6730, 24096.00
625.8380, 24075.00
627.0030, 23805.00
628.1680, 23645.00
629.3320, 23645.00
630.4970, 23339.00
631.6610, 23065.00
632.8250, 22856.00
633.9890, 22860.00
635.1530, 22854.00
636.3160, 22648.00
637.4800, 22722.00
638.6430, 22675.00
639.8060, 22640.00
640.9690, 22571.00
642.1320, 22759.00
643.2950, 22567.00
644.4570, 22634.00
645.6200, 22692.00
646.7820, 22490.00
647.9440, 22781.00
649.1060, 22534.00
650.2670, 22741.00
651.4290, 22532.00
652.5900, 22519.00
653.7520, 22534.00
654.9130, 22337.00
656.0740, 22556.00
657.2340, 22190.00
658.3950, 22426.00
659.5550, 22288.00
660.7160, 22147.00
661.8760, 22192.00
663.0360, 22253.00
664.1960, 21996.00
665.3550, 22200.00
666.5150, 22287.00
667.6740, 22124.00
668.8330, 22167.00
669.9920, 22217.00
671.1510, 22126.00
672.3100, 22238.00
673.4680, 22166.00
674.6270, 22062.00
675.7850, 22157.00
676.9430, 22145.00
678.1010, 22053.00
679.2590, 22080.00
680.4160, 22112.00
681.5740, 21977.00
682.7310, 22180.78
683.8880, 22296.88
685.0450, 22371.74
686.2020, 22407.57
687.3580, 22287.45
688.5150, 22368.70
689.6710, 22369.23
690.8270, 22366.46
691.9830, 22476.04
693.1390, 22378.59
694.2950, 22486.38
695.4500, 22412.81
696.6050, 22516.58
697.7610, 22579.11
698.9160, 22602.60
700.0710, 22470.16
701.2250, 22539.07
702.3800, 22527.29
703.5340, 22512.19
704.6880, 22609.44
705.8420, 22499.67
706.9960, 22595.13
708.1500, 22608.68
709.3040, 22659.71
710.4570, 22629.54
711.6100, 22805.00
712.7640, 22728.00
713.9160, 22960.00
715.0690, 22781.00
716.2220, 22756.00
717.3740, 22964.00
718.5270, 22794.00
719.6790, 22639.00
720.8310, 22801.00
721.9830, 22808.00
723.1340, 22888.00
724.2860, 22951.00
725.4370, 22882.00
726.5880, 22906.00
727.7390, 22982.00
728.8900, 23009.18
730.0410, 23133.57
731.1910, 23216.69
732.3420, 23260.81
733.4920, 23148.97
734.6420, 23238.48
735.7920, 23247.30
736.9420, 23252.81
738.0910, 23370.64
739.2410, 23281.48
740.3900, 23397.52
741.5390, 23431.64
742.6880, 23503.26
743.8370, 23493.68
744.9860, 23509.18
746.1340, 23605.88
747.2820, 23657.60
748.4310, 23638.68
749.5790, 23489.00
750.7260, 23475.00
751.8740, 23637.00
753.0220, 23717.00
754.1690, 23423.00
755.3160, 23682.00
756.4630, 23567.00
757.6100, 23652.00
758.7570, 23789.00
759.9030, 23690.00
761.0500, 23803.00
762.1960, 24093.00
763.3420, 23875.00
764.4880, 24025.00
765.6340, 24119.00
766.7790, 24043.00
767.9250, 24096.00
769.0700, 24095.00
770.2150, 24217.00
771.3600, 24060.00
772.5050, 24323.00
773.6490, 24496.00
774.7940, 24394.00
775.9380, 24422.00
777.0820, 24586.00
778.2260, 24714.00
779.3700, 24611.00
780.5140, 24884.00
781.6570, 24703.00
782.8010, 25222.00
783.9440, 24923.00
785.0870, 24939.00
786.2300, 25114.00
787.3720, 25105.00
788.5150, 25157.00
789.6570, 25293.00
790.8000, 25348.00
791.9420, 25217.00
793.0840, 25222.00
794.2250, 25174.00
795.3670, 25128.00
796.5080, 25162.00
797.6500, 25162.00
798.7910, 25252.00
799.9320, 25210.00
801.0720, 25220.95
802.2130, 25198.00
803.3530, 25214.00
804.4940, 25182.45
805.6340, 25161.45
806.7740, 25130.00
807.9140, 25114.00
809.0530, 25103.00
810.1930, 25109.00
811.3320, 25036.00
812.4710, 25028.00
813.6100, 25162.00
814.7490, 25268.00
815.8880, 25432.00
817.0270, 25413.00
818.1650, 25648.00
819.3030, 25550.00
820.4410, 25678.00
821.5790, 25396.00
822.7170, 25397.00
823.8540, 25486.00
824.9920, 25372.00
826.1290, 25375.00
827.2660, 25258.00
828.4030, 25164.00
829.5400, 25098.00
830.6760, 25046.00
831.8130, 24804.00
832.9490, 24936.00
834.0850, 25035.00
835.2210, 24857.00
836.3570, 24847.00
837.4930, 25024.00
838.6280, 25062.00
839.7640, 25070.22
840.8990, 25100.00
842.0340, 25008.00
843.1690, 25157.00
844.3030, 25015.00
845.4380, 25255.00
846.5720, 25087.00
847.7060, 25061.00
848.8400, 25078.00
849.9740, 25073.00
851.1080, 25229.00
852.2420, 25319.00
853.3750, 25283.00
854.5080, 25513.00
855.6410, 25518.00
856.7740, 25532.00
857.9070, 25576.00
859.0400, 25626.00
860.1720, 25669.00
861.3040, 25745.00
862.4360, 25805.00
863.5680, 25776.10
864.7000, 25593.00
865.8320, 25636.00
866.9630, 25578.00
868.0950, 25365.00
869.2260, 25607.00
870.3570, 25284.00
871.4880, 25538.00
872.6180, 25164.00
873.7490, 25373.00
874.8790, 25481.00
876.0090, 25561.00
877.1390, 25757.00
878.2690, 25514.00
879.3990, 25386.00
880.5280, 25623.00
881.6580, 25530.00
882.7870, 25807.00
883.9160, 25550.00
885.0450, 25588.00
886.1740, 25728.00
887.3020, 25506.00
888.4310, 25534.00
889.5590, 25721.00
890.6870, 25516.00
891.8150, 25718.00
892.9430, 25582.00
894.0700, 25495.00
895.1980, 25707.00
896.3250, 25817.00
897.4520, 25855.00
898.5790, 25874.00
899.7060, 25847.00
900.8330, 25986.00
901.9590, 25824.00
903.0850, 25729.00
904.2120, 25933.00
905.3380, 26042.00
906.4630, 25772.00
907.5890, 26094.00
908.7150, 25866.00
909.8400, 26221.00
910.9650, 25931.00
912.0900, 26002.00
913.2150, 25984.00
914.3400, 26027.00
915.4640, 26114.00
916.5890, 26043.00
917.7130, 25932.00
918.8370, 25938.00
919.9610, 26015.00
921.0850, 25887.00
922.2080, 26057.00
923.3320, 26055.00
924.4550, 26196.00
925.5780, 26200.00
926.7010, 26307.00
927.8240, 26104.00
928.9460, 26153.00
930.0690, 26221.00
931.1910, 26296.00
932.3130, 26231.00
933.4350, 26324.20
934.5570, 26305.25
935.6790, 26391.00
936.8000, 26339.00
937.9220, 26310.00
939.0430, 26402.00
940.1640, 26335.00
941.2850, 26636.00
942.4050, 26555.00
943.5260, 26765.00
944.6460, 26502.00
945.7660, 26559.00
946.8860, 26604.00
948.0060, 26699.00
949.1260, 26546.00
950.2460, 26781.00
951.3650, 26718.00
952.4840, 27064.00
953.6030, 26735.00
954.7220, 27049.00
955.8410, 26661.00
956.9590, 26841.00
958.0780, 26832.00
959.1960, 26801.00
960.3140, 26997.00
961.4320, 26940.00
962.5500, 26878.00
963.6680, 27060.00
964.7850, 26908.00
965.9020, 27148.00
967.0190, 27185.00
968.1360, 27074.00
969.2530, 26961.00
970.3700, 27189.00
971.4860, 27295.00
972.6030, 27298.00
973.7190, 27288.00
974.8350, 27185.00
975.9510, 27284.00
977.0660, 27329.00
978.1820, 27428.00
979.2970, 27422.00
980.4130, 27345.00
981.5280, 27253.00
982.6420, 27193.00
983.7570, 27404.00
984.8720, 27620.00
985.9860, 27518.00
987.1000, 27614.00
988.2140, 27620.00
989.3280, 27404.00
990.4420, 27561.00
991.5560, 27473.00
992.6690, 27634.00
993.7820, 27734.00
994.8950, 27574.00
996.0080, 27941.00
997.1210, 27872.00
998.2340, 28089.00
999.3460, 28078.00
1000.458, 28331.00
1001.571, 28555.00
1002.683, 28463.00
1003.794, 28482.00
1004.906, 28384.00
1006.017, 28119.00
1007.129, 28040.00
1008.240, 28120.00
1009.351, 27949.00
1010.462, 28117.00
1011.572, 27960.00
1012.683, 28087.00
1013.793, 28156.00
1014.904, 28176.00
1016.014, 28233.00
1017.123, 28266.00
1018.233, 28471.00
1019.343, 28298.00
1020.452, 28473.00
1021.561, 28563.00
1022.670, 28543.00
1023.779, 28634.00
1024.888, 28666.05
1025.997, 28681.39
1027.105, 28708.00
1028.213, 28723.00
1029.321, 28647.00
1030.429, 28659.00
1031.537, 28782.00
1032.645, 28934.00
1033.752, 28624.00
1034.859, 28659.00
1035.966, 28912.00
1037.073, 28738.00
1038.180, 28822.00
1039.287, 28734.00
1040.393, 28883.00
1041.500, 28708.00
1042.606, 28676.00
1043.712, 29038.00
1044.818, 28699.00
1045.923, 29004.00
1047.029, 28945.00
1048.134, 29130.00
1049.239, 28889.00
1050.344, 29167.00
1051.449, 29132.00
1052.554, 29349.00
1053.658, 29013.00
1054.763, 28922.00
1055.867, 29229.00
1056.971, 29093.00
1058.075, 29170.85
1059.179, 29154.26
1060.282, 29217.00
1061.385, 29098.00
1062.489, 29133.00
1063.592, 29293.00
1064.695, 29205.00
1065.797, 29243.00
1066.900, 29383.00
1068.002, 29290.00
1069.105, 29596.00
1070.207, 29540.00
1071.309, 29446.00
1072.411, 29516.00
1073.512, 29344.00
1074.614, 29557.00
1075.715, 29683.00
1076.816, 29590.00
1077.917, 29506.00
1079.018, 29533.00
1080.118, 29708.00
1081.219, 29814.00
1082.319, 29987.00
1083.419, 30094.00
1084.519, 30030.00
1085.619, 29874.00
1086.719, 30155.00
1087.818, 29943.00
1088.918, 30004.00
1090.017, 30228.00
1091.116, 30093.00
1092.215, 30122.00
1093.314, 30100.00
1094.412, 30013.00
1095.510, 30242.00
1096.609, 30294.00
1097.707, 30203.00
1098.805, 30525.00
1099.902, 30261.00
1101.000, 30367.00
1102.097, 30561.00
1103.195, 30574.00
1104.292, 30777.00
1105.389, 30668.00
1106.485, 30746.00
1107.582, 30801.00
1108.678, 30960.00
1109.775, 30840.00
1110.871, 30775.00
1111.967, 30868.00
1113.062, 30941.00
1114.158, 30759.00
1115.254, 30996.00
1116.349, 31009.00
1117.444, 31254.00
1118.539, 31062.00
1119.634, 31153.00
1120.728, 31265.00
1121.823, 31299.00
1122.917, 31174.00
1124.011, 31376.00
1125.105, 31474.00
1126.199, 31295.00
1127.293, 31290.00
1128.386, 31624.00
1129.480, 31295.00
1130.573, 31632.00
1131.666, 31566.00
1132.759, 31314.00
1133.851, 31394.00
1134.944, 31635.00
1136.036, 31595.00
1137.129, 31579.00
1138.221, 31658.00
1139.313, 31770.00
1140.404, 31506.00
1141.496, 31759.00
1142.587, 31803.00
1143.678, 31589.00
1144.770, 31634.00
1145.860, 31779.00
1146.951, 31740.00
1148.042, 31542.00
1149.132, 31879.00
1150.223, 31896.00
1151.313, 31738.00
1152.403, 31867.00
1153.492, 31893.00
1154.582, 31883.00
1155.671, 31885.00
1156.761, 32033.00
1157.850, 31998.00
1158.939, 31878.00
1160.028, 32044.00
1161.116, 31952.00
1162.205, 31965.00
1163.293, 31800.00
1164.381, 31906.10
1165.469, 31931.00
1166.557, 32059.00
1167.645, 32121.00
1168.732, 32150.00
1169.820, 32140.00
1170.907, 32114.00
1171.994, 32062.00
1173.081, 32017.00
1174.167, 32251.00
1175.254, 32085.00
1176.340, 32077.00
1177.426, 31944.00
1178.512, 32224.00
1179.598, 31933.00
1180.684, 31979.00
1181.770, 32276.00
1182.855, 32060.00
1183.940, 32047.00
1185.025, 31969.00
1186.110, 32048.00
1187.195, 31969.00
1188.280, 31891.00
1189.364, 32048.00
1190.448, 31934.00
1191.532, 32045.00
1192.616, 31988.00
1193.700, 32010.00
1194.784, 31810.00
1195.867, 32006.00
1196.950, 31766.00
1198.034, 31789.00
1199.117, 32070.00
1200.199, 31914.00
1201.282, 32172.00
1202.364, 32023.00
1203.447, 31965.00
1204.529, 31618.00
1205.611, 32003.00
1206.693, 31936.00
1207.774, 31774.00
1208.856, 31835.00
1209.937, 31812.04
1211.018, 31916.00
1212.099, 31848.00
1213.180, 31952.00
1214.261, 31857.00
1215.341, 31979.00
1216.422, 31966.00
1217.502, 32167.00
1218.582, 32223.00
1219.662, 32082.00
1220.742, 32065.00
1221.821, 31918.00
1222.900, 32190.00
1223.980, 32043.00
1225.059, 32013.00
1226.138, 31849.00
1227.216, 32115.00
1228.295, 32150.00
1229.373, 32157.00
1230.452, 32030.00
1231.530, 32180.00
1232.608, 32440.00
1233.685, 32189.00
1234.763, 32346.00
1235.840, 32540.00
1236.918, 32270.00
1237.995, 32471.00
1239.072, 32249.00
1240.149, 32574.00
1241.225, 32490.00
1242.302, 32474.00
1243.378, 32497.00
1244.454, 32556.00
1245.530, 32509.00
1246.606, 32489.00
1247.681, 32546.04
1248.757, 32716.00
1249.832, 32603.00
1250.907, 32764.00
1251.982, 32732.00
1253.057, 32708.00
1254.132, 32735.00
1255.206, 32866.00
1256.281, 32695.00
1257.355, 33081.00
1258.429, 32859.00
1259.503, 32830.00
1260.576, 32652.00
1261.650, 32867.00
1262.723, 32958.00
1263.797, 33126.00
1264.870, 33210.98
1265.942, 33278.00
