##NAMES=Clinoptilolite-Ca
##RRUFFID=R060662
##IDEAL CHEMISTRY=Ca_3_(Si_30_Al_6_)O_72_&#183;20H_2_O
##LOCALITY=Succor Creek, Malheur County, Oregon, USA
##OWNER=RRUFF
##SOURCE=Michael Scott
##DESCRIPTION=Group of colorless platy prismatic crystals
##STATUS=The identification of this mineral has been confirmed by X-ray diffraction and chemical analysis
##URL=rruff.info/R060662
##MEASURED CHEMISTRY=(Ca_1.02_Na_0.97_K_0.59_)_Σ=2.58_(Si_14.40_Al_3.60_)_Σ=18_O_36_·10.96H_2_O
##PIN_ID=M00397
##ORIENTATION=Laser parallel to c* (0 0 1). Fiducial mark perpendicular to laser is parallel to -a [-1 0 0]
84.83700, 18872.00
86.07200, 20186.00
87.30800, 21602.00
88.54200, 22793.00
89.77700, 24042.00
91.01200, 25165.00
92.24600, 26085.00
93.48000, 27011.60
94.71400, 27795.06
95.94800, 28518.00
97.18200, 29118.00
98.41600, 29721.00
99.64900, 30205.00
100.8830, 30733.00
102.1160, 31509.00
103.3490, 31853.00
104.5820, 32285.00
105.8150, 33190.00
107.0470, 34463.00
108.2800, 35327.00
109.5120, 34939.00
110.7440, 34702.00
111.9760, 34848.00
113.2080, 35430.00
114.4400, 35971.00
115.6710, 36546.00
116.9030, 36957.00
118.1340, 37037.00
119.3650, 37263.00
120.5960, 37760.00
121.8270, 38166.00
123.0580, 38801.00
124.2880, 39607.00
125.5190, 40118.00
126.7490, 40970.00
127.9790, 41940.00
129.2090, 42727.00
130.4390, 43779.00
131.6680, 44290.00
132.8980, 45476.00
134.1270, 46413.00
135.3560, 46938.00
136.5850, 47482.00
137.8140, 47729.00
139.0430, 48223.00
140.2710, 47975.00
141.5000, 47931.00
142.7280, 47362.00
143.9560, 47260.00
145.1840, 46490.00
146.4120, 46161.00
147.6390, 44909.00
148.8670, 44295.00
150.0940, 43570.00
151.3210, 42483.00
152.5490, 41698.00
153.7750, 40564.00
155.0020, 39917.00
156.2290, 38594.00
157.4550, 37854.00
158.6810, 37163.00
159.9080, 36469.00
161.1340, 35816.48
162.3590, 35053.00
163.5850, 34590.00
164.8110, 33758.00
166.0360, 33210.00
167.2610, 32499.00
168.4860, 31729.00
169.7110, 31624.00
170.9360, 30854.00
172.1610, 30062.00
173.3850, 29847.00
174.6100, 29169.00
175.8340, 28566.00
177.0580, 28074.00
178.2820, 27513.29
179.5050, 26936.00
180.7290, 26601.00
181.9520, 26103.00
183.1760, 25788.00
184.3990, 25383.00
185.6220, 24987.00
186.8450, 24901.00
188.0670, 24459.00
189.2900, 24447.00
190.5120, 23993.00
191.7340, 23990.00
192.9560, 23791.00
194.1780, 23611.00
195.4000, 23426.00
196.6220, 23279.00
197.8430, 23185.21
199.0640, 22987.00
200.2860, 22956.00
201.5070, 22688.00
202.7270, 22365.00
203.9480, 21976.00
205.1690, 21692.00
206.3890, 21486.00
207.6090, 21344.00
208.8290, 21297.00
210.0490, 21158.00
211.2690, 21049.00
212.4890, 21155.00
213.7080, 21004.04
214.9280, 20997.62
216.1470, 20813.00
217.3660, 20912.00
218.5850, 20707.00
219.8030, 20656.00
221.0220, 20639.00
222.2400, 20675.00
223.4590, 20751.00
224.6770, 20962.00
225.8950, 20724.00
227.1120, 20796.00
228.3300, 21044.00
229.5480, 21241.00
230.7650, 21315.00
231.9820, 21590.00
233.1990, 21730.00
234.4160, 21983.00
235.6330, 22179.00
236.8490, 22371.00
238.0660, 22909.00
239.2820, 23137.00
240.4980, 23492.00
241.7140, 23803.00
242.9300, 24018.00
244.1460, 24274.00
245.3610, 24573.00
246.5770, 24687.00
247.7920, 25156.00
249.0070, 25016.00
250.2220, 25218.00
251.4370, 25351.00
252.6510, 25149.00
253.8660, 25338.00
255.0800, 25175.00
256.2940, 24994.00
257.5080, 25273.00
258.7220, 25606.00
259.9360, 25482.00
261.1490, 25091.00
262.3630, 24629.00
263.5760, 24559.00
264.7890, 24483.00
266.0020, 24319.00
267.2150, 24075.00
268.4270, 23919.00
269.6400, 23686.00
270.8520, 23358.00
272.0640, 23267.00
273.2760, 23091.00
274.4880, 22771.00
275.7000, 22443.00
276.9120, 22406.00
278.1230, 22161.00
279.3340, 21920.00
280.5450, 21743.00
281.7560, 21696.00
282.9670, 21356.00
284.1780, 21508.00
285.3880, 21321.00
286.5980, 21098.00
287.8090, 20961.00
289.0190, 21173.00
290.2290, 20986.00
291.4380, 21060.00
292.6480, 20670.00
293.8570, 20660.00
295.0670, 20621.00
296.2760, 20821.00
297.4850, 20625.00
298.6930, 20619.00
299.9020, 20646.00
301.1110, 20523.00
302.3190, 20489.00
303.5270, 20467.10
304.7350, 20441.00
305.9430, 20419.00
307.1510, 20500.00
308.3580, 20494.00
309.5660, 20577.00
310.7730, 20400.00
311.9800, 20763.00
313.1870, 20639.00
314.3940, 20881.00
315.6010, 20794.00
316.8070, 21034.00
318.0130, 21190.00
319.2200, 21256.00
320.4260, 21282.00
321.6310, 21452.89
322.8370, 21545.57
324.0430, 21777.00
325.2480, 21867.00
326.4540, 22122.00
327.6590, 22375.00
328.8640, 22345.00
330.0680, 22314.00
331.2730, 22440.00
332.4780, 22653.00
333.6820, 22764.00
334.8860, 22766.00
336.0900, 22880.70
337.2940, 23010.00
338.4980, 22927.00
339.7010, 22845.00
340.9050, 22782.00
342.1080, 22874.00
343.3110, 22977.00
344.5140, 23060.00
345.7170, 23071.00
346.9200, 23051.00
348.1220, 23163.00
349.3240, 23344.00
350.5270, 23491.00
351.7290, 23776.00
352.9310, 24016.00
354.1320, 24031.00
355.3340, 24256.00
356.5350, 24644.00
357.7370, 24694.00
358.9380, 24987.00
360.1390, 25309.00
361.3400, 25661.00
362.5400, 25991.00
363.7410, 26466.00
364.9410, 26964.00
366.1410, 27303.64
367.3410, 27684.00
368.5410, 28094.00
369.7410, 28617.00
370.9400, 29092.00
372.1400, 29495.00
373.3390, 29980.00
374.5380, 30664.00
375.7370, 31343.00
376.9360, 32047.00
378.1350, 32823.00
379.3330, 33609.00
380.5310, 34281.00
381.7300, 35384.00
382.9280, 36131.00
384.1260, 37130.00
385.3230, 38470.00
386.5210, 39719.00
387.7180, 41138.00
388.9160, 42586.00
390.1130, 44106.00
391.3100, 45664.51
392.5060, 47327.00
393.7030, 49003.00
394.9000, 50671.00
396.0960, 52604.00
397.2920, 54018.82
398.4880, 55254.28
399.6840, 56241.02
400.8800, 56973.00
402.0750, 57395.00
403.2710, 57412.00
404.4660, 57433.00
405.6610, 56717.00
406.8560, 55607.00
408.0510, 54526.00
409.2450, 53202.00
410.4400, 51419.00
411.6340, 50159.00
412.8280, 48212.00
414.0220, 46714.00
415.2160, 44921.00
416.4100, 43496.00
417.6030, 41720.00
418.7970, 40362.00
419.9900, 38385.00
421.1830, 37318.00
422.3760, 35792.00
423.5690, 34718.00
424.7610, 33423.00
425.9540, 32047.00
427.1460, 31141.00
428.3380, 30136.00
429.5300, 29026.00
430.7220, 28381.00
431.9140, 27645.00
433.1050, 27138.00
434.2970, 26385.00
435.4880, 25827.00
436.6790, 25510.00
437.8700, 25186.00
439.0610, 24700.00
440.2510, 24431.00
441.4420, 24210.00
442.6320, 24069.00
443.8220, 23947.00
445.0120, 23529.00
446.2020, 23514.00
447.3910, 23539.00
448.5810, 23371.00
449.7700, 23496.00
450.9600, 23608.00
452.1490, 23523.00
453.3370, 23936.00
454.5260, 24141.00
455.7150, 24445.00
456.9030, 24811.00
458.0910, 25304.00
459.2800, 26043.00
460.4670, 26558.00
461.6550, 27058.00
462.8430, 27692.00
464.0300, 28324.00
465.2180, 29285.00
466.4050, 30136.00
467.5920, 30886.00
468.7790, 32312.00
469.9650, 33829.00
471.1520, 35073.00
472.3380, 36895.00
473.5250, 38642.00
474.7110, 40883.00
475.8970, 43166.00
477.0820, 44844.00
478.2680, 46661.00
479.4540, 48314.00
480.6390, 49973.00
481.8240, 49953.00
483.0090, 50033.00
484.1940, 49304.00
485.3780, 48241.00
486.5630, 46114.00
487.7470, 44328.00
488.9320, 41831.00
490.1160, 39235.00
491.3000, 36684.00
492.4830, 34505.00
493.6670, 32592.00
494.8500, 30531.00
496.0340, 28950.00
497.2170, 27618.00
498.4000, 26409.00
499.5820, 25580.00
500.7650, 24841.00
501.9480, 24156.00
503.1300, 23604.08
504.3120, 23148.00
505.4940, 22758.00
506.6760, 22429.00
507.8580, 22255.00
509.0390, 21886.00
510.2210, 21802.00
511.4020, 21499.00
512.5830, 21556.00
513.7640, 21417.00
514.9450, 21254.00
516.1250, 21235.00
517.3060, 21021.00
518.4860, 21092.00
519.6660, 20753.00
520.8460, 20867.00
522.0260, 20966.00
523.2060, 20944.00
524.3850, 20731.00
525.5650, 20811.00
526.7440, 20666.00
527.9230, 20760.00
529.1020, 20616.00
530.2810, 20764.00
531.4590, 20738.55
532.6380, 20546.00
533.8160, 20777.00
534.9940, 20567.00
536.1720, 20571.00
537.3500, 20760.00
538.5270, 20717.00
539.7050, 20693.00
540.8820, 20825.00
542.0590, 20701.00
543.2360, 20781.00
544.4130, 20605.00
545.5900, 20820.00
546.7660, 20737.00
547.9430, 20811.00
549.1190, 20653.00
550.2950, 20572.00
551.4710, 20745.00
552.6470, 20578.00
553.8220, 20625.00
554.9980, 20503.00
556.1730, 20648.00
557.3480, 20317.00
558.5230, 20542.00
559.6980, 20488.00
560.8730, 20493.00
562.0470, 20548.28
563.2220, 20458.00
564.3960, 20558.00
565.5700, 20574.00
566.7440, 20610.00
567.9170, 20587.00
569.0910, 20725.00
570.2640, 20688.00
571.4380, 20781.00
572.6110, 20757.00
573.7840, 20762.00
574.9570, 20754.00
576.1290, 20719.00
577.3020, 20637.00
578.4740, 21099.00
579.6460, 21156.00
580.8180, 20844.00
581.9900, 21359.00
583.1620, 21322.00
584.3330, 21240.00
585.5040, 21310.00
586.6760, 21590.00
587.8470, 21551.00
589.0180, 21700.00
590.1880, 21639.00
591.3590, 21907.00
592.5290, 21975.00
593.7000, 22193.00
594.8700, 22424.00
596.0400, 22663.00
597.2090, 22937.87
598.3790, 23146.00
599.5490, 23514.00
600.7180, 23701.00
601.8870, 23982.00
603.0560, 24280.00
604.2250, 24883.00
605.3940, 25075.00
606.5620, 25580.00
607.7300, 25838.00
608.8990, 26200.00
610.0670, 26517.00
611.2350, 26542.00
612.4020, 26658.00
613.5700, 26763.00
614.7370, 26874.00
615.9050, 26759.00
617.0720, 26687.14
618.2390, 26302.00
619.4060, 26273.00
620.5720, 25889.00
621.7390, 25534.00
622.9050, 25223.00
624.0710, 24733.00
625.2370, 24566.00
626.4030, 24127.00
627.5690, 23746.00
628.7340, 23548.00
629.9000, 23239.00
631.0650, 23063.00
632.2300, 22565.00
633.3950, 22484.00
634.5600, 22369.00
635.7240, 22262.00
636.8890, 22309.00
638.0530, 22070.00
639.2170, 22333.00
640.3810, 21995.27
641.5450, 21990.00
642.7080, 21474.00
643.8720, 21691.00
645.0350, 21467.00
646.1980, 21586.00
647.3610, 21385.00
648.5240, 21401.00
649.6870, 21219.00
650.8490, 21224.79
652.0120, 21138.00
653.1740, 21168.00
654.3360, 21103.88
655.4980, 21074.00
656.6600, 21025.00
657.8210, 20937.00
658.9830, 20934.72
660.1440, 21060.00
661.3050, 20982.00
662.4660, 21096.00
663.6270, 21116.00
664.7870, 21045.00
665.9480, 21077.00
667.1080, 20951.00
668.2680, 21029.00
669.4280, 20859.00
670.5880, 21048.00
671.7480, 20865.00
672.9070, 20981.00
674.0670, 20988.00
675.2260, 21209.00
676.3850, 21026.00
677.5440, 20987.00
678.7030, 20974.00
679.8610, 20979.00
681.0200, 20963.00
682.1780, 20991.31
683.3360, 20972.00
684.4940, 21073.00
685.6520, 21074.00
686.8090, 21161.00
687.9670, 21208.00
689.1240, 21239.00
690.2810, 21175.00
691.4380, 21141.00
692.5950, 21235.00
693.7520, 21188.00
694.9080, 21197.00
696.0650, 21265.00
697.2210, 21246.00
698.3770, 21214.00
699.5330, 21325.00
700.6880, 21426.00
701.8440, 21380.00
702.9990, 21547.00
704.1550, 21622.00
705.3100, 21560.00
706.4650, 21451.00
707.6190, 21637.00
708.7740, 21802.00
709.9290, 21907.00
711.0830, 21649.00
712.2370, 21714.00
713.3910, 21682.00
714.5450, 21746.00
715.6980, 21606.00
716.8520, 21911.00
718.0050, 21988.00
719.1580, 21993.00
720.3110, 21847.00
721.4640, 22059.00
722.6170, 22073.00
723.7700, 21952.00
724.9220, 21989.00
726.0740, 22135.00
727.2260, 22046.00
728.3780, 22167.00
729.5300, 21943.00
730.6810, 22092.00
731.8330, 21943.00
732.9840, 22068.00
734.1350, 22091.00
735.2860, 22071.00
736.4370, 22184.00
737.5880, 22102.00
738.7380, 22060.00
739.8880, 22119.00
741.0390, 22406.00
742.1890, 22321.00
743.3380, 22403.00
744.4880, 22352.00
745.6380, 22069.00
746.7870, 22367.00
747.9360, 22171.00
749.0850, 22329.00
750.2340, 22457.00
751.3830, 22532.00
752.5310, 22576.00
753.6800, 22589.00
754.8280, 22752.00
755.9760, 22681.00
757.1240, 22812.00
758.2720, 22670.00
759.4190, 22996.00
760.5670, 22899.00
761.7140, 23225.00
762.8610, 23056.00
764.0080, 23393.00
765.1550, 23515.00
766.3020, 23533.00
767.4480, 23645.00
768.5950, 23940.00
769.7410, 23814.00
770.8870, 24005.00
772.0330, 24294.00
773.1780, 24424.00
774.3240, 24747.00
775.4690, 24802.00
776.6140, 24884.00
777.7590, 25349.00
778.9040, 25294.00
780.0490, 25830.00
781.1940, 25870.00
782.3380, 26279.00
783.4820, 26446.00
784.6260, 26620.00
785.7700, 26885.86
786.9140, 26990.00
788.0580, 27217.00
789.2010, 27313.00
790.3450, 27321.00
791.4880, 27507.00
792.6310, 27613.00
793.7730, 27599.00
794.9160, 27722.00
796.0590, 27616.00
797.2010, 27610.00
798.3430, 27721.00
799.4850, 27312.00
800.6270, 27362.00
801.7690, 26975.00
802.9100, 26821.00
804.0520, 26787.00
805.1930, 26286.00
806.3340, 26132.00
807.4750, 26083.00
808.6160, 25963.00
809.7560, 25841.00
810.8970, 25692.00
812.0370, 25616.00
813.1770, 25502.00
814.3170, 25477.00
815.4570, 25629.00
816.5960, 25582.00
817.7360, 25534.00
818.8750, 25436.00
820.0140, 25344.00
821.1530, 25200.49
822.2920, 25105.00
823.4310, 24861.00
824.5690, 24764.00
825.7070, 24574.00
826.8460, 24129.00
827.9840, 24148.00
829.1220, 23768.00
830.2590, 23557.00
831.3970, 23414.00
832.5340, 23322.00
833.6710, 23151.00
834.8080, 23057.00
835.9450, 23024.00
837.0820, 23342.00
838.2190, 23128.90
839.3550, 23115.00
840.4910, 23053.00
841.6270, 22903.00
842.7630, 23064.00
843.8990, 23072.00
845.0350, 23032.00
846.1700, 22947.00
847.3060, 22969.01
848.4410, 23023.00
849.5760, 22921.00
850.7100, 22917.00
851.8450, 22802.00
852.9800, 22932.00
854.1140, 23139.00
855.2480, 22915.00
856.3820, 23398.00
857.5160, 23076.00
858.6500, 22924.00
859.7830, 23157.00
860.9170, 23105.00
862.0500, 23193.00
863.1830, 23259.00
864.3160, 23159.00
865.4480, 23011.00
866.5810, 23248.00
867.7130, 23384.00
868.8460, 23186.00
869.9780, 23055.00
871.1100, 23350.00
872.2410, 23181.00
873.3730, 23201.00
874.5050, 23166.00
875.6360, 23034.00
876.7670, 23009.00
877.8980, 23043.00
879.0290, 22923.00
880.1590, 22999.33
881.2900, 23188.00
882.4200, 23088.00
883.5500, 23107.00
884.6800, 23149.00
885.8100, 23151.00
886.9400, 23208.00
888.0690, 23243.82
889.1990, 23331.00
890.3280, 23287.00
891.4570, 23367.00
892.5860, 23282.00
893.7140, 23351.00
894.8430, 23328.00
895.9710, 23440.00
897.1000, 23215.00
898.2280, 23385.00
899.3560, 23126.00
900.4830, 23233.00
901.6110, 23284.00
902.7380, 23329.00
903.8660, 23407.00
904.9930, 23516.00
906.1200, 23595.00
907.2460, 23661.00
908.3730, 23385.00
909.5000, 23624.00
910.6260, 23421.00
911.7520, 23543.00
912.8780, 23543.00
914.0040, 23545.00
915.1290, 23511.00
916.2550, 23614.00
917.3800, 23594.00
918.5050, 23663.00
919.6300, 23730.00
920.7550, 23625.00
921.8800, 23746.00
923.0040, 23869.00
924.1290, 23824.00
925.2530, 23613.00
926.3770, 23526.00
927.5010, 23602.00
928.6250, 23724.00
929.7480, 23826.00
930.8720, 23825.00
931.9950, 23737.00
933.1180, 23868.00
934.2410, 23840.00
935.3640, 23888.00
936.4860, 23868.00
937.6090, 23938.00
938.7310, 23924.00
939.8530, 23942.43
940.9750, 23887.00
942.0970, 23963.00
943.2180, 23868.00
944.3400, 23867.00
945.4610, 24067.00
946.5820, 23907.00
947.7030, 23913.00
948.8240, 24183.00
949.9450, 24091.00
951.0650, 24464.00
952.1860, 24320.00
953.3060, 24302.00
954.4260, 24333.00
955.5460, 24385.00
956.6650, 24238.00
957.7850, 24369.00
958.9040, 24253.00
960.0230, 24486.00
961.1420, 24496.00
962.2610, 24468.00
963.3800, 24629.00
964.4990, 24492.00
965.6170, 24559.00
966.7350, 24527.00
967.8530, 24743.00
968.9710, 24631.00
970.0890, 24701.00
971.2070, 24744.00
972.3240, 24622.00
973.4410, 24627.00
974.5580, 24704.00
975.6750, 24971.00
976.7920, 24698.00
977.9090, 24834.00
979.0250, 24985.00
980.1410, 24931.00
981.2580, 24967.00
982.3740, 25072.00
983.4890, 25157.00
984.6050, 25110.00
985.7200, 25192.00
986.8360, 25280.00
987.9510, 25326.00
989.0660, 25434.00
990.1810, 25520.63
991.2950, 25524.08
992.4100, 25667.00
993.5240, 25516.00
994.6390, 25450.00
995.7530, 25410.00
996.8660, 25663.00
997.9800, 25682.00
999.0940, 25822.00
1000.207, 25862.00
1001.320, 25769.00
1002.433, 25916.00
1003.546, 25879.00
1004.659, 26033.00
1005.772, 25839.00
1006.884, 25893.00
1007.996, 25981.00
1009.108, 26068.00
1010.220, 26286.00
1011.332, 26146.00
1012.444, 26065.00
1013.555, 26434.00
1014.666, 26177.00
1015.777, 26152.00
1016.888, 26493.00
1017.999, 26492.00
1019.110, 26429.00
1020.220, 26656.00
1021.331, 26661.00
1022.441, 26505.00
1023.551, 26802.00
1024.661, 26837.00
1025.770, 26919.00
1026.880, 26853.00
1027.989, 26853.00
1029.098, 26684.00
1030.207, 26932.00
1031.316, 26845.00
1032.425, 26929.00
1033.533, 27248.00
1034.642, 26979.00
1035.750, 27060.00
1036.858, 27167.00
1037.966, 26890.00
1039.073, 26994.00
1040.181, 27205.00
1041.288, 27262.00
1042.396, 27395.00
1043.503, 27352.00
1044.610, 27355.00
1045.716, 27441.00
1046.823, 27409.64
1047.929, 27446.94
1049.036, 27493.00
1050.142, 27434.00
1051.248, 27604.00
1052.353, 27517.00
1053.459, 27512.00
1054.564, 27529.00
1055.670, 27485.00
1056.775, 27618.00
1057.880, 27512.00
1058.985, 27506.00
1060.089, 27585.00
1061.194, 27429.00
1062.298, 27530.82
1063.402, 27728.00
1064.506, 27671.00
1065.610, 27612.00
1066.713, 27776.00
1067.817, 28000.00
1068.920, 27688.00
1070.023, 27861.00
1071.126, 27876.00
1072.229, 27882.00
1073.332, 28040.38
1074.435, 28049.00
1075.537, 28211.00
1076.639, 28137.00
1077.741, 28055.00
1078.843, 28245.00
1079.945, 28356.00
1081.046, 28292.00
1082.148, 28488.00
1083.249, 28706.00
1084.350, 28743.00
1085.451, 28810.00
1086.551, 28895.22
1087.652, 29013.00
1088.752, 28996.00
1089.853, 29146.00
1090.953, 29241.00
1092.053, 29390.00
1093.152, 29455.00
1094.252, 29319.00
1095.351, 29785.00
1096.451, 29747.00
1097.550, 30088.00
1098.649, 30009.00
1099.748, 30063.00
1100.846, 30278.00
1101.945, 30374.00
1103.043, 30282.00
1104.141, 30272.00
1105.239, 30441.00
1106.337, 30601.00
1107.434, 30610.00
1108.532, 30796.00
1109.629, 30783.41
1110.726, 30788.30
1111.823, 30746.00
1112.920, 30831.00
1114.017, 30740.00
1115.113, 30987.00
1116.210, 31145.00
1117.306, 30733.00
1118.402, 31098.00
1119.498, 30938.00
1120.593, 31214.00
1121.689, 31185.00
1122.784, 31201.00
1123.879, 31138.00
1124.974, 31048.00
1126.069, 31066.40
1127.164, 31047.22
1128.259, 31099.00
1129.353, 31166.00
1130.447, 31291.00
1131.541, 31524.00
1132.635, 31153.00
1133.729, 31502.00
1134.822, 31274.00
1135.916, 31442.00
1137.009, 31267.00
1138.102, 31255.00
1139.195, 31324.00
1140.288, 31294.00
1141.380, 31337.83
1142.473, 31241.00
1143.565, 31413.00
1144.657, 31424.00
1145.749, 31488.00
1146.841, 31281.00
1147.932, 31422.00
1149.024, 31385.00
1150.115, 31380.00
1151.206, 31375.00
1152.297, 31287.00
1153.388, 31051.00
1154.479, 31333.00
1155.569, 31211.00
1156.659, 31001.00
1157.750, 31097.00
1158.839, 31083.00
1159.929, 30999.00
1161.019, 31138.00
1162.108, 30992.00
1163.198, 31028.00
1164.287, 31066.00
1165.376, 30932.00
1166.465, 31008.00
1167.553, 30875.00
1168.642, 31051.00
1169.730, 31216.00
1170.818, 31126.00
1171.906, 30938.00
1172.994, 30801.00
1174.082, 30864.00
1175.170, 30924.00
1176.257, 31086.00
1177.344, 31007.00
1178.431, 30965.57
1179.518, 30666.00
1180.605, 30649.00
1181.691, 30636.00
1182.778, 30333.00
1183.864, 30603.00
1184.950, 30386.00
1186.036, 30488.00
1187.122, 30336.00
1188.207, 30501.00
1189.292, 30188.00
1190.378, 30291.00
1191.463, 30170.00
1192.548, 30154.00
1193.632, 29994.00
1194.717, 29995.38
1195.801, 29939.00
1196.886, 29944.00
1197.970, 29927.00
1199.054, 29854.00
1200.137, 29584.00
1201.221, 29366.00
1202.305, 29578.00
1203.388, 29679.00
1204.471, 29523.00
1205.554, 29518.00
1206.637, 29293.00
1207.719, 29360.00
1208.802, 29450.00
1209.884, 29320.00
1210.966, 29226.00
1212.048, 29226.00
1213.130, 29179.00
1214.212, 29124.00
1215.293, 29318.00
1216.374, 29351.00
1217.456, 29000.00
1218.536, 29207.00
1219.617, 29110.00
1220.698, 29100.00
1221.778, 29292.00
1222.859, 29414.00
1223.939, 29117.00
1225.019, 29238.00
1226.099, 29404.00
1227.178, 29173.00
1228.258, 29339.00
1229.337, 29202.00
1230.417, 29296.00
1231.496, 29028.00
1232.574, 29340.00
1233.653, 29203.00
1234.732, 29121.00
1235.810, 29258.00
1236.888, 29148.00
1237.966, 29276.00
1239.044, 29207.00
1240.122, 29247.11
1241.199, 29352.00
1242.277, 29259.00
1243.354, 29263.00
1244.431, 29140.00
1245.508, 29446.00
1246.585, 29308.00
1247.661, 29473.00
1248.738, 29233.00
1249.814, 29460.00
1250.890, 29589.00
1251.966, 29504.00
1253.042, 29507.00
1254.117, 29626.00
1255.193, 29562.10
1256.268, 29284.00
1257.343, 29587.00
1258.418, 29549.00
1259.493, 29612.00
1260.567, 29240.00
1261.642, 29627.00
1262.716, 29619.00
1263.790, 29743.00
