##NAMES=Clinohumite
##RRUFFID=R040122
##IDEAL CHEMISTRY=Mg_9_(SiO_4_)_4_F_2_
##LOCALITY=Anzahamazonono,  Madagascar
##OWNER=RRUFF
##SOURCE=University of Arizona Mineral Museum
##DESCRIPTION=Orange-brown blebs embedded in calcite matrix
##STATUS=The identification of this mineral has been confirmed by X-ray diffraction and chemical analysis
##URL=rruff.info/R040122
##MEASURED CHEMISTRY=(Mg_0.96_Fe_0.02_Ti_0.01_Ca_0.01_)_9_(SiO_4_)_4_(F_0.59_(OH)_0.41_)_2_
##PIN_ID=M00126
##ORIENTATION=Laser parallel to -b* (0 -1 0). Fiducial mark perpendicular to laser is parallel to -c [0 0 -1]
124.2880, 9322.000
125.5190, 9402.000
126.7490, 9403.000
127.9790, 9539.000
129.2090, 9562.907
130.4390, 9643.000
131.6680, 9642.000
132.8980, 9729.000
134.1270, 9725.000
135.3560, 9918.000
136.5850, 9957.000
137.8140, 10136.00
139.0430, 10179.00
140.2710, 10199.00
141.5000, 10208.00
142.7280, 10319.00
143.9560, 10156.00
145.1840, 10406.00
146.4120, 10522.00
147.6390, 10445.00
148.8670, 10328.00
150.0940, 10332.00
151.3210, 10546.00
152.5490, 10605.00
153.7750, 10619.00
155.0020, 10656.00
156.2290, 10712.00
157.4550, 10776.00
158.6810, 10661.00
159.9080, 10947.00
161.1340, 10829.00
162.3590, 10822.00
163.5850, 10973.00
164.8110, 11073.00
166.0360, 11003.00
167.2610, 11207.00
168.4860, 11209.00
169.7110, 11173.00
170.9360, 11391.00
172.1610, 11384.00
173.3850, 11194.00
174.6100, 11478.00
175.8340, 11352.00
177.0580, 11527.00
178.2820, 11632.00
179.5050, 11559.00
180.7290, 11780.00
181.9520, 11773.00
183.1760, 11899.00
184.3990, 12002.00
185.6220, 12116.00
186.8450, 12113.00
188.0670, 12101.00
189.2900, 12118.81
190.5120, 11866.00
191.7340, 12102.00
192.9560, 12017.00
194.1780, 12061.00
195.4000, 12199.00
196.6220, 12369.00
197.8430, 12360.00
199.0640, 12460.00
200.2860, 12618.00
201.5070, 12714.00
202.7270, 12684.00
203.9480, 12781.00
205.1690, 12679.00
206.3890, 12743.00
207.6090, 12640.00
208.8290, 12600.00
210.0490, 12649.00
211.2690, 12599.00
212.4890, 12620.00
213.7080, 12521.00
214.9280, 12620.00
216.1470, 12606.00
217.3660, 12609.00
218.5850, 12642.00
219.8030, 12575.00
221.0220, 12627.00
222.2400, 12633.00
223.4590, 12720.00
224.6770, 12792.13
225.8950, 12991.00
227.1120, 13003.00
228.3300, 13145.53
229.5480, 13299.00
230.7650, 13303.00
231.9820, 13369.00
233.1990, 13402.00
234.4160, 13297.00
235.6330, 13457.00
236.8490, 13631.00
238.0660, 13423.00
239.2820, 13455.00
240.4980, 13505.00
241.7140, 13532.00
242.9300, 13480.00
244.1460, 13538.00
245.3610, 13486.00
246.5770, 13581.00
247.7920, 13446.00
249.0070, 13642.00
250.2220, 13508.00
251.4370, 13655.00
252.6510, 13620.00
253.8660, 13821.00
255.0800, 13803.00
256.2940, 13715.00
257.5080, 13794.00
258.7220, 13689.00
259.9360, 13907.00
261.1490, 13896.00
262.3630, 13791.00
263.5760, 13763.00
264.7890, 13703.00
266.0020, 13669.00
267.2150, 13662.00
268.4270, 13637.00
269.6400, 13617.00
270.8520, 13545.00
272.0640, 13703.00
273.2760, 13621.00
274.4880, 13690.00
275.7000, 13767.00
276.9120, 13760.00
278.1230, 13895.00
279.3340, 13707.00
280.5450, 13931.00
281.7560, 13862.00
282.9670, 13801.00
284.1780, 13998.00
285.3880, 13953.00
286.5980, 13883.00
287.8090, 14071.00
289.0190, 13998.00
290.2290, 13984.00
291.4380, 14218.00
292.6480, 14121.00
293.8570, 14143.00
295.0670, 13995.00
296.2760, 13965.00
297.4850, 14051.00
298.6930, 14045.00
299.9020, 14032.00
301.1110, 14220.00
302.3190, 14331.00
303.5270, 14281.00
304.7350, 14360.00
305.9430, 14505.00
307.1510, 14509.00
308.3580, 14596.00
309.5660, 14500.00
310.7730, 14590.00
311.9800, 14887.00
313.1870, 14720.00
314.3940, 14809.00
315.6010, 14948.76
316.8070, 15279.00
318.0130, 15210.00
319.2200, 15390.00
320.4260, 15577.00
321.6310, 15614.00
322.8370, 15552.00
324.0430, 15345.00
325.2480, 15208.00
326.4540, 14976.00
327.6590, 14973.00
328.8640, 14905.00
330.0680, 14895.00
331.2730, 14932.00
332.4780, 14783.00
333.6820, 15013.00
334.8860, 14759.00
336.0900, 14809.00
337.2940, 14738.00
338.4980, 14850.00
339.7010, 14894.00
340.9050, 14769.00
342.1080, 14710.00
343.3110, 14688.00
344.5140, 14775.00
345.7170, 14793.00
346.9200, 14735.00
348.1220, 14691.00
349.3240, 14938.00
350.5270, 14819.00
351.7290, 14936.00
352.9310, 14904.00
354.1320, 14995.00
355.3340, 14883.00
356.5350, 15030.00
357.7370, 15009.00
358.9380, 14955.00
360.1390, 14969.00
361.3400, 14966.00
362.5400, 14978.00
363.7410, 14936.00
364.9410, 15129.00
366.1410, 15075.00
367.3410, 15100.00
368.5410, 14943.00
369.7410, 15089.00
370.9400, 15074.00
372.1400, 15151.00
373.3390, 15158.00
374.5380, 15073.00
375.7370, 15058.00
376.9360, 15185.00
378.1350, 15295.00
379.3330, 15192.00
380.5310, 15261.00
381.7300, 15393.00
382.9280, 15256.00
384.1260, 15306.00
385.3230, 15408.00
386.5210, 15407.00
387.7180, 15519.00
388.9160, 15452.00
390.1130, 15520.00
391.3100, 15582.00
392.5060, 15619.00
393.7030, 15661.36
394.9000, 15694.86
396.0960, 15716.00
397.2920, 15724.00
398.4880, 15744.00
399.6840, 15746.73
400.8800, 15776.00
402.0750, 15753.46
403.2710, 15758.15
404.4660, 15767.00
405.6610, 15785.00
406.8560, 15822.00
408.0510, 15904.00
409.2450, 16125.00
410.4400, 16017.00
411.6340, 16112.00
412.8280, 15963.00
414.0220, 16075.00
415.2160, 16207.00
416.4100, 16165.00
417.6030, 16162.00
418.7970, 16319.00
419.9900, 16372.00
421.1830, 16296.00
422.3760, 16224.00
423.5690, 16221.00
424.7610, 16310.00
425.9540, 16279.00
427.1460, 16277.00
428.3380, 16221.00
429.5300, 16335.00
430.7220, 16417.00
431.9140, 16528.00
433.1050, 16302.00
434.2970, 16507.00
435.4880, 16616.00
436.6790, 16420.00
437.8700, 16504.00
439.0610, 16613.00
440.2510, 16570.00
441.4420, 16581.00
442.6320, 16641.00
443.8220, 16610.00
445.0120, 16552.00
446.2020, 16545.00
447.3910, 16610.00
448.5810, 16632.00
449.7700, 16653.53
450.9600, 16578.00
452.1490, 16719.00
453.3370, 16842.00
454.5260, 16920.00
455.7150, 16626.00
456.9030, 16907.00
458.0910, 16703.00
459.2800, 16837.00
460.4670, 17031.00
461.6550, 16723.00
462.8430, 16883.00
464.0300, 16979.00
465.2180, 17083.00
466.4050, 17270.00
467.5920, 17165.00
468.7790, 17295.00
469.9650, 17187.00
471.1520, 17257.00
472.3380, 17227.00
473.5250, 17279.00
474.7110, 17266.00
475.8970, 17382.00
477.0820, 17216.00
478.2680, 17350.00
479.4540, 17311.00
480.6390, 17225.00
481.8240, 17207.00
483.0090, 17231.00
484.1940, 17358.00
485.3780, 17302.00
486.5630, 17334.00
487.7470, 17325.00
488.9320, 17233.00
490.1160, 17340.00
491.3000, 17289.00
492.4830, 17299.00
493.6670, 17452.00
494.8500, 17294.00
496.0340, 17482.00
497.2170, 17360.00
498.4000, 17446.00
499.5820, 17337.00
500.7650, 17409.00
501.9480, 17427.37
503.1300, 17568.00
504.3120, 17541.00
505.4940, 17555.00
506.6760, 17697.00
507.8580, 17787.00
509.0390, 17626.00
510.2210, 17699.00
511.4020, 17671.00
512.5830, 17564.00
513.7640, 17654.00
514.9450, 17794.00
516.1250, 17680.00
517.3060, 17642.00
518.4860, 17845.00
519.6660, 17916.00
520.8460, 17886.00
522.0260, 17878.00
523.2060, 17958.00
524.3850, 18016.00
525.5650, 17967.00
526.7440, 18055.00
527.9230, 17981.00
529.1020, 18098.00
530.2810, 18101.00
531.4590, 18077.00
532.6380, 18411.00
533.8160, 18498.00
534.9940, 18333.00
536.1720, 18503.00
537.3500, 18480.00
538.5270, 18305.00
539.7050, 18252.00
540.8820, 18334.00
542.0590, 18466.00
543.2360, 18559.00
544.4130, 18489.00
545.5900, 18642.00
546.7660, 18568.00
547.9430, 18580.00
549.1190, 18707.00
550.2950, 18690.00
551.4710, 18523.00
552.6470, 18733.00
553.8220, 18595.00
554.9980, 18641.00
556.1730, 18565.00
557.3480, 18576.00
558.5230, 18581.00
559.6980, 18461.00
560.8730, 18480.00
562.0470, 18618.00
563.2220, 18761.00
564.3960, 18771.00
565.5700, 18752.00
566.7440, 18693.00
567.9170, 18824.00
569.0910, 18770.00
570.2640, 18888.00
571.4380, 18848.00
572.6110, 19140.00
573.7840, 19110.00
574.9570, 19243.00
576.1290, 19345.18
577.3020, 19547.00
578.4740, 19548.00
579.6460, 19788.00
580.8180, 20030.00
581.9900, 20019.00
583.1620, 20320.00
584.3330, 20202.00
585.5040, 20374.00
586.6760, 20240.00
587.8470, 20501.00
589.0180, 20341.00
590.1880, 20259.00
591.3590, 20518.00
592.5290, 20412.00
593.7000, 20615.00
594.8700, 20764.00
596.0400, 21043.00
597.2090, 21399.00
598.3790, 21558.00
599.5490, 22136.00
600.7180, 22604.00
601.8870, 23118.00
603.0560, 23799.00
604.2250, 24333.00
605.3940, 24743.00
606.5620, 25363.00
607.7300, 25587.00
608.8990, 25381.00
610.0670, 24999.00
611.2350, 24531.00
612.4020, 23967.00
613.5700, 23036.00
614.7370, 22525.00
615.9050, 21997.00
617.0720, 21612.00
618.2390, 21237.00
619.4060, 21024.00
620.5720, 20799.00
621.7390, 20700.00
622.9050, 20647.00
624.0710, 20355.00
625.2370, 20398.00
626.4030, 20321.00
627.5690, 20247.00
628.7340, 20205.00
629.9000, 20141.00
631.0650, 20068.00
632.2300, 20057.29
633.3950, 20024.61
634.5600, 20046.00
635.7240, 20010.00
636.8890, 20041.00
638.0530, 20037.82
639.2170, 20015.00
640.3810, 20124.00
641.5450, 20186.00
642.7080, 20168.00
643.8720, 20193.60
645.0350, 20188.68
646.1980, 20131.00
647.3610, 20159.00
648.5240, 20102.00
649.6870, 20079.00
650.8490, 20133.96
652.0120, 20220.00
653.1740, 20210.00
654.3360, 20225.00
655.4980, 20194.00
656.6600, 20139.00
657.8210, 20350.00
658.9830, 20524.00
660.1440, 20283.00
661.3050, 20400.00
662.4660, 20207.00
663.6270, 20336.00
664.7870, 20433.00
665.9480, 20427.00
667.1080, 20302.00
668.2680, 20441.00
669.4280, 20568.00
670.5880, 20645.00
671.7480, 20465.00
672.9070, 20506.00
674.0670, 20610.00
675.2260, 20711.00
676.3850, 20634.00
677.5440, 20754.00
678.7030, 20793.00
679.8610, 20745.00
681.0200, 20834.00
682.1780, 20770.00
683.3360, 20626.00
684.4940, 20763.00
685.6520, 20805.00
686.8090, 20911.00
687.9670, 20966.00
689.1240, 21084.00
690.2810, 20793.00
691.4380, 21262.00
692.5950, 20994.00
693.7520, 21046.00
694.9080, 21211.00
696.0650, 21280.00
697.2210, 21412.00
698.3770, 21429.31
699.5330, 21225.00
700.6880, 21457.00
701.8440, 21303.00
702.9990, 21354.00
704.1550, 21391.00
705.3100, 21510.00
706.4650, 21399.00
707.6190, 21548.00
708.7740, 21481.00
709.9290, 21589.00
711.0830, 21484.00
712.2370, 21737.00
713.3910, 21592.00
714.5450, 21761.00
715.6980, 21585.00
716.8520, 21970.00
718.0050, 21968.00
719.1580, 22053.00
720.3110, 22176.00
721.4640, 22132.00
722.6170, 22062.00
723.7700, 22331.00
724.9220, 22323.00
726.0740, 22541.00
727.2260, 22499.00
728.3780, 22538.00
729.5300, 22731.00
730.6810, 22927.00
731.8330, 23095.00
732.9840, 23114.00
734.1350, 23278.00
735.2860, 23334.00
736.4370, 23575.00
737.5880, 23699.00
738.7380, 23880.00
739.8880, 24072.00
741.0390, 24224.00
742.1890, 24302.00
743.3380, 24288.00
744.4880, 24408.00
745.6380, 24602.00
746.7870, 24882.00
747.9360, 24855.00
749.0850, 24771.00
750.2340, 24943.00
751.3830, 24924.00
752.5310, 24880.00
753.6800, 24808.00
754.8280, 24739.47
755.9760, 24684.00
757.1240, 24555.00
758.2720, 24695.00
759.4190, 24614.00
760.5670, 24618.00
761.7140, 24313.00
762.8610, 24306.00
764.0080, 24326.00
765.1550, 24288.00
766.3020, 24327.15
767.4480, 24317.00
768.5950, 24405.00
769.7410, 24494.00
770.8870, 24579.96
772.0330, 24537.00
773.1780, 24794.00
774.3240, 25059.00
775.4690, 25297.00
776.6140, 25671.66
777.7590, 26058.50
778.9040, 26504.00
780.0490, 27006.00
781.1940, 27582.00
782.3380, 28180.00
783.4820, 28657.00
784.6260, 28597.00
785.7700, 28601.00
786.9140, 28512.00
788.0580, 28207.00
789.2010, 27868.00
790.3450, 27683.00
791.4880, 27207.00
792.6310, 26769.00
793.7730, 26877.00
794.9160, 26694.00
796.0590, 26872.00
797.2010, 26768.00
798.3430, 27044.00
799.4850, 27225.00
800.6270, 27346.00
801.7690, 27800.00
802.9100, 28369.00
804.0520, 28907.00
805.1930, 29377.00
806.3340, 29977.00
807.4750, 30248.00
808.6160, 30677.00
809.7560, 30575.00
810.8970, 30459.00
812.0370, 30746.00
813.1770, 30486.00
814.3170, 30402.00
815.4570, 30788.00
816.5960, 30983.00
817.7360, 31303.00
818.8750, 31660.00
820.0140, 32704.00
821.1530, 33106.00
822.2920, 34392.00
823.4310, 36171.00
824.5690, 38086.00
825.7070, 40376.00
826.8460, 43263.00
827.9840, 45873.00
829.1220, 47667.00
830.2590, 48810.00
831.3970, 48396.00
832.5340, 46615.00
833.6710, 44565.00
834.8080, 42802.00
835.9450, 41139.00
837.0820, 40469.00
838.2190, 40446.00
839.3550, 40964.00
840.4910, 42163.00
841.6270, 43406.00
842.7630, 45227.00
843.8990, 46771.00
845.0350, 47787.00
846.1700, 48560.00
847.3060, 47888.00
848.4410, 46839.00
849.5760, 45341.00
850.7100, 44522.00
851.8450, 43877.00
852.9800, 43735.00
854.1140, 44827.00
855.2480, 46012.00
856.3820, 47770.00
857.5160, 50593.00
858.6500, 52697.00
859.7830, 53961.00
860.9170, 53902.00
862.0500, 52058.00
863.1830, 49075.00
864.3160, 45864.00
865.4480, 42947.00
866.5810, 40576.00
867.7130, 38479.00
868.8460, 37362.00
869.9780, 35911.00
871.1100, 35303.00
872.2410, 35006.00
873.3730, 34433.00
874.5050, 34548.00
875.6360, 34415.00
876.7670, 34208.00
877.8980, 33804.00
879.0290, 33555.00
880.1590, 32670.00
881.2900, 32014.00
882.4200, 31039.00
883.5500, 30627.00
884.6800, 29886.00
885.8100, 29315.00
886.9400, 29030.00
888.0690, 28606.00
889.1990, 28546.00
890.3280, 28347.00
891.4570, 28080.00
892.5860, 27988.00
893.7140, 27783.00
894.8430, 27663.31
895.9710, 27920.00
897.1000, 27563.00
898.2280, 27399.00
899.3560, 27586.00
900.4830, 27387.00
901.6110, 27431.00
902.7380, 27444.00
903.8660, 27476.00
904.9930, 27493.00
906.1200, 27667.00
907.2460, 27695.69
908.3730, 27697.00
909.5000, 27873.00
910.6260, 27865.00
911.7520, 27969.00
912.8780, 27986.00
914.0040, 27928.00
915.1290, 27824.00
916.2550, 27935.00
917.3800, 27786.00
918.5050, 27864.00
919.6300, 27732.00
920.7550, 27803.00
921.8800, 27593.00
923.0040, 27528.00
924.1290, 27423.00
925.2530, 27458.78
926.3770, 27620.00
927.5010, 27633.00
928.6250, 27684.00
929.7480, 27790.00
930.8720, 27752.00
931.9950, 27738.00
933.1180, 27683.00
934.2410, 27683.00
935.3640, 27650.76
936.4860, 27610.00
937.6090, 27585.00
938.7310, 27534.00
939.8530, 27455.00
940.9750, 27629.00
942.0970, 27542.00
943.2180, 27631.00
944.3400, 27778.00
945.4610, 27700.00
946.5820, 27973.00
947.7030, 27800.00
948.8240, 27919.00
949.9450, 28201.00
951.0650, 28218.00
952.1860, 28153.00
953.3060, 27966.00
954.4260, 28365.00
955.5460, 28747.00
956.6650, 28666.00
957.7850, 28920.00
958.9040, 29527.00
960.0230, 30216.00
961.1420, 30599.00
962.2610, 31460.00
963.3800, 32412.00
964.4990, 33696.00
965.6170, 34711.00
966.7350, 35455.00
967.8530, 35795.00
968.9710, 35898.00
970.0890, 35162.00
971.2070, 34151.00
972.3240, 33280.00
973.4410, 32591.30
974.5580, 31576.00
975.6750, 31263.00
976.7920, 30718.00
977.9090, 30167.00
979.0250, 30093.00
980.1410, 29469.00
981.2580, 29563.00
982.3740, 29223.00
983.4890, 29055.00
984.6050, 29224.00
985.7200, 29211.00
986.8360, 28915.00
987.9510, 28693.00
989.0660, 29105.00
990.1810, 28955.00
991.2950, 28754.00
992.4100, 28760.00
993.5240, 28785.00
994.6390, 28959.00
995.7530, 28947.00
996.8660, 28846.00
997.9800, 28994.00
999.0940, 28644.00
1000.207, 28943.00
1001.320, 29116.00
1002.433, 29015.00
1003.546, 29331.00
1004.659, 29155.00
1005.772, 29228.00
1006.884, 29140.00
1007.996, 29267.00
1009.108, 29180.00
1010.220, 29274.00
1011.332, 29254.00
1012.444, 29200.00
1013.555, 29241.00
1014.666, 29312.00
1015.777, 29170.00
1016.888, 29123.00
1017.999, 29354.00
1019.110, 29267.00
1020.220, 29324.00
1021.331, 29351.93
1022.441, 29381.00
1023.551, 29331.00
1024.661, 29457.00
1025.770, 29457.00
1026.880, 29406.00
1027.989, 29614.00
1029.098, 29367.00
1030.207, 29532.00
1031.316, 29644.00
1032.425, 29598.00
1033.533, 29604.00
1034.642, 29772.00
1035.750, 29564.00
1036.858, 29796.00
1037.966, 29750.00
1039.073, 29745.00
1040.181, 29921.00
1041.288, 29663.00
1042.396, 29908.00
1043.503, 30004.00
1044.610, 29982.00
1045.716, 30046.52
1046.823, 29959.00
1047.929, 30022.00
1049.036, 29958.00
1050.142, 30031.00
1051.248, 30072.53
1052.353, 29932.00
1053.459, 30128.00
1054.564, 30149.00
1055.670, 30021.00
1056.775, 30049.00
1057.880, 30086.00
1058.985, 29890.00
1060.089, 30050.00
1061.194, 30145.00
1062.298, 30072.00
1063.402, 30150.00
1064.506, 30303.00
1065.610, 30053.00
1066.713, 30122.00
1067.817, 30237.00
1068.920, 30024.00
1070.023, 30291.00
1071.126, 30419.00
1072.229, 30275.00
1073.332, 30479.00
1074.435, 30290.00
1075.537, 30285.00
1076.639, 30459.00
1077.741, 30299.00
1078.843, 30526.00
1079.945, 30755.00
1081.046, 30950.00
1082.148, 30687.00
1083.249, 30758.00
1084.350, 30647.00
1085.451, 30659.00
1086.551, 30640.00
1087.652, 30693.52
1088.752, 30885.00
1089.853, 30830.00
1090.953, 31046.00
1092.053, 31039.00
1093.152, 31115.00
1094.252, 30992.00
1095.351, 31014.00
1096.451, 31050.00
1097.550, 31205.00
1098.649, 31168.00
1099.748, 31317.00
1100.846, 31205.00
1101.945, 31347.00
1103.043, 31156.00
1104.141, 31192.23
1105.239, 31148.00
1106.337, 31222.00
1107.434, 31243.00
1108.532, 31392.00
1109.629, 31394.00
1110.726, 31485.00
1111.823, 31502.00
1112.920, 31635.00
1114.017, 31467.00
1115.113, 31496.00
1116.210, 31786.00
1117.306, 31606.00
1118.402, 31762.00
1119.498, 31902.00
1120.593, 31787.00
1121.689, 31880.00
1122.784, 31700.00
1123.879, 32123.00
1124.974, 32012.00
1126.069, 31966.00
1127.164, 32032.00
1128.259, 31792.00
1129.353, 31933.42
1130.447, 31968.00
1131.541, 32096.00
1132.635, 32066.00
1133.729, 32165.00
1134.822, 32134.00
1135.916, 32262.00
1137.009, 32239.00
1138.102, 32293.00
1139.195, 32339.00
1140.288, 32079.00
1141.380, 32299.00
1142.473, 32428.00
1143.565, 32088.00
1144.657, 32346.00
1145.749, 32601.00
1146.841, 32519.00
1147.932, 32557.00
1149.024, 32728.00
1150.115, 32398.00
1151.206, 32478.00
1152.297, 32861.00
1153.388, 32635.00
1154.479, 32592.00
1155.569, 32661.00
1156.659, 32780.00
1157.750, 32892.00
1158.839, 32741.00
1159.929, 32936.00
1161.019, 32955.00
1162.108, 32684.00
1163.198, 33032.00
1164.287, 32983.00
1165.376, 32916.00
1166.465, 32913.00
1167.553, 33208.00
1168.642, 33085.00
1169.730, 33143.00
1170.818, 33218.00
1171.906, 32923.00
1172.994, 33198.00
1174.082, 33317.00
1175.170, 33340.00
1176.257, 33046.00
1177.344, 33196.00
1178.431, 33323.00
1179.518, 33422.00
1180.605, 33468.00
1181.691, 33528.35
1182.778, 33532.00
1183.864, 33517.00
1184.950, 33527.00
1186.036, 33382.00
1187.122, 33740.00
1188.207, 33811.00
1189.292, 33581.00
1190.378, 33756.00
1191.463, 33654.00
1192.548, 33692.00
1193.632, 34022.00
1194.717, 33723.00
1195.801, 33832.00
1196.886, 34082.00
1197.970, 33976.00
1199.054, 33873.00
1200.137, 34277.00
1201.221, 34094.00
1202.305, 34019.00
1203.388, 34130.00
1204.471, 34108.00
1205.554, 34216.00
1206.637, 34213.00
1207.719, 34224.00
1208.802, 34304.00
1209.884, 34389.00
1210.966, 34481.00
1212.048, 34632.00
1213.130, 34607.00
1214.212, 34436.00
1215.293, 34538.82
1216.374, 34393.00
1217.456, 34531.00
1218.536, 34522.00
1219.617, 34473.00
1220.698, 34284.00
1221.778, 34642.00
1222.859, 34432.00
1223.939, 34905.00
1225.019, 34639.00
1226.099, 34667.00
1227.178, 34760.00
1228.258, 34813.00
1229.337, 34923.00
1230.417, 35036.00
1231.496, 35036.00
1232.574, 35091.00
1233.653, 35065.00
1234.732, 35233.00
1235.810, 35018.00
1236.888, 35271.00
1237.966, 35227.00
1239.044, 35154.00
1240.122, 35219.00
1241.199, 35399.00
1242.277, 35540.00
1243.354, 35468.00
1244.431, 35433.00
1245.508, 35418.00
1246.585, 35518.00
1247.661, 35386.00
1248.738, 35511.00
1249.814, 35666.00
1250.890, 35519.00
1251.966, 35366.00
1253.042, 35510.00
1254.117, 35580.00
1255.193, 35710.00
1256.268, 35635.66
1257.343, 35683.00
1258.418, 35578.00
1259.493, 35663.00
1260.567, 35933.00
1261.642, 35486.00
1262.716, 36066.00
1263.790, 35929.00
1264.864, 36110.00
1265.938, 36051.00
1267.011, 36042.00
1268.085, 36083.00
1269.158, 36013.00
1270.231, 36057.20
1271.304, 35935.00
1272.377, 36122.00
1273.450, 36052.00
1274.522, 36129.00
1275.594, 36355.00
1276.666, 36292.00
1277.738, 36428.00
1278.810, 36139.00
1279.882, 36244.00
1280.953, 36233.00
1282.025, 36286.00
1283.096, 36355.50
1284.167, 36364.59
1285.238, 36479.00
1286.308, 36472.00
1287.379, 36515.00
1288.449, 36667.00
1289.519, 36771.00
1290.589, 36456.00
1291.659, 36597.00
1292.729, 36529.00
1293.798, 36893.00
1294.868, 37110.00
1295.937, 36837.00
1297.006, 36891.00
1298.075, 36846.00
