##NAMES=Clinohumite
##RRUFFID=R040122
##IDEAL CHEMISTRY=Mg_9_(SiO_4_)_4_F_2_
##LOCALITY=Anzahamazonono,  Madagascar
##OWNER=RRUFF
##SOURCE=University of Arizona Mineral Museum
##DESCRIPTION=Orange-brown blebs embedded in calcite matrix
##STATUS=The identification of this mineral has been confirmed by X-ray diffraction and chemical analysis
##URL=rruff.info/R040122
##MEASURED CHEMISTRY=(Mg_0.96_Fe_0.02_Ti_0.01_Ca_0.01_)_9_(SiO_4_)_4_(F_0.59_(OH)_0.41_)_2_
##PIN_ID=M00126
##ORIENTATION=Laser parallel to -b* (0 -1 0). Fiducial mark perpendicular to laser is parallel to -c [0 0 -1]
124.2880, 8285.000
125.5190, 8112.000
126.7490, 8329.000
127.9790, 8200.000
129.2090, 8365.000
130.4390, 8250.000
131.6680, 8498.000
132.8980, 8628.000
134.1270, 8484.000
135.3560, 8629.000
136.5850, 8611.000
137.8140, 8685.000
139.0430, 8792.000
140.2710, 8847.000
141.5000, 9011.000
142.7280, 8929.000
143.9560, 8965.000
145.1840, 9083.000
146.4120, 8973.000
147.6390, 9131.000
148.8670, 9179.000
150.0940, 9194.000
151.3210, 9243.000
152.5490, 9253.000
153.7750, 9285.000
155.0020, 9309.000
156.2290, 9351.000
157.4550, 9336.000
158.6810, 9357.000
159.9080, 9381.000
161.1340, 9362.000
162.3590, 9395.000
163.5850, 9622.000
164.8110, 9498.000
166.0360, 9610.000
167.2610, 9818.000
168.4860, 9695.000
169.7110, 9757.000
170.9360, 9862.000
172.1610, 9931.000
173.3850, 9847.000
174.6100, 9937.000
175.8340, 9949.000
177.0580, 9970.000
178.2820, 10350.00
179.5050, 10331.00
180.7290, 10394.00
181.9520, 10325.00
183.1760, 10583.00
184.3990, 10643.00
185.6220, 10696.00
186.8450, 10745.00
188.0670, 10648.00
189.2900, 10529.00
190.5120, 10553.00
191.7340, 10508.00
192.9560, 10649.00
194.1780, 10598.00
195.4000, 10818.00
196.6220, 10945.00
197.8430, 10966.00
199.0640, 10914.00
200.2860, 11260.00
201.5070, 11158.00
202.7270, 11241.00
203.9480, 11149.00
205.1690, 11251.00
206.3890, 11112.00
207.6090, 11150.00
208.8290, 11219.00
210.0490, 11346.00
211.2690, 11272.00
212.4890, 11165.00
213.7080, 11109.00
214.9280, 10923.00
216.1470, 11010.00
217.3660, 10893.00
218.5850, 10957.00
219.8030, 11013.00
221.0220, 11023.00
222.2400, 11009.00
223.4590, 11169.00
224.6770, 11255.00
225.8950, 11313.00
227.1120, 11480.00
228.3300, 11464.00
229.5480, 11703.00
230.7650, 11678.00
231.9820, 11593.00
233.1990, 11786.00
234.4160, 11749.00
235.6330, 11792.00
236.8490, 11747.00
238.0660, 11810.00
239.2820, 11750.00
240.4980, 11792.00
241.7140, 11792.00
242.9300, 11781.00
244.1460, 11660.00
245.3610, 11871.00
246.5770, 11844.00
247.7920, 11713.00
249.0070, 11893.00
250.2220, 11897.00
251.4370, 11949.00
252.6510, 12105.00
253.8660, 12096.00
255.0800, 12237.00
256.2940, 12171.00
257.5080, 12081.00
258.7220, 12222.00
259.9360, 12253.00
261.1490, 12150.00
262.3630, 11985.00
263.5760, 12060.00
264.7890, 12012.00
266.0020, 12017.00
267.2150, 11907.00
268.4270, 11955.00
269.6400, 11894.00
270.8520, 11877.00
272.0640, 11946.00
273.2760, 11931.00
274.4880, 11913.00
275.7000, 11932.00
276.9120, 11967.18
278.1230, 11935.00
279.3340, 12085.00
280.5450, 12242.00
281.7560, 12328.00
282.9670, 12375.41
284.1780, 12262.00
285.3880, 12367.00
286.5980, 12333.00
287.8090, 12266.00
289.0190, 12330.00
290.2290, 12233.00
291.4380, 12325.00
292.6480, 12289.00
293.8570, 12176.00
295.0670, 12287.00
296.2760, 12388.00
297.4850, 12244.00
298.6930, 12376.00
299.9020, 12362.00
301.1110, 12324.00
302.3190, 12364.00
303.5270, 12392.00
304.7350, 12422.00
305.9430, 12593.00
307.1510, 12741.00
308.3580, 12731.00
309.5660, 12714.00
310.7730, 12925.00
311.9800, 13015.00
313.1870, 12944.00
314.3940, 13037.00
315.6010, 13127.00
316.8070, 13466.00
318.0130, 13356.00
319.2200, 13664.00
320.4260, 13696.00
321.6310, 13671.00
322.8370, 13635.00
324.0430, 13440.00
325.2480, 13303.00
326.4540, 13243.00
327.6590, 13128.00
328.8640, 13020.59
330.0680, 13016.00
331.2730, 12877.00
332.4780, 12773.00
333.6820, 12857.00
334.8860, 12871.00
336.0900, 12882.00
337.2940, 13117.00
338.4980, 12858.00
339.7010, 12848.00
340.9050, 12988.00
342.1080, 12837.00
343.3110, 12875.00
344.5140, 12867.00
345.7170, 12977.00
346.9200, 12844.00
348.1220, 12890.00
349.3240, 12956.00
350.5270, 12892.00
351.7290, 12972.00
352.9310, 12977.00
354.1320, 12912.00
355.3340, 12808.00
356.5350, 12772.00
357.7370, 12817.00
358.9380, 12954.00
360.1390, 12789.00
361.3400, 12856.00
362.5400, 13084.00
363.7410, 12952.00
364.9410, 13010.00
366.1410, 12834.00
367.3410, 12995.00
368.5410, 12777.00
369.7410, 12753.00
370.9400, 13038.00
372.1400, 12857.00
373.3390, 12878.00
374.5380, 13073.00
375.7370, 12988.00
376.9360, 13042.00
378.1350, 13079.00
379.3330, 13091.00
380.5310, 13151.00
381.7300, 13162.00
382.9280, 13247.00
384.1260, 13212.00
385.3230, 13229.00
386.5210, 13314.00
387.7180, 13363.00
388.9160, 13407.00
390.1130, 13388.00
391.3100, 13495.00
392.5060, 13496.00
393.7030, 13479.00
394.9000, 13582.00
396.0960, 13553.00
397.2920, 13603.00
398.4880, 13408.00
399.6840, 13439.00
400.8800, 13403.00
402.0750, 13441.00
403.2710, 13553.00
404.4660, 13460.00
405.6610, 13531.00
406.8560, 13499.00
408.0510, 13497.00
409.2450, 13677.00
410.4400, 13669.00
411.6340, 13868.00
412.8280, 13942.00
414.0220, 13989.00
415.2160, 14013.00
416.4100, 13875.00
417.6030, 14033.00
418.7970, 13937.00
419.9900, 14060.00
421.1830, 14041.00
422.3760, 14193.00
423.5690, 14131.00
424.7610, 14021.00
425.9540, 14126.00
427.1460, 14043.00
428.3380, 14046.00
429.5300, 14064.00
430.7220, 13899.00
431.9140, 13817.00
433.1050, 14030.00
434.2970, 13962.00
435.4880, 13872.00
436.6790, 13918.00
437.8700, 13828.47
439.0610, 13834.00
440.2510, 13810.00
441.4420, 13950.00
442.6320, 14116.00
443.8220, 14102.00
445.0120, 14063.00
446.2020, 14054.00
447.3910, 14058.00
448.5810, 14061.00
449.7700, 14058.00
450.9600, 14086.85
452.1490, 14070.00
453.3370, 14143.00
454.5260, 14129.00
455.7150, 14147.00
456.9030, 14092.00
458.0910, 14115.17
459.2800, 14149.48
460.4670, 14168.00
461.6550, 14241.00
462.8430, 14354.00
464.0300, 14386.00
465.2180, 14464.00
466.4050, 14478.00
467.5920, 14512.00
468.7790, 14570.10
469.9650, 14558.00
471.1520, 14642.00
472.3380, 14718.00
473.5250, 14697.00
474.7110, 14726.84
475.8970, 14729.00
477.0820, 14701.00
478.2680, 14650.00
479.4540, 14641.00
480.6390, 14793.00
481.8240, 14831.00
483.0090, 14694.00
484.1940, 14846.00
485.3780, 14766.00
486.5630, 14724.00
487.7470, 14696.00
488.9320, 14703.00
490.1160, 14789.00
491.3000, 14582.00
492.4830, 14825.00
493.6670, 14941.00
494.8500, 14864.00
496.0340, 14834.00
497.2170, 14894.00
498.4000, 14862.00
499.5820, 14892.00
500.7650, 14822.00
501.9480, 14929.00
503.1300, 14904.00
504.3120, 15013.00
505.4940, 14985.00
506.6760, 15027.00
507.8580, 15070.05
509.0390, 15189.00
510.2210, 15105.00
511.4020, 15030.00
512.5830, 14975.00
513.7640, 15087.00
514.9450, 15094.00
516.1250, 15306.00
517.3060, 15263.00
518.4860, 15164.00
519.6660, 15290.00
520.8460, 15253.00
522.0260, 15388.00
523.2060, 15338.00
524.3850, 15352.00
525.5650, 15326.00
526.7440, 15380.00
527.9230, 15390.28
529.1020, 15438.62
530.2810, 15492.00
531.4590, 15567.00
532.6380, 15706.00
533.8160, 15803.00
534.9940, 15827.00
536.1720, 15954.00
537.3500, 15763.00
538.5270, 15867.00
539.7050, 15767.00
540.8820, 15823.00
542.0590, 15923.00
543.2360, 15897.00
544.4130, 15888.00
545.5900, 15836.00
546.7660, 16000.00
547.9430, 15895.00
549.1190, 16032.00
550.2950, 16097.00
551.4710, 16051.00
552.6470, 16065.00
553.8220, 15913.00
554.9980, 15955.00
556.1730, 15885.00
557.3480, 15882.00
558.5230, 15984.00
559.6980, 15841.00
560.8730, 15934.00
562.0470, 15920.00
563.2220, 15979.00
564.3960, 16002.00
565.5700, 16055.00
566.7440, 15946.00
567.9170, 16028.00
569.0910, 16040.00
570.2640, 16070.00
571.4380, 16200.00
572.6110, 16304.00
573.7840, 16147.00
574.9570, 16305.00
576.1290, 16274.00
577.3020, 16448.00
578.4740, 16448.00
579.6460, 16726.00
580.8180, 16641.00
581.9900, 16923.00
583.1620, 16725.00
584.3330, 17212.00
585.5040, 17122.00
586.6760, 16994.00
587.8470, 17236.00
589.0180, 17347.00
590.1880, 17199.00
591.3590, 17420.00
592.5290, 17435.00
593.7000, 17559.00
594.8700, 18039.00
596.0400, 18265.00
597.2090, 18511.00
598.3790, 19019.43
599.5490, 19435.00
600.7180, 19978.00
601.8870, 20608.00
603.0560, 21154.00
604.2250, 21807.00
605.3940, 22588.00
606.5620, 22970.00
607.7300, 23311.00
608.8990, 23232.00
610.0670, 22631.00
611.2350, 22059.00
612.4020, 21411.00
613.5700, 20625.00
614.7370, 20119.00
615.9050, 19561.00
617.0720, 19056.00
618.2390, 18561.00
619.4060, 18084.00
620.5720, 18083.00
621.7390, 17812.00
622.9050, 17832.00
624.0710, 17453.00
625.2370, 17328.00
626.4030, 17388.00
627.5690, 17282.00
628.7340, 17182.00
629.9000, 17090.00
631.0650, 17097.00
632.2300, 17068.43
633.3950, 16919.00
634.5600, 17129.00
635.7240, 17247.00
636.8890, 17335.00
638.0530, 17306.91
639.2170, 17013.00
640.3810, 17102.00
641.5450, 17131.00
642.7080, 16978.00
643.8720, 17057.00
645.0350, 17010.00
646.1980, 17237.00
647.3610, 17032.00
648.5240, 17149.00
649.6870, 17188.00
650.8490, 17207.00
652.0120, 17108.00
653.1740, 17287.00
654.3360, 17092.00
655.4980, 17149.00
656.6600, 17247.00
657.8210, 17175.00
658.9830, 17187.00
660.1440, 17280.00
661.3050, 17308.00
662.4660, 17352.00
663.6270, 17352.00
664.7870, 17271.00
665.9480, 17431.00
667.1080, 17437.00
668.2680, 17587.00
669.4280, 17388.00
670.5880, 17505.00
671.7480, 17499.00
672.9070, 17629.00
674.0670, 17555.00
675.2260, 17610.00
676.3850, 17689.00
677.5440, 17600.00
678.7030, 17561.00
679.8610, 17701.00
681.0200, 17863.00
682.1780, 17644.00
683.3360, 17579.00
684.4940, 17815.00
685.6520, 17633.00
686.8090, 17919.00
687.9670, 17889.00
689.1240, 17776.00
690.2810, 17911.00
691.4380, 17974.00
692.5950, 17927.00
693.7520, 17865.00
694.9080, 18014.00
696.0650, 18045.00
697.2210, 17978.00
698.3770, 17833.00
699.5330, 17917.00
700.6880, 17987.00
701.8440, 18156.00
702.9990, 18066.00
704.1550, 18138.00
705.3100, 18306.00
706.4650, 18231.00
707.6190, 18259.00
708.7740, 18260.00
709.9290, 18405.00
711.0830, 18407.00
712.2370, 18449.00
713.3910, 18360.00
714.5450, 18487.00
715.6980, 18535.00
716.8520, 18641.00
718.0050, 18661.00
719.1580, 18702.00
720.3110, 18788.00
721.4640, 18811.00
722.6170, 18893.43
723.7700, 18972.00
724.9220, 19054.00
726.0740, 19251.00
727.2260, 19370.00
728.3780, 19286.00
729.5300, 19383.00
730.6810, 19691.00
731.8330, 19938.00
732.9840, 19861.00
734.1350, 20065.00
735.2860, 20177.00
736.4370, 20611.00
737.5880, 20868.00
738.7380, 20750.00
739.8880, 20771.00
741.0390, 21171.00
742.1890, 21250.00
743.3380, 21133.00
744.4880, 21312.00
745.6380, 21535.00
746.7870, 21537.00
747.9360, 21867.00
749.0850, 21878.00
750.2340, 21835.00
751.3830, 22029.00
752.5310, 22085.00
753.6800, 21988.00
754.8280, 21694.00
755.9760, 21826.00
757.1240, 21632.00
758.2720, 21778.00
759.4190, 21527.00
760.5670, 21259.00
761.7140, 21415.00
762.8610, 21178.00
764.0080, 21000.00
765.1550, 21190.00
766.3020, 21000.00
767.4480, 21131.00
768.5950, 21275.00
769.7410, 21247.00
770.8870, 21201.00
772.0330, 21455.00
773.1780, 21549.00
774.3240, 21962.00
775.4690, 22406.00
776.6140, 22764.00
777.7590, 23097.00
778.9040, 23847.00
780.0490, 24327.00
781.1940, 24924.00
782.3380, 25289.00
783.4820, 25738.00
784.6260, 26076.00
785.7700, 26159.00
786.9140, 26091.00
788.0580, 25408.00
789.2010, 24896.00
790.3450, 24552.00
791.4880, 24170.00
792.6310, 23901.00
793.7730, 23693.00
794.9160, 23734.00
796.0590, 23478.00
797.2010, 23512.00
798.3430, 23523.00
799.4850, 23990.00
800.6270, 24302.00
801.7690, 24634.00
802.9100, 25253.00
804.0520, 25810.00
805.1930, 26503.00
806.3340, 27010.00
807.4750, 27549.00
808.6160, 27649.00
809.7560, 27740.00
810.8970, 27683.00
812.0370, 27642.00
813.1770, 27431.00
814.3170, 27496.00
815.4570, 28042.00
816.5960, 27998.00
817.7360, 28554.00
818.8750, 28766.00
820.0140, 29583.00
821.1530, 30188.00
822.2920, 31847.00
823.4310, 33331.00
824.5690, 35516.00
825.7070, 38370.00
826.8460, 40847.00
827.9840, 44496.00
829.1220, 46600.00
830.2590, 47732.00
831.3970, 47415.00
832.5340, 45728.00
833.6710, 43489.00
834.8080, 41079.00
835.9450, 39582.00
837.0820, 38464.00
838.2190, 38686.00
839.3550, 39093.00
840.4910, 40471.00
841.6270, 41838.00
842.7630, 43971.00
843.8990, 45997.00
845.0350, 47204.00
846.1700, 47647.00
847.3060, 47541.00
848.4410, 46172.00
849.5760, 44589.00
850.7100, 43438.00
851.8450, 42605.00
852.9800, 42665.00
854.1140, 43368.00
855.2480, 44746.00
856.3820, 47409.00
857.5160, 50416.00
858.6500, 53247.00
859.7830, 54701.00
860.9170, 54646.00
862.0500, 52622.00
863.1830, 48817.00
864.3160, 45445.00
865.4480, 41659.00
866.5810, 38538.00
867.7130, 36202.00
868.8460, 34376.00
869.9780, 32897.00
871.1100, 32107.00
872.2410, 31105.00
873.3730, 30611.00
874.5050, 30265.00
875.6360, 29968.00
876.7670, 29536.00
877.8980, 29096.00
879.0290, 28783.00
880.1590, 28064.00
881.2900, 27398.00
882.4200, 26738.00
883.5500, 26287.00
884.6800, 25730.00
885.8100, 25653.00
886.9400, 24862.00
888.0690, 24786.00
889.1990, 24610.00
890.3280, 24271.00
891.4570, 24154.00
892.5860, 23842.00
893.7140, 23777.00
894.8430, 23777.00
895.9710, 23903.00
897.1000, 23493.00
898.2280, 23521.00
899.3560, 23594.00
900.4830, 23683.00
901.6110, 23546.00
902.7380, 23268.00
903.8660, 23492.00
904.9930, 23424.00
906.1200, 23281.00
907.2460, 23366.00
908.3730, 23590.00
909.5000, 23518.00
910.6260, 23718.00
911.7520, 23801.00
912.8780, 23923.00
914.0040, 23721.00
915.1290, 23650.00
916.2550, 23672.00
917.3800, 23488.00
918.5050, 23553.00
919.6300, 23421.00
920.7550, 23440.00
921.8800, 23314.00
923.0040, 23465.00
924.1290, 23578.00
925.2530, 23365.00
926.3770, 23543.00
927.5010, 23616.00
928.6250, 23687.00
929.7480, 23578.00
930.8720, 23685.00
931.9950, 23636.00
933.1180, 23812.00
934.2410, 23623.00
935.3640, 23367.00
936.4860, 23342.00
937.6090, 23430.00
938.7310, 23400.00
939.8530, 23421.00
940.9750, 23500.45
942.0970, 23442.00
943.2180, 23592.00
944.3400, 23584.00
945.4610, 23507.00
946.5820, 23575.00
947.7030, 23640.00
948.8240, 23640.01
949.9450, 23764.00
951.0650, 23772.00
952.1860, 23927.00
953.3060, 24120.00
954.4260, 24293.00
955.5460, 24419.00
956.6650, 24599.00
957.7850, 25089.00
958.9040, 25445.00
960.0230, 26092.00
961.1420, 26871.25
962.2610, 27723.00
963.3800, 28823.00
964.4990, 29925.00
965.6170, 31261.00
966.7350, 32327.00
967.8530, 32636.00
968.9710, 32371.00
970.0890, 31483.00
971.2070, 30755.00
972.3240, 29673.00
973.4410, 28316.00
974.5580, 27466.00
975.6750, 26887.00
976.7920, 26535.00
977.9090, 25862.00
979.0250, 25445.00
980.1410, 25448.00
981.2580, 25195.00
982.3740, 25031.00
983.4890, 24806.00
984.6050, 24767.00
985.7200, 24429.00
986.8360, 24466.00
987.9510, 24381.00
989.0660, 24451.00
990.1810, 24429.00
991.2950, 24302.00
992.4100, 24361.00
993.5240, 24131.00
994.6390, 24183.00
995.7530, 24199.00
996.8660, 24391.00
997.9800, 24421.00
999.0940, 24362.00
1000.207, 24347.00
1001.320, 24467.00
1002.433, 24516.00
1003.546, 24475.00
1004.659, 24535.00
1005.772, 24508.00
1006.884, 24655.00
1007.996, 24589.00
1009.108, 24636.00
1010.220, 24498.00
1011.332, 24578.00
1012.444, 24536.00
1013.555, 24468.00
1014.666, 24737.00
1015.777, 24563.00
1016.888, 24673.00
1017.999, 24611.00
1019.110, 24566.00
1020.220, 24745.00
1021.331, 24743.00
1022.441, 24784.00
1023.551, 24650.00
1024.661, 24781.00
1025.770, 24655.00
1026.880, 24777.00
1027.989, 24932.00
1029.098, 24784.00
1030.207, 24864.00
1031.316, 24687.00
1032.425, 24883.00
1033.533, 24970.00
1034.642, 24969.00
1035.750, 24954.00
1036.858, 24787.00
1037.966, 25113.00
1039.073, 24847.00
1040.181, 24732.00
1041.288, 25009.00
1042.396, 24868.00
1043.503, 25116.00
1044.610, 25043.00
1045.716, 25200.00
1046.823, 25138.00
1047.929, 25062.00
1049.036, 24987.00
1050.142, 24977.00
1051.248, 25027.00
1052.353, 25073.00
1053.459, 25055.72
1054.564, 24995.00
1055.670, 25083.00
1056.775, 25169.00
1057.880, 25280.00
1058.985, 25174.00
1060.089, 25365.00
1061.194, 25190.00
1062.298, 25249.00
1063.402, 25222.00
1064.506, 25238.50
1065.610, 25183.00
1066.713, 25326.00
1067.817, 25446.00
1068.920, 25437.00
1070.023, 25447.00
1071.126, 25461.00
1072.229, 25264.00
1073.332, 25298.00
1074.435, 25359.00
1075.537, 25472.00
1076.639, 25498.70
1077.741, 25482.00
1078.843, 25621.00
1079.945, 25704.00
1081.046, 25813.00
1082.148, 25744.00
1083.249, 25751.00
1084.350, 25802.00
1085.451, 25680.00
1086.551, 25723.00
1087.652, 25783.00
1088.752, 25874.00
1089.853, 26089.00
1090.953, 25909.00
1092.053, 26038.00
1093.152, 26156.00
1094.252, 25952.00
1095.351, 26217.00
1096.451, 26166.00
1097.550, 26158.00
1098.649, 26384.00
1099.748, 26099.00
1100.846, 26443.00
1101.945, 26200.00
1103.043, 26272.00
1104.141, 26057.00
1105.239, 26221.00
1106.337, 26292.00
1107.434, 26141.00
1108.532, 26188.00
1109.629, 26142.00
1110.726, 26216.00
1111.823, 26284.00
1112.920, 26285.18
1114.017, 26299.00
1115.113, 26358.00
1116.210, 26401.00
1117.306, 26467.00
1118.402, 26387.00
1119.498, 26452.00
1120.593, 26650.00
1121.689, 26532.00
1122.784, 26697.00
1123.879, 26437.00
1124.974, 26535.00
1126.069, 26667.00
1127.164, 26612.00
1128.259, 26717.00
1129.353, 26628.00
1130.447, 26827.00
1131.541, 26651.00
1132.635, 26856.00
1133.729, 26695.00
1134.822, 26727.00
1135.916, 26772.00
1137.009, 26660.00
1138.102, 26880.00
1139.195, 26884.00
1140.288, 26965.00
1141.380, 26998.00
1142.473, 27036.31
1143.565, 27075.12
1144.657, 27077.00
1145.749, 27087.00
1146.841, 27017.00
1147.932, 26931.00
1149.024, 27074.00
1150.115, 27255.00
1151.206, 27099.00
1152.297, 26900.00
1153.388, 26991.00
1154.479, 27284.00
1155.569, 27143.00
1156.659, 27241.00
1157.750, 27303.00
1158.839, 27359.00
1159.929, 27296.00
1161.019, 27346.00
1162.108, 27289.00
1163.198, 27241.00
1164.287, 27280.52
1165.376, 27351.00
1166.465, 27378.00
1167.553, 27547.00
1168.642, 27734.00
1169.730, 27783.00
1170.818, 27672.00
1171.906, 27504.00
1172.994, 27435.00
1174.082, 27438.00
1175.170, 27675.00
1176.257, 27644.00
1177.344, 27762.00
1178.431, 27867.00
1179.518, 27826.00
1180.605, 27728.00
1181.691, 27759.00
1182.778, 27738.00
1183.864, 27808.00
1184.950, 28007.00
1186.036, 27716.00
1187.122, 28016.00
1188.207, 27853.00
1189.292, 28008.00
1190.378, 27852.00
1191.463, 28101.00
1192.548, 28165.00
1193.632, 27953.00
1194.717, 28175.00
1195.801, 28072.00
1196.886, 28278.00
1197.970, 28248.00
1199.054, 28296.00
1200.137, 28293.00
1201.221, 28410.00
1202.305, 28328.00
1203.388, 28387.00
1204.471, 28338.00
1205.554, 28309.00
1206.637, 28380.00
1207.719, 28373.00
1208.802, 28385.00
1209.884, 28689.00
1210.966, 28850.00
1212.048, 28607.00
1213.130, 28478.00
1214.212, 28648.00
1215.293, 28943.00
1216.374, 28652.00
1217.456, 28747.00
1218.536, 28628.00
1219.617, 28979.00
1220.698, 28829.00
1221.778, 28891.00
1222.859, 28945.00
1223.939, 28917.73
1225.019, 28861.00
1226.099, 28938.00
1227.178, 28959.00
1228.258, 28887.00
1229.337, 28925.00
1230.417, 29228.00
1231.496, 28923.00
1232.574, 29122.00
1233.653, 29340.00
1234.732, 29230.00
1235.810, 29262.00
1236.888, 29213.00
1237.966, 29226.00
1239.044, 29263.12
1240.122, 29262.00
1241.199, 29333.00
1242.277, 29422.00
1243.354, 29422.00
1244.431, 29493.40
1245.508, 29458.00
1246.585, 29557.00
1247.661, 29457.00
1248.738, 29432.00
1249.814, 29723.00
1250.890, 29650.00
1251.966, 29663.00
1253.042, 29739.00
1254.117, 29592.00
1255.193, 29607.79
1256.268, 29661.00
1257.343, 29530.00
1258.418, 29596.00
1259.493, 29629.00
1260.567, 29777.00
1261.642, 29764.00
1262.716, 29790.00
1263.790, 29875.00
1264.864, 29843.00
1265.938, 29899.00
1267.011, 29962.00
1268.085, 29639.00
1269.158, 30113.00
1270.231, 29701.00
1271.304, 29840.00
1272.377, 29774.00
1273.450, 29966.00
1274.522, 29912.00
1275.594, 30143.00
1276.666, 30050.00
1277.738, 30277.00
1278.810, 29995.00
1279.882, 30123.00
1280.953, 30188.00
1282.025, 30242.00
1283.096, 30094.00
1284.167, 29974.00
1285.238, 30346.00
1286.308, 30176.00
1287.379, 30272.00
1288.449, 30366.00
1289.519, 30432.00
1290.589, 30497.00
1291.659, 30452.00
1292.729, 30490.27
1293.798, 30391.00
1294.868, 30421.00
1295.937, 30565.00
1297.006, 30421.00
1298.075, 30648.00
