##NAMES=Clinoptilolite-Na
##RRUFFID=R061099
##IDEAL CHEMISTRY=Na_6_(Si_30_Al_6_)O_72_&#183;20H_2_O
##LOCALITY=Richardson Ranch, Madras, Jefferson County, Oregon, USA
##OWNER=RRUFF
##SOURCE=Michael Scott
##DESCRIPTION=Red-brown to salmon, somewhat coffin shaped tabular crystals in a fragmented geode
##STATUS=The identification of this mineral has been confirmed by X-ray diffraction and chemical analysis
##URL=rruff.info/R061099
##MEASURED CHEMISTRY=(Na_2.70_Ca_1.46_K_0.89_Fe_0.08_Mg_0.02_)_Σ=5.15_(Si_29.29_Al_6.71_)O_72_·18.51H_2_O
##PIN_ID=M00738
##ORIENTATION=Laser parallel to b* (0 1 0). Fiducial mark perpendicular to laser is parallel to c [0 0 1]
84.42800, 1894.000
85.66300, 2158.000
86.89900, 2482.412
88.13400, 2848.000
89.36900, 3308.000
90.60400, 3823.000
91.83800, 4392.000
93.07300, 5062.000
94.30700, 5786.000
95.54100, 6629.000
96.77500, 7658.000
98.00900, 8594.000
99.24300, 9508.000
100.4770, 10465.00
101.7100, 11365.00
102.9440, 12341.00
104.1770, 13395.00
105.4100, 14241.00
106.6430, 15243.00
107.8750, 16439.00
109.1080, 17369.00
110.3400, 17897.00
111.5720, 18333.00
112.8040, 18771.00
114.0360, 19326.00
115.2680, 19812.00
116.5000, 20323.00
117.7310, 20734.43
118.9620, 21122.00
120.1940, 21486.00
121.4250, 21831.05
122.6550, 22149.81
123.8860, 22445.00
125.1170, 22822.00
126.3470, 23124.00
127.5770, 23507.00
128.8070, 24009.00
130.0370, 24512.00
131.2670, 24939.00
132.4970, 25413.00
133.7260, 25746.00
134.9550, 26313.00
136.1850, 26423.00
137.4140, 26789.00
138.6420, 26645.00
139.8710, 26925.00
141.1000, 26682.00
142.3280, 26856.00
143.5560, 26557.00
144.7840, 26224.00
146.0120, 26086.00
147.2400, 25727.00
148.4680, 25197.00
149.6950, 24970.00
150.9220, 24513.00
152.1500, 24186.00
153.3770, 23978.00
154.6030, 23310.00
155.8300, 23044.00
157.0570, 22510.00
158.2830, 22399.00
159.5090, 21828.00
160.7350, 21579.00
161.9610, 21082.00
163.1870, 20649.00
164.4130, 20399.00
165.6380, 20341.00
166.8630, 19876.00
168.0880, 19809.00
169.3130, 19665.00
170.5380, 19464.00
171.7630, 19054.00
172.9870, 18849.00
174.2120, 18757.00
175.4360, 18389.00
176.6600, 18447.00
177.8840, 18156.00
179.1080, 18038.00
180.3310, 17781.00
181.5550, 17665.91
182.7780, 17551.63
184.0010, 17473.00
185.2240, 17423.00
186.4470, 17383.00
187.6700, 17269.61
188.8920, 17163.00
190.1150, 17057.00
191.3370, 16989.00
192.5590, 16894.00
193.7810, 16955.00
195.0020, 16913.00
196.2240, 16760.00
197.4450, 16725.00
198.6670, 16573.00
199.8880, 16770.00
201.1090, 16738.00
202.3300, 16684.00
203.5500, 16540.00
204.7710, 16391.00
205.9910, 16372.00
207.2110, 16227.00
208.4310, 16435.00
209.6510, 16233.00
210.8710, 16207.00
212.0910, 16199.00
213.3100, 16110.00
214.5290, 16274.00
215.7480, 16342.00
216.9670, 16352.00
218.1860, 16317.00
219.4050, 16408.00
220.6230, 16422.00
221.8420, 16467.00
223.0600, 16564.44
224.2780, 16562.00
225.4960, 16700.00
226.7130, 16731.00
227.9310, 16682.00
229.1480, 16720.00
230.3660, 16773.88
231.5830, 16713.00
232.8000, 16935.00
234.0160, 17015.00
235.2330, 17131.00
236.4490, 17068.00
237.6660, 17338.00
238.8820, 17412.00
240.0980, 17599.00
241.3140, 17484.00
242.5300, 17822.00
243.7450, 17912.00
244.9600, 17904.00
246.1760, 18101.00
247.3910, 18258.00
248.6060, 18326.00
249.8200, 18477.00
251.0350, 18435.00
252.2500, 18431.00
253.4640, 18358.00
254.6780, 18358.00
255.8920, 18318.78
257.1060, 18306.62
258.3190, 18272.18
259.5330, 18216.10
260.7460, 18101.01
261.9600, 18041.29
263.1730, 17946.70
264.3850, 17842.03
265.5980, 17764.21
266.8110, 17610.96
268.0230, 17514.51
269.2360, 17382.62
270.4480, 17335.00
271.6600, 17146.00
272.8710, 17021.00
274.0830, 16944.00
275.2950, 16722.00
276.5060, 16590.00
277.7170, 16654.00
278.9280, 16423.00
280.1390, 16304.00
281.3500, 16179.00
282.5600, 16039.00
283.7710, 15898.00
284.9810, 15816.57
286.1910, 15940.00
287.4010, 15711.00
288.6110, 15761.00
289.8200, 15833.00
291.0300, 15637.00
292.2390, 15557.00
293.4480, 15341.00
294.6570, 15621.00
295.8660, 15471.00
297.0750, 15504.00
298.2830, 15439.00
299.4920, 15444.00
300.7000, 15291.00
301.9080, 15208.00
303.1160, 15372.00
304.3240, 15453.00
305.5310, 15463.00
306.7390, 15438.00
307.9460, 15299.00
309.1530, 15388.00
310.3600, 15316.00
311.5670, 15310.00
312.7740, 15401.00
313.9800, 15357.00
315.1870, 15371.00
316.3930, 15344.00
317.5990, 15364.00
318.8050, 15414.00
320.0110, 15418.00
321.2160, 15573.00
322.4220, 15492.00
323.6270, 15587.00
324.8320, 15590.00
326.0370, 15741.00
327.2420, 15755.00
328.4460, 15674.00
329.6510, 15868.00
330.8550, 15960.00
332.0590, 16048.00
333.2630, 15987.00
334.4670, 16212.00
335.6710, 16215.00
336.8740, 16326.00
338.0780, 16384.00
339.2810, 16508.00
340.4840, 16515.00
341.6870, 16479.00
342.8900, 16604.00
344.0920, 16807.00
345.2950, 16730.00
346.4970, 16888.00
347.6990, 17161.00
348.9010, 16947.00
350.1030, 17051.00
351.3050, 17301.00
352.5060, 17317.00
353.7080, 17414.00
354.9090, 17515.00
356.1100, 17626.00
357.3110, 17819.00
358.5110, 18032.00
359.7120, 18232.00
360.9120, 18388.00
362.1130, 18624.11
363.3130, 18751.00
364.5130, 19051.00
365.7120, 19247.00
366.9120, 19430.00
368.1120, 19633.00
369.3110, 19896.00
370.5100, 20229.00
371.7090, 20479.00
372.9080, 20782.11
374.1070, 21210.00
375.3050, 21329.00
376.5040, 21714.00
377.7020, 21916.00
378.9000, 22295.57
380.0980, 22662.00
381.2950, 23138.00
382.4930, 23671.00
383.6910, 24195.00
384.8880, 24859.00
386.0850, 25411.00
387.2820, 26179.00
388.4790, 26877.00
389.6750, 27540.00
390.8720, 28358.00
392.0680, 29402.00
393.2640, 29910.00
394.4600, 30696.00
395.6560, 32135.00
396.8520, 32924.00
398.0480, 33812.00
399.2430, 34695.00
400.4380, 35582.00
401.6330, 36410.00
402.8280, 37189.00
404.0230, 37250.00
405.2180, 37474.00
406.4120, 37350.00
407.6060, 36996.00
408.8000, 36513.94
409.9940, 35634.00
411.1880, 34914.00
412.3820, 33844.00
413.5750, 32709.00
414.7690, 31613.00
415.9620, 30572.00
417.1550, 29511.00
418.3480, 28414.00
419.5410, 27464.00
420.7330, 26386.00
421.9260, 25375.00
423.1180, 24660.00
424.3100, 23858.00
425.5020, 22906.00
426.6940, 22255.00
427.8850, 21680.00
429.0770, 21175.00
430.2680, 20633.44
431.4590, 20134.00
432.6500, 19722.00
433.8410, 19351.00
435.0320, 19035.00
436.2220, 18668.00
437.4130, 18559.00
438.6030, 18028.00
439.7930, 18163.00
440.9830, 17845.00
442.1730, 17768.00
443.3620, 17598.00
444.5520, 17709.00
445.7410, 17499.00
446.9300, 17337.00
448.1190, 17476.00
449.3080, 17458.00
450.4960, 17318.00
451.6850, 17366.00
452.8730, 17586.00
454.0610, 17669.00
455.2490, 17787.00
456.4370, 18032.00
457.6250, 18262.00
458.8130, 18479.00
460.0000, 18658.00
461.1870, 18862.00
462.3740, 19164.00
463.5610, 19456.72
464.7480, 19714.00
465.9340, 20180.00
467.1210, 20544.00
468.3070, 20963.00
469.4930, 21350.00
470.6790, 21725.00
471.8650, 22363.00
473.0510, 23045.00
474.2360, 23698.00
475.4210, 24702.00
476.6070, 25506.00
477.7920, 26273.00
478.9770, 27049.00
480.1610, 27425.00
481.3460, 28174.00
482.5300, 28428.00
483.7140, 28554.00
484.8980, 28076.00
486.0820, 27626.00
487.2660, 27010.00
488.4500, 25982.00
489.6330, 25361.00
490.8160, 24017.00
492.0000, 23113.00
493.1830, 21979.00
494.3650, 21261.00
495.5480, 20450.00
496.7300, 19782.00
497.9130, 19182.00
499.0950, 18571.00
500.2770, 18246.00
501.4590, 17972.00
502.6410, 17647.00
503.8220, 17389.00
505.0030, 17262.00
506.1850, 16990.00
507.3660, 16809.00
508.5470, 16823.00
509.7270, 16617.00
510.9080, 16620.00
512.0880, 16553.00
513.2690, 16512.00
514.4490, 16571.00
515.6290, 16340.00
516.8090, 16234.00
517.9880, 16311.00
519.1680, 16183.00
520.3470, 16226.00
521.5260, 16152.00
522.7050, 16048.00
523.8840, 16279.00
525.0630, 16298.00
526.2410, 16251.00
527.4200, 16039.00
528.5980, 16116.00
529.7760, 16182.00
530.9540, 15996.00
532.1320, 16100.00
533.3090, 16126.00
534.4870, 15929.00
535.6640, 15974.00
536.8410, 16009.00
538.0180, 15999.00
539.1950, 15862.00
540.3710, 15927.00
541.5480, 15837.00
542.7240, 15835.00
543.9000, 15989.00
545.0760, 15891.00
546.2520, 15750.00
547.4280, 15901.00
548.6040, 16071.00
549.7790, 15958.00
550.9540, 16028.00
552.1290, 16029.00
553.3040, 15913.00
554.4790, 15996.00
555.6530, 15881.00
556.8280, 15884.00
558.0020, 16081.00
559.1760, 16108.00
560.3500, 16100.00
561.5240, 15958.00
562.6980, 16085.00
563.8710, 16049.00
565.0440, 16001.00
566.2170, 15934.00
567.3900, 16134.00
568.5630, 16142.00
569.7360, 16150.00
570.9090, 16117.00
572.0810, 16196.00
573.2530, 16307.00
574.4250, 16266.00
575.5970, 16312.00
576.7690, 16399.00
577.9400, 16242.00
579.1120, 16493.00
580.2830, 16562.00
581.4540, 16612.00
582.6250, 16522.00
583.7960, 16675.00
584.9660, 16631.00
586.1370, 16660.00
587.3070, 16783.00
588.4770, 16710.00
589.6470, 16821.00
590.8170, 16855.00
591.9870, 17073.00
593.1560, 17177.00
594.3260, 17142.00
595.4950, 17344.00
596.6640, 17387.00
597.8330, 17465.00
599.0010, 17499.00
600.1700, 17592.37
601.3380, 17909.00
602.5070, 17811.00
603.6750, 18115.00
604.8430, 18322.00
606.0100, 18268.00
607.1780, 18736.00
608.3450, 18665.00
609.5130, 18931.00
610.6800, 19059.12
611.8470, 19219.41
613.0140, 19342.00
614.1800, 19596.00
615.3470, 19935.00
616.5130, 20049.00
617.6790, 20155.00
618.8450, 20419.00
620.0110, 20486.00
621.1770, 20651.00
622.3420, 20742.00
623.5080, 20655.00
624.6730, 20608.53
625.8380, 20597.00
627.0030, 20213.00
628.1680, 20017.00
629.3320, 19630.00
630.4970, 19143.00
631.6610, 18821.00
632.8250, 18631.00
633.9890, 18390.00
635.1530, 18243.00
636.3160, 18212.00
637.4800, 18109.00
638.6430, 18095.00
639.8060, 17957.00
640.9690, 18058.00
642.1320, 18205.00
643.2950, 18136.00
644.4570, 18216.00
645.6200, 18132.00
646.7820, 18345.00
647.9440, 18169.00
649.1060, 18195.00
650.2670, 18259.00
651.4290, 17986.00
652.5900, 18107.00
653.7520, 17929.00
654.9130, 17738.00
656.0740, 17678.00
657.2340, 17433.00
658.3950, 17163.00
659.5550, 17163.00
660.7160, 17000.00
661.8760, 16845.00
663.0360, 16791.00
664.1960, 16763.00
665.3550, 16705.00
666.5150, 16702.00
667.6740, 16574.00
668.8330, 16662.00
669.9920, 16457.00
671.1510, 16436.00
672.3100, 16683.00
673.4680, 16470.00
674.6270, 16406.00
675.7850, 16363.00
676.9430, 16315.84
678.1010, 16408.00
679.2590, 16390.00
680.4160, 16276.00
681.5740, 16408.00
682.7310, 16306.00
683.8880, 16393.00
685.0450, 16419.00
686.2020, 16519.00
687.3580, 16466.00
688.5150, 16478.00
689.6710, 16313.00
690.8270, 16452.00
691.9830, 16439.00
693.1390, 16588.00
694.2950, 16375.00
695.4500, 16500.00
696.6050, 16397.00
697.7610, 16633.00
698.9160, 16504.00
700.0710, 16483.00
701.2250, 16660.00
702.3800, 16586.00
703.5340, 16670.00
704.6880, 16748.00
705.8420, 16692.00
706.9960, 16692.00
708.1500, 16763.00
709.3040, 16708.00
710.4570, 16883.00
711.6100, 16636.00
712.7640, 16797.00
713.9160, 16699.00
715.0690, 16707.00
716.2220, 17095.00
717.3740, 16829.00
718.5270, 16947.00
719.6790, 16874.00
720.8310, 17049.00
721.9830, 16924.00
723.1340, 16830.00
724.2860, 16939.00
725.4370, 17012.00
726.5880, 17022.00
727.7390, 17142.00
728.8900, 17130.00
730.0410, 17251.00
731.1910, 17244.00
732.3420, 17198.00
733.4920, 17309.00
734.6420, 17279.00
735.7920, 17291.00
736.9420, 17344.00
738.0910, 17354.00
739.2410, 17388.00
740.3900, 17413.61
741.5390, 17318.00
742.6880, 17400.00
743.8370, 17479.00
744.9860, 17353.00
746.1340, 17461.00
747.2820, 17397.00
748.4310, 17566.00
749.5790, 17527.00
750.7260, 17579.00
751.8740, 17654.00
753.0220, 17692.00
754.1690, 17776.00
755.3160, 17710.00
756.4630, 17906.00
757.6100, 17630.00
758.7570, 18091.00
759.9030, 17924.00
761.0500, 18022.00
762.1960, 18149.00
763.3420, 18137.00
764.4880, 18417.00
765.6340, 18242.00
766.7790, 18461.00
767.9250, 18436.00
769.0700, 18681.00
770.2150, 18642.00
771.3600, 18869.00
772.5050, 18710.00
773.6490, 18847.00
774.7940, 19088.00
775.9380, 19204.00
777.0820, 19189.00
778.2260, 19421.00
779.3700, 19461.00
780.5140, 19513.00
781.6570, 19671.00
782.8010, 19684.00
783.9440, 19754.00
785.0870, 19899.00
786.2300, 19918.00
787.3720, 19970.00
788.5150, 20033.00
789.6570, 20059.00
790.8000, 20120.00
791.9420, 20103.00
793.0840, 19918.00
794.2250, 20176.00
795.3670, 19893.00
796.5080, 20008.00
797.6500, 19802.00
798.7910, 19682.00
799.9320, 19689.00
801.0720, 19641.00
802.2130, 19725.00
803.3530, 19494.00
804.4940, 19543.00
805.6340, 19394.00
806.7740, 19281.00
807.9140, 19401.00
809.0530, 19396.00
810.1930, 19427.00
811.3320, 19693.00
812.4710, 19659.00
813.6100, 19869.00
814.7490, 19973.00
815.8880, 20152.00
817.0270, 20140.00
818.1650, 20458.00
819.3030, 20507.00
820.4410, 20524.00
821.5790, 20425.00
822.7170, 20357.75
823.8540, 20330.00
824.9920, 20119.00
826.1290, 20024.54
827.2660, 19720.00
828.4030, 19668.00
829.5400, 19322.00
830.6760, 19039.00
831.8130, 19007.00
832.9490, 19098.00
834.0850, 19014.00
835.2210, 18994.56
836.3570, 18904.00
837.4930, 18855.00
838.6280, 18843.00
839.7640, 18723.00
840.8990, 18813.00
842.0340, 19018.00
843.1690, 18777.00
844.3030, 19131.00
845.4380, 19063.00
846.5720, 19138.00
847.7060, 19187.77
848.8400, 19171.00
849.9740, 19190.00
851.1080, 19218.00
852.2420, 19327.00
853.3750, 19412.00
854.5080, 19470.00
855.6410, 19578.00
856.7740, 19630.00
857.9070, 19804.00
859.0400, 20039.00
860.1720, 19976.00
861.3040, 20137.00
862.4360, 20162.00
863.5680, 19854.00
864.7000, 19907.00
865.8320, 19787.00
866.9630, 19489.00
868.0950, 19290.00
869.2260, 19323.00
870.3570, 19224.00
871.4880, 19130.00
872.6180, 19036.00
873.7490, 19025.22
874.8790, 19091.00
876.0090, 19055.00
877.1390, 19074.00
878.2690, 19148.00
879.3990, 18969.00
880.5280, 19032.00
881.6580, 18917.00
882.7870, 18872.00
883.9160, 18945.00
885.0450, 19015.00
886.1740, 19207.00
887.3020, 18992.00
888.4310, 19130.00
889.5590, 19051.00
890.6870, 19033.00
891.8150, 19153.00
892.9430, 19036.00
894.0700, 19098.00
895.1980, 19317.00
896.3250, 19027.00
897.4520, 19090.00
898.5790, 19220.00
899.7060, 19164.00
900.8330, 19148.00
901.9590, 19284.00
903.0850, 19249.00
904.2120, 19086.00
905.3380, 19069.00
906.4630, 19159.00
907.5890, 19141.00
908.7150, 19105.00
909.8400, 19193.00
910.9650, 19015.00
912.0900, 19115.18
913.2150, 19194.00
914.3400, 19148.00
915.4640, 19008.00
916.5890, 18888.00
917.7130, 18959.00
918.8370, 18845.00
919.9610, 18807.90
921.0850, 18812.00
922.2080, 18724.00
923.3320, 18818.00
924.4550, 18847.00
925.5780, 18892.00
926.7010, 18754.00
927.8240, 18943.00
928.9460, 18807.00
930.0690, 18722.00
931.1910, 19082.00
932.3130, 19111.00
933.4350, 19000.00
934.5570, 19155.00
935.6790, 19089.00
936.8000, 19006.00
937.9220, 18914.00
939.0430, 18895.15
940.1640, 18854.12
941.2850, 18905.00
942.4050, 18856.00
943.5260, 18964.00
944.6460, 19024.00
945.7660, 19046.00
946.8860, 19212.00
948.0060, 19230.00
949.1260, 19115.00
950.2460, 19193.00
951.3650, 19218.05
952.4840, 19286.00
953.6030, 19354.00
954.7220, 19414.00
955.8410, 19473.00
956.9590, 19323.00
958.0780, 19314.00
959.1960, 19161.00
960.3140, 19513.00
961.4320, 19407.00
962.5500, 19345.00
963.6680, 19417.00
964.7850, 19389.00
965.9020, 19373.12
967.0190, 19359.00
968.1360, 19340.00
969.2530, 19400.00
970.3700, 19402.00
971.4860, 19443.00
972.6030, 19362.00
973.7190, 19448.00
974.8350, 19353.00
975.9510, 19532.00
977.0660, 19497.00
978.1820, 19353.00
979.2970, 19483.00
980.4130, 19464.00
981.5280, 19405.00
982.6420, 19506.00
983.7570, 19521.00
984.8720, 19686.00
985.9860, 19699.00
987.1000, 19717.00
988.2140, 19684.00
989.3280, 19670.00
990.4420, 19718.96
991.5560, 19711.00
992.6690, 19847.00
993.7820, 19935.00
994.8950, 20065.00
996.0080, 20175.00
997.1210, 20359.00
998.2340, 20576.00
999.3460, 20967.00
1000.458, 21298.00
1001.571, 21535.00
1002.683, 21699.00
1003.794, 21508.00
1004.906, 21102.00
1006.017, 20551.00
1007.129, 20392.00
1008.240, 20172.00
1009.351, 20002.00
1010.462, 20135.00
1011.572, 20256.00
1012.683, 20019.00
1013.793, 20285.00
1014.904, 20146.00
1016.014, 20214.00
1017.123, 20501.00
1018.233, 20438.00
1019.343, 20595.00
1020.452, 20554.00
1021.561, 20841.00
1022.670, 20930.00
1023.779, 20954.00
1024.888, 20998.92
1025.997, 20970.13
1027.105, 20845.00
1028.213, 20835.00
1029.321, 20649.00
1030.429, 20492.00
1031.537, 20735.00
1032.645, 20810.00
1033.752, 20492.00
1034.859, 20817.00
1035.966, 20813.00
1037.073, 20597.00
1038.180, 20738.00
1039.287, 20842.00
1040.393, 20530.00
1041.500, 20576.00
1042.606, 20576.00
1043.712, 20967.00
1044.818, 20705.00
1045.923, 20746.00
1047.029, 20653.00
1048.134, 20782.00
1049.239, 21079.00
1050.344, 20902.00
1051.449, 20894.00
1052.554, 20775.00
1053.658, 20985.00
1054.763, 21060.00
1055.867, 20881.00
1056.971, 20765.00
1058.075, 20860.00
1059.179, 20954.00
1060.282, 20770.00
1061.385, 20754.00
1062.489, 21006.00
1063.592, 20906.00
1064.695, 21089.00
1065.797, 21150.00
1066.900, 20983.00
1068.002, 21223.00
1069.105, 21093.00
1070.207, 20909.00
1071.309, 21039.00
1072.411, 21111.00
1073.512, 21269.00
1074.614, 21236.00
1075.715, 21207.00
1076.816, 21289.00
1077.917, 21415.00
1079.018, 21487.00
1080.118, 21744.00
1081.219, 21882.00
1082.319, 21635.00
1083.419, 22095.00
1084.519, 22075.00
1085.619, 21777.00
1086.719, 21851.00
1087.818, 21982.00
1088.918, 21975.00
1090.017, 21699.00
1091.116, 21582.00
1092.215, 21694.00
1093.314, 21839.00
1094.412, 21768.00
1095.510, 21874.00
1096.609, 21679.00
1097.707, 21808.00
1098.805, 22163.00
1099.902, 22133.00
1101.000, 22062.00
1102.097, 22235.00
1103.195, 21933.00
1104.292, 22188.00
1105.389, 22344.00
1106.485, 22267.00
1107.582, 22511.00
1108.678, 22324.00
1109.775, 22410.00
1110.871, 22560.00
1111.967, 22570.00
1113.062, 22356.00
1114.158, 22630.00
1115.254, 22522.00
1116.349, 22678.00
1117.444, 22771.00
1118.539, 22456.00
1119.634, 22515.00
1120.728, 22592.00
1121.823, 22670.00
1122.917, 22672.29
1124.011, 22741.00
1125.105, 22650.00
1126.199, 22786.00
1127.293, 22742.00
1128.386, 22659.00
1129.480, 22858.00
1130.573, 22861.00
1131.666, 22821.00
1132.759, 23047.00
1133.851, 23129.00
1134.944, 22815.00
1136.036, 22759.00
1137.129, 22912.00
1138.221, 22902.00
1139.313, 22919.00
1140.404, 22702.00
1141.496, 23050.00
1142.587, 22680.00
1143.678, 22812.00
1144.770, 22948.00
1145.860, 22926.00
1146.951, 22801.00
1148.042, 22864.00
1149.132, 23044.00
1150.223, 22684.00
1151.313, 22955.00
1152.403, 22885.00
1153.492, 22999.00
1154.582, 22777.00
1155.671, 22725.00
1156.761, 22843.00
1157.850, 22789.00
1158.939, 22843.00
1160.028, 22842.00
1161.116, 22845.00
1162.205, 22914.00
1163.293, 22863.00
1164.381, 23038.00
1165.469, 23083.00
1166.557, 22786.00
1167.645, 22906.00
1168.732, 22970.00
1169.820, 23050.00
1170.907, 23060.53
1171.994, 23048.29
1173.081, 23008.00
1174.167, 22967.00
1175.254, 22864.00
1176.340, 22834.00
1177.426, 22701.00
1178.512, 22685.00
1179.598, 22730.00
1180.684, 22693.00
1181.770, 22578.00
1182.855, 22626.00
1183.940, 22590.00
1185.025, 22498.00
1186.110, 22586.00
1187.195, 22584.00
1188.280, 22561.00
1189.364, 22418.00
1190.448, 22361.00
1191.532, 22193.00
1192.616, 22234.00
1193.700, 22093.00
1194.784, 22097.00
1195.867, 21996.00
1196.950, 22194.00
1198.034, 22281.00
1199.117, 22263.00
1200.199, 22267.00
1201.282, 22169.00
1202.364, 22296.00
1203.447, 21937.00
1204.529, 21923.00
1205.611, 21893.00
1206.693, 21933.00
1207.774, 21921.15
1208.856, 21882.81
1209.937, 21921.00
1211.018, 21868.00
1212.099, 21815.00
1213.180, 21964.00
1214.261, 22023.00
1215.341, 21948.00
1216.422, 22116.00
1217.502, 22109.00
1218.582, 22102.00
1219.662, 21878.00
1220.742, 21854.00
1221.821, 21884.00
1222.900, 21870.00
1223.980, 21889.00
1225.059, 21983.00
1226.138, 22092.00
1227.216, 22025.00
1228.295, 22184.00
1229.373, 22136.00
1230.452, 22000.00
1231.530, 22096.00
1232.608, 22275.00
1233.685, 22245.00
1234.763, 22478.00
1235.840, 22239.00
1236.918, 22450.00
1237.995, 22453.00
1239.072, 22428.00
1240.149, 22434.00
1241.225, 22437.09
1242.302, 22357.00
1243.378, 22504.00
1244.454, 22571.00
1245.530, 22715.00
1246.606, 22671.13
1247.681, 22388.00
1248.757, 22607.00
1249.832, 22448.00
1250.907, 22510.00
1251.982, 22570.00
1253.057, 22664.00
1254.132, 22598.00
1255.206, 22645.00
1256.281, 22682.81
1257.355, 22782.00
1258.429, 22734.00
