##NAMES=Clinoptilolite-Ca
##RRUFFID=R060662
##IDEAL CHEMISTRY=Ca_3_(Si_30_Al_6_)O_72_&#183;20H_2_O
##LOCALITY=Succor Creek, Malheur County, Oregon, USA
##OWNER=RRUFF
##SOURCE=Michael Scott
##DESCRIPTION=Group of colorless platy prismatic crystals
##STATUS=The identification of this mineral has been confirmed by X-ray diffraction and chemical analysis
##URL=rruff.info/R060662
##MEASURED CHEMISTRY=(Ca_1.02_Na_0.97_K_0.59_)_Σ=2.58_(Si_14.40_Al_3.60_)_Σ=18_O_36_·10.96H_2_O
##PIN_ID=M00063
##ORIENTATION=Laser parallel to -a* (-1 0 0). Fiducial mark perpendicular to laser is parallel to b [0 1 0]
134.1270, 32790.00
135.3560, 32694.00
136.5850, 32602.00
137.8140, 32365.00
139.0430, 32264.00
140.2710, 32089.00
141.5000, 31433.00
142.7280, 31251.00
143.9560, 30986.00
145.1840, 30772.00
146.4120, 29971.00
147.6390, 29591.00
148.8670, 29197.00
150.0940, 28608.00
151.3210, 28120.00
152.5490, 27700.00
153.7750, 27209.00
155.0020, 26528.00
156.2290, 26133.00
157.4550, 25593.00
158.6810, 24941.00
159.9080, 24506.00
161.1340, 23874.00
162.3590, 23935.00
163.5850, 23302.00
164.8110, 22931.00
166.0360, 22606.00
167.2610, 22134.00
168.4860, 21688.00
169.7110, 21194.00
170.9360, 20967.00
172.1610, 20333.00
173.3850, 19964.00
174.6100, 19497.00
175.8340, 19299.00
177.0580, 18731.00
178.2820, 18489.00
179.5050, 18292.00
180.7290, 17988.00
181.9520, 17664.00
183.1760, 17415.00
184.3990, 17066.00
185.6220, 16825.00
186.8450, 16815.00
188.0670, 16549.00
189.2900, 16379.00
190.5120, 16264.00
191.7340, 16054.00
192.9560, 15956.56
194.1780, 15793.44
195.4000, 15724.00
196.6220, 15570.00
197.8430, 15432.00
199.0640, 15473.00
200.2860, 15319.00
201.5070, 15324.00
202.7270, 15112.00
203.9480, 14749.00
205.1690, 14412.00
206.3890, 14112.00
207.6090, 14147.00
208.8290, 13752.00
210.0490, 13900.00
211.2690, 13727.00
212.4890, 13792.00
213.7080, 13556.00
214.9280, 13543.00
216.1470, 13551.00
217.3660, 13528.00
218.5850, 13559.00
219.8030, 13484.00
221.0220, 13558.00
222.2400, 13474.00
223.4590, 13554.00
224.6770, 13357.00
225.8950, 13505.00
227.1120, 13503.00
228.3300, 13793.00
229.5480, 13672.00
230.7650, 13841.00
231.9820, 14198.00
233.1990, 14302.00
234.4160, 14340.00
235.6330, 14538.00
236.8490, 14799.00
238.0660, 15058.00
239.2820, 15266.00
240.4980, 15434.00
241.7140, 15679.09
242.9300, 15856.71
244.1460, 16091.00
245.3610, 16233.00
246.5770, 16381.00
247.7920, 16540.00
249.0070, 16633.72
250.2220, 16685.00
251.4370, 16775.00
252.6510, 16712.00
253.8660, 16674.00
255.0800, 16736.00
256.2940, 16700.00
257.5080, 16917.00
258.7220, 16751.42
259.9360, 16974.00
261.1490, 16486.00
262.3630, 16268.00
263.5760, 16077.00
264.7890, 15932.00
266.0020, 15980.00
267.2150, 15849.00
268.4270, 15801.00
269.6400, 15516.00
270.8520, 15455.00
272.0640, 15349.00
273.2760, 15016.00
274.4880, 14945.00
275.7000, 14950.00
276.9120, 14690.00
278.1230, 14637.00
279.3340, 14596.00
280.5450, 14337.00
281.7560, 14144.00
282.9670, 14078.00
284.1780, 14080.00
285.3880, 14006.00
286.5980, 14066.00
287.8090, 13937.00
289.0190, 13816.00
290.2290, 13827.00
291.4380, 13763.00
292.6480, 13706.00
293.8570, 13814.00
295.0670, 13777.00
296.2760, 13863.00
297.4850, 13941.00
298.6930, 14063.00
299.9020, 14151.00
301.1110, 14076.00
302.3190, 14254.00
303.5270, 14297.00
304.7350, 14518.00
305.9430, 14545.00
307.1510, 14539.00
308.3580, 14473.00
309.5660, 14652.00
310.7730, 14783.00
311.9800, 14834.00
313.1870, 14871.00
314.3940, 14950.00
315.6010, 14900.00
316.8070, 14969.00
318.0130, 15104.00
319.2200, 15052.00
320.4260, 15161.00
321.6310, 15268.00
322.8370, 15108.00
324.0430, 15298.00
325.2480, 15490.00
326.4540, 15584.00
327.6590, 15527.00
328.8640, 15608.00
330.0680, 15754.00
331.2730, 15696.00
332.4780, 16036.00
333.6820, 15913.00
334.8860, 15945.00
336.0900, 16000.00
337.2940, 16323.00
338.4980, 16519.00
339.7010, 16586.00
340.9050, 16701.00
342.1080, 16614.00
343.3110, 17108.00
344.5140, 17060.00
345.7170, 17483.00
346.9200, 17725.00
348.1220, 17781.00
349.3240, 18157.00
350.5270, 18394.00
351.7290, 18698.00
352.9310, 19007.04
354.1320, 19480.00
355.3340, 19612.00
356.5350, 20032.00
357.7370, 20370.00
358.9380, 21006.00
360.1390, 21295.00
361.3400, 21953.00
362.5400, 22394.00
363.7410, 22973.00
364.9410, 23656.00
366.1410, 24174.00
367.3410, 24613.00
368.5410, 25286.00
369.7410, 26004.00
370.9400, 26403.00
372.1400, 26956.00
373.3390, 27738.00
374.5380, 28268.00
375.7370, 28844.00
376.9360, 29268.00
378.1350, 30234.00
379.3330, 30750.00
380.5310, 31738.00
381.7300, 32732.00
382.9280, 33605.00
384.1260, 34759.00
385.3230, 35981.00
386.5210, 37525.00
387.7180, 38935.00
388.9160, 40702.00
390.1130, 42716.00
391.3100, 44836.00
392.5060, 46512.00
393.7030, 48529.00
394.9000, 50916.00
396.0960, 53053.00
397.2920, 54729.00
398.4880, 56613.00
399.6840, 57909.00
400.8800, 58972.00
402.0750, 59834.00
403.2710, 60276.00
404.4660, 60168.00
405.6610, 59793.00
406.8560, 58789.00
408.0510, 57876.00
409.2450, 55961.00
410.4400, 54150.00
411.6340, 52585.00
412.8280, 50319.00
414.0220, 48058.00
415.2160, 45997.00
416.4100, 43771.00
417.6030, 41623.00
418.7970, 39456.00
419.9900, 37345.00
421.1830, 35534.00
422.3760, 33274.00
423.5690, 31650.00
424.7610, 30092.00
425.9540, 28361.00
427.1460, 27021.00
428.3380, 25716.00
429.5300, 24650.00
430.7220, 23715.00
431.9140, 22673.00
433.1050, 21822.20
434.2970, 21039.00
435.4880, 20246.00
436.6790, 19608.00
437.8700, 19042.00
439.0610, 18877.00
440.2510, 18468.00
441.4420, 18218.00
442.6320, 18058.00
443.8220, 17974.00
445.0120, 17950.20
446.2020, 18035.00
447.3910, 18127.66
448.5810, 18323.00
449.7700, 18583.00
450.9600, 19054.00
452.1490, 19452.00
453.3370, 20037.00
454.5260, 20757.00
455.7150, 21772.00
456.9030, 22656.00
458.0910, 23820.00
459.2800, 24601.00
460.4670, 25698.00
461.6550, 26588.00
462.8430, 27451.00
464.0300, 28269.00
465.2180, 28821.00
466.4050, 29274.00
467.5920, 29950.00
468.7790, 30482.00
469.9650, 31126.00
471.1520, 32115.00
472.3380, 32536.00
473.5250, 34174.00
474.7110, 35909.00
475.8970, 37141.00
477.0820, 38483.00
478.2680, 40257.00
479.4540, 41277.00
480.6390, 42095.00
481.8240, 42275.00
483.0090, 41986.00
484.1940, 40904.00
485.3780, 40132.00
486.5630, 37681.00
487.7470, 35101.00
488.9320, 32594.00
490.1160, 30195.00
491.3000, 27513.00
492.4830, 25150.00
493.6670, 23122.00
494.8500, 21339.00
496.0340, 19561.00
497.2170, 18283.00
498.4000, 17182.00
499.5820, 16179.00
500.7650, 15201.00
501.9480, 14538.00
503.1300, 13990.00
504.3120, 13485.00
505.4940, 13003.00
506.6760, 12776.00
507.8580, 12366.00
509.0390, 11969.00
510.2210, 11920.00
511.4020, 11719.00
512.5830, 11548.00
513.7640, 11498.00
514.9450, 11383.00
516.1250, 11325.00
517.3060, 11204.36
518.4860, 11106.00
519.6660, 10948.00
520.8460, 10921.00
522.0260, 10774.00
523.2060, 10743.00
524.3850, 10619.00
525.5650, 10604.00
526.7440, 10585.00
527.9230, 10544.00
529.1020, 10532.00
530.2810, 10423.00
531.4590, 10354.00
532.6380, 10352.00
533.8160, 10303.00
534.9940, 10264.00
536.1720, 10230.00
537.3500, 10162.00
538.5270, 10187.00
539.7050, 10082.00
540.8820, 10108.00
542.0590, 10067.00
543.2360, 9938.000
544.4130, 9943.000
545.5900, 10077.00
546.7660, 9962.000
547.9430, 9844.000
549.1190, 10016.00
550.2950, 9825.000
551.4710, 9716.000
552.6470, 9739.000
553.8220, 9791.000
554.9980, 9854.000
556.1730, 9799.000
557.3480, 9773.000
558.5230, 9625.000
559.6980, 9714.000
560.8730, 9801.000
562.0470, 9628.000
563.2220, 9804.000
564.3960, 9864.000
565.5700, 9800.000
566.7440, 9897.000
567.9170, 9952.000
569.0910, 9925.000
570.2640, 9929.000
571.4380, 10002.00
572.6110, 10037.00
573.7840, 10073.00
574.9570, 10134.00
576.1290, 10193.00
577.3020, 10170.00
578.4740, 10216.00
579.6460, 10273.00
580.8180, 10382.00
581.9900, 10522.00
583.1620, 10470.00
584.3330, 10465.00
585.5040, 10563.00
586.6760, 10486.00
587.8470, 10719.00
589.0180, 10765.00
590.1880, 11043.00
591.3590, 11046.00
592.5290, 10992.00
593.7000, 11154.00
594.8700, 11377.00
596.0400, 11503.00
597.2090, 11987.00
598.3790, 11979.00
599.5490, 12400.00
600.7180, 12679.00
601.8870, 12949.00
603.0560, 13397.00
604.2250, 13751.00
605.3940, 14144.00
606.5620, 14508.00
607.7300, 14846.00
608.8990, 15186.00
610.0670, 15389.00
611.2350, 15659.00
612.4020, 15787.00
613.5700, 16011.00
614.7370, 16020.00
615.9050, 15841.00
617.0720, 15912.00
618.2390, 15544.00
619.4060, 15162.00
620.5720, 15068.00
621.7390, 14613.00
622.9050, 14417.00
624.0710, 14034.00
625.2370, 13751.00
626.4030, 13357.50
627.5690, 12913.00
628.7340, 12547.00
629.9000, 12215.00
631.0650, 11881.00
632.2300, 11633.00
633.3950, 11457.00
634.5600, 11226.00
635.7240, 11054.00
636.8890, 10805.00
638.0530, 10589.00
639.2170, 10447.00
640.3810, 10385.00
641.5450, 10199.00
642.7080, 10145.00
643.8720, 9978.000
645.0350, 9907.000
646.1980, 9815.000
647.3610, 9768.000
648.5240, 9698.000
649.6870, 9555.000
650.8490, 9502.000
652.0120, 9621.000
653.1740, 9482.000
654.3360, 9485.000
655.4980, 9265.000
656.6600, 9237.000
657.8210, 9304.000
658.9830, 9185.000
660.1440, 9050.000
661.3050, 9204.000
662.4660, 9132.000
663.6270, 9137.000
664.7870, 9058.000
665.9480, 9131.000
667.1080, 9139.000
668.2680, 9062.000
669.4280, 8945.000
670.5880, 9062.000
671.7480, 8997.000
672.9070, 8809.000
674.0670, 8806.000
675.2260, 8782.000
676.3850, 8779.000
677.5440, 8849.000
678.7030, 8889.000
679.8610, 8856.000
681.0200, 8793.000
682.1780, 8739.000
683.3360, 8741.000
684.4940, 8766.000
685.6520, 8821.000
686.8090, 8841.000
687.9670, 8829.000
689.1240, 8797.000
690.2810, 8796.000
691.4380, 8818.000
692.5950, 8843.000
693.7520, 8748.000
694.9080, 8778.000
696.0650, 8864.000
697.2210, 8721.000
698.3770, 8718.000
699.5330, 8852.000
700.6880, 8680.000
701.8440, 8716.000
702.9990, 8631.000
704.1550, 8623.268
705.3100, 8713.000
706.4650, 8657.000
707.6190, 8707.000
708.7740, 8751.000
709.9290, 8744.000
711.0830, 8755.000
712.2370, 8719.000
713.3910, 8778.000
714.5450, 8774.000
715.6980, 8656.000
716.8520, 8678.000
718.0050, 8689.000
719.1580, 8749.000
720.3110, 8797.000
721.4640, 8678.000
722.6170, 8737.000
723.7700, 8640.000
724.9220, 8640.000
726.0740, 8730.000
727.2260, 8574.000
728.3780, 8691.000
729.5300, 8731.000
730.6810, 8595.000
731.8330, 8674.000
732.9840, 8517.000
734.1350, 8660.000
735.2860, 8552.000
736.4370, 8473.000
737.5880, 8494.000
738.7380, 8568.000
739.8880, 8586.000
741.0390, 8576.000
742.1890, 8560.000
743.3380, 8547.000
744.4880, 8535.297
745.6380, 8483.000
746.7870, 8523.000
747.9360, 8486.000
749.0850, 8503.000
750.2340, 8586.000
751.3830, 8482.000
752.5310, 8581.000
753.6800, 8594.000
754.8280, 8494.000
755.9760, 8506.000
757.1240, 8604.000
758.2720, 8510.000
759.4190, 8428.000
760.5670, 8460.000
761.7140, 8582.000
762.8610, 8571.000
764.0080, 8703.000
765.1550, 8564.000
766.3020, 8623.000
767.4480, 8670.000
768.5950, 8654.000
769.7410, 8649.000
770.8870, 8568.000
772.0330, 8542.000
773.1780, 8574.000
774.3240, 8554.220
775.4690, 8676.000
776.6140, 8570.000
777.7590, 8667.000
778.9040, 8626.000
780.0490, 8679.000
781.1940, 8601.000
782.3380, 8501.000
783.4820, 8595.000
784.6260, 8619.000
785.7700, 8508.000
786.9140, 8583.000
788.0580, 8483.000
789.2010, 8575.000
790.3450, 8444.000
791.4880, 8417.000
792.6310, 8395.000
793.7730, 8514.000
794.9160, 8419.000
796.0590, 8489.000
797.2010, 8254.000
798.3430, 8320.000
799.4850, 8396.000
800.6270, 8373.000
801.7690, 8391.000
802.9100, 8431.000
804.0520, 8408.000
805.1930, 8465.000
806.3340, 8589.533
807.4750, 8565.827
808.6160, 8799.000
809.7560, 8606.000
810.8970, 8480.000
812.0370, 8498.000
813.1770, 8594.000
814.3170, 8580.000
815.4570, 8732.000
816.5960, 8729.000
817.7360, 8725.000
818.8750, 8713.000
820.0140, 8759.000
821.1530, 8752.000
822.2920, 8646.000
823.4310, 8592.970
824.5690, 8493.000
825.7070, 8355.000
826.8460, 8265.000
827.9840, 8123.000
829.1220, 8138.000
830.2590, 8078.000
831.3970, 7899.000
832.5340, 7991.000
833.6710, 7988.000
834.8080, 7973.000
835.9450, 7768.000
837.0820, 8036.000
838.2190, 7822.000
839.3550, 7855.000
840.4910, 7899.000
841.6270, 7931.000
842.7630, 7874.000
843.8990, 7821.000
845.0350, 7814.000
846.1700, 7852.000
847.3060, 7869.000
848.4410, 7856.000
849.5760, 7871.030
850.7100, 7873.293
851.8450, 7842.000
852.9800, 7868.000
854.1140, 7808.000
855.2480, 7769.000
856.3820, 7779.000
857.5160, 7755.765
858.6500, 7804.000
859.7830, 7781.000
860.9170, 7770.260
862.0500, 7819.000
863.1830, 7757.000
864.3160, 7710.000
865.4480, 7862.000
866.5810, 7715.000
867.7130, 7906.000
868.8460, 7732.000
869.9780, 7825.000
871.1100, 7680.000
872.2410, 7771.000
873.3730, 7803.000
874.5050, 7675.000
875.6360, 7675.000
876.7670, 7732.000
877.8980, 7646.000
879.0290, 7736.000
880.1590, 7828.000
881.2900, 7692.000
882.4200, 7799.000
883.5500, 7636.000
884.6800, 7673.000
885.8100, 7772.000
886.9400, 7725.000
888.0690, 7768.471
889.1990, 7698.000
890.3280, 7758.000
891.4570, 7724.000
892.5860, 7680.000
893.7140, 7774.000
894.8430, 7732.000
895.9710, 7660.000
897.1000, 7641.000
898.2280, 7766.000
899.3560, 7751.000
900.4830, 7706.000
901.6110, 7736.000
902.7380, 7726.000
903.8660, 7809.000
904.9930, 7723.000
906.1200, 7624.000
907.2460, 7688.000
908.3730, 7740.000
909.5000, 7743.000
910.6260, 7708.000
911.7520, 7786.000
912.8780, 7744.000
914.0040, 7749.000
915.1290, 7736.000
916.2550, 7724.000
917.3800, 7704.000
918.5050, 7726.000
919.6300, 7726.000
920.7550, 7693.000
921.8800, 7757.000
923.0040, 7691.000
924.1290, 7759.000
925.2530, 7634.000
926.3770, 7807.000
927.5010, 7752.000
928.6250, 7785.000
929.7480, 7817.000
930.8720, 7822.000
931.9950, 7843.241
933.1180, 7739.000
934.2410, 7855.000
935.3640, 7792.000
936.4860, 7776.000
937.6090, 7823.000
938.7310, 7732.000
939.8530, 7838.000
940.9750, 7919.000
942.0970, 7903.000
943.2180, 7746.000
944.3400, 7907.000
945.4610, 7847.000
946.5820, 7863.000
947.7030, 7946.000
948.8240, 7986.000
949.9450, 7953.000
951.0650, 7862.000
952.1860, 7919.000
953.3060, 7941.000
954.4260, 7871.000
955.5460, 7955.000
956.6650, 7975.000
957.7850, 8015.000
958.9040, 8013.000
960.0230, 8034.000
961.1420, 7993.000
962.2610, 8030.000
963.3800, 7934.000
964.4990, 7968.260
965.6170, 8057.000
966.7350, 7976.000
967.8530, 8086.000
968.9710, 8069.000
970.0890, 8154.000
971.2070, 8105.000
972.3240, 8159.000
973.4410, 8066.000
974.5580, 8214.000
975.6750, 8137.000
976.7920, 8171.000
977.9090, 8136.000
979.0250, 8217.000
980.1410, 8177.000
981.2580, 8279.000
982.3740, 8294.000
983.4890, 8282.000
984.6050, 8216.000
985.7200, 8281.000
986.8360, 8287.222
987.9510, 8377.000
989.0660, 8390.000
990.1810, 8446.000
991.2950, 8522.000
992.4100, 8539.000
993.5240, 8533.000
994.6390, 8493.000
995.7530, 8576.000
996.8660, 8533.000
997.9800, 8672.000
999.0940, 8643.000
1000.207, 8690.000
1001.320, 8753.000
1002.433, 8743.000
1003.546, 8758.000
1004.659, 8707.000
1005.772, 8760.000
1006.884, 8842.000
1007.996, 8865.000
1009.108, 8740.000
1010.220, 8892.000
1011.332, 8839.000
1012.444, 8965.000
1013.555, 8951.000
1014.666, 8956.000
1015.777, 8940.000
1016.888, 9049.000
1017.999, 8998.000
1019.110, 9093.000
1020.220, 9033.000
1021.331, 9178.000
1022.441, 9179.000
1023.551, 9216.000
1024.661, 9203.000
1025.770, 9218.000
1026.880, 9252.000
1027.989, 9246.000
1029.098, 9275.000
1030.207, 9225.000
1031.316, 9280.000
1032.425, 9209.000
1033.533, 9302.000
1034.642, 9293.000
1035.750, 9264.000
1036.858, 9363.000
1037.966, 9412.000
1039.073, 9284.000
1040.181, 9423.000
1041.288, 9438.000
1042.396, 9555.000
1043.503, 9468.000
1044.610, 9468.000
1045.716, 9511.000
1046.823, 9381.000
1047.929, 9447.000
1049.036, 9521.000
1050.142, 9359.000
1051.248, 9402.000
1052.353, 9459.000
1053.459, 9339.000
1054.564, 9393.000
1055.670, 9266.000
1056.775, 9284.000
1057.880, 9440.000
1058.985, 9376.000
1060.089, 9280.000
1061.194, 9320.000
1062.298, 9290.000
1063.402, 9316.000
1064.506, 9320.000
1065.610, 9381.000
1066.713, 9330.000
1067.817, 9227.000
1068.920, 9294.000
1070.023, 9295.000
1071.126, 9339.000
1072.229, 9451.000
1073.332, 9271.000
1074.435, 9514.000
1075.537, 9433.000
1076.639, 9633.000
1077.741, 9563.000
1078.843, 9668.000
1079.945, 9778.000
1081.046, 9775.000
1082.148, 9839.000
1083.249, 10030.00
1084.350, 10060.00
1085.451, 10190.00
1086.551, 10175.00
1087.652, 10334.00
1088.752, 10446.00
1089.853, 10523.00
1090.953, 10554.00
1092.053, 10656.00
1093.152, 10873.00
1094.252, 10776.00
1095.351, 11044.00
1096.451, 11174.00
1097.550, 11245.00
1098.649, 11374.00
1099.748, 11542.00
1100.846, 11435.00
1101.945, 11734.00
1103.043, 11623.00
1104.141, 11783.00
1105.239, 11934.00
1106.337, 11885.00
1107.434, 11876.00
1108.532, 11993.00
1109.629, 11936.00
1110.726, 12070.00
1111.823, 12165.00
1112.920, 12073.00
1114.017, 12092.00
1115.113, 12173.00
1116.210, 12336.00
1117.306, 12354.00
1118.402, 12383.00
1119.498, 12474.72
1120.593, 12383.00
1121.689, 12520.00
1122.784, 12513.00
1123.879, 12384.00
1124.974, 12415.00
1126.069, 12392.00
1127.164, 12285.00
1128.259, 12436.00
1129.353, 12214.00
1130.447, 12131.00
1131.541, 12227.00
1132.635, 12128.00
1133.729, 12316.00
1134.822, 12309.00
1135.916, 12291.00
1137.009, 12407.00
1138.102, 12348.31
1139.195, 12259.00
1140.288, 12299.00
1141.380, 12358.00
1142.473, 12311.00
1143.565, 12362.00
1144.657, 12506.00
1145.749, 12472.00
1146.841, 12489.00
1147.932, 12484.00
1149.024, 12445.00
1150.115, 12487.00
1151.206, 12516.00
1152.297, 12509.00
1153.388, 12475.00
1154.479, 12569.00
1155.569, 12484.00
1156.659, 12701.00
1157.750, 12598.70
1158.839, 12506.00
1159.929, 12533.00
1161.019, 12352.00
1162.108, 12392.00
1163.198, 12357.00
1164.287, 12243.00
1165.376, 12165.00
1166.465, 12231.00
1167.553, 12260.00
1168.642, 12034.00
1169.730, 11933.00
1170.818, 11847.00
1171.906, 11939.00
1172.994, 11837.00
1174.082, 11658.00
1175.170, 11616.00
1176.257, 11453.00
1177.344, 11435.00
1178.431, 11336.00
1179.518, 11313.00
1180.605, 11000.00
1181.691, 11119.00
1182.778, 10850.00
1183.864, 10773.00
1184.950, 10641.00
1186.036, 10640.00
1187.122, 10654.00
1188.207, 10438.00
1189.292, 10386.00
1190.378, 10322.38
1191.463, 10200.00
1192.548, 10136.00
1193.632, 9981.000
1194.717, 9739.000
1195.801, 9817.000
1196.886, 9622.000
1197.970, 9470.000
1199.054, 9451.000
1200.137, 9487.000
1201.221, 9178.000
1202.305, 9304.000
1203.388, 9133.000
1204.471, 9067.000
1205.554, 8946.000
1206.637, 8899.000
1207.719, 8879.000
1208.802, 8888.000
1209.884, 8807.900
1210.966, 8738.000
1212.048, 8663.000
1213.130, 8567.000
1214.212, 8473.000
1215.293, 8484.000
1216.374, 8395.000
1217.456, 8407.000
1218.536, 8407.000
1219.617, 8398.000
1220.698, 8389.054
1221.778, 8344.684
1222.859, 8351.000
1223.939, 8274.000
1225.019, 8243.000
1226.099, 8280.000
1227.178, 8122.000
1228.258, 8138.000
1229.337, 8162.000
1230.417, 8194.000
1231.496, 8126.000
1232.574, 8168.000
1233.653, 8111.000
1234.732, 8037.000
1235.810, 8085.000
1236.888, 8011.000
1237.966, 8078.000
1239.044, 8087.000
1240.122, 8054.000
1241.199, 8162.000
1242.277, 8128.000
1243.354, 7942.000
1244.431, 8015.000
1245.508, 8017.000
1246.585, 8075.000
1247.661, 8019.000
1248.738, 8010.000
1249.814, 8070.000
1250.890, 7962.000
1251.966, 8062.000
1253.042, 8006.000
1254.117, 7975.000
1255.193, 7937.000
1256.268, 7958.000
1257.343, 7938.442
1258.418, 7959.000
1259.493, 7931.000
1260.567, 7962.000
1261.642, 7935.000
1262.716, 7831.000
1263.790, 7853.000
1264.864, 7931.000
1265.938, 7895.000
1267.011, 7987.000
1268.085, 8006.000
1269.158, 7980.000
1270.231, 7920.000
1271.304, 8015.000
1272.377, 7859.000
1273.450, 7953.000
1274.522, 7983.000
1275.594, 7939.000
1276.666, 7962.000
1277.738, 7937.000
1278.810, 7870.000
1279.882, 7998.000
1280.953, 7833.000
1282.025, 7969.000
1283.096, 7788.000
1284.167, 7873.000
1285.238, 7833.000
1286.308, 7926.000
1287.379, 7986.000
1288.449, 7996.000
1289.519, 7915.000
1290.589, 7911.000
1291.659, 7896.000
1292.729, 7888.280
1293.798, 7887.000
1294.868, 7912.000
1295.937, 7899.000
1297.006, 7902.000
1298.075, 7897.000
1299.143, 7899.972
1300.212, 7957.000
1301.280, 7933.000
1302.348, 7875.000
1303.416, 7934.000
1304.484, 7888.000
1305.552, 7876.000
1306.620, 7974.000
