##NAMES=Clinoptilolite-Ca
##RRUFFID=R060662
##IDEAL CHEMISTRY=Ca_3_(Si_30_Al_6_)O_72_&#183;20H_2_O
##LOCALITY=Succor Creek, Malheur County, Oregon, USA
##OWNER=RRUFF
##SOURCE=Michael Scott
##DESCRIPTION=Group of colorless platy prismatic crystals
##STATUS=The identification of this mineral has been confirmed by X-ray diffraction and chemical analysis
##URL=rruff.info/R060662
##MEASURED CHEMISTRY=(Ca_1.02_Na_0.97_K_0.59_)_Σ=2.58_(Si_14.40_Al_3.60_)_Σ=18_O_36_·10.96H_2_O
##PIN_ID=M00134
##ORIENTATION=Laser parallel to (1 0 1). Fiducial mark perpendicular to laser is parallel to b [0 1 0]
134.1270, 38611.00
135.3560, 38856.00
136.5850, 38736.00
137.8140, 38845.00
139.0430, 38772.00
140.2710, 38785.00
141.5000, 38389.00
142.7280, 38098.00
143.9560, 37843.00
145.1840, 37459.00
146.4120, 37243.00
147.6390, 36821.00
148.8670, 36351.00
150.0940, 35879.00
151.3210, 35880.00
152.5490, 35200.00
153.7750, 34793.00
155.0020, 34530.00
156.2290, 33753.00
157.4550, 33410.00
158.6810, 32903.00
159.9080, 32576.00
161.1340, 32145.00
162.3590, 31847.00
163.5850, 31506.73
164.8110, 31159.46
166.0360, 30926.00
167.2610, 30460.00
168.4860, 30259.00
169.7110, 29813.00
170.9360, 29502.00
172.1610, 29237.00
173.3850, 29111.00
174.6100, 28845.00
175.8340, 28733.14
177.0580, 28516.00
178.2820, 28503.00
179.5050, 28472.00
180.7290, 28366.00
181.9520, 28010.00
183.1760, 28198.00
184.3990, 27935.00
185.6220, 27774.00
186.8450, 28237.00
188.0670, 27825.00
189.2900, 27748.00
190.5120, 27911.00
191.7340, 28005.00
192.9560, 27829.00
194.1780, 27443.00
195.4000, 27701.00
196.6220, 27346.00
197.8430, 27426.00
199.0640, 27585.00
200.2860, 27477.00
201.5070, 27419.00
202.7270, 27405.00
203.9480, 27000.00
205.1690, 26673.00
206.3890, 26492.00
207.6090, 26149.00
208.8290, 26574.00
210.0490, 26595.00
211.2690, 26274.00
212.4890, 26147.00
213.7080, 25995.00
214.9280, 25883.43
216.1470, 25987.00
217.3660, 25836.00
218.5850, 25879.00
219.8030, 25994.00
221.0220, 25841.00
222.2400, 25824.00
223.4590, 25952.00
224.6770, 25936.00
225.8950, 25820.00
227.1120, 26191.00
228.3300, 25924.00
229.5480, 26326.00
230.7650, 26363.00
231.9820, 26534.00
233.1990, 26690.00
234.4160, 26706.00
235.6330, 26855.10
236.8490, 26889.00
238.0660, 27059.00
239.2820, 27233.00
240.4980, 27387.00
241.7140, 27452.00
242.9300, 27363.00
244.1460, 27722.00
245.3610, 27684.00
246.5770, 27885.00
247.7920, 28034.00
249.0070, 27898.00
250.2220, 28007.00
251.4370, 28067.00
252.6510, 28097.00
253.8660, 28282.00
255.0800, 28180.00
256.2940, 28249.00
257.5080, 28699.00
258.7220, 29034.00
259.9360, 28767.00
261.1490, 28303.00
262.3630, 28364.00
263.5760, 28022.00
264.7890, 28270.00
266.0020, 28044.00
267.2150, 28197.00
268.4270, 28004.00
269.6400, 27825.00
270.8520, 28004.00
272.0640, 27935.00
273.2760, 27926.00
274.4880, 28154.00
275.7000, 28315.00
276.9120, 27920.00
278.1230, 27839.00
279.3340, 27719.00
280.5450, 27674.00
281.7560, 27723.00
282.9670, 27788.00
284.1780, 27712.00
285.3880, 27653.00
286.5980, 27744.00
287.8090, 27550.00
289.0190, 27692.00
290.2290, 27733.00
291.4380, 27703.00
292.6480, 27541.00
293.8570, 27501.00
295.0670, 27501.00
296.2760, 27582.00
297.4850, 27745.00
298.6930, 27682.94
299.9020, 27709.00
301.1110, 27647.00
302.3190, 27686.00
303.5270, 27694.00
304.7350, 27649.00
305.9430, 27677.00
307.1510, 27698.53
308.3580, 27799.00
309.5660, 27828.00
310.7730, 27978.00
311.9800, 28161.00
313.1870, 28270.00
314.3940, 28441.00
315.6010, 28471.00
316.8070, 28911.00
318.0130, 28995.00
319.2200, 28924.00
320.4260, 29138.00
321.6310, 29078.00
322.8370, 29191.00
324.0430, 29047.00
325.2480, 29396.00
326.4540, 29378.00
327.6590, 29487.85
328.8640, 29559.00
330.0680, 29772.00
331.2730, 29732.00
332.4780, 30007.00
333.6820, 30032.00
334.8860, 30197.00
336.0900, 30132.00
337.2940, 30275.00
338.4980, 30348.00
339.7010, 30357.00
340.9050, 30569.00
342.1080, 30768.00
343.3110, 31038.00
344.5140, 31216.00
345.7170, 31370.97
346.9200, 31417.00
348.1220, 31713.00
349.3240, 31778.00
350.5270, 32119.00
351.7290, 32109.00
352.9310, 32808.00
354.1320, 32839.00
355.3340, 33202.00
356.5350, 33518.00
357.7370, 33962.00
358.9380, 34319.00
360.1390, 34534.00
361.3400, 35060.00
362.5400, 35396.00
363.7410, 35687.00
364.9410, 36230.00
366.1410, 36768.00
367.3410, 37108.00
368.5410, 37847.00
369.7410, 38147.00
370.9400, 38305.00
372.1400, 39258.00
373.3390, 39593.00
374.5380, 40030.00
375.7370, 40706.00
376.9360, 41225.00
378.1350, 41887.00
379.3330, 42708.00
380.5310, 43810.00
381.7300, 44343.00
382.9280, 45001.00
384.1260, 46729.00
385.3230, 47313.00
386.5210, 48269.00
387.7180, 49585.00
388.9160, 50919.00
390.1130, 52340.00
391.3100, 54052.00
392.5060, 55619.00
393.7030, 56884.00
394.9000, 58327.00
396.0960, 59575.00
397.2920, 60708.00
398.4880, 61446.00
399.6840, 62323.00
400.8800, 62846.00
402.0750, 62879.00
403.2710, 62831.00
404.4660, 62315.00
405.6610, 61650.00
406.8560, 60733.00
408.0510, 59639.00
409.2450, 58307.00
410.4400, 57011.00
411.6340, 55728.00
412.8280, 53818.00
414.0220, 52261.00
415.2160, 50882.00
416.4100, 49351.00
417.6030, 47636.00
418.7970, 46355.00
419.9900, 44577.00
421.1830, 43352.00
422.3760, 41991.00
423.5690, 41247.00
424.7610, 39866.00
425.9540, 38746.00
427.1460, 37718.00
428.3380, 36627.00
429.5300, 35927.00
430.7220, 35433.00
431.9140, 34729.00
433.1050, 34099.00
434.2970, 33527.00
435.4880, 33479.00
436.6790, 33067.00
437.8700, 32788.00
439.0610, 32456.00
440.2510, 32118.00
441.4420, 31956.00
442.6320, 31964.00
443.8220, 31911.00
445.0120, 32245.00
446.2020, 32005.00
447.3910, 32142.00
448.5810, 32558.00
449.7700, 32502.00
450.9600, 32886.00
452.1490, 33345.00
453.3370, 33918.00
454.5260, 34557.00
455.7150, 34889.00
456.9030, 36053.00
458.0910, 36762.00
459.2800, 37141.00
460.4670, 37812.00
461.6550, 38436.00
462.8430, 39162.00
464.0300, 39728.00
465.2180, 40350.00
466.4050, 41004.00
467.5920, 41302.00
468.7790, 41991.00
469.9650, 42725.00
471.1520, 43657.00
472.3380, 44476.00
473.5250, 45573.00
474.7110, 47039.00
475.8970, 47329.00
477.0820, 48055.00
478.2680, 48459.00
479.4540, 48769.00
480.6390, 48656.00
481.8240, 47919.00
483.0090, 47336.00
484.1940, 45838.00
485.3780, 44483.00
486.5630, 43085.00
487.7470, 41468.00
488.9320, 40066.00
490.1160, 38480.00
491.3000, 37232.00
492.4830, 35656.00
493.6670, 34748.00
494.8500, 33660.00
496.0340, 32877.00
497.2170, 31899.00
498.4000, 31394.00
499.5820, 31051.00
500.7650, 30731.00
501.9480, 30032.00
503.1300, 30309.00
504.3120, 29592.00
505.4940, 29337.00
506.6760, 29442.00
507.8580, 29433.00
509.0390, 28870.00
510.2210, 28924.00
511.4020, 28858.00
512.5830, 28609.00
513.7640, 28679.00
514.9450, 28630.00
516.1250, 28653.00
517.3060, 28599.55
518.4860, 28596.00
519.6660, 28477.00
520.8460, 28418.00
522.0260, 28382.00
523.2060, 28290.20
524.3850, 28476.00
525.5650, 28194.00
526.7440, 28261.00
527.9230, 28307.00
529.1020, 27983.00
530.2810, 28273.00
531.4590, 28022.00
532.6380, 28233.00
533.8160, 27985.00
534.9940, 28180.00
536.1720, 28190.00
537.3500, 28047.00
538.5270, 28104.00
539.7050, 27956.00
540.8820, 27886.00
542.0590, 27991.00
543.2360, 28126.00
544.4130, 28044.00
545.5900, 28056.00
546.7660, 28057.96
547.9430, 28060.00
549.1190, 28056.26
550.2950, 28069.00
551.4710, 28046.00
552.6470, 28074.00
553.8220, 28083.19
554.9980, 28029.00
556.1730, 28107.00
557.3480, 28229.00
558.5230, 28287.00
559.6980, 28213.00
560.8730, 28285.00
562.0470, 28288.00
563.2220, 28325.00
564.3960, 28447.00
565.5700, 28453.63
566.7440, 28555.13
567.9170, 28530.00
569.0910, 28688.00
570.2640, 28704.00
571.4380, 28687.00
572.6110, 28661.00
573.7840, 28773.00
574.9570, 28863.00
576.1290, 28852.00
577.3020, 28964.00
578.4740, 28973.00
579.6460, 29079.00
580.8180, 29138.00
581.9900, 29212.00
583.1620, 29155.00
584.3330, 29247.35
585.5040, 29272.00
586.6760, 29376.00
587.8470, 29623.00
589.0180, 29760.00
590.1880, 29896.00
591.3590, 29865.00
592.5290, 30035.00
593.7000, 30256.00
594.8700, 30220.00
596.0400, 30455.00
597.2090, 30553.00
598.3790, 31160.00
599.5490, 31167.00
600.7180, 31560.00
601.8870, 31564.00
603.0560, 31999.00
604.2250, 31912.00
605.3940, 32306.00
606.5620, 32688.00
607.7300, 33072.00
608.8990, 33019.00
610.0670, 33489.00
611.2350, 33614.00
612.4020, 33488.00
613.5700, 33910.00
614.7370, 33777.00
615.9050, 33953.00
617.0720, 33983.00
618.2390, 33748.00
619.4060, 33406.00
620.5720, 33300.00
621.7390, 33471.00
622.9050, 33007.00
624.0710, 32811.00
625.2370, 32693.00
626.4030, 32060.00
627.5690, 32066.00
628.7340, 31714.00
629.9000, 31527.00
631.0650, 31552.00
632.2300, 31298.00
633.3950, 30924.00
634.5600, 31036.00
635.7240, 30536.00
636.8890, 30804.00
638.0530, 30821.00
639.2170, 30683.00
640.3810, 30702.00
641.5450, 30519.00
642.7080, 30780.00
643.8720, 30630.00
645.0350, 30656.00
646.1980, 30637.00
647.3610, 30697.00
648.5240, 30482.00
649.6870, 30305.00
650.8490, 30356.00
652.0120, 30114.00
653.1740, 30457.00
654.3360, 30428.00
655.4980, 30250.00
656.6600, 30248.00
657.8210, 30108.00
658.9830, 30154.00
660.1440, 30045.00
661.3050, 30049.00
662.4660, 30021.00
663.6270, 29905.00
664.7870, 30081.00
665.9480, 30158.00
667.1080, 29833.00
668.2680, 30017.00
669.4280, 30005.00
670.5880, 29765.00
671.7480, 29960.00
672.9070, 29911.00
674.0670, 29910.00
675.2260, 30102.00
676.3850, 30113.00
677.5440, 30024.00
678.7030, 29871.00
679.8610, 30195.00
681.0200, 29917.00
682.1780, 30073.00
683.3360, 29821.00
684.4940, 29913.00
685.6520, 30241.00
686.8090, 30170.00
687.9670, 30096.00
689.1240, 30093.00
690.2810, 30242.00
691.4380, 30196.00
692.5950, 30288.00
693.7520, 30438.00
694.9080, 30278.00
696.0650, 30271.00
697.2210, 30235.00
698.3770, 30512.00
699.5330, 30670.00
700.6880, 30741.00
701.8440, 30385.00
702.9990, 30590.00
704.1550, 30819.00
705.3100, 30501.00
706.4650, 30640.00
707.6190, 30600.00
708.7740, 30637.00
709.9290, 30741.00
711.0830, 30703.00
712.2370, 30814.00
713.3910, 30805.00
714.5450, 31156.00
715.6980, 30935.00
716.8520, 30820.00
718.0050, 31155.00
719.1580, 31093.00
720.3110, 31160.00
721.4640, 30988.00
722.6170, 31321.00
723.7700, 31080.00
724.9220, 31142.00
726.0740, 31158.00
727.2260, 31146.00
728.3780, 31051.00
729.5300, 31366.00
730.6810, 31343.00
731.8330, 31238.00
732.9840, 31302.00
734.1350, 31213.00
735.2860, 31353.00
736.4370, 31153.00
737.5880, 31473.00
738.7380, 31397.00
739.8880, 31542.00
741.0390, 31372.00
742.1890, 31324.00
743.3380, 31348.00
744.4880, 31625.00
745.6380, 31563.00
746.7870, 31741.00
747.9360, 31528.00
749.0850, 31676.00
750.2340, 31901.00
751.3830, 31620.00
752.5310, 32000.00
753.6800, 31836.00
754.8280, 32071.00
755.9760, 32010.00
757.1240, 32277.00
758.2720, 32339.00
759.4190, 32107.00
760.5670, 32429.00
761.7140, 32291.00
762.8610, 32659.00
764.0080, 32448.00
765.1550, 32342.00
766.3020, 32857.00
767.4480, 32744.00
768.5950, 32710.00
769.7410, 33033.00
770.8870, 33151.00
772.0330, 33201.00
773.1780, 33285.00
774.3240, 33388.00
775.4690, 33377.71
776.6140, 33671.00
777.7590, 33402.00
778.9040, 33391.00
780.0490, 33471.00
781.1940, 33751.00
782.3380, 33404.00
783.4820, 33492.00
784.6260, 33753.00
785.7700, 33615.00
786.9140, 33456.00
788.0580, 33274.00
789.2010, 33465.00
790.3450, 33531.00
791.4880, 33485.00
792.6310, 33285.00
793.7730, 33067.00
794.9160, 33448.00
796.0590, 33337.00
797.2010, 32947.00
798.3430, 33353.00
799.4850, 33236.00
800.6270, 33165.00
801.7690, 33117.00
802.9100, 32949.00
804.0520, 33275.00
805.1930, 33032.00
806.3340, 33349.00
807.4750, 33139.00
808.6160, 33369.00
809.7560, 33451.00
810.8970, 33490.00
812.0370, 33556.00
813.1770, 33547.00
814.3170, 33768.00
815.4570, 34277.00
816.5960, 34060.00
817.7360, 34141.00
818.8750, 34167.00
820.0140, 33969.00
821.1530, 34008.00
822.2920, 33796.00
823.4310, 33611.00
824.5690, 33499.00
825.7070, 33411.10
826.8460, 33374.00
827.9840, 33349.00
829.1220, 33351.00
830.2590, 33360.00
831.3970, 33214.00
832.5340, 33088.00
833.6710, 33289.00
834.8080, 33182.00
835.9450, 33292.00
837.0820, 33200.00
838.2190, 33062.00
839.3550, 33055.00
840.4910, 33276.00
841.6270, 33376.00
842.7630, 33178.00
843.8990, 33379.00
845.0350, 33279.00
846.1700, 33145.00
847.3060, 33738.00
848.4410, 33486.00
849.5760, 33436.00
850.7100, 33675.00
851.8450, 33352.00
852.9800, 33649.00
854.1140, 33733.00
855.2480, 33909.00
856.3820, 33714.00
857.5160, 33775.00
858.6500, 33741.00
859.7830, 33632.00
860.9170, 33694.84
862.0500, 33633.21
863.1830, 33700.00
864.3160, 33675.00
865.4480, 33618.00
866.5810, 33798.00
867.7130, 33609.00
868.8460, 33487.00
869.9780, 33447.00
871.1100, 33737.00
872.2410, 33722.00
873.3730, 33746.00
874.5050, 33765.00
875.6360, 33691.00
876.7670, 33725.00
877.8980, 33809.00
879.0290, 33797.80
880.1590, 33752.00
881.2900, 33851.00
882.4200, 33812.00
883.5500, 33785.00
884.6800, 33839.00
885.8100, 33936.00
886.9400, 33806.00
888.0690, 33940.00
889.1990, 33788.00
890.3280, 33999.00
891.4570, 34023.00
892.5860, 34262.00
893.7140, 34090.00
894.8430, 34335.00
895.9710, 34074.00
897.1000, 34196.00
898.2280, 34108.00
899.3560, 34180.00
900.4830, 33807.00
901.6110, 34144.00
902.7380, 34092.00
903.8660, 34194.00
904.9930, 34513.00
906.1200, 34372.00
907.2460, 34454.00
908.3730, 34309.00
909.5000, 34561.00
910.6260, 34384.00
911.7520, 34524.00
912.8780, 34490.00
914.0040, 34511.00
915.1290, 34507.00
916.2550, 34594.00
917.3800, 34617.00
918.5050, 34529.00
919.6300, 34397.00
920.7550, 34431.00
921.8800, 34407.63
923.0040, 34899.00
924.1290, 34552.00
925.2530, 34646.00
926.3770, 34873.00
927.5010, 34587.00
928.6250, 34851.00
929.7480, 35190.00
930.8720, 34822.00
931.9950, 34929.00
933.1180, 34936.00
934.2410, 34881.00
935.3640, 34954.00
936.4860, 35106.00
937.6090, 35000.00
938.7310, 34989.00
939.8530, 35170.00
940.9750, 35173.00
942.0970, 35084.00
943.2180, 35192.00
944.3400, 35031.00
945.4610, 35059.00
946.5820, 35397.00
947.7030, 35242.00
948.8240, 35343.00
949.9450, 35325.00
951.0650, 35395.00
952.1860, 35485.00
953.3060, 35636.00
954.4260, 35453.00
955.5460, 35579.00
956.6650, 35727.00
957.7850, 35628.00
958.9040, 35917.00
960.0230, 35590.00
961.1420, 35752.00
962.2610, 35898.00
963.3800, 35902.00
964.4990, 35794.00
965.6170, 36059.00
966.7350, 35978.00
967.8530, 35819.00
968.9710, 35803.00
970.0890, 35956.00
971.2070, 35857.17
972.3240, 36478.00
973.4410, 35859.00
974.5580, 36323.00
975.6750, 36363.00
976.7920, 36139.00
977.9090, 36666.00
979.0250, 36223.00
980.1410, 36495.00
981.2580, 36482.00
982.3740, 36670.00
983.4890, 36630.00
984.6050, 36627.00
985.7200, 36864.00
986.8360, 36778.22
987.9510, 36860.00
989.0660, 36834.00
990.1810, 36693.00
991.2950, 36807.00
992.4100, 36866.00
993.5240, 37008.00
994.6390, 37143.00
995.7530, 37564.00
996.8660, 37518.00
997.9800, 37453.00
999.0940, 37853.00
1000.207, 37886.00
1001.320, 37864.00
1002.433, 38132.00
1003.546, 37936.00
1004.659, 37831.00
1005.772, 37833.00
1006.884, 37777.00
1007.996, 37795.00
1009.108, 37724.00
1010.220, 37933.00
1011.332, 37875.00
1012.444, 37990.00
1013.555, 38049.00
1014.666, 38247.00
1015.777, 38149.00
1016.888, 38281.00
1017.999, 38377.00
1019.110, 38358.00
1020.220, 38548.00
1021.331, 38557.00
1022.441, 38473.00
1023.551, 38931.00
1024.661, 38852.00
1025.770, 38922.00
1026.880, 38721.00
1027.989, 38984.00
1029.098, 38677.00
1030.207, 38983.00
1031.316, 38686.00
1032.425, 38840.00
1033.533, 38669.00
1034.642, 38860.00
1035.750, 39076.00
1036.858, 39157.00
1037.966, 39080.00
1039.073, 39185.00
1040.181, 39204.39
1041.288, 39205.00
1042.396, 39243.00
1043.503, 39328.00
1044.610, 39235.00
1045.716, 39214.00
1046.823, 39334.00
1047.929, 39231.00
1049.036, 39251.00
1050.142, 39157.00
1051.248, 39230.00
1052.353, 39306.00
1053.459, 39520.00
1054.564, 39405.00
1055.670, 39365.00
1056.775, 39184.00
1057.880, 39302.00
1058.985, 39243.00
1060.089, 39223.00
1061.194, 39135.00
1062.298, 39500.00
1063.402, 39428.00
1064.506, 39439.00
1065.610, 39273.00
1066.713, 39482.00
1067.817, 39458.12
1068.920, 39508.00
1070.023, 39609.00
1071.126, 39670.00
1072.229, 39751.00
1073.332, 39764.00
1074.435, 39597.00
1075.537, 39878.00
1076.639, 39939.00
1077.741, 39925.00
1078.843, 40284.00
1079.945, 40315.00
1081.046, 40353.00
1082.148, 40501.00
1083.249, 40495.50
1084.350, 40583.00
1085.451, 40619.00
1086.551, 40794.00
1087.652, 40995.00
1088.752, 40786.00
1089.853, 40816.00
1090.953, 41055.00
1092.053, 41150.00
1093.152, 41314.21
1094.252, 41393.00
1095.351, 41552.00
1096.451, 41544.00
1097.550, 41424.00
1098.649, 41613.00
1099.748, 41766.00
1100.846, 42109.00
1101.945, 41889.00
1103.043, 41881.00
1104.141, 41986.00
1105.239, 42224.00
1106.337, 42130.00
1107.434, 42444.00
1108.532, 42349.00
1109.629, 42444.00
1110.726, 42482.00
1111.823, 42640.00
1112.920, 42608.00
1114.017, 42754.00
1115.113, 42860.00
1116.210, 42743.00
1117.306, 42867.00
1118.402, 42797.00
1119.498, 43033.00
1120.593, 43249.00
1121.689, 43281.00
1122.784, 43360.00
1123.879, 43303.00
1124.974, 43654.00
1126.069, 43343.00
1127.164, 43324.00
1128.259, 43620.00
1129.353, 43534.00
1130.447, 43613.00
1131.541, 43542.00
1132.635, 43733.00
1133.729, 43810.00
1134.822, 43860.00
1135.916, 43755.00
1137.009, 43768.00
1138.102, 43563.00
1139.195, 43695.00
1140.288, 44058.00
1141.380, 44085.00
1142.473, 44035.00
1143.565, 43984.00
1144.657, 43986.00
1145.749, 44110.00
1146.841, 44015.00
1147.932, 43867.00
1149.024, 44076.00
1150.115, 44101.00
1151.206, 44033.00
1152.297, 44128.09
1153.388, 44131.00
1154.479, 44144.00
1155.569, 43971.00
1156.659, 43962.42
1157.750, 44108.00
1158.839, 43986.00
1159.929, 44156.00
1161.019, 44124.00
1162.108, 44070.00
1163.198, 44211.00
1164.287, 44182.00
1165.376, 43924.00
1166.465, 43904.00
1167.553, 44060.00
1168.642, 44350.00
1169.730, 43786.00
1170.818, 43918.00
1171.906, 43891.00
1172.994, 43467.00
1174.082, 43573.00
1175.170, 43608.00
1176.257, 43879.00
1177.344, 43746.00
1178.431, 43498.00
1179.518, 43593.00
1180.605, 43326.00
1181.691, 43512.00
1182.778, 43259.00
1183.864, 43099.00
1184.950, 43305.00
1186.036, 43097.00
1187.122, 43064.00
1188.207, 43171.00
1189.292, 43341.00
1190.378, 42823.00
1191.463, 42757.00
1192.548, 42918.00
1193.632, 42356.00
1194.717, 42665.00
1195.801, 42804.00
1196.886, 42652.00
1197.970, 42643.00
1199.054, 42603.00
1200.137, 42394.00
1201.221, 42463.00
1202.305, 42204.00
1203.388, 42391.00
1204.471, 42201.00
1205.554, 42226.00
1206.637, 42314.00
1207.719, 42145.00
1208.802, 42285.00
1209.884, 42215.00
1210.966, 42302.00
1212.048, 42093.00
1213.130, 42334.00
1214.212, 42162.00
1215.293, 42175.00
1216.374, 42172.00
1217.456, 42073.00
1218.536, 42203.00
1219.617, 42140.00
1220.698, 42197.00
1221.778, 41987.00
1222.859, 42355.00
1223.939, 41975.00
1225.019, 42338.00
1226.099, 42148.00
1227.178, 42208.00
1228.258, 42433.00
1229.337, 42307.00
1230.417, 42217.00
1231.496, 42301.00
1232.574, 42244.00
1233.653, 42246.00
1234.732, 42253.00
1235.810, 42454.00
1236.888, 42622.00
1237.966, 42545.00
1239.044, 42391.00
1240.122, 42445.00
1241.199, 42427.00
1242.277, 42402.68
1243.354, 42602.00
1244.431, 42487.00
1245.508, 42645.00
1246.585, 42844.00
1247.661, 42765.00
1248.738, 42582.00
1249.814, 42628.00
1250.890, 42768.00
1251.966, 42831.00
1253.042, 42630.00
1254.117, 42738.00
1255.193, 42744.00
1256.268, 42712.00
1257.343, 42837.00
1258.418, 42902.00
1259.493, 42881.00
1260.567, 42773.00
1261.642, 43064.00
1262.716, 43091.00
1263.790, 43427.00
1264.864, 43293.00
1265.938, 43306.00
1267.011, 43325.00
1268.085, 43407.00
1269.158, 43509.00
1270.231, 43493.91
1271.304, 43216.00
1272.377, 43424.00
1273.450, 43332.00
1274.522, 43135.00
1275.594, 43612.00
1276.666, 43384.00
1277.738, 43341.00
1278.810, 43662.00
1279.882, 43396.00
1280.953, 43541.00
1282.025, 43455.00
1283.096, 43480.00
1284.167, 43470.00
1285.238, 43293.00
1286.308, 43329.00
1287.379, 43733.00
1288.449, 43314.00
1289.519, 43799.00
1290.589, 43853.00
1291.659, 43629.00
1292.729, 43981.00
1293.798, 43714.00
1294.868, 43671.00
1295.937, 43794.00
1297.006, 43975.00
1298.075, 43953.00
1299.143, 43683.00
1300.212, 43932.00
1301.280, 43914.00
1302.348, 43856.00
1303.416, 43965.00
1304.484, 43993.00
1305.552, 44016.00
1306.620, 44192.00
