##NAMES=Clinoptilolite-Na
##RRUFFID=R061099
##IDEAL CHEMISTRY=Na_6_(Si_30_Al_6_)O_72_&#183;20H_2_O
##LOCALITY=Richardson Ranch, Madras, Jefferson County, Oregon, USA
##OWNER=RRUFF
##SOURCE=Michael Scott
##DESCRIPTION=Red-brown to salmon, somewhat coffin shaped tabular crystals in a fragmented geode
##STATUS=The identification of this mineral has been confirmed by X-ray diffraction and chemical analysis
##URL=rruff.info/R061099
##MEASURED CHEMISTRY=(Na_2.70_Ca_1.46_K_0.89_Fe_0.08_Mg_0.02_)_Σ=5.15_(Si_29.29_Al_6.71_)O_72_·18.51H_2_O
##PIN_ID=M01086
##ORIENTATION=Laser parallel to (1 0 1). Fiducial mark perpendicular to laser is parallel to b [0 1 0]
86.89900, 2236.000
88.13400, 2642.000
89.36900, 3103.000
90.60400, 3670.000
91.83800, 4337.000
93.07300, 5109.000
94.30700, 5970.000
95.54100, 6854.000
96.77500, 7742.113
98.00900, 8705.000
99.24300, 9631.000
100.4770, 10804.00
101.7100, 11832.00
102.9440, 12823.00
104.1770, 13831.00
105.4100, 14976.00
106.6430, 15841.00
107.8750, 16979.00
109.1080, 18328.00
110.3400, 19068.00
111.5720, 19498.00
112.8040, 19801.00
114.0360, 20478.00
115.2680, 21103.00
116.5000, 21923.00
117.7310, 22314.00
118.9620, 22594.00
120.1940, 22903.00
121.4250, 23017.00
122.6550, 23022.00
123.8860, 23233.00
125.1170, 23230.00
126.3470, 23482.00
127.5770, 23338.00
128.8070, 23323.00
130.0370, 23493.00
131.2670, 23516.00
132.4970, 23546.00
133.7260, 23579.00
134.9550, 23550.00
136.1850, 23674.00
137.4140, 23636.00
138.6420, 23767.00
139.8710, 23818.00
141.1000, 24033.00
142.3280, 23972.00
143.5560, 24127.00
144.7840, 23959.00
146.0120, 24093.00
147.2400, 24066.00
148.4680, 24097.00
149.6950, 23923.00
150.9220, 23871.00
152.1500, 24062.00
153.3770, 23788.00
154.6030, 23872.00
155.8300, 23867.00
157.0570, 23851.00
158.2830, 23775.54
159.5090, 23572.00
160.7350, 23576.00
161.9610, 23283.00
163.1870, 23247.00
164.4130, 23208.00
165.6380, 23482.00
166.8630, 23221.00
168.0880, 23183.00
169.3130, 23261.00
170.5380, 23176.00
171.7630, 23144.00
172.9870, 22979.00
174.2120, 23218.00
175.4360, 23125.00
176.6600, 23014.00
177.8840, 22911.00
179.1080, 22894.00
180.3310, 22874.00
181.5550, 22926.00
182.7780, 22878.00
184.0010, 22783.00
185.2240, 22868.00
186.4470, 23071.00
187.6700, 22988.00
188.8920, 23089.00
190.1150, 23068.00
191.3370, 22937.00
192.5590, 23000.00
193.7810, 23134.00
195.0020, 23145.00
196.2240, 23113.00
197.4450, 23047.00
198.6670, 23316.00
199.8880, 23180.00
201.1090, 23413.00
202.3300, 23306.00
203.5500, 23303.00
204.7710, 23189.00
205.9910, 23152.00
207.2110, 23182.00
208.4310, 23129.00
209.6510, 23081.00
210.8710, 23232.00
212.0910, 23376.00
213.3100, 23082.00
214.5290, 23493.00
215.7480, 23384.00
216.9670, 23705.00
218.1860, 23678.00
219.4050, 23625.00
220.6230, 23971.00
221.8420, 23728.00
223.0600, 24019.00
224.2780, 24081.00
225.4960, 24101.00
226.7130, 24296.00
227.9310, 24357.00
229.1480, 24302.00
230.3660, 24208.00
231.5830, 24302.00
232.8000, 24054.00
234.0160, 24284.00
235.2330, 24091.00
236.4490, 24119.00
237.6660, 24079.00
238.8820, 24309.00
240.0980, 24362.00
241.3140, 24232.00
242.5300, 24437.00
243.7450, 24337.00
244.9600, 24439.00
246.1760, 24460.00
247.3910, 24476.00
248.6060, 24481.00
249.8200, 24540.15
251.0350, 24597.01
252.2500, 24634.00
253.4640, 24803.00
254.6780, 24808.00
255.8920, 25004.00
257.1060, 24845.00
258.3190, 25014.00
259.5330, 24975.00
260.7460, 24999.74
261.9600, 25267.00
263.1730, 25078.00
264.3850, 24971.00
265.5980, 24999.00
266.8110, 25393.00
268.0230, 25067.00
269.2360, 25130.00
270.4480, 25218.00
271.6600, 25015.00
272.8710, 25195.00
274.0830, 25085.00
275.2950, 25130.00
276.5060, 25235.00
277.7170, 25296.00
278.9280, 25340.00
280.1390, 25296.00
281.3500, 25429.00
282.5600, 25564.00
283.7710, 25522.00
284.9810, 25747.00
286.1910, 25573.00
287.4010, 25723.00
288.6110, 25813.00
289.8200, 25878.00
291.0300, 25856.00
292.2390, 26031.00
293.4480, 25989.00
294.6570, 26091.00
295.8660, 25918.00
297.0750, 26047.00
298.2830, 25963.00
299.4920, 26055.00
300.7000, 25833.00
301.9080, 26082.00
303.1160, 25914.00
304.3240, 26078.00
305.5310, 26019.00
306.7390, 26034.00
307.9460, 25898.00
309.1530, 26194.00
310.3600, 25933.00
311.5670, 26326.00
312.7740, 26157.00
313.9800, 26347.00
315.1870, 26727.00
316.3930, 26541.00
317.5990, 26513.00
318.8050, 26829.00
320.0110, 26810.00
321.2160, 27060.00
322.4220, 26911.00
323.6270, 26945.00
324.8320, 27021.00
326.0370, 27033.00
327.2420, 27059.00
328.4460, 27167.91
329.6510, 27267.00
330.8550, 27273.00
332.0590, 27464.00
333.2630, 27299.00
334.4670, 27492.00
335.6710, 27574.00
336.8740, 27433.00
338.0780, 27451.00
339.2810, 27617.00
340.4840, 27659.00
341.6870, 27677.00
342.8900, 27624.00
344.0920, 27750.38
345.2950, 27768.00
346.4970, 27970.00
347.6990, 27983.00
348.9010, 28102.00
350.1030, 27990.00
351.3050, 28144.00
352.5060, 28273.43
353.7080, 28586.00
354.9090, 28686.00
356.1100, 28776.00
357.3110, 29081.00
358.5110, 29304.00
359.7120, 29312.00
360.9120, 29363.00
362.1130, 29644.00
363.3130, 30077.00
364.5130, 30223.00
365.7120, 30398.00
366.9120, 30409.00
368.1120, 30756.00
369.3110, 31066.00
370.5100, 31464.00
371.7090, 31679.37
372.9080, 32103.00
374.1070, 32086.00
375.3050, 32294.00
376.5040, 32409.00
377.7020, 32871.00
378.9000, 33186.00
380.0980, 33423.00
381.2950, 33630.00
382.4930, 34187.00
383.6910, 34677.00
384.8880, 35361.00
386.0850, 35801.68
387.2820, 36204.00
388.4790, 36850.00
389.6750, 37339.00
390.8720, 38036.00
392.0680, 38806.00
393.2640, 39710.00
394.4600, 40541.00
395.6560, 41390.00
396.8520, 42073.00
398.0480, 42608.00
399.2430, 43628.00
400.4380, 43890.00
401.6330, 44612.00
402.8280, 45060.00
404.0230, 45112.00
405.2180, 45090.00
406.4120, 45041.96
407.6060, 44818.00
408.8000, 44466.00
409.9940, 43853.00
411.1880, 43241.00
412.3820, 42521.00
413.5750, 42027.00
414.7690, 41378.00
415.9620, 40595.00
417.1550, 39562.00
418.3480, 38650.00
419.5410, 38146.00
420.7330, 37218.00
421.9260, 36616.00
423.1180, 35749.00
424.3100, 34864.00
425.5020, 34241.00
426.6940, 33834.00
427.8850, 32897.00
429.0770, 32785.00
430.2680, 32073.00
431.4590, 31797.00
432.6500, 31407.00
433.8410, 31139.00
435.0320, 30827.00
436.2220, 30500.00
437.4130, 30484.00
438.6030, 30247.00
439.7930, 29941.00
440.9830, 30051.00
442.1730, 29880.00
443.3620, 29757.00
444.5520, 30018.00
445.7410, 29811.00
446.9300, 29533.00
448.1190, 30100.00
449.3080, 30033.00
450.4960, 30118.00
451.6850, 30128.00
452.8730, 30360.00
454.0610, 30805.00
455.2490, 31061.00
456.4370, 31529.00
457.6250, 31610.00
458.8130, 32288.00
460.0000, 32198.00
461.1870, 32817.00
462.3740, 33506.00
463.5610, 34161.00
464.7480, 33974.00
465.9340, 34299.00
467.1210, 34727.00
468.3070, 34862.86
469.4930, 35231.43
470.6790, 35479.00
471.8650, 35813.00
473.0510, 36068.00
474.2360, 36371.00
475.4210, 36626.00
476.6070, 36979.00
477.7920, 37447.00
478.9770, 37993.00
480.1610, 38491.00
481.3460, 38756.00
482.5300, 38504.00
483.7140, 38307.00
484.8980, 38083.00
486.0820, 37307.00
487.2660, 36841.00
488.4500, 36296.00
489.6330, 35387.00
490.8160, 34523.00
492.0000, 33985.00
493.1830, 33096.00
494.3650, 32571.00
495.5480, 31831.00
496.7300, 31392.00
497.9130, 30820.00
499.0950, 30376.00
500.2770, 29857.00
501.4590, 29802.00
502.6410, 29540.00
503.8220, 29331.00
505.0030, 29462.00
506.1850, 29216.00
507.3660, 29226.00
508.5470, 28951.00
509.7270, 28828.00
510.9080, 28701.00
512.0880, 28618.72
513.2690, 28807.00
514.4490, 28627.00
515.6290, 28594.00
516.8090, 28735.00
517.9880, 28672.00
519.1680, 28698.00
520.3470, 28249.00
521.5260, 28605.00
522.7050, 28539.00
523.8840, 28905.00
525.0630, 28487.00
526.2410, 29058.00
527.4200, 28687.00
528.5980, 28848.00
529.7760, 28804.00
530.9540, 28797.00
532.1320, 28509.00
533.3090, 28713.00
534.4870, 28477.00
535.6640, 28882.00
536.8410, 28483.00
538.0180, 28701.00
539.1950, 28882.00
540.3710, 28678.00
541.5480, 28587.00
542.7240, 28815.00
543.9000, 28734.00
545.0760, 28972.00
546.2520, 29005.00
547.4280, 28734.00
548.6040, 28960.00
549.7790, 28926.00
550.9540, 28841.00
552.1290, 28735.00
553.3040, 28922.00
554.4790, 29126.00
555.6530, 29206.00
556.8280, 29032.00
558.0020, 29152.00
559.1760, 29225.00
560.3500, 29057.00
561.5240, 29116.00
562.6980, 29224.00
563.8710, 28952.00
565.0440, 29120.00
566.2170, 29261.00
567.3900, 29113.00
568.5630, 29104.00
569.7360, 29245.00
570.9090, 29321.00
572.0810, 29380.00
573.2530, 29423.66
574.4250, 29437.32
575.5970, 29453.00
576.7690, 29480.00
577.9400, 29509.00
579.1120, 29639.00
580.2830, 29419.00
581.4540, 29835.00
582.6250, 29666.00
583.7960, 29698.00
584.9660, 30024.00
586.1370, 29856.00
587.3070, 29846.00
588.4770, 30176.00
589.6470, 29974.00
590.8170, 30142.00
591.9870, 30184.00
593.1560, 30038.00
594.3260, 29912.00
595.4950, 30397.00
596.6640, 30471.00
597.8330, 30552.00
599.0010, 30684.00
600.1700, 30750.58
601.3380, 30817.00
602.5070, 30915.00
603.6750, 31085.00
604.8430, 31158.19
606.0100, 31312.00
607.1780, 31400.00
608.3450, 31629.00
609.5130, 31642.00
610.6800, 31881.00
611.8470, 32179.00
613.0140, 32181.00
614.1800, 32439.00
615.3470, 32205.00
616.5130, 32306.00
617.6790, 32389.00
618.8450, 32406.00
620.0110, 32327.00
621.1770, 32366.00
622.3420, 31897.00
623.5080, 32017.00
624.6730, 32074.00
625.8380, 31849.00
627.0030, 31992.00
628.1680, 31646.00
629.3320, 31874.00
630.4970, 31789.00
631.6610, 31557.00
632.8250, 31381.00
633.9890, 31578.00
635.1530, 31441.00
636.3160, 31338.00
637.4800, 31436.00
638.6430, 31423.00
639.8060, 31309.00
640.9690, 31431.00
642.1320, 31263.00
643.2950, 31252.00
644.4570, 31470.00
645.6200, 31304.00
646.7820, 31414.00
647.9440, 31382.00
649.1060, 31424.00
650.2670, 31428.72
651.4290, 31459.00
652.5900, 31418.00
653.7520, 31420.00
654.9130, 31438.00
656.0740, 31362.00
657.2340, 31488.00
658.3950, 31569.00
659.5550, 31384.00
660.7160, 31598.00
661.8760, 31674.00
663.0360, 31551.00
664.1960, 31646.00
665.3550, 31589.00
666.5150, 31482.00
667.6740, 31604.00
668.8330, 31741.00
669.9920, 31715.00
671.1510, 31944.00
672.3100, 31873.00
673.4680, 31847.00
674.6270, 31916.00
675.7850, 31689.00
676.9430, 31776.00
678.1010, 31797.00
679.2590, 32062.00
680.4160, 31909.00
681.5740, 32283.00
682.7310, 32149.00
683.8880, 32094.00
685.0450, 31823.00
686.2020, 31985.00
687.3580, 32147.00
688.5150, 32193.00
689.6710, 32258.13
690.8270, 32261.29
691.9830, 32231.00
693.1390, 32197.00
694.2950, 32215.53
695.4500, 32209.89
696.6050, 32250.00
697.7610, 32277.00
698.9160, 32317.00
700.0710, 32427.00
701.2250, 32342.00
702.3800, 32445.00
703.5340, 32683.00
704.6880, 32399.00
705.8420, 32351.00
706.9960, 32634.00
708.1500, 32645.00
709.3040, 32856.00
710.4570, 32837.00
711.6100, 32873.00
712.7640, 32954.00
713.9160, 32952.00
715.0690, 32915.00
716.2220, 32926.99
717.3740, 33181.00
718.5270, 32865.00
719.6790, 33144.00
720.8310, 33121.00
721.9830, 32929.00
723.1340, 33193.00
724.2860, 32918.00
725.4370, 33248.00
726.5880, 33157.00
727.7390, 33177.00
728.8900, 32930.00
730.0410, 33102.00
731.1910, 33038.00
732.3420, 33337.00
733.4920, 33092.00
734.6420, 33409.00
735.7920, 33544.00
736.9420, 33604.00
738.0910, 33317.00
739.2410, 33351.00
740.3900, 33484.00
741.5390, 33390.00
742.6880, 33379.00
743.8370, 33146.00
744.9860, 33420.00
746.1340, 33452.00
747.2820, 33356.00
748.4310, 33727.00
749.5790, 33455.00
750.7260, 33265.00
751.8740, 33416.00
753.0220, 33636.00
754.1690, 33597.00
755.3160, 33631.00
756.4630, 33659.00
757.6100, 33807.00
758.7570, 33751.00
759.9030, 33793.00
761.0500, 33680.00
762.1960, 33877.00
763.3420, 34001.00
764.4880, 33961.00
765.6340, 33968.00
766.7790, 33915.00
767.9250, 34208.00
769.0700, 33944.00
770.2150, 34354.00
771.3600, 34173.00
772.5050, 34209.00
773.6490, 34297.00
774.7940, 34360.00
775.9380, 34313.00
777.0820, 34714.00
778.2260, 34632.00
779.3700, 34426.00
780.5140, 34749.00
781.6570, 34432.00
782.8010, 34540.00
783.9440, 34596.00
785.0870, 34476.00
786.2300, 34694.00
787.3720, 34719.00
788.5150, 34812.00
789.6570, 34863.00
790.8000, 34820.00
791.9420, 34755.00
793.0840, 34887.55
794.2250, 34882.00
795.3670, 34999.00
796.5080, 34930.00
797.6500, 34715.00
798.7910, 34812.00
799.9320, 35059.00
801.0720, 34857.00
802.2130, 35010.00
803.3530, 34920.00
804.4940, 35113.00
805.6340, 34980.00
806.7740, 34950.00
807.9140, 34988.00
809.0530, 34982.26
810.1930, 35236.00
811.3320, 35020.00
812.4710, 35335.00
813.6100, 35213.00
814.7490, 35323.00
815.8880, 35219.00
817.0270, 35346.00
818.1650, 35163.00
819.3030, 35311.00
820.4410, 35402.00
821.5790, 35411.00
822.7170, 35478.57
823.8540, 35283.00
824.9920, 35451.00
826.1290, 35481.00
827.2660, 35344.00
828.4030, 35426.00
829.5400, 35726.00
830.6760, 35635.00
831.8130, 35612.00
832.9490, 35618.00
834.0850, 35498.00
835.2210, 35773.00
836.3570, 35720.00
837.4930, 35706.00
838.6280, 35941.00
839.7640, 35851.00
840.8990, 36035.00
842.0340, 35577.00
843.1690, 35998.00
844.3030, 35987.00
845.4380, 35809.00
846.5720, 35965.00
847.7060, 35983.00
848.8400, 36322.00
849.9740, 35964.00
851.1080, 36179.00
852.2420, 36214.00
853.3750, 36194.00
854.5080, 36068.00
855.6410, 36210.00
856.7740, 36470.00
857.9070, 36404.00
859.0400, 36576.00
860.1720, 36612.00
861.3040, 36573.00
862.4360, 36755.00
863.5680, 36586.00
864.7000, 36517.00
865.8320, 36454.00
866.9630, 36452.00
868.0950, 36465.00
869.2260, 36595.00
870.3570, 36738.00
871.4880, 36742.00
872.6180, 36517.00
873.7490, 36749.00
874.8790, 36421.00
876.0090, 36746.00
877.1390, 36691.00
878.2690, 36636.00
879.3990, 36811.17
880.5280, 37100.00
881.6580, 36924.00
882.7870, 37020.00
883.9160, 36987.00
885.0450, 37005.00
886.1740, 36899.00
887.3020, 36878.00
888.4310, 37049.00
889.5590, 37178.00
890.6870, 36944.00
891.8150, 37268.00
892.9430, 37353.00
894.0700, 37226.00
895.1980, 37398.00
896.3250, 37470.00
897.4520, 37291.00
898.5790, 37698.00
899.7060, 37397.00
900.8330, 37237.00
901.9590, 37484.00
903.0850, 37825.00
904.2120, 37414.00
905.3380, 37641.00
906.4630, 37587.00
907.5890, 37874.00
908.7150, 37850.00
909.8400, 37706.00
910.9650, 37807.00
912.0900, 37803.00
913.2150, 37750.00
914.3400, 37731.00
915.4640, 37954.00
916.5890, 38144.00
917.7130, 37949.00
918.8370, 38030.00
919.9610, 37944.00
921.0850, 38262.00
922.2080, 38034.00
923.3320, 38190.00
924.4550, 38376.00
925.5780, 38297.00
926.7010, 38185.00
927.8240, 38266.00
928.9460, 38403.00
930.0690, 38515.00
931.1910, 38362.00
932.3130, 38504.00
933.4350, 38375.00
934.5570, 38647.00
935.6790, 38600.00
936.8000, 38626.00
937.9220, 38630.00
939.0430, 38692.00
940.1640, 38729.00
941.2850, 38880.00
942.4050, 39024.00
943.5260, 39009.00
944.6460, 39022.00
945.7660, 38880.00
946.8860, 38786.00
948.0060, 39187.00
949.1260, 39148.00
950.2460, 39338.00
951.3650, 39126.00
952.4840, 39154.00
953.6030, 38982.00
954.7220, 39093.00
955.8410, 38975.00
956.9590, 39400.00
958.0780, 39469.00
959.1960, 39533.00
960.3140, 39368.00
961.4320, 39590.00
962.5500, 39347.00
963.6680, 39618.00
964.7850, 39453.00
965.9020, 39674.00
967.0190, 39692.00
968.1360, 39725.00
969.2530, 39788.00
970.3700, 39851.00
971.4860, 39997.00
972.6030, 40084.00
973.7190, 40152.00
974.8350, 40240.07
975.9510, 40104.00
977.0660, 40311.00
978.1820, 40102.00
979.2970, 40003.00
980.4130, 40275.00
981.5280, 40188.00
982.6420, 40171.00
983.7570, 40616.00
984.8720, 40431.00
985.9860, 40305.00
987.1000, 40580.00
988.2140, 40215.00
989.3280, 40609.00
990.4420, 40426.00
991.5560, 40393.00
992.6690, 40807.00
993.7820, 40658.00
994.8950, 40684.00
996.0080, 41001.00
997.1210, 40620.00
998.2340, 40592.00
999.3460, 40934.00
1000.458, 40854.00
1001.571, 40807.00
1002.683, 41213.00
1003.794, 41319.00
1004.906, 41110.00
1006.017, 41216.00
1007.129, 41074.00
1008.240, 41224.00
1009.351, 41287.00
1010.462, 41419.00
1011.572, 41256.00
1012.683, 41157.00
1013.793, 41646.00
1014.904, 41298.00
1016.014, 41622.00
1017.123, 41386.00
1018.233, 41566.00
1019.343, 41658.00
1020.452, 41597.00
1021.561, 41787.00
1022.670, 41990.00
1023.779, 41921.00
1024.888, 41818.00
1025.997, 42068.00
1027.105, 41718.00
1028.213, 41881.88
1029.321, 42253.00
1030.429, 41926.00
1031.537, 42185.00
1032.645, 42111.00
1033.752, 42046.00
1034.859, 42224.00
1035.966, 42491.00
1037.073, 42410.00
1038.180, 42590.00
1039.287, 42476.00
1040.393, 42184.00
1041.500, 42370.00
1042.606, 42418.00
1043.712, 42653.00
1044.818, 42897.00
1045.923, 42776.00
1047.029, 42943.00
1048.134, 42494.00
1049.239, 42756.00
1050.344, 42563.00
1051.449, 42796.00
1052.554, 42821.00
1053.658, 42945.00
1054.763, 42970.00
1055.867, 42918.00
1056.971, 42975.00
1058.075, 43176.00
1059.179, 43180.00
1060.282, 43305.80
1061.385, 43364.06
1062.489, 43435.00
1063.592, 43398.00
1064.695, 43337.00
1065.797, 43227.00
1066.900, 43050.00
1068.002, 43169.75
1069.105, 43222.88
1070.207, 43341.00
1071.309, 43603.00
1072.411, 43607.00
1073.512, 43870.00
1074.614, 43541.00
1075.715, 43836.00
1076.816, 43897.00
1077.917, 44060.00
1079.018, 43691.00
1080.118, 43594.00
1081.219, 43942.00
1082.319, 43864.00
1083.419, 44065.00
1084.519, 44211.00
1085.619, 44145.00
1086.719, 44165.00
1087.818, 44483.00
1088.918, 44441.00
1090.017, 44499.00
1091.116, 44672.00
1092.215, 44558.00
1093.314, 44663.00
1094.412, 44755.00
1095.510, 44614.00
1096.609, 44730.00
1097.707, 44784.00
1098.805, 44804.26
1099.902, 45028.00
1101.000, 45018.00
1102.097, 45077.00
1103.195, 45337.00
1104.292, 45194.00
1105.389, 45201.00
1106.485, 45562.00
1107.582, 45137.00
1108.678, 45334.00
1109.775, 45624.00
1110.871, 45624.00
1111.967, 46108.00
1113.062, 45681.00
1114.158, 46053.00
1115.254, 45818.00
1116.349, 46142.00
1117.444, 46261.00
1118.539, 46101.00
1119.634, 46305.00
1120.728, 46256.00
1121.823, 46277.00
1122.917, 46361.00
1124.011, 46489.00
1125.105, 46454.00
1126.199, 46494.00
1127.293, 46601.00
1128.386, 46930.00
1129.480, 46942.00
1130.573, 46961.00
1131.666, 46829.00
1132.759, 47239.00
1133.851, 46904.00
1134.944, 46740.00
1136.036, 47306.00
1137.129, 47314.00
1138.221, 47203.00
1139.313, 47333.00
1140.404, 47309.00
1141.496, 47484.00
1142.587, 47262.00
1143.678, 47377.00
1144.770, 47518.00
1145.860, 47569.00
1146.951, 47774.00
1148.042, 47668.00
1149.132, 47698.00
1150.223, 47461.00
1151.313, 47702.00
1152.403, 47742.00
1153.492, 47798.00
1154.582, 47882.44
1155.671, 47927.00
1156.761, 47892.00
1157.850, 47968.00
1158.939, 47873.00
1160.028, 47863.00
1161.116, 47997.00
1162.205, 48043.00
1163.293, 48155.00
1164.381, 48310.00
1165.469, 47869.00
1166.557, 48314.00
1167.645, 48016.00
1168.732, 47824.00
1169.820, 48153.00
1170.907, 48115.00
1171.994, 48030.00
1173.081, 47946.00
1174.167, 48158.00
1175.254, 48146.00
1176.340, 48019.00
1177.426, 48271.00
1178.512, 48370.00
1179.598, 47947.00
1180.684, 48069.00
1181.770, 48353.00
1182.855, 48046.00
1183.940, 48305.00
1185.025, 48198.00
1186.110, 48150.00
1187.195, 48082.00
1188.280, 47969.00
1189.364, 48649.00
1190.448, 48353.11
1191.532, 48679.00
1192.616, 48317.00
1193.700, 47869.00
1194.784, 47913.00
1195.867, 47823.00
1196.950, 47998.00
1198.034, 48275.00
1199.117, 48140.00
1200.199, 48288.00
1201.282, 48021.00
1202.364, 47947.00
1203.447, 48191.00
1204.529, 48265.00
1205.611, 48165.00
1206.693, 48519.00
1207.774, 47915.00
1208.856, 48285.00
1209.937, 48239.00
1211.018, 48289.00
1212.099, 48415.39
1213.180, 48389.00
1214.261, 48433.00
1215.341, 48457.22
1216.422, 48095.00
1217.502, 48414.00
1218.582, 48348.00
1219.662, 48203.00
1220.742, 48464.00
1221.821, 48383.00
1222.900, 48328.00
1223.980, 48424.00
1225.059, 48374.00
1226.138, 48658.00
1227.216, 48492.00
1228.295, 48906.00
1229.373, 48380.00
1230.452, 48795.00
1231.530, 48414.00
1232.608, 48689.00
1233.685, 48511.00
1234.763, 49051.00
1235.840, 49046.00
1236.918, 48967.00
1237.995, 48821.00
1239.072, 49084.00
1240.149, 48939.00
1241.225, 49150.00
1242.302, 48869.00
1243.378, 48944.00
1244.454, 48871.00
1245.530, 48600.00
1246.606, 49082.00
1247.681, 49009.00
1248.757, 48714.00
1249.832, 49344.00
1250.907, 49219.00
1251.982, 48945.00
1253.057, 49256.00
1254.132, 49371.00
1255.206, 49376.00
1256.281, 49644.00
1257.355, 49587.00
1258.429, 49689.00
1259.503, 49512.00
1260.576, 49716.00
1261.650, 49537.00
