##NAMES=Clinoptilolite-Ca
##RRUFFID=R060662
##IDEAL CHEMISTRY=Ca_3_(Si_30_Al_6_)O_72_&#183;20H_2_O
##LOCALITY=Succor Creek, Malheur County, Oregon, USA
##OWNER=RRUFF
##SOURCE=Michael Scott
##DESCRIPTION=Group of colorless platy prismatic crystals
##STATUS=The identification of this mineral has been confirmed by X-ray diffraction and chemical analysis
##URL=rruff.info/R060662
##MEASURED CHEMISTRY=(Ca_1.02_Na_0.97_K_0.59_)_Σ=2.58_(Si_14.40_Al_3.60_)_Σ=18_O_36_·10.96H_2_O
##PIN_ID=M00063
##ORIENTATION=Laser parallel to -a* (-1 0 0). Fiducial mark perpendicular to laser is parallel to b [0 1 0]
134.1270, 38905.00
135.3560, 39236.00
136.5850, 38971.00
137.8140, 39270.00
139.0430, 39512.00
140.2710, 39486.00
141.5000, 39479.00
142.7280, 39580.00
143.9560, 39598.43
145.1840, 39778.86
146.4120, 39828.00
147.6390, 40224.00
148.8670, 40567.00
150.0940, 40916.00
151.3210, 40711.00
152.5490, 41073.00
153.7750, 40885.00
155.0020, 41033.00
156.2290, 40551.00
157.4550, 39989.00
158.6810, 39824.00
159.9080, 39030.00
161.1340, 38632.00
162.3590, 38237.00
163.5850, 37619.00
164.8110, 36836.00
166.0360, 35763.00
167.2610, 35201.00
168.4860, 34434.00
169.7110, 34171.00
170.9360, 33458.00
172.1610, 32869.00
173.3850, 32749.00
174.6100, 32351.00
175.8340, 32477.00
177.0580, 32495.00
178.2820, 32296.00
179.5050, 32638.00
180.7290, 32993.00
181.9520, 33038.00
183.1760, 33688.00
184.3990, 34017.00
185.6220, 34629.00
186.8450, 34891.00
188.0670, 35402.00
189.2900, 35907.00
190.5120, 36151.00
191.7340, 36593.00
192.9560, 36893.00
194.1780, 36806.00
195.4000, 36888.00
196.6220, 36738.00
197.8430, 36634.00
199.0640, 36402.00
200.2860, 35937.59
201.5070, 35373.00
202.7270, 34705.00
203.9480, 33882.00
205.1690, 32924.00
206.3890, 32031.00
207.6090, 31586.00
208.8290, 30627.00
210.0490, 30064.00
211.2690, 29615.00
212.4890, 28866.00
213.7080, 28549.00
214.9280, 27860.00
216.1470, 27389.00
217.3660, 27097.00
218.5850, 26913.00
219.8030, 26365.00
221.0220, 25950.00
222.2400, 25639.00
223.4590, 25658.00
224.6770, 25433.00
225.8950, 25272.00
227.1120, 25151.00
228.3300, 25023.23
229.5480, 24964.00
230.7650, 24869.00
231.9820, 25007.00
233.1990, 24993.00
234.4160, 24971.00
235.6330, 25123.00
236.8490, 25083.00
238.0660, 25047.00
239.2820, 25212.00
240.4980, 25481.00
241.7140, 25594.00
242.9300, 25773.91
244.1460, 25883.00
245.3610, 26023.00
246.5770, 26128.00
247.7920, 26159.00
249.0070, 26324.00
250.2220, 26424.55
251.4370, 26656.00
252.6510, 26753.00
253.8660, 27024.00
255.0800, 27328.00
256.2940, 27336.00
257.5080, 28093.00
258.7220, 28473.00
259.9360, 28285.00
261.1490, 28119.00
262.3630, 27858.00
263.5760, 28246.00
264.7890, 28304.00
266.0020, 28516.00
267.2150, 28672.00
268.4270, 28770.00
269.6400, 28915.00
270.8520, 28978.24
272.0640, 29082.00
273.2760, 29115.00
274.4880, 29415.00
275.7000, 29553.00
276.9120, 29647.00
278.1230, 29513.00
279.3340, 29608.00
280.5450, 29577.00
281.7560, 29215.00
282.9670, 29270.00
284.1780, 29089.00
285.3880, 28896.60
286.5980, 28955.00
287.8090, 28612.00
289.0190, 28167.00
290.2290, 28129.00
291.4380, 28087.00
292.6480, 28083.00
293.8570, 27887.00
295.0670, 27617.00
296.2760, 27584.00
297.4850, 27333.00
298.6930, 27494.00
299.9020, 27488.00
301.1110, 27450.00
302.3190, 27199.00
303.5270, 27071.00
304.7350, 26966.00
305.9430, 26892.00
307.1510, 26549.00
308.3580, 26687.00
309.5660, 26856.00
310.7730, 26533.00
311.9800, 26410.00
313.1870, 26547.00
314.3940, 26304.00
315.6010, 26262.00
316.8070, 26560.00
318.0130, 26855.00
319.2200, 26660.00
320.4260, 26675.00
321.6310, 26850.00
322.8370, 27018.00
324.0430, 26838.00
325.2480, 26968.00
326.4540, 27178.00
327.6590, 27079.00
328.8640, 27176.00
330.0680, 27148.00
331.2730, 27306.00
332.4780, 27069.00
333.6820, 27394.00
334.8860, 27183.00
336.0900, 27040.00
337.2940, 27340.00
338.4980, 27377.00
339.7010, 27357.00
340.9050, 27378.00
342.1080, 27731.00
343.3110, 27616.00
344.5140, 27717.00
345.7170, 28089.00
346.9200, 28198.00
348.1220, 28078.00
349.3240, 28314.00
350.5270, 28451.00
351.7290, 28688.00
352.9310, 28926.00
354.1320, 29228.00
355.3340, 29659.00
356.5350, 30042.00
357.7370, 30348.00
358.9380, 30671.00
360.1390, 30925.00
361.3400, 31440.00
362.5400, 31723.00
363.7410, 32093.00
364.9410, 32694.00
366.1410, 33163.00
367.3410, 33490.00
368.5410, 33958.00
369.7410, 34449.00
370.9400, 34943.00
372.1400, 35428.00
373.3390, 36200.00
374.5380, 36400.00
375.7370, 36925.00
376.9360, 37772.00
378.1350, 38064.00
379.3330, 38925.00
380.5310, 39722.00
381.7300, 40242.00
382.9280, 41279.00
384.1260, 42059.00
385.3230, 43083.00
386.5210, 44397.00
387.7180, 45522.00
388.9160, 47116.00
390.1130, 48131.00
391.3100, 49758.00
392.5060, 51342.00
393.7030, 53068.00
394.9000, 54800.00
396.0960, 55899.00
397.2920, 57692.00
398.4880, 58722.00
399.6840, 59858.00
400.8800, 60703.00
402.0750, 61231.00
403.2710, 61456.00
404.4660, 61368.00
405.6610, 61017.00
406.8560, 60393.00
408.0510, 59375.00
409.2450, 58019.00
410.4400, 56644.00
411.6340, 55044.00
412.8280, 53235.00
414.0220, 51968.00
415.2160, 49861.00
416.4100, 48282.00
417.6030, 46661.00
418.7970, 45102.00
419.9900, 43510.66
421.1830, 41814.00
422.3760, 40458.00
423.5690, 38967.00
424.7610, 37672.00
425.9540, 36189.00
427.1460, 35240.00
428.3380, 34138.00
429.5300, 33225.00
430.7220, 32345.00
431.9140, 31543.85
433.1050, 30832.82
434.2970, 30207.00
435.4880, 29611.00
436.6790, 29138.00
437.8700, 28707.00
439.0610, 28351.00
440.2510, 28042.00
441.4420, 27753.00
442.6320, 27566.00
443.8220, 27484.00
445.0120, 27282.00
446.2020, 27258.00
447.3910, 27506.00
448.5810, 27658.00
449.7700, 27998.00
450.9600, 28302.00
452.1490, 28626.00
453.3370, 29107.00
454.5260, 29599.00
455.7150, 30138.00
456.9030, 30798.00
458.0910, 31607.00
459.2800, 32332.00
460.4670, 33017.00
461.6550, 33945.00
462.8430, 34562.00
464.0300, 35078.00
465.2180, 35474.00
466.4050, 36162.00
467.5920, 36527.00
468.7790, 37158.00
469.9650, 37719.00
471.1520, 38704.00
472.3380, 39540.00
473.5250, 40468.00
474.7110, 41787.00
475.8970, 42864.00
477.0820, 44012.00
478.2680, 44937.00
479.4540, 46155.00
480.6390, 46419.00
481.8240, 46652.00
483.0090, 46312.00
484.1940, 45584.00
485.3780, 44608.00
486.5630, 42669.00
487.7470, 40750.00
488.9320, 39079.00
490.1160, 36947.00
491.3000, 34743.00
492.4830, 33173.00
493.6670, 31460.00
494.8500, 29809.00
496.0340, 28729.00
497.2170, 27489.00
498.4000, 26714.00
499.5820, 25917.00
500.7650, 25185.00
501.9480, 24492.00
503.1300, 24242.00
504.3120, 23833.00
505.4940, 23464.00
506.6760, 23244.00
507.8580, 22905.00
509.0390, 22712.87
510.2210, 22340.00
511.4020, 22416.00
512.5830, 22192.00
513.7640, 22188.00
514.9450, 22085.00
516.1250, 21726.00
517.3060, 21606.00
518.4860, 21848.00
519.6660, 21582.00
520.8460, 21603.04
522.0260, 21974.00
523.2060, 21581.00
524.3850, 21297.00
525.5650, 21539.00
526.7440, 21267.00
527.9230, 21227.00
529.1020, 21325.00
530.2810, 21145.00
531.4590, 21114.00
532.6380, 21087.00
533.8160, 21114.00
534.9940, 20990.00
536.1720, 21055.00
537.3500, 21102.00
538.5270, 20795.00
539.7050, 21018.00
540.8820, 20689.00
542.0590, 20935.00
543.2360, 20820.00
544.4130, 20836.00
545.5900, 20925.00
546.7660, 20769.00
547.9430, 20764.00
549.1190, 20758.00
550.2950, 20910.00
551.4710, 20850.00
552.6470, 20847.00
553.8220, 20630.00
554.9980, 20691.00
556.1730, 21064.00
557.3480, 20864.00
558.5230, 21451.00
559.6980, 20900.00
560.8730, 20810.00
562.0470, 20887.00
563.2220, 20711.00
564.3960, 20957.00
565.5700, 20667.00
566.7440, 20846.00
567.9170, 20867.00
569.0910, 20802.00
570.2640, 20790.00
571.4380, 20787.00
572.6110, 20792.00
573.7840, 20945.00
574.9570, 20783.00
576.1290, 21055.00
577.3020, 20937.00
578.4740, 20896.00
579.6460, 21040.00
580.8180, 21056.00
581.9900, 21215.00
583.1620, 21395.00
584.3330, 21377.00
585.5040, 21272.00
586.6760, 21480.00
587.8470, 21517.93
589.0180, 21735.00
590.1880, 21715.00
591.3590, 21873.00
592.5290, 21783.00
593.7000, 21807.00
594.8700, 22177.00
596.0400, 22220.00
597.2090, 22352.00
598.3790, 22688.00
599.5490, 22724.00
600.7180, 23119.00
601.8870, 23335.00
603.0560, 23690.00
604.2250, 23849.00
605.3940, 24076.50
606.5620, 24312.00
607.7300, 24508.00
608.8990, 24685.00
610.0670, 25031.00
611.2350, 25245.00
612.4020, 25376.00
613.5700, 25394.00
614.7370, 25501.00
615.9050, 25524.00
617.0720, 25298.00
618.2390, 25144.00
619.4060, 25059.00
620.5720, 24813.00
621.7390, 24633.55
622.9050, 24356.00
624.0710, 24173.00
625.2370, 23876.00
626.4030, 23630.00
627.5690, 23278.00
628.7340, 22947.00
629.9000, 22811.00
631.0650, 22818.00
632.2300, 22378.00
633.3950, 22237.00
634.5600, 22238.00
635.7240, 22024.00
636.8890, 21834.00
638.0530, 21834.00
639.2170, 21522.00
640.3810, 21611.00
641.5450, 21347.00
642.7080, 21443.00
643.8720, 21301.00
645.0350, 21279.00
646.1980, 21195.00
647.3610, 21107.00
648.5240, 21165.00
649.6870, 20920.00
650.8490, 20784.00
652.0120, 20994.00
653.1740, 20980.00
654.3360, 20883.00
655.4980, 20852.00
656.6600, 20784.00
657.8210, 20882.00
658.9830, 20910.00
660.1440, 20876.00
661.3050, 20871.00
662.4660, 20755.00
663.6270, 20768.00
664.7870, 20560.00
665.9480, 20595.11
667.1080, 20713.00
668.2680, 20595.00
669.4280, 20625.00
670.5880, 20631.00
671.7480, 20721.00
672.9070, 20371.00
674.0670, 20591.00
675.2260, 20598.00
676.3850, 20749.00
677.5440, 20463.00
678.7030, 20511.00
679.8610, 20552.00
681.0200, 20410.00
682.1780, 20620.00
683.3360, 20378.00
684.4940, 20602.00
685.6520, 20450.00
686.8090, 20682.00
687.9670, 20683.00
689.1240, 20531.00
690.2810, 20605.00
691.4380, 20690.00
692.5950, 20756.00
693.7520, 20544.00
694.9080, 20572.00
696.0650, 20647.00
697.2210, 20526.00
698.3770, 20654.00
699.5330, 20565.00
700.6880, 20666.00
701.8440, 20622.00
702.9990, 20653.00
704.1550, 20705.92
705.3100, 20626.00
706.4650, 20749.00
707.6190, 20679.00
708.7740, 20592.00
709.9290, 20738.00
711.0830, 20616.00
712.2370, 20722.00
713.3910, 20662.00
714.5450, 20852.00
715.6980, 20738.00
716.8520, 20754.00
718.0050, 20649.00
719.1580, 20643.00
720.3110, 20904.00
721.4640, 20728.00
722.6170, 20878.00
723.7700, 20884.00
724.9220, 20907.00
726.0740, 20819.00
727.2260, 20655.00
728.3780, 20831.00
729.5300, 20835.00
730.6810, 20950.00
731.8330, 20778.00
732.9840, 20739.00
734.1350, 20768.00
735.2860, 20774.00
736.4370, 20756.00
737.5880, 20833.00
738.7380, 20950.00
739.8880, 21051.00
741.0390, 20930.00
742.1890, 21005.00
743.3380, 20889.00
744.4880, 20886.00
745.6380, 20920.00
746.7870, 21064.00
747.9360, 21104.00
749.0850, 21124.00
750.2340, 21047.00
751.3830, 21182.00
752.5310, 21291.00
753.6800, 21252.00
754.8280, 21406.00
755.9760, 21496.00
757.1240, 21385.00
758.2720, 21451.00
759.4190, 21681.00
760.5670, 21661.00
761.7140, 21866.00
762.8610, 21623.00
764.0080, 21816.00
765.1550, 21978.00
766.3020, 21913.00
767.4480, 22227.00
768.5950, 22077.00
769.7410, 22389.00
770.8870, 22262.00
772.0330, 22209.00
773.1780, 22298.00
774.3240, 22258.00
775.4690, 22170.00
776.6140, 22347.00
777.7590, 22342.00
778.9040, 22168.00
780.0490, 22410.00
781.1940, 22421.00
782.3380, 22387.00
783.4820, 22393.00
784.6260, 22323.00
785.7700, 22424.00
786.9140, 22259.00
788.0580, 22305.00
789.2010, 22196.00
790.3450, 22361.00
791.4880, 22160.00
792.6310, 22170.00
793.7730, 22077.27
794.9160, 21996.28
796.0590, 21776.00
797.2010, 21964.00
798.3430, 21721.00
799.4850, 21878.00
800.6270, 21918.00
801.7690, 21590.00
802.9100, 21532.00
804.0520, 21696.00
805.1930, 21793.00
806.3340, 21732.00
807.4750, 21665.00
808.6160, 21683.00
809.7560, 21640.38
810.8970, 21710.00
812.0370, 21613.00
813.1770, 21617.00
814.3170, 21589.00
815.4570, 21642.04
816.5960, 21607.83
817.7360, 21694.00
818.8750, 21645.00
820.0140, 21424.00
821.1530, 21572.00
822.2920, 21329.00
823.4310, 21413.00
824.5690, 21323.00
825.7070, 21323.00
826.8460, 21144.00
827.9840, 21061.00
829.1220, 21030.00
830.2590, 21039.00
831.3970, 21064.00
832.5340, 21238.00
833.6710, 21176.00
834.8080, 21180.00
835.9450, 21018.00
837.0820, 21076.00
838.2190, 21005.00
839.3550, 20807.00
840.4910, 21146.00
841.6270, 20984.00
842.7630, 21103.00
843.8990, 21003.00
845.0350, 21070.00
846.1700, 21236.00
847.3060, 21083.00
848.4410, 21160.00
849.5760, 20982.00
850.7100, 20962.00
851.8450, 21146.00
852.9800, 21027.00
854.1140, 21207.00
855.2480, 21335.00
856.3820, 21183.00
857.5160, 21131.00
858.6500, 21124.00
859.7830, 21017.00
860.9170, 21239.00
862.0500, 21253.00
863.1830, 21254.00
864.3160, 21177.00
865.4480, 21306.00
866.5810, 21186.00
867.7130, 21394.00
868.8460, 21257.00
869.9780, 21323.00
871.1100, 21360.00
872.2410, 21217.00
873.3730, 21378.00
874.5050, 21322.00
875.6360, 21465.00
876.7670, 21464.22
877.8980, 21372.00
879.0290, 21419.00
880.1590, 21316.00
881.2900, 21335.85
882.4200, 21402.00
883.5500, 21317.00
884.6800, 21338.00
885.8100, 21258.00
886.9400, 21400.00
888.0690, 21216.00
889.1990, 21605.00
890.3280, 21333.00
891.4570, 21546.00
892.5860, 21495.00
893.7140, 21462.00
894.8430, 21358.00
895.9710, 21429.00
897.1000, 21403.00
898.2280, 21510.00
899.3560, 21496.00
900.4830, 21295.00
901.6110, 21565.00
902.7380, 21487.00
903.8660, 21781.00
904.9930, 21586.00
906.1200, 21676.00
907.2460, 21519.00
908.3730, 21589.00
909.5000, 21580.00
910.6260, 21715.00
911.7520, 21775.00
912.8780, 21670.00
914.0040, 21731.00
915.1290, 21595.00
916.2550, 21578.00
917.3800, 21669.00
918.5050, 21627.00
919.6300, 21687.00
920.7550, 21669.00
921.8800, 21706.00
923.0040, 21804.00
924.1290, 21794.00
925.2530, 21768.00
926.3770, 21849.00
927.5010, 21738.00
928.6250, 21725.00
929.7480, 21825.00
930.8720, 21888.00
931.9950, 22076.00
933.1180, 22016.00
934.2410, 21776.00
935.3640, 21845.00
936.4860, 21956.00
937.6090, 22090.00
938.7310, 21900.00
939.8530, 21918.00
940.9750, 22136.00
942.0970, 22258.00
943.2180, 22108.00
944.3400, 22168.00
945.4610, 22313.00
946.5820, 22273.00
947.7030, 22300.00
948.8240, 22307.00
949.9450, 22192.00
951.0650, 22365.00
952.1860, 22398.00
953.3060, 22389.00
954.4260, 22303.00
955.5460, 22459.00
956.6650, 22315.00
957.7850, 22298.00
958.9040, 22456.00
960.0230, 22411.00
961.1420, 22598.00
962.2610, 22574.00
963.3800, 22773.00
964.4990, 22660.00
965.6170, 22737.00
966.7350, 22671.00
967.8530, 22627.00
968.9710, 22698.00
970.0890, 22682.00
971.2070, 22965.00
972.3240, 22893.00
973.4410, 22967.00
974.5580, 22866.00
975.6750, 22972.00
976.7920, 23005.00
977.9090, 22984.00
979.0250, 23244.00
980.1410, 23152.00
981.2580, 23185.00
982.3740, 23483.00
983.4890, 23381.00
984.6050, 23518.00
985.7200, 23470.00
986.8360, 23388.00
987.9510, 23578.00
989.0660, 23648.00
990.1810, 23726.00
991.2950, 23629.00
992.4100, 23604.00
993.5240, 23699.00
994.6390, 23927.00
995.7530, 23889.00
996.8660, 23902.00
997.9800, 24130.00
999.0940, 24028.00
1000.207, 24273.00
1001.320, 24088.00
1002.433, 24298.00
1003.546, 24510.00
1004.659, 24195.00
1005.772, 24569.00
1006.884, 24317.00
1007.996, 24506.00
1009.108, 24514.00
1010.220, 24513.00
1011.332, 24678.00
1012.444, 24831.00
1013.555, 24841.00
1014.666, 24839.00
1015.777, 24775.00
1016.888, 24845.00
1017.999, 24742.00
1019.110, 25028.00
1020.220, 24814.00
1021.331, 24893.00
1022.441, 25133.00
1023.551, 25153.00
1024.661, 25022.00
1025.770, 25195.00
1026.880, 25089.00
1027.989, 25368.00
1029.098, 25014.00
1030.207, 25076.00
1031.316, 25250.00
1032.425, 25158.00
1033.533, 25122.00
1034.642, 25285.00
1035.750, 25243.00
1036.858, 25157.00
1037.966, 25276.00
1039.073, 25036.00
1040.181, 25332.00
1041.288, 25053.00
1042.396, 25197.00
1043.503, 25108.00
1044.610, 24942.00
1045.716, 25337.00
1046.823, 25231.00
1047.929, 25214.00
1049.036, 25236.00
1050.142, 25272.00
1051.248, 25309.75
1052.353, 25234.00
1053.459, 25332.00
1054.564, 25276.00
1055.670, 25077.00
1056.775, 24964.00
1057.880, 25121.00
1058.985, 24933.00
1060.089, 25101.00
1061.194, 25100.00
1062.298, 25160.00
1063.402, 25075.00
1064.506, 25128.00
1065.610, 25126.00
1066.713, 25280.00
1067.817, 25001.00
1068.920, 25014.00
1070.023, 25204.00
1071.126, 24958.00
1072.229, 25253.00
1073.332, 25362.00
1074.435, 25483.00
1075.537, 25413.00
1076.639, 25319.00
1077.741, 25588.00
1078.843, 25419.00
1079.945, 25756.00
1081.046, 25717.00
1082.148, 25684.00
1083.249, 25877.00
1084.350, 25854.00
1085.451, 25997.00
1086.551, 26097.00
1087.652, 26188.00
1088.752, 26307.54
1089.853, 26403.00
1090.953, 26501.00
1092.053, 26593.00
1093.152, 26656.00
1094.252, 26875.00
1095.351, 26819.00
1096.451, 27003.00
1097.550, 27037.00
1098.649, 27294.00
1099.748, 27125.00
1100.846, 27416.00
1101.945, 27691.00
1103.043, 27603.00
1104.141, 27922.00
1105.239, 27969.00
1106.337, 28008.00
1107.434, 28133.00
1108.532, 28103.00
1109.629, 28120.00
1110.726, 27952.00
1111.823, 28086.00
1112.920, 28120.76
1114.017, 28556.00
1115.113, 28439.00
1116.210, 28511.00
1117.306, 28875.00
1118.402, 28744.00
1119.498, 28749.00
1120.593, 29099.00
1121.689, 29086.00
1122.784, 28829.00
1123.879, 29008.00
1124.974, 29051.00
1126.069, 29078.00
1127.164, 29201.00
1128.259, 29036.00
1129.353, 29022.00
1130.447, 28887.00
1131.541, 29245.00
1132.635, 29416.00
1133.729, 29141.00
1134.822, 29166.00
1135.916, 29136.00
1137.009, 29311.00
1138.102, 29228.00
1139.195, 29154.00
1140.288, 29272.00
1141.380, 29326.00
1142.473, 29478.00
1143.565, 29651.00
1144.657, 29490.00
1145.749, 29301.00
1146.841, 29710.00
1147.932, 29503.00
1149.024, 29586.00
1150.115, 29680.00
1151.206, 29579.00
1152.297, 29930.00
1153.388, 29722.00
1154.479, 29677.00
1155.569, 29422.00
1156.659, 29630.00
1157.750, 29640.00
1158.839, 29578.00
1159.929, 29501.00
1161.019, 29663.00
1162.108, 29278.00
1163.198, 29188.00
1164.287, 29165.00
1165.376, 29419.00
1166.465, 29125.00
1167.553, 29506.00
1168.642, 29279.00
1169.730, 29015.00
1170.818, 28907.00
1171.906, 28857.00
1172.994, 28865.00
1174.082, 28979.00
1175.170, 28553.00
1176.257, 28286.00
1177.344, 28541.00
1178.431, 28236.00
1179.518, 28227.00
1180.605, 28098.00
1181.691, 28177.00
1182.778, 27904.00
1183.864, 27760.00
1184.950, 28001.00
1186.036, 28030.00
1187.122, 27586.00
1188.207, 27512.00
1189.292, 27518.00
1190.378, 27277.00
1191.463, 27282.00
1192.548, 27292.00
1193.632, 27145.00
1194.717, 27044.00
1195.801, 26930.00
1196.886, 26713.00
1197.970, 26769.00
1199.054, 26703.00
1200.137, 26560.00
1201.221, 26350.00
1202.305, 26445.00
1203.388, 26293.00
1204.471, 26033.00
1205.554, 26087.00
1206.637, 26091.00
1207.719, 25946.00
1208.802, 26065.00
1209.884, 25844.00
1210.966, 25743.00
1212.048, 25849.00
1213.130, 25791.00
1214.212, 25679.00
1215.293, 25485.00
1216.374, 25436.00
1217.456, 25652.00
1218.536, 25461.00
1219.617, 25558.00
1220.698, 25266.00
1221.778, 25342.00
1222.859, 25593.00
1223.939, 25541.00
1225.019, 25538.00
1226.099, 25516.00
1227.178, 25348.00
1228.258, 25445.00
1229.337, 25477.00
1230.417, 25284.00
1231.496, 25418.00
1232.574, 25385.00
1233.653, 25433.00
1234.732, 25226.00
1235.810, 25272.00
1236.888, 25329.00
1237.966, 25387.00
1239.044, 25224.00
1240.122, 25337.00
1241.199, 25356.00
1242.277, 25378.00
1243.354, 25523.00
1244.431, 25341.00
1245.508, 25317.00
1246.585, 25370.00
1247.661, 25215.00
1248.738, 25423.00
1249.814, 25416.00
1250.890, 25283.00
1251.966, 25485.00
1253.042, 25525.00
1254.117, 25433.00
1255.193, 25043.00
1256.268, 25535.00
1257.343, 25246.00
1258.418, 25276.00
1259.493, 25350.00
1260.567, 25517.00
1261.642, 25593.00
1262.716, 25550.00
1263.790, 25595.00
1264.864, 25394.00
1265.938, 25656.00
1267.011, 25572.51
1268.085, 25677.00
1269.158, 25538.00
1270.231, 25641.00
1271.304, 25468.00
1272.377, 25601.00
1273.450, 25603.00
1274.522, 25246.00
1275.594, 25616.00
1276.666, 25672.00
1277.738, 25519.00
1278.810, 25747.00
1279.882, 25591.00
1280.953, 25509.00
1282.025, 25387.00
1283.096, 25379.73
1284.167, 25409.62
1285.238, 25464.00
1286.308, 25513.00
1287.379, 25687.00
1288.449, 25633.00
1289.519, 25712.00
1290.589, 25633.00
1291.659, 25696.00
1292.729, 25850.00
1293.798, 25763.00
1294.868, 25864.00
1295.937, 25901.00
1297.006, 25832.00
1298.075, 25815.00
1299.143, 25645.00
1300.212, 25686.00
1301.280, 25662.27
1302.348, 25650.00
1303.416, 25720.00
1304.484, 25934.00
1305.552, 26009.00
1306.620, 25915.00
