##NAMES=Clinoptilolite-Ca
##RRUFFID=R060662
##IDEAL CHEMISTRY=Ca_3_(Si_30_Al_6_)O_72_&#183;20H_2_O
##LOCALITY=Succor Creek, Malheur County, Oregon, USA
##OWNER=RRUFF
##SOURCE=Michael Scott
##DESCRIPTION=Group of colorless platy prismatic crystals
##STATUS=The identification of this mineral has been confirmed by X-ray diffraction and chemical analysis
##URL=rruff.info/R060662
##MEASURED CHEMISTRY=(Ca_1.02_Na_0.97_K_0.59_)_Σ=2.58_(Si_14.40_Al_3.60_)_Σ=18_O_36_·10.96H_2_O
##PIN_ID=M00221
##ORIENTATION=Laser parallel to b* (0 1 0). Fiducial mark perpendicular to laser is parallel to c [0 0 1]
221.0220, 20942.00
222.2400, 20959.00
223.4590, 20868.00
224.6770, 20956.00
225.8950, 20812.00
227.1120, 21046.00
228.3300, 21091.00
229.5480, 21069.00
230.7650, 21260.00
231.9820, 21282.00
233.1990, 21395.00
234.4160, 21683.00
235.6330, 21593.00
236.8490, 21788.00
238.0660, 21981.00
239.2820, 21992.00
240.4980, 22193.00
241.7140, 22207.00
242.9300, 22429.00
244.1460, 22576.00
245.3610, 22661.00
246.5770, 22764.00
247.7920, 22951.00
249.0070, 23116.00
250.2220, 23215.00
251.4370, 23046.00
252.6510, 23282.00
253.8660, 22929.46
255.0800, 23174.31
256.2940, 23306.24
257.5080, 23331.29
258.7220, 22929.39
259.9360, 23078.81
261.1490, 23007.30
262.3630, 22926.72
263.5760, 23153.75
264.7890, 22813.96
266.0020, 23073.00
267.2150, 23029.00
268.4270, 22562.00
269.6400, 22632.00
270.8520, 22432.00
272.0640, 22579.00
273.2760, 22646.00
274.4880, 22252.00
275.7000, 22422.00
276.9120, 22453.00
278.1230, 22190.00
279.3340, 21989.00
280.5450, 22046.00
281.7560, 22075.00
282.9670, 21751.00
284.1780, 21852.00
285.3880, 21662.00
286.5980, 21674.00
287.8090, 21597.00
289.0190, 21387.00
290.2290, 21385.38
291.4380, 21467.00
292.6480, 21410.00
293.8570, 21437.39
295.0670, 21374.97
296.2760, 21535.00
297.4850, 21456.21
298.6930, 21459.00
299.9020, 21398.00
301.1110, 21367.00
302.3190, 21335.00
303.5270, 21445.00
304.7350, 21484.00
305.9430, 21459.00
307.1510, 21618.00
308.3580, 21320.00
309.5660, 21614.00
310.7730, 21754.00
311.9800, 21537.00
313.1870, 21415.00
314.3940, 21247.00
315.6010, 21563.00
316.8070, 21593.00
318.0130, 21541.00
319.2200, 21455.00
320.4260, 21480.00
321.6310, 21461.00
322.8370, 21565.00
324.0430, 21605.49
325.2480, 21629.00
326.4540, 21759.76
327.6590, 21795.00
328.8640, 21861.00
330.0680, 21927.00
331.2730, 22096.00
332.4780, 22196.00
333.6820, 22093.63
334.8860, 22261.00
336.0900, 22216.57
337.2940, 22136.00
338.4980, 22267.00
339.7010, 22293.00
340.9050, 22449.00
342.1080, 22419.00
343.3110, 22745.00
344.5140, 22613.00
345.7170, 22645.00
346.9200, 22945.00
348.1220, 22940.00
349.3240, 23429.00
350.5270, 23471.00
351.7290, 23511.00
352.9310, 23799.00
354.1320, 23780.00
355.3340, 24203.00
356.5350, 25487.00
357.7370, 25614.00
358.9380, 25557.00
360.1390, 24714.00
361.3400, 24670.00
362.5400, 25045.00
363.7410, 25060.00
364.9410, 25379.00
366.1410, 25592.00
367.3410, 25909.00
368.5410, 26152.00
369.7410, 26378.00
370.9400, 26832.00
372.1400, 26714.00
373.3390, 27511.00
374.5380, 27721.00
375.7370, 27670.00
376.9360, 28257.00
378.1350, 28618.00
379.3330, 28977.00
380.5310, 29454.00
381.7300, 29868.00
382.9280, 30346.00
384.1260, 30843.00
385.3230, 31523.00
386.5210, 32193.00
387.7180, 32895.00
388.9160, 33735.00
390.1130, 34663.00
391.3100, 35365.00
392.5060, 36350.00
393.7030, 37386.00
394.9000, 38638.00
396.0960, 39365.00
397.2920, 40372.00
398.4880, 41367.00
399.6840, 42140.00
400.8800, 43012.00
402.0750, 43654.00
403.2710, 43956.00
404.4660, 44033.00
405.6610, 43915.00
406.8560, 43331.00
408.0510, 43179.00
409.2450, 42138.00
410.4400, 41440.00
411.6340, 40652.00
412.8280, 39586.00
414.0220, 38597.00
415.2160, 37492.00
416.4100, 36371.00
417.6030, 35504.00
418.7970, 34336.82
419.9900, 33379.40
421.1830, 32209.00
422.3760, 31473.00
423.5690, 30526.00
424.7610, 29757.00
425.9540, 28952.00
427.1460, 28410.00
428.3380, 27804.00
429.5300, 27059.00
430.7220, 26597.00
431.9140, 26048.00
433.1050, 25564.00
434.2970, 25185.00
435.4880, 25054.00
436.6790, 24552.00
437.8700, 24400.00
439.0610, 24053.00
440.2510, 23571.00
441.4420, 23874.00
442.6320, 23678.00
443.8220, 23330.00
445.0120, 23394.00
446.2020, 23501.00
447.3910, 23392.00
448.5810, 23438.00
449.7700, 23553.00
450.9600, 23563.00
452.1490, 23681.00
453.3370, 24032.00
454.5260, 24387.00
455.7150, 24612.00
456.9030, 24897.00
458.0910, 25376.00
459.2800, 25869.00
460.4670, 26367.00
461.6550, 26711.00
462.8430, 27292.00
464.0300, 27598.00
465.2180, 28168.00
466.4050, 28415.00
467.5920, 28700.00
468.7790, 29071.00
469.9650, 29852.00
471.1520, 30189.00
472.3380, 30906.00
473.5250, 31430.00
474.7110, 32502.00
475.8970, 32876.00
477.0820, 33672.00
478.2680, 34363.00
479.4540, 35082.00
480.6390, 35338.00
481.8240, 35564.00
483.0090, 35269.00
484.1940, 34930.00
485.3780, 34148.00
486.5630, 33157.00
487.7470, 32447.00
488.9320, 31349.00
490.1160, 29956.00
491.3000, 29100.00
492.4830, 28055.00
493.6670, 27204.00
494.8500, 26419.00
496.0340, 25641.00
497.2170, 25078.00
498.4000, 24434.00
499.5820, 24067.00
500.7650, 23807.00
501.9480, 23243.00
503.1300, 23310.00
504.3120, 23105.00
505.4940, 22627.00
506.6760, 22484.00
507.8580, 22436.00
509.0390, 22256.00
510.2210, 22108.00
511.4020, 21857.00
512.5830, 21839.00
513.7640, 21753.09
514.9450, 21652.00
516.1250, 21720.00
517.3060, 21520.00
518.4860, 21473.00
519.6660, 21483.00
520.8460, 21313.00
522.0260, 21479.00
523.2060, 21336.00
524.3850, 21312.00
525.5650, 21339.00
526.7440, 21303.00
527.9230, 21265.00
529.1020, 21305.00
530.2810, 21242.00
531.4590, 21291.00
532.6380, 21382.00
533.8160, 21236.00
534.9940, 21380.00
536.1720, 21088.00
537.3500, 21203.00
538.5270, 21303.00
539.7050, 21364.00
540.8820, 21218.00
542.0590, 21315.00
543.2360, 21290.00
544.4130, 21343.00
545.5900, 21366.50
546.7660, 21449.00
547.9430, 21398.00
549.1190, 21408.85
550.2950, 21415.00
551.4710, 21409.00
552.6470, 21496.00
553.8220, 21442.00
554.9980, 21457.00
556.1730, 21516.00
557.3480, 21394.00
558.5230, 21517.00
559.6980, 21376.00
560.8730, 21572.00
562.0470, 21396.00
563.2220, 21541.00
564.3960, 21512.00
565.5700, 21764.00
566.7440, 21619.00
567.9170, 21711.00
569.0910, 21828.00
570.2640, 21798.00
571.4380, 21822.00
572.6110, 21887.00
573.7840, 21810.00
574.9570, 21977.00
576.1290, 21910.00
577.3020, 22060.00
578.4740, 21998.00
579.6460, 22160.00
580.8180, 22043.00
581.9900, 22135.00
583.1620, 22197.00
584.3330, 22387.00
585.5040, 22456.00
586.6760, 22494.00
587.8470, 22701.00
589.0180, 22594.00
590.1880, 22589.00
591.3590, 22763.00
592.5290, 22824.00
593.7000, 22979.00
594.8700, 23115.00
596.0400, 23234.52
597.2090, 23366.00
598.3790, 23547.00
599.5490, 23750.00
600.7180, 23984.00
601.8870, 24145.00
603.0560, 24269.00
604.2250, 24629.00
605.3940, 24855.00
606.5620, 25004.00
607.7300, 25054.00
608.8990, 25426.00
610.0670, 25378.00
611.2350, 25813.00
612.4020, 26022.00
613.5700, 26128.00
614.7370, 26233.00
615.9050, 26430.00
617.0720, 26489.00
618.2390, 26220.00
619.4060, 26367.00
620.5720, 26287.72
621.7390, 26194.00
622.9050, 26235.00
624.0710, 26007.00
625.2370, 25895.00
626.4030, 25569.00
627.5690, 25274.00
628.7340, 25041.00
629.9000, 24794.08
631.0650, 24678.00
632.2300, 24409.00
633.3950, 24181.00
634.5600, 24051.00
635.7240, 24012.00
636.8890, 23870.00
638.0530, 23920.00
639.2170, 23834.00
640.3810, 23722.00
641.5450, 23814.00
642.7080, 23794.00
643.8720, 23833.00
645.0350, 23735.00
646.1980, 23625.00
647.3610, 23680.00
648.5240, 23727.00
649.6870, 23607.00
650.8490, 23716.00
652.0120, 23734.00
653.1740, 23456.00
654.3360, 23224.00
655.4980, 23170.00
656.6600, 23246.00
657.8210, 23252.00
658.9830, 23006.00
660.1440, 22782.00
661.3050, 23091.00
662.4660, 22830.00
663.6270, 22801.00
664.7870, 22838.00
665.9480, 22871.00
667.1080, 22713.00
668.2680, 22636.00
669.4280, 22544.00
670.5880, 22631.00
671.7480, 22774.00
672.9070, 22521.00
674.0670, 22621.00
675.2260, 22525.00
676.3850, 22336.00
677.5440, 22435.00
678.7030, 22649.00
679.8610, 22409.00
681.0200, 22612.00
682.1780, 22688.00
683.3360, 22451.00
684.4940, 22498.00
685.6520, 22519.00
686.8090, 22530.00
687.9670, 22559.60
689.1240, 22571.75
690.2810, 22593.00
691.4380, 22603.00
692.5950, 22612.00
693.7520, 22626.00
694.9080, 22810.00
696.0650, 22903.00
697.2210, 22828.00
698.3770, 22774.00
699.5330, 22817.00
700.6880, 22789.00
701.8440, 22809.00
702.9990, 22856.00
704.1550, 22880.00
705.3100, 22902.00
706.4650, 22829.00
707.6190, 22968.00
708.7740, 22904.00
709.9290, 22987.00
711.0830, 23034.00
712.2370, 23017.00
713.3910, 23155.00
714.5450, 23170.00
715.6980, 23157.00
716.8520, 23052.00
718.0050, 23135.65
719.1580, 23113.00
720.3110, 23239.00
721.4640, 23314.00
722.6170, 23364.00
723.7700, 23414.00
724.9220, 23603.00
726.0740, 23545.00
727.2260, 23698.81
728.3780, 23601.00
729.5300, 23847.00
730.6810, 23777.00
731.8330, 23707.00
732.9840, 23747.00
734.1350, 23824.00
735.2860, 23834.00
736.4370, 23889.00
737.5880, 23820.00
738.7380, 23732.00
739.8880, 24077.00
741.0390, 23972.00
742.1890, 23894.00
743.3380, 24183.00
744.4880, 24003.00
745.6380, 23883.00
746.7870, 24189.00
747.9360, 24132.00
749.0850, 24037.00
750.2340, 24441.00
751.3830, 24347.00
752.5310, 24526.00
753.6800, 24451.00
754.8280, 24590.00
755.9760, 24665.00
757.1240, 24717.00
758.2720, 24708.00
759.4190, 24943.00
760.5670, 24642.00
761.7140, 24649.00
762.8610, 24931.00
764.0080, 24875.96
765.1550, 25011.09
766.3020, 25114.00
767.4480, 25225.00
768.5950, 25318.24
769.7410, 25447.00
770.8870, 25470.00
772.0330, 25591.00
773.1780, 25634.00
774.3240, 25681.00
775.4690, 25936.00
776.6140, 25925.00
777.7590, 25983.00
778.9040, 26149.00
780.0490, 26033.00
781.1940, 26288.00
782.3380, 26191.00
783.4820, 26363.00
784.6260, 26592.00
785.7700, 26519.00
786.9140, 26550.00
788.0580, 26813.00
789.2010, 26770.00
790.3450, 26794.00
791.4880, 26806.00
792.6310, 26930.00
793.7730, 26931.00
794.9160, 26948.00
796.0590, 26928.00
797.2010, 26915.43
798.3430, 26860.00
799.4850, 26867.00
800.6270, 26834.00
801.7690, 26811.00
802.9100, 26803.69
804.0520, 26725.00
805.1930, 26731.00
806.3340, 26651.00
807.4750, 26512.00
808.6160, 26869.00
809.7560, 26905.00
810.8970, 26828.00
812.0370, 26818.00
813.1770, 27207.00
814.3170, 27083.00
815.4570, 27048.00
816.5960, 26811.00
817.7360, 27103.00
818.8750, 27115.00
820.0140, 27031.00
821.1530, 26951.00
822.2920, 26913.00
823.4310, 26883.00
824.5690, 26740.00
825.7070, 26671.00
826.8460, 26862.00
827.9840, 26589.37
829.1220, 26138.00
830.2590, 26218.00
831.3970, 26167.00
832.5340, 25957.00
833.6710, 25964.00
834.8080, 25924.00
835.9450, 26002.00
837.0820, 26027.00
838.2190, 26018.00
839.3550, 26133.00
840.4910, 26093.00
841.6270, 26203.80
842.7630, 26112.00
843.8990, 26403.00
845.0350, 26397.00
846.1700, 26511.00
847.3060, 26362.00
848.4410, 26602.00
849.5760, 26728.00
850.7100, 26936.00
851.8450, 27024.00
852.9800, 27160.53
854.1140, 27355.00
855.2480, 27391.00
856.3820, 27551.00
857.5160, 27691.00
858.6500, 27969.00
859.7830, 27524.00
860.9170, 27857.00
862.0500, 27650.00
863.1830, 27986.00
864.3160, 27393.00
865.4480, 27276.00
866.5810, 26795.00
867.7130, 26826.00
868.8460, 26864.00
869.9780, 26684.00
871.1100, 26600.00
872.2410, 26519.00
873.3730, 26239.00
874.5050, 26432.00
875.6360, 26476.00
876.7670, 26406.00
877.8980, 26169.00
879.0290, 26374.00
880.1590, 26294.00
881.2900, 26278.00
882.4200, 26285.00
883.5500, 26315.00
884.6800, 26272.00
885.8100, 26295.00
886.9400, 26416.00
888.0690, 26213.00
889.1990, 26259.00
890.3280, 26520.00
891.4570, 26288.00
892.5860, 26440.00
893.7140, 26477.00
894.8430, 26340.00
895.9710, 26450.00
897.1000, 26502.00
898.2280, 26295.00
899.3560, 26531.00
900.4830, 26490.00
901.6110, 26681.00
902.7380, 26634.00
903.8660, 26563.00
904.9930, 26668.00
906.1200, 26484.00
907.2460, 26630.00
908.3730, 26477.00
909.5000, 26698.00
910.6260, 26841.00
911.7520, 26657.00
912.8780, 26548.00
914.0040, 26716.00
915.1290, 26605.00
916.2550, 26541.00
917.3800, 26670.00
918.5050, 26527.00
919.6300, 26568.00
920.7550, 26778.00
921.8800, 26406.00
923.0040, 26751.00
924.1290, 26471.00
925.2530, 26422.00
926.3770, 26661.00
927.5010, 26806.00
928.6250, 26560.00
929.7480, 26763.00
930.8720, 26729.00
931.9950, 26780.00
933.1180, 26772.00
934.2410, 26898.00
935.3640, 26791.00
936.4860, 26805.01
937.6090, 26911.00
938.7310, 26751.00
939.8530, 26745.00
940.9750, 26784.00
942.0970, 26814.00
943.2180, 27021.00
944.3400, 26837.00
945.4610, 26796.00
946.5820, 26953.00
947.7030, 27149.00
948.8240, 26958.00
949.9450, 27024.00
951.0650, 27029.00
952.1860, 27158.00
953.3060, 27207.42
954.4260, 27350.00
955.5460, 27327.00
956.6650, 27353.00
957.7850, 27319.00
958.9040, 27233.00
960.0230, 27389.00
961.1420, 27446.00
962.2610, 27656.00
963.3800, 27398.00
964.4990, 27528.00
965.6170, 27426.00
966.7350, 27624.00
967.8530, 27466.00
968.9710, 27464.00
970.0890, 27595.00
971.2070, 27630.00
972.3240, 27693.00
973.4410, 27720.00
974.5580, 27868.00
975.6750, 27804.00
976.7920, 27718.00
977.9090, 27918.00
979.0250, 27889.00
980.1410, 27771.76
981.2580, 28074.91
982.3740, 28265.08
983.4890, 28348.34
984.6050, 28004.68
985.7200, 28212.31
986.8360, 28199.04
987.9510, 28176.66
989.0660, 28461.89
990.1810, 28180.29
991.2950, 28460.60
992.4100, 28516.63
993.5240, 28675.29
994.6390, 28611.67
995.7530, 28616.68
996.8660, 28844.03
997.9800, 28948.29
999.0940, 28859.04
1000.207, 29024.18
1001.320, 28734.74
1002.433, 28844.20
1003.546, 29125.77
1004.659, 29047.66
1005.772, 29216.87
1006.884, 29291.84
1007.996, 28938.76
1009.108, 29330.11
1010.220, 29399.52
1011.332, 29138.36
1012.444, 29504.21
1013.555, 29288.58
1014.666, 29280.49
1015.777, 29428.58
1016.888, 29413.86
1017.999, 29594.00
1019.110, 29373.00
1020.220, 29564.00
1021.331, 29682.00
1022.441, 29419.00
1023.551, 29799.00
1024.661, 29843.00
1025.770, 29712.00
1026.880, 29748.00
1027.989, 29882.00
1029.098, 29575.00
1030.207, 29819.00
1031.316, 29857.00
1032.425, 29798.00
1033.533, 29965.00
1034.642, 29832.00
1035.750, 29987.00
1036.858, 29784.00
1037.966, 29665.00
1039.073, 29820.00
1040.181, 29866.00
1041.288, 29960.00
1042.396, 30005.12
1043.503, 29991.85
1044.610, 30041.00
1045.716, 29860.00
1046.823, 29824.00
1047.929, 29599.00
1049.036, 29783.00
1050.142, 29695.00
1051.248, 29858.00
1052.353, 29781.00
1053.459, 29719.00
1054.564, 29936.00
1055.670, 29681.00
1056.775, 29739.00
1057.880, 29601.00
1058.985, 29900.00
1060.089, 29704.00
1061.194, 29855.00
1062.298, 29608.00
1063.402, 29924.00
1064.506, 29842.00
1065.610, 29738.00
1066.713, 29942.00
1067.817, 29729.00
1068.920, 29750.00
1070.023, 30017.00
1071.126, 29766.00
1072.229, 29968.00
1073.332, 29872.00
1074.435, 29987.00
1075.537, 30156.00
1076.639, 30066.00
1077.741, 30137.00
1078.843, 30503.00
1079.945, 30394.00
1081.046, 30303.00
1082.148, 30588.00
1083.249, 30398.00
1084.350, 30540.00
1085.451, 30600.00
1086.551, 30773.00
1087.652, 30648.00
1088.752, 31007.00
1089.853, 30948.00
1090.953, 30868.00
1092.053, 30938.00
1093.152, 30950.00
1094.252, 30868.00
1095.351, 31002.00
1096.451, 31045.00
1097.550, 30850.00
1098.649, 31176.00
1099.748, 31383.00
1100.846, 31294.00
1101.945, 31292.00
1103.043, 31406.00
1104.141, 31488.00
1105.239, 31706.00
1106.337, 31598.00
1107.434, 31907.00
1108.532, 32049.00
1109.629, 31987.00
1110.726, 32089.00
1111.823, 31963.00
1112.920, 32148.00
1114.017, 32183.00
1115.113, 32429.00
1116.210, 32329.00
1117.306, 32341.00
1118.402, 32526.00
1119.498, 32575.00
1120.593, 32454.00
1121.689, 32736.00
1122.784, 32866.00
1123.879, 32660.00
1124.974, 32304.00
1126.069, 32491.00
1127.164, 31928.00
1128.259, 31995.00
1129.353, 31837.00
1130.447, 31760.00
1131.541, 31566.00
1132.635, 31493.00
1133.729, 31632.00
1134.822, 31486.00
1135.916, 31427.00
1137.009, 31507.00
1138.102, 31442.00
1139.195, 31421.00
1140.288, 31594.00
1141.380, 31705.00
1142.473, 31469.00
1143.565, 31337.00
1144.657, 31490.00
1145.749, 31429.00
1146.841, 31600.00
1147.932, 31705.00
1149.024, 31543.00
1150.115, 31692.00
1151.206, 31464.00
1152.297, 31741.00
1153.388, 31961.00
1154.479, 31640.00
1155.569, 32029.00
1156.659, 31678.00
1157.750, 31618.00
1158.839, 31690.00
1159.929, 31662.00
1161.019, 31706.00
1162.108, 31709.00
1163.198, 31792.00
1164.287, 31639.00
1165.376, 31566.00
1166.465, 31603.00
1167.553, 31471.00
1168.642, 31485.00
1169.730, 31537.00
1170.818, 31402.00
1171.906, 31551.00
1172.994, 31428.77
1174.082, 31191.00
1175.170, 31259.00
1176.257, 31431.00
1177.344, 31337.00
1178.431, 31127.00
1179.518, 30981.00
1180.605, 31120.00
1181.691, 31111.00
1182.778, 30845.00
1183.864, 31071.00
1184.950, 31065.00
1186.036, 30850.00
1187.122, 30721.00
1188.207, 30624.00
1189.292, 30595.00
1190.378, 30904.00
1191.463, 30627.00
1192.548, 30406.00
1193.632, 30456.00
1194.717, 30006.00
1195.801, 30292.00
1196.886, 30034.00
1197.970, 30047.00
1199.054, 30038.00
1200.137, 30181.00
1201.221, 29861.00
1202.305, 29967.00
1203.388, 29972.00
1204.471, 29918.00
1205.554, 29917.00
1206.637, 29870.00
1207.719, 29672.00
1208.802, 29711.00
1209.884, 29892.00
1210.966, 29990.00
1212.048, 29829.00
1213.130, 29666.00
1214.212, 29928.00
1215.293, 30001.00
1216.374, 29730.00
1217.456, 29884.00
1218.536, 29961.00
1219.617, 29781.00
1220.698, 29901.62
1221.778, 29805.00
1222.859, 29848.00
1223.939, 29980.00
1225.019, 29826.00
1226.099, 29758.00
1227.178, 29881.00
1228.258, 29985.00
1229.337, 29987.78
1230.417, 30042.00
1231.496, 30008.00
1232.574, 30023.73
1233.653, 29993.00
1234.732, 30009.00
1235.810, 30029.00
1236.888, 30012.00
1237.966, 30096.00
1239.044, 30078.00
1240.122, 30159.00
1241.199, 30232.00
1242.277, 30017.00
1243.354, 30062.00
1244.431, 30210.00
1245.508, 30066.00
1246.585, 30259.00
1247.661, 30186.00
1248.738, 30093.00
1249.814, 30249.00
1250.890, 30335.00
1251.966, 30067.00
1253.042, 30013.00
1254.117, 30131.00
1255.193, 30007.00
1256.268, 30213.00
1257.343, 30039.00
1258.418, 30346.00
1259.493, 30021.00
1260.567, 30349.00
1261.642, 30331.00
1262.716, 30399.00
1263.790, 30351.00
1264.864, 30282.00
1265.938, 30615.00
1267.011, 30505.00
1268.085, 30674.00
1269.158, 30481.00
1270.231, 30742.00
1271.304, 30549.00
1272.377, 30640.00
1273.450, 30779.00
1274.522, 30656.00
1275.594, 30567.00
1276.666, 30635.00
1277.738, 30596.00
1278.810, 30615.00
1279.882, 30434.00
1280.953, 30287.00
1282.025, 30346.35
1283.096, 30298.60
1284.167, 30465.00
1285.238, 30341.00
1286.308, 30488.00
1287.379, 30383.00
1288.449, 30488.00
1289.519, 30520.00
1290.589, 30707.00
1291.659, 30643.00
1292.729, 30453.00
1293.798, 30819.00
1294.868, 30762.00
1295.937, 30653.00
1297.006, 30779.00
1298.075, 30846.00
1299.143, 30633.00
1300.212, 30622.00
1301.280, 30618.00
1302.348, 30818.00
1303.416, 30820.00
1304.484, 30810.00
1305.552, 30645.00
1306.620, 30695.00
1307.687, 30823.00
1308.754, 31028.00
1309.821, 30835.00
1310.888, 30959.00
1311.955, 31086.00
1313.021, 30850.00
1314.088, 30839.00
1315.154, 31047.00
1316.220, 30883.00
1317.286, 30793.00
1318.352, 31033.00
1319.417, 30920.00
1320.483, 30933.00
1321.548, 31119.00
1322.613, 30868.00
1323.678, 31022.00
1324.743, 30929.00
1325.807, 30890.00
1326.872, 30745.00
1327.936, 30782.00
1329.000, 30679.00
1330.064, 30580.00
1331.128, 30733.00
1332.191, 30584.00
1333.255, 30793.00
1334.318, 30583.00
1335.381, 30374.00
1336.444, 30658.00
1337.507, 30632.00
1338.569, 30656.00
1339.632, 30461.00
1340.694, 30377.00
1341.756, 30471.00
1342.818, 30549.00
1343.880, 30488.00
1344.941, 30477.00
1346.003, 30376.00
1347.064, 30415.45
1348.125, 30478.00
1349.186, 30433.00
1350.247, 30470.65
1351.308, 30573.00
1352.368, 30493.00
1353.428, 30451.00
1354.489, 30496.00
1355.549, 30483.00
1356.608, 30677.00
1357.668, 30572.00
1358.727, 30646.37
1359.787, 30594.42
1360.846, 30614.00
1361.905, 30571.00
1362.964, 30405.00
1364.022, 30672.00
1365.081, 30501.00
1366.139, 30586.00
1367.197, 30735.00
1368.255, 30571.00
1369.313, 30597.00
1370.371, 30632.00
1371.428, 30630.00
1372.486, 30722.00
1373.543, 30590.00
1374.600, 30645.00
1375.657, 30572.00
1376.713, 30833.00
1377.770, 30634.00
1378.826, 30726.00
1379.882, 30733.00
1380.938, 30670.00
1381.994, 30724.00
