##NAMES=Colemanite
##RRUFFID=R050102
##IDEAL CHEMISTRY=CaB_3_O_4_(OH)_3_&#183;H_2_O
##LOCALITY=Kramer deposit, Boron, Kern County, California, USA
##OWNER=RRUFF
##SOURCE=Rock Currier
##DESCRIPTION=Colorless prismatic to tabular crystals
##STATUS=The identification of this mineral has been confirmed by X-ray diffraction and chemical analysis
##URL=rruff.info/R050102
##MEASURED CHEMISTRY=Ca_1.00_B_3.00_O_4_(OH)_3_Â·H_2_O ; trace amounts of Na; B assumed by stoichiometry and charge balance.
##PIN_ID=L00407
##ORIENTATION=Laser parallel to c* (0 0 1). Fiducial mark perpendicular to laser is parallel to a [1 0 0]
63.56100, 1077.000
64.80100, 1161.000
66.04100, 1174.000
67.28100, 1325.000
68.52100, 1429.000
69.76100, 1552.000
71.00100, 1701.000
72.24000, 2059.000
73.47900, 2398.000
74.71800, 2951.000
75.95700, 3722.000
77.19600, 4736.000
78.43500, 5954.000
79.67300, 7375.000
80.91200, 9063.000
82.15000, 11053.00
83.38800, 13530.00
84.62600, 15993.00
85.86300, 19009.00
87.10100, 22170.00
88.33800, 25339.00
89.57500, 28462.00
90.81200, 31191.92
92.04900, 33886.00
93.28600, 36349.00
94.52300, 38729.00
95.75900, 40935.00
96.99500, 43189.00
98.23100, 46467.00
99.46700, 49207.00
100.7030, 52454.00
101.9390, 54594.00
103.1740, 56934.00
104.4090, 57499.00
105.6440, 57378.00
106.8790, 57278.00
108.1140, 55993.00
109.3490, 55472.00
110.5830, 55039.00
111.8180, 54465.00
113.0520, 54168.00
114.2860, 54492.00
115.5200, 53786.00
116.7530, 53787.00
117.9870, 53316.00
119.2200, 52839.00
120.4530, 52793.00
121.6860, 52695.00
122.9190, 52056.00
124.1520, 51911.00
125.3850, 52558.00
126.6170, 52874.00
127.8490, 53624.00
129.0810, 54315.00
130.3130, 54977.00
131.5450, 55204.00
132.7770, 55074.00
134.0080, 55198.00
135.2390, 54676.00
136.4710, 54590.00
137.7020, 54280.00
138.9320, 53865.00
140.1630, 54006.00
141.3930, 53657.00
142.6240, 54173.00
143.8540, 53827.00
145.0840, 54307.00
146.3140, 54782.00
147.5440, 55241.00
148.7730, 55223.00
150.0020, 55053.00
151.2320, 55122.00
152.4610, 54642.00
153.6900, 54410.00
154.9180, 53897.00
156.1470, 53582.00
157.3750, 53573.00
158.6040, 53478.46
159.8320, 53785.00
161.0600, 54000.00
162.2870, 54608.00
163.5150, 55545.00
164.7420, 55877.00
165.9700, 56766.00
167.1970, 57536.00
168.4240, 58871.00
169.6510, 60420.00
170.8770, 61626.00
172.1040, 63757.00
173.3300, 65564.00
174.5560, 67087.00
175.7820, 68775.00
177.0080, 68926.00
178.2340, 68937.00
179.4590, 67314.00
180.6850, 65249.00
181.9100, 63322.00
183.1350, 61275.00
184.3600, 59134.00
185.5850, 57458.00
186.8090, 56316.00
188.0340, 55545.00
189.2580, 54207.00
190.4820, 53647.00
191.7060, 53796.00
192.9300, 53249.00
194.1530, 53515.00
195.3770, 52921.00
196.6000, 52702.00
197.8230, 52418.00
199.0460, 52660.00
200.2690, 52929.00
201.4910, 52759.00
202.7140, 53018.00
203.9360, 53257.00
205.1580, 52939.00
206.3800, 53599.00
207.6020, 53395.00
208.8240, 53660.00
210.0450, 54261.00
211.2670, 54477.00
212.4880, 54584.00
213.7090, 55278.00
214.9300, 55285.00
216.1510, 56157.00
217.3710, 56610.00
218.5920, 57524.00
219.8120, 57633.00
221.0320, 58450.00
222.2520, 58813.00
223.4720, 59158.00
224.6910, 58925.00
225.9110, 58953.00
227.1300, 59139.00
228.3490, 59349.00
229.5680, 59217.00
230.7870, 59589.00
232.0050, 59378.00
233.2240, 59867.00
234.4420, 60288.00
235.6600, 60843.00
236.8780, 61340.00
238.0960, 61582.00
239.3140, 62850.00
240.5310, 63222.00
241.7490, 63552.00
242.9660, 63898.00
244.1830, 63945.00
245.4000, 63805.00
246.6160, 63886.00
247.8330, 63960.00
249.0490, 63441.00
250.2660, 63381.00
251.4820, 63615.00
252.6980, 63379.00
253.9130, 63600.00
255.1290, 64123.00
256.3440, 64035.00
257.5600, 64887.00
258.7750, 65240.00
259.9900, 65622.00
261.2040, 66050.00
262.4190, 66271.00
263.6330, 66434.00
264.8480, 66595.00
266.0620, 66733.00
267.2760, 66457.00
268.4900, 66527.00
269.7030, 66297.00
270.9170, 65969.00
272.1300, 65923.00
273.3430, 65223.00
274.5560, 64759.00
275.7690, 64090.00
276.9820, 63619.00
278.1940, 63163.00
279.4070, 62410.00
280.6190, 62532.00
281.8310, 61719.00
283.0430, 61833.00
284.2550, 61454.00
285.4660, 61696.00
286.6770, 61958.00
287.8890, 61993.00
289.1000, 61953.00
290.3110, 62508.00
291.5210, 62896.00
292.7320, 62694.00
293.9420, 63404.00
295.1530, 64265.00
296.3630, 64996.00
297.5730, 65173.00
298.7830, 65738.00
299.9920, 66576.00
301.2020, 67276.00
302.4110, 68009.00
303.6200, 68988.00
304.8290, 69886.00
306.0380, 70345.00
307.2470, 71457.00
308.4550, 71687.00
309.6630, 71817.00
310.8720, 72087.00
312.0800, 71814.00
313.2880, 70905.00
314.4950, 70738.00
315.7030, 70236.00
316.9100, 70063.00
318.1170, 70115.00
319.3240, 70257.00
320.5310, 70494.00
321.7380, 70967.00
322.9450, 71138.00
324.1510, 71224.00
325.3570, 70802.00
326.5630, 70984.00
327.7690, 70409.00
328.9750, 69866.00
330.1810, 68774.00
331.3860, 68545.00
332.5910, 68111.00
333.7960, 67502.00
335.0010, 67386.00
336.2060, 66751.00
337.4110, 65840.00
338.6150, 65799.00
339.8200, 66049.00
341.0240, 65493.00
342.2280, 65756.00
343.4320, 65304.00
344.6350, 65181.00
345.8390, 65053.00
347.0420, 65096.00
348.2450, 64690.00
349.4480, 65011.00
350.6510, 64695.00
351.8540, 65005.00
353.0560, 64667.00
354.2590, 64751.00
355.4610, 64896.00
356.6630, 64729.00
357.8650, 64648.00
359.0670, 64525.00
360.2680, 64564.79
361.4700, 64900.00
362.6710, 64713.00
363.8720, 64849.00
365.0730, 64954.00
366.2740, 64776.00
367.4740, 64688.00
368.6750, 64824.00
369.8750, 65617.00
371.0750, 65042.00
372.2750, 65738.00
373.4750, 65583.00
374.6740, 66112.00
375.8740, 66218.00
377.0730, 66800.00
378.2720, 66865.00
379.4710, 67194.00
380.6700, 67343.00
381.8690, 68043.00
383.0670, 68463.00
384.2660, 69028.00
385.4640, 69490.00
386.6620, 69709.00
387.8600, 69721.00
389.0570, 69641.00
390.2550, 69504.00
391.4520, 69798.00
392.6490, 69625.00
393.8460, 69583.73
395.0430, 69385.22
396.2400, 69251.00
397.4370, 68684.00
398.6330, 68250.00
399.8290, 67709.00
401.0250, 67569.00
402.2210, 67606.00
403.4170, 67568.00
404.6130, 67505.66
405.8080, 67688.00
407.0030, 67431.00
408.1980, 67369.00
409.3930, 67357.08
410.5880, 67464.00
411.7830, 67489.00
412.9770, 67406.00
414.1720, 67621.00
415.3660, 67437.00
416.5600, 67623.00
417.7530, 67629.00
418.9470, 67999.00
420.1410, 68276.00
421.3340, 67910.00
422.5270, 68104.00
423.7200, 68123.00
424.9130, 68170.00
426.1060, 68371.00
427.2980, 68316.00
428.4900, 68682.00
429.6830, 68660.00
430.8750, 69153.00
432.0670, 68733.00
433.2580, 69205.00
434.4500, 69299.00
435.6410, 69546.00
436.8320, 69515.00
438.0240, 70256.00
439.2140, 69919.00
440.4050, 69903.00
441.5960, 70508.00
442.7860, 70250.00
443.9760, 70775.00
445.1670, 70773.00
446.3560, 71155.00
447.5460, 71348.00
448.7360, 72075.00
449.9250, 72030.00
451.1150, 72777.00
452.3040, 73266.00
453.4930, 73678.00
454.6810, 73974.00
455.8700, 74035.00
457.0590, 74419.00
458.2470, 74051.00
459.4350, 74188.00
460.6230, 73660.00
461.8110, 73516.00
462.9980, 73351.00
464.1860, 73330.00
465.3730, 73468.00
466.5600, 73685.00
467.7470, 73720.93
468.9340, 73725.00
470.1210, 74090.00
471.3080, 74196.00
472.4940, 74720.00
473.6800, 75394.00
474.8660, 76137.00
476.0520, 76554.00
477.2380, 77504.00
478.4230, 77924.00
479.6090, 78980.00
480.7940, 79093.00
481.9790, 78778.00
483.1640, 78693.00
484.3490, 78364.00
485.5330, 77692.00
486.7180, 76860.00
487.9020, 76526.00
489.0860, 76030.00
490.2700, 75558.00
491.4540, 75376.00
492.6370, 75266.00
493.8210, 75500.00
495.0040, 74728.00
496.1870, 75258.00
497.3700, 75270.00
498.5530, 74898.00
499.7360, 75215.00
500.9180, 75669.00
502.1000, 75568.00
503.2830, 75458.00
504.4650, 76105.00
505.6460, 76003.00
506.8280, 76110.00
508.0100, 76336.00
509.1910, 76928.00
510.3720, 76756.00
511.5530, 77057.00
512.7340, 77377.00
513.9150, 76978.00
515.0950, 76935.00
516.2760, 77152.00
517.4560, 77122.00
518.6360, 77188.00
519.8160, 77543.00
520.9950, 77134.00
522.1750, 77623.00
523.3540, 77610.00
524.5340, 77880.00
525.7130, 78175.00
526.8920, 78278.00
528.0700, 78739.70
529.2490, 79165.00
530.4270, 79676.00
531.6060, 80121.00
532.7840, 80797.00
533.9620, 81385.00
535.1390, 82166.00
536.3170, 83084.00
537.4940, 83816.00
538.6720, 84834.00
539.8490, 85831.00
541.0260, 86814.00
542.2030, 87601.00
543.3790, 88018.00
544.5560, 87914.00
545.7320, 88172.00
546.9080, 87791.00
548.0840, 87636.00
549.2600, 87195.00
550.4360, 87029.00
551.6110, 87504.00
552.7860, 88498.00
553.9620, 89797.00
555.1370, 91149.00
556.3110, 94353.00
557.4860, 96549.55
558.6610, 100132.7
559.8350, 103164.0
561.0090, 108112.0
562.1830, 112871.0
563.3570, 117423.0
564.5310, 121381.0
565.7040, 122627.0
566.8780, 121657.0
568.0510, 118229.0
569.2240, 113300.0
570.3970, 107934.0
571.5700, 103453.0
572.7420, 100305.0
573.9150, 97243.00
575.0870, 95036.00
576.2590, 92990.00
577.4310, 92248.00
578.6030, 91220.00
579.7740, 90689.00
580.9460, 89821.00
582.1170, 89150.00
583.2880, 88461.00
584.4590, 88203.85
585.6300, 88434.00
586.8010, 88229.00
587.9710, 88618.39
589.1410, 89354.00
590.3110, 89294.00
591.4810, 90020.00
592.6510, 90504.00
593.8210, 91922.00
594.9900, 92730.00
596.1600, 94414.00
597.3290, 95693.00
598.4980, 98009.00
599.6670, 101306.0
600.8350, 105096.0
602.0040, 109998.0
603.1720, 116203.0
604.3400, 124115.0
605.5080, 132429.0
606.6760, 142296.0
607.8440, 152610.0
609.0120, 163522.0
610.1790, 171165.0
611.3460, 175217.0
612.5130, 173461.0
613.6800, 165443.0
614.8470, 154831.0
616.0130, 142549.0
617.1800, 131451.0
618.3460, 121797.0
619.5120, 114639.0
620.6780, 107987.0
621.8440, 103411.0
623.0090, 99868.00
624.1750, 96969.00
625.3400, 94945.00
626.5050, 93562.00
627.6700, 92492.00
628.8350, 91317.00
629.9990, 90646.00
631.1640, 89818.00
632.3280, 89293.22
633.4920, 89038.00
634.6560, 88554.00
635.8200, 88468.00
636.9840, 88239.00
638.1470, 88047.00
639.3100, 87657.00
640.4730, 87777.00
641.6360, 87775.00
642.7990, 88085.00
643.9620, 88864.00
645.1240, 88071.00
646.2870, 88245.00
647.4490, 88847.00
648.6110, 88307.00
649.7730, 87711.00
650.9340, 88269.00
652.0960, 88371.00
653.2570, 88545.00
654.4180, 88702.09
655.5790, 88736.00
656.7400, 89023.00
657.9010, 89314.00
659.0620, 90017.00
660.2220, 91317.00
661.3820, 92105.00
662.5420, 92750.00
663.7020, 94065.00
664.8620, 95054.00
666.0210, 96682.00
667.1810, 98362.00
668.3400, 99627.00
669.4990, 100681.0
670.6580, 100447.0
671.8170, 100454.0
672.9750, 99935.00
674.1340, 98586.00
675.2920, 97621.00
676.4500, 96270.00
677.6080, 95440.00
678.7660, 94208.00
679.9230, 94012.00
681.0810, 93242.00
682.2380, 92766.00
683.3950, 92174.00
684.5520, 92398.00
685.7090, 92175.00
686.8660, 92027.00
688.0220, 92405.00
689.1780, 92012.00
690.3340, 92474.00
691.4900, 92661.00
692.6460, 92857.00
693.8020, 92660.00
694.9570, 92846.00
696.1130, 92809.00
697.2680, 93006.00
698.4230, 93117.00
699.5780, 92658.00
700.7320, 93307.00
701.8870, 92715.00
703.0410, 93171.00
704.1950, 93231.00
705.3490, 93520.00
706.5030, 93611.00
707.6570, 93845.00
708.8110, 94139.00
709.9640, 94435.00
711.1170, 94436.00
712.2700, 94329.00
713.4230, 95016.00
714.5760, 94951.00
715.7280, 94827.00
716.8810, 95198.00
718.0330, 95380.00
719.1850, 95964.00
720.3370, 95742.00
721.4890, 95754.00
722.6400, 96066.00
723.7920, 95742.00
724.9430, 96354.00
726.0940, 96861.00
727.2450, 97201.00
728.3960, 97343.00
729.5460, 97661.00
730.6970, 98094.00
731.8470, 98982.19
732.9970, 99958.09
734.1470, 101359.0
735.2970, 102772.0
736.4460, 104533.0
737.5960, 106649.0
738.7450, 109094.0
739.8940, 111840.0
741.0430, 114582.0
742.1920, 117785.0
743.3410, 120216.0
744.4890, 121994.0
745.6370, 123030.0
746.7850, 121961.0
747.9330, 120945.0
749.0810, 118471.0
750.2290, 115965.0
751.3760, 112824.0
752.5240, 110129.0
753.6710, 107950.0
754.8180, 106063.0
755.9650, 104008.0
757.1110, 103118.0
758.2580, 101845.0
759.4040, 101405.0
760.5510, 100063.0
761.6970, 99762.00
762.8420, 99338.00
763.9880, 99523.00
765.1340, 98964.00
766.2790, 98974.00
767.4240, 98546.00
768.5690, 98908.00
769.7140, 99006.00
770.8590, 98733.00
772.0030, 98562.00
773.1480, 98646.00
774.2920, 98855.84
775.4360, 99593.00
776.5800, 99829.00
777.7240, 100045.0
778.8670, 100946.0
780.0110, 101219.0
781.1540, 102090.0
782.2970, 103586.0
783.4400, 104157.0
784.5830, 105578.0
785.7250, 106302.0
786.8680, 107446.0
788.0100, 108573.0
789.1520, 108110.0
790.2940, 107980.0
791.4360, 106561.0
792.5780, 106007.0
793.7190, 104822.0
794.8600, 103886.0
796.0010, 103530.0
797.1420, 102753.0
798.2830, 102056.0
799.4240, 101816.0
800.5640, 101642.0
801.7050, 100878.0
802.8450, 101735.0
803.9850, 101083.0
805.1250, 101065.0
806.2640, 101789.0
807.4040, 101228.0
808.5430, 101760.0
809.6820, 101545.0
810.8210, 102056.0
811.9600, 101818.0
813.0990, 102461.0
814.2370, 102327.0
815.3760, 102356.0
816.5140, 102179.0
817.6520, 102266.0
818.7900, 102479.0
819.9270, 102577.0
821.0650, 102721.0
822.2020, 102794.0
823.3390, 103104.0
824.4760, 103526.0
825.6130, 103259.0
826.7500, 103434.0
827.8870, 104037.0
829.0230, 104371.0
830.1590, 104826.0
831.2950, 104612.0
832.4310, 105533.0
833.5670, 105855.0
834.7030, 106678.0
835.8380, 107079.0
836.9730, 107308.0
838.1080, 107944.0
839.2430, 107962.0
840.3780, 108294.0
841.5130, 108739.0
842.6470, 108868.0
843.7810, 108952.0
844.9150, 109131.0
846.0490, 109329.0
847.1830, 108781.0
848.3170, 108889.0
849.4500, 108298.0
850.5830, 108296.0
851.7160, 107879.0
852.8490, 108171.0
853.9820, 107304.0
855.1150, 107606.0
856.2470, 107695.0
857.3800, 107439.0
858.5120, 107692.0
859.6440, 107325.0
860.7760, 107485.0
861.9070, 107444.0
863.0390, 107421.0
864.1700, 107672.0
865.3010, 107174.0
866.4320, 107781.0
867.5630, 107374.0
868.6940, 108048.0
869.8240, 108339.0
870.9540, 108458.0
872.0850, 109087.0
873.2150, 108768.0
874.3450, 109135.0
875.4740, 109419.0
876.6040, 109862.0
877.7330, 109752.0
878.8620, 110033.3
879.9910, 110336.0
881.1200, 110027.0
882.2490, 110425.0
883.3770, 109965.0
884.5060, 110239.0
885.6340, 109758.0
886.7620, 109713.0
887.8900, 109992.0
889.0180, 108933.0
890.1450, 109908.0
891.2730, 109213.0
892.4000, 109999.0
893.5270, 109937.0
894.6540, 109516.0
895.7810, 109709.0
896.9070, 109139.0
898.0340, 109406.0
899.1600, 109365.0
900.2860, 110205.0
901.4120, 109491.0
902.5380, 109668.0
903.6630, 109209.0
904.7890, 109126.0
905.9140, 109864.0
907.0390, 109321.0
908.1640, 109599.0
909.2890, 109698.0
910.4130, 109216.0
911.5380, 110238.0
912.6620, 109585.0
913.7860, 110080.0
914.9100, 109655.0
916.0340, 110258.0
917.1580, 110103.0
918.2810, 110303.0
919.4040, 110504.0
920.5280, 110524.0
921.6510, 110691.0
922.7730, 110812.7
923.8960, 111048.0
925.0180, 110924.0
926.1410, 111465.0
927.2630, 111243.0
928.3850, 110735.0
929.5070, 111574.0
930.6280, 111642.0
931.7500, 112119.0
932.8710, 111612.0
933.9920, 111690.0
935.1130, 112287.0
936.2340, 112096.0
937.3550, 112452.0
938.4760, 112210.0
939.5960, 112690.0
940.7160, 112211.0
941.8360, 112763.0
942.9560, 113366.0
944.0760, 112944.0
945.1950, 113692.0
946.3150, 113374.0
947.4340, 113161.0
948.5530, 113710.0
949.6720, 113908.0
950.7900, 114381.0
951.9090, 113736.0
953.0270, 114609.0
954.1460, 114498.0
955.2640, 114839.0
956.3820, 115280.0
957.4990, 115314.0
958.6170, 116149.0
959.7340, 116549.0
960.8520, 117319.0
961.9690, 117881.0
963.0860, 117971.0
964.2020, 118705.0
965.3190, 119380.0
966.4350, 119340.0
967.5520, 119270.0
968.6680, 120069.0
969.7840, 119866.0
970.8990, 119890.0
972.0150, 119457.0
973.1310, 118802.0
974.2460, 119562.0
975.3610, 118949.0
976.4760, 119234.0
977.5910, 118675.0
978.7050, 118873.0
979.8200, 118778.0
980.9340, 118645.0
982.0480, 119349.0
983.1620, 118949.0
984.2760, 119169.0
985.3900, 119040.0
986.5030, 119461.0
987.6160, 119050.0
988.7300, 119695.0
989.8430, 119725.0
990.9550, 119716.0
992.0680, 120631.0
993.1810, 120697.0
994.2930, 121079.0
995.4050, 120978.0
996.5170, 121149.0
997.6290, 121749.0
998.7410, 122037.0
999.8520, 121965.0
1000.964, 122131.0
1002.075, 121932.0
1003.186, 121715.0
1004.297, 121371.0
1005.407, 121965.0
1006.518, 121054.0
1007.628, 121346.0
1008.738, 120644.0
1009.848, 120756.0
1010.958, 121319.0
1012.068, 120552.0
1013.178, 121016.0
1014.287, 120691.0
1015.396, 120668.0
1016.505, 120568.0
1017.614, 120532.0
1018.723, 120640.8
1019.831, 120568.0
1020.940, 120974.0
1022.048, 121188.0
1023.156, 121307.3
1024.264, 121661.5
1025.372, 121910.2
1026.479, 122058.8
1027.587, 121808.5
1028.694, 122073.4
1029.801, 122131.9
1030.908, 121915.0
1032.015, 122286.0
1033.121, 122729.0
1034.228, 122122.0
1035.334, 122911.0
1036.440, 122551.0
1037.546, 123317.0
1038.652, 122718.0
1039.758, 123343.0
1040.863, 122839.0
1041.968, 123737.0
1043.074, 123848.0
1044.178, 123914.0
1045.283, 124427.0
1046.388, 125078.0
1047.492, 125127.0
1048.597, 125931.2
1049.701, 126842.0
1050.805, 127127.0
1051.909, 126861.0
1053.012, 127172.0
1054.116, 127816.0
1055.219, 128736.0
1056.322, 129197.0
1057.425, 130015.0
1058.528, 130225.0
1059.631, 130851.0
1060.733, 131525.0
1061.836, 132276.0
1062.938, 133168.0
1064.040, 133156.0
1065.142, 133205.0
1066.243, 133648.0
1067.345, 132937.0
1068.446, 133226.0
1069.547, 132559.0
1070.648, 133227.0
1071.749, 133140.0
1072.850, 132931.0
1073.951, 133310.0
1075.051, 132971.0
1076.151, 133805.0
1077.251, 133360.0
1078.351, 133939.0
1079.451, 134449.0
1080.550, 134029.0
1081.650, 134975.0
1082.749, 134964.0
1083.848, 135380.0
1084.947, 135239.0
1086.046, 135741.0
1087.144, 135466.0
1088.243, 135392.0
1089.341, 135436.0
1090.439, 134617.0
1091.537, 134482.0
1092.635, 133750.0
1093.732, 133369.0
1094.830, 133052.2
1095.927, 132064.0
1097.024, 132380.0
1098.121, 132008.0
1099.218, 131657.0
1100.314, 132260.0
1101.411, 131152.0
1102.507, 132032.0
1103.603, 131258.0
1104.699, 131511.0
1105.795, 131311.0
1106.890, 131196.9
1107.986, 131248.0
1109.081, 131140.0
1110.176, 131354.0
1111.271, 131160.0
1112.366, 131582.0
1113.461, 132001.0
1114.555, 131354.0
1115.649, 132028.0
1116.744, 131627.0
1117.838, 132018.0
1118.931, 132182.0
1120.025, 132718.0
1121.119, 132541.0
1122.212, 132616.0
1123.305, 133170.0
1124.398, 132362.0
1125.491, 132802.0
1126.584, 133289.0
1127.676, 132811.0
1128.768, 133800.0
1129.861, 133495.0
1130.953, 133794.0
1132.044, 134473.0
1133.136, 133745.0
1134.228, 134701.0
1135.319, 134838.0
1136.410, 135059.0
1137.501, 135210.0
1138.592, 134943.0
1139.683, 135369.0
1140.773, 135473.0
1141.864, 135909.0
1142.954, 136102.0
1144.044, 136084.0
1145.134, 136748.0
1146.224, 136238.0
1147.313, 136993.0
1148.402, 136846.0
1149.492, 136869.0
1150.581, 137351.0
1151.670, 137468.0
1152.758, 137342.0
1153.847, 137295.0
1154.935, 137278.9
1156.024, 137332.9
1157.112, 137379.0
1158.200, 137561.0
1159.287, 138076.0
1160.375, 138265.0
1161.462, 138340.9
1162.550, 138346.0
1163.637, 138331.0
1164.724, 138093.0
1165.810, 138000.0
1166.897, 137869.0
1167.983, 138313.0
1169.070, 137774.0
1170.156, 137657.0
1171.242, 137852.0
1172.327, 137399.0
1173.413, 138374.0
1174.499, 137351.0
1175.584, 137910.0
1176.669, 137585.0
1177.754, 137350.0
1178.839, 138222.0
1179.923, 137308.0
1181.008, 138587.0
1182.092, 137637.0
1183.176, 137920.0
1184.260, 138056.0
1185.344, 137671.0
1186.428, 138213.0
1187.511, 138269.0
1188.595, 137925.0
1189.678, 138289.0
1190.761, 138201.0
1191.843, 138283.0
1192.926, 138549.0
1194.009, 138947.0
1195.091, 138540.0
1196.173, 138410.0
1197.255, 139323.0
1198.337, 138749.0
1199.419, 138948.0
1200.500, 138716.0
1201.582, 139478.0
1202.663, 139237.0
1203.744, 139282.0
1204.825, 139274.0
1205.905, 139439.0
1206.986, 140046.0
1208.066, 139702.0
1209.146, 139806.0
1210.226, 140268.0
1211.306, 139461.0
1212.386, 140842.0
1213.466, 140546.0
1214.545, 140774.0
1215.624, 141281.0
1216.703, 140065.0
1217.782, 141011.0
1218.861, 141138.0
1219.939, 140782.0
1221.018, 141309.0
1222.096, 141193.0
1223.174, 141780.0
1224.252, 141774.0
1225.330, 141993.0
1226.407, 141171.0
1227.485, 141238.0
1228.562, 142472.0
1229.639, 141952.0
1230.716, 143335.0
1231.793, 142102.0
1232.869, 142510.0
1233.946, 143185.0
1235.022, 143345.0
1236.098, 143515.0
1237.174, 143374.0
1238.250, 143725.0
1239.325, 144465.0
1240.401, 143549.0
1241.476, 144744.0
1242.551, 144156.0
1243.626, 144603.0
