##NAMES=Colemanite
##RRUFFID=R050102
##IDEAL CHEMISTRY=CaB_3_O_4_(OH)_3_&#183;H_2_O
##LOCALITY=Kramer deposit, Boron, Kern County, California, USA
##OWNER=RRUFF
##SOURCE=Rock Currier
##DESCRIPTION=Colorless prismatic to tabular crystals
##STATUS=The identification of this mineral has been confirmed by X-ray diffraction and chemical analysis
##URL=rruff.info/R050102
##MEASURED CHEMISTRY=Ca_1.00_B_3.00_O_4_(OH)_3_Â·H_2_O ; trace amounts of Na; B assumed by stoichiometry and charge balance.
##PIN_ID=L00407
##ORIENTATION=Laser parallel to c* (0 0 1). Fiducial mark perpendicular to laser is parallel to a [1 0 0]
63.56100, 900.0000
64.80100, 911.0000
66.04100, 967.0000
67.28100, 1021.000
68.52100, 1169.000
69.76100, 1224.000
71.00100, 1321.000
72.24000, 1649.000
73.47900, 1860.000
74.71800, 2234.000
75.95700, 2890.000
77.19600, 3698.000
78.43500, 4569.000
79.67300, 5738.000
80.91200, 7085.000
82.15000, 8710.000
83.38800, 10870.00
84.62600, 13178.00
85.86300, 15920.00
87.10100, 18930.00
88.33800, 22036.00
89.57500, 24932.00
90.81200, 27374.00
92.04900, 29418.00
93.28600, 30573.00
94.52300, 31477.00
95.75900, 32303.00
96.99500, 32488.00
98.23100, 33170.00
99.46700, 33704.00
100.7030, 34107.00
101.9390, 34725.00
103.1740, 35252.00
104.4090, 35818.00
105.6440, 36744.00
106.8790, 37276.00
108.1140, 37702.00
109.3490, 37858.00
110.5830, 38482.00
111.8180, 38828.00
113.0520, 39307.00
114.2860, 39361.00
115.5200, 39735.00
116.7530, 40075.00
117.9870, 40163.00
119.2200, 40758.00
120.4530, 41398.00
121.6860, 41500.00
122.9190, 40843.00
124.1520, 40316.00
125.3850, 40520.00
126.6170, 40944.00
127.8490, 40932.00
129.0810, 41076.00
130.3130, 41574.00
131.5450, 42033.00
132.7770, 41844.00
134.0080, 42313.00
135.2390, 42443.00
136.4710, 42656.00
137.7020, 42786.00
138.9320, 42838.00
140.1630, 43063.00
141.3930, 43045.00
142.6240, 43299.00
143.8540, 42991.00
145.0840, 43346.00
146.3140, 43116.00
147.5440, 43425.00
148.7730, 43350.00
150.0020, 43747.00
151.2320, 43911.00
152.4610, 44284.00
153.6900, 44395.00
154.9180, 44789.00
156.1470, 45017.00
157.3750, 45315.77
158.6040, 45835.00
159.8320, 46066.00
161.0600, 46603.00
162.2870, 47234.00
163.5150, 47645.00
164.7420, 48441.00
165.9700, 48864.00
167.1970, 49669.00
168.4240, 50137.00
169.6510, 51213.00
170.8770, 52936.00
172.1040, 55281.00
173.3300, 54946.00
174.5560, 56205.00
175.7820, 57444.00
177.0080, 57836.00
178.2340, 57719.00
179.4590, 56356.00
180.6850, 54834.00
181.9100, 53152.00
183.1350, 51506.00
184.3600, 50423.00
185.5850, 49139.72
186.8090, 47813.00
188.0340, 47212.00
189.2580, 46719.00
190.4820, 46027.00
191.7060, 45909.00
192.9300, 45765.00
194.1530, 45810.00
195.3770, 46076.00
196.6000, 45828.00
197.8230, 45830.00
199.0460, 46006.00
200.2690, 45905.00
201.4910, 46000.75
202.7140, 46065.22
203.9360, 46133.00
205.1580, 46254.00
206.3800, 46434.00
207.6020, 46660.00
208.8240, 46745.00
210.0450, 46982.27
211.2670, 46997.00
212.4880, 47300.00
213.7090, 47719.00
214.9300, 47712.00
216.1510, 48217.00
217.3710, 48397.00
218.5920, 48607.00
219.8120, 49117.00
221.0320, 49365.00
222.2520, 49612.00
223.4720, 50107.00
224.6910, 50270.00
225.9110, 50892.00
227.1300, 51090.00
228.3490, 51515.00
229.5680, 52281.00
230.7870, 52529.00
232.0050, 53423.00
233.2240, 53852.00
234.4420, 55234.00
235.6600, 56746.00
236.8780, 57680.00
238.0960, 58653.00
239.3140, 60008.00
240.5310, 61164.00
241.7490, 62077.00
242.9660, 62920.00
244.1830, 63195.00
245.4000, 63228.00
246.6160, 63429.00
247.8330, 63191.00
249.0490, 63057.00
250.2660, 62997.00
251.4820, 62775.00
252.6980, 62791.00
253.9130, 62697.00
255.1290, 63412.00
256.3440, 64134.00
257.5600, 64305.00
258.7750, 64493.00
259.9900, 64964.00
261.2040, 65168.67
262.4190, 66050.00
263.6330, 65863.00
264.8480, 66648.00
266.0620, 67163.00
267.2760, 67088.00
268.4900, 66710.00
269.7030, 66251.00
270.9170, 65675.00
272.1300, 64869.35
273.3430, 64238.00
274.5560, 62998.00
275.7690, 61755.00
276.9820, 60724.00
278.1940, 59008.00
279.4070, 57908.00
280.6190, 56891.00
281.8310, 56070.00
283.0430, 55219.00
284.2550, 54573.00
285.4660, 54485.00
286.6770, 53967.00
287.8890, 53526.00
289.1000, 53874.00
290.3110, 53980.00
291.5210, 54236.00
292.7320, 55066.00
293.9420, 55136.00
295.1530, 55739.00
296.3630, 56699.00
297.5730, 57486.00
298.7830, 58658.00
299.9920, 59805.00
301.2020, 61341.00
302.4110, 63511.00
303.6200, 64877.00
304.8290, 67172.00
306.0380, 68797.00
307.2470, 70167.00
308.4550, 71501.00
309.6630, 71807.00
310.8720, 71195.00
312.0800, 69764.00
313.2880, 67505.00
314.4950, 65545.00
315.7030, 63293.00
316.9100, 61294.00
318.1170, 60621.00
319.3240, 59444.00
320.5310, 59210.00
321.7380, 58791.00
322.9450, 59322.00
324.1510, 59031.00
325.3570, 59448.00
326.5630, 59812.00
327.7690, 60403.00
328.9750, 60448.00
330.1810, 60617.00
331.3860, 60956.00
332.5910, 61068.00
333.7960, 61174.00
335.0010, 61102.00
336.2060, 60912.00
337.4110, 60859.00
338.6150, 61078.00
339.8200, 60929.00
341.0240, 60999.00
342.2280, 60921.00
343.4320, 60617.00
344.6350, 60783.00
345.8390, 60733.00
347.0420, 60653.00
348.2450, 60412.00
349.4480, 60483.00
350.6510, 60055.00
351.8540, 59765.00
353.0560, 59859.00
354.2590, 58955.00
355.4610, 59112.00
356.6630, 58803.00
357.8650, 58843.00
359.0670, 58457.00
360.2680, 58339.00
361.4700, 58087.00
362.6710, 58028.52
363.8720, 57931.00
365.0730, 58040.22
366.2740, 58078.12
367.4740, 58161.00
368.6750, 58215.00
369.8750, 58380.80
371.0750, 58308.00
372.2750, 58786.00
373.4750, 58994.00
374.6740, 59293.00
375.8740, 59907.00
377.0730, 60591.00
378.2720, 61014.00
379.4710, 61625.00
380.6700, 62810.00
381.8690, 63055.00
383.0670, 64641.00
384.2660, 65729.00
385.4640, 66089.00
386.6620, 66825.00
387.8600, 67176.00
389.0570, 67281.00
390.2550, 66134.00
391.4520, 66170.00
392.6490, 65135.00
393.8460, 64586.00
395.0430, 64020.00
396.2400, 63442.00
397.4370, 62440.00
398.6330, 62112.00
399.8290, 61665.00
401.0250, 60826.00
402.2210, 61161.00
403.4170, 60582.00
404.6130, 60560.00
405.8080, 60454.00
407.0030, 60637.00
408.1980, 60397.00
409.3930, 60208.00
410.5880, 60264.00
411.7830, 60066.11
412.9770, 60371.00
414.1720, 59989.00
415.3660, 60272.00
416.5600, 60491.00
417.7530, 60661.00
418.9470, 60187.00
420.1410, 60327.00
421.3340, 60307.00
422.5270, 60654.00
423.7200, 60466.00
424.9130, 60639.00
426.1060, 60783.00
427.2980, 60860.00
428.4900, 61116.00
429.6830, 61161.00
430.8750, 61664.00
432.0670, 61249.00
433.2580, 61847.00
434.4500, 61442.00
435.6410, 61862.00
436.8320, 61492.00
438.0240, 61838.00
439.2140, 62184.00
440.4050, 61897.00
441.5960, 62199.00
442.7860, 62068.00
443.9760, 62253.00
445.1670, 62526.00
446.3560, 62382.00
447.5460, 62751.00
448.7360, 63126.00
449.9250, 63228.00
451.1150, 63225.00
452.3040, 63449.00
453.4930, 63193.00
454.6810, 63509.00
455.8700, 63636.00
457.0590, 63687.00
458.2470, 63491.00
459.4350, 64014.00
460.6230, 63628.00
461.8110, 63888.00
462.9980, 63673.00
464.1860, 63546.00
465.3730, 63904.00
466.5600, 63757.00
467.7470, 64101.00
468.9340, 64082.00
470.1210, 64545.00
471.3080, 64798.00
472.4940, 64703.00
473.6800, 65053.00
474.8660, 65523.00
476.0520, 65759.00
477.2380, 66010.00
478.4230, 66267.00
479.6090, 66882.00
480.7940, 67204.00
481.9790, 67268.00
483.1640, 67465.00
484.3490, 67094.00
485.5330, 67153.00
486.7180, 66867.00
487.9020, 66326.00
489.0860, 66532.00
490.2700, 66542.00
491.4540, 66237.00
492.6370, 66002.00
493.8210, 66470.00
495.0040, 66121.00
496.1870, 66306.00
497.3700, 66502.00
498.5530, 66232.00
499.7360, 66454.00
500.9180, 66799.00
502.1000, 66696.00
503.2830, 66771.00
504.4650, 66915.00
505.6460, 66856.00
506.8280, 67214.00
508.0100, 67314.00
509.1910, 67645.00
510.3720, 67486.00
511.5530, 67806.00
512.7340, 67754.00
513.9150, 67672.00
515.0950, 67861.00
516.2760, 67958.41
517.4560, 68407.00
518.6360, 68391.00
519.8160, 68762.00
520.9950, 69017.00
522.1750, 69247.00
523.3540, 69614.00
524.5340, 69872.00
525.7130, 70220.00
526.8920, 70772.94
528.0700, 71385.84
529.2490, 72103.00
530.4270, 72962.00
531.6060, 73983.00
532.7840, 75339.69
533.9620, 76738.50
535.1390, 78524.00
536.3170, 80305.00
537.4940, 82198.00
538.6720, 84682.00
539.8490, 86719.00
541.0260, 89197.00
542.2030, 90463.00
543.3790, 91336.00
544.5560, 90850.00
545.7320, 90156.00
546.9080, 88863.00
548.0840, 87597.00
549.2600, 85970.00
550.4360, 85952.00
551.6110, 85654.00
552.7860, 85832.00
553.9620, 86961.00
555.1370, 88796.00
556.3110, 92052.00
557.4860, 95175.00
558.6610, 99865.00
559.8350, 105030.0
561.0090, 110998.0
562.1830, 117363.0
563.3570, 123586.0
564.5310, 128499.0
565.7040, 129316.0
566.8780, 127134.0
568.0510, 121581.0
569.2240, 115089.0
570.3970, 107964.0
571.5700, 101824.0
572.7420, 96260.00
573.9150, 92010.00
575.0870, 89910.00
576.2590, 86899.00
577.4310, 85177.00
578.6030, 84162.00
579.7740, 83362.00
580.9460, 82423.00
582.1170, 82167.00
583.2880, 81738.96
584.4590, 81650.00
585.6300, 81618.00
586.8010, 81668.00
587.9710, 82038.00
589.1410, 82277.00
590.3110, 82416.00
591.4810, 83165.00
592.6510, 83862.00
593.8210, 84618.00
594.9900, 85948.00
596.1600, 88016.00
597.3290, 89221.00
598.4980, 91780.00
599.6670, 94507.00
600.8350, 98283.00
602.0040, 102678.0
603.1720, 108867.0
604.3400, 115492.0
605.5080, 123996.0
606.6760, 132837.0
607.8440, 141852.0
609.0120, 151071.0
610.1790, 157629.0
611.3460, 159866.0
612.5130, 156777.0
613.6800, 148876.0
614.8470, 138911.0
616.0130, 127199.0
617.1800, 116859.0
618.3460, 107876.0
619.5120, 100569.0
620.6780, 94831.00
621.8440, 90985.00
623.0090, 87798.00
624.1750, 85449.00
625.3400, 83725.00
626.5050, 82499.00
627.6700, 81381.00
628.8350, 80689.00
629.9990, 80313.00
631.1640, 79535.00
632.3280, 78946.00
633.4920, 78834.00
634.6560, 78507.00
635.8200, 78303.00
636.9840, 78169.02
638.1470, 78005.00
639.3100, 77881.00
640.4730, 77731.00
641.6360, 77550.00
642.7990, 77692.00
643.9620, 77763.00
645.1240, 77660.00
646.2870, 77837.00
647.4490, 77654.00
648.6110, 77529.00
649.7730, 77572.00
650.9340, 78333.00
652.0960, 78206.00
653.2570, 78688.00
654.4180, 78646.00
655.5790, 78743.00
656.7400, 79719.00
657.9010, 80003.00
659.0620, 81346.00
660.2220, 82084.00
661.3820, 83073.00
662.5420, 84900.00
663.7020, 87207.00
664.8620, 89244.00
666.0210, 91212.00
667.1810, 93250.00
668.3400, 95240.00
669.4990, 96909.00
670.6580, 97240.00
671.8170, 96749.00
672.9750, 95385.00
674.1340, 93377.00
675.2920, 91408.00
676.4500, 89591.00
677.6080, 88082.00
678.7660, 86612.00
679.9230, 85660.00
681.0810, 84478.00
682.2380, 83622.00
683.3950, 83149.00
684.5520, 82559.00
685.7090, 82243.88
686.8660, 81957.00
688.0220, 81956.00
689.1780, 81804.00
690.3340, 81951.00
691.4900, 82066.00
692.6460, 81983.00
693.8020, 81804.00
694.9570, 81824.00
696.1130, 81705.00
697.2680, 81384.00
698.4230, 81905.00
699.5780, 81341.00
700.7320, 81624.00
701.8870, 81700.00
703.0410, 81596.00
704.1950, 81968.00
705.3490, 81995.00
706.5030, 81973.00
707.6570, 82214.80
708.8110, 82186.00
709.9640, 82489.00
711.1170, 82688.00
712.2700, 82835.66
713.4230, 82789.00
714.5760, 82995.00
715.7280, 82868.00
716.8810, 83069.00
718.0330, 83078.00
719.1850, 83671.00
720.3370, 83387.00
721.4890, 84186.00
722.6400, 84038.00
723.7920, 84338.00
724.9430, 84412.00
726.0940, 84918.00
727.2450, 85347.66
728.3960, 85630.00
729.5460, 86507.00
730.6970, 87100.00
731.8470, 87770.00
732.9970, 88728.00
734.1470, 90133.60
735.2970, 91602.00
736.4460, 93750.00
737.5960, 95972.00
738.7450, 98589.00
739.8940, 101593.0
741.0430, 105597.0
742.1920, 109232.0
743.3410, 112516.0
744.4890, 114622.0
745.6370, 115708.0
746.7850, 114390.0
747.9330, 112897.0
749.0810, 110368.0
750.2290, 106809.0
751.3760, 104574.0
752.5240, 100075.0
753.6710, 97751.00
754.8180, 95130.00
755.9650, 93624.00
757.1110, 92144.00
758.2580, 90989.00
759.4040, 89938.00
760.5510, 89190.00
761.6970, 88502.34
762.8420, 88176.00
763.9880, 87834.00
765.1340, 87707.00
766.2790, 87510.46
767.4240, 87411.00
768.5690, 87379.00
769.7140, 87534.00
770.8590, 87653.00
772.0030, 87779.00
773.1480, 88077.41
774.2920, 88611.00
775.4360, 88729.00
776.5800, 89254.00
777.7240, 89658.00
778.8670, 90547.00
780.0110, 91205.00
781.1540, 92475.00
782.2970, 93482.00
783.4400, 94731.00
784.5830, 95966.00
785.7250, 97553.00
786.8680, 98272.00
788.0100, 99196.00
789.1520, 98669.00
790.2940, 97750.00
791.4360, 96586.00
792.5780, 95235.00
793.7190, 93712.00
794.8600, 92616.00
796.0010, 91706.00
797.1420, 91007.00
798.2830, 90376.00
799.4240, 89866.00
800.5640, 90027.00
801.7050, 89281.00
802.8450, 89747.00
803.9850, 89361.00
805.1250, 89127.00
806.2640, 89369.00
807.4040, 89062.00
808.5430, 89488.00
809.6820, 89112.00
810.8210, 89253.00
811.9600, 89438.00
813.0990, 89731.00
814.2370, 90075.00
815.3760, 89861.00
816.5140, 90554.00
817.6520, 89784.00
818.7900, 90052.00
819.9270, 90601.00
821.0650, 90306.00
822.2020, 90485.00
823.3390, 90864.00
824.4760, 90671.00
825.6130, 90828.00
826.7500, 91089.00
827.8870, 91374.00
829.0230, 91555.00
830.1590, 92099.00
831.2950, 92386.00
832.4310, 93207.00
833.5670, 93259.00
834.7030, 94334.00
835.8380, 94372.00
836.9730, 94956.00
838.1080, 95593.00
839.2430, 95944.00
840.3780, 96256.00
841.5130, 96789.00
842.6470, 96844.00
843.7810, 96899.00
844.9150, 96693.00
846.0490, 96545.00
847.1830, 96080.00
848.3170, 96869.00
849.4500, 95908.00
850.5830, 96189.00
851.7160, 95807.00
852.8490, 95759.00
853.9820, 95207.00
855.1150, 95220.00
856.2470, 95182.00
857.3800, 94589.00
858.5120, 94813.00
859.6440, 94587.00
860.7760, 94371.00
861.9070, 94656.00
863.0390, 94132.00
864.1700, 94231.00
865.3010, 94180.00
866.4320, 94181.62
867.5630, 94260.84
868.6940, 94412.00
869.8240, 94417.00
870.9540, 94408.00
872.0850, 94535.00
873.2150, 94766.00
874.3450, 95095.00
875.4740, 95020.00
876.6040, 95080.00
877.7330, 94915.00
878.8620, 94909.00
879.9910, 95288.00
881.1200, 95251.00
882.2490, 95235.00
883.3770, 95288.10
884.5060, 95141.00
885.6340, 95203.00
886.7620, 94848.00
887.8900, 94883.00
889.0180, 95074.00
890.1450, 95358.00
891.2730, 95116.00
892.4000, 94892.00
893.5270, 95054.00
894.6540, 94947.00
895.7810, 95583.00
896.9070, 95209.00
898.0340, 95441.00
899.1600, 95113.00
900.2860, 95528.00
901.4120, 95395.00
902.5380, 95479.00
903.6630, 95608.00
904.7890, 95222.00
905.9140, 95596.00
907.0390, 95229.00
908.1640, 95553.00
909.2890, 95637.00
910.4130, 95626.00
911.5380, 95598.00
912.6620, 95697.00
913.7860, 95748.41
914.9100, 95711.00
916.0340, 95947.00
917.1580, 96380.00
918.2810, 96492.00
919.4040, 96674.00
920.5280, 96169.00
921.6510, 95880.00
922.7730, 96288.00
923.8960, 96866.00
925.0180, 96690.00
926.1410, 96643.00
927.2630, 97090.00
928.3850, 96778.00
929.5070, 97439.00
930.6280, 97255.00
931.7500, 97352.00
932.8710, 97187.00
933.9920, 97580.00
935.1130, 97211.00
936.2340, 97807.00
937.3550, 98035.00
938.4760, 97369.00
939.5960, 97734.00
940.7160, 97466.00
941.8360, 97541.00
942.9560, 98343.00
944.0760, 98550.00
945.1950, 98461.00
946.3150, 98165.00
947.4340, 98449.00
948.5530, 98527.00
949.6720, 99411.00
950.7900, 99104.00
951.9090, 99129.00
953.0270, 100027.0
954.1460, 99757.00
955.2640, 100264.0
956.3820, 100310.0
957.4990, 101089.0
958.6170, 101211.0
959.7340, 101363.0
960.8520, 101940.0
961.9690, 102166.0
963.0860, 102797.0
964.2020, 103671.0
965.3190, 103858.0
966.4350, 104090.0
967.5520, 103249.0
968.6680, 104020.0
969.7840, 103385.0
970.8990, 103587.0
972.0150, 103231.0
973.1310, 103483.0
974.2460, 102869.0
975.3610, 102718.0
976.4760, 102419.0
977.5910, 102258.0
978.7050, 102423.0
979.8200, 102519.0
980.9340, 101994.0
982.0480, 102083.0
983.1620, 101870.0
984.2760, 102377.0
985.3900, 102490.0
986.5030, 102089.0
987.6160, 101999.0
988.7300, 102287.0
989.8430, 102709.0
990.9550, 102724.4
992.0680, 102698.0
993.1810, 102985.0
994.2930, 102846.0
995.4050, 102839.0
996.5170, 102708.0
997.6290, 103144.0
998.7410, 102951.0
999.8520, 103126.0
1000.964, 103011.0
1002.075, 103149.0
1003.186, 103236.0
1004.297, 103227.6
1005.407, 103278.0
1006.518, 103353.0
1007.628, 103355.0
1008.738, 103518.0
1009.848, 103116.0
1010.958, 103684.3
1012.068, 103543.2
1013.178, 104352.0
1014.287, 103733.0
1015.396, 103417.0
1016.505, 103618.0
1017.614, 103847.0
1018.723, 104441.0
1019.831, 104312.0
1020.940, 104885.0
1022.048, 104356.0
1023.156, 104559.0
1024.264, 105145.0
1025.372, 104562.0
1026.479, 105703.0
1027.587, 105368.0
1028.694, 105376.0
1029.801, 105386.0
1030.908, 105406.0
1032.015, 106062.0
1033.121, 105326.0
1034.228, 105945.0
1035.334, 105723.0
1036.440, 106028.0
1037.546, 105945.0
1038.652, 105852.0
1039.758, 106612.0
1040.863, 106505.0
1041.968, 106450.0
1043.074, 106028.0
1044.178, 107074.0
1045.283, 107136.0
1046.388, 106882.0
1047.492, 107136.0
1048.597, 107056.0
1049.701, 107548.0
1050.805, 107332.0
1051.909, 107825.0
1053.012, 107964.0
1054.116, 108163.2
1055.219, 108234.5
1056.322, 108642.0
1057.425, 108840.2
1058.528, 109161.9
1059.631, 109434.0
1060.733, 109720.0
1061.836, 110019.0
1062.938, 110010.0
1064.040, 110821.0
1065.142, 110390.0
1066.243, 111097.0
1067.345, 111281.0
1068.446, 112323.0
1069.547, 112137.0
1070.648, 113500.0
1071.749, 114228.0
1072.850, 114401.0
1073.951, 115649.0
1075.051, 115860.0
1076.151, 117604.0
1077.251, 118559.0
1078.351, 119206.0
1079.451, 120776.0
1080.550, 121028.0
1081.650, 121995.0
1082.749, 122477.0
1083.848, 123399.0
1084.947, 123412.0
1086.046, 123761.0
1087.144, 123656.0
1088.243, 123285.7
1089.341, 122865.0
1090.439, 121986.0
1091.537, 121497.0
1092.635, 120282.0
1093.732, 119785.0
1094.830, 119409.0
1095.927, 117815.0
1097.024, 117733.0
1098.121, 117776.0
1099.218, 116686.0
1100.314, 117218.0
1101.411, 115840.0
1102.507, 116239.0
1103.603, 115443.0
1104.699, 115133.0
1105.795, 114921.0
1106.890, 114807.0
1107.986, 114754.0
1109.081, 114486.0
1110.176, 114859.0
1111.271, 114464.0
1112.366, 115191.0
1113.461, 115117.0
1114.555, 114060.0
1115.649, 114989.0
1116.744, 114246.0
1117.838, 114724.0
1118.931, 114844.0
1120.025, 114319.0
1121.119, 114915.0
1122.212, 114901.0
1123.305, 115214.0
1124.398, 115056.0
1125.491, 115187.7
1126.584, 115401.0
1127.676, 115129.0
1128.768, 115532.0
1129.861, 115221.0
1130.953, 115469.0
1132.044, 115961.0
1133.136, 115726.0
1134.228, 116067.0
1135.319, 115878.0
1136.410, 115898.0
1137.501, 116155.0
1138.592, 116273.0
1139.683, 116634.0
1140.773, 116229.0
1141.864, 116581.0
1142.954, 116641.0
1144.044, 117186.0
1145.134, 116714.0
1146.224, 117085.0
1147.313, 117069.0
1148.402, 117155.0
1149.492, 117608.0
1150.581, 117320.0
1151.670, 117487.0
1152.758, 117957.0
1153.847, 117861.0
1154.935, 117923.0
1156.024, 117521.0
1157.112, 117630.0
1158.200, 117782.2
1159.287, 117636.0
1160.375, 118382.0
1161.462, 117770.0
1162.550, 118181.0
1163.637, 117946.0
1164.724, 118031.0
1165.810, 118321.0
1166.897, 118144.0
1167.983, 118625.0
1169.070, 118071.0
1170.156, 117953.0
1171.242, 118297.0
1172.327, 117864.0
1173.413, 118726.0
1174.499, 118086.0
1175.584, 118497.0
1176.669, 118182.0
1177.754, 118479.0
1178.839, 118736.0
1179.923, 118709.0
1181.008, 119151.0
1182.092, 118556.0
1183.176, 118982.0
1184.260, 118974.0
1185.344, 118718.0
1186.428, 119414.0
1187.511, 119104.0
1188.595, 118993.0
1189.678, 119397.0
1190.761, 119739.0
1191.843, 119415.0
1192.926, 119542.0
1194.009, 119934.0
1195.091, 119408.0
1196.173, 119749.0
1197.255, 120136.0
1198.337, 119198.0
1199.419, 120261.0
1200.500, 120160.0
1201.582, 119978.0
1202.663, 120083.0
1203.744, 120571.0
1204.825, 121350.0
1205.905, 120607.0
1206.986, 120670.0
1208.066, 121393.0
1209.146, 120758.0
1210.226, 121885.0
1211.306, 121015.0
1212.386, 121990.0
1213.466, 121261.0
1214.545, 121735.0
1215.624, 121953.0
1216.703, 121850.0
1217.782, 122427.0
1218.861, 121958.0
1219.939, 121914.0
1221.018, 122424.0
1222.096, 122290.0
1223.174, 122994.0
1224.252, 122458.0
1225.330, 122634.0
1226.407, 122913.0
1227.485, 122975.0
1228.562, 123434.0
1229.639, 123206.0
1230.716, 123577.0
1231.793, 123306.0
1232.869, 123744.0
1233.946, 123419.0
1235.022, 123466.0
1236.098, 124210.0
1237.174, 124000.0
1238.250, 124410.0
1239.325, 124892.0
1240.401, 124572.0
1241.476, 124638.0
1242.551, 125042.0
1243.626, 125676.0
