##NAMES=Colemanite
##RRUFFID=R050102
##IDEAL CHEMISTRY=CaB_3_O_4_(OH)_3_&#183;H_2_O
##LOCALITY=Kramer deposit, Boron, Kern County, California, USA
##OWNER=RRUFF
##SOURCE=Rock Currier
##DESCRIPTION=Colorless prismatic to tabular crystals
##STATUS=The identification of this mineral has been confirmed by X-ray diffraction and chemical analysis
##URL=rruff.info/R050102
##MEASURED CHEMISTRY=Ca_1.00_B_3.00_O_4_(OH)_3_Â·H_2_O ; trace amounts of Na; B assumed by stoichiometry and charge balance.
##PIN_ID=L00407
##ORIENTATION=Laser parallel to c* (0 0 1). Fiducial mark perpendicular to laser is parallel to a [1 0 0]
63.56100, 865.0000
64.80100, 918.0000
66.04100, 899.0000
67.28100, 1092.000
68.52100, 1079.000
69.76100, 1264.000
71.00100, 1350.000
72.24000, 1614.000
73.47900, 1869.000
74.71800, 2236.000
75.95700, 2760.000
77.19600, 3581.000
78.43500, 4431.000
79.67300, 5389.000
80.91200, 6630.000
82.15000, 8084.000
83.38800, 9642.000
84.62600, 11546.00
85.86300, 13579.00
87.10100, 15901.00
88.33800, 18283.00
89.57500, 20653.00
90.81200, 22990.00
92.04900, 24887.00
93.28600, 26899.00
94.52300, 29120.00
95.75900, 30955.00
96.99500, 32958.00
98.23100, 35256.00
99.46700, 37309.00
100.7030, 39737.00
101.9390, 41581.00
103.1740, 42599.00
104.4090, 43511.00
105.6440, 43613.00
106.8790, 43586.00
108.1140, 43050.00
109.3490, 42829.00
110.5830, 42578.00
111.8180, 42627.00
113.0520, 42243.00
114.2860, 42047.00
115.5200, 42149.00
116.7530, 41763.00
117.9870, 41790.00
119.2200, 41535.00
120.4530, 41055.00
121.6860, 41264.00
122.9190, 41185.00
124.1520, 41362.00
125.3850, 41507.00
126.6170, 42043.00
127.8490, 42714.00
129.0810, 44093.00
130.3130, 43762.00
131.5450, 44086.00
132.7770, 44033.91
134.0080, 44102.00
135.2390, 43528.00
136.4710, 43318.00
137.7020, 43468.00
138.9320, 43193.00
140.1630, 43388.00
141.3930, 43221.00
142.6240, 43558.00
143.8540, 43834.00
145.0840, 43999.00
146.3140, 44268.00
147.5440, 44518.00
148.7730, 44587.00
150.0020, 44453.00
151.2320, 44248.00
152.4610, 44148.00
153.6900, 43765.00
154.9180, 43767.00
156.1470, 43481.00
157.3750, 43332.00
158.6040, 43748.00
159.8320, 44110.00
161.0600, 43908.00
162.2870, 44383.00
163.5150, 44717.00
164.7420, 45286.00
165.9700, 45819.00
167.1970, 46694.00
168.4240, 47499.00
169.6510, 48624.00
170.8770, 49727.00
172.1040, 51123.00
173.3300, 51988.00
174.5560, 52877.00
175.7820, 54386.00
177.0080, 54837.00
178.2340, 54533.00
179.4590, 53863.00
180.6850, 52508.00
181.9100, 51396.00
183.1350, 49864.00
184.3600, 48620.00
185.5850, 47156.00
186.8090, 46194.00
188.0340, 44963.00
189.2580, 44379.00
190.4820, 43816.00
191.7060, 43088.00
192.9300, 42919.00
194.1530, 42499.00
195.3770, 42498.00
196.6000, 42322.00
197.8230, 42353.00
199.0460, 42256.00
200.2690, 42273.00
201.4910, 42363.00
202.7140, 42460.00
203.9360, 42472.00
205.1580, 42595.00
206.3800, 42843.43
207.6020, 43212.00
208.8240, 43382.00
210.0450, 43770.00
211.2670, 43954.00
212.4880, 44306.00
213.7090, 44796.00
214.9300, 45219.00
216.1510, 45967.00
217.3710, 46562.00
218.5920, 47386.00
219.8120, 48238.00
221.0320, 48807.00
222.2520, 49179.00
223.4720, 49371.00
224.6910, 49409.00
225.9110, 49271.00
227.1300, 48988.00
228.3490, 49081.00
229.5680, 49103.00
230.7870, 48555.00
232.0050, 49013.00
233.2240, 48675.00
234.4420, 48769.00
235.6600, 49278.00
236.8780, 49271.00
238.0960, 49509.00
239.3140, 49700.00
240.5310, 49614.00
241.7490, 50071.00
242.9660, 49789.00
244.1830, 50250.00
245.4000, 49737.00
246.6160, 49839.00
247.8330, 49928.00
249.0490, 49625.00
250.2660, 49972.27
251.4820, 50017.33
252.6980, 50498.00
253.9130, 50408.00
255.1290, 50782.00
256.3440, 50976.00
257.5600, 51286.00
258.7750, 51625.00
259.9900, 52193.00
261.2040, 52503.00
262.4190, 52853.00
263.6330, 52766.00
264.8480, 52981.00
266.0620, 52878.00
267.2760, 52797.00
268.4900, 52383.00
269.7030, 52482.00
270.9170, 51859.00
272.1300, 51736.00
273.3430, 51119.00
274.5560, 51039.00
275.7690, 50633.00
276.9820, 50258.00
278.1940, 50234.00
279.4070, 49495.00
280.6190, 49535.00
281.8310, 49221.00
283.0430, 48792.00
284.2550, 49137.00
285.4660, 48965.00
286.6770, 49095.00
287.8890, 49251.00
289.1000, 49258.00
290.3110, 49561.00
291.5210, 49453.00
292.7320, 49737.00
293.9420, 49878.00
295.1530, 50590.00
296.3630, 50829.00
297.5730, 51263.00
298.7830, 51520.00
299.9920, 52088.00
301.2020, 52497.00
302.4110, 52947.00
303.6200, 53374.00
304.8290, 54127.00
306.0380, 54316.00
307.2470, 54787.00
308.4550, 55395.00
309.6630, 55555.00
310.8720, 55637.00
312.0800, 55420.00
313.2880, 55071.00
314.4950, 54722.00
315.7030, 54979.00
316.9100, 54741.00
318.1170, 54910.00
319.3240, 55296.00
320.5310, 55518.00
321.7380, 55930.00
322.9450, 55724.00
324.1510, 55751.00
325.3570, 55635.00
326.5630, 55872.00
327.7690, 55679.00
328.9750, 55139.00
330.1810, 54686.00
331.3860, 54299.00
332.5910, 53875.00
333.7960, 53503.00
335.0010, 52907.00
336.2060, 52683.00
337.4110, 52407.00
338.6150, 52223.00
339.8200, 52355.00
341.0240, 52135.00
342.2280, 52201.00
343.4320, 51780.00
344.6350, 52029.00
345.8390, 51723.00
347.0420, 51986.00
348.2450, 51844.00
349.4480, 52081.00
350.6510, 51841.00
351.8540, 51804.00
353.0560, 51583.00
354.2590, 51646.00
355.4610, 51578.00
356.6630, 52031.00
357.8650, 51948.00
359.0670, 52022.00
360.2680, 51935.00
361.4700, 51861.00
362.6710, 52157.00
363.8720, 52353.00
365.0730, 52317.00
366.2740, 52572.00
367.4740, 52550.00
368.6750, 52779.00
369.8750, 52648.00
371.0750, 52794.00
372.2750, 53047.00
373.4750, 53054.00
374.6740, 53176.27
375.8740, 53008.00
377.0730, 53398.00
378.2720, 53580.00
379.4710, 53961.00
380.6700, 54214.00
381.8690, 54485.08
383.0670, 54747.00
384.2660, 54977.00
385.4640, 55388.00
386.6620, 55516.00
387.8600, 55562.00
389.0570, 55760.00
390.2550, 55550.00
391.4520, 55181.00
392.6490, 55201.00
393.8460, 55328.00
395.0430, 54646.00
396.2400, 54963.00
397.4370, 54977.00
398.6330, 54954.00
399.8290, 54786.00
401.0250, 54516.00
402.2210, 54418.00
403.4170, 54566.00
404.6130, 54559.00
405.8080, 54802.00
407.0030, 54646.32
408.1980, 54691.27
409.3930, 54460.00
410.5880, 54526.00
411.7830, 54623.00
412.9770, 54388.00
414.1720, 54525.00
415.3660, 54893.00
416.5600, 54339.00
417.7530, 54694.00
418.9470, 54757.00
420.1410, 54567.00
421.3340, 54852.00
422.5270, 54804.00
423.7200, 55192.00
424.9130, 55214.00
426.1060, 55381.00
427.2980, 55060.00
428.4900, 55790.00
429.6830, 55468.00
430.8750, 55783.00
432.0670, 55846.00
433.2580, 55859.00
434.4500, 55751.00
435.6410, 56411.00
436.8320, 56059.00
438.0240, 56622.00
439.2140, 56380.00
440.4050, 56723.00
441.5960, 57031.00
442.7860, 56958.00
443.9760, 57273.00
445.1670, 57482.00
446.3560, 58102.00
447.5460, 58286.00
448.7360, 58776.00
449.9250, 59545.00
451.1150, 60174.00
452.3040, 60660.00
453.4930, 61031.00
454.6810, 61415.00
455.8700, 61791.00
457.0590, 62090.00
458.2470, 61392.00
459.4350, 61223.00
460.6230, 61126.00
461.8110, 60480.00
462.9980, 60109.00
464.1860, 59567.00
465.3730, 59449.00
466.5600, 59604.00
467.7470, 59607.00
468.9340, 59674.00
470.1210, 59744.00
471.3080, 60013.40
472.4940, 60333.00
473.6800, 60734.00
474.8660, 61186.00
476.0520, 61741.00
477.2380, 61800.00
478.4230, 62496.00
479.6090, 62213.00
480.7940, 62763.00
481.9790, 62434.00
483.1640, 62545.00
484.3490, 62258.00
485.5330, 62072.00
486.7180, 61625.00
487.9020, 61183.00
489.0860, 61011.00
490.2700, 60734.00
491.4540, 60645.00
492.6370, 60505.00
493.8210, 60703.00
495.0040, 61099.00
496.1870, 60992.00
497.3700, 60788.00
498.5530, 61195.00
499.7360, 60879.00
500.9180, 61069.00
502.1000, 61215.00
503.2830, 61550.00
504.4650, 61849.00
505.6460, 61949.00
506.8280, 62231.94
508.0100, 62763.00
509.1910, 62616.00
510.3720, 62846.00
511.5530, 63027.00
512.7340, 62951.00
513.9150, 63160.00
515.0950, 63177.00
516.2760, 62604.00
517.4560, 63270.00
518.6360, 62591.00
519.8160, 63004.00
520.9950, 62699.00
522.1750, 62731.00
523.3540, 62982.00
524.5340, 63242.00
525.7130, 63558.00
526.8920, 63771.04
528.0700, 64162.00
529.2490, 64148.00
530.4270, 64485.00
531.6060, 64501.00
532.7840, 65214.00
533.9620, 65589.00
535.1390, 66188.00
536.3170, 66510.00
537.4940, 67112.00
538.6720, 67805.00
539.8490, 68155.00
541.0260, 68586.04
542.2030, 69457.00
543.3790, 69211.00
544.5560, 69355.00
545.7320, 69702.00
546.9080, 69264.00
548.0840, 69411.00
549.2600, 69039.00
550.4360, 69240.00
551.6110, 69452.00
552.7860, 69874.00
553.9620, 70711.00
555.1370, 71922.00
556.3110, 73181.00
557.4860, 75172.00
558.6610, 77109.00
559.8350, 79877.00
561.0090, 82461.00
562.1830, 85832.00
563.3570, 88042.00
564.5310, 90125.00
565.7040, 90690.00
566.8780, 90425.00
568.0510, 88258.00
569.2240, 85971.00
570.3970, 83605.00
571.5700, 80844.00
572.7420, 79333.00
573.9150, 77624.00
575.0870, 76630.00
576.2590, 75517.00
577.4310, 74855.00
578.6030, 74027.00
579.7740, 73426.00
580.9460, 72612.00
582.1170, 72150.95
583.2880, 71849.92
584.4590, 71266.00
585.6300, 71606.00
586.8010, 71247.00
587.9710, 71343.00
589.1410, 71542.00
590.3110, 71645.00
591.4810, 71869.00
592.6510, 72446.00
593.8210, 72967.00
594.9900, 73977.00
596.1600, 74918.00
597.3290, 75762.00
598.4980, 77381.00
599.6670, 79067.00
600.8350, 81729.00
602.0040, 84869.00
603.1720, 89178.00
604.3400, 94126.00
605.5080, 99356.00
606.6760, 105361.0
607.8440, 112184.0
609.0120, 117771.0
610.1790, 122209.0
611.3460, 124196.0
612.5130, 122808.0
613.6800, 118036.0
614.8470, 111605.0
616.0130, 104158.0
617.1800, 97718.00
618.3460, 91684.00
619.5120, 86966.00
620.6780, 83217.00
621.8440, 80773.00
623.0090, 78730.00
624.1750, 76776.00
625.3400, 75723.00
626.5050, 74803.00
627.6700, 74137.00
628.8350, 73437.00
629.9990, 72461.00
631.1640, 72601.00
632.3280, 71834.00
633.4920, 72040.00
634.6560, 72026.00
635.8200, 72028.00
636.9840, 71641.00
638.1470, 71611.00
639.3100, 71414.00
640.4730, 71361.00
641.6360, 71315.00
642.7990, 71484.00
643.9620, 71493.00
645.1240, 71610.00
646.2870, 71632.27
647.4490, 71939.00
648.6110, 71689.00
649.7730, 71742.00
650.9340, 71850.00
652.0960, 72173.00
653.2570, 72246.00
654.4180, 72711.00
655.5790, 72278.00
656.7400, 72966.00
657.9010, 73125.00
659.0620, 73568.00
660.2220, 73983.00
661.3820, 74658.00
662.5420, 75367.00
663.7020, 76512.00
664.8620, 77069.00
666.0210, 78170.00
667.1810, 78670.00
668.3400, 79787.00
669.4990, 80345.00
670.6580, 80858.00
671.8170, 80171.00
672.9750, 79635.00
674.1340, 78810.00
675.2920, 78116.00
676.4500, 77570.00
677.6080, 76871.00
678.7660, 76456.00
679.9230, 75863.00
681.0810, 75401.00
682.2380, 75307.00
683.3950, 75298.00
684.5520, 75456.00
685.7090, 75512.00
686.8660, 75252.00
688.0220, 75172.00
689.1780, 74970.00
690.3340, 75526.00
691.4900, 75347.00
692.6460, 75282.00
693.8020, 75592.00
694.9570, 75491.00
696.1130, 75738.00
697.2680, 75495.00
698.4230, 76010.00
699.5780, 76052.00
700.7320, 75812.00
701.8870, 76118.00
703.0410, 76030.00
704.1950, 76622.00
705.3490, 76361.00
706.5030, 76571.00
707.6570, 76544.00
708.8110, 77213.00
709.9640, 77469.00
711.1170, 77321.00
712.2700, 77299.00
713.4230, 77218.00
714.5760, 77314.00
715.7280, 77781.00
716.8810, 78129.00
718.0330, 77894.00
719.1850, 78190.00
720.3370, 78286.46
721.4890, 78276.89
722.6400, 78700.00
723.7920, 78484.00
724.9430, 78944.00
726.0940, 79290.00
727.2450, 79315.00
728.3960, 79822.00
729.5460, 80236.00
730.6970, 80624.00
731.8470, 81111.00
732.9970, 82502.00
734.1470, 83567.00
735.2970, 84853.00
736.4460, 85975.00
737.5960, 87767.00
738.7450, 89429.00
739.8940, 91287.00
741.0430, 92579.00
742.1920, 94392.00
743.3410, 96101.00
744.4890, 96622.00
745.6370, 96877.00
746.7850, 96420.00
747.9330, 95250.00
749.0810, 93003.00
750.2290, 91828.00
751.3760, 90232.00
752.5240, 88188.00
753.6710, 86737.00
754.8180, 85371.00
755.9650, 84623.00
757.1110, 83831.00
758.2580, 83330.00
759.4040, 82346.00
760.5510, 81949.00
761.6970, 82095.00
762.8420, 81579.00
763.9880, 81846.00
765.1340, 81021.00
766.2790, 81532.00
767.4240, 81280.00
768.5690, 81243.00
769.7140, 81328.00
770.8590, 81537.00
772.0030, 81612.00
773.1480, 81759.23
774.2920, 81611.00
775.4360, 82118.00
776.5800, 82086.00
777.7240, 82458.00
778.8670, 82765.00
780.0110, 83317.00
781.1540, 84123.00
782.2970, 84495.00
783.4400, 85384.00
784.5830, 86466.00
785.7250, 86674.00
786.8680, 87012.00
788.0100, 87914.00
789.1520, 87841.00
790.2940, 87536.00
791.4360, 86996.00
792.5780, 86435.00
793.7190, 85921.00
794.8600, 85276.49
796.0010, 84941.07
797.1420, 84591.35
798.2830, 84231.00
799.4240, 84185.00
800.5640, 83814.00
801.7050, 83764.00
802.8450, 83673.00
803.9850, 84135.00
805.1250, 83878.00
806.2640, 84139.00
807.4040, 83628.00
808.5430, 84223.00
809.6820, 84481.00
810.8210, 84678.00
811.9600, 85044.00
813.0990, 85170.53
814.2370, 85315.96
815.3760, 85416.00
816.5140, 85476.00
817.6520, 85431.48
818.7900, 85478.00
819.9270, 85162.00
821.0650, 84996.00
822.2020, 84888.00
823.3390, 85297.00
824.4760, 85483.00
825.6130, 85640.00
826.7500, 85875.00
827.8870, 85889.00
829.0230, 85993.00
830.1590, 86895.00
831.2950, 86759.00
832.4310, 87329.00
833.5670, 87106.00
834.7030, 88172.00
835.8380, 88106.00
836.9730, 88782.00
838.1080, 88815.00
839.2430, 89144.00
840.3780, 89800.00
841.5130, 89760.00
842.6470, 89808.00
843.7810, 89812.00
844.9150, 89902.00
846.0490, 89694.00
847.1830, 89678.00
848.3170, 89757.00
849.4500, 89850.00
850.5830, 89956.00
851.7160, 89084.00
852.8490, 89580.00
853.9820, 89649.00
855.1150, 89291.00
856.2470, 89873.00
857.3800, 89364.00
858.5120, 89473.00
859.6440, 89554.00
860.7760, 89573.00
861.9070, 89980.00
863.0390, 89837.00
864.1700, 89900.00
865.3010, 89916.00
866.4320, 90525.00
867.5630, 90206.00
868.6940, 90851.00
869.8240, 91016.00
870.9540, 91537.00
872.0850, 91668.00
873.2150, 91676.00
874.3450, 91935.00
875.4740, 92462.00
876.6040, 92913.00
877.7330, 92709.00
878.8620, 92822.00
879.9910, 92814.00
881.1200, 92914.00
882.2490, 93889.00
883.3770, 93409.00
884.5060, 93289.00
885.6340, 92840.00
886.7620, 92330.00
887.8900, 93088.00
889.0180, 91890.00
890.1450, 92622.00
891.2730, 92344.00
892.4000, 92270.00
893.5270, 92286.00
894.6540, 91734.00
895.7810, 92031.00
896.9070, 92018.00
898.0340, 92147.00
899.1600, 91841.00
900.2860, 91766.00
901.4120, 91804.00
902.5380, 91932.00
903.6630, 91745.00
904.7890, 91738.00
905.9140, 92115.00
907.0390, 91769.00
908.1640, 91983.00
909.2890, 92028.00
910.4130, 92271.00
911.5380, 92333.00
912.6620, 92315.00
913.7860, 92450.67
914.9100, 92220.00
916.0340, 92472.00
917.1580, 92535.00
918.2810, 92356.00
919.4040, 92517.00
920.5280, 92632.00
921.6510, 92782.00
922.7730, 92892.00
923.8960, 93017.00
925.0180, 92807.00
926.1410, 93601.00
927.2630, 93225.00
928.3850, 93067.00
929.5070, 93736.00
930.6280, 93612.00
931.7500, 93823.00
932.8710, 93803.00
933.9920, 93807.00
935.1130, 93696.00
936.2340, 93970.00
937.3550, 94054.00
938.4760, 94017.00
939.5960, 94453.00
940.7160, 94335.00
941.8360, 94434.00
942.9560, 94946.00
944.0760, 94435.00
945.1950, 95111.00
946.3150, 94992.00
947.4340, 95166.00
948.5530, 95402.00
949.6720, 95327.00
950.7900, 95622.89
951.9090, 95800.00
953.0270, 95974.00
954.1460, 96220.00
955.2640, 96255.00
956.3820, 96408.00
957.4990, 96493.00
958.6170, 97196.00
959.7340, 97822.00
960.8520, 98355.00
961.9690, 98496.00
963.0860, 98849.00
964.2020, 98979.00
965.3190, 99348.00
966.4350, 99793.00
967.5520, 99543.00
968.6680, 100141.0
969.7840, 99723.00
970.8990, 99718.00
972.0150, 100128.0
973.1310, 99427.00
974.2460, 99465.00
975.3610, 99752.00
976.4760, 99899.00
977.5910, 99653.00
978.7050, 99369.00
979.8200, 99677.00
980.9340, 99587.00
982.0480, 100117.0
983.1620, 99705.00
984.2760, 99879.00
985.3900, 100106.0
986.5030, 100247.0
987.6160, 100837.0
988.7300, 100503.0
989.8430, 100948.0
990.9550, 100730.0
992.0680, 101595.0
993.1810, 102087.0
994.2930, 101673.0
995.4050, 101873.0
996.5170, 102292.0
997.6290, 102796.0
998.7410, 102368.0
999.8520, 102909.0
1000.964, 102443.0
1002.075, 102552.0
1003.186, 102685.0
1004.297, 102621.0
1005.407, 102806.0
1006.518, 102189.0
1007.628, 102362.0
1008.738, 102229.0
1009.848, 101663.0
1010.958, 102188.0
1012.068, 101728.0
1013.178, 102131.0
1014.287, 102071.0
1015.396, 102180.0
1016.505, 101822.0
1017.614, 102203.0
1018.723, 101854.0
1019.831, 101916.0
1020.940, 102050.0
1022.048, 101905.0
1023.156, 102468.0
1024.264, 102498.0
1025.372, 102563.0
1026.479, 102670.0
1027.587, 102775.0
1028.694, 102717.0
1029.801, 102926.0
1030.908, 103071.0
1032.015, 103060.0
1033.121, 103205.0
1034.228, 103481.0
1035.334, 103382.0
1036.440, 103630.0
1037.546, 103796.0
1038.652, 103617.0
1039.758, 104285.0
1040.863, 104386.0
1041.968, 104738.0
1043.074, 104374.0
1044.178, 104321.0
1045.283, 105259.0
1046.388, 105079.0
1047.492, 105764.0
1048.597, 105836.0
1049.701, 106228.0
1050.805, 106146.0
1051.909, 106796.0
1053.012, 107300.0
1054.116, 107725.0
1055.219, 108060.0
1056.322, 109142.0
1057.425, 109283.0
1058.528, 109936.0
1059.631, 110300.0
1060.733, 110872.0
1061.836, 111335.0
1062.938, 111500.0
1064.040, 111330.0
1065.142, 112072.0
1066.243, 111825.0
1067.345, 112185.2
1068.446, 112424.7
1069.547, 112580.0
1070.648, 112658.1
1071.749, 112714.5
1072.850, 112789.2
1073.951, 112851.2
1075.051, 112863.6
1076.151, 112932.9
1077.251, 112958.0
1078.351, 112904.0
1079.451, 113205.0
1080.550, 113121.0
1081.650, 113772.0
1082.749, 113584.4
1083.848, 114015.0
1084.947, 113610.0
1086.046, 113761.0
1087.144, 114090.0
1088.243, 113631.0
1089.341, 113747.0
1090.439, 113456.0
1091.537, 113447.0
1092.635, 112928.0
1093.732, 113034.0
1094.830, 112940.0
1095.927, 111985.0
1097.024, 112027.0
1098.121, 112176.0
1099.218, 111884.0
1100.314, 111855.0
1101.411, 111959.0
1102.507, 112031.0
1103.603, 111962.1
1104.699, 112012.0
1105.795, 111945.0
1106.890, 111733.0
1107.986, 111924.0
1109.081, 111820.0
1110.176, 112307.0
1111.271, 112538.0
1112.366, 112302.0
1113.461, 112128.0
1114.555, 112198.0
1115.649, 112632.0
1116.744, 112823.0
1117.838, 112731.0
1118.931, 112386.0
1120.025, 113269.0
1121.119, 113631.0
1122.212, 113183.0
1123.305, 113817.0
1124.398, 113804.0
1125.491, 113873.0
1126.584, 114302.0
1127.676, 113890.0
1128.768, 114393.0
1129.861, 114343.0
1130.953, 114816.0
1132.044, 115554.0
1133.136, 115484.0
1134.228, 115476.0
1135.319, 115375.0
1136.410, 116087.0
1137.501, 116580.0
1138.592, 116082.0
1139.683, 116824.0
1140.773, 116499.0
1141.864, 117019.0
1142.954, 116358.0
1144.044, 117489.0
1145.134, 117243.0
1146.224, 116961.0
1147.313, 117237.0
1148.402, 117549.0
1149.492, 117966.0
1150.581, 118565.0
1151.670, 118247.0
1152.758, 118370.0
1153.847, 118141.0
1154.935, 118603.0
1156.024, 118379.0
1157.112, 118231.0
1158.200, 118706.0
1159.287, 118402.0
1160.375, 118514.0
1161.462, 118253.0
1162.550, 118538.0
1163.637, 118577.0
1164.724, 118707.0
1165.810, 118900.0
1166.897, 118835.0
1167.983, 118860.0
1169.070, 118225.0
1170.156, 118515.0
1171.242, 118029.0
1172.327, 118460.0
1173.413, 118498.0
1174.499, 118470.0
1175.584, 118069.0
1176.669, 118547.0
1177.754, 118475.0
1178.839, 118026.0
1179.923, 118179.0
1181.008, 118530.0
1182.092, 118214.0
1183.176, 118518.0
1184.260, 118392.0
1185.344, 118139.0
1186.428, 118757.0
1187.511, 118455.0
1188.595, 118192.0
1189.678, 118994.0
1190.761, 118184.0
1191.843, 119031.0
1192.926, 118852.0
1194.009, 118865.0
1195.091, 119108.0
1196.173, 119141.0
1197.255, 119280.0
1198.337, 119339.0
1199.419, 119539.0
1200.500, 119307.0
1201.582, 119781.0
1202.663, 119924.0
1203.744, 119681.0
1204.825, 120255.0
1205.905, 120233.0
1206.986, 120438.0
1208.066, 120323.0
1209.146, 120252.0
1210.226, 120651.0
1211.306, 120765.8
1212.386, 121032.0
1213.466, 121313.0
1214.545, 121238.0
1215.624, 121249.0
1216.703, 121331.0
1217.782, 121109.0
1218.861, 121356.0
1219.939, 121934.0
1221.018, 121806.0
1222.096, 121925.0
1223.174, 122159.0
1224.252, 122256.0
1225.330, 121970.0
1226.407, 121724.0
1227.485, 122256.0
1228.562, 122883.0
1229.639, 122567.0
1230.716, 123150.0
1231.793, 122488.0
1232.869, 123865.0
1233.946, 123084.0
1235.022, 122764.0
1236.098, 123876.0
1237.174, 123677.0
1238.250, 124047.0
1239.325, 124001.0
1240.401, 124208.0
1241.476, 124475.0
1242.551, 124290.0
1243.626, 124770.0
