##NAMES=Corundum
##RRUFFID=R040096
##IDEAL CHEMISTRY=Al_2_O_3_
##LOCALITY=Sri Lanka
##OWNER=RRUFF
##SOURCE=University of Arizona Mineral Museum
##DESCRIPTION=Pale purple hexagonal prism
##STATUS=The identification of this mineral has been confirmed by X-ray diffraction and chemical analysis
##URL=rruff.info/R040096
##MEASURED CHEMISTRY=Al_2.00_O_3_
##PIN_ID=L01813
##ORIENTATION=Laser parallel to -c* (0 0 -1). Fiducial mark perpendicular to laser is parallel to a [1 0 0]
113.2080, 10647.00
114.4400, 10769.00
115.6710, 10797.00
116.9030, 10673.00
118.1340, 10820.00
119.3650, 10762.00
120.5960, 10883.00
121.8270, 11038.00
123.0580, 11001.00
124.2880, 10941.00
125.5190, 10998.00
126.7490, 11150.00
127.9790, 11165.00
129.2090, 11384.00
130.4390, 11183.00
131.6680, 11284.00
132.8980, 11214.00
134.1270, 11545.00
135.3560, 11309.00
136.5850, 11453.00
137.8140, 11623.00
139.0430, 11608.00
140.2710, 11592.00
141.5000, 11745.00
142.7280, 11647.00
143.9560, 11706.00
145.1840, 11624.00
146.4120, 11765.00
147.6390, 11746.00
148.8670, 11742.00
150.0940, 11809.49
151.3210, 11809.05
152.5490, 11876.00
153.7750, 11890.00
155.0020, 11933.00
156.2290, 12013.00
157.4550, 12022.00
158.6810, 12017.00
159.9080, 11949.00
161.1340, 12002.00
162.3590, 12050.00
163.5850, 12183.00
164.8110, 12085.00
166.0360, 12223.00
167.2610, 12288.00
168.4860, 12208.00
169.7110, 12247.00
170.9360, 12383.00
172.1610, 12456.00
173.3850, 12313.00
174.6100, 12416.00
175.8340, 12442.00
177.0580, 12503.00
178.2820, 12425.00
179.5050, 12526.00
180.7290, 12499.00
181.9520, 12471.00
183.1760, 12658.00
184.3990, 12634.00
185.6220, 12818.00
186.8450, 12731.00
188.0670, 12705.00
189.2900, 12925.00
190.5120, 12871.00
191.7340, 12788.00
192.9560, 12951.00
194.1780, 13122.00
195.4000, 13124.00
196.6220, 13008.00
197.8430, 13163.00
199.0640, 13242.00
200.2860, 13380.00
201.5070, 13189.00
202.7270, 13132.00
203.9480, 13008.00
205.1690, 13088.00
206.3890, 12876.00
207.6090, 13051.00
208.8290, 13011.00
210.0490, 12969.00
211.2690, 13096.00
212.4890, 13224.00
213.7080, 13391.00
214.9280, 13074.00
216.1470, 13139.00
217.3660, 13268.00
218.5850, 13179.00
219.8030, 13281.00
221.0220, 13462.00
222.2400, 13302.00
223.4590, 13496.00
224.6770, 13382.00
225.8950, 13509.00
227.1120, 13593.00
228.3300, 13483.00
229.5480, 13593.00
230.7650, 13489.00
231.9820, 13528.00
233.1990, 13492.00
234.4160, 13557.00
235.6330, 13546.00
236.8490, 13720.00
238.0660, 13685.00
239.2820, 13658.00
240.4980, 13610.00
241.7140, 13724.00
242.9300, 13743.00
244.1460, 13881.00
245.3610, 13735.00
246.5770, 13789.00
247.7920, 13846.00
249.0070, 13981.00
250.2220, 13892.00
251.4370, 13990.00
252.6510, 13967.00
253.8660, 14105.00
255.0800, 14167.00
256.2940, 14243.00
257.5080, 14279.89
258.7220, 14255.23
259.9360, 14288.00
261.1490, 14167.00
262.3630, 14119.00
263.5760, 14088.00
264.7890, 14307.00
266.0020, 14372.00
267.2150, 14231.00
268.4270, 14124.00
269.6400, 14399.00
270.8520, 14167.00
272.0640, 14272.00
273.2760, 14460.00
274.4880, 14352.00
275.7000, 14322.00
276.9120, 14823.00
278.1230, 14707.00
279.3340, 14554.00
280.5450, 14375.00
281.7560, 14389.56
282.9670, 14463.00
284.1780, 14462.00
285.3880, 14545.00
286.5980, 14572.52
287.8090, 14672.00
289.0190, 14668.00
290.2290, 14729.00
291.4380, 14823.00
292.6480, 14761.00
293.8570, 14865.00
295.0670, 14729.00
296.2760, 14956.00
297.4850, 14829.00
298.6930, 14678.00
299.9020, 14871.00
301.1110, 14977.00
302.3190, 14936.00
303.5270, 14973.00
304.7350, 15083.00
305.9430, 14976.00
307.1510, 15022.00
308.3580, 15134.00
309.5660, 15179.00
310.7730, 15137.00
311.9800, 15136.00
313.1870, 15147.00
314.3940, 15209.00
315.6010, 15389.00
316.8070, 15319.00
318.0130, 15324.00
319.2200, 15406.00
320.4260, 15342.00
321.6310, 15291.00
322.8370, 15494.00
324.0430, 15486.00
325.2480, 15474.00
326.4540, 15577.00
327.6590, 15564.00
328.8640, 15582.00
330.0680, 15606.00
331.2730, 15638.00
332.4780, 15605.00
333.6820, 15637.00
334.8860, 15663.82
336.0900, 15680.50
337.2940, 15733.00
338.4980, 15744.00
339.7010, 15767.00
340.9050, 15786.00
342.1080, 15937.00
343.3110, 15872.00
344.5140, 15821.00
345.7170, 16034.00
346.9200, 15975.00
348.1220, 15872.00
349.3240, 16014.00
350.5270, 16041.00
351.7290, 16007.00
352.9310, 15965.00
354.1320, 16064.00
355.3340, 16123.00
356.5350, 16119.00
357.7370, 16265.00
358.9380, 16239.00
360.1390, 16218.00
361.3400, 16304.00
362.5400, 16397.00
363.7410, 16336.00
364.9410, 16465.00
366.1410, 16462.00
367.3410, 16662.00
368.5410, 16640.00
369.7410, 16964.00
370.9400, 16803.00
372.1400, 16971.00
373.3390, 17094.00
374.5380, 17134.00
375.7370, 17240.00
376.9360, 17155.00
378.1350, 16933.00
379.3330, 17097.00
380.5310, 17209.00
381.7300, 16948.00
382.9280, 16917.00
384.1260, 16927.00
385.3230, 16993.00
386.5210, 16874.00
387.7180, 16827.00
388.9160, 16975.00
390.1130, 16900.00
391.3100, 17098.00
392.5060, 17042.00
393.7030, 17178.00
394.9000, 17168.00
396.0960, 17092.00
397.2920, 17151.00
398.4880, 17233.00
399.6840, 17326.00
400.8800, 17352.00
402.0750, 17557.00
403.2710, 17834.00
404.4660, 18153.00
405.6610, 19090.00
406.8560, 20471.00
408.0510, 21685.00
409.2450, 22079.00
410.4400, 22998.07
411.6340, 22827.00
412.8280, 23598.00
414.0220, 23762.00
415.2160, 23078.00
416.4100, 22430.00
417.6030, 21778.50
418.7970, 21259.00
419.9900, 20063.00
421.1830, 19492.00
422.3760, 18916.00
423.5690, 18461.00
424.7610, 18273.00
425.9540, 18372.00
427.1460, 18256.00
428.3380, 18427.00
429.5300, 18288.00
430.7220, 18277.00
431.9140, 18318.00
433.1050, 18114.00
434.2970, 18120.00
435.4880, 18154.00
436.6790, 18197.00
437.8700, 18225.00
439.0610, 18193.00
440.2510, 18483.00
441.4420, 18418.00
442.6320, 18395.00
443.8220, 18646.00
445.0120, 18653.00
446.2020, 18553.00
447.3910, 18594.00
448.5810, 18656.00
449.7700, 18421.00
450.9600, 18348.00
452.1490, 18386.00
453.3370, 18656.00
454.5260, 18402.00
455.7150, 18475.00
456.9030, 18471.00
458.0910, 18412.00
459.2800, 18382.00
460.4670, 18477.00
461.6550, 18450.00
462.8430, 18371.00
464.0300, 18549.00
465.2180, 18587.00
466.4050, 18504.00
467.5920, 18691.00
468.7790, 18695.00
469.9650, 18580.00
471.1520, 18749.00
472.3380, 18839.00
473.5250, 18854.00
474.7110, 18889.00
475.8970, 18715.00
477.0820, 18886.00
478.2680, 18858.00
479.4540, 18832.00
480.6390, 19020.00
481.8240, 18866.00
483.0090, 18948.00
484.1940, 18973.00
485.3780, 19135.00
486.5630, 19086.00
487.7470, 19119.00
488.9320, 19116.00
490.1160, 19070.00
491.3000, 19387.00
492.4830, 19294.00
493.6670, 19390.00
494.8500, 19282.00
496.0340, 19219.00
497.2170, 19333.00
498.4000, 19383.00
499.5820, 19298.00
500.7650, 19571.00
501.9480, 19583.00
503.1300, 19551.00
504.3120, 19524.00
505.4940, 19607.00
506.6760, 19411.00
507.8580, 19579.00
509.0390, 19699.00
510.2210, 19625.00
511.4020, 19841.00
512.5830, 19696.00
513.7640, 19723.00
514.9450, 19748.00
516.1250, 19710.00
517.3060, 19757.00
518.4860, 19859.00
519.6660, 19991.00
520.8460, 20015.78
522.0260, 20153.00
523.2060, 20059.00
524.3850, 20141.00
525.5650, 20068.00
526.7440, 20119.00
527.9230, 20096.00
529.1020, 20062.00
530.2810, 20320.00
531.4590, 20316.00
532.6380, 20102.00
533.8160, 20416.00
534.9940, 20312.00
536.1720, 20458.00
537.3500, 20424.00
538.5270, 20366.00
539.7050, 20467.00
540.8820, 20386.00
542.0590, 20513.00
543.2360, 20532.00
544.4130, 20593.00
545.5900, 20520.00
546.7660, 20629.00
547.9430, 20646.93
549.1190, 20536.00
550.2950, 20737.00
551.4710, 20770.00
552.6470, 20783.00
553.8220, 20937.00
554.9980, 20916.00
556.1730, 21022.00
557.3480, 21021.74
558.5230, 21005.00
559.6980, 21029.00
560.8730, 21092.64
562.0470, 21019.00
563.2220, 21240.00
564.3960, 21323.00
565.5700, 21355.00
566.7440, 21576.00
567.9170, 22012.00
569.0910, 22012.00
570.2640, 22121.00
571.4380, 22203.00
572.6110, 22296.00
573.7840, 22331.00
574.9570, 22526.00
576.1290, 22287.00
577.3020, 22270.00
578.4740, 22045.00
579.6460, 21723.00
580.8180, 21715.00
581.9900, 21647.00
583.1620, 21523.00
584.3330, 21572.00
585.5040, 21645.00
586.6760, 21610.00
587.8470, 21714.00
589.0180, 21644.00
590.1880, 21790.00
591.3590, 21640.00
592.5290, 21737.00
593.7000, 21694.00
594.8700, 21727.00
596.0400, 21863.00
597.2090, 21884.00
598.3790, 21812.00
599.5490, 22174.00
600.7180, 21871.00
601.8870, 22049.00
603.0560, 21917.00
604.2250, 22191.00
605.3940, 22150.00
606.5620, 22271.00
607.7300, 22143.00
608.8990, 22110.00
610.0670, 22260.00
611.2350, 22247.00
612.4020, 22189.00
613.5700, 22324.00
614.7370, 22316.00
615.9050, 22353.00
617.0720, 22387.65
618.2390, 22372.00
619.4060, 22402.00
620.5720, 22516.00
621.7390, 22524.00
622.9050, 22729.00
624.0710, 22511.00
625.2370, 22516.00
626.4030, 22646.00
627.5690, 22702.00
628.7340, 22777.00
629.9000, 22815.71
631.0650, 22855.14
632.2300, 22848.00
633.3950, 22910.00
634.5600, 22918.00
635.7240, 22942.00
636.8890, 22988.00
638.0530, 22989.00
639.2170, 23040.00
640.3810, 23250.00
641.5450, 23106.00
642.7080, 22921.00
643.8720, 23289.00
645.0350, 23163.00
646.1980, 23169.00
647.3610, 23251.00
648.5240, 23326.00
649.6870, 23486.00
650.8490, 23625.00
652.0120, 23478.00
653.1740, 23478.00
654.3360, 23392.00
655.4980, 23544.00
656.6600, 23471.00
657.8210, 23531.52
658.9830, 23541.00
660.1440, 23613.00
661.3050, 23677.00
662.4660, 23701.00
663.6270, 23900.00
664.7870, 23674.00
665.9480, 23664.00
667.1080, 23896.00
668.2680, 23919.00
669.4280, 23866.00
670.5880, 24009.00
671.7480, 23912.00
672.9070, 23990.00
674.0670, 23998.00
675.2260, 23981.00
676.3850, 24004.00
677.5440, 24036.47
678.7030, 24112.00
679.8610, 24146.00
681.0200, 24183.00
682.1780, 24278.00
683.3360, 24303.00
684.4940, 24363.00
685.6520, 24374.00
686.8090, 24336.00
687.9670, 24487.00
689.1240, 24375.00
690.2810, 24267.00
691.4380, 24482.00
692.5950, 24405.00
693.7520, 24374.00
694.9080, 24611.00
696.0650, 24713.00
697.2210, 24522.00
698.3770, 24642.00
699.5330, 24653.00
700.6880, 24835.00
701.8440, 24894.00
702.9990, 24979.00
704.1550, 24683.00
705.3100, 24951.00
706.4650, 24947.00
707.6190, 24951.00
708.7740, 25130.00
709.9290, 25182.00
711.0830, 25175.00
712.2370, 25217.00
713.3910, 25172.00
714.5450, 25263.00
715.6980, 25276.00
716.8520, 25485.00
718.0050, 25374.00
719.1580, 25614.00
720.3110, 25712.00
721.4640, 25435.00
722.6170, 25753.00
723.7700, 25709.00
724.9220, 25840.00
726.0740, 25859.00
727.2260, 25972.00
728.3780, 26142.00
729.5300, 26217.00
730.6810, 26386.00
731.8330, 26480.00
732.9840, 26521.00
734.1350, 27004.00
735.2860, 26829.00
736.4370, 27267.00
737.5880, 27547.00
738.7380, 27782.00
739.8880, 28222.00
741.0390, 28625.00
742.1890, 29045.00
743.3380, 29174.00
744.4880, 29778.00
745.6380, 29906.00
746.7870, 30072.00
747.9360, 29667.00
749.0850, 29688.00
750.2340, 29756.00
751.3830, 29332.00
752.5310, 29092.00
753.6800, 28798.00
754.8280, 28508.98
755.9760, 28241.30
757.1240, 28011.00
758.2720, 27747.00
759.4190, 27518.00
760.5670, 27418.00
761.7140, 27458.00
762.8610, 27406.00
764.0080, 27236.00
765.1550, 27346.00
766.3020, 27113.00
767.4480, 27108.00
768.5950, 27265.00
769.7410, 27222.00
770.8870, 27228.00
772.0330, 27029.00
773.1780, 27146.00
774.3240, 27038.00
775.4690, 27265.00
776.6140, 27166.00
777.7590, 27400.00
778.9040, 27372.00
780.0490, 27417.00
781.1940, 27351.00
782.3380, 27250.00
783.4820, 27311.00
784.6260, 27388.00
785.7700, 27380.91
786.9140, 27512.00
788.0580, 27454.00
789.2010, 27396.00
790.3450, 27391.00
791.4880, 27538.00
792.6310, 27479.00
793.7730, 27739.00
794.9160, 27602.00
796.0590, 27734.00
797.2010, 27887.00
798.3430, 27760.00
799.4850, 27784.00
800.6270, 27794.00
801.7690, 27932.00
802.9100, 28089.00
804.0520, 28113.42
805.1930, 28221.00
806.3340, 28166.00
807.4750, 28084.00
808.6160, 27955.00
809.7560, 28008.00
810.8970, 28333.00
812.0370, 28290.00
813.1770, 28404.00
814.3170, 28282.00
815.4570, 28299.00
816.5960, 28361.00
817.7360, 28379.00
818.8750, 28259.00
820.0140, 28511.00
821.1530, 28814.00
822.2920, 28460.00
823.4310, 28605.00
824.5690, 28614.00
825.7070, 28495.00
826.8460, 28429.00
827.9840, 28649.00
829.1220, 28831.00
830.2590, 28804.00
831.3970, 28725.00
832.5340, 28840.00
833.6710, 28725.00
834.8080, 29112.00
835.9450, 28898.00
837.0820, 28911.00
838.2190, 29168.00
839.3550, 29032.00
840.4910, 29193.00
841.6270, 29156.00
842.7630, 29108.00
843.8990, 29189.00
845.0350, 29306.00
846.1700, 29336.00
847.3060, 29448.00
848.4410, 29372.00
849.5760, 29228.00
850.7100, 29430.00
851.8450, 29538.00
852.9800, 29599.00
854.1140, 29375.00
855.2480, 29602.00
856.3820, 29692.00
857.5160, 29645.49
858.6500, 30038.00
859.7830, 29660.00
860.9170, 29738.00
862.0500, 29702.00
863.1830, 29959.00
864.3160, 29767.00
865.4480, 29922.00
866.5810, 29976.00
867.7130, 30033.00
868.8460, 30089.00
869.9780, 29917.00
871.1100, 30157.00
872.2410, 30276.00
873.3730, 30117.00
874.5050, 30171.00
875.6360, 30309.00
876.7670, 30123.00
877.8980, 30417.00
879.0290, 30286.00
880.1590, 30300.00
881.2900, 30403.00
882.4200, 30483.00
883.5500, 30435.00
884.6800, 30406.00
885.8100, 30348.00
886.9400, 30727.00
888.0690, 30566.00
889.1990, 30993.00
890.3280, 30748.00
891.4570, 30936.00
892.5860, 30849.00
893.7140, 30821.00
894.8430, 30647.00
895.9710, 30739.00
897.1000, 31165.00
898.2280, 31238.00
899.3560, 31090.00
900.4830, 30995.00
901.6110, 31005.00
902.7380, 31132.00
903.8660, 31293.00
904.9930, 31347.00
906.1200, 31380.00
907.2460, 31335.00
908.3730, 31349.00
909.5000, 31351.00
910.6260, 31345.95
911.7520, 31436.00
912.8780, 31394.00
914.0040, 31489.00
915.1290, 31590.00
916.2550, 31659.00
917.3800, 31718.00
918.5050, 31773.00
919.6300, 31875.00
920.7550, 31946.00
921.8800, 31913.50
923.0040, 31814.00
924.1290, 31848.00
925.2530, 31873.00
926.3770, 31900.00
927.5010, 32043.00
928.6250, 32178.00
929.7480, 32080.00
930.8720, 32119.00
931.9950, 32285.00
933.1180, 32210.00
934.2410, 32413.00
935.3640, 32536.00
936.4860, 32306.00
937.6090, 32634.00
938.7310, 32564.00
939.8530, 32710.00
940.9750, 32757.00
942.0970, 32661.00
943.2180, 32689.00
944.3400, 32709.00
945.4610, 32740.95
946.5820, 32772.00
947.7030, 32888.00
948.8240, 33006.00
949.9450, 33095.00
951.0650, 33102.00
952.1860, 33016.00
953.3060, 32992.00
954.4260, 33300.00
955.5460, 33199.00
956.6650, 33526.00
957.7850, 33110.00
958.9040, 33450.00
960.0230, 33346.00
961.1420, 33378.00
962.2610, 33344.00
963.3800, 33422.00
964.4990, 33426.46
965.6170, 33628.00
966.7350, 33464.00
967.8530, 33637.00
968.9710, 33625.00
970.0890, 33660.00
971.2070, 33889.00
972.3240, 33886.00
973.4410, 34033.00
974.5580, 34121.00
975.6750, 33974.00
976.7920, 34157.00
977.9090, 34000.00
979.0250, 34017.00
980.1410, 34174.00
981.2580, 34408.00
982.3740, 34310.00
983.4890, 34350.00
984.6050, 34569.00
985.7200, 34524.00
986.8360, 34647.00
987.9510, 34616.00
989.0660, 34636.61
990.1810, 34652.00
991.2950, 34671.00
992.4100, 34710.00
993.5240, 34775.00
994.6390, 34735.00
995.7530, 34884.00
996.8660, 34853.00
997.9800, 34995.00
999.0940, 34787.00
1000.207, 34958.00
1001.320, 34963.00
1002.433, 35238.00
1003.546, 35076.00
1004.659, 35008.00
1005.772, 35151.00
1006.884, 35057.00
1007.996, 35214.00
1009.108, 35201.00
1010.220, 35284.47
1011.332, 35270.00
1012.444, 35408.00
1013.555, 35530.00
1014.666, 35452.00
1015.777, 35545.00
1016.888, 35575.00
1017.999, 35604.34
1019.110, 35664.00
1020.220, 35709.00
1021.331, 35634.00
1022.441, 35664.00
1023.551, 36151.00
1024.661, 36038.00
1025.770, 36203.00
1026.880, 35994.00
1027.989, 36137.00
1029.098, 36123.00
1030.207, 36347.00
1031.316, 36050.00
1032.425, 36188.00
1033.533, 36189.00
1034.642, 36318.00
1035.750, 36386.00
1036.858, 36424.00
1037.966, 36488.00
1039.073, 36545.00
1040.181, 36729.00
1041.288, 36723.00
1042.396, 36842.00
1043.503, 36894.00
1044.610, 36829.00
1045.716, 36760.00
1046.823, 36713.00
1047.929, 36638.00
1049.036, 36963.00
1050.142, 36982.00
1051.248, 37035.00
1052.353, 37259.00
1053.459, 37194.00
1054.564, 37037.00
1055.670, 37150.00
1056.775, 37170.00
1057.880, 37222.00
1058.985, 37231.00
1060.089, 37237.00
1061.194, 37512.00
1062.298, 37560.00
1063.402, 37483.00
1064.506, 37427.00
1065.610, 37709.00
1066.713, 37784.00
1067.817, 37721.00
1068.920, 37626.00
1070.023, 37840.00
1071.126, 37917.00
1072.229, 37900.00
1073.332, 37987.00
1074.435, 38044.00
1075.537, 38047.00
1076.639, 38069.41
1077.741, 38240.00
1078.843, 38099.00
1079.945, 38072.00
1081.046, 38200.00
1082.148, 38109.00
1083.249, 38243.00
1084.350, 38248.00
1085.451, 38552.00
1086.551, 38294.00
1087.652, 38593.00
1088.752, 38616.00
1089.853, 38577.00
1090.953, 38782.00
1092.053, 38841.00
1093.152, 38800.00
1094.252, 38799.00
1095.351, 38711.00
1096.451, 38897.00
1097.550, 38917.00
1098.649, 38957.00
1099.748, 39108.00
1100.846, 39029.00
1101.945, 39214.00
1103.043, 39264.00
1104.141, 39294.00
1105.239, 39090.00
1106.337, 39388.00
1107.434, 39216.00
1108.532, 39474.00
1109.629, 39268.00
1110.726, 39461.00
1111.823, 39536.00
1112.920, 39629.00
1114.017, 39503.00
1115.113, 39611.04
1116.210, 39796.00
1117.306, 39685.00
1118.402, 39936.00
1119.498, 40000.00
1120.593, 40014.00
1121.689, 39823.00
1122.784, 40335.00
1123.879, 39981.00
1124.974, 39896.00
1126.069, 40254.00
1127.164, 40137.00
1128.259, 40100.00
1129.353, 40256.00
1130.447, 39966.00
1131.541, 40424.00
1132.635, 40441.00
1133.729, 40434.00
1134.822, 40482.00
1135.916, 40479.00
1137.009, 40526.00
1138.102, 40828.00
1139.195, 40501.00
1140.288, 40678.00
1141.380, 40908.00
1142.473, 40655.00
1143.565, 40777.00
1144.657, 40639.00
1145.749, 40929.00
1146.841, 40962.00
1147.932, 40915.00
1149.024, 41147.00
1150.115, 41097.00
1151.206, 41014.00
1152.297, 41271.00
1153.388, 41486.00
1154.479, 41463.00
1155.569, 41277.00
1156.659, 41313.00
1157.750, 41428.00
1158.839, 41240.00
1159.929, 41421.00
1161.019, 41836.00
1162.108, 41812.00
1163.198, 42055.00
1164.287, 42035.77
1165.376, 42057.11
1166.465, 41930.00
1167.553, 42008.00
1168.642, 42024.00
1169.730, 41960.00
1170.818, 42077.00
1171.906, 42012.00
1172.994, 41986.00
1174.082, 42123.00
1175.170, 42134.00
1176.257, 42269.00
1177.344, 42328.00
1178.431, 42209.00
1179.518, 42494.00
1180.605, 42435.00
1181.691, 42667.00
1182.778, 42543.00
1183.864, 42586.00
1184.950, 42620.00
1186.036, 42597.00
1187.122, 43027.00
1188.207, 42720.00
1189.292, 43016.00
1190.378, 42864.00
1191.463, 43054.00
1192.548, 42800.00
1193.632, 43244.00
1194.717, 43095.00
1195.801, 43291.00
1196.886, 43557.00
1197.970, 43364.00
1199.054, 43348.00
1200.137, 43491.00
1201.221, 43540.00
1202.305, 43646.00
1203.388, 43715.00
1204.471, 43742.80
1205.554, 43729.00
1206.637, 43800.00
1207.719, 43840.00
1208.802, 43893.00
1209.884, 43940.81
1210.966, 44163.00
1212.048, 44066.00
1213.130, 44071.00
1214.212, 44213.00
1215.293, 44083.00
1216.374, 44012.00
1217.456, 44146.00
1218.536, 44085.42
1219.617, 43897.00
1220.698, 44169.00
1221.778, 44497.00
1222.859, 44587.00
1223.939, 44244.00
1225.019, 45018.00
1226.099, 44812.00
1227.178, 44773.00
1228.258, 45148.00
1229.337, 44777.00
1230.417, 44713.00
1231.496, 44983.00
1232.574, 44896.00
1233.653, 44820.00
1234.732, 44951.00
1235.810, 45329.00
1236.888, 45227.00
1237.966, 45100.00
1239.044, 45242.00
1240.122, 45109.00
1241.199, 45623.00
1242.277, 45384.00
1243.354, 45439.00
1244.431, 45772.00
1245.508, 45444.00
1246.585, 45325.00
1247.661, 45606.00
1248.738, 45712.00
1249.814, 45601.00
1250.890, 45945.00
1251.966, 45702.00
1253.042, 45702.00
1254.117, 45913.00
1255.193, 45581.00
1256.268, 45732.00
1257.343, 46037.00
1258.418, 46102.00
1259.493, 46189.95
1260.567, 46338.00
1261.642, 46203.00
1262.716, 46405.00
1263.790, 46356.00
1264.864, 46393.00
1265.938, 46441.00
1267.011, 46604.00
1268.085, 46328.00
1269.158, 46343.00
1270.231, 46485.00
1271.304, 46563.00
1272.377, 46683.00
1273.450, 47015.00
1274.522, 46862.00
1275.594, 47017.00
1276.666, 46955.00
1277.738, 47251.00
1278.810, 46932.00
1279.882, 46993.00
1280.953, 47502.00
1282.025, 47312.00
1283.096, 47247.00
1284.167, 47330.00
1285.238, 47553.00
1286.308, 47681.00
1287.379, 47447.00
1288.449, 47865.00
1289.519, 47441.00
1290.589, 47800.00
1291.659, 47615.00
1292.729, 47999.00
1293.798, 47647.00
1294.868, 47961.00
