##NAMES=Corundum
##RRUFFID=R040096
##IDEAL CHEMISTRY=Al_2_O_3_
##LOCALITY=Sri Lanka
##OWNER=RRUFF
##SOURCE=University of Arizona Mineral Museum
##DESCRIPTION=Pale purple hexagonal prism
##STATUS=The identification of this mineral has been confirmed by X-ray diffraction and chemical analysis
##URL=rruff.info/R040096
##MEASURED CHEMISTRY=Al_2.00_O_3_
##PIN_ID=L01813
##ORIENTATION=Laser parallel to -c* (0 0 -1). Fiducial mark perpendicular to laser is parallel to a [1 0 0]
113.2080, 10676.00
114.4400, 10740.00
115.6710, 10644.00
116.9030, 10704.00
118.1340, 10700.00
119.3650, 10693.00
120.5960, 10897.00
121.8270, 10939.00
123.0580, 11034.00
124.2880, 11104.36
125.5190, 11169.16
126.7490, 11189.00
127.9790, 11263.00
129.2090, 11320.00
130.4390, 11362.98
131.6680, 11419.20
132.8980, 11456.00
134.1270, 11483.00
135.3560, 11509.00
136.5850, 11482.00
137.8140, 11532.17
139.0430, 11680.00
140.2710, 11605.00
141.5000, 11676.00
142.7280, 11729.00
143.9560, 11655.00
145.1840, 11748.00
146.4120, 11822.00
147.6390, 11718.00
148.8670, 11922.00
150.0940, 11943.00
151.3210, 12019.00
152.5490, 11984.00
153.7750, 11880.00
155.0020, 12021.00
156.2290, 11971.00
157.4550, 11929.00
158.6810, 12197.00
159.9080, 12105.00
161.1340, 11972.00
162.3590, 12227.00
163.5850, 12289.00
164.8110, 12314.00
166.0360, 12365.00
167.2610, 12343.00
168.4860, 12527.00
169.7110, 12416.00
170.9360, 12436.00
172.1610, 12363.00
173.3850, 12542.00
174.6100, 12499.00
175.8340, 12579.00
177.0580, 12534.00
178.2820, 12665.00
179.5050, 12648.00
180.7290, 12680.00
181.9520, 12661.00
183.1760, 12819.00
184.3990, 12780.00
185.6220, 12670.00
186.8450, 12878.00
188.0670, 12824.00
189.2900, 12986.00
190.5120, 13076.00
191.7340, 12986.00
192.9560, 13098.00
194.1780, 13059.00
195.4000, 13021.00
196.6220, 13093.00
197.8430, 13273.00
199.0640, 13269.00
200.2860, 13417.00
201.5070, 13300.00
202.7270, 13191.00
203.9480, 13211.00
205.1690, 13171.00
206.3890, 13234.00
207.6090, 13064.00
208.8290, 13091.00
210.0490, 13164.00
211.2690, 13246.00
212.4890, 13238.00
213.7080, 13315.00
214.9280, 13341.44
216.1470, 13357.17
217.3660, 13379.00
218.5850, 13392.50
219.8030, 13425.08
221.0220, 13455.11
222.2400, 13491.00
223.4590, 13509.00
224.6770, 13541.00
225.8950, 13527.00
227.1120, 13563.00
228.3300, 13534.00
229.5480, 13734.00
230.7650, 13732.00
231.9820, 13625.00
233.1990, 13679.00
234.4160, 13903.00
235.6330, 13890.00
236.8490, 13724.00
238.0660, 14009.00
239.2820, 13831.00
240.4980, 13923.00
241.7140, 13918.00
242.9300, 13891.00
244.1460, 13979.00
245.3610, 13999.00
246.5770, 14018.50
247.7920, 13984.00
249.0070, 14079.00
250.2220, 14151.00
251.4370, 14212.08
252.6510, 14019.00
253.8660, 14260.00
255.0800, 14329.00
256.2940, 14351.00
257.5080, 14687.00
258.7220, 14605.00
259.9360, 14394.00
261.1490, 14301.00
262.3630, 14436.00
263.5760, 14351.00
264.7890, 14268.00
266.0020, 14389.00
267.2150, 14412.00
268.4270, 14491.00
269.6400, 14626.00
270.8520, 14453.00
272.0640, 14562.00
273.2760, 14517.00
274.4880, 14661.00
275.7000, 14672.00
276.9120, 14554.00
278.1230, 14545.00
279.3340, 14607.00
280.5450, 14687.00
281.7560, 14847.00
282.9670, 14621.00
284.1780, 14709.00
285.3880, 14829.00
286.5980, 14808.00
287.8090, 14901.00
289.0190, 14841.00
290.2290, 14816.00
291.4380, 14756.00
292.6480, 14905.00
293.8570, 14915.00
295.0670, 14799.00
296.2760, 15073.00
297.4850, 14985.00
298.6930, 14958.00
299.9020, 14907.00
301.1110, 14921.33
302.3190, 14954.76
303.5270, 15030.00
304.7350, 15059.00
305.9430, 15213.00
307.1510, 15238.00
308.3580, 15270.00
309.5660, 15365.00
310.7730, 15331.00
311.9800, 15362.00
313.1870, 15344.00
314.3940, 15344.30
315.6010, 15337.00
316.8070, 15348.00
318.0130, 15479.00
319.2200, 15500.00
320.4260, 15515.00
321.6310, 15628.00
322.8370, 15568.00
324.0430, 15648.00
325.2480, 15723.00
326.4540, 15621.00
327.6590, 15690.00
328.8640, 15699.00
330.0680, 15769.00
331.2730, 15826.00
332.4780, 15959.00
333.6820, 15969.00
334.8860, 16065.00
336.0900, 15889.00
337.2940, 16056.00
338.4980, 15899.00
339.7010, 16015.00
340.9050, 16107.00
342.1080, 16208.00
343.3110, 16065.00
344.5140, 16161.45
345.7170, 16215.53
346.9200, 16139.00
348.1220, 16326.00
349.3240, 16245.00
350.5270, 16153.00
351.7290, 16306.00
352.9310, 16352.00
354.1320, 16408.00
355.3340, 16284.00
356.5350, 16397.00
357.7370, 16296.00
358.9380, 16418.00
360.1390, 16548.00
361.3400, 16597.00
362.5400, 16635.00
363.7410, 16655.00
364.9410, 16801.00
366.1410, 16932.00
367.3410, 17174.00
368.5410, 17534.00
369.7410, 17715.00
370.9400, 17942.72
372.1400, 18149.36
373.3390, 18258.00
374.5380, 18414.00
375.7370, 18456.00
376.9360, 18427.00
378.1350, 18300.00
379.3330, 18341.00
380.5310, 18381.00
381.7300, 17845.00
382.9280, 17711.00
384.1260, 17223.00
385.3230, 17349.00
386.5210, 17304.00
387.7180, 17151.00
388.9160, 17303.00
390.1130, 17264.00
391.3100, 17332.00
392.5060, 17406.00
393.7030, 17420.29
394.9000, 17289.00
396.0960, 17501.00
397.2920, 17466.00
398.4880, 17478.00
399.6840, 17625.00
400.8800, 17570.00
402.0750, 17985.00
403.2710, 18039.00
404.4660, 18578.00
405.6610, 19240.00
406.8560, 20725.00
408.0510, 21810.00
409.2450, 22647.00
410.4400, 23454.00
411.6340, 24575.00
412.8280, 24884.43
414.0220, 25441.00
415.2160, 25386.00
416.4100, 24915.00
417.6030, 24660.00
418.7970, 23671.00
419.9900, 22524.00
421.1830, 21100.00
422.3760, 19888.00
423.5690, 19397.00
424.7610, 19096.00
425.9540, 19169.00
427.1460, 19308.00
428.3380, 19275.00
429.5300, 19121.00
430.7220, 18944.00
431.9140, 18770.00
433.1050, 18753.00
434.2970, 18568.00
435.4880, 18522.00
436.6790, 18487.02
437.8700, 18451.93
439.0610, 18451.00
440.2510, 18551.00
441.4420, 18554.00
442.6320, 18743.00
443.8220, 18579.00
445.0120, 18835.00
446.2020, 18840.00
447.3910, 18739.00
448.5810, 18737.00
449.7700, 18644.00
450.9600, 18704.00
452.1490, 18605.00
453.3370, 18714.00
454.5260, 18550.00
455.7150, 18622.00
456.9030, 18609.00
458.0910, 18517.00
459.2800, 18646.78
460.4670, 18596.00
461.6550, 18779.00
462.8430, 18851.00
464.0300, 18812.00
465.2180, 18844.00
466.4050, 18953.00
467.5920, 18893.00
468.7790, 18652.00
469.9650, 18841.00
471.1520, 18876.00
472.3380, 18870.00
473.5250, 19011.00
474.7110, 19041.00
475.8970, 18899.00
477.0820, 18947.00
478.2680, 19169.00
479.4540, 19067.00
480.6390, 19160.00
481.8240, 19162.00
483.0090, 19175.00
484.1940, 19442.00
485.3780, 19385.00
486.5630, 19297.00
487.7470, 19426.00
488.9320, 19227.00
490.1160, 19404.00
491.3000, 19532.00
492.4830, 19432.00
493.6670, 19568.00
494.8500, 19638.00
496.0340, 19822.00
497.2170, 19484.00
498.4000, 19590.00
499.5820, 19633.00
500.7650, 19783.00
501.9480, 19822.58
503.1300, 19840.39
504.3120, 19864.00
505.4940, 19862.00
506.6760, 19877.79
507.8580, 19900.76
509.0390, 19858.00
510.2210, 19953.00
511.4020, 19877.00
512.5830, 19903.00
513.7640, 20129.00
514.9450, 20006.00
516.1250, 20230.00
517.3060, 20068.00
518.4860, 20077.00
519.6660, 20159.00
520.8460, 19977.00
522.0260, 20372.00
523.2060, 20077.00
524.3850, 20236.00
525.5650, 20537.00
526.7440, 20290.00
527.9230, 20188.00
529.1020, 20423.00
530.2810, 20412.00
531.4590, 20647.00
532.6380, 20504.00
533.8160, 20663.00
534.9940, 20533.00
536.1720, 20720.00
537.3500, 20480.00
538.5270, 20711.00
539.7050, 20580.00
540.8820, 20819.00
542.0590, 20685.00
543.2360, 20968.00
544.4130, 20938.00
545.5900, 20712.00
546.7660, 20940.00
547.9430, 20927.00
549.1190, 20969.00
550.2950, 21051.00
551.4710, 20902.00
552.6470, 21041.00
553.8220, 20829.00
554.9980, 21046.00
556.1730, 20982.00
557.3480, 21370.00
558.5230, 21126.00
559.6980, 21288.00
560.8730, 21169.00
562.0470, 21168.00
563.2220, 21320.00
564.3960, 21636.00
565.5700, 21581.00
566.7440, 21721.00
567.9170, 21792.00
569.0910, 21996.00
570.2640, 22247.00
571.4380, 22125.00
572.6110, 22314.00
573.7840, 22217.00
574.9570, 22558.00
576.1290, 22410.00
577.3020, 22439.00
578.4740, 22072.00
579.6460, 22051.00
580.8180, 22010.00
581.9900, 21770.00
583.1620, 21742.00
584.3330, 21796.00
585.5040, 22002.00
586.6760, 21805.00
587.8470, 21904.00
589.0180, 22028.00
590.1880, 21967.00
591.3590, 22073.41
592.5290, 22088.00
593.7000, 22098.00
594.8700, 22021.00
596.0400, 21887.00
597.2090, 22112.00
598.3790, 22075.00
599.5490, 22310.00
600.7180, 22209.00
601.8870, 22131.00
603.0560, 22410.00
604.2250, 22243.00
605.3940, 22308.00
606.5620, 22165.00
607.7300, 22535.00
608.8990, 22286.00
610.0670, 22407.00
611.2350, 22573.00
612.4020, 22585.00
613.5700, 22751.00
614.7370, 22351.00
615.9050, 22826.00
617.0720, 22557.00
618.2390, 22625.00
619.4060, 22672.00
620.5720, 22758.00
621.7390, 22942.00
622.9050, 22797.00
624.0710, 22928.00
625.2370, 22868.00
626.4030, 22864.00
627.5690, 22755.00
628.7340, 23063.00
629.9000, 23082.00
631.0650, 22991.00
632.2300, 23150.00
633.3950, 22978.00
634.5600, 23203.00
635.7240, 23200.00
636.8890, 23466.00
638.0530, 23331.00
639.2170, 23254.00
640.3810, 23294.00
641.5450, 23379.00
642.7080, 23592.00
643.8720, 23617.03
645.0350, 23557.00
646.1980, 23722.00
647.3610, 23702.00
648.5240, 23629.00
649.6870, 23615.00
650.8490, 23680.00
652.0120, 23442.00
653.1740, 23665.00
654.3360, 23643.00
655.4980, 23801.00
656.6600, 23734.00
657.8210, 23806.00
658.9830, 23934.00
660.1440, 24015.00
661.3050, 23803.00
662.4660, 23995.00
663.6270, 23939.57
664.7870, 24081.00
665.9480, 24027.00
667.1080, 24003.00
668.2680, 24161.00
669.4280, 24004.00
670.5880, 23895.00
671.7480, 24307.00
672.9070, 24299.00
674.0670, 24075.00
675.2260, 24438.00
676.3850, 24371.00
677.5440, 24238.00
678.7030, 24440.00
679.8610, 24631.00
681.0200, 24349.00
682.1780, 24503.00
683.3360, 24648.00
684.4940, 24518.00
685.6520, 24565.00
686.8090, 24443.00
687.9670, 24569.00
689.1240, 24618.00
690.2810, 24824.00
691.4380, 24788.00
692.5950, 24602.00
693.7520, 24806.00
694.9080, 24666.00
696.0650, 24628.00
697.2210, 24774.00
698.3770, 24701.00
699.5330, 24821.42
700.6880, 24950.00
701.8440, 24997.00
702.9990, 24985.00
704.1550, 25022.00
705.3100, 25067.00
706.4650, 25292.00
707.6190, 25159.00
708.7740, 25256.00
709.9290, 25266.00
711.0830, 25244.00
712.2370, 25248.00
713.3910, 25283.00
714.5450, 25486.00
715.6980, 25454.00
716.8520, 25362.00
718.0050, 25709.00
719.1580, 25626.00
720.3110, 25679.00
721.4640, 25598.00
722.6170, 25792.00
723.7700, 25955.00
724.9220, 25902.00
726.0740, 25742.00
727.2260, 25884.00
728.3780, 26096.00
729.5300, 26133.00
730.6810, 26322.00
731.8330, 26070.00
732.9840, 26340.00
734.1350, 26603.00
735.2860, 26626.00
736.4370, 26959.00
737.5880, 27008.00
738.7380, 27355.00
739.8880, 27515.00
741.0390, 27566.00
742.1890, 27945.00
743.3380, 28047.00
744.4880, 28401.00
745.6380, 28712.00
746.7870, 28702.00
747.9360, 28648.00
749.0850, 28586.00
750.2340, 28481.17
751.3830, 28379.00
752.5310, 28260.00
753.6800, 28095.41
754.8280, 27832.00
755.9760, 27673.00
757.1240, 27580.00
758.2720, 27441.19
759.4190, 27503.00
760.5670, 27278.00
761.7140, 27215.00
762.8610, 27115.00
764.0080, 27350.00
765.1550, 27149.00
766.3020, 27431.00
767.4480, 27260.00
768.5950, 27335.00
769.7410, 27116.00
770.8870, 27173.00
772.0330, 27138.82
773.1780, 27218.00
774.3240, 27145.00
775.4690, 27283.00
776.6140, 27340.00
777.7590, 27494.00
778.9040, 27376.00
780.0490, 27395.00
781.1940, 27341.00
782.3380, 27444.00
783.4820, 27464.00
784.6260, 27641.00
785.7700, 27614.19
786.9140, 27612.00
788.0580, 27612.00
789.2010, 27704.00
790.3450, 27716.00
791.4880, 27497.00
792.6310, 27553.00
793.7730, 27749.00
794.9160, 28075.00
796.0590, 27942.00
797.2010, 27961.00
798.3430, 27923.00
799.4850, 28283.00
800.6270, 28070.00
801.7690, 27973.00
802.9100, 28239.00
804.0520, 28035.00
805.1930, 28361.00
806.3340, 28245.00
807.4750, 28053.00
808.6160, 28311.00
809.7560, 28226.00
810.8970, 28263.00
812.0370, 28482.00
813.1770, 28280.00
814.3170, 28315.00
815.4570, 28326.00
816.5960, 28432.00
817.7360, 28668.00
818.8750, 28553.00
820.0140, 28659.00
821.1530, 28409.00
822.2920, 28652.00
823.4310, 28510.00
824.5690, 28696.00
825.7070, 28829.00
826.8460, 29058.00
827.9840, 28899.00
829.1220, 28868.00
830.2590, 28924.00
831.3970, 28856.00
832.5340, 28919.00
833.6710, 28944.00
834.8080, 28959.00
835.9450, 28898.00
837.0820, 28989.23
838.2190, 29008.04
839.3550, 29136.00
840.4910, 29143.00
841.6270, 29228.00
842.7630, 29330.00
843.8990, 29131.00
845.0350, 29526.00
846.1700, 29265.00
847.3060, 29322.00
848.4410, 29302.00
849.5760, 29522.00
850.7100, 29673.00
851.8450, 29348.00
852.9800, 29728.00
854.1140, 29646.00
855.2480, 29791.00
856.3820, 29943.00
857.5160, 29637.00
858.6500, 29764.00
859.7830, 29765.00
860.9170, 29815.00
862.0500, 29924.00
863.1830, 30101.00
864.3160, 30085.00
865.4480, 30197.00
866.5810, 30208.05
867.7130, 30033.00
868.8460, 30167.00
869.9780, 30210.00
871.1100, 30116.00
872.2410, 30213.00
873.3730, 30301.00
874.5050, 30126.00
875.6360, 30191.00
876.7670, 30443.00
877.8980, 30504.00
879.0290, 30600.73
880.1590, 30441.00
881.2900, 30669.00
882.4200, 30656.00
883.5500, 30535.00
884.6800, 30658.00
885.8100, 30743.00
886.9400, 30495.00
888.0690, 30533.00
889.1990, 30812.00
890.3280, 30854.00
891.4570, 30596.00
892.5860, 30700.00
893.7140, 30714.00
894.8430, 30846.00
895.9710, 30940.00
897.1000, 30911.00
898.2280, 31037.00
899.3560, 31044.67
900.4830, 31198.00
901.6110, 31116.00
902.7380, 31114.00
903.8660, 31177.00
904.9930, 31358.00
906.1200, 31311.00
907.2460, 31505.00
908.3730, 31399.00
909.5000, 31393.00
910.6260, 31659.00
911.7520, 31396.00
912.8780, 31327.00
914.0040, 31633.00
915.1290, 31725.00
916.2550, 31646.00
917.3800, 31727.00
918.5050, 31723.75
919.6300, 31865.00
920.7550, 31711.00
921.8800, 32032.00
923.0040, 31988.00
924.1290, 32156.00
925.2530, 32039.00
926.3770, 32043.00
927.5010, 32192.00
928.6250, 32311.00
929.7480, 32266.00
930.8720, 32335.00
931.9950, 32174.00
933.1180, 32216.00
934.2410, 32244.00
935.3640, 32357.00
936.4860, 32286.00
937.6090, 32582.00
938.7310, 32402.00
939.8530, 32470.00
940.9750, 32767.00
942.0970, 32818.00
943.2180, 32734.00
944.3400, 32761.00
945.4610, 32786.00
946.5820, 32916.00
947.7030, 33036.00
948.8240, 33209.00
949.9450, 32913.00
951.0650, 33051.00
952.1860, 33063.00
953.3060, 32918.00
954.4260, 33192.00
955.5460, 33106.00
956.6650, 33222.00
957.7850, 33515.00
958.9040, 33564.00
960.0230, 33386.00
961.1420, 33081.00
962.2610, 33156.00
963.3800, 33424.00
964.4990, 33565.00
965.6170, 33630.00
966.7350, 33591.00
967.8530, 33454.00
968.9710, 33634.00
970.0890, 33744.00
971.2070, 33791.00
972.3240, 33927.00
973.4410, 33846.00
974.5580, 33730.00
975.6750, 33925.00
976.7920, 33867.79
977.9090, 34329.00
979.0250, 34074.00
980.1410, 34035.00
981.2580, 34342.00
982.3740, 34186.00
983.4890, 34363.00
984.6050, 34245.00
985.7200, 34336.00
986.8360, 34424.00
987.9510, 34546.00
989.0660, 34578.00
990.1810, 34562.00
991.2950, 34663.00
992.4100, 34704.00
993.5240, 34616.00
994.6390, 34818.00
995.7530, 34814.00
996.8660, 34683.00
997.9800, 34676.00
999.0940, 34971.00
1000.207, 35031.00
1001.320, 35145.00
1002.433, 35145.00
1003.546, 35267.00
1004.659, 35342.00
1005.772, 35325.00
1006.884, 35228.00
1007.996, 35478.00
1009.108, 35467.00
1010.220, 35359.00
1011.332, 35473.00
1012.444, 35741.00
1013.555, 35405.00
1014.666, 35399.00
1015.777, 35685.00
1016.888, 35686.00
1017.999, 35591.00
1019.110, 35525.00
1020.220, 35580.61
1021.331, 35724.00
1022.441, 35647.00
1023.551, 35836.00
1024.661, 35794.00
1025.770, 35900.00
1026.880, 35827.00
1027.989, 36009.00
1029.098, 36184.00
1030.207, 36398.00
1031.316, 36071.00
1032.425, 36199.00
1033.533, 36240.00
1034.642, 36378.00
1035.750, 36199.00
1036.858, 36263.00
1037.966, 36353.00
1039.073, 36508.00
1040.181, 36586.00
1041.288, 36641.00
1042.396, 36714.11
1043.503, 36749.49
1044.610, 36738.00
1045.716, 36813.00
1046.823, 36715.00
1047.929, 36735.00
1049.036, 36800.00
1050.142, 37022.00
1051.248, 37039.00
1052.353, 37022.00
1053.459, 37115.20
1054.564, 37127.93
1055.670, 37138.00
1056.775, 37240.00
1057.880, 37213.00
1058.985, 37306.00
1060.089, 37368.00
1061.194, 37403.00
1062.298, 37369.00
1063.402, 37471.00
1064.506, 37502.00
1065.610, 37513.00
1066.713, 37493.00
1067.817, 37557.00
1068.920, 37805.00
1070.023, 37861.13
1071.126, 37634.00
1072.229, 37908.00
1073.332, 37901.00
1074.435, 37815.00
1075.537, 37894.00
1076.639, 38051.00
1077.741, 37929.00
1078.843, 38041.00
1079.945, 38008.00
1081.046, 38057.00
1082.148, 38050.00
1083.249, 38083.50
1084.350, 38115.78
1085.451, 38186.00
1086.551, 38162.00
1087.652, 38264.00
1088.752, 38248.00
1089.853, 38414.00
1090.953, 38552.00
1092.053, 38505.00
1093.152, 38384.00
1094.252, 38470.00
1095.351, 38636.00
1096.451, 38389.00
1097.550, 38984.00
1098.649, 38820.00
1099.748, 38822.00
1100.846, 38658.00
1101.945, 38919.00
1103.043, 38912.00
1104.141, 39002.00
1105.239, 38923.00
1106.337, 38803.00
1107.434, 39032.00
1108.532, 39077.00
1109.629, 39233.00
1110.726, 39391.00
1111.823, 39201.00
1112.920, 39329.00
1114.017, 39361.00
1115.113, 39339.00
1116.210, 39516.00
1117.306, 39665.00
1118.402, 39744.00
1119.498, 39717.00
1120.593, 40024.00
1121.689, 39767.00
1122.784, 39942.00
1123.879, 40052.00
1124.974, 39924.00
1126.069, 39835.00
1127.164, 39787.00
1128.259, 40041.00
1129.353, 39836.00
1130.447, 40083.00
1131.541, 40280.00
1132.635, 40052.00
1133.729, 40100.00
1134.822, 40179.00
1135.916, 40371.00
1137.009, 40135.00
1138.102, 40337.00
1139.195, 40277.00
1140.288, 40659.00
1141.380, 40587.00
1142.473, 40370.00
1143.565, 40764.00
1144.657, 40665.00
1145.749, 40602.00
1146.841, 40729.00
1147.932, 40640.00
1149.024, 40742.00
1150.115, 40809.00
1151.206, 40742.00
1152.297, 40997.00
1153.388, 40930.00
1154.479, 40998.00
1155.569, 41169.00
1156.659, 41191.00
1157.750, 40895.00
1158.839, 41169.00
1159.929, 41311.00
1161.019, 41162.00
1162.108, 41383.00
1163.198, 41245.00
1164.287, 41364.00
1165.376, 41402.00
1166.465, 41441.00
1167.553, 41494.61
1168.642, 41525.91
1169.730, 41549.00
1170.818, 41654.00
1171.906, 41680.00
1172.994, 41863.00
1174.082, 41794.00
1175.170, 42031.00
1176.257, 41777.00
1177.344, 42021.00
1178.431, 42038.00
1179.518, 41926.00
1180.605, 42257.00
1181.691, 42133.00
1182.778, 42316.00
1183.864, 42285.00
1184.950, 42514.00
1186.036, 42483.00
1187.122, 42433.00
1188.207, 42424.00
1189.292, 42522.00
1190.378, 42335.00
1191.463, 42573.00
1192.548, 42486.00
1193.632, 42962.00
1194.717, 42876.00
1195.801, 42795.00
1196.886, 42657.00
1197.970, 43065.00
1199.054, 43046.00
1200.137, 42914.00
1201.221, 43225.00
1202.305, 43112.00
1203.388, 42983.00
1204.471, 43342.00
1205.554, 43186.00
1206.637, 43343.00
1207.719, 43405.00
1208.802, 43396.00
1209.884, 43520.00
1210.966, 43719.00
1212.048, 43368.00
1213.130, 43379.00
1214.212, 43741.00
1215.293, 43407.00
1216.374, 43623.00
1217.456, 43876.00
1218.536, 43876.00
1219.617, 44044.77
1220.698, 43931.00
1221.778, 44147.00
1222.859, 44047.00
1223.939, 43973.00
1225.019, 44193.00
1226.099, 44461.00
1227.178, 44205.00
1228.258, 44624.00
1229.337, 44332.00
1230.417, 44427.00
1231.496, 44338.00
1232.574, 44456.00
1233.653, 44336.00
1234.732, 44481.00
1235.810, 44669.00
1236.888, 44762.00
1237.966, 44662.00
1239.044, 44779.00
1240.122, 44718.00
1241.199, 44865.00
1242.277, 44995.00
1243.354, 44943.00
1244.431, 45030.00
1245.508, 45042.00
1246.585, 45109.00
1247.661, 44980.00
1248.738, 45162.00
1249.814, 45367.00
1250.890, 45200.00
1251.966, 45309.00
1253.042, 45057.00
1254.117, 45203.00
1255.193, 45311.00
1256.268, 45299.00
1257.343, 45412.00
1258.418, 45327.00
1259.493, 45469.00
1260.567, 45349.00
1261.642, 45605.00
1262.716, 45674.00
1263.790, 45836.00
1264.864, 45891.00
1265.938, 45843.00
1267.011, 45796.00
1268.085, 45869.00
1269.158, 45918.00
1270.231, 46074.00
1271.304, 46294.00
1272.377, 46317.00
1273.450, 46141.00
1274.522, 46254.00
1275.594, 46482.00
1276.666, 46253.00
1277.738, 46462.00
1278.810, 46390.00
1279.882, 46344.00
1280.953, 46672.00
1282.025, 46390.00
1283.096, 46700.00
1284.167, 46812.00
1285.238, 46898.00
1286.308, 46549.00
1287.379, 46896.00
1288.449, 46851.00
1289.519, 46902.00
1290.589, 46970.00
1291.659, 47103.00
1292.729, 47099.00
1293.798, 47178.00
1294.868, 47038.00
