##NAMES=Corundum
##RRUFFID=R060020
##IDEAL CHEMISTRY=Al_2_O_3_
##LOCALITY=Yogo Gulch, Montana, USA
##OWNER=RRUFF
##SOURCE=American Museum of Natural History
##DESCRIPTION=Water rounded light blue fragment
##STATUS=The identification of this mineral has been confirmed by X-ray diffraction and chemical analysis
##URL=rruff.info/R060020
##MEASURED CHEMISTRY=(Al_1.99_Fe^3+^_0.01_)_Î£=2_O_3_ ; Fe^3+^ by charge balance
##PIN_ID=L01955
##ORIENTATION=Laser parallel to c* (0 0 1). Fiducial mark perpendicular to laser is parallel to b [0 1 0]
179.5050, 10582.00
180.7290, 10675.00
181.9520, 10490.00
183.1760, 10507.00
184.3990, 10553.00
185.6220, 10735.00
186.8450, 10630.00
188.0670, 10857.00
189.2900, 10851.00
190.5120, 11181.00
191.7340, 11415.00
192.9560, 11459.32
194.1780, 11712.00
195.4000, 11538.00
196.6220, 11394.00
197.8430, 11220.00
199.0640, 11099.00
200.2860, 11057.00
201.5070, 11142.00
202.7270, 11121.00
203.9480, 11161.00
205.1690, 11003.00
206.3890, 10899.00
207.6090, 10765.00
208.8290, 10741.83
210.0490, 10834.00
211.2690, 10804.00
212.4890, 10702.00
213.7080, 10884.00
214.9280, 10785.00
216.1470, 10984.00
217.3660, 10884.00
218.5850, 10845.00
219.8030, 10782.00
221.0220, 10790.28
222.2400, 10891.00
223.4590, 10869.00
224.6770, 10874.00
225.8950, 10970.00
227.1120, 10862.00
228.3300, 10913.00
229.5480, 11009.00
230.7650, 11109.00
231.9820, 11063.00
233.1990, 10983.00
234.4160, 11144.00
235.6330, 11081.00
236.8490, 11038.00
238.0660, 11074.00
239.2820, 11124.00
240.4980, 11134.76
241.7140, 11201.00
242.9300, 11223.00
244.1460, 11195.00
245.3610, 11255.00
246.5770, 11160.00
247.7920, 11281.00
249.0070, 11306.00
250.2220, 11292.00
251.4370, 11368.00
252.6510, 11246.00
253.8660, 11339.00
255.0800, 11380.00
256.2940, 11463.00
257.5080, 11487.00
258.7220, 11545.00
259.9360, 11737.00
261.1490, 11899.00
262.3630, 11731.00
263.5760, 11643.00
264.7890, 11699.00
266.0020, 11555.00
267.2150, 11743.00
268.4270, 11725.00
269.6400, 11797.00
270.8520, 11812.00
272.0640, 11849.00
273.2760, 11993.00
274.4880, 12036.00
275.7000, 12155.00
276.9120, 12354.00
278.1230, 12519.00
279.3340, 12618.00
280.5450, 12742.00
281.7560, 12757.00
282.9670, 12621.00
284.1780, 12504.00
285.3880, 12290.00
286.5980, 12141.00
287.8090, 12261.00
289.0190, 12147.00
290.2290, 11899.00
291.4380, 12094.00
292.6480, 12094.00
293.8570, 11842.00
295.0670, 12064.00
296.2760, 12050.00
297.4850, 11925.00
298.6930, 12179.00
299.9020, 12024.00
301.1110, 11924.00
302.3190, 12057.00
303.5270, 12165.00
304.7350, 12109.00
305.9430, 12068.00
307.1510, 12157.00
308.3580, 12211.00
309.5660, 12176.00
310.7730, 12163.00
311.9800, 12183.40
313.1870, 12251.00
314.3940, 12211.00
315.6010, 12079.00
316.8070, 12115.00
318.0130, 12275.00
319.2200, 12346.00
320.4260, 12130.00
321.6310, 12340.00
322.8370, 12192.00
324.0430, 12276.00
325.2480, 12402.00
326.4540, 12295.00
327.6590, 12498.00
328.8640, 12482.00
330.0680, 12501.00
331.2730, 12510.00
332.4780, 12441.00
333.6820, 12502.00
334.8860, 12531.00
336.0900, 12438.00
337.2940, 12577.00
338.4980, 12475.00
339.7010, 12560.00
340.9050, 12401.00
342.1080, 12704.00
343.3110, 12488.00
344.5140, 12698.00
345.7170, 12625.00
346.9200, 12728.00
348.1220, 12796.00
349.3240, 12860.00
350.5270, 12895.91
351.7290, 12905.00
352.9310, 12912.00
354.1320, 12985.00
355.3340, 12952.00
356.5350, 13020.00
357.7370, 13153.00
358.9380, 13213.00
360.1390, 13391.00
361.3400, 13355.00
362.5400, 13476.00
363.7410, 13362.00
364.9410, 13293.00
366.1410, 13538.00
367.3410, 13429.00
368.5410, 13353.00
369.7410, 13679.00
370.9400, 13707.00
372.1400, 13899.00
373.3390, 14017.00
374.5380, 14212.00
375.7370, 14496.00
376.9360, 14742.00
378.1350, 14727.00
379.3330, 14798.00
380.5310, 14775.00
381.7300, 14676.00
382.9280, 14599.00
384.1260, 14664.00
385.3230, 14506.00
386.5210, 14872.00
387.7180, 14836.00
388.9160, 14846.00
390.1130, 15158.00
391.3100, 15380.00
392.5060, 15483.00
393.7030, 15493.00
394.9000, 15595.00
396.0960, 15509.00
397.2920, 15504.89
398.4880, 15470.00
399.6840, 15350.00
400.8800, 15216.00
402.0750, 15042.00
403.2710, 15128.00
404.4660, 15069.00
405.6610, 15143.00
406.8560, 15053.00
408.0510, 15253.00
409.2450, 15685.00
410.4400, 16105.00
411.6340, 16173.00
412.8280, 16796.00
414.0220, 17485.00
415.2160, 18246.00
416.4100, 18666.00
417.6030, 18213.00
418.7970, 17576.00
419.9900, 16655.00
421.1830, 16187.00
422.3760, 15531.00
423.5690, 15318.00
424.7610, 15209.00
425.9540, 14897.00
427.1460, 15089.00
428.3380, 15028.00
429.5300, 15052.00
430.7220, 14955.00
431.9140, 14910.00
433.1050, 14784.00
434.2970, 14790.00
435.4880, 14680.00
436.6790, 14697.00
437.8700, 14726.00
439.0610, 14652.00
440.2510, 14745.00
441.4420, 14732.00
442.6320, 14727.00
443.8220, 14780.00
445.0120, 14825.00
446.2020, 15056.00
447.3910, 14913.00
448.5810, 15105.00
449.7700, 15093.00
450.9600, 14994.00
452.1490, 14955.00
453.3370, 14951.70
454.5260, 14942.00
455.7150, 14931.00
456.9030, 14913.00
458.0910, 14848.00
459.2800, 15029.00
460.4670, 14931.00
461.6550, 15100.00
462.8430, 15047.00
464.0300, 15004.00
465.2180, 14962.00
466.4050, 15003.29
467.5920, 15288.00
468.7790, 15106.00
469.9650, 15175.00
471.1520, 15209.00
472.3380, 14891.00
473.5250, 15420.00
474.7110, 15122.00
475.8970, 15322.00
477.0820, 15233.00
478.2680, 15324.00
479.4540, 15471.00
480.6390, 15356.00
481.8240, 15605.00
483.0090, 15537.00
484.1940, 15528.00
485.3780, 15580.00
486.5630, 15546.00
487.7470, 15673.00
488.9320, 15738.00
490.1160, 15824.00
491.3000, 15711.00
492.4830, 15625.00
493.6670, 15884.00
494.8500, 15757.00
496.0340, 15877.00
497.2170, 15752.00
498.4000, 15905.00
499.5820, 15951.00
500.7650, 16024.00
501.9480, 16300.00
503.1300, 16153.00
504.3120, 16416.00
505.4940, 16574.00
506.6760, 16558.00
507.8580, 16951.00
509.0390, 16869.00
510.2210, 17180.00
511.4020, 17119.00
512.5830, 17419.00
513.7640, 17425.00
514.9450, 17391.00
516.1250, 17321.00
517.3060, 17538.00
518.4860, 17453.00
519.6660, 17477.00
520.8460, 17371.00
522.0260, 17152.00
523.2060, 17105.00
524.3850, 17039.32
525.5650, 17045.00
526.7440, 17001.00
527.9230, 16973.00
529.1020, 16958.00
530.2810, 16974.00
531.4590, 16863.00
532.6380, 16671.00
533.8160, 16744.00
534.9940, 16758.00
536.1720, 16872.00
537.3500, 16863.03
538.5270, 16745.00
539.7050, 16861.00
540.8820, 16864.00
542.0590, 16835.00
543.2360, 16578.00
544.4130, 16798.00
545.5900, 16739.00
546.7660, 16837.00
547.9430, 16841.00
549.1190, 16789.00
550.2950, 16896.00
551.4710, 16991.00
552.6470, 16911.00
553.8220, 16998.00
554.9980, 16916.00
556.1730, 17070.00
557.3480, 16854.00
558.5230, 17065.00
559.6980, 17043.00
560.8730, 17158.00
562.0470, 17128.00
563.2220, 17068.00
564.3960, 17005.00
565.5700, 17149.00
566.7440, 17053.00
567.9170, 17203.00
569.0910, 17457.00
570.2640, 17350.00
571.4380, 17733.00
572.6110, 17736.00
573.7840, 17903.00
574.9570, 17839.00
576.1290, 17813.00
577.3020, 17953.00
578.4740, 17819.00
579.6460, 17717.00
580.8180, 17590.00
581.9900, 17641.00
583.1620, 17438.00
584.3330, 17509.00
585.5040, 17455.00
586.6760, 17382.00
587.8470, 17523.00
589.0180, 17669.00
590.1880, 17734.00
591.3590, 17670.00
592.5290, 17687.00
593.7000, 17633.00
594.8700, 17861.00
596.0400, 17734.00
597.2090, 17957.00
598.3790, 17782.00
599.5490, 17820.00
600.7180, 17840.00
601.8870, 17864.00
603.0560, 18037.00
604.2250, 18077.00
605.3940, 18119.00
606.5620, 18327.00
607.7300, 18148.00
608.8990, 18276.00
610.0670, 18258.00
611.2350, 18416.00
612.4020, 18410.00
613.5700, 18594.00
614.7370, 18549.00
615.9050, 18725.00
617.0720, 18816.00
618.2390, 18880.00
619.4060, 18941.00
620.5720, 19065.76
621.7390, 19174.00
622.9050, 19322.00
624.0710, 19434.00
625.2370, 19586.00
626.4030, 19726.73
627.5690, 20093.00
628.7340, 20061.00
629.9000, 20438.00
631.0650, 20710.00
632.2300, 20848.00
633.3950, 21147.00
634.5600, 21472.00
635.7240, 21535.00
636.8890, 21667.00
638.0530, 21625.00
639.2170, 21553.00
640.3810, 21360.00
641.5450, 21515.00
642.7080, 21508.00
643.8720, 21107.00
645.0350, 20982.00
646.1980, 20757.00
647.3610, 20743.00
648.5240, 20520.00
649.6870, 20337.00
650.8490, 20283.00
652.0120, 20321.00
653.1740, 20031.00
654.3360, 19969.00
655.4980, 19783.00
656.6600, 19837.00
657.8210, 19745.00
658.9830, 19743.00
660.1440, 19767.00
661.3050, 19746.00
662.4660, 19841.00
663.6270, 19823.00
664.7870, 19754.00
665.9480, 19684.00
667.1080, 19726.00
668.2680, 19754.77
669.4280, 19821.00
670.5880, 19901.00
671.7480, 20038.00
672.9070, 20076.00
674.0670, 20008.00
675.2260, 20002.00
676.3850, 20347.00
677.5440, 20171.00
678.7030, 20147.00
679.8610, 19864.00
681.0200, 19998.00
682.1780, 19963.00
683.3360, 19944.00
684.4940, 19894.00
685.6520, 19976.00
686.8090, 20009.00
687.9670, 19979.61
689.1240, 19915.00
690.2810, 19963.00
691.4380, 19832.00
692.5950, 19854.00
693.7520, 19881.00
694.9080, 19876.00
696.0650, 19749.00
697.2210, 19945.00
698.3770, 20024.00
699.5330, 20076.00
700.6880, 19938.00
701.8440, 20183.00
702.9990, 20150.00
704.1550, 20256.00
705.3100, 20320.00
706.4650, 20437.00
707.6190, 20524.29
708.7740, 20611.00
709.9290, 20694.00
711.0830, 20888.00
712.2370, 20934.00
713.3910, 21056.00
714.5450, 21053.00
715.6980, 21062.00
716.8520, 21038.08
718.0050, 20932.00
719.1580, 20876.00
720.3110, 20883.00
721.4640, 20863.60
722.6170, 20904.19
723.7700, 20911.00
724.9220, 20983.00
726.0740, 21004.00
727.2260, 20969.00
728.3780, 21044.12
729.5300, 21015.00
730.6810, 21121.00
731.8330, 21218.00
732.9840, 21236.00
734.1350, 21244.00
735.2860, 21291.00
736.4370, 21435.00
737.5880, 21496.00
738.7380, 21649.00
739.8880, 21818.53
741.0390, 22173.00
742.1890, 22204.00
743.3380, 22430.00
744.4880, 22639.00
745.6380, 22744.00
746.7870, 23026.00
747.9360, 23104.00
749.0850, 23035.00
750.2340, 23178.00
751.3830, 23065.00
752.5310, 23031.00
753.6800, 22950.00
754.8280, 22825.00
755.9760, 22724.00
757.1240, 22620.00
758.2720, 22636.00
759.4190, 22440.00
760.5670, 22398.00
761.7140, 22331.00
762.8610, 22210.00
764.0080, 22269.00
765.1550, 22186.51
766.3020, 22171.00
767.4480, 22118.00
768.5950, 22217.00
769.7410, 22171.00
770.8870, 22344.00
772.0330, 22325.00
773.1780, 22490.00
774.3240, 22344.00
775.4690, 22439.00
776.6140, 22331.00
777.7590, 22347.00
778.9040, 22458.00
780.0490, 22503.00
781.1940, 22488.00
782.3380, 22559.00
783.4820, 22616.00
784.6260, 22499.00
785.7700, 22830.00
786.9140, 22678.00
788.0580, 22787.00
789.2010, 22658.00
790.3450, 22810.00
791.4880, 22954.00
792.6310, 22850.00
793.7730, 22913.00
794.9160, 22898.00
796.0590, 22861.00
797.2010, 23036.00
798.3430, 23330.00
799.4850, 23462.00
800.6270, 23585.00
801.7690, 23310.00
802.9100, 23326.00
804.0520, 23225.00
805.1930, 23422.00
806.3340, 23346.00
807.4750, 23693.00
808.6160, 23495.00
809.7560, 23535.00
810.8970, 23307.00
812.0370, 23530.00
813.1770, 23528.00
814.3170, 23506.00
815.4570, 23777.00
816.5960, 23444.00
817.7360, 23537.00
818.8750, 23814.00
820.0140, 23693.00
821.1530, 23814.00
822.2920, 23873.00
823.4310, 23589.00
824.5690, 23728.00
825.7070, 23867.00
826.8460, 23691.00
827.9840, 23762.00
829.1220, 23950.00
830.2590, 23917.00
831.3970, 23992.00
832.5340, 23801.00
833.6710, 24057.00
834.8080, 23913.00
835.9450, 24061.00
837.0820, 24092.00
838.2190, 23948.00
839.3550, 23888.00
840.4910, 24065.00
841.6270, 24299.00
842.7630, 24254.00
843.8990, 24149.00
845.0350, 24175.00
846.1700, 24222.00
847.3060, 24414.00
848.4410, 24465.00
849.5760, 24384.00
850.7100, 24582.00
851.8450, 24523.00
852.9800, 24472.00
854.1140, 24528.00
855.2480, 24490.00
856.3820, 24721.00
857.5160, 24621.00
858.6500, 24597.00
859.7830, 24650.00
860.9170, 24555.00
862.0500, 24609.00
863.1830, 24616.68
864.3160, 24685.00
865.4480, 24692.00
866.5810, 24784.00
867.7130, 24875.00
868.8460, 24904.53
869.9780, 24828.00
871.1100, 24941.00
872.2410, 25051.00
873.3730, 24940.00
874.5050, 25002.00
875.6360, 25138.00
876.7670, 24927.00
877.8980, 25059.00
879.0290, 25087.00
880.1590, 24961.00
881.2900, 25154.00
882.4200, 25039.00
883.5500, 25188.00
884.6800, 25244.00
885.8100, 25257.00
886.9400, 25472.00
888.0690, 25443.00
889.1990, 25472.00
890.3280, 25445.00
891.4570, 25339.00
892.5860, 25445.00
893.7140, 25487.00
894.8430, 25316.00
895.9710, 25548.00
897.1000, 25562.00
898.2280, 25512.00
899.3560, 25745.00
900.4830, 25602.00
901.6110, 25709.00
902.7380, 25763.00
903.8660, 25851.00
904.9930, 25916.00
906.1200, 26070.00
907.2460, 25816.00
908.3730, 26019.00
909.5000, 25928.00
910.6260, 25952.00
911.7520, 26119.00
912.8780, 25974.00
914.0040, 26097.00
915.1290, 26169.00
916.2550, 26287.00
917.3800, 26353.00
918.5050, 26350.00
919.6300, 26322.00
920.7550, 26393.80
921.8800, 26393.00
923.0040, 26441.00
924.1290, 26517.00
925.2530, 26434.00
926.3770, 26623.00
927.5010, 26778.00
928.6250, 26711.00
929.7480, 26717.00
930.8720, 26674.00
931.9950, 26798.00
933.1180, 26803.00
934.2410, 26834.02
935.3640, 26809.00
936.4860, 26861.00
937.6090, 26877.72
938.7310, 26960.00
939.8530, 26948.00
940.9750, 26957.00
942.0970, 27004.30
943.2180, 27199.00
944.3400, 27165.00
945.4610, 27208.00
946.5820, 27306.00
947.7030, 27289.00
948.8240, 27371.00
949.9450, 27431.17
951.0650, 27336.00
952.1860, 27506.00
953.3060, 27629.00
954.4260, 27539.00
955.5460, 27605.00
956.6650, 27543.00
957.7850, 27913.00
958.9040, 27828.00
960.0230, 27756.00
961.1420, 27875.00
962.2610, 27785.00
963.3800, 27884.00
964.4990, 27783.00
965.6170, 27751.00
966.7350, 27743.00
967.8530, 27931.00
968.9710, 28137.00
970.0890, 28098.00
971.2070, 28187.00
972.3240, 28354.00
973.4410, 28262.00
974.5580, 28262.00
975.6750, 28223.00
976.7920, 28326.00
977.9090, 28382.00
979.0250, 28523.00
980.1410, 28506.00
981.2580, 28534.00
982.3740, 28573.00
983.4890, 28671.75
984.6050, 28771.00
985.7200, 28981.00
986.8360, 29110.00
987.9510, 29384.00
989.0660, 29296.00
990.1810, 29071.00
991.2950, 29213.00
992.4100, 29102.00
993.5240, 28975.00
994.6390, 28915.00
995.7530, 29259.00
996.8660, 29203.00
997.9800, 29215.00
999.0940, 29242.00
1000.207, 29138.00
1001.320, 29301.00
1002.433, 29314.00
1003.546, 29429.00
1004.659, 29348.00
1005.772, 29645.00
1006.884, 29417.00
1007.996, 29629.00
1009.108, 29643.00
1010.220, 29512.00
1011.332, 29406.00
1012.444, 29431.13
1013.555, 29776.00
1014.666, 29543.00
1015.777, 29732.00
1016.888, 30018.00
1017.999, 29783.00
1019.110, 30013.00
1020.220, 29930.00
1021.331, 29810.00
1022.441, 30056.00
1023.551, 30238.00
1024.661, 30196.00
1025.770, 30166.00
1026.880, 30050.00
1027.989, 30090.42
1029.098, 30114.00
1030.207, 30192.00
1031.316, 30295.00
1032.425, 30478.00
1033.533, 30504.00
1034.642, 30682.00
1035.750, 30672.00
1036.858, 30578.00
1037.966, 30657.00
1039.073, 30603.00
1040.181, 30795.00
1041.288, 30773.63
1042.396, 30850.00
1043.503, 30871.00
1044.610, 30913.00
1045.716, 31045.00
1046.823, 30912.00
1047.929, 31245.00
1049.036, 31068.00
1050.142, 31166.00
1051.248, 31005.00
1052.353, 31239.00
1053.459, 31360.00
1054.564, 31283.00
1055.670, 31355.00
1056.775, 31509.00
1057.880, 31569.00
1058.985, 31597.00
1060.089, 31585.00
1061.194, 31838.00
1062.298, 31697.00
1063.402, 31923.00
1064.506, 31859.00
1065.610, 31741.00
1066.713, 31998.00
1067.817, 32198.00
1068.920, 32252.00
1070.023, 32262.00
1071.126, 32280.00
1072.229, 32049.00
1073.332, 32172.00
1074.435, 32187.00
1075.537, 32434.00
1076.639, 32477.00
1077.741, 32338.39
1078.843, 32611.10
1079.945, 32783.09
1081.046, 32859.73
1082.148, 32555.63
1083.249, 32743.20
1084.350, 32733.71
1085.451, 32716.14
1086.551, 32972.86
1087.652, 32724.11
1088.752, 32976.48
1089.853, 33028.84
1090.953, 33172.71
1092.053, 33118.33
1093.152, 33125.14
1094.252, 33330.32
1095.351, 33425.64
1096.451, 33348.43
1097.550, 33498.09
1098.649, 33242.34
1099.748, 33342.34
1100.846, 33390.00
1101.945, 33437.00
1103.043, 33434.00
1104.141, 33445.00
1105.239, 33347.00
1106.337, 33536.00
1107.434, 33429.00
1108.532, 33723.00
1109.629, 33683.00
1110.726, 33603.00
1111.823, 33578.00
1112.920, 33692.00
1114.017, 33729.00
1115.113, 33808.00
1116.210, 33938.00
1117.306, 34045.00
1118.402, 34108.25
1119.498, 34093.00
1120.593, 34188.00
1121.689, 34209.00
1122.784, 34145.00
1123.879, 34171.00
1124.974, 34213.00
1126.069, 34552.00
1127.164, 34160.00
1128.259, 34430.55
1129.353, 35029.00
1130.447, 34561.00
1131.541, 34647.00
1132.635, 34604.00
1133.729, 34768.00
1134.822, 34827.00
1135.916, 34980.00
1137.009, 34855.00
1138.102, 35066.00
1139.195, 34894.00
1140.288, 35174.00
1141.380, 35059.00
1142.473, 35181.00
1143.565, 35160.00
1144.657, 35257.00
1145.749, 35392.00
1146.841, 35453.00
1147.932, 35304.00
1149.024, 35256.00
1150.115, 35441.00
1151.206, 35259.00
1152.297, 35582.00
1153.388, 35588.00
1154.479, 35786.00
1155.569, 35631.00
1156.659, 35677.00
1157.750, 35524.00
1158.839, 35694.00
1159.929, 35906.00
1161.019, 35901.00
1162.108, 35950.00
1163.198, 36113.00
1164.287, 35945.00
1165.376, 36177.00
1166.465, 36086.00
1167.553, 36212.00
1168.642, 36134.00
1169.730, 36286.00
1170.818, 36364.00
1171.906, 36619.00
1172.994, 36526.00
1174.082, 36253.00
1175.170, 36550.00
1176.257, 36500.00
1177.344, 36838.00
1178.431, 36426.00
1179.518, 36802.00
1180.605, 36707.00
1181.691, 36764.00
1182.778, 36750.00
1183.864, 36884.00
1184.950, 36891.00
1186.036, 37194.00
1187.122, 37108.00
1188.207, 37167.00
1189.292, 37074.00
1190.378, 37303.00
1191.463, 37442.00
1192.548, 37378.00
1193.632, 37291.00
1194.717, 37694.00
1195.801, 37357.00
1196.886, 37819.00
1197.970, 37635.00
1199.054, 37793.00
1200.137, 37668.00
1201.221, 37844.00
1202.305, 37566.00
1203.388, 37643.00
1204.471, 37947.00
1205.554, 37497.00
1206.637, 38076.00
1207.719, 37998.00
1208.802, 38141.00
1209.884, 38391.00
1210.966, 37953.00
1212.048, 38282.00
1213.130, 38128.00
1214.212, 38425.00
1215.293, 38655.00
1216.374, 38369.00
1217.456, 38554.00
1218.536, 38533.00
1219.617, 38834.00
1220.698, 38873.00
1221.778, 38737.00
1222.859, 38769.00
1223.939, 38836.00
1225.019, 38685.00
1226.099, 39064.00
1227.178, 38743.00
1228.258, 39143.00
1229.337, 39041.00
1230.417, 39277.00
1231.496, 39383.00
1232.574, 39369.00
1233.653, 39418.00
1234.732, 39351.00
1235.810, 39346.00
1236.888, 39556.00
1237.966, 39523.00
1239.044, 39645.00
1240.122, 39637.00
1241.199, 39761.00
1242.277, 39778.00
1243.354, 39893.00
1244.431, 39841.00
1245.508, 39823.00
1246.585, 39876.67
1247.661, 39980.00
1248.738, 39968.00
1249.814, 40080.00
1250.890, 40226.00
1251.966, 40051.00
1253.042, 40283.00
1254.117, 40225.75
1255.193, 40161.00
1256.268, 40299.00
1257.343, 40135.00
1258.418, 40309.00
1259.493, 40411.00
1260.567, 40536.00
1261.642, 40650.00
1262.716, 40711.23
1263.790, 40827.00
1264.864, 40840.00
1265.938, 40944.00
1267.011, 41045.00
1268.085, 40848.00
1269.158, 40911.00
1270.231, 41154.00
1271.304, 40833.00
1272.377, 41237.00
1273.450, 41099.00
1274.522, 41184.00
1275.594, 41010.00
1276.666, 41262.00
1277.738, 41461.00
1278.810, 41304.00
1279.882, 41570.00
1280.953, 41348.00
1282.025, 41433.00
1283.096, 41435.00
1284.167, 41850.00
1285.238, 41629.00
1286.308, 42090.00
1287.379, 41984.00
1288.449, 42220.00
1289.519, 42094.00
1290.589, 42002.00
1291.659, 42342.00
1292.729, 42463.00
1293.798, 42631.00
1294.868, 42581.00
1295.937, 42528.00
1297.006, 42667.00
1298.075, 42628.00
1299.143, 42694.00
1300.212, 42984.00
1301.280, 42719.00
1302.348, 42946.00
1303.416, 42854.00
1304.484, 43019.00
1305.552, 43228.00
1306.620, 43022.00
1307.687, 43024.00
1308.754, 43450.00
1309.821, 43011.00
1310.888, 43455.00
1311.955, 43306.00
1313.021, 43376.00
1314.088, 43252.00
1315.154, 43492.00
1316.220, 43532.00
1317.286, 43842.00
1318.352, 43581.00
1319.417, 43636.00
1320.483, 43950.00
1321.548, 43812.00
1322.613, 43676.00
1323.678, 44029.00
1324.743, 44057.00
1325.807, 43964.00
1326.872, 44207.00
1327.936, 44189.00
1329.000, 44307.00
1330.064, 44307.00
1331.128, 44380.00
1332.191, 44599.00
1333.255, 44529.00
1334.318, 44849.00
1335.381, 44526.00
1336.444, 44481.00
1337.507, 44814.00
1338.569, 44722.00
1339.632, 44964.00
1340.694, 44701.00
1341.756, 45102.00
1342.818, 45190.00
1343.880, 45214.00
1344.941, 45409.00
1346.003, 45243.00
1347.064, 45084.00
1348.125, 45269.00
1349.186, 45489.00
