##NAMES=Corundum
##RRUFFID=R040096
##IDEAL CHEMISTRY=Al_2_O_3_
##LOCALITY=Sri Lanka
##OWNER=RRUFF
##SOURCE=University of Arizona Mineral Museum
##DESCRIPTION=Pale purple hexagonal prism
##STATUS=The identification of this mineral has been confirmed by X-ray diffraction and chemical analysis
##URL=rruff.info/R040096
##MEASURED CHEMISTRY=Al_2.00_O_3_
##PIN_ID=L01813
##ORIENTATION=Laser parallel to -c* (0 0 -1). Fiducial mark perpendicular to laser is parallel to a [1 0 0]
113.2080, 8914.000
114.4400, 9228.000
115.6710, 9206.000
116.9030, 9124.000
118.1340, 9069.000
119.3650, 9157.000
120.5960, 9165.000
121.8270, 9299.000
123.0580, 9372.000
124.2880, 9207.000
125.5190, 9270.000
126.7490, 9288.000
127.9790, 9387.000
129.2090, 9446.000
130.4390, 9469.000
131.6680, 9539.000
132.8980, 9673.000
134.1270, 9630.000
135.3560, 9687.000
136.5850, 9722.000
137.8140, 9886.000
139.0430, 9894.000
140.2710, 9855.000
141.5000, 9733.000
142.7280, 9758.000
143.9560, 9824.000
145.1840, 9956.000
146.4120, 9761.000
147.6390, 9949.000
148.8670, 9880.000
150.0940, 10091.00
151.3210, 10211.00
152.5490, 10108.00
153.7750, 10113.00
155.0020, 10131.00
156.2290, 9990.000
157.4550, 9896.000
158.6810, 10098.00
159.9080, 10024.00
161.1340, 10290.00
162.3590, 10222.00
163.5850, 10293.00
164.8110, 10173.00
166.0360, 10372.00
167.2610, 10287.00
168.4860, 10451.00
169.7110, 10498.00
170.9360, 10488.00
172.1610, 10401.00
173.3850, 10377.00
174.6100, 10338.00
175.8340, 10486.00
177.0580, 10541.00
178.2820, 10569.00
179.5050, 10503.00
180.7290, 10606.00
181.9520, 10551.00
183.1760, 10626.00
184.3990, 10667.00
185.6220, 10670.71
186.8450, 10730.00
188.0670, 10710.00
189.2900, 10785.00
190.5120, 10784.00
191.7340, 10956.00
192.9560, 10891.00
194.1780, 11014.00
195.4000, 10889.00
196.6220, 11055.00
197.8430, 11122.00
199.0640, 11095.00
200.2860, 11082.00
201.5070, 11136.00
202.7270, 11022.00
203.9480, 10962.00
205.1690, 10894.00
206.3890, 10847.00
207.6090, 10847.83
208.8290, 10861.71
210.0490, 10887.00
211.2690, 10941.00
212.4890, 10985.00
213.7080, 10996.00
214.9280, 11037.00
216.1470, 10964.00
217.3660, 11072.00
218.5850, 11055.00
219.8030, 11192.00
221.0220, 11200.63
222.2400, 11227.66
223.4590, 11233.00
224.6770, 11248.00
225.8950, 11216.00
227.1120, 11193.00
228.3300, 11214.00
229.5480, 11296.00
230.7650, 11225.00
231.9820, 11268.00
233.1990, 11339.00
234.4160, 11338.00
235.6330, 11351.00
236.8490, 11366.42
238.0660, 11372.27
239.2820, 11369.00
240.4980, 11433.00
241.7140, 11451.00
242.9300, 11567.00
244.1460, 11530.00
245.3610, 11569.00
246.5770, 11474.00
247.7920, 11552.00
249.0070, 11482.00
250.2220, 11702.00
251.4370, 11654.00
252.6510, 11745.00
253.8660, 11597.00
255.0800, 11665.00
256.2940, 11940.00
257.5080, 12365.00
258.7220, 12300.00
259.9360, 12085.00
261.1490, 11814.00
262.3630, 11780.00
263.5760, 11857.00
264.7890, 11774.00
266.0020, 11966.00
267.2150, 11904.00
268.4270, 11941.00
269.6400, 11994.00
270.8520, 11895.00
272.0640, 11963.00
273.2760, 12051.00
274.4880, 12065.00
275.7000, 12104.00
276.9120, 12044.00
278.1230, 12118.00
279.3340, 12041.00
280.5450, 12175.00
281.7560, 11981.00
282.9670, 12147.00
284.1780, 12117.00
285.3880, 12130.00
286.5980, 12080.00
287.8090, 12072.00
289.0190, 12036.00
290.2290, 12147.00
291.4380, 12333.00
292.6480, 12296.00
293.8570, 12434.00
295.0670, 12357.00
296.2760, 12408.00
297.4850, 12423.00
298.6930, 12376.00
299.9020, 12411.00
301.1110, 12464.00
302.3190, 12360.00
303.5270, 12508.00
304.7350, 12581.00
305.9430, 12525.00
307.1510, 12706.00
308.3580, 12462.00
309.5660, 12703.00
310.7730, 12520.00
311.9800, 12613.00
313.1870, 12451.00
314.3940, 12700.00
315.6010, 12747.00
316.8070, 12657.00
318.0130, 12734.00
319.2200, 12692.00
320.4260, 12669.00
321.6310, 12852.00
322.8370, 12818.00
324.0430, 12799.00
325.2480, 12836.00
326.4540, 12878.00
327.6590, 12959.00
328.8640, 12952.14
330.0680, 13042.00
331.2730, 12958.00
332.4780, 13004.00
333.6820, 13010.00
334.8860, 13117.00
336.0900, 13097.00
337.2940, 13132.00
338.4980, 13154.00
339.7010, 13181.00
340.9050, 13232.00
342.1080, 13224.72
343.3110, 13257.00
344.5140, 13216.00
345.7170, 13280.00
346.9200, 13267.00
348.1220, 13393.00
349.3240, 13337.00
350.5270, 13381.00
351.7290, 13169.00
352.9310, 13252.63
354.1320, 13335.00
355.3340, 13316.00
356.5350, 13418.00
357.7370, 13475.00
358.9380, 13494.37
360.1390, 13601.00
361.3400, 13518.00
362.5400, 13612.00
363.7410, 13540.00
364.9410, 13558.00
366.1410, 13743.00
367.3410, 13827.00
368.5410, 13822.00
369.7410, 14190.00
370.9400, 14163.00
372.1400, 14137.00
373.3390, 14334.00
374.5380, 14530.00
375.7370, 14285.00
376.9360, 14343.00
378.1350, 14314.00
379.3330, 14286.00
380.5310, 14266.18
381.7300, 14187.00
382.9280, 14174.00
384.1260, 14115.00
385.3230, 14073.00
386.5210, 14144.00
387.7180, 14135.00
388.9160, 14079.00
390.1130, 14030.00
391.3100, 14174.00
392.5060, 14104.00
393.7030, 14253.00
394.9000, 14299.00
396.0960, 14179.00
397.2920, 14494.00
398.4880, 14323.00
399.6840, 14471.00
400.8800, 14491.00
402.0750, 14784.00
403.2710, 14841.00
404.4660, 15324.00
405.6610, 16285.00
406.8560, 17953.00
408.0510, 19251.00
409.2450, 19570.00
410.4400, 20435.36
411.6340, 20384.00
412.8280, 20909.00
414.0220, 20746.00
415.2160, 20564.00
416.4100, 20413.00
417.6030, 19625.00
418.7970, 18989.00
419.9900, 17829.00
421.1830, 16858.00
422.3760, 16048.00
423.5690, 15783.00
424.7610, 15405.00
425.9540, 15410.00
427.1460, 15424.00
428.3380, 15451.00
429.5300, 15421.00
430.7220, 15461.00
431.9140, 15365.00
433.1050, 15250.00
434.2970, 14947.00
435.4880, 15239.00
436.6790, 15066.00
437.8700, 15232.00
439.0610, 15246.00
440.2510, 15401.00
441.4420, 15559.00
442.6320, 15487.00
443.8220, 15606.00
445.0120, 15746.00
446.2020, 15556.00
447.3910, 15563.00
448.5810, 15662.00
449.7700, 15627.00
450.9600, 15586.45
452.1490, 15497.00
453.3370, 15423.00
454.5260, 15327.00
455.7150, 15224.00
456.9030, 15231.82
458.0910, 15325.00
459.2800, 15266.00
460.4670, 15348.00
461.6550, 15397.00
462.8430, 15639.00
464.0300, 15441.00
465.2180, 15523.00
466.4050, 15626.00
467.5920, 15540.00
468.7790, 15603.00
469.9650, 15606.00
471.1520, 15682.00
472.3380, 15582.00
473.5250, 15697.00
474.7110, 15653.00
475.8970, 15713.37
477.0820, 15863.00
478.2680, 15846.00
479.4540, 15801.00
480.6390, 15858.00
481.8240, 15840.00
483.0090, 15835.00
484.1940, 15956.00
485.3780, 15969.00
486.5630, 16005.00
487.7470, 16034.00
488.9320, 16097.00
490.1160, 15971.00
491.3000, 16032.00
492.4830, 16181.00
493.6670, 15912.00
494.8500, 16102.00
496.0340, 16057.00
497.2170, 16258.00
498.4000, 16150.00
499.5820, 16191.00
500.7650, 16325.00
501.9480, 16198.00
503.1300, 16206.00
504.3120, 16355.00
505.4940, 16201.00
506.6760, 16374.00
507.8580, 16458.00
509.0390, 16387.00
510.2210, 16423.00
511.4020, 16342.00
512.5830, 16510.00
513.7640, 16508.00
514.9450, 16530.00
516.1250, 16668.00
517.3060, 16560.00
518.4860, 16657.00
519.6660, 16648.00
520.8460, 16696.00
522.0260, 16763.00
523.2060, 16670.00
524.3850, 16896.00
525.5650, 16781.00
526.7440, 16823.00
527.9230, 16761.00
529.1020, 16903.00
530.2810, 16945.00
531.4590, 16905.00
532.6380, 16930.00
533.8160, 16946.00
534.9940, 16853.00
536.1720, 17261.00
537.3500, 17178.00
538.5270, 17161.00
539.7050, 17187.00
540.8820, 17144.00
542.0590, 17150.00
543.2360, 17290.00
544.4130, 17334.00
545.5900, 17247.00
546.7660, 17401.00
547.9430, 17329.00
549.1190, 17352.00
550.2950, 17362.00
551.4710, 17354.00
552.6470, 17252.00
553.8220, 17383.00
554.9980, 17443.00
556.1730, 17409.00
557.3480, 17549.00
558.5230, 17568.00
559.6980, 17579.75
560.8730, 17494.00
562.0470, 17622.00
563.2220, 17760.00
564.3960, 17845.00
565.5700, 18023.00
566.7440, 18157.00
567.9170, 18471.00
569.0910, 18629.00
570.2640, 18630.00
571.4380, 19119.00
572.6110, 19050.00
573.7840, 19207.00
574.9570, 19230.00
576.1290, 19079.00
577.3020, 18919.00
578.4740, 18608.00
579.6460, 18362.00
580.8180, 18451.00
581.9900, 18203.00
583.1620, 18211.00
584.3330, 18073.00
585.5040, 17953.00
586.6760, 18147.00
587.8470, 18232.00
589.0180, 18291.00
590.1880, 18128.00
591.3590, 18105.00
592.5290, 18168.00
593.7000, 18270.00
594.8700, 18279.00
596.0400, 18388.00
597.2090, 18389.00
598.3790, 18434.00
599.5490, 18463.00
600.7180, 18357.00
601.8870, 18421.00
603.0560, 18394.07
604.2250, 18434.00
605.3940, 18476.00
606.5620, 18452.00
607.7300, 18544.38
608.8990, 18689.00
610.0670, 18697.00
611.2350, 18775.00
612.4020, 18857.00
613.5700, 18713.00
614.7370, 18743.00
615.9050, 18749.12
617.0720, 18912.00
618.2390, 18798.00
619.4060, 18986.00
620.5720, 19069.00
621.7390, 18847.00
622.9050, 18956.00
624.0710, 18965.00
625.2370, 19214.00
626.4030, 19093.00
627.5690, 19132.00
628.7340, 19207.00
629.9000, 19066.00
631.0650, 19144.00
632.2300, 19210.00
633.3950, 19185.00
634.5600, 19337.00
635.7240, 19408.00
636.8890, 19338.00
638.0530, 19280.00
639.2170, 19534.00
640.3810, 19565.00
641.5450, 19441.00
642.7080, 19488.00
643.8720, 19454.91
645.0350, 19447.39
646.1980, 19504.00
647.3610, 19514.00
648.5240, 19568.10
649.6870, 19822.00
650.8490, 19728.00
652.0120, 19806.00
653.1740, 19982.00
654.3360, 19928.00
655.4980, 19812.00
656.6600, 19849.00
657.8210, 19993.00
658.9830, 19864.00
660.1440, 19804.00
661.3050, 19742.00
662.4660, 20015.00
663.6270, 19962.00
664.7870, 20103.00
665.9480, 19998.00
667.1080, 19841.00
668.2680, 20073.00
669.4280, 20295.00
670.5880, 20201.00
671.7480, 20130.00
672.9070, 20368.00
674.0670, 20142.00
675.2260, 20246.00
676.3850, 20359.00
677.5440, 20231.00
678.7030, 20407.00
679.8610, 20533.00
681.0200, 20603.00
682.1780, 20578.00
683.3360, 20465.00
684.4940, 20421.00
685.6520, 20521.00
686.8090, 20504.00
687.9670, 20484.00
689.1240, 20714.00
690.2810, 20626.00
691.4380, 20821.00
692.5950, 20782.00
693.7520, 20521.00
694.9080, 20738.00
696.0650, 20958.00
697.2210, 20610.00
698.3770, 20804.00
699.5330, 20930.00
700.6880, 20935.00
701.8440, 20911.00
702.9990, 21171.00
704.1550, 21202.00
705.3100, 21133.00
706.4650, 21178.00
707.6190, 21141.00
708.7740, 21038.00
709.9290, 21292.00
711.0830, 21384.00
712.2370, 21303.00
713.3910, 21078.00
714.5450, 21347.00
715.6980, 21258.10
716.8520, 21339.00
718.0050, 21456.00
719.1580, 21598.00
720.3110, 21599.26
721.4640, 21705.00
722.6170, 21629.00
723.7700, 21794.00
724.9220, 21852.00
726.0740, 22147.00
727.2260, 22151.00
728.3780, 22189.00
729.5300, 22275.00
730.6810, 22579.00
731.8330, 22621.00
732.9840, 22808.00
734.1350, 22913.00
735.2860, 23383.00
736.4370, 23413.00
737.5880, 23825.00
738.7380, 24164.00
739.8880, 24475.00
741.0390, 24872.00
742.1890, 25606.00
743.3380, 25676.00
744.4880, 26137.00
745.6380, 26335.00
746.7870, 26561.00
747.9360, 26525.00
749.0850, 26194.00
750.2340, 26037.00
751.3830, 25894.00
752.5310, 25350.00
753.6800, 25032.00
754.8280, 24791.00
755.9760, 24429.00
757.1240, 24109.00
758.2720, 24042.00
759.4190, 23893.00
760.5670, 23492.00
761.7140, 23494.00
762.8610, 23440.00
764.0080, 23447.00
765.1550, 23403.00
766.3020, 23203.00
767.4480, 23171.00
768.5950, 23425.00
769.7410, 23116.00
770.8870, 23442.00
772.0330, 23250.00
773.1780, 23136.00
774.3240, 23286.00
775.4690, 23389.00
776.6140, 23460.00
777.7590, 23502.61
778.9040, 23506.46
780.0490, 23447.00
781.1940, 23477.00
782.3380, 23483.87
783.4820, 23489.86
784.6260, 23503.00
785.7700, 23546.00
786.9140, 23481.00
788.0580, 23518.00
789.2010, 23370.00
790.3450, 23364.00
791.4880, 23484.00
792.6310, 23629.00
793.7730, 23694.00
794.9160, 23557.00
796.0590, 23528.00
797.2010, 23645.00
798.3430, 23776.00
799.4850, 23667.00
800.6270, 23895.00
801.7690, 23817.00
802.9100, 23998.00
804.0520, 23825.00
805.1930, 23859.00
806.3340, 24026.00
807.4750, 23925.00
808.6160, 23921.00
809.7560, 24090.00
810.8970, 23981.00
812.0370, 24028.00
813.1770, 24225.00
814.3170, 24074.00
815.4570, 24175.00
816.5960, 24299.00
817.7360, 24093.00
818.8750, 24341.00
820.0140, 24479.00
821.1530, 24607.00
822.2920, 24420.00
823.4310, 24345.00
824.5690, 24379.00
825.7070, 24537.00
826.8460, 24539.00
827.9840, 24679.00
829.1220, 24556.00
830.2590, 24747.00
831.3970, 24740.00
832.5340, 24677.00
833.6710, 24674.00
834.8080, 24678.00
835.9450, 24706.43
837.0820, 24823.00
838.2190, 24795.00
839.3550, 24881.00
840.4910, 24882.00
841.6270, 25003.00
842.7630, 25275.34
843.8990, 25346.00
845.0350, 25320.83
846.1700, 25113.00
847.3060, 25131.00
848.4410, 25267.00
849.5760, 25157.00
850.7100, 25169.00
851.8450, 25278.00
852.9800, 25338.00
854.1140, 25549.00
855.2480, 25574.00
856.3820, 25536.00
857.5160, 25546.00
858.6500, 25407.00
859.7830, 25713.00
860.9170, 25484.00
862.0500, 25427.00
863.1830, 25700.00
864.3160, 25660.00
865.4480, 25746.00
866.5810, 25586.00
867.7130, 25715.00
868.8460, 25716.00
869.9780, 25804.00
871.1100, 25948.00
872.2410, 26110.00
873.3730, 25883.00
874.5050, 26123.00
875.6360, 25911.00
876.7670, 25971.00
877.8980, 26038.00
879.0290, 26090.00
880.1590, 25962.00
881.2900, 26194.00
882.4200, 25998.00
883.5500, 26386.00
884.6800, 26281.00
885.8100, 26118.00
886.9400, 26165.00
888.0690, 26224.00
889.1990, 26379.00
890.3280, 26431.55
891.4570, 26470.00
892.5860, 26597.00
893.7140, 26663.00
894.8430, 26706.96
895.9710, 26668.00
897.1000, 26684.00
898.2280, 26711.76
899.3560, 26738.68
900.4830, 26803.00
901.6110, 26854.00
902.7380, 26973.00
903.8660, 27065.00
904.9930, 26870.00
906.1200, 26833.00
907.2460, 27123.00
908.3730, 26848.00
909.5000, 27051.00
910.6260, 26897.00
911.7520, 27111.00
912.8780, 27215.00
914.0040, 27124.00
915.1290, 27338.00
916.2550, 27258.00
917.3800, 27379.00
918.5050, 27337.00
919.6300, 27522.00
920.7550, 27407.00
921.8800, 27544.00
923.0040, 27852.00
924.1290, 27309.00
925.2530, 27423.00
926.3770, 27499.00
927.5010, 27709.00
928.6250, 27705.00
929.7480, 27663.00
930.8720, 27982.00
931.9950, 27820.00
933.1180, 27910.00
934.2410, 27996.00
935.3640, 27909.00
936.4860, 27939.00
937.6090, 28234.00
938.7310, 27956.00
939.8530, 28322.00
940.9750, 28138.00
942.0970, 28451.00
943.2180, 28418.00
944.3400, 28213.00
945.4610, 28173.00
946.5820, 28248.00
947.7030, 28335.00
948.8240, 28385.00
949.9450, 28627.00
951.0650, 28535.00
952.1860, 28909.00
953.3060, 28742.00
954.4260, 28692.00
955.5460, 28724.00
956.6650, 28638.00
957.7850, 28838.00
958.9040, 28658.00
960.0230, 28819.00
961.1420, 28978.00
962.2610, 29170.00
963.3800, 29136.00
964.4990, 29174.34
965.6170, 29040.00
966.7350, 29109.00
967.8530, 29156.00
968.9710, 29222.00
970.0890, 29240.59
971.2070, 29291.00
972.3240, 29278.00
973.4410, 29378.00
974.5580, 29421.00
975.6750, 29275.00
976.7920, 29560.00
977.9090, 29808.00
979.0250, 29630.00
980.1410, 29499.00
981.2580, 29660.00
982.3740, 29861.00
983.4890, 29782.00
984.6050, 29726.00
985.7200, 29833.00
986.8360, 29968.00
987.9510, 30066.00
989.0660, 29859.00
990.1810, 29866.00
991.2950, 30008.00
992.4100, 30006.00
993.5240, 30363.00
994.6390, 30325.00
995.7530, 30339.00
996.8660, 30229.00
997.9800, 30614.00
999.0940, 30330.00
1000.207, 30198.00
1001.320, 30523.00
1002.433, 30492.00
1003.546, 30642.00
1004.659, 30695.00
1005.772, 30724.00
1006.884, 30782.41
1007.996, 30766.00
1009.108, 30793.00
1010.220, 30854.00
1011.332, 30809.00
1012.444, 30520.00
1013.555, 31031.00
1014.666, 31032.00
1015.777, 30855.00
1016.888, 31125.00
1017.999, 31122.00
1019.110, 31093.00
1020.220, 31159.00
1021.331, 31134.27
1022.441, 31113.00
1023.551, 31201.00
1024.661, 31116.00
1025.770, 31275.00
1026.880, 31326.00
1027.989, 31434.00
1029.098, 31571.00
1030.207, 31586.00
1031.316, 31507.00
1032.425, 31668.00
1033.533, 31521.00
1034.642, 31740.00
1035.750, 31888.00
1036.858, 31784.00
1037.966, 31770.00
1039.073, 31996.00
1040.181, 32037.00
1041.288, 31871.00
1042.396, 31931.00
1043.503, 32114.00
1044.610, 32199.00
1045.716, 32267.40
1046.823, 32206.00
1047.929, 32384.00
1049.036, 32409.00
1050.142, 32463.00
1051.248, 32306.00
1052.353, 32300.00
1053.459, 32251.00
1054.564, 32499.00
1055.670, 32273.00
1056.775, 32660.00
1057.880, 32751.00
1058.985, 32596.00
1060.089, 32862.00
1061.194, 32676.00
1062.298, 32892.00
1063.402, 32703.00
1064.506, 33036.00
1065.610, 33006.00
1066.713, 33038.00
1067.817, 32947.00
1068.920, 32971.00
1070.023, 32978.05
1071.126, 32893.00
1072.229, 33064.00
1073.332, 33228.00
1074.435, 33377.00
1075.537, 33321.00
1076.639, 33364.00
1077.741, 33541.00
1078.843, 33644.00
1079.945, 33422.00
1081.046, 33438.00
1082.148, 33592.00
1083.249, 33601.00
1084.350, 33698.00
1085.451, 33797.00
1086.551, 33756.00
1087.652, 33699.00
1088.752, 33929.00
1089.853, 33696.00
1090.953, 33963.00
1092.053, 33905.00
1093.152, 33853.00
1094.252, 34041.00
1095.351, 34013.82
1096.451, 34007.00
1097.550, 34048.00
1098.649, 34207.00
1099.748, 34019.00
1100.846, 34405.00
1101.945, 34467.00
1103.043, 34335.00
1104.141, 34445.00
1105.239, 34289.00
1106.337, 34338.11
1107.434, 34384.10
1108.532, 34413.00
1109.629, 34514.00
1110.726, 34617.00
1111.823, 34712.00
1112.920, 34857.00
1114.017, 34900.00
1115.113, 34806.00
1116.210, 34848.00
1117.306, 34997.00
1118.402, 35116.00
1119.498, 35171.00
1120.593, 35347.00
1121.689, 35205.00
1122.784, 35126.00
1123.879, 35186.00
1124.974, 35175.00
1126.069, 35266.00
1127.164, 35378.00
1128.259, 35387.00
1129.353, 35322.00
1130.447, 35357.00
1131.541, 35538.00
1132.635, 35429.00
1133.729, 35587.00
1134.822, 35639.00
1135.916, 35625.00
1137.009, 35801.00
1138.102, 35708.00
1139.195, 35830.00
1140.288, 35633.00
1141.380, 35862.00
1142.473, 35965.00
1143.565, 35930.00
1144.657, 36028.00
1145.749, 36043.00
1146.841, 36237.00
1147.932, 35971.00
1149.024, 36031.00
1150.115, 36443.00
1151.206, 36206.00
1152.297, 36135.00
1153.388, 36260.00
1154.479, 36356.00
1155.569, 36535.00
1156.659, 36524.00
1157.750, 36639.00
1158.839, 36866.00
1159.929, 36872.00
1161.019, 36933.77
1162.108, 36978.31
1163.198, 36878.00
1164.287, 37005.00
1165.376, 36884.00
1166.465, 36960.00
1167.553, 36879.00
1168.642, 37081.00
1169.730, 37052.43
1170.818, 37046.00
1171.906, 37105.00
1172.994, 37123.88
1174.082, 37358.00
1175.170, 37204.00
1176.257, 37380.00
1177.344, 37372.00
1178.431, 37395.00
1179.518, 37449.89
1180.605, 37776.00
1181.691, 37561.00
1182.778, 37494.00
1183.864, 37725.00
1184.950, 37554.00
1186.036, 37705.00
1187.122, 37583.00
1188.207, 37797.00
1189.292, 37753.00
1190.378, 37697.00
1191.463, 37851.94
1192.548, 38046.00
1193.632, 38044.00
1194.717, 38096.00
1195.801, 38216.00
1196.886, 38289.00
1197.970, 38126.00
1199.054, 38440.00
1200.137, 38405.00
1201.221, 38434.00
1202.305, 38700.00
1203.388, 38351.00
1204.471, 38580.00
1205.554, 38540.00
1206.637, 38613.00
1207.719, 38758.00
1208.802, 39053.00
1209.884, 38933.00
1210.966, 39021.00
1212.048, 38795.00
1213.130, 38922.00
1214.212, 39083.00
1215.293, 39279.00
1216.374, 39096.00
1217.456, 39199.00
1218.536, 39037.00
1219.617, 39224.00
1220.698, 39273.00
1221.778, 39481.00
1222.859, 39296.00
1223.939, 39471.00
1225.019, 39679.00
1226.099, 39566.00
1227.178, 39809.00
1228.258, 39817.00
1229.337, 39552.00
1230.417, 39561.00
1231.496, 39683.00
1232.574, 39865.00
1233.653, 40017.00
1234.732, 40065.00
1235.810, 40166.23
1236.888, 39995.00
1237.966, 40172.00
1239.044, 40351.00
1240.122, 40179.00
1241.199, 40284.00
1242.277, 40347.00
1243.354, 40520.00
1244.431, 40582.00
1245.508, 40388.00
1246.585, 40579.00
1247.661, 40600.00
1248.738, 40610.00
1249.814, 40702.00
1250.890, 40631.00
1251.966, 40657.00
1253.042, 40677.00
1254.117, 40808.37
1255.193, 40749.00
1256.268, 41144.00
1257.343, 41026.84
1258.418, 41140.00
1259.493, 40853.00
1260.567, 41038.00
1261.642, 41189.00
1262.716, 41165.00
1263.790, 41384.00
1264.864, 41232.00
1265.938, 41491.00
1267.011, 41442.00
1268.085, 41554.00
1269.158, 41468.00
1270.231, 41803.00
1271.304, 41502.00
1272.377, 41828.00
1273.450, 41643.00
1274.522, 41614.00
1275.594, 41599.00
1276.666, 41896.00
1277.738, 41846.00
1278.810, 42030.00
1279.882, 42018.00
1280.953, 42090.00
1282.025, 42134.52
1283.096, 42164.00
1284.167, 42162.00
1285.238, 42347.00
1286.308, 42359.00
1287.379, 42416.00
1288.449, 42604.00
1289.519, 42442.00
1290.589, 42564.00
1291.659, 42796.00
1292.729, 42549.00
1293.798, 42531.00
1294.868, 42713.00
