##NAMES=Corundum
##RRUFFID=R040096
##IDEAL CHEMISTRY=Al_2_O_3_
##LOCALITY=Sri Lanka
##OWNER=RRUFF
##SOURCE=University of Arizona Mineral Museum
##DESCRIPTION=Pale purple hexagonal prism
##STATUS=The identification of this mineral has been confirmed by X-ray diffraction and chemical analysis
##URL=rruff.info/R040096
##MEASURED CHEMISTRY=Al_2.00_O_3_
##PIN_ID=L01813
##ORIENTATION=Laser parallel to -c* (0 0 -1). Fiducial mark perpendicular to laser is parallel to a [1 0 0]
113.2080, 8653.000
114.4400, 8893.000
115.6710, 8869.000
116.9030, 8810.000
118.1340, 8858.000
119.3650, 8783.000
120.5960, 8815.000
121.8270, 8960.000
123.0580, 9124.000
124.2880, 9021.000
125.5190, 8909.000
126.7490, 8958.000
127.9790, 9113.000
129.2090, 9094.000
130.4390, 9239.000
131.6680, 9222.000
132.8980, 9281.000
134.1270, 9255.000
135.3560, 9426.000
136.5850, 9502.000
137.8140, 9569.000
139.0430, 9546.000
140.2710, 9477.000
141.5000, 9479.000
142.7280, 9532.000
143.9560, 9598.000
145.1840, 9627.000
146.4120, 9658.000
147.6390, 9690.317
148.8670, 9711.000
150.0940, 9761.000
151.3210, 9757.000
152.5490, 9851.000
153.7750, 9744.000
155.0020, 9761.000
156.2290, 9830.000
157.4550, 9831.000
158.6810, 9810.000
159.9080, 9980.000
161.1340, 9846.000
162.3590, 10037.00
163.5850, 10083.00
164.8110, 10008.00
166.0360, 10099.00
167.2610, 10018.00
168.4860, 10085.00
169.7110, 10244.00
170.9360, 10238.00
172.1610, 10081.00
173.3850, 10299.00
174.6100, 10127.00
175.8340, 10159.00
177.0580, 10277.00
178.2820, 10294.00
179.5050, 10321.56
180.7290, 10368.43
181.9520, 10344.00
183.1760, 10428.00
184.3990, 10462.00
185.6220, 10531.00
186.8450, 10476.00
188.0670, 10513.00
189.2900, 10545.00
190.5120, 10571.00
191.7340, 10548.00
192.9560, 10639.00
194.1780, 10584.00
195.4000, 10673.00
196.6220, 10642.00
197.8430, 10790.00
199.0640, 10847.00
200.2860, 10880.00
201.5070, 10959.00
202.7270, 10930.00
203.9480, 10883.01
205.1690, 10881.02
206.3890, 10710.00
207.6090, 10764.00
208.8290, 10694.00
210.0490, 10559.00
211.2690, 10716.00
212.4890, 10837.00
213.7080, 10663.00
214.9280, 10736.00
216.1470, 10709.00
217.3660, 10896.00
218.5850, 10942.00
219.8030, 10912.00
221.0220, 11090.00
222.2400, 10979.00
223.4590, 10994.00
224.6770, 10815.00
225.8950, 11033.00
227.1120, 10941.00
228.3300, 11022.00
229.5480, 10883.00
230.7650, 11162.00
231.9820, 11145.00
233.1990, 11271.00
234.4160, 11224.00
235.6330, 11194.00
236.8490, 11110.00
238.0660, 11244.00
239.2820, 11258.00
240.4980, 11297.00
241.7140, 11234.00
242.9300, 11232.00
244.1460, 11386.00
245.3610, 11469.00
246.5770, 11412.00
247.7920, 11206.00
249.0070, 11283.00
250.2220, 11344.00
251.4370, 11443.00
252.6510, 11408.00
253.8660, 11381.00
255.0800, 11474.00
256.2940, 11677.00
257.5080, 11629.58
258.7220, 12033.00
259.9360, 11626.00
261.1490, 11593.00
262.3630, 11513.00
263.5760, 11704.00
264.7890, 11591.00
266.0020, 11532.00
267.2150, 11646.00
268.4270, 11657.00
269.6400, 11605.00
270.8520, 11727.00
272.0640, 11881.00
273.2760, 11748.00
274.4880, 11791.00
275.7000, 11743.00
276.9120, 11896.00
278.1230, 11810.00
279.3340, 11840.00
280.5450, 11959.00
281.7560, 11849.00
282.9670, 11838.00
284.1780, 11915.00
285.3880, 11798.00
286.5980, 11840.00
287.8090, 11854.73
289.0190, 12017.00
290.2290, 11905.00
291.4380, 12023.00
292.6480, 12054.00
293.8570, 12104.00
295.0670, 12127.00
296.2760, 12157.53
297.4850, 12194.00
298.6930, 12204.00
299.9020, 12249.00
301.1110, 12268.95
302.3190, 12236.00
303.5270, 12296.00
304.7350, 12200.00
305.9430, 12251.00
307.1510, 12300.00
308.3580, 12367.00
309.5660, 12375.00
310.7730, 12319.00
311.9800, 12310.00
313.1870, 12420.00
314.3940, 12496.00
315.6010, 12443.00
316.8070, 12457.00
318.0130, 12586.00
319.2200, 12705.00
320.4260, 12575.00
321.6310, 12606.00
322.8370, 12530.00
324.0430, 12649.00
325.2480, 12667.00
326.4540, 12721.00
327.6590, 12627.00
328.8640, 12794.00
330.0680, 12822.00
331.2730, 12707.00
332.4780, 12644.00
333.6820, 12897.00
334.8860, 12823.00
336.0900, 12891.00
337.2940, 12972.00
338.4980, 12951.00
339.7010, 13049.00
340.9050, 12922.00
342.1080, 12987.00
343.3110, 13034.00
344.5140, 12885.00
345.7170, 12979.00
346.9200, 13067.00
348.1220, 13081.00
349.3240, 13163.00
350.5270, 13116.00
351.7290, 13092.00
352.9310, 13168.00
354.1320, 13048.00
355.3340, 13281.00
356.5350, 13429.00
357.7370, 13122.00
358.9380, 13260.00
360.1390, 13356.00
361.3400, 13180.00
362.5400, 13375.00
363.7410, 13451.00
364.9410, 13482.00
366.1410, 13628.00
367.3410, 13735.00
368.5410, 13874.63
369.7410, 14124.00
370.9400, 14196.00
372.1400, 14372.00
373.3390, 14525.00
374.5380, 14528.00
375.7370, 14723.00
376.9360, 14776.00
378.1350, 14718.00
379.3330, 14700.00
380.5310, 14520.00
381.7300, 14462.00
382.9280, 14118.00
384.1260, 13969.00
385.3230, 14009.00
386.5210, 13913.00
387.7180, 13948.00
388.9160, 13903.00
390.1130, 13852.00
391.3100, 14068.00
392.5060, 14007.00
393.7030, 13860.00
394.9000, 14076.00
396.0960, 14018.00
397.2920, 14112.00
398.4880, 14171.00
399.6840, 14245.00
400.8800, 14231.00
402.0750, 14467.00
403.2710, 14583.00
404.4660, 14989.00
405.6610, 15803.00
406.8560, 16981.00
408.0510, 17238.23
409.2450, 18514.00
410.4400, 18270.00
411.6340, 18952.00
412.8280, 19737.00
414.0220, 20166.00
415.2160, 20435.00
416.4100, 20454.00
417.6030, 20173.00
418.7970, 19695.00
419.9900, 18443.00
421.1830, 17307.00
422.3760, 16253.00
423.5690, 15688.00
424.7610, 15525.00
425.9540, 15414.00
427.1460, 15531.00
428.3380, 15396.00
429.5300, 15497.00
430.7220, 15463.00
431.9140, 15290.00
433.1050, 15162.00
434.2970, 15124.00
435.4880, 15065.00
436.6790, 15060.75
437.8700, 15035.00
439.0610, 15135.00
440.2510, 15114.00
441.4420, 15211.18
442.6320, 15186.00
443.8220, 15251.00
445.0120, 15298.00
446.2020, 15337.00
447.3910, 15340.87
448.5810, 15467.00
449.7700, 15282.00
450.9600, 15287.00
452.1490, 15178.00
453.3370, 15250.00
454.5260, 15133.00
455.7150, 15254.00
456.9030, 15107.00
458.0910, 15148.00
459.2800, 15197.00
460.4670, 15129.00
461.6550, 15248.00
462.8430, 15223.44
464.0300, 15396.00
465.2180, 15263.00
466.4050, 15336.00
467.5920, 15398.00
468.7790, 15148.00
469.9650, 15351.00
471.1520, 15401.00
472.3380, 15492.00
473.5250, 15527.00
474.7110, 15567.34
475.8970, 15595.69
477.0820, 15574.00
478.2680, 15631.00
479.4540, 15536.00
480.6390, 15574.00
481.8240, 15610.00
483.0090, 15689.00
484.1940, 15630.00
485.3780, 15711.00
486.5630, 15771.00
487.7470, 15863.00
488.9320, 15741.00
490.1160, 15619.00
491.3000, 15770.00
492.4830, 15844.00
493.6670, 15819.00
494.8500, 15871.00
496.0340, 15924.00
497.2170, 15879.00
498.4000, 16050.00
499.5820, 15952.00
500.7650, 16081.00
501.9480, 16182.00
503.1300, 16056.00
504.3120, 16054.00
505.4940, 16361.00
506.6760, 16184.00
507.8580, 15976.00
509.0390, 16361.00
510.2210, 16218.00
511.4020, 16078.00
512.5830, 16135.00
513.7640, 16081.00
514.9450, 16353.00
516.1250, 16284.00
517.3060, 16374.00
518.4860, 16415.00
519.6660, 16493.00
520.8460, 16381.00
522.0260, 16598.00
523.2060, 16495.00
524.3850, 16479.00
525.5650, 16553.00
526.7440, 16654.00
527.9230, 16591.00
529.1020, 16463.00
530.2810, 16733.00
531.4590, 16697.00
532.6380, 16577.00
533.8160, 16616.00
534.9940, 16788.00
536.1720, 16814.00
537.3500, 16783.00
538.5270, 16907.00
539.7050, 16755.00
540.8820, 16971.00
542.0590, 16799.00
543.2360, 17035.00
544.4130, 16822.00
545.5900, 16945.00
546.7660, 16975.00
547.9430, 17012.00
549.1190, 17097.00
550.2950, 16961.00
551.4710, 17165.00
552.6470, 17064.00
553.8220, 17154.00
554.9980, 17188.00
556.1730, 17219.00
557.3480, 17100.00
558.5230, 17281.00
559.6980, 17380.00
560.8730, 17261.00
562.0470, 17362.00
563.2220, 17485.00
564.3960, 17736.00
565.5700, 17671.00
566.7440, 17845.00
567.9170, 18028.00
569.0910, 18087.00
570.2640, 18255.00
571.4380, 18136.00
572.6110, 18425.00
573.7840, 18460.00
574.9570, 18573.00
576.1290, 18453.00
577.3020, 18539.00
578.4740, 18533.00
579.6460, 18295.00
580.8180, 18022.00
581.9900, 18043.00
583.1620, 17910.00
584.3330, 17729.00
585.5040, 17770.00
586.6760, 17926.00
587.8470, 17783.00
589.0180, 17855.00
590.1880, 17889.00
591.3590, 17878.00
592.5290, 18067.00
593.7000, 17988.00
594.8700, 17914.00
596.0400, 18119.00
597.2090, 18077.00
598.3790, 18106.00
599.5490, 18039.00
600.7180, 17968.00
601.8870, 18096.00
603.0560, 18103.00
604.2250, 18323.00
605.3940, 18319.00
606.5620, 18309.00
607.7300, 18158.00
608.8990, 18301.00
610.0670, 18280.00
611.2350, 18456.00
612.4020, 18320.00
613.5700, 18565.00
614.7370, 18399.00
615.9050, 18339.00
617.0720, 18689.00
618.2390, 18718.00
619.4060, 18596.00
620.5720, 18781.00
621.7390, 18625.00
622.9050, 18689.00
624.0710, 18643.00
625.2370, 18682.00
626.4030, 18823.00
627.5690, 18790.00
628.7340, 18837.00
629.9000, 18776.00
631.0650, 18826.00
632.2300, 18940.00
633.3950, 19028.00
634.5600, 18979.00
635.7240, 19094.00
636.8890, 19114.00
638.0530, 19120.00
639.2170, 19193.00
640.3810, 19125.00
641.5450, 19316.00
642.7080, 19231.00
643.8720, 19391.00
645.0350, 19338.00
646.1980, 19376.00
647.3610, 19380.00
648.5240, 19369.00
649.6870, 19365.00
650.8490, 19414.38
652.0120, 19391.00
653.1740, 19503.00
654.3360, 19425.00
655.4980, 19414.00
656.6600, 19446.00
657.8210, 19545.00
658.9830, 19608.00
660.1440, 19708.00
661.3050, 19579.00
662.4660, 19547.00
663.6270, 19724.00
664.7870, 19706.00
665.9480, 19966.00
667.1080, 19681.00
668.2680, 19750.00
669.4280, 19780.00
670.5880, 19904.00
671.7480, 19776.00
672.9070, 19699.00
674.0670, 20016.00
675.2260, 19993.00
676.3850, 19889.00
677.5440, 19995.00
678.7030, 20139.00
679.8610, 19928.00
681.0200, 20219.00
682.1780, 20343.00
683.3360, 20016.00
684.4940, 20167.00
685.6520, 20355.00
686.8090, 20135.00
687.9670, 20331.00
689.1240, 20246.00
690.2810, 20224.00
691.4380, 20131.00
692.5950, 20214.00
693.7520, 20418.00
694.9080, 20575.00
696.0650, 20457.00
697.2210, 20383.00
698.3770, 20684.00
699.5330, 20594.00
700.6880, 20686.00
701.8440, 20498.00
702.9990, 20486.00
704.1550, 20674.00
705.3100, 20844.00
706.4650, 20642.00
707.6190, 20844.00
708.7740, 20829.00
709.9290, 20784.00
711.0830, 20838.00
712.2370, 20802.00
713.3910, 20873.00
714.5450, 20957.00
715.6980, 21214.00
716.8520, 20962.00
718.0050, 21086.00
719.1580, 21329.00
720.3110, 21070.00
721.4640, 21249.00
722.6170, 21356.00
723.7700, 21319.00
724.9220, 21378.00
726.0740, 21565.00
727.2260, 21560.00
728.3780, 21523.00
729.5300, 21817.00
730.6810, 21712.00
731.8330, 22009.00
732.9840, 22113.00
734.1350, 22061.00
735.2860, 22157.00
736.4370, 22570.00
737.5880, 22753.00
738.7380, 22996.00
739.8880, 23347.00
741.0390, 23463.00
742.1890, 23755.00
743.3380, 23940.00
744.4880, 24392.00
745.6380, 24665.00
746.7870, 24594.00
747.9360, 24779.00
749.0850, 24714.00
750.2340, 24581.00
751.3830, 24409.00
752.5310, 24205.00
753.6800, 23878.00
754.8280, 23741.00
755.9760, 23626.00
757.1240, 23159.00
758.2720, 23182.00
759.4190, 22832.00
760.5670, 23054.00
761.7140, 23031.00
762.8610, 22779.00
764.0080, 22813.00
765.1550, 22704.00
766.3020, 22721.00
767.4480, 22760.00
768.5950, 22771.00
769.7410, 22722.00
770.8870, 22637.00
772.0330, 22660.00
773.1780, 22785.00
774.3240, 22712.00
775.4690, 22870.00
776.6140, 22756.00
777.7590, 22891.00
778.9040, 22999.00
780.0490, 23030.00
781.1940, 22785.00
782.3380, 22937.00
783.4820, 22727.00
784.6260, 22899.00
785.7700, 22996.00
786.9140, 22928.00
788.0580, 22849.00
789.2010, 23144.00
790.3450, 23058.00
791.4880, 23060.00
792.6310, 23236.00
793.7730, 23024.00
794.9160, 23047.00
796.0590, 23178.00
797.2010, 23285.00
798.3430, 23271.00
799.4850, 23133.00
800.6270, 23533.00
801.7690, 23498.00
802.9100, 23321.00
804.0520, 23240.00
805.1930, 23556.00
806.3340, 23436.00
807.4750, 23520.00
808.6160, 23513.00
809.7560, 23664.00
810.8970, 23591.00
812.0370, 23667.00
813.1770, 23616.00
814.3170, 23696.00
815.4570, 23662.00
816.5960, 23884.00
817.7360, 23758.00
818.8750, 23898.00
820.0140, 23973.00
821.1530, 23957.00
822.2920, 23913.00
823.4310, 24015.00
824.5690, 24075.00
825.7070, 24045.00
826.8460, 24147.00
827.9840, 24151.00
829.1220, 24214.00
830.2590, 24084.00
831.3970, 24023.00
832.5340, 24035.94
833.6710, 24058.69
834.8080, 24098.00
835.9450, 24183.00
837.0820, 24388.00
838.2190, 24368.00
839.3550, 24330.00
840.4910, 24383.00
841.6270, 24323.00
842.7630, 24487.00
843.8990, 24710.00
845.0350, 24508.00
846.1700, 24567.00
847.3060, 24512.00
848.4410, 24652.00
849.5760, 24596.00
850.7100, 24696.00
851.8450, 24753.00
852.9800, 24924.00
854.1140, 24813.00
855.2480, 25034.00
856.3820, 24934.00
857.5160, 25131.00
858.6500, 24977.00
859.7830, 25059.00
860.9170, 25070.00
862.0500, 25182.00
863.1830, 24888.00
864.3160, 25082.00
865.4480, 25105.16
866.5810, 25135.00
867.7130, 25325.00
868.8460, 25200.00
869.9780, 25296.00
871.1100, 25458.00
872.2410, 25455.00
873.3730, 25303.00
874.5050, 25663.00
875.6360, 25503.00
876.7670, 25514.00
877.8980, 25629.00
879.0290, 25524.00
880.1590, 25468.00
881.2900, 25644.00
882.4200, 25851.00
883.5500, 25660.00
884.6800, 25503.00
885.8100, 25844.00
886.9400, 25857.00
888.0690, 25850.00
889.1990, 25745.00
890.3280, 25831.00
891.4570, 25974.00
892.5860, 25849.00
893.7140, 25915.00
894.8430, 26175.00
895.9710, 26024.00
897.1000, 25895.00
898.2280, 26155.00
899.3560, 26048.00
900.4830, 26389.00
901.6110, 26275.00
902.7380, 26191.00
903.8660, 26142.00
904.9930, 26476.00
906.1200, 26486.00
907.2460, 26365.00
908.3730, 26600.00
909.5000, 26562.00
910.6260, 26641.00
911.7520, 26562.00
912.8780, 26674.00
914.0040, 26649.00
915.1290, 26633.00
916.2550, 26744.00
917.3800, 26912.00
918.5050, 27009.00
919.6300, 26883.00
920.7550, 26955.00
921.8800, 26894.00
923.0040, 26863.00
924.1290, 26901.00
925.2530, 26905.83
926.3770, 27007.00
927.5010, 27052.00
928.6250, 27041.00
929.7480, 27230.00
930.8720, 27339.00
931.9950, 27481.00
933.1180, 27534.00
934.2410, 27599.12
935.3640, 27633.82
936.4860, 27628.00
937.6090, 27603.00
938.7310, 27531.00
939.8530, 27574.80
940.9750, 27456.00
942.0970, 27693.00
943.2180, 27803.00
944.3400, 27999.00
945.4610, 27685.00
946.5820, 27699.00
947.7030, 27938.00
948.8240, 27752.00
949.9450, 28210.00
951.0650, 27830.00
952.1860, 28034.00
953.3060, 27932.00
954.4260, 28075.00
955.5460, 28182.00
956.6650, 28232.00
957.7850, 28245.00
958.9040, 28326.04
960.0230, 28238.00
961.1420, 28382.00
962.2610, 28400.00
963.3800, 28321.00
964.4990, 28304.00
965.6170, 28403.00
966.7350, 28278.00
967.8530, 28678.00
968.9710, 28638.00
970.0890, 28659.00
971.2070, 28735.00
972.3240, 28596.00
973.4410, 28491.00
974.5580, 28904.00
975.6750, 28841.00
976.7920, 28861.00
977.9090, 28981.00
979.0250, 28791.00
980.1410, 28819.00
981.2580, 28894.87
982.3740, 29038.00
983.4890, 29018.00
984.6050, 29245.00
985.7200, 29210.00
986.8360, 29394.00
987.9510, 29294.00
989.0660, 29504.00
990.1810, 29299.00
991.2950, 29392.00
992.4100, 29285.00
993.5240, 29467.00
994.6390, 29600.00
995.7530, 29803.00
996.8660, 29581.00
997.9800, 29863.00
999.0940, 29857.00
1000.207, 29765.00
1001.320, 29885.00
1002.433, 29738.00
1003.546, 29998.00
1004.659, 30003.00
1005.772, 29976.00
1006.884, 29811.00
1007.996, 30015.00
1009.108, 29986.00
1010.220, 30301.00
1011.332, 30115.00
1012.444, 30132.00
1013.555, 30264.00
1014.666, 30108.00
1015.777, 30200.00
1016.888, 30213.00
1017.999, 30399.00
1019.110, 30384.00
1020.220, 30524.00
1021.331, 30423.00
1022.441, 30511.00
1023.551, 30565.00
1024.661, 30564.00
1025.770, 30630.00
1026.880, 30575.00
1027.989, 30654.00
1029.098, 30919.00
1030.207, 30961.00
1031.316, 31000.00
1032.425, 31120.64
1033.533, 30777.00
1034.642, 31151.00
1035.750, 31029.00
1036.858, 30858.00
1037.966, 31092.00
1039.073, 31280.00
1040.181, 31287.00
1041.288, 31198.00
1042.396, 31306.00
1043.503, 31392.00
1044.610, 31396.00
1045.716, 31118.00
1046.823, 31516.00
1047.929, 31387.00
1049.036, 31513.00
1050.142, 31869.00
1051.248, 31508.00
1052.353, 31551.00
1053.459, 31684.00
1054.564, 31565.00
1055.670, 31746.00
1056.775, 32014.00
1057.880, 32055.00
1058.985, 31985.00
1060.089, 32133.06
1061.194, 32018.00
1062.298, 32220.00
1063.402, 32153.00
1064.506, 32181.00
1065.610, 32118.00
1066.713, 32144.00
1067.817, 32427.00
1068.920, 32359.00
1070.023, 32340.00
1071.126, 32616.00
1072.229, 32389.00
1073.332, 32504.00
1074.435, 32327.00
1075.537, 32561.00
1076.639, 32380.00
1077.741, 32462.00
1078.843, 32826.00
1079.945, 32573.00
1081.046, 32653.00
1082.148, 32764.00
1083.249, 32853.00
1084.350, 33032.00
1085.451, 33101.22
1086.551, 32962.00
1087.652, 33287.00
1088.752, 33075.00
1089.853, 33143.00
1090.953, 33068.00
1092.053, 33254.00
1093.152, 33072.00
1094.252, 33477.00
1095.351, 33341.00
1096.451, 33267.00
1097.550, 33487.00
1098.649, 33399.00
1099.748, 33429.00
1100.846, 33472.00
1101.945, 33600.00
1103.043, 33407.00
1104.141, 33667.00
1105.239, 33644.00
1106.337, 33812.00
1107.434, 33696.00
1108.532, 33531.00
1109.629, 33768.00
1110.726, 33916.00
1111.823, 34177.00
1112.920, 33925.00
1114.017, 33954.00
1115.113, 33940.00
1116.210, 34016.00
1117.306, 34333.00
1118.402, 34230.00
1119.498, 34368.00
1120.593, 34445.00
1121.689, 34224.00
1122.784, 34298.00
1123.879, 34610.00
1124.974, 34609.00
1126.069, 34288.00
1127.164, 34586.00
1128.259, 34495.00
1129.353, 34589.00
1130.447, 34348.00
1131.541, 34969.00
1132.635, 34601.00
1133.729, 34772.00
1134.822, 34912.00
1135.916, 34900.00
1137.009, 34926.00
1138.102, 34699.00
1139.195, 34928.00
1140.288, 34970.00
1141.380, 35183.00
1142.473, 35343.00
1143.565, 35309.00
1144.657, 35218.00
1145.749, 35168.00
1146.841, 35210.00
1147.932, 35305.00
1149.024, 35158.00
1150.115, 35576.00
1151.206, 35313.00
1152.297, 35469.00
1153.388, 35595.00
1154.479, 35824.00
1155.569, 35761.00
1156.659, 35579.00
1157.750, 35609.00
1158.839, 35851.00
1159.929, 35630.00
1161.019, 35627.00
1162.108, 35990.00
1163.198, 36051.00
1164.287, 36064.00
1165.376, 36342.00
1166.465, 36302.00
1167.553, 36145.00
1168.642, 36208.00
1169.730, 36321.00
1170.818, 36225.00
1171.906, 36363.00
1172.994, 36394.00
1174.082, 36423.00
1175.170, 36400.00
1176.257, 36561.00
1177.344, 36357.00
1178.431, 36639.00
1179.518, 36594.00
1180.605, 36456.00
1181.691, 36730.00
1182.778, 36723.00
1183.864, 36850.00
1184.950, 36950.00
1186.036, 36787.00
1187.122, 36865.00
1188.207, 36982.00
1189.292, 37172.00
1190.378, 37165.00
1191.463, 37182.00
1192.548, 37365.00
1193.632, 37172.00
1194.717, 37129.00
1195.801, 37409.00
1196.886, 37302.00
1197.970, 37330.00
1199.054, 37339.00
1200.137, 37377.95
1201.221, 37414.00
1202.305, 37595.00
1203.388, 37663.00
1204.471, 37900.00
1205.554, 37897.00
1206.637, 37961.00
1207.719, 37885.00
1208.802, 38086.00
1209.884, 37957.00
1210.966, 38058.00
1212.048, 38116.00
1213.130, 38117.00
1214.212, 38064.00
1215.293, 38161.00
1216.374, 38313.00
1217.456, 38257.00
1218.536, 38266.00
1219.617, 38232.00
1220.698, 38146.00
1221.778, 38631.00
1222.859, 38471.00
1223.939, 38770.00
1225.019, 38720.00
1226.099, 38807.00
1227.178, 38990.00
1228.258, 38643.00
1229.337, 38906.00
1230.417, 38843.00
1231.496, 38729.00
1232.574, 38986.00
1233.653, 39034.00
1234.732, 38812.00
1235.810, 39162.00
1236.888, 39036.00
1237.966, 39381.00
1239.044, 39365.00
1240.122, 39492.00
1241.199, 39147.00
1242.277, 39490.00
1243.354, 39458.00
1244.431, 39673.00
1245.508, 39732.00
1246.585, 39751.00
1247.661, 39353.00
1248.738, 39658.00
1249.814, 39657.00
1250.890, 39578.00
1251.966, 39938.00
1253.042, 39695.00
1254.117, 39914.00
1255.193, 39629.00
1256.268, 39500.00
1257.343, 39771.00
1258.418, 39905.00
1259.493, 39873.00
1260.567, 40071.00
1261.642, 40393.00
1262.716, 40200.00
1263.790, 40547.00
1264.864, 40529.00
1265.938, 40514.00
1267.011, 40506.00
1268.085, 40555.00
1269.158, 40335.00
1270.231, 40450.00
1271.304, 40484.00
1272.377, 40653.00
1273.450, 40514.00
1274.522, 40546.00
1275.594, 40778.00
1276.666, 41191.00
1277.738, 40875.00
1278.810, 41170.00
1279.882, 41238.00
1280.953, 41074.00
1282.025, 40961.00
1283.096, 41140.00
1284.167, 41260.00
1285.238, 41102.00
1286.308, 41418.00
1287.379, 41304.00
1288.449, 41306.00
1289.519, 41594.00
1290.589, 41547.00
1291.659, 41586.00
1292.729, 41741.00
1293.798, 41786.00
1294.868, 41555.00
