##NAMES=Covellite
##RRUFFID=R060129
##IDEAL CHEMISTRY=Cu^1+^S
##LOCALITY=Butte, Montana, USA
##OWNER=RRUFF
##SOURCE=University of Arizona Mineral Museum
##DESCRIPTION=Iridescent blue metallic hexagonal plates
##STATUS=The identification of this mineral has been confirmed by X-ray diffraction and chemical analysis
##URL=rruff.info/R060129
##MEASURED CHEMISTRY=Cu_1.00_S_1.00_
##PIN_ID=L00818
##ORIENTATION=Laser parallel to c* (0 0 1). Fiducial mark perpendicular to laser is parallel to a [1 0 0]
170.9360, 29009.00
172.1610, 28750.00
173.3850, 28815.00
174.6100, 28619.00
175.8340, 28279.00
177.0580, 28429.00
178.2820, 28220.00
179.5050, 28463.00
180.7290, 28522.00
181.9520, 28513.00
183.1760, 28627.00
184.3990, 28734.00
185.6220, 28830.00
186.8450, 29077.00
188.0670, 28887.00
189.2900, 28830.00
190.5120, 29018.00
191.7340, 28818.00
192.9560, 28845.00
194.1780, 29161.00
195.4000, 28807.00
196.6220, 29331.00
197.8430, 29301.00
199.0640, 29354.00
200.2860, 29700.00
201.5070, 29621.00
202.7270, 29640.00
203.9480, 29059.00
205.1690, 28697.00
206.3890, 28504.00
207.6090, 28154.00
208.8290, 28275.00
210.0490, 28441.00
211.2690, 28593.00
212.4890, 28693.00
213.7080, 28599.00
214.9280, 28525.00
216.1470, 28557.55
217.3660, 28407.00
218.5850, 28539.00
219.8030, 28398.00
221.0220, 28375.00
222.2400, 28539.00
223.4590, 28597.00
224.6770, 28658.00
225.8950, 28661.00
227.1120, 28603.00
228.3300, 28558.00
229.5480, 28645.00
230.7650, 28568.00
231.9820, 28731.00
233.1990, 28770.00
234.4160, 28935.00
235.6330, 29292.00
236.8490, 29409.00
238.0660, 29272.00
239.2820, 29749.00
240.4980, 29693.00
241.7140, 29620.00
242.9300, 29956.00
244.1460, 29980.00
245.3610, 29972.00
246.5770, 30135.00
247.7920, 30637.00
249.0070, 30852.00
250.2220, 31295.00
251.4370, 31797.00
252.6510, 32284.00
253.8660, 32415.00
255.0800, 32966.00
256.2940, 33390.00
257.5080, 34619.00
258.7220, 34580.27
259.9360, 34649.45
261.1490, 34843.00
262.3630, 34717.99
263.5760, 34698.65
264.7890, 34505.00
266.0020, 34416.00
267.2150, 34141.00
268.4270, 33907.00
269.6400, 33543.00
270.8520, 33739.00
272.0640, 33563.00
273.2760, 33284.00
274.4880, 33511.00
275.7000, 33453.00
276.9120, 33614.00
278.1230, 33358.00
279.3340, 33263.00
280.5450, 32730.00
281.7560, 32517.00
282.9670, 32202.00
284.1780, 32109.00
285.3880, 31534.00
286.5980, 31406.00
287.8090, 31436.00
289.0190, 31145.00
290.2290, 31471.00
291.4380, 31201.00
292.6480, 30965.00
293.8570, 31282.00
295.0670, 31087.00
296.2760, 31079.00
297.4850, 31082.00
298.6930, 31011.00
299.9020, 31180.00
301.1110, 31292.00
302.3190, 31116.00
303.5270, 31591.00
304.7350, 31610.00
305.9430, 31989.00
307.1510, 32185.00
308.3580, 32071.00
309.5660, 32260.00
310.7730, 32082.00
311.9800, 32428.00
313.1870, 32884.00
314.3940, 33168.00
315.6010, 33865.00
316.8070, 34593.00
318.0130, 35099.00
319.2200, 36085.00
320.4260, 36854.00
321.6310, 38465.00
322.8370, 39842.00
324.0430, 41177.00
325.2480, 43047.00
326.4540, 44843.00
327.6590, 46862.00
328.8640, 47899.00
330.0680, 48763.00
331.2730, 48169.00
332.4780, 47584.00
333.6820, 46042.00
334.8860, 44564.00
336.0900, 42811.00
337.2940, 40670.00
338.4980, 38637.00
339.7010, 37318.00
340.9050, 35727.00
342.1080, 35155.00
343.3110, 34169.00
344.5140, 33632.00
345.7170, 32959.00
346.9200, 32569.00
348.1220, 32151.00
349.3240, 31940.00
350.5270, 31887.00
351.7290, 31703.00
352.9310, 31827.00
354.1320, 31936.00
355.3340, 32254.00
356.5350, 32601.00
357.7370, 33277.00
358.9380, 33479.00
360.1390, 33834.00
361.3400, 34234.00
362.5400, 34567.00
363.7410, 34788.00
364.9410, 35023.00
366.1410, 35252.00
367.3410, 35615.00
368.5410, 36008.00
369.7410, 36057.00
370.9400, 36324.00
372.1400, 36243.00
373.3390, 36231.00
374.5380, 36048.00
375.7370, 36122.00
376.9360, 35836.00
378.1350, 35775.00
379.3330, 35797.00
380.5310, 35750.00
381.7300, 35529.00
382.9280, 35248.00
384.1260, 34872.00
385.3230, 34409.00
386.5210, 33929.00
387.7180, 33398.00
388.9160, 32839.00
390.1130, 32742.00
391.3100, 32161.00
392.5060, 32169.00
393.7030, 31720.00
394.9000, 31809.00
396.0960, 31693.00
397.2920, 31856.00
398.4880, 31530.00
399.6840, 31067.00
400.8800, 31098.00
402.0750, 31057.00
403.2710, 30990.00
404.4660, 30938.00
405.6610, 30899.00
406.8560, 30974.00
408.0510, 30934.00
409.2450, 30954.00
410.4400, 31147.00
411.6340, 30986.00
412.8280, 31029.00
414.0220, 30912.00
415.2160, 30800.00
416.4100, 30752.00
417.6030, 30797.00
418.7970, 30688.00
419.9900, 30825.00
421.1830, 30960.00
422.3760, 31259.00
423.5690, 31020.00
424.7610, 31311.00
425.9540, 31321.00
427.1460, 31100.00
428.3380, 31120.00
429.5300, 31225.00
430.7220, 31386.00
431.9140, 31391.35
433.1050, 31408.00
434.2970, 31479.00
435.4880, 31492.00
436.6790, 31542.00
437.8700, 31998.00
439.0610, 32200.00
440.2510, 32139.00
441.4420, 32238.00
442.6320, 32360.00
443.8220, 32532.00
445.0120, 32660.00
446.2020, 33007.00
447.3910, 33671.00
448.5810, 33707.00
449.7700, 34643.00
450.9600, 35306.00
452.1490, 35573.00
453.3370, 36115.00
454.5260, 36646.00
455.7150, 37449.00
456.9030, 38220.00
458.0910, 39168.00
459.2800, 40663.00
460.4670, 42179.00
461.6550, 44713.00
462.8430, 47703.00
464.0300, 51411.00
465.2180, 55162.00
466.4050, 59397.00
467.5920, 62190.00
468.7790, 64727.00
469.9650, 64795.00
471.1520, 62746.00
472.3380, 59192.00
473.5250, 55283.00
474.7110, 50985.00
475.8970, 47745.00
477.0820, 44309.00
478.2680, 42180.00
479.4540, 40445.00
480.6390, 38690.00
481.8240, 37197.00
483.0090, 36192.00
484.1940, 35181.00
485.3780, 34696.00
486.5630, 34460.00
487.7470, 34153.00
488.9320, 33882.00
490.1160, 33756.00
491.3000, 33335.00
492.4830, 33329.00
493.6670, 33007.00
494.8500, 32861.93
496.0340, 32836.00
497.2170, 32598.00
498.4000, 32494.00
499.5820, 32405.00
500.7650, 32622.00
501.9480, 32228.00
503.1300, 32553.00
504.3120, 32558.00
505.4940, 32554.00
506.6760, 32526.00
507.8580, 32611.00
509.0390, 32334.00
510.2210, 32309.00
511.4020, 32172.00
512.5830, 32394.00
513.7640, 32440.00
514.9450, 32303.00
516.1250, 32628.00
517.3060, 32733.00
518.4860, 32875.00
519.6660, 32622.00
520.8460, 32741.00
522.0260, 32763.00
523.2060, 32392.00
524.3850, 32665.00
525.5650, 32366.00
526.7440, 32559.00
527.9230, 32590.00
529.1020, 32744.00
530.2810, 32792.00
531.4590, 33039.00
532.6380, 32860.00
533.8160, 33002.00
534.9940, 32727.00
536.1720, 32691.00
537.3500, 32653.00
538.5270, 32409.00
539.7050, 32403.00
540.8820, 32909.00
542.0590, 32508.00
543.2360, 32809.00
544.4130, 33060.00
545.5900, 32823.00
546.7660, 32649.00
547.9430, 32897.00
549.1190, 32704.00
550.2950, 32672.00
551.4710, 32637.00
552.6470, 32777.00
553.8220, 32927.00
554.9980, 32890.00
556.1730, 33007.50
557.3480, 33265.00
558.5230, 33105.00
559.6980, 33058.00
560.8730, 33104.00
562.0470, 32813.00
563.2220, 32700.00
564.3960, 32975.00
565.5700, 32768.00
566.7440, 32755.00
567.9170, 32901.00
569.0910, 33145.00
570.2640, 33120.00
571.4380, 33185.00
572.6110, 33221.00
573.7840, 33223.00
574.9570, 33070.00
576.1290, 33256.00
577.3020, 32970.00
578.4740, 32808.00
579.6460, 32830.00
580.8180, 33007.00
581.9900, 33055.00
583.1620, 32963.00
584.3330, 33279.00
585.5040, 33088.00
586.6760, 33481.00
587.8470, 33182.00
589.0180, 33141.00
590.1880, 33131.00
591.3590, 32886.00
592.5290, 33089.00
593.7000, 33268.00
594.8700, 33380.00
596.0400, 33346.00
597.2090, 33486.04
598.3790, 33523.00
599.5490, 33610.00
600.7180, 33553.00
601.8870, 33582.00
603.0560, 33578.00
604.2250, 33562.49
605.3940, 33428.00
606.5620, 33635.00
607.7300, 33411.00
608.8990, 33604.00
610.0670, 33968.00
611.2350, 33601.00
612.4020, 33721.00
613.5700, 33889.00
614.7370, 33526.00
615.9050, 33537.00
617.0720, 33487.00
618.2390, 33454.00
619.4060, 34391.00
620.5720, 33944.00
621.7390, 33728.00
622.9050, 34049.00
624.0710, 33527.00
625.2370, 34303.00
626.4030, 34009.00
627.5690, 33831.00
628.7340, 33736.00
629.9000, 33621.09
631.0650, 33615.00
632.2300, 33613.00
633.3950, 33631.00
634.5600, 33775.00
635.7240, 33920.00
636.8890, 34174.00
638.0530, 33969.00
639.2170, 34107.00
640.3810, 33920.00
641.5450, 34023.00
642.7080, 34077.00
643.8720, 33851.00
645.0350, 33852.00
646.1980, 34116.00
647.3610, 34051.00
648.5240, 34262.00
649.6870, 34517.00
650.8490, 34699.00
652.0120, 34736.00
653.1740, 34667.00
654.3360, 34674.00
655.4980, 34656.00
656.6600, 34372.00
657.8210, 34457.00
658.9830, 34602.00
660.1440, 34748.00
661.3050, 34540.00
662.4660, 34953.00
663.6270, 34766.00
664.7870, 35112.00
665.9480, 35048.00
667.1080, 34893.00
668.2680, 34741.00
669.4280, 34530.00
670.5880, 34421.00
671.7480, 34490.00
672.9070, 34207.00
674.0670, 34409.00
675.2260, 34674.00
676.3850, 34515.00
677.5440, 34807.00
678.7030, 34758.00
679.8610, 34565.00
681.0200, 34638.00
682.1780, 34393.00
683.3360, 34350.00
684.4940, 34205.00
685.6520, 34024.00
686.8090, 34184.00
687.9670, 34392.00
689.1240, 34424.00
690.2810, 34402.00
691.4380, 34555.75
692.5950, 34428.00
693.7520, 34625.00
694.9080, 34734.00
696.0650, 34530.77
697.2210, 34438.00
698.3770, 34487.00
699.5330, 34570.00
700.6880, 34571.00
701.8440, 34567.00
702.9990, 34673.42
704.1550, 35055.00
705.3100, 34840.00
706.4650, 35073.00
707.6190, 35137.00
708.7740, 34705.00
709.9290, 35101.00
711.0830, 34896.00
712.2370, 34731.00
713.3910, 34908.00
714.5450, 34778.00
715.6980, 34950.00
716.8520, 35201.00
718.0050, 35226.00
719.1580, 35289.00
720.3110, 35309.00
721.4640, 35276.00
722.6170, 35097.00
723.7700, 35094.50
724.9220, 35037.00
726.0740, 34964.00
727.2260, 35007.00
728.3780, 34973.00
729.5300, 35193.00
730.6810, 35228.00
731.8330, 35329.00
732.9840, 35211.00
734.1350, 35459.00
735.2860, 35050.00
736.4370, 35223.00
737.5880, 34979.00
738.7380, 34861.00
739.8880, 35003.06
741.0390, 35029.85
742.1890, 35175.00
743.3380, 35356.00
744.4880, 35395.00
745.6380, 35459.00
746.7870, 35639.00
747.9360, 35474.00
749.0850, 35246.00
750.2340, 35297.00
751.3830, 35067.00
752.5310, 35054.40
753.6800, 35178.00
754.8280, 35082.00
755.9760, 35556.00
757.1240, 35807.00
758.2720, 35872.00
759.4190, 35587.00
760.5670, 35956.00
761.7140, 35391.00
762.8610, 35780.00
764.0080, 35234.00
765.1550, 35400.00
766.3020, 35429.00
767.4480, 35224.00
768.5950, 35708.00
769.7410, 35931.00
770.8870, 35722.00
772.0330, 35972.00
773.1780, 35852.14
774.3240, 35519.00
775.4690, 35647.00
776.6140, 35655.00
777.7590, 35475.00
778.9040, 35604.00
780.0490, 35609.00
781.1940, 35417.00
782.3380, 35848.00
783.4820, 35821.00
784.6260, 35712.00
785.7700, 35831.00
786.9140, 35809.55
788.0580, 35861.00
789.2010, 35832.00
790.3450, 35851.00
791.4880, 35708.00
792.6310, 35960.00
793.7730, 35661.00
794.9160, 35898.00
796.0590, 35801.00
797.2010, 35946.00
798.3430, 36403.00
799.4850, 36130.00
800.6270, 36000.00
801.7690, 36346.00
802.9100, 36051.00
804.0520, 36001.00
805.1930, 36085.00
806.3340, 36094.00
807.4750, 36143.80
808.6160, 36394.00
809.7560, 36316.00
810.8970, 36395.00
812.0370, 36584.00
813.1770, 36289.00
814.3170, 36493.00
815.4570, 36669.00
816.5960, 36184.00
817.7360, 36239.00
818.8750, 36144.00
820.0140, 36135.00
821.1530, 36347.00
822.2920, 36494.00
823.4310, 36524.00
824.5690, 36541.00
825.7070, 36791.00
826.8460, 36707.00
827.9840, 36781.00
829.1220, 36807.00
830.2590, 36446.00
831.3970, 36643.00
832.5340, 36390.00
833.6710, 36521.00
834.8080, 36701.00
835.9450, 36782.00
837.0820, 37205.00
838.2190, 36985.00
839.3550, 37005.00
840.4910, 37257.00
841.6270, 37074.00
842.7630, 36738.00
843.8990, 36721.00
845.0350, 36733.00
846.1700, 36654.00
847.3060, 36793.00
848.4410, 37092.00
849.5760, 37095.00
850.7100, 37187.00
851.8450, 37420.00
852.9800, 37434.00
854.1140, 37742.00
855.2480, 37369.00
856.3820, 37265.00
857.5160, 37438.00
858.6500, 37299.00
859.7830, 37282.00
860.9170, 37253.00
862.0500, 37556.00
863.1830, 37716.00
864.3160, 37446.00
865.4480, 37825.00
866.5810, 37699.00
867.7130, 37822.00
868.8460, 37187.00
869.9780, 37431.00
871.1100, 37443.00
872.2410, 37290.00
873.3730, 37419.00
874.5050, 37557.00
875.6360, 37639.00
876.7670, 37738.70
877.8980, 37921.00
879.0290, 37937.00
880.1590, 37903.00
881.2900, 38087.00
882.4200, 38100.00
883.5500, 37714.00
884.6800, 37660.00
885.8100, 37599.00
886.9400, 37775.00
888.0690, 37820.14
889.1990, 37951.65
890.3280, 38104.00
891.4570, 38210.00
892.5860, 38340.00
893.7140, 38350.00
894.8430, 38393.00
895.9710, 38392.00
897.1000, 38174.00
898.2280, 38075.00
899.3560, 38036.00
900.4830, 38543.00
901.6110, 38519.00
902.7380, 38803.00
903.8660, 38557.00
904.9930, 38957.00
906.1200, 39178.00
907.2460, 38916.00
908.3730, 38932.00
909.5000, 38966.00
910.6260, 38781.00
911.7520, 38829.00
912.8780, 39007.00
914.0040, 39164.00
915.1290, 39320.29
916.2550, 39369.00
917.3800, 39636.00
918.5050, 39826.00
919.6300, 39850.00
920.7550, 39877.00
921.8800, 39829.00
923.0040, 39707.00
924.1290, 39667.33
925.2530, 39621.00
926.3770, 39468.84
927.5010, 39504.00
928.6250, 39380.00
929.7480, 39879.00
930.8720, 39658.00
931.9950, 39973.00
933.1180, 39816.00
934.2410, 39598.00
935.3640, 39722.00
936.4860, 39216.00
937.6090, 39056.00
938.7310, 39313.00
939.8530, 39315.00
940.9750, 39390.29
942.0970, 39383.00
943.2180, 39585.00
944.3400, 39550.00
945.4610, 39638.00
946.5820, 39588.00
947.7030, 39593.00
948.8240, 39817.00
949.9450, 39559.00
951.0650, 39384.00
952.1860, 39506.00
953.3060, 39736.00
954.4260, 39483.00
955.5460, 39847.00
956.6650, 39792.00
957.7850, 40034.00
958.9040, 40105.00
960.0230, 40070.47
961.1420, 40094.00
962.2610, 39981.00
963.3800, 39860.00
964.4990, 39761.00
965.6170, 39473.00
966.7350, 39549.00
967.8530, 39572.57
968.9710, 40093.00
970.0890, 39944.00
971.2070, 40184.00
972.3240, 40597.00
973.4410, 40296.00
974.5580, 40393.00
975.6750, 40067.00
976.7920, 40357.00
977.9090, 40303.00
979.0250, 40096.00
980.1410, 39947.00
981.2580, 40487.00
982.3740, 40479.00
983.4890, 40699.00
984.6050, 40760.00
985.7200, 41005.00
986.8360, 41057.00
987.9510, 41105.00
989.0660, 40670.00
990.1810, 40595.00
991.2950, 40655.00
992.4100, 40708.00
993.5240, 40771.50
994.6390, 40815.00
995.7530, 41048.00
996.8660, 41181.00
997.9800, 41458.00
999.0940, 41422.00
1000.207, 41435.00
1001.320, 41425.00
1002.433, 41391.00
1003.546, 41178.00
1004.659, 40987.00
1005.772, 40810.00
1006.884, 40889.00
1007.996, 41135.00
1009.108, 41044.00
1010.220, 41373.00
1011.332, 41461.00
1012.444, 41233.00
1013.555, 41490.00
1014.666, 41622.00
1015.777, 41424.00
1016.888, 41342.00
1017.999, 41166.00
1019.110, 41141.00
1020.220, 41257.00
1021.331, 41329.00
1022.441, 41279.00
1023.551, 41235.00
1024.661, 41719.00
1025.770, 41396.00
1026.880, 41869.00
1027.989, 41587.00
1029.098, 41512.00
1030.207, 41523.00
1031.316, 41446.00
1032.425, 41331.00
1033.533, 41310.00
1034.642, 41396.00
1035.750, 41597.00
1036.858, 41857.00
1037.966, 42127.00
1039.073, 42051.00
1040.181, 42207.00
1041.288, 41903.00
1042.396, 41822.00
1043.503, 41839.00
1044.610, 42083.00
1045.716, 41875.00
1046.823, 41992.00
1047.929, 41802.00
1049.036, 42079.00
1050.142, 41972.00
1051.248, 42210.00
1052.353, 42382.00
1053.459, 42385.00
1054.564, 42472.00
1055.670, 42546.00
1056.775, 42279.00
1057.880, 42108.00
1058.985, 42364.00
1060.089, 42047.00
1061.194, 42212.00
1062.298, 42313.00
1063.402, 42665.00
1064.506, 42518.00
1065.610, 42837.00
1066.713, 42903.00
1067.817, 42816.00
1068.920, 42464.00
1070.023, 42723.00
1071.126, 42672.00
1072.229, 42396.00
1073.332, 42695.00
1074.435, 42402.00
1075.537, 43099.00
1076.639, 43101.00
1077.741, 43025.00
1078.843, 43067.00
1079.945, 43365.00
1081.046, 43191.00
1082.148, 43556.00
1083.249, 43311.00
1084.350, 43263.00
1085.451, 42882.00
1086.551, 42970.00
1087.652, 42937.00
1088.752, 43024.00
1089.853, 43070.00
1090.953, 43156.00
1092.053, 43565.00
1093.152, 43518.00
1094.252, 43672.00
1095.351, 43636.00
1096.451, 43580.00
1097.550, 43478.00
1098.649, 43217.00
1099.748, 43194.00
1100.846, 43261.00
1101.945, 43480.00
1103.043, 43618.00
1104.141, 43666.00
1105.239, 43965.00
1106.337, 43676.00
1107.434, 43779.00
1108.532, 43810.00
1109.629, 43548.00
1110.726, 43531.00
1111.823, 43493.00
1112.920, 43482.00
1114.017, 43564.00
1115.113, 43730.00
1116.210, 43668.00
1117.306, 43932.86
1118.402, 44397.00
1119.498, 44325.00
1120.593, 44235.00
1121.689, 44298.00
1122.784, 44164.00
1123.879, 44038.00
1124.974, 43807.00
1126.069, 43712.00
1127.164, 43879.00
1128.259, 44049.00
1129.353, 43795.00
1130.447, 44252.00
1131.541, 44577.00
1132.635, 44472.00
1133.729, 44458.00
1134.822, 44489.00
1135.916, 44499.00
1137.009, 44315.00
1138.102, 44422.00
1139.195, 44082.00
1140.288, 44141.00
1141.380, 44384.00
1142.473, 44158.00
1143.565, 44394.00
1144.657, 44854.00
1145.749, 44817.00
1146.841, 44632.00
1147.932, 44981.00
1149.024, 44848.00
1150.115, 44868.00
1151.206, 44739.00
1152.297, 44516.00
1153.388, 44410.00
1154.479, 44654.00
1155.569, 44821.00
1156.659, 44635.00
1157.750, 45181.00
1158.839, 45111.00
1159.929, 45179.00
1161.019, 45386.00
1162.108, 45525.00
1163.198, 44987.00
1164.287, 44957.00
1165.376, 44981.00
1166.465, 44653.00
1167.553, 44914.00
1168.642, 45129.00
1169.730, 45287.00
1170.818, 45434.75
1171.906, 45572.00
1172.994, 45634.00
1174.082, 45608.00
1175.170, 45683.00
1176.257, 45559.00
1177.344, 45504.07
1178.431, 45457.00
1179.518, 45250.00
1180.605, 45367.00
1181.691, 45192.00
1182.778, 45479.00
1183.864, 45588.00
1184.950, 45801.00
1186.036, 46147.00
1187.122, 46316.00
1188.207, 45900.00
1189.292, 45823.00
1190.378, 45977.00
1191.463, 46095.00
1192.548, 45834.00
1193.632, 45932.00
1194.717, 45933.00
1195.801, 45965.00
1196.886, 46075.34
1197.970, 46146.33
1199.054, 46307.00
1200.137, 46371.00
1201.221, 46537.00
1202.305, 46641.00
1203.388, 46668.00
1204.471, 46470.00
1205.554, 46104.00
1206.637, 46402.00
1207.719, 46464.00
1208.802, 46687.00
1209.884, 46745.00
1210.966, 46936.00
1212.048, 47369.00
1213.130, 47644.00
1214.212, 47366.00
1215.293, 47451.00
1216.374, 47356.00
1217.456, 46937.00
1218.536, 46951.00
1219.617, 47287.00
1220.698, 47052.00
1221.778, 47011.00
1222.859, 47209.00
1223.939, 47240.00
1225.019, 47401.00
1226.099, 47736.00
1227.178, 47760.00
1228.258, 47862.00
1229.337, 47836.00
1230.417, 47746.94
1231.496, 47718.00
1232.574, 47522.00
1233.653, 47349.00
1234.732, 47328.00
1235.810, 47761.00
1236.888, 47635.00
1237.966, 48040.00
1239.044, 48353.00
1240.122, 48153.00
1241.199, 48021.00
1242.277, 48428.00
1243.354, 48328.00
1244.431, 48208.00
1245.508, 48300.00
1246.585, 48284.25
1247.661, 48304.57
1248.738, 48368.00
1249.814, 48513.00
1250.890, 48444.00
1251.966, 48805.00
1253.042, 48650.00
1254.117, 48906.00
1255.193, 49209.00
1256.268, 48828.00
1257.343, 48789.00
1258.418, 48956.00
1259.493, 48586.00
1260.567, 48609.00
1261.642, 49190.00
1262.716, 49128.00
1263.790, 49396.00
1264.864, 49670.00
1265.938, 49556.00
1267.011, 49366.00
1268.085, 49463.00
1269.158, 49249.95
1270.231, 49441.00
1271.304, 49004.00
1272.377, 48989.00
1273.450, 48928.00
1274.522, 48985.00
1275.594, 49064.00
1276.666, 49034.00
1277.738, 49438.00
1278.810, 49733.00
1279.882, 49827.00
1280.953, 50257.00
1282.025, 50146.00
1283.096, 50195.00
1284.167, 50098.00
1285.238, 49998.00
1286.308, 49899.00
1287.379, 50261.00
1288.449, 50076.00
1289.519, 50526.00
1290.589, 50417.00
1291.659, 50854.00
1292.729, 50822.00
1293.798, 51251.00
1294.868, 51390.00
1295.937, 51336.00
1297.006, 51135.00
1298.075, 51167.00
1299.143, 50688.00
1300.212, 50947.00
1301.280, 50889.00
1302.348, 51022.00
1303.416, 51270.00
1304.484, 51634.00
1305.552, 51515.00
1306.620, 51845.00
1307.687, 51939.93
1308.754, 51888.00
1309.821, 52067.00
1310.888, 52053.00
1311.955, 51832.00
1313.021, 51966.00
1314.088, 51743.00
1315.154, 51872.00
1316.220, 52042.00
1317.286, 51994.00
1318.352, 52180.00
1319.417, 52487.00
1320.483, 52617.00
1321.548, 52918.00
1322.613, 52476.00
1323.678, 52519.00
1324.743, 52156.00
1325.807, 52035.00
1326.872, 52370.00
1327.936, 52052.00
1329.000, 52313.00
1330.064, 52691.00
1331.128, 52707.00
1332.191, 52447.00
1333.255, 53300.00
1334.318, 52966.00
1335.381, 53105.00
1336.444, 53418.00
1337.507, 53139.00
1338.569, 52671.00
1339.632, 52919.00
1340.694, 52261.00
1341.756, 52563.00
1342.818, 52733.00
1343.880, 53026.00
