##NAMES=Cuprite
##RRUFFID=R050374
##IDEAL CHEMISTRY=Cu^1+^_2_O
##LOCALITY=unknown
##OWNER=RRUFF
##SOURCE=Eugene Schlepp
##DESCRIPTION=Aggregate of deep red cubes
##STATUS=The identification of this mineral has been confirmed by X-ray diffraction and chemical analysis
##URL=rruff.info/R050374
##MEASURED CHEMISTRY=Cu_2.00_O
##PIN_ID=M00318
##ORIENTATION=Laser parallel to -a* (-1 0 0). Fiducial mark perpendicular to laser is parallel to b [0 1 0]
87.30800, 31554.00
88.54200, 33115.00
89.77700, 34241.00
91.01200, 35824.00
92.24600, 37229.00
93.48000, 37871.00
94.71400, 37878.00
95.94800, 38517.00
97.18200, 38865.00
98.41600, 39214.00
99.64900, 39659.00
100.8830, 39758.00
102.1160, 39960.00
103.3490, 39935.56
104.5820, 40042.49
105.8150, 40084.39
107.0470, 40064.78
108.2800, 39799.28
109.5120, 39851.29
110.7440, 39776.06
111.9760, 39695.62
113.2080, 39792.31
114.4400, 39562.61
115.6710, 39656.52
116.9030, 39621.23
118.1340, 39645.09
119.3650, 39540.94
120.5960, 39476.32
121.8270, 39539.76
123.0580, 39532.30
124.2880, 39585.00
125.5190, 39296.00
126.7490, 39303.00
127.9790, 39752.00
129.2090, 40338.00
130.4390, 40917.00
131.6680, 41091.00
132.8980, 41538.00
134.1270, 41166.00
135.3560, 41758.00
136.5850, 42382.00
137.8140, 43009.00
139.0430, 43658.00
140.2710, 43956.00
141.5000, 44155.00
142.7280, 43893.00
143.9560, 43946.00
145.1840, 43561.00
146.4120, 43471.00
147.6390, 43198.00
148.8670, 42645.00
150.0940, 42322.00
151.3210, 42070.58
152.5490, 41977.00
153.7750, 41671.00
155.0020, 41497.00
156.2290, 41394.00
157.4550, 40969.00
158.6810, 40626.00
159.9080, 40507.00
161.1340, 40156.00
162.3590, 40006.00
163.5850, 39832.00
164.8110, 39922.00
166.0360, 39765.00
167.2610, 39841.15
168.4860, 39934.40
169.7110, 40031.00
170.9360, 40371.00
172.1610, 40591.00
173.3850, 41200.00
174.6100, 41294.00
175.8340, 41666.00
177.0580, 41854.00
178.2820, 42299.00
179.5050, 42761.33
180.7290, 43226.00
181.9520, 43828.00
183.1760, 44631.00
184.3990, 45198.00
185.6220, 45674.00
186.8450, 46080.00
188.0670, 46226.00
189.2900, 45745.00
190.5120, 45642.00
191.7340, 45761.00
192.9560, 46363.00
194.1780, 46708.00
195.4000, 47689.00
196.6220, 48515.00
197.8430, 48624.00
199.0640, 48564.00
200.2860, 48922.00
201.5070, 49068.00
202.7270, 49427.00
203.9480, 50102.00
205.1690, 51080.00
206.3890, 52012.00
207.6090, 53705.00
208.8290, 55471.00
210.0490, 57676.00
211.2690, 59422.00
212.4890, 61304.00
213.7080, 62887.00
214.9280, 63433.00
216.1470, 63518.00
217.3660, 62071.00
218.5850, 59791.00
219.8030, 56372.00
221.0220, 52348.00
222.2400, 49383.00
223.4590, 47183.00
224.6770, 45692.00
225.8950, 44506.00
227.1120, 43301.00
228.3300, 42545.00
229.5480, 41753.00
230.7650, 41243.00
231.9820, 40458.00
233.1990, 39896.00
234.4160, 39284.00
235.6330, 38942.07
236.8490, 38830.00
238.0660, 38423.00
239.2820, 37858.00
240.4980, 37567.00
241.7140, 37006.00
242.9300, 36844.00
244.1460, 36680.00
245.3610, 36511.00
246.5770, 36402.00
247.7920, 36026.00
249.0070, 35874.00
250.2220, 36002.00
251.4370, 35675.00
252.6510, 35586.00
253.8660, 35586.00
255.0800, 35684.00
256.2940, 35718.00
257.5080, 36092.00
258.7220, 35871.93
259.9360, 36336.00
261.1490, 35591.00
262.3630, 35637.00
263.5760, 35544.00
264.7890, 35330.00
266.0020, 35477.00
267.2150, 35217.00
268.4270, 35140.00
269.6400, 35471.00
270.8520, 35114.00
272.0640, 35225.00
273.2760, 35469.00
274.4880, 35483.00
275.7000, 35604.00
276.9120, 35617.00
278.1230, 35594.00
279.3340, 35625.00
280.5450, 35852.00
281.7560, 35844.00
282.9670, 35899.24
284.1780, 35925.00
285.3880, 35897.00
286.5980, 35765.00
287.8090, 35696.00
289.0190, 35999.00
290.2290, 36140.00
291.4380, 35812.00
292.6480, 36180.00
293.8570, 36177.00
295.0670, 35926.00
296.2760, 36106.00
297.4850, 36188.00
298.6930, 36054.00
299.9020, 36331.00
301.1110, 36281.00
302.3190, 36289.00
303.5270, 36596.00
304.7350, 36202.00
305.9430, 36227.00
307.1510, 36207.00
308.3580, 36223.00
309.5660, 36195.00
310.7730, 36290.60
311.9800, 36285.38
313.1870, 36533.00
314.3940, 36303.00
315.6010, 36481.00
316.8070, 36417.00
318.0130, 36075.00
319.2200, 36356.00
320.4260, 36533.00
321.6310, 36289.00
322.8370, 36607.00
324.0430, 36377.00
325.2480, 36518.00
326.4540, 36179.00
327.6590, 36170.00
328.8640, 36591.00
330.0680, 36819.00
331.2730, 36073.00
332.4780, 36361.28
333.6820, 36208.00
334.8860, 36302.00
336.0900, 36266.00
337.2940, 36308.87
338.4980, 36399.00
339.7010, 36467.00
340.9050, 36434.00
342.1080, 36540.00
343.3110, 36437.00
344.5140, 36482.00
345.7170, 36616.00
346.9200, 36362.00
348.1220, 36457.00
349.3240, 36582.00
350.5270, 36727.00
351.7290, 36798.38
352.9310, 36868.34
354.1320, 36936.00
355.3340, 36944.00
356.5350, 36950.00
357.7370, 36976.00
358.9380, 37085.91
360.1390, 37074.00
361.3400, 37335.00
362.5400, 37406.00
363.7410, 37503.00
364.9410, 37483.00
366.1410, 37577.96
367.3410, 37644.00
368.5410, 37683.00
369.7410, 37801.00
370.9400, 37868.41
372.1400, 37996.00
373.3390, 38045.00
374.5380, 38106.00
375.7370, 38179.00
376.9360, 38341.00
378.1350, 38221.00
379.3330, 38476.00
380.5310, 38697.00
381.7300, 38763.19
382.9280, 39089.00
384.1260, 38966.00
385.3230, 39452.00
386.5210, 39353.00
387.7180, 39442.00
388.9160, 39619.00
390.1130, 39939.00
391.3100, 39664.00
392.5060, 40187.00
393.7030, 40205.00
394.9000, 40299.00
396.0960, 40512.00
397.2920, 40597.97
398.4880, 40876.00
399.6840, 40943.00
400.8800, 41105.00
402.0750, 41356.00
403.2710, 41382.08
404.4660, 41476.73
405.6610, 41575.00
406.8560, 41485.00
408.0510, 41666.00
409.2450, 41610.00
410.4400, 41876.00
411.6340, 41784.00
412.8280, 41605.00
414.0220, 41350.00
415.2160, 41762.00
416.4100, 41400.00
417.6030, 41513.00
418.7970, 41446.00
419.9900, 41324.00
421.1830, 41355.84
422.3760, 41223.00
423.5690, 41245.00
424.7610, 40956.00
425.9540, 40796.00
427.1460, 40805.00
428.3380, 40666.00
429.5300, 40715.00
430.7220, 40642.00
431.9140, 40246.00
433.1050, 40514.00
434.2970, 40066.00
435.4880, 40161.00
436.6790, 40168.00
437.8700, 40275.00
439.0610, 40018.00
440.2510, 39978.00
441.4420, 40016.00
442.6320, 40120.00
443.8220, 39952.00
445.0120, 40327.00
446.2020, 40135.00
447.3910, 40269.00
448.5810, 40118.00
449.7700, 40069.00
450.9600, 40194.00
452.1490, 40333.00
453.3370, 40201.00
454.5260, 40188.00
455.7150, 40090.00
456.9030, 40119.00
458.0910, 40358.00
459.2800, 40616.00
460.4670, 40504.00
461.6550, 40596.00
462.8430, 40473.00
464.0300, 40685.00
465.2180, 40797.00
466.4050, 40659.00
467.5920, 40756.00
468.7790, 40835.00
469.9650, 40892.00
471.1520, 40823.00
472.3380, 40991.00
473.5250, 40859.00
474.7110, 41183.00
475.8970, 41202.00
477.0820, 41442.00
478.2680, 41344.00
479.4540, 41277.00
480.6390, 41231.00
481.8240, 41150.00
483.0090, 41209.00
484.1940, 41296.00
485.3780, 41248.11
486.5630, 41162.00
487.7470, 41252.00
488.9320, 41165.00
490.1160, 41187.00
491.3000, 41112.00
492.4830, 41342.00
493.6670, 41228.00
494.8500, 41310.00
496.0340, 41407.00
497.2170, 41718.00
498.4000, 41207.00
499.5820, 41511.00
500.7650, 41379.00
501.9480, 41258.00
503.1300, 41283.00
504.3120, 41222.00
505.4940, 41211.47
506.6760, 41330.00
507.8580, 41266.00
509.0390, 41408.00
510.2210, 41556.00
511.4020, 41489.00
512.5830, 41586.83
513.7640, 41558.25
514.9450, 41564.00
516.1250, 41507.00
517.3060, 41381.00
518.4860, 41385.00
519.6660, 41711.00
520.8460, 41621.00
522.0260, 41717.00
523.2060, 41699.00
524.3850, 41707.07
525.5650, 41862.00
526.7440, 41701.00
527.9230, 41787.00
529.1020, 41705.00
530.2810, 41624.00
531.4590, 41449.00
532.6380, 41588.00
533.8160, 41524.00
534.9940, 41757.00
536.1720, 41507.00
537.3500, 41739.00
538.5270, 41628.00
539.7050, 41780.00
540.8820, 41842.00
542.0590, 41977.00
543.2360, 42056.00
544.4130, 41962.00
545.5900, 41927.00
546.7660, 42030.00
547.9430, 41917.00
549.1190, 42103.00
550.2950, 42302.00
551.4710, 42206.00
552.6470, 41989.00
553.8220, 42157.00
554.9980, 42101.00
556.1730, 42387.00
557.3480, 42138.00
558.5230, 42271.00
559.6980, 42186.00
560.8730, 42583.00
562.0470, 42491.00
563.2220, 42487.00
564.3960, 42638.00
565.5700, 42357.00
566.7440, 42490.00
567.9170, 42602.00
569.0910, 42651.00
570.2640, 42770.00
571.4380, 43123.00
572.6110, 42949.00
573.7840, 42728.00
574.9570, 42646.00
576.1290, 42979.00
577.3020, 42782.00
578.4740, 43021.00
579.6460, 42905.00
580.8180, 42900.00
581.9900, 42913.00
583.1620, 42808.00
584.3330, 42671.00
585.5040, 42989.00
586.6760, 43127.00
587.8470, 43073.00
589.0180, 42888.00
590.1880, 43339.00
591.3590, 43105.00
592.5290, 43540.00
593.7000, 43192.00
594.8700, 43280.00
596.0400, 43438.00
597.2090, 43443.00
598.3790, 43558.50
599.5490, 43588.00
600.7180, 43818.00
601.8870, 43939.00
603.0560, 44299.00
604.2250, 44395.68
605.3940, 44388.00
606.5620, 44727.00
607.7300, 44956.00
608.8990, 45214.00
610.0670, 45520.34
611.2350, 45359.00
612.4020, 45975.00
613.5700, 46206.00
614.7370, 46159.00
615.9050, 46549.00
617.0720, 46896.00
618.2390, 46945.00
619.4060, 47084.00
620.5720, 47580.00
621.7390, 47567.00
622.9050, 47650.00
624.0710, 47850.00
625.2370, 47450.00
626.4030, 47824.00
627.5690, 47685.00
628.7340, 47315.00
629.9000, 47434.00
631.0650, 47309.00
632.2300, 47274.00
633.3950, 47115.00
634.5600, 47156.00
635.7240, 46958.00
636.8890, 47069.00
638.0530, 46794.00
639.2170, 46873.00
640.3810, 46912.00
641.5450, 46610.00
642.7080, 46504.00
643.8720, 46474.00
645.0350, 46367.00
646.1980, 45912.00
647.3610, 45705.00
648.5240, 45512.00
649.6870, 45548.00
650.8490, 45261.00
652.0120, 44769.00
653.1740, 44833.00
654.3360, 44566.00
655.4980, 44492.00
656.6600, 44375.68
657.8210, 44325.00
658.9830, 44116.00
660.1440, 44061.00
661.3050, 43965.00
662.4660, 43898.00
663.6270, 43819.00
664.7870, 43865.00
665.9480, 43514.00
667.1080, 43733.00
668.2680, 43175.00
669.4280, 43701.00
670.5880, 43583.00
671.7480, 43408.00
672.9070, 43252.00
674.0670, 43425.00
675.2260, 43585.00
676.3850, 43381.00
677.5440, 43559.00
678.7030, 43359.00
679.8610, 43512.00
681.0200, 43244.00
682.1780, 43121.00
683.3360, 43418.00
684.4940, 43071.00
685.6520, 42850.00
686.8090, 43159.00
687.9670, 43228.00
689.1240, 43144.00
690.2810, 43044.00
691.4380, 42638.00
692.5950, 42813.00
693.7520, 42759.00
694.9080, 42822.00
696.0650, 42926.00
697.2210, 42846.00
698.3770, 42662.00
699.5330, 42635.00
700.6880, 42739.00
701.8440, 42799.00
702.9990, 42632.00
704.1550, 43070.00
705.3100, 42812.00
706.4650, 42679.00
707.6190, 42920.00
708.7740, 42878.00
709.9290, 42507.00
711.0830, 42998.00
712.2370, 42715.00
713.3910, 42764.00
714.5450, 42565.00
715.6980, 42640.00
716.8520, 43004.00
718.0050, 42916.00
719.1580, 42555.00
720.3110, 42980.00
721.4640, 42930.00
722.6170, 42631.00
723.7700, 42618.00
724.9220, 42720.00
726.0740, 42570.00
727.2260, 42870.00
728.3780, 42598.00
729.5300, 42680.00
730.6810, 42444.00
731.8330, 42714.00
732.9840, 42476.00
734.1350, 42517.00
735.2860, 42472.00
736.4370, 42692.00
737.5880, 42272.00
738.7380, 42626.00
739.8880, 42534.00
741.0390, 42484.00
742.1890, 42613.00
743.3380, 42708.00
744.4880, 42804.00
745.6380, 42843.72
746.7870, 42853.90
747.9360, 42882.00
749.0850, 42740.00
750.2340, 42734.00
751.3830, 42525.00
752.5310, 42599.00
753.6800, 42641.00
754.8280, 42467.00
755.9760, 42701.00
757.1240, 42654.00
758.2720, 42971.00
759.4190, 42436.00
760.5670, 42682.00
761.7140, 42520.00
762.8610, 42709.00
764.0080, 42590.00
765.1550, 42657.00
766.3020, 42644.80
767.4480, 42587.00
768.5950, 42627.00
769.7410, 42687.00
770.8870, 42787.00
772.0330, 42826.26
773.1780, 42781.00
774.3240, 43020.00
775.4690, 42796.00
776.6140, 43035.00
777.7590, 42910.00
778.9040, 42930.00
780.0490, 43038.00
781.1940, 43070.00
782.3380, 42979.00
783.4820, 42724.00
784.6260, 42848.00
785.7700, 42880.00
786.9140, 42848.65
788.0580, 42929.50
789.2010, 42744.00
790.3450, 43073.00
791.4880, 42644.00
792.6310, 42843.00
793.7730, 42721.00
794.9160, 43122.00
796.0590, 42978.00
797.2010, 43153.00
798.3430, 43036.00
799.4850, 43008.00
800.6270, 43085.00
801.7690, 42753.00
802.9100, 43121.00
804.0520, 42810.00
805.1930, 43014.00
806.3340, 42776.00
807.4750, 42898.00
808.6160, 42819.00
809.7560, 42788.00
810.8970, 42822.00
812.0370, 42946.00
813.1770, 43027.00
814.3170, 42830.00
815.4570, 42979.00
816.5960, 42805.00
817.7360, 42903.00
818.8750, 42937.00
820.0140, 42973.00
821.1530, 43196.00
822.2920, 42805.00
823.4310, 43306.00
824.5690, 43002.00
825.7070, 43071.00
826.8460, 43065.00
827.9840, 43019.00
829.1220, 43190.00
830.2590, 42860.00
831.3970, 43343.00
832.5340, 43259.00
833.6710, 43016.00
834.8080, 42984.00
835.9450, 42973.00
837.0820, 43075.00
838.2190, 42984.19
839.3550, 43062.00
840.4910, 42876.00
841.6270, 42868.00
842.7630, 42809.00
843.8990, 42775.34
845.0350, 43269.00
846.1700, 42870.00
847.3060, 42865.00
848.4410, 43099.00
849.5760, 42827.00
850.7100, 42785.00
851.8450, 43080.00
852.9800, 43087.00
854.1140, 42792.00
855.2480, 42823.00
856.3820, 42727.00
857.5160, 42735.00
858.6500, 42726.00
859.7830, 42814.00
860.9170, 42926.00
862.0500, 42872.00
863.1830, 42787.00
864.3160, 42882.00
865.4480, 42821.00
866.5810, 42898.00
867.7130, 43060.00
868.8460, 43060.00
869.9780, 42990.00
871.1100, 42973.00
872.2410, 43058.00
873.3730, 43309.00
874.5050, 43314.54
875.6360, 43602.49
876.7670, 43536.00
877.8980, 43952.00
879.0290, 44175.00
880.1590, 43994.00
881.2900, 43241.00
882.4200, 43050.00
883.5500, 42973.00
884.6800, 42938.00
885.8100, 42993.00
886.9400, 43026.32
888.0690, 43143.00
889.1990, 43189.00
890.3280, 43180.00
891.4570, 43219.00
892.5860, 43205.86
893.7140, 43484.00
894.8430, 43214.00
895.9710, 43302.00
897.1000, 43393.00
898.2280, 43144.00
899.3560, 43552.00
900.4830, 43193.00
901.6110, 43330.00
902.7380, 43398.00
903.8660, 43266.00
904.9930, 43391.00
906.1200, 43318.00
907.2460, 43545.00
908.3730, 43494.00
909.5000, 43678.00
910.6260, 43477.00
911.7520, 43387.00
912.8780, 43606.00
914.0040, 43583.00
915.1290, 43856.00
916.2550, 43402.00
917.3800, 43605.00
918.5050, 43730.00
919.6300, 43532.00
920.7550, 43660.00
921.8800, 43755.00
923.0040, 43697.37
924.1290, 43623.00
925.2530, 43723.00
926.3770, 43786.00
927.5010, 43792.00
928.6250, 43607.00
929.7480, 43530.00
930.8720, 43720.00
931.9950, 43663.00
933.1180, 43914.00
934.2410, 44122.00
935.3640, 43885.00
936.4860, 43696.00
937.6090, 44057.00
938.7310, 43882.00
939.8530, 43715.00
940.9750, 43847.00
942.0970, 43796.00
943.2180, 43932.00
944.3400, 43934.00
945.4610, 43932.00
946.5820, 44205.00
947.7030, 44213.00
948.8240, 44449.00
949.9450, 44733.00
951.0650, 44270.00
952.1860, 44184.00
953.3060, 44374.00
954.4260, 44153.00
955.5460, 44200.00
956.6650, 44047.00
957.7850, 44215.00
958.9040, 44100.00
960.0230, 44358.00
961.1420, 44281.00
962.2610, 44192.00
963.3800, 44172.00
964.4990, 44214.00
965.6170, 44487.00
966.7350, 44494.00
967.8530, 44152.00
968.9710, 44493.00
970.0890, 44353.00
971.2070, 44314.00
972.3240, 44519.00
973.4410, 44405.00
974.5580, 44633.00
975.6750, 44385.00
976.7920, 44512.00
977.9090, 44447.00
979.0250, 44539.00
980.1410, 44566.00
981.2580, 44584.18
982.3740, 44682.00
983.4890, 44643.00
984.6050, 44819.00
985.7200, 44827.00
986.8360, 44607.00
987.9510, 44911.00
989.0660, 44720.00
990.1810, 44783.00
991.2950, 44742.00
992.4100, 45002.00
993.5240, 44802.00
994.6390, 44931.00
995.7530, 45020.00
996.8660, 44959.00
997.9800, 45010.00
999.0940, 44842.00
1000.207, 44889.00
1001.320, 44885.00
1002.433, 45150.00
1003.546, 45095.00
1004.659, 45217.00
1005.772, 45539.00
1006.884, 45262.00
1007.996, 45114.00
1009.108, 45327.00
1010.220, 45353.00
1011.332, 45122.00
1012.444, 45298.00
1013.555, 45471.00
1014.666, 45403.00
1015.777, 45486.00
1016.888, 45577.00
1017.999, 45579.34
1019.110, 45574.00
1020.220, 45644.00
1021.331, 45711.00
1022.441, 45689.00
1023.551, 45836.00
1024.661, 45885.00
1025.770, 46042.00
1026.880, 45808.00
1027.989, 46253.00
1029.098, 45424.00
1030.207, 46137.00
1031.316, 46048.00
1032.425, 45947.80
1033.533, 45756.84
1034.642, 46202.89
1035.750, 46453.85
1036.858, 46520.18
1037.966, 45848.95
1039.073, 46130.13
1040.181, 46029.63
1041.288, 45913.47
1042.396, 46328.70
1043.503, 45764.75
1044.610, 46171.55
1045.716, 46190.85
1046.823, 46387.50
1047.929, 46200.10
1049.036, 46131.32
1050.142, 46446.71
1051.248, 46531.00
1052.353, 46255.00
1053.459, 46447.00
1054.564, 46436.00
1055.670, 46932.00
1056.775, 46529.00
1057.880, 46565.00
1058.985, 46634.00
1060.089, 46513.00
1061.194, 46473.00
1062.298, 46731.00
1063.402, 46631.00
1064.506, 46655.00
1065.610, 46743.00
1066.713, 46524.00
1067.817, 46699.00
1068.920, 46674.00
1070.023, 46549.00
1071.126, 46522.00
1072.229, 46465.00
1073.332, 46433.00
1074.435, 46501.00
1075.537, 46763.00
1076.639, 46585.00
1077.741, 46246.00
1078.843, 47099.00
1079.945, 46486.00
1081.046, 46587.00
1082.148, 46654.00
1083.249, 46492.00
1084.350, 46531.00
1085.451, 46627.00
1086.551, 46678.00
1087.652, 46599.00
1088.752, 46684.84
1089.853, 46666.89
1090.953, 46726.00
1092.053, 46654.00
1093.152, 46638.00
1094.252, 46570.00
1095.351, 46628.00
1096.451, 46334.00
1097.550, 46684.00
1098.649, 46452.00
1099.748, 46679.00
1100.846, 46827.00
1101.945, 46921.00
1103.043, 46741.00
1104.141, 46984.00
1105.239, 46713.00
1106.337, 47005.00
1107.434, 47051.00
1108.532, 46549.00
1109.629, 46925.00
1110.726, 46814.00
1111.823, 46576.00
1112.920, 46896.00
1114.017, 46802.00
1115.113, 46711.00
1116.210, 46782.00
1117.306, 46912.00
1118.402, 46906.00
1119.498, 46820.00
1120.593, 47086.00
1121.689, 47138.00
1122.784, 47048.00
1123.879, 46778.00
1124.974, 47078.00
1126.069, 46821.00
1127.164, 46955.00
1128.259, 46833.00
1129.353, 46527.00
1130.447, 46630.00
1131.541, 46933.00
1132.635, 46512.00
1133.729, 46889.00
1134.822, 46782.00
1135.916, 46753.00
1137.009, 46914.00
1138.102, 46865.00
1139.195, 46976.00
1140.288, 46827.00
1141.380, 46690.00
1142.473, 46510.00
1143.565, 46884.00
1144.657, 46773.00
1145.749, 46957.00
1146.841, 46823.00
1147.932, 46747.00
1149.024, 46756.00
1150.115, 46802.00
1151.206, 46933.00
1152.297, 46766.00
1153.388, 46764.00
1154.479, 46670.00
1155.569, 46993.00
1156.659, 46993.00
1157.750, 46999.00
1158.839, 46721.00
1159.929, 46618.00
1161.019, 46646.00
1162.108, 46776.00
1163.198, 46819.00
1164.287, 47033.00
1165.376, 46828.00
1166.465, 46890.00
1167.553, 46759.00
1168.642, 46807.00
1169.730, 46777.00
1170.818, 46910.00
1171.906, 46874.76
1172.994, 46582.00
1174.082, 46839.00
1175.170, 46799.00
1176.257, 46708.00
1177.344, 46836.00
1178.431, 47001.00
1179.518, 46840.00
1180.605, 46909.00
1181.691, 47072.00
1182.778, 46694.00
1183.864, 46754.00
1184.950, 46855.00
1186.036, 47150.00
1187.122, 46909.00
1188.207, 46837.00
1189.292, 46925.00
1190.378, 47064.00
1191.463, 46939.50
1192.548, 46955.51
1193.632, 46803.00
1194.717, 46884.00
1195.801, 46876.00
1196.886, 47036.00
1197.970, 46999.00
1199.054, 46980.00
1200.137, 47119.00
1201.221, 46872.00
1202.305, 46869.00
1203.388, 46755.00
1204.471, 46994.00
1205.554, 47268.00
1206.637, 46954.00
1207.719, 47379.00
1208.802, 47060.00
1209.884, 47155.00
1210.966, 47114.00
1212.048, 47052.00
1213.130, 47089.25
1214.212, 47080.35
1215.293, 47077.00
1216.374, 47165.00
1217.456, 47166.00
1218.536, 47269.37
1219.617, 47216.00
1220.698, 47334.00
1221.778, 47349.00
1222.859, 47270.00
1223.939, 47010.00
1225.019, 47186.00
1226.099, 47386.00
1227.178, 47179.00
1228.258, 47415.00
1229.337, 47307.00
1230.417, 47434.00
1231.496, 47262.00
1232.574, 47129.00
1233.653, 47289.00
1234.732, 47448.00
1235.810, 47382.00
1236.888, 47357.00
1237.966, 47208.00
1239.044, 47589.00
1240.122, 47225.00
1241.199, 47428.00
1242.277, 47281.00
1243.354, 47548.00
1244.431, 47567.00
1245.508, 47621.00
1246.585, 47533.00
1247.661, 47390.00
1248.738, 47688.00
1249.814, 47497.00
1250.890, 47655.00
1251.966, 47539.00
1253.042, 47694.00
1254.117, 47706.00
1255.193, 47593.00
1256.268, 47615.00
1257.343, 47746.00
1258.418, 47652.00
1259.493, 47798.00
1260.567, 47752.00
1261.642, 47457.00
1262.716, 47484.00
1263.790, 47693.00
1264.864, 47888.00
1265.938, 47763.00
1267.011, 48061.00
1268.085, 47618.00
1269.158, 47564.00
1270.231, 48006.00
1271.304, 47657.00
1272.377, 47803.00
1273.450, 47886.00
1274.522, 47588.00
