##NAMES=Cuprite
##RRUFFID=R050374
##IDEAL CHEMISTRY=Cu^1+^_2_O
##LOCALITY=unknown
##OWNER=RRUFF
##SOURCE=Eugene Schlepp
##DESCRIPTION=Aggregate of deep red cubes
##STATUS=The identification of this mineral has been confirmed by X-ray diffraction and chemical analysis
##URL=rruff.info/R050374
##MEASURED CHEMISTRY=Cu_2.00_O
##PIN_ID=M00318
##ORIENTATION=Laser parallel to -a* (-1 0 0). Fiducial mark perpendicular to laser is parallel to b [0 1 0]
88.54200, 31816.00
89.77700, 33465.00
91.01200, 35236.00
92.24600, 36556.00
93.48000, 37361.00
94.71400, 37980.00
95.94800, 38367.00
97.18200, 39179.00
98.41600, 39910.00
99.64900, 40171.00
100.8830, 40103.16
102.1160, 40615.00
103.3490, 40918.95
104.5820, 41026.18
105.8150, 40347.49
107.0470, 40683.62
108.2800, 40613.08
109.5120, 40525.83
110.7440, 41004.79
111.9760, 40440.39
113.2080, 40910.38
114.4400, 40967.45
115.6710, 41213.47
116.9030, 41050.31
118.1340, 41013.51
119.3650, 41386.06
120.5960, 41531.95
121.8270, 41321.65
123.0580, 41579.69
124.2880, 41244.00
125.5190, 40777.00
126.7490, 40926.00
127.9790, 41337.00
129.2090, 41888.00
130.4390, 42451.00
131.6680, 42672.00
132.8980, 42764.00
134.1270, 43235.00
135.3560, 43537.00
136.5850, 44018.00
137.8140, 44462.79
139.0430, 44692.41
140.2710, 45106.00
141.5000, 44937.00
142.7280, 44557.00
143.9560, 44105.00
145.1840, 44367.00
146.4120, 44068.00
147.6390, 43904.00
148.8670, 43272.00
150.0940, 43036.00
151.3210, 43312.00
152.5490, 43078.00
153.7750, 42913.00
155.0020, 43225.00
156.2290, 42739.00
157.4550, 42702.00
158.6810, 42500.00
159.9080, 41762.00
161.1340, 41988.00
162.3590, 41634.00
163.5850, 41882.00
164.8110, 41821.00
166.0360, 41776.00
167.2610, 41924.00
168.4860, 42034.00
169.7110, 42154.39
170.9360, 42391.96
172.1610, 42591.00
173.3850, 42815.00
174.6100, 43257.00
175.8340, 43342.00
177.0580, 43679.00
178.2820, 44409.00
179.5050, 44625.00
180.7290, 45222.00
181.9520, 45910.00
183.1760, 46447.00
184.3990, 47638.00
185.6220, 48095.00
186.8450, 48507.00
188.0670, 48732.00
189.2900, 48768.00
190.5120, 48926.00
191.7340, 49196.00
192.9560, 50093.00
194.1780, 50758.00
195.4000, 51222.58
196.6220, 52130.00
197.8430, 52122.00
199.0640, 52277.00
200.2860, 52338.00
201.5070, 52691.00
202.7270, 53207.00
203.9480, 53093.00
205.1690, 53136.00
206.3890, 54814.00
207.6090, 55960.00
208.8290, 57751.00
210.0490, 59275.00
211.2690, 60798.00
212.4890, 62766.00
213.7080, 63620.00
214.9280, 64312.00
216.1470, 64201.00
217.3660, 63031.00
218.5850, 60323.00
219.8030, 57208.00
221.0220, 53984.00
222.2400, 51314.00
223.4590, 49375.00
224.6770, 47784.00
225.8950, 46782.00
227.1120, 45481.00
228.3300, 45235.00
229.5480, 44498.00
230.7650, 43739.00
231.9820, 43504.00
233.1990, 42879.00
234.4160, 42431.00
235.6330, 42351.00
236.8490, 41788.00
238.0660, 41284.00
239.2820, 40910.00
240.4980, 40829.00
241.7140, 40359.00
242.9300, 40230.00
244.1460, 40089.00
245.3610, 39727.00
246.5770, 39588.00
247.7920, 39373.00
249.0070, 39224.00
250.2220, 39161.00
251.4370, 38951.00
252.6510, 39168.00
253.8660, 38641.00
255.0800, 38774.00
256.2940, 38811.00
257.5080, 39349.00
258.7220, 39101.97
259.9360, 39890.00
261.1490, 38884.00
262.3630, 38551.00
263.5760, 38513.00
264.7890, 38495.00
266.0020, 38697.00
267.2150, 38768.00
268.4270, 38614.00
269.6400, 38632.00
270.8520, 38751.00
272.0640, 38838.00
273.2760, 38739.00
274.4880, 38711.00
275.7000, 38966.00
276.9120, 38573.00
278.1230, 38948.00
279.3340, 38655.00
280.5450, 39183.00
281.7560, 38931.00
282.9670, 38856.00
284.1780, 39156.00
285.3880, 39112.00
286.5980, 39209.00
287.8090, 39260.00
289.0190, 39177.00
290.2290, 39366.00
291.4380, 39241.00
292.6480, 39234.00
293.8570, 39535.00
295.0670, 39547.00
296.2760, 39517.00
297.4850, 39619.00
298.6930, 39402.00
299.9020, 39769.00
301.1110, 39736.00
302.3190, 39695.00
303.5270, 39581.00
304.7350, 39878.00
305.9430, 39588.00
307.1510, 39947.00
308.3580, 39695.00
309.5660, 39800.00
310.7730, 39558.00
311.9800, 39792.00
313.1870, 40011.00
314.3940, 40137.00
315.6010, 40101.26
316.8070, 39863.00
318.0130, 39883.00
319.2200, 39724.00
320.4260, 39603.00
321.6310, 39635.04
322.8370, 39913.00
324.0430, 39666.00
325.2480, 39840.00
326.4540, 39890.00
327.6590, 39838.00
328.8640, 39839.00
330.0680, 39703.00
331.2730, 39506.00
332.4780, 39903.00
333.6820, 39936.00
334.8860, 39800.00
336.0900, 39937.00
337.2940, 39834.00
338.4980, 39878.97
339.7010, 39960.06
340.9050, 39816.00
342.1080, 40142.00
343.3110, 39848.00
344.5140, 39958.00
345.7170, 39804.00
346.9200, 40002.00
348.1220, 39963.00
349.3240, 39868.00
350.5270, 40064.00
351.7290, 40282.00
352.9310, 40527.00
354.1320, 40181.00
355.3340, 40756.00
356.5350, 40266.00
357.7370, 40582.00
358.9380, 40445.00
360.1390, 40573.00
361.3400, 40635.00
362.5400, 40758.00
363.7410, 40938.00
364.9410, 40929.00
366.1410, 40799.00
367.3410, 40821.00
368.5410, 40904.00
369.7410, 41062.00
370.9400, 41274.00
372.1400, 41110.00
373.3390, 41469.00
374.5380, 41338.00
375.7370, 41504.00
376.9360, 41592.00
378.1350, 41688.00
379.3330, 41876.00
380.5310, 41923.00
381.7300, 42127.49
382.9280, 42426.00
384.1260, 42436.00
385.3230, 42595.00
386.5210, 42615.00
387.7180, 42818.00
388.9160, 42930.00
390.1130, 42990.00
391.3100, 43207.00
392.5060, 43424.00
393.7030, 43580.00
394.9000, 43675.00
396.0960, 44018.00
397.2920, 44071.53
398.4880, 43859.00
399.6840, 44296.00
400.8800, 44320.00
402.0750, 44392.00
403.2710, 44835.00
404.4660, 44487.00
405.6610, 45054.00
406.8560, 45080.00
408.0510, 45120.00
409.2450, 45060.00
410.4400, 45335.00
411.6340, 45127.00
412.8280, 45190.00
414.0220, 45150.00
415.2160, 45016.00
416.4100, 45061.00
417.6030, 44948.00
418.7970, 44843.00
419.9900, 44803.00
421.1830, 44527.00
422.3760, 44562.00
423.5690, 44500.00
424.7610, 44533.00
425.9540, 44377.00
427.1460, 44291.00
428.3380, 44232.00
429.5300, 44192.00
430.7220, 44145.60
431.9140, 44111.77
433.1050, 44103.00
434.2970, 44043.00
435.4880, 44051.00
436.6790, 43997.00
437.8700, 43935.36
439.0610, 43763.00
440.2510, 43816.00
441.4420, 43762.00
442.6320, 43751.00
443.8220, 43845.00
445.0120, 43525.00
446.2020, 43775.00
447.3910, 43962.00
448.5810, 43676.00
449.7700, 43622.00
450.9600, 43890.00
452.1490, 43717.00
453.3370, 43839.00
454.5260, 43915.00
455.7150, 43788.00
456.9030, 44188.00
458.0910, 43983.00
459.2800, 44084.00
460.4670, 44011.00
461.6550, 44010.00
462.8430, 44143.00
464.0300, 44470.00
465.2180, 44025.00
466.4050, 44529.00
467.5920, 44564.00
468.7790, 44338.00
469.9650, 44767.00
471.1520, 44609.00
472.3380, 44765.00
473.5250, 44904.00
474.7110, 44990.00
475.8970, 45085.00
477.0820, 44754.00
478.2680, 44893.00
479.4540, 45047.00
480.6390, 45325.00
481.8240, 45160.00
483.0090, 45065.00
484.1940, 45355.00
485.3780, 45535.00
486.5630, 45312.00
487.7470, 45093.00
488.9320, 45351.00
490.1160, 45313.00
491.3000, 45145.00
492.4830, 45494.00
493.6670, 45207.00
494.8500, 45419.00
496.0340, 45668.00
497.2170, 45508.00
498.4000, 45674.29
499.5820, 45271.00
500.7650, 45687.00
501.9480, 45496.00
503.1300, 45440.00
504.3120, 45471.00
505.4940, 45620.00
506.6760, 45501.00
507.8580, 45416.00
509.0390, 45610.00
510.2210, 45667.00
511.4020, 45579.00
512.5830, 45654.00
513.7640, 45523.00
514.9450, 45462.00
516.1250, 45627.00
517.3060, 45612.00
518.4860, 45593.00
519.6660, 45995.00
520.8460, 45773.00
522.0260, 45853.00
523.2060, 45710.00
524.3850, 45699.18
525.5650, 45881.00
526.7440, 45737.00
527.9230, 45915.00
529.1020, 46048.00
530.2810, 45918.00
531.4590, 45783.00
532.6380, 45896.00
533.8160, 45799.00
534.9940, 45937.00
536.1720, 45975.00
537.3500, 45831.00
538.5270, 46279.00
539.7050, 46139.00
540.8820, 46057.00
542.0590, 45927.00
543.2360, 46390.00
544.4130, 46223.00
545.5900, 46229.00
546.7660, 46112.00
547.9430, 46061.00
549.1190, 46366.00
550.2950, 46275.00
551.4710, 46628.00
552.6470, 46584.92
553.8220, 46560.00
554.9980, 46534.00
556.1730, 46712.00
557.3480, 46613.00
558.5230, 46738.00
559.6980, 46734.00
560.8730, 46685.00
562.0470, 46676.00
563.2220, 46786.00
564.3960, 46527.00
565.5700, 46651.00
566.7440, 47079.00
567.9170, 47138.00
569.0910, 47142.47
570.2640, 47323.23
571.4380, 46974.00
572.6110, 46779.00
573.7840, 46685.86
574.9570, 46725.00
576.1290, 46670.00
577.3020, 46634.00
578.4740, 46760.00
579.6460, 46662.00
580.8180, 46850.00
581.9900, 46718.95
583.1620, 46533.00
584.3330, 46477.00
585.5040, 46545.00
586.6760, 46366.00
587.8470, 46656.00
589.0180, 46459.00
590.1880, 46380.00
591.3590, 46431.00
592.5290, 46603.00
593.7000, 46728.00
594.8700, 46577.00
596.0400, 46940.00
597.2090, 46886.00
598.3790, 47171.00
599.5490, 46837.00
600.7180, 47227.00
601.8870, 47230.00
603.0560, 47460.00
604.2250, 47781.00
605.3940, 47998.00
606.5620, 48009.00
607.7300, 48419.00
608.8990, 48282.00
610.0670, 48455.00
611.2350, 48822.00
612.4020, 49014.00
613.5700, 49434.00
614.7370, 49653.00
615.9050, 50028.00
617.0720, 50326.00
618.2390, 50324.00
619.4060, 50393.00
620.5720, 50685.00
621.7390, 50690.00
622.9050, 50673.00
624.0710, 50834.00
625.2370, 50966.00
626.4030, 50977.00
627.5690, 51038.00
628.7340, 50959.50
629.9000, 50654.00
631.0650, 50786.00
632.2300, 50570.00
633.3950, 50581.00
634.5600, 50217.00
635.7240, 50114.00
636.8890, 50373.00
638.0530, 50017.00
639.2170, 50174.00
640.3810, 49908.00
641.5450, 49853.00
642.7080, 49797.00
643.8720, 49259.00
645.0350, 49138.00
646.1980, 49238.00
647.3610, 48769.00
648.5240, 48700.00
649.6870, 48622.00
650.8490, 48453.00
652.0120, 48099.00
653.1740, 48021.00
654.3360, 47738.00
655.4980, 47869.00
656.6600, 47666.00
657.8210, 47480.00
658.9830, 47528.00
660.1440, 47737.00
661.3050, 47364.00
662.4660, 47275.00
663.6270, 47331.00
664.7870, 46823.00
665.9480, 47350.00
667.1080, 46972.00
668.2680, 47224.00
669.4280, 46974.00
670.5880, 47086.00
671.7480, 47103.00
672.9070, 47209.00
674.0670, 47109.11
675.2260, 46799.00
676.3850, 46878.00
677.5440, 46869.00
678.7030, 46753.00
679.8610, 46901.00
681.0200, 46590.00
682.1780, 46781.00
683.3360, 46721.00
684.4940, 46719.00
685.6520, 46803.09
686.8090, 46633.00
687.9670, 46842.00
689.1240, 46623.00
690.2810, 46532.00
691.4380, 46511.00
692.5950, 46445.47
693.7520, 46452.65
694.9080, 46488.00
696.0650, 46501.00
697.2210, 46587.00
698.3770, 46645.00
699.5330, 46569.00
700.6880, 46500.00
701.8440, 46388.00
702.9990, 46465.00
704.1550, 46478.00
705.3100, 46542.62
706.4650, 46628.00
707.6190, 46615.00
708.7740, 46745.00
709.9290, 46500.00
711.0830, 46586.00
712.2370, 46383.00
713.3910, 46436.00
714.5450, 46494.00
715.6980, 46610.00
716.8520, 46325.00
718.0050, 46621.00
719.1580, 46424.00
720.3110, 46509.00
721.4640, 46527.00
722.6170, 46615.00
723.7700, 46337.00
724.9220, 46457.00
726.0740, 46343.00
727.2260, 46746.00
728.3780, 46647.00
729.5300, 46405.00
730.6810, 46109.00
731.8330, 46332.00
732.9840, 46358.00
734.1350, 46367.00
735.2860, 46412.00
736.4370, 46540.00
737.5880, 46435.00
738.7380, 46263.00
739.8880, 46393.00
741.0390, 46398.00
742.1890, 46321.00
743.3380, 46387.00
744.4880, 46371.40
745.6380, 46355.00
746.7870, 46394.00
747.9360, 46346.00
749.0850, 46324.00
750.2340, 46389.50
751.3830, 46210.00
752.5310, 46434.00
753.6800, 46419.00
754.8280, 46271.00
755.9760, 46264.00
757.1240, 46193.00
758.2720, 46078.00
759.4190, 46136.71
760.5670, 46692.00
761.7140, 46250.00
762.8610, 46436.00
764.0080, 46587.00
765.1550, 46284.00
766.3020, 46309.00
767.4480, 46492.00
768.5950, 46375.00
769.7410, 46349.00
770.8870, 46430.00
772.0330, 46366.18
773.1780, 46560.00
774.3240, 46459.00
775.4690, 46467.00
776.6140, 46707.00
777.7590, 46490.00
778.9040, 46768.00
780.0490, 46738.00
781.1940, 46617.00
782.3380, 46674.00
783.4820, 46561.00
784.6260, 46731.00
785.7700, 46692.00
786.9140, 46571.00
788.0580, 46823.00
789.2010, 46745.00
790.3450, 46518.00
791.4880, 46745.00
792.6310, 46575.00
793.7730, 46258.00
794.9160, 46555.00
796.0590, 46660.00
797.2010, 46507.00
798.3430, 46568.00
799.4850, 46777.00
800.6270, 46845.00
801.7690, 46722.00
802.9100, 46572.00
804.0520, 46620.00
805.1930, 46779.00
806.3340, 46480.00
807.4750, 46189.00
808.6160, 46392.00
809.7560, 46556.00
810.8970, 46561.00
812.0370, 46686.00
813.1770, 46705.21
814.3170, 46494.00
815.4570, 46723.00
816.5960, 46537.00
817.7360, 46514.00
818.8750, 46759.00
820.0140, 46652.00
821.1530, 46636.00
822.2920, 46848.00
823.4310, 46562.00
824.5690, 46457.00
825.7070, 46629.00
826.8460, 46717.00
827.9840, 46321.00
829.1220, 46580.00
830.2590, 46470.00
831.3970, 46387.00
832.5340, 46466.00
833.6710, 46671.00
834.8080, 46556.00
835.9450, 46591.00
837.0820, 46682.00
838.2190, 46237.00
839.3550, 46451.00
840.4910, 46491.00
841.6270, 46362.40
842.7630, 46479.00
843.8990, 46312.00
845.0350, 46518.00
846.1700, 46475.00
847.3060, 46565.00
848.4410, 46459.00
849.5760, 46244.00
850.7100, 46191.00
851.8450, 46390.00
852.9800, 46228.00
854.1140, 46465.00
855.2480, 46458.89
856.3820, 46629.00
857.5160, 46483.00
858.6500, 46722.00
859.7830, 46627.00
860.9170, 46474.00
862.0500, 46261.00
863.1830, 46620.00
864.3160, 46419.00
865.4480, 46202.00
866.5810, 46774.00
867.7130, 46473.00
868.8460, 46309.00
869.9780, 46351.00
871.1100, 46388.00
872.2410, 46523.00
873.3730, 46613.00
874.5050, 46711.00
875.6360, 46615.00
876.7670, 46653.00
877.8980, 46699.00
879.0290, 46457.00
880.1590, 46631.00
881.2900, 46573.00
882.4200, 46624.00
883.5500, 46668.80
884.6800, 46594.00
885.8100, 46695.00
886.9400, 46807.00
888.0690, 46794.73
889.1990, 46836.01
890.3280, 46673.00
891.4570, 46788.00
892.5860, 46672.00
893.7140, 46579.00
894.8430, 46939.00
895.9710, 46831.00
897.1000, 46817.00
898.2280, 46946.00
899.3560, 47371.00
900.4830, 46925.00
901.6110, 47189.00
902.7380, 46840.00
903.8660, 46799.00
904.9930, 46656.00
906.1200, 46866.00
907.2460, 46918.00
908.3730, 47201.00
909.5000, 46970.00
910.6260, 46969.00
911.7520, 47155.00
912.8780, 47347.00
914.0040, 47122.00
915.1290, 47211.48
916.2550, 47293.00
917.3800, 47096.00
918.5050, 47227.00
919.6300, 47264.00
920.7550, 47044.00
921.8800, 47177.00
923.0040, 47380.00
924.1290, 47231.00
925.2530, 47355.00
926.3770, 47188.00
927.5010, 47388.00
928.6250, 47120.00
929.7480, 47410.00
930.8720, 47620.00
931.9950, 47631.00
933.1180, 47485.00
934.2410, 47674.07
935.3640, 47461.00
936.4860, 47827.00
937.6090, 47529.00
938.7310, 47527.00
939.8530, 47431.00
940.9750, 47580.00
942.0970, 47482.00
943.2180, 47336.00
944.3400, 47582.00
945.4610, 47495.00
946.5820, 47397.00
947.7030, 47282.00
948.8240, 47331.01
949.9450, 47423.08
951.0650, 47497.00
952.1860, 47645.00
953.3060, 47844.00
954.4260, 47690.00
955.5460, 47924.00
956.6650, 47657.00
957.7850, 47609.00
958.9040, 47728.00
960.0230, 47811.00
961.1420, 47594.00
962.2610, 47783.00
963.3800, 47970.00
964.4990, 47703.00
965.6170, 48062.00
966.7350, 47966.00
967.8530, 47794.00
968.9710, 47789.00
970.0890, 47923.00
971.2070, 48237.00
972.3240, 48035.00
973.4410, 48081.00
974.5580, 48080.00
975.6750, 48078.00
976.7920, 48239.00
977.9090, 48048.00
979.0250, 47969.00
980.1410, 48194.00
981.2580, 48357.00
982.3740, 48265.00
983.4890, 48273.00
984.6050, 48352.00
985.7200, 48401.00
986.8360, 48607.00
987.9510, 48266.00
989.0660, 48276.00
990.1810, 48346.00
991.2950, 48638.00
992.4100, 48354.00
993.5240, 48573.00
994.6390, 48544.00
995.7530, 48414.00
996.8660, 48944.00
997.9800, 48703.00
999.0940, 48705.00
1000.207, 48725.00
1001.320, 48833.00
1002.433, 49011.00
1003.546, 48654.00
1004.659, 48804.00
1005.772, 48867.00
1006.884, 49085.00
1007.996, 49187.00
1009.108, 48930.00
1010.220, 49322.00
1011.332, 48983.00
1012.444, 49205.00
1013.555, 49162.00
1014.666, 49251.00
1015.777, 49249.00
1016.888, 49206.00
1017.999, 49432.00
1019.110, 49387.00
1020.220, 49246.00
1021.331, 49368.00
1022.441, 49492.00
1023.551, 49566.00
1024.661, 49412.00
1025.770, 49739.00
1026.880, 49546.00
1027.989, 49623.00
1029.098, 49935.00
1030.207, 49820.00
1031.316, 49886.00
1032.425, 49746.00
1033.533, 49670.00
1034.642, 49788.00
1035.750, 49675.00
1036.858, 49829.00
1037.966, 49840.00
1039.073, 49838.00
1040.181, 49954.00
1041.288, 50116.00
1042.396, 50126.00
1043.503, 49849.00
1044.610, 49961.00
1045.716, 50168.00
1046.823, 50072.00
1047.929, 50413.00
1049.036, 50433.00
1050.142, 50296.00
1051.248, 50404.00
1052.353, 50363.00
1053.459, 50423.00
1054.564, 50343.00
1055.670, 50311.00
1056.775, 50441.00
1057.880, 50531.00
1058.985, 50237.00
1060.089, 50483.00
1061.194, 50259.00
1062.298, 50447.00
1063.402, 50398.00
1064.506, 50489.00
1065.610, 50624.00
1066.713, 50501.00
1067.817, 50469.00
1068.920, 50584.00
1070.023, 50520.00
1071.126, 50825.00
1072.229, 50615.23
1073.332, 50955.00
1074.435, 50384.00
1075.537, 50620.00
1076.639, 50690.00
1077.741, 50722.00
1078.843, 50574.00
1079.945, 50637.12
1081.046, 50442.00
1082.148, 50606.00
1083.249, 50499.00
1084.350, 50461.00
1085.451, 50350.00
1086.551, 50545.00
1087.652, 50450.00
1088.752, 50565.00
1089.853, 50621.11
1090.953, 50567.00
1092.053, 50706.00
1093.152, 50726.00
1094.252, 50706.00
1095.351, 50690.00
1096.451, 50686.89
1097.550, 50623.00
1098.649, 50692.00
1099.748, 50621.00
1100.846, 50684.48
1101.945, 50799.00
1103.043, 50630.00
1104.141, 50801.00
1105.239, 50606.00
1106.337, 50741.00
1107.434, 50427.00
1108.532, 50623.00
1109.629, 50538.00
1110.726, 50963.00
1111.823, 50329.00
1112.920, 50657.41
1114.017, 51553.00
1115.113, 50869.00
1116.210, 50834.00
1117.306, 50978.00
1118.402, 51250.00
1119.498, 51054.00
1120.593, 51185.00
1121.689, 51010.00
1122.784, 50983.00
1123.879, 50983.00
1124.974, 50840.00
1126.069, 50840.00
1127.164, 51043.00
1128.259, 50519.64
1129.353, 50992.12
1130.447, 51256.71
1131.541, 51324.58
1132.635, 50606.53
1133.729, 50903.33
1134.822, 50793.43
1135.916, 50666.85
1137.009, 51106.48
1138.102, 50502.75
1139.195, 50933.41
1140.288, 50951.16
1141.380, 51157.89
1142.473, 50955.40
1143.565, 50879.31
1144.657, 51212.57
1145.749, 51319.16
1146.841, 51069.57
1147.932, 51288.32
1149.024, 50670.29
1150.115, 50786.55
1151.206, 51219.61
1152.297, 50990.60
1153.388, 50949.00
1154.479, 50743.00
1155.569, 50694.00
1156.659, 50813.00
1157.750, 50829.00
1158.839, 50828.00
1159.929, 50802.00
1161.019, 50926.80
1162.108, 50914.14
1163.198, 51067.00
1164.287, 50951.00
1165.376, 50762.00
1166.465, 50684.00
1167.553, 50856.00
1168.642, 50964.00
1169.730, 50576.00
1170.818, 50905.00
1171.906, 50855.00
1172.994, 50926.00
1174.082, 50538.00
1175.170, 51197.00
1176.257, 50824.00
1177.344, 50683.00
1178.431, 50944.00
1179.518, 50600.00
1180.605, 51125.00
1181.691, 50974.00
1182.778, 50748.00
1183.864, 51055.00
1184.950, 50828.00
1186.036, 50947.00
1187.122, 50972.00
1188.207, 50800.00
1189.292, 50966.00
1190.378, 51078.00
1191.463, 50753.00
1192.548, 50988.00
1193.632, 51012.00
1194.717, 50851.00
1195.801, 51039.00
1196.886, 51127.00
1197.970, 51093.00
1199.054, 51191.00
1200.137, 51038.00
1201.221, 51156.00
1202.305, 50810.00
1203.388, 51159.00
1204.471, 51108.00
1205.554, 50886.00
1206.637, 51306.00
1207.719, 51150.00
1208.802, 51361.00
1209.884, 51708.00
1210.966, 51508.00
1212.048, 52235.00
1213.130, 51416.00
1214.212, 51426.00
1215.293, 51839.00
1216.374, 51087.00
1217.456, 51329.00
1218.536, 51596.00
1219.617, 51369.00
1220.698, 51455.00
1221.778, 51437.00
1222.859, 51546.00
1223.939, 51552.00
1225.019, 51615.00
1226.099, 51510.00
1227.178, 51579.00
1228.258, 51303.00
1229.337, 51782.00
1230.417, 51589.00
1231.496, 51401.00
1232.574, 51721.00
1233.653, 51697.00
1234.732, 51773.00
1235.810, 51723.00
1236.888, 51784.27
1237.966, 51780.14
1239.044, 51832.00
1240.122, 51837.00
1241.199, 51762.00
1242.277, 51902.00
1243.354, 51935.00
1244.431, 51936.11
1245.508, 51683.00
1246.585, 51918.00
1247.661, 51741.00
1248.738, 51610.00
1249.814, 51752.00
1250.890, 51870.00
1251.966, 51934.00
1253.042, 51940.00
1254.117, 51979.00
1255.193, 52051.00
1256.268, 51912.00
1257.343, 51831.00
1258.418, 51801.00
1259.493, 51982.00
1260.567, 52074.00
1261.642, 51682.00
1262.716, 52062.00
1263.790, 51834.00
1264.864, 52169.00
1265.938, 51933.00
1267.011, 51994.00
1268.085, 52262.00
1269.158, 52119.00
1270.231, 52109.00
1271.304, 52134.00
1272.377, 52240.00
1273.450, 52213.00
1274.522, 52271.00
1275.594, 51937.00
