##NAMES=Cuprite
##RRUFFID=R050374
##IDEAL CHEMISTRY=Cu^1+^_2_O
##LOCALITY=unknown
##OWNER=RRUFF
##SOURCE=Eugene Schlepp
##DESCRIPTION=Aggregate of deep red cubes
##STATUS=The identification of this mineral has been confirmed by X-ray diffraction and chemical analysis
##URL=rruff.info/R050374
##MEASURED CHEMISTRY=Cu_2.00_O
##PIN_ID=M00318
##ORIENTATION=Laser parallel to -a* (-1 0 0). Fiducial mark perpendicular to laser is parallel to b [0 1 0]
86.07200, 22075.00
87.30800, 23341.00
88.54200, 25117.00
89.77700, 26564.00
91.01200, 27711.00
92.24600, 28963.00
93.48000, 29196.00
94.71400, 29995.00
95.94800, 30804.00
97.18200, 31546.00
98.41600, 32154.00
99.64900, 32656.00
100.8830, 32956.00
102.1160, 33868.00
103.3490, 34538.40
104.5820, 36272.00
105.8150, 36432.00
107.0470, 37591.00
108.2800, 38863.00
109.5120, 36934.00
110.7440, 36005.00
111.9760, 36294.00
113.2080, 36368.00
114.4400, 36304.00
115.6710, 35609.00
116.9030, 34189.00
118.1340, 33187.00
119.3650, 32931.00
120.5960, 32952.00
121.8270, 32503.00
123.0580, 32390.00
124.2880, 32533.00
125.5190, 32277.00
126.7490, 32837.00
127.9790, 33317.00
129.2090, 34060.00
130.4390, 34090.00
131.6680, 34288.00
132.8980, 34702.00
134.1270, 35287.00
135.3560, 35975.00
136.5850, 36909.00
137.8140, 37207.00
139.0430, 37712.00
140.2710, 37507.00
141.5000, 37726.00
142.7280, 37709.00
143.9560, 37731.00
145.1840, 37660.00
146.4120, 37073.00
147.6390, 36671.00
148.8670, 36256.00
150.0940, 35810.82
151.3210, 35451.00
152.5490, 35130.00
153.7750, 34675.00
155.0020, 34558.00
156.2290, 34402.00
157.4550, 33941.00
158.6810, 33532.00
159.9080, 33058.00
161.1340, 32563.00
162.3590, 32283.00
163.5850, 32149.00
164.8110, 31953.00
166.0360, 32059.00
167.2610, 32152.00
168.4860, 32178.00
169.7110, 32336.00
170.9360, 32678.00
172.1610, 33054.00
173.3850, 33499.00
174.6100, 33744.00
175.8340, 34382.00
177.0580, 34885.00
178.2820, 35278.00
179.5050, 36033.00
180.7290, 36741.00
181.9520, 37151.00
183.1760, 38122.00
184.3990, 39098.00
185.6220, 39544.00
186.8450, 39950.00
188.0670, 39989.00
189.2900, 39559.00
190.5120, 39688.00
191.7340, 39625.00
192.9560, 40151.00
194.1780, 41190.00
195.4000, 42073.00
196.6220, 42844.00
197.8430, 42887.00
199.0640, 43048.00
200.2860, 44108.00
201.5070, 44764.00
202.7270, 46482.00
203.9480, 45136.00
205.1690, 46620.00
206.3890, 48394.00
207.6090, 50289.00
208.8290, 52670.00
210.0490, 54926.00
211.2690, 57258.00
212.4890, 59524.00
213.7080, 60902.00
214.9280, 61784.00
216.1470, 60952.00
217.3660, 58734.00
218.5850, 55089.00
219.8030, 50430.00
221.0220, 46312.00
222.2400, 42740.00
223.4590, 40485.00
224.6770, 38526.00
225.8950, 37026.00
227.1120, 35662.84
228.3300, 35020.00
229.5480, 33798.00
230.7650, 33238.00
231.9820, 32716.00
233.1990, 31973.00
234.4160, 31396.00
235.6330, 30935.00
236.8490, 30439.00
238.0660, 29958.00
239.2820, 29572.00
240.4980, 29172.00
241.7140, 28736.00
242.9300, 28435.00
244.1460, 28151.00
245.3610, 27719.00
246.5770, 27651.00
247.7920, 27421.00
249.0070, 27112.00
250.2220, 26947.00
251.4370, 26824.00
252.6510, 26646.00
253.8660, 26858.00
255.0800, 26839.00
256.2940, 26639.00
257.5080, 27220.00
258.7220, 26873.16
259.9360, 27273.00
261.1490, 26499.00
262.3630, 26465.00
263.5760, 26071.00
264.7890, 26153.00
266.0020, 26551.00
267.2150, 26221.00
268.4270, 26374.00
269.6400, 26183.00
270.8520, 26160.00
272.0640, 26164.00
273.2760, 26354.00
274.4880, 26268.00
275.7000, 26228.00
276.9120, 26432.00
278.1230, 26463.00
279.3340, 26334.00
280.5450, 26314.00
281.7560, 26259.00
282.9670, 26400.00
284.1780, 26389.00
285.3880, 26631.00
286.5980, 26571.00
287.8090, 26645.00
289.0190, 26824.00
290.2290, 26753.00
291.4380, 26938.00
292.6480, 27085.00
293.8570, 26943.00
295.0670, 26932.00
296.2760, 26942.00
297.4850, 27002.00
298.6930, 26942.00
299.9020, 26902.00
301.1110, 26890.00
302.3190, 26931.99
303.5270, 27012.00
304.7350, 27104.00
305.9430, 26947.00
307.1510, 27085.00
308.3580, 27056.00
309.5660, 26933.00
310.7730, 26929.00
311.9800, 26915.00
313.1870, 27026.00
314.3940, 27060.00
315.6010, 26996.00
316.8070, 26929.00
318.0130, 27057.00
319.2200, 26965.00
320.4260, 26893.00
321.6310, 26738.00
322.8370, 26796.00
324.0430, 26900.00
325.2480, 26794.00
326.4540, 26864.00
327.6590, 26675.00
328.8640, 26695.00
330.0680, 26630.00
331.2730, 26554.96
332.4780, 26401.00
333.6820, 26519.00
334.8860, 26491.00
336.0900, 26607.00
337.2940, 26503.00
338.4980, 26832.00
339.7010, 26490.00
340.9050, 26440.00
342.1080, 26677.00
343.3110, 26570.00
344.5140, 26712.00
345.7170, 26658.00
346.9200, 26726.00
348.1220, 26588.00
349.3240, 26622.00
350.5270, 26816.00
351.7290, 26927.00
352.9310, 26942.00
354.1320, 26961.00
355.3340, 27033.00
356.5350, 27162.00
357.7370, 27040.00
358.9380, 27100.00
360.1390, 27026.00
361.3400, 27072.07
362.5400, 27106.00
363.7410, 27233.00
364.9410, 27338.00
366.1410, 27530.00
367.3410, 27656.00
368.5410, 27773.00
369.7410, 27867.20
370.9400, 27892.00
372.1400, 27994.00
373.3390, 27998.00
374.5380, 28050.00
375.7370, 28072.00
376.9360, 28165.00
378.1350, 28240.00
379.3330, 28723.00
380.5310, 28654.00
381.7300, 28860.55
382.9280, 28816.00
384.1260, 29013.00
385.3230, 29185.00
386.5210, 29151.00
387.7180, 29554.00
388.9160, 29625.00
390.1130, 29984.00
391.3100, 30005.00
392.5060, 30501.00
393.7030, 30484.00
394.9000, 30455.00
396.0960, 30915.00
397.2920, 31065.00
398.4880, 31136.00
399.6840, 31471.00
400.8800, 31485.00
402.0750, 31890.00
403.2710, 31856.00
404.4660, 32114.00
405.6610, 32159.00
406.8560, 32101.00
408.0510, 32185.00
409.2450, 32354.00
410.4400, 32089.00
411.6340, 32210.00
412.8280, 32116.00
414.0220, 32046.00
415.2160, 31952.00
416.4100, 32013.00
417.6030, 31672.00
418.7970, 31705.00
419.9900, 31626.00
421.1830, 31332.00
422.3760, 31264.00
423.5690, 31342.00
424.7610, 30846.00
425.9540, 31027.00
427.1460, 30774.00
428.3380, 30957.00
429.5300, 30850.00
430.7220, 30571.00
431.9140, 30354.00
433.1050, 30416.00
434.2970, 30292.00
435.4880, 30233.00
436.6790, 30267.03
437.8700, 30185.00
439.0610, 30231.00
440.2510, 30023.00
441.4420, 29840.00
442.6320, 29792.00
443.8220, 29859.00
445.0120, 29930.00
446.2020, 30013.00
447.3910, 30035.00
448.5810, 29908.00
449.7700, 30006.00
450.9600, 29932.00
452.1490, 29840.00
453.3370, 29886.00
454.5260, 29969.00
455.7150, 29945.00
456.9030, 30008.00
458.0910, 30093.00
459.2800, 30001.00
460.4670, 30246.00
461.6550, 30154.00
462.8430, 30467.00
464.0300, 30310.00
465.2180, 30365.00
466.4050, 30373.00
467.5920, 30464.00
468.7790, 30688.00
469.9650, 30794.00
471.1520, 30885.00
472.3380, 30859.00
473.5250, 30986.00
474.7110, 30898.00
475.8970, 31135.00
477.0820, 31404.00
478.2680, 31107.00
479.4540, 31239.00
480.6390, 31256.00
481.8240, 31165.00
483.0090, 31185.00
484.1940, 31192.74
485.3780, 31183.00
486.5630, 31245.00
487.7470, 31110.00
488.9320, 31126.00
490.1160, 31246.00
491.3000, 31037.00
492.4830, 30978.00
493.6670, 31014.00
494.8500, 31062.00
496.0340, 31027.52
497.2170, 31052.00
498.4000, 31060.00
499.5820, 31136.00
500.7650, 31260.00
501.9480, 31282.00
503.1300, 31376.75
504.3120, 31339.00
505.4940, 31444.00
506.6760, 31469.00
507.8580, 31346.00
509.0390, 31494.00
510.2210, 31146.00
511.4020, 31397.00
512.5830, 31057.00
513.7640, 31245.00
514.9450, 31647.00
516.1250, 31450.00
517.3060, 31141.00
518.4860, 31553.00
519.6660, 31399.00
520.8460, 31513.00
522.0260, 31486.00
523.2060, 31388.00
524.3850, 31583.00
525.5650, 31486.00
526.7440, 31474.00
527.9230, 31500.00
529.1020, 31551.00
530.2810, 31549.00
531.4590, 31453.00
532.6380, 31266.00
533.8160, 31494.00
534.9940, 31446.00
536.1720, 31675.00
537.3500, 32022.00
538.5270, 32351.00
539.7050, 32200.41
540.8820, 31786.00
542.0590, 31992.00
543.2360, 31655.00
544.4130, 31866.00
545.5900, 31671.00
546.7660, 32017.00
547.9430, 32050.00
549.1190, 32116.00
550.2950, 32314.00
551.4710, 32045.00
552.6470, 32300.00
553.8220, 32333.00
554.9980, 32203.00
556.1730, 32510.00
557.3480, 32513.00
558.5230, 32352.00
559.6980, 32237.00
560.8730, 32441.00
562.0470, 32366.00
563.2220, 32545.00
564.3960, 32670.00
565.5700, 32569.00
566.7440, 32767.00
567.9170, 32757.00
569.0910, 32826.00
570.2640, 33009.00
571.4380, 33130.00
572.6110, 32709.00
573.7840, 32874.00
574.9570, 32575.00
576.1290, 32594.00
577.3020, 32649.00
578.4740, 32610.00
579.6460, 32256.00
580.8180, 32183.00
581.9900, 31997.00
583.1620, 32006.00
584.3330, 32046.00
585.5040, 31993.00
586.6760, 32016.35
587.8470, 31763.00
589.0180, 31957.00
590.1880, 31915.00
591.3590, 31767.00
592.5290, 31920.00
593.7000, 32181.00
594.8700, 32103.00
596.0400, 32348.00
597.2090, 31992.00
598.3790, 32623.00
599.5490, 32727.00
600.7180, 32870.00
601.8870, 33499.00
603.0560, 33316.85
604.2250, 33324.00
605.3940, 33393.00
606.5620, 33629.00
607.7300, 33983.00
608.8990, 33961.00
610.0670, 34498.00
611.2350, 34790.00
612.4020, 35251.00
613.5700, 35497.00
614.7370, 35641.00
615.9050, 36286.00
617.0720, 36308.00
618.2390, 36558.00
619.4060, 37054.00
620.5720, 37243.00
621.7390, 37193.00
622.9050, 37622.00
624.0710, 37285.00
625.2370, 37221.00
626.4030, 37088.00
627.5690, 37193.00
628.7340, 37015.00
629.9000, 37131.00
631.0650, 37034.00
632.2300, 36876.00
633.3950, 36634.00
634.5600, 36671.00
635.7240, 36489.00
636.8890, 36380.00
638.0530, 36180.00
639.2170, 36085.00
640.3810, 35920.16
641.5450, 35937.00
642.7080, 35680.00
643.8720, 35445.00
645.0350, 35454.00
646.1980, 35084.00
647.3610, 35195.00
648.5240, 34499.00
649.6870, 34326.00
650.8490, 34003.00
652.0120, 34204.00
653.1740, 33646.00
654.3360, 33579.00
655.4980, 33298.00
656.6600, 33163.00
657.8210, 32940.00
658.9830, 32813.00
660.1440, 32780.00
661.3050, 32718.00
662.4660, 32636.00
663.6270, 32121.00
664.7870, 32470.00
665.9480, 32176.00
667.1080, 31988.00
668.2680, 32106.00
669.4280, 32138.00
670.5880, 31954.00
671.7480, 31946.00
672.9070, 31811.00
674.0670, 31730.60
675.2260, 31592.00
676.3850, 31589.00
677.5440, 31544.74
678.7030, 31507.12
679.8610, 31560.00
681.0200, 31557.00
682.1780, 31734.00
683.3360, 31678.00
684.4940, 31578.00
685.6520, 31653.00
686.8090, 31482.00
687.9670, 31633.00
689.1240, 31495.00
690.2810, 31374.00
691.4380, 31545.00
692.5950, 31455.00
693.7520, 31273.00
694.9080, 31122.00
696.0650, 31148.00
697.2210, 31287.00
698.3770, 31184.00
699.5330, 31127.00
700.6880, 31229.00
701.8440, 31160.72
702.9990, 31194.33
704.1550, 31164.00
705.3100, 31163.00
706.4650, 31152.00
707.6190, 31118.69
708.7740, 31072.09
709.9290, 31020.00
711.0830, 30948.00
712.2370, 30818.00
713.3910, 30753.00
714.5450, 30769.40
715.6980, 30751.64
716.8520, 30821.00
718.0050, 30856.00
719.1580, 30822.00
720.3110, 30920.00
721.4640, 30663.00
722.6170, 30945.00
723.7700, 31031.00
724.9220, 30763.00
726.0740, 30880.00
727.2260, 30806.00
728.3780, 31021.00
729.5300, 30944.38
730.6810, 30703.00
731.8330, 30816.00
732.9840, 30746.00
734.1350, 30548.00
735.2860, 30795.00
736.4370, 30937.00
737.5880, 30690.00
738.7380, 30794.00
739.8880, 30605.00
741.0390, 30692.00
742.1890, 30628.00
743.3380, 30690.00
744.4880, 30754.00
745.6380, 30577.00
746.7870, 30567.00
747.9360, 30542.00
749.0850, 30692.00
750.2340, 30527.00
751.3830, 30557.00
752.5310, 30665.00
753.6800, 30555.00
754.8280, 30397.00
755.9760, 30351.00
757.1240, 30633.00
758.2720, 30391.00
759.4190, 30392.00
760.5670, 30584.00
761.7140, 30271.00
762.8610, 30493.00
764.0080, 30544.00
765.1550, 30582.00
766.3020, 30678.00
767.4480, 30651.64
768.5950, 30441.00
769.7410, 30618.00
770.8870, 30251.52
772.0330, 30680.45
773.1780, 30926.59
774.3240, 30999.78
775.4690, 30381.97
776.6140, 30656.43
777.7590, 30573.31
778.9040, 30475.53
780.0490, 30875.57
781.1940, 30358.27
782.3380, 30750.41
783.4820, 30779.51
784.6260, 30974.77
785.7700, 30810.23
786.9140, 30756.82
788.0580, 31063.32
789.2010, 31170.53
790.3450, 30964.57
791.4880, 31170.38
792.6310, 30640.49
793.7730, 30756.17
794.9160, 31150.41
796.0590, 30962.54
797.2010, 31174.91
798.3430, 31234.85
799.4850, 30602.01
800.6270, 30513.00
801.7690, 30982.00
802.9100, 30684.00
804.0520, 30718.00
805.1930, 30811.00
806.3340, 30480.00
807.4750, 30510.00
808.6160, 30569.00
809.7560, 30544.00
810.8970, 30557.00
812.0370, 30846.00
813.1770, 30631.00
814.3170, 30570.00
815.4570, 30747.00
816.5960, 30479.00
817.7360, 30445.00
818.8750, 30558.00
820.0140, 30239.00
821.1530, 30547.00
822.2920, 30697.00
823.4310, 30549.00
824.5690, 30698.00
825.7070, 30586.00
826.8460, 30427.00
827.9840, 30607.00
829.1220, 30518.00
830.2590, 30569.00
831.3970, 30501.00
832.5340, 30512.00
833.6710, 30534.00
834.8080, 30458.00
835.9450, 30401.00
837.0820, 30365.00
838.2190, 30489.00
839.3550, 30528.00
840.4910, 30356.00
841.6270, 30485.00
842.7630, 30377.00
843.8990, 30558.00
845.0350, 30484.00
846.1700, 30306.00
847.3060, 30234.00
848.4410, 30299.00
849.5760, 30131.00
850.7100, 30325.00
851.8450, 30200.00
852.9800, 30333.00
854.1140, 30428.00
855.2480, 30265.00
856.3820, 30309.00
857.5160, 30376.00
858.6500, 30249.00
859.7830, 30481.00
860.9170, 30284.00
862.0500, 30208.00
863.1830, 30270.00
864.3160, 30236.00
865.4480, 30111.00
866.5810, 30263.00
867.7130, 30217.89
868.8460, 30174.00
869.9780, 30278.00
871.1100, 30274.00
872.2410, 30270.00
873.3730, 30359.00
874.5050, 30251.00
875.6360, 30345.00
876.7670, 30251.00
877.8980, 30145.00
879.0290, 30330.00
880.1590, 30350.00
881.2900, 30394.00
882.4200, 30570.00
883.5500, 30447.00
884.6800, 30471.00
885.8100, 30300.00
886.9400, 30503.00
888.0690, 30287.00
889.1990, 30578.00
890.3280, 30371.00
891.4570, 30596.00
892.5860, 30424.00
893.7140, 30428.00
894.8430, 30355.00
895.9710, 30387.29
897.1000, 30592.00
898.2280, 30450.00
899.3560, 30543.00
900.4830, 30428.00
901.6110, 30621.00
902.7380, 30517.00
903.8660, 30557.00
904.9930, 30584.00
906.1200, 30689.00
907.2460, 30966.00
908.3730, 30781.78
909.5000, 30417.00
910.6260, 30560.00
911.7520, 30643.00
912.8780, 30637.00
914.0040, 30748.00
915.1290, 30703.00
916.2550, 30819.00
917.3800, 30713.00
918.5050, 30897.00
919.6300, 30654.00
920.7550, 30733.00
921.8800, 30903.00
923.0040, 30749.00
924.1290, 30545.00
925.2530, 30536.00
926.3770, 31011.00
927.5010, 30769.00
928.6250, 30974.00
929.7480, 31019.65
930.8720, 30956.20
931.9950, 30987.00
933.1180, 30979.00
934.2410, 30855.00
935.3640, 30937.00
936.4860, 30712.00
937.6090, 30888.00
938.7310, 30898.00
939.8530, 30914.00
940.9750, 31033.00
942.0970, 30816.00
943.2180, 30856.00
944.3400, 31128.00
945.4610, 30870.00
946.5820, 31126.00
947.7030, 30883.00
948.8240, 30981.00
949.9450, 31258.00
951.0650, 31180.00
952.1860, 31266.00
953.3060, 30914.00
954.4260, 31006.00
955.5460, 31074.00
956.6650, 31038.00
957.7850, 31214.00
958.9040, 31411.00
960.0230, 31232.00
961.1420, 31386.00
962.2610, 31286.00
963.3800, 31253.00
964.4990, 31285.00
965.6170, 31455.00
966.7350, 31309.00
967.8530, 31412.00
968.9710, 31261.00
970.0890, 31297.00
971.2070, 31452.00
972.3240, 31164.00
973.4410, 31454.00
974.5580, 31510.00
975.6750, 31584.00
976.7920, 31369.00
977.9090, 31347.00
979.0250, 31468.00
980.1410, 31494.00
981.2580, 31587.00
982.3740, 31417.00
983.4890, 31728.00
984.6050, 31469.00
985.7200, 31832.00
986.8360, 31630.00
987.9510, 31590.00
989.0660, 31972.00
990.1810, 31655.00
991.2950, 31604.00
992.4100, 31951.00
993.5240, 31920.00
994.6390, 31861.00
995.7530, 31922.00
996.8660, 31985.00
997.9800, 31961.00
999.0940, 31827.00
1000.207, 31762.00
1001.320, 31916.00
1002.433, 31742.00
1003.546, 32017.00
1004.659, 32083.00
1005.772, 31993.00
1006.884, 32277.00
1007.996, 32352.00
1009.108, 31900.00
1010.220, 32101.00
1011.332, 32248.00
1012.444, 32122.00
1013.555, 32230.00
1014.666, 32172.00
1015.777, 32401.00
1016.888, 32228.00
1017.999, 32286.00
1019.110, 32543.00
1020.220, 32417.00
1021.331, 32415.00
1022.441, 32542.00
1023.551, 32530.00
1024.661, 32559.00
1025.770, 32835.00
1026.880, 32456.00
1027.989, 32911.00
1029.098, 32763.00
1030.207, 32857.00
1031.316, 32589.00
1032.425, 32762.00
1033.533, 32617.00
1034.642, 32818.00
1035.750, 32863.67
1036.858, 32760.00
1037.966, 33006.00
1039.073, 32949.00
1040.181, 32919.00
1041.288, 33216.00
1042.396, 32785.00
1043.503, 32991.00
1044.610, 33066.00
1045.716, 33172.00
1046.823, 33140.00
1047.929, 33244.00
1049.036, 33347.00
1050.142, 33071.00
1051.248, 33182.00
1052.353, 33331.00
1053.459, 32949.00
1054.564, 33372.00
1055.670, 33322.00
1056.775, 33171.00
1057.880, 33145.00
1058.985, 33133.00
1060.089, 33150.00
1061.194, 33031.00
1062.298, 33088.00
1063.402, 33098.00
1064.506, 33089.00
1065.610, 33240.00
1066.713, 33238.00
1067.817, 33230.24
1068.920, 33199.00
1070.023, 33147.00
1071.126, 33158.00
1072.229, 33075.00
1073.332, 33170.00
1074.435, 33014.00
1075.537, 33115.00
1076.639, 33084.64
1077.741, 33046.00
1078.843, 33078.00
1079.945, 33035.00
1081.046, 33027.00
1082.148, 33089.00
1083.249, 33083.00
1084.350, 33110.00
1085.451, 33134.72
1086.551, 33092.00
1087.652, 33141.00
1088.752, 33304.00
1089.853, 33255.00
1090.953, 33420.00
1092.053, 33153.00
1093.152, 33024.00
1094.252, 33238.00
1095.351, 33210.00
1096.451, 33134.00
1097.550, 33119.00
1098.649, 33084.00
1099.748, 33210.00
1100.846, 33267.00
1101.945, 33044.00
1103.043, 33270.00
1104.141, 33114.00
1105.239, 33146.00
1106.337, 33219.00
1107.434, 33371.00
1108.532, 33275.14
1109.629, 33220.00
1110.726, 33058.00
1111.823, 33212.00
1112.920, 32976.00
1114.017, 33516.00
1115.113, 34103.00
1116.210, 33548.00
1117.306, 33280.00
1118.402, 33574.00
1119.498, 33350.00
1120.593, 33522.00
1121.689, 33525.00
1122.784, 33570.00
1123.879, 33326.00
1124.974, 33475.00
1126.069, 33683.00
1127.164, 33324.00
1128.259, 33438.00
1129.353, 33367.00
1130.447, 33221.00
1131.541, 33204.00
1132.635, 33197.00
1133.729, 33089.00
1134.822, 33186.00
1135.916, 33080.00
1137.009, 33089.32
1138.102, 32993.00
1139.195, 33116.00
1140.288, 33047.00
1141.380, 33149.00
1142.473, 32969.00
1143.565, 33149.00
1144.657, 32977.00
1145.749, 33012.09
1146.841, 33184.00
1147.932, 33037.00
1149.024, 33198.00
1150.115, 33249.00
1151.206, 33240.00
1152.297, 33090.00
1153.388, 33141.00
1154.479, 33172.00
1155.569, 33347.00
1156.659, 32962.00
1157.750, 33048.00
1158.839, 33051.98
1159.929, 33519.00
1161.019, 33157.00
1162.108, 33110.00
1163.198, 33205.00
1164.287, 32915.00
1165.376, 33137.00
1166.465, 33188.00
1167.553, 33375.00
1168.642, 33052.00
1169.730, 33088.00
1170.818, 33063.00
1171.906, 33064.00
1172.994, 33010.00
1174.082, 33120.00
1175.170, 33232.00
1176.257, 33195.00
1177.344, 33181.00
1178.431, 32958.00
1179.518, 33322.00
1180.605, 33247.00
1181.691, 33356.00
1182.778, 33143.00
1183.864, 33396.00
1184.950, 33308.00
1186.036, 33385.00
1187.122, 33142.00
1188.207, 33039.00
1189.292, 33142.00
1190.378, 33197.00
1191.463, 33299.00
1192.548, 33125.00
1193.632, 32998.00
1194.717, 33619.00
1195.801, 33328.00
1196.886, 33467.00
1197.970, 33121.00
1199.054, 33367.00
1200.137, 33428.00
1201.221, 33240.62
1202.305, 33822.00
1203.388, 33101.00
1204.471, 33312.00
1205.554, 33456.00
1206.637, 33329.00
1207.719, 33482.00
1208.802, 33295.00
1209.884, 33525.00
1210.966, 33339.00
1212.048, 33315.00
1213.130, 33687.00
1214.212, 33497.00
1215.293, 33314.00
1216.374, 33636.00
1217.456, 33461.00
1218.536, 33462.00
1219.617, 33655.00
1220.698, 33625.00
1221.778, 33306.00
1222.859, 33561.00
1223.939, 33341.00
1225.019, 33591.00
1226.099, 33699.00
1227.178, 33393.00
1228.258, 34073.00
1229.337, 33647.00
1230.417, 33779.00
1231.496, 33517.00
1232.574, 33734.00
1233.653, 33707.00
1234.732, 33746.00
1235.810, 33622.00
1236.888, 33596.00
1237.966, 33614.00
1239.044, 33603.00
1240.122, 33742.00
1241.199, 33713.00
1242.277, 33791.00
1243.354, 33719.00
1244.431, 33606.00
1245.508, 33655.00
1246.585, 33693.39
1247.661, 33940.00
1248.738, 33881.00
1249.814, 33715.00
1250.890, 33743.00
1251.966, 34062.00
1253.042, 33600.00
1254.117, 33662.00
1255.193, 33968.00
1256.268, 33717.00
1257.343, 33819.00
1258.418, 33648.00
1259.493, 33850.00
1260.567, 33820.00
1261.642, 33746.00
1262.716, 33772.00
1263.790, 34014.00
1264.864, 33968.00
1265.938, 34065.00
1267.011, 34073.00
1268.085, 34103.00
1269.158, 33875.00
1270.231, 33800.00
1271.304, 33844.00
1272.377, 33853.00
1273.450, 33871.00
