##NAMES=Cuprite
##RRUFFID=R050374
##IDEAL CHEMISTRY=Cu^1+^_2_O
##LOCALITY=unknown
##OWNER=RRUFF
##SOURCE=Eugene Schlepp
##DESCRIPTION=Aggregate of deep red cubes
##STATUS=The identification of this mineral has been confirmed by X-ray diffraction and chemical analysis
##URL=rruff.info/R050374
##MEASURED CHEMISTRY=Cu_2.00_O
##PIN_ID=M00318
##ORIENTATION=Laser parallel to -a* (-1 0 0). Fiducial mark perpendicular to laser is parallel to b [0 1 0]
84.83700, 28944.00
86.07200, 29975.00
87.30800, 31048.00
88.54200, 32145.00
89.77700, 33204.00
91.01200, 34084.53
92.24600, 34903.93
93.48000, 35611.00
94.71400, 36184.00
95.94800, 36565.00
97.18200, 36876.00
98.41600, 37441.00
99.64900, 37689.00
100.8830, 38140.00
102.1160, 38189.00
103.3490, 38811.25
104.5820, 38879.82
105.8150, 38883.34
107.0470, 38825.39
108.2800, 38521.52
109.5120, 38535.19
110.7440, 38421.63
111.9760, 38302.85
113.2080, 38361.20
114.4400, 38093.15
115.6710, 38148.76
116.9030, 38075.13
118.1340, 38060.68
119.3650, 37918.22
120.5960, 37815.30
121.8270, 37840.44
123.0580, 37794.66
124.2880, 37637.53
125.5190, 37302.00
126.7490, 37715.00
127.9790, 38215.00
129.2090, 38604.00
130.4390, 39071.00
131.6680, 39243.00
132.8980, 39561.00
134.1270, 39907.00
135.3560, 40256.00
136.5850, 40656.00
137.8140, 41420.00
139.0430, 41585.00
140.2710, 41734.00
141.5000, 41578.00
142.7280, 41677.00
143.9560, 41303.00
145.1840, 41151.00
146.4120, 41155.00
147.6390, 40823.00
148.8670, 40270.00
150.0940, 40112.00
151.3210, 40072.00
152.5490, 39784.00
153.7750, 39816.00
155.0020, 39379.00
156.2290, 38982.00
157.4550, 39216.00
158.6810, 38838.00
159.9080, 38577.00
161.1340, 38313.00
162.3590, 38112.78
163.5850, 37922.00
164.8110, 37835.00
166.0360, 37864.00
167.2610, 37808.00
168.4860, 37918.00
169.7110, 38341.00
170.9360, 38610.00
172.1610, 38840.00
173.3850, 38993.00
174.6100, 39524.00
175.8340, 39753.00
177.0580, 39999.00
178.2820, 40371.00
179.5050, 40867.00
180.7290, 41326.00
181.9520, 42087.00
183.1760, 42656.00
184.3990, 43353.00
185.6220, 43932.00
186.8450, 44374.00
188.0670, 44182.00
189.2900, 44263.00
190.5120, 44390.00
191.7340, 44466.00
192.9560, 44995.00
194.1780, 45804.00
195.4000, 46397.00
196.6220, 46690.15
197.8430, 47621.00
199.0640, 47259.00
200.2860, 47332.00
201.5070, 47787.00
202.7270, 48033.00
203.9480, 48866.75
205.1690, 49632.52
206.3890, 50934.00
207.6090, 51864.00
208.8290, 53334.00
210.0490, 55075.00
211.2690, 56735.00
212.4890, 58058.00
213.7080, 59548.00
214.9280, 60396.00
216.1470, 60270.00
217.3660, 58910.00
218.5850, 56209.00
219.8030, 52771.00
221.0220, 49722.00
222.2400, 46955.00
223.4590, 45033.00
224.6770, 43423.00
225.8950, 42340.00
227.1120, 41696.00
228.3300, 40655.00
229.5480, 40483.00
230.7650, 39683.00
231.9820, 39019.00
233.1990, 38613.00
234.4160, 38154.00
235.6330, 37722.77
236.8490, 37353.00
238.0660, 36992.00
239.2820, 36744.00
240.4980, 36400.00
241.7140, 36218.00
242.9300, 35841.00
244.1460, 35545.00
245.3610, 35409.00
246.5770, 35222.15
247.7920, 35216.00
249.0070, 35042.00
250.2220, 35051.00
251.4370, 34955.00
252.6510, 34630.00
253.8660, 34614.00
255.0800, 34967.00
256.2940, 34759.00
257.5080, 35306.00
258.7220, 35006.06
259.9360, 35633.00
261.1490, 34611.00
262.3630, 34520.00
263.5760, 34426.00
264.7890, 34484.00
266.0020, 34558.00
267.2150, 34573.00
268.4270, 34573.02
269.6400, 34419.00
270.8520, 34530.00
272.0640, 34552.00
273.2760, 34553.00
274.4880, 34730.00
275.7000, 34563.00
276.9120, 34692.00
278.1230, 34624.00
279.3340, 34558.00
280.5450, 34841.00
281.7560, 34792.00
282.9670, 34690.00
284.1780, 34972.00
285.3880, 34886.00
286.5980, 35120.00
287.8090, 34966.00
289.0190, 35123.00
290.2290, 35118.00
291.4380, 35151.00
292.6480, 35236.00
293.8570, 35316.00
295.0670, 35412.57
296.2760, 35458.00
297.4850, 35580.00
298.6930, 35557.25
299.9020, 35277.00
301.1110, 35485.00
302.3190, 35451.00
303.5270, 35345.00
304.7350, 35423.00
305.9430, 35608.00
307.1510, 35401.00
308.3580, 35557.00
309.5660, 35456.00
310.7730, 35822.00
311.9800, 35641.00
313.1870, 35605.00
314.3940, 35667.00
315.6010, 35613.00
316.8070, 35613.00
318.0130, 35670.00
319.2200, 35657.86
320.4260, 35687.00
321.6310, 35657.00
322.8370, 35779.00
324.0430, 35676.00
325.2480, 35574.00
326.4540, 35555.00
327.6590, 35287.00
328.8640, 35614.00
330.0680, 35400.00
331.2730, 35404.00
332.4780, 35579.00
333.6820, 35379.00
334.8860, 35364.00
336.0900, 35185.00
337.2940, 35253.52
338.4980, 35703.00
339.7010, 35483.00
340.9050, 35490.00
342.1080, 35747.00
343.3110, 35322.00
344.5140, 35887.00
345.7170, 35711.00
346.9200, 35403.00
348.1220, 35831.00
349.3240, 35671.00
350.5270, 35680.00
351.7290, 35830.00
352.9310, 35993.00
354.1320, 35865.00
355.3340, 36132.00
356.5350, 35837.00
357.7370, 36121.00
358.9380, 36237.00
360.1390, 35975.00
361.3400, 36237.00
362.5400, 36451.00
363.7410, 36493.00
364.9410, 36418.00
366.1410, 36270.00
367.3410, 36370.00
368.5410, 36899.00
369.7410, 36708.00
370.9400, 36853.00
372.1400, 36711.00
373.3390, 37006.00
374.5380, 36919.00
375.7370, 37104.00
376.9360, 37382.00
378.1350, 37257.00
379.3330, 37288.00
380.5310, 37324.00
381.7300, 37446.00
382.9280, 37568.20
384.1260, 37727.00
385.3230, 37942.00
386.5210, 38076.00
387.7180, 38347.00
388.9160, 38417.00
390.1130, 38580.00
391.3100, 38819.00
392.5060, 38823.00
393.7030, 39175.00
394.9000, 39267.00
396.0960, 39464.92
397.2920, 39521.14
398.4880, 39795.00
399.6840, 39745.00
400.8800, 39747.00
402.0750, 40320.00
403.2710, 40234.00
404.4660, 40450.00
405.6610, 40353.00
406.8560, 40423.00
408.0510, 40606.00
409.2450, 40382.00
410.4400, 40575.00
411.6340, 40621.00
412.8280, 40472.00
414.0220, 40456.00
415.2160, 40473.00
416.4100, 40336.00
417.6030, 40442.00
418.7970, 40116.00
419.9900, 40031.00
421.1830, 40121.00
422.3760, 40262.00
423.5690, 39933.00
424.7610, 39900.00
425.9540, 39686.00
427.1460, 39894.00
428.3380, 39693.00
429.5300, 39956.00
430.7220, 39693.00
431.9140, 39620.00
433.1050, 39513.00
434.2970, 39424.00
435.4880, 39275.00
436.6790, 39241.86
437.8700, 39496.00
439.0610, 39171.00
440.2510, 39285.00
441.4420, 39292.00
442.6320, 39177.00
443.8220, 38956.00
445.0120, 39473.00
446.2020, 39342.00
447.3910, 39410.00
448.5810, 39110.00
449.7700, 39274.00
450.9600, 39413.00
452.1490, 39461.00
453.3370, 39639.00
454.5260, 39345.00
455.7150, 39476.00
456.9030, 39474.52
458.0910, 39682.00
459.2800, 39691.00
460.4670, 39730.29
461.6550, 39867.00
462.8430, 39788.00
464.0300, 39749.00
465.2180, 39836.00
466.4050, 39553.00
467.5920, 39892.00
468.7790, 39893.00
469.9650, 40134.00
471.1520, 40094.00
472.3380, 40216.00
473.5250, 40235.00
474.7110, 40233.00
475.8970, 40358.00
477.0820, 40388.00
478.2680, 40499.00
479.4540, 40495.00
480.6390, 40762.00
481.8240, 40744.00
483.0090, 40525.00
484.1940, 40797.00
485.3780, 40626.00
486.5630, 40610.00
487.7470, 40554.00
488.9320, 40837.00
490.1160, 40626.00
491.3000, 40295.00
492.4830, 40776.00
493.6670, 40827.00
494.8500, 40640.00
496.0340, 40837.00
497.2170, 40896.00
498.4000, 40813.00
499.5820, 41036.00
500.7650, 40754.00
501.9480, 40850.00
503.1300, 40939.00
504.3120, 40755.00
505.4940, 40839.00
506.6760, 40760.00
507.8580, 40984.00
509.0390, 40755.00
510.2210, 41300.00
511.4020, 41220.00
512.5830, 41095.00
513.7640, 41088.00
514.9450, 40877.00
516.1250, 41016.00
517.3060, 40922.00
518.4860, 40986.00
519.6660, 41161.00
520.8460, 41186.00
522.0260, 41409.00
523.2060, 41305.00
524.3850, 41496.00
525.5650, 41426.00
526.7440, 41250.00
527.9230, 41468.00
529.1020, 41244.00
530.2810, 41362.00
531.4590, 41415.00
532.6380, 41318.00
533.8160, 41241.00
534.9940, 41359.00
536.1720, 41376.00
537.3500, 41747.00
538.5270, 41392.00
539.7050, 41270.00
540.8820, 41878.00
542.0590, 41939.00
543.2360, 41466.00
544.4130, 41683.00
545.5900, 41846.00
546.7660, 41777.00
547.9430, 41908.00
549.1190, 41793.00
550.2950, 41983.00
551.4710, 42294.00
552.6470, 41976.00
553.8220, 42119.00
554.9980, 42330.00
556.1730, 42135.21
557.3480, 42268.34
558.5230, 42186.00
559.6980, 42157.00
560.8730, 42545.00
562.0470, 42302.00
563.2220, 41994.00
564.3960, 42387.00
565.5700, 42543.00
566.7440, 42567.00
567.9170, 42463.00
569.0910, 42605.00
570.2640, 42658.00
571.4380, 42558.00
572.6110, 42433.00
573.7840, 42244.00
574.9570, 42456.00
576.1290, 42257.00
577.3020, 42026.00
578.4740, 42282.00
579.6460, 42077.00
580.8180, 41899.00
581.9900, 41682.00
583.1620, 41563.31
584.3330, 41635.00
585.5040, 41424.00
586.6760, 41469.00
587.8470, 41614.00
589.0180, 41642.00
590.1880, 41743.00
591.3590, 41766.00
592.5290, 41948.00
593.7000, 41810.00
594.8700, 41915.00
596.0400, 41750.00
597.2090, 41850.00
598.3790, 41936.73
599.5490, 42032.00
600.7180, 42205.00
601.8870, 42473.00
603.0560, 42651.00
604.2250, 42930.00
605.3940, 42907.00
606.5620, 43212.00
607.7300, 43283.00
608.8990, 43296.00
610.0670, 43692.00
611.2350, 43853.00
612.4020, 44281.00
613.5700, 44274.00
614.7370, 44548.00
615.9050, 44895.00
617.0720, 45122.00
618.2390, 45200.00
619.4060, 45695.00
620.5720, 45659.00
621.7390, 45710.00
622.9050, 45992.00
624.0710, 45899.00
625.2370, 45736.00
626.4030, 45701.00
627.5690, 45645.00
628.7340, 45721.00
629.9000, 45623.00
631.0650, 45655.00
632.2300, 45680.00
633.3950, 45427.00
634.5600, 45398.00
635.7240, 45364.00
636.8890, 45175.00
638.0530, 45336.00
639.2170, 45139.00
640.3810, 44745.00
641.5450, 44462.00
642.7080, 44798.00
643.8720, 44234.00
645.0350, 44609.00
646.1980, 44059.00
647.3610, 43924.00
648.5240, 44031.00
649.6870, 43375.00
650.8490, 43390.00
652.0120, 43445.00
653.1740, 43473.00
654.3360, 43184.00
655.4980, 43123.00
656.6600, 43048.76
657.8210, 43259.00
658.9830, 42837.00
660.1440, 42824.00
661.3050, 42562.00
662.4660, 42548.00
663.6270, 42270.00
664.7870, 42347.00
665.9480, 42320.00
667.1080, 42491.00
668.2680, 42125.00
669.4280, 42325.00
670.5880, 42086.00
671.7480, 42099.00
672.9070, 42134.00
674.0670, 42201.00
675.2260, 41991.00
676.3850, 42042.00
677.5440, 41890.00
678.7030, 41868.00
679.8610, 41861.35
681.0200, 41716.86
682.1780, 41822.00
683.3360, 41655.00
684.4940, 41571.00
685.6520, 41885.00
686.8090, 41682.00
687.9670, 41633.00
689.1240, 41468.00
690.2810, 41714.00
691.4380, 41704.00
692.5950, 41726.00
693.7520, 41738.00
694.9080, 41854.00
696.0650, 41791.71
697.2210, 41974.00
698.3770, 41662.00
699.5330, 41640.00
700.6880, 41455.00
701.8440, 41886.00
702.9990, 41585.00
704.1550, 41710.00
705.3100, 41455.00
706.4650, 41364.00
707.6190, 41546.00
708.7740, 41497.00
709.9290, 41525.00
711.0830, 41362.00
712.2370, 41341.00
713.3910, 41491.00
714.5450, 41398.00
715.6980, 41428.00
716.8520, 41486.00
718.0050, 41410.00
719.1580, 41567.00
720.3110, 41228.00
721.4640, 41519.00
722.6170, 41543.00
723.7700, 41605.00
724.9220, 41804.00
726.0740, 41422.00
727.2260, 41448.00
728.3780, 41454.00
729.5300, 41452.00
730.6810, 41383.00
731.8330, 41517.00
732.9840, 41283.00
734.1350, 41321.00
735.2860, 41355.00
736.4370, 41576.00
737.5880, 41477.00
738.7380, 41402.00
739.8880, 41535.00
741.0390, 41359.00
742.1890, 41319.00
743.3380, 41181.00
744.4880, 41183.00
745.6380, 41316.00
746.7870, 41132.00
747.9360, 41420.00
749.0850, 41443.00
750.2340, 41352.00
751.3830, 41377.00
752.5310, 41370.95
753.6800, 41398.00
754.8280, 41422.00
755.9760, 41361.62
757.1240, 41223.00
758.2720, 41237.00
759.4190, 41231.00
760.5670, 41170.00
761.7140, 41275.00
762.8610, 41349.00
764.0080, 41462.00
765.1550, 41546.00
766.3020, 41349.00
767.4480, 41388.00
768.5950, 41559.00
769.7410, 41402.00
770.8870, 41563.00
772.0330, 41881.00
773.1780, 41498.00
774.3240, 41755.00
775.4690, 41531.00
776.6140, 41778.00
777.7590, 41520.00
778.9040, 41306.00
780.0490, 41533.00
781.1940, 41575.00
782.3380, 41845.00
783.4820, 41545.00
784.6260, 41751.00
785.7700, 42028.00
786.9140, 42112.00
788.0580, 41774.00
789.2010, 41700.00
790.3450, 41898.00
791.4880, 41776.00
792.6310, 41725.00
793.7730, 41869.00
794.9160, 41583.00
796.0590, 41716.00
797.2010, 41609.00
798.3430, 41875.00
799.4850, 41596.00
800.6270, 41712.00
801.7690, 41888.00
802.9100, 41676.00
804.0520, 41562.00
805.1930, 41765.00
806.3340, 41783.00
807.4750, 41705.00
808.6160, 41781.00
809.7560, 41745.00
810.8970, 41485.00
812.0370, 41662.00
813.1770, 41569.00
814.3170, 41598.00
815.4570, 41648.00
816.5960, 41773.00
817.7360, 41725.00
818.8750, 41840.00
820.0140, 41727.00
821.1530, 41626.00
822.2920, 41706.00
823.4310, 41575.00
824.5690, 41724.00
825.7070, 41662.00
826.8460, 41681.00
827.9840, 41806.00
829.1220, 41706.00
830.2590, 41769.00
831.3970, 41741.00
832.5340, 41710.00
833.6710, 41685.00
834.8080, 41654.00
835.9450, 41650.00
837.0820, 41522.00
838.2190, 41561.00
839.3550, 41805.00
840.4910, 41574.00
841.6270, 41821.00
842.7630, 41532.00
843.8990, 41634.00
845.0350, 41696.00
846.1700, 41510.00
847.3060, 41329.00
848.4410, 41435.00
849.5760, 41765.00
850.7100, 41330.00
851.8450, 41744.00
852.9800, 41838.00
854.1140, 41684.00
855.2480, 41527.00
856.3820, 41858.00
857.5160, 41449.00
858.6500, 41605.00
859.7830, 41555.00
860.9170, 41811.00
862.0500, 41364.00
863.1830, 41668.00
864.3160, 41429.00
865.4480, 41758.00
866.5810, 41823.00
867.7130, 41592.00
868.8460, 41545.00
869.9780, 41679.00
871.1100, 41959.00
872.2410, 41752.00
873.3730, 41630.00
874.5050, 41516.00
875.6360, 41809.00
876.7670, 41935.00
877.8980, 41559.00
879.0290, 41784.00
880.1590, 41710.00
881.2900, 41898.00
882.4200, 42022.00
883.5500, 41861.00
884.6800, 41728.00
885.8100, 41764.00
886.9400, 41763.47
888.0690, 41755.65
889.1990, 41916.00
890.3280, 41880.00
891.4570, 41895.00
892.5860, 42096.00
893.7140, 42032.00
894.8430, 42015.00
895.9710, 41904.00
897.1000, 41928.97
898.2280, 41940.21
899.3560, 41990.00
900.4830, 42045.00
901.6110, 42162.00
902.7380, 42249.00
903.8660, 41890.00
904.9930, 42013.00
906.1200, 42023.00
907.2460, 42126.00
908.3730, 42291.00
909.5000, 42294.41
910.6260, 42464.00
911.7520, 42338.00
912.8780, 42342.00
914.0040, 42262.00
915.1290, 42023.00
916.2550, 42142.00
917.3800, 42078.00
918.5050, 42275.00
919.6300, 42346.00
920.7550, 42553.00
921.8800, 42317.00
923.0040, 42215.00
924.1290, 42555.00
925.2530, 42329.00
926.3770, 42319.00
927.5010, 42489.00
928.6250, 42540.00
929.7480, 42257.00
930.8720, 42711.00
931.9950, 42134.00
933.1180, 42337.00
934.2410, 42590.00
935.3640, 42499.00
936.4860, 42669.00
937.6090, 42514.00
938.7310, 42557.00
939.8530, 42568.00
940.9750, 42563.00
942.0970, 42559.00
943.2180, 42698.00
944.3400, 42465.00
945.4610, 42806.00
946.5820, 42641.00
947.7030, 42771.00
948.8240, 42810.00
949.9450, 42602.00
951.0650, 42790.00
952.1860, 42757.00
953.3060, 42715.00
954.4260, 42846.00
955.5460, 42794.00
956.6650, 42779.00
957.7850, 42936.00
958.9040, 43036.00
960.0230, 43023.85
961.1420, 43104.00
962.2610, 42974.00
963.3800, 42920.00
964.4990, 42772.00
965.6170, 43086.00
966.7350, 42939.00
967.8530, 43116.00
968.9710, 42990.00
970.0890, 43374.00
971.2070, 43201.00
972.3240, 42864.00
973.4410, 43193.00
974.5580, 43198.00
975.6750, 43361.00
976.7920, 43130.00
977.9090, 43151.00
979.0250, 43089.00
980.1410, 43143.00
981.2580, 43236.00
982.3740, 43747.00
983.4890, 43181.00
984.6050, 43210.00
985.7200, 43598.00
986.8360, 43333.00
987.9510, 43570.00
989.0660, 43381.00
990.1810, 43528.00
991.2950, 43491.00
992.4100, 43566.00
993.5240, 43655.00
994.6390, 43463.00
995.7530, 43561.00
996.8660, 43615.00
997.9800, 43653.00
999.0940, 43631.00
1000.207, 43827.00
1001.320, 43850.00
1002.433, 43701.00
1003.546, 43886.00
1004.659, 43540.00
1005.772, 43931.00
1006.884, 43927.00
1007.996, 43890.00
1009.108, 43778.00
1010.220, 43884.00
1011.332, 43961.00
1012.444, 43622.00
1013.555, 44130.00
1014.666, 44306.00
1015.777, 44130.00
1016.888, 44078.00
1017.999, 44235.00
1019.110, 44193.00
1020.220, 44256.00
1021.331, 44242.00
1022.441, 44020.00
1023.551, 44451.00
1024.661, 44704.00
1025.770, 44882.00
1026.880, 44546.00
1027.989, 44657.00
1029.098, 44757.00
1030.207, 44735.00
1031.316, 44773.00
1032.425, 44790.00
1033.533, 44809.34
1034.642, 44815.00
1035.750, 44849.00
1036.858, 44776.00
1037.966, 44747.00
1039.073, 44832.00
1040.181, 44749.00
1041.288, 44825.00
1042.396, 45029.00
1043.503, 44788.00
1044.610, 45100.00
1045.716, 45189.00
1046.823, 45098.00
1047.929, 44927.00
1049.036, 45270.00
1050.142, 45261.00
1051.248, 45253.00
1052.353, 45119.00
1053.459, 45069.00
1054.564, 45350.00
1055.670, 45294.00
1056.775, 45315.00
1057.880, 45131.00
1058.985, 45314.00
1060.089, 45127.00
1061.194, 44991.00
1062.298, 45337.00
1063.402, 45251.00
1064.506, 45025.00
1065.610, 45278.00
1066.713, 45322.00
1067.817, 45344.00
1068.920, 45307.00
1070.023, 45353.89
1071.126, 45322.00
1072.229, 45367.00
1073.332, 45351.00
1074.435, 45293.00
1075.537, 45299.15
1076.639, 45320.71
1077.741, 45222.00
1078.843, 45368.00
1079.945, 45294.00
1081.046, 45232.00
1082.148, 45289.00
1083.249, 45431.00
1084.350, 45504.00
1085.451, 45436.00
1086.551, 45160.00
1087.652, 45385.00
1088.752, 45387.00
1089.853, 45428.00
1090.953, 45643.00
1092.053, 45216.00
1093.152, 45335.00
1094.252, 45257.00
1095.351, 45434.00
1096.451, 45285.00
1097.550, 45384.00
1098.649, 45410.00
1099.748, 45188.00
1100.846, 45225.00
1101.945, 45428.00
1103.043, 45513.00
1104.141, 45571.00
1105.239, 45437.00
1106.337, 45638.00
1107.434, 45471.00
1108.532, 45156.00
1109.629, 45294.00
1110.726, 45443.00
1111.823, 45358.00
1112.920, 45461.06
1114.017, 45600.00
1115.113, 45509.00
1116.210, 45746.00
1117.306, 45830.00
1118.402, 45713.00
1119.498, 45662.00
1120.593, 45530.00
1121.689, 45563.00
1122.784, 45529.75
1123.879, 45600.00
1124.974, 45601.00
1126.069, 45672.00
1127.164, 45808.00
1128.259, 45685.00
1129.353, 45754.00
1130.447, 45314.00
1131.541, 45699.00
1132.635, 45602.00
1133.729, 45505.00
1134.822, 46173.00
1135.916, 45591.00
1137.009, 45492.00
1138.102, 45654.00
1139.195, 45532.00
1140.288, 45645.00
1141.380, 45453.00
1142.473, 45396.00
1143.565, 45632.00
1144.657, 45446.00
1145.749, 45495.00
1146.841, 45517.00
1147.932, 45622.00
1149.024, 45496.00
1150.115, 45697.00
1151.206, 45415.00
1152.297, 45365.00
1153.388, 45585.00
1154.479, 45653.00
1155.569, 45405.00
1156.659, 45554.00
1157.750, 45735.00
1158.839, 45780.00
1159.929, 45250.00
1161.019, 45334.00
1162.108, 45312.00
1163.198, 45727.00
1164.287, 45530.00
1165.376, 45573.00
1166.465, 45687.00
1167.553, 45762.00
1168.642, 45481.00
1169.730, 45864.00
1170.818, 45375.00
1171.906, 45740.00
1172.994, 45351.00
1174.082, 45678.00
1175.170, 45311.00
1176.257, 45356.00
1177.344, 45521.00
1178.431, 45799.00
1179.518, 45665.00
1180.605, 45691.00
1181.691, 45907.00
1182.778, 45698.00
1183.864, 45926.00
1184.950, 45826.00
1186.036, 45501.00
1187.122, 45575.00
1188.207, 45900.00
1189.292, 45687.00
1190.378, 46005.00
1191.463, 45680.00
1192.548, 45828.00
1193.632, 45613.00
1194.717, 46017.00
1195.801, 46008.00
1196.886, 45830.00
1197.970, 45666.00
1199.054, 46177.00
1200.137, 45681.00
1201.221, 45748.00
1202.305, 46697.00
1203.388, 46198.00
1204.471, 45807.00
1205.554, 46102.00
1206.637, 45949.00
1207.719, 46285.00
1208.802, 46078.00
1209.884, 45767.00
1210.966, 46254.00
1212.048, 46136.00
1213.130, 46196.00
1214.212, 46209.00
1215.293, 46096.00
1216.374, 46142.00
1217.456, 45793.00
1218.536, 46186.00
1219.617, 46134.00
1220.698, 46260.00
1221.778, 46595.00
1222.859, 46073.00
1223.939, 46511.00
1225.019, 46243.00
1226.099, 46323.00
1227.178, 46109.00
1228.258, 46283.00
1229.337, 46574.00
1230.417, 46277.00
1231.496, 46451.00
1232.574, 46510.00
1233.653, 46579.00
1234.732, 46694.00
1235.810, 46662.52
1236.888, 46722.80
1237.966, 46624.00
1239.044, 46739.00
1240.122, 46751.00
1241.199, 46731.54
1242.277, 46386.00
1243.354, 46551.00
1244.431, 46584.00
1245.508, 46389.00
1246.585, 46484.00
1247.661, 46370.00
1248.738, 46720.00
1249.814, 46595.00
1250.890, 46387.00
1251.966, 46627.00
1253.042, 46419.00
1254.117, 46636.00
1255.193, 46686.00
1256.268, 46623.00
1257.343, 46428.00
1258.418, 46743.00
1259.493, 46771.00
1260.567, 46605.00
1261.642, 46977.00
1262.716, 46717.00
1263.790, 46751.00
1264.864, 46685.00
1265.938, 46646.24
1267.011, 46682.69
1268.085, 46709.00
1269.158, 46747.00
1270.231, 46859.00
1271.304, 46924.00
1272.377, 46841.00
