##NAMES=Descloizite
##RRUFFID=R050037
##IDEAL CHEMISTRY=Pb^2+^Zn^2+^V^5+^O_4_(OH)
##LOCALITY=Berg Aukas mine, Namibia
##OWNER=RRUFF
##SOURCE=Eugene Schlepp
##DESCRIPTION=Group of brown thin tabular single crystals
##STATUS=The identification of this mineral has been confirmed by X-ray diffraction and chemical analysis
##URL=rruff.info/R050037
##MEASURED CHEMISTRY=Pb_1.00_(Zn_0.98_Cu_0.02_)_Σ=1_((V_0.98_As_0.02_)_Σ=1_O_4_)(OH) ; OH estimated by difference and stoichiometry
##PIN_ID=L00538
##ORIENTATION=Laser parallel to -b* (0 -1 0). Fiducial mark perpendicular to laser is parallel to c [0 0 1]
64.81000, 66.00000
66.04600, 142.0000
67.28200, 132.0000
68.51800, 148.0000
69.75400, 160.0000
70.98900, 168.0000
72.22500, 144.0000
73.46000, 178.0000
74.69500, 134.0000
75.93000, 136.0000
77.16500, 185.0000
78.40000, 245.0000
79.63400, 246.0000
80.86900, 257.0000
82.10300, 232.0000
83.33700, 219.0000
84.57100, 284.0000
85.80500, 301.0000
87.03800, 380.0000
88.27200, 449.0000
89.50500, 570.0000
90.73800, 721.0000
91.97100, 869.0000
93.20400, 1170.000
94.43700, 1535.000
95.67000, 2060.000
96.90200, 2762.000
98.13400, 3781.000
99.36600, 5072.000
100.5980, 6826.000
101.8300, 9027.000
103.0620, 11738.00
104.2930, 14887.00
105.5250, 18603.00
106.7560, 22955.00
107.9870, 27469.00
109.2180, 31693.00
110.4490, 34246.00
111.6790, 33801.00
112.9100, 30609.00
114.1400, 25589.00
115.3700, 19901.00
116.6000, 15299.00
117.8300, 11946.00
119.0600, 9757.000
120.2900, 8134.000
121.5190, 7057.000
122.7480, 6592.000
123.9770, 6083.000
125.2060, 6044.000
126.4350, 5947.000
127.6640, 6048.000
128.8920, 6429.000
130.1210, 6872.000
131.3490, 7525.000
132.5770, 8097.000
133.8050, 8710.000
135.0330, 9527.000
136.2600, 10305.00
137.4880, 11318.00
138.7150, 12203.00
139.9420, 12658.00
141.1690, 13150.00
142.3960, 13261.00
143.6230, 13491.00
144.8490, 13278.00
146.0760, 12820.00
147.3020, 12162.00
148.5280, 11531.00
149.7540, 10690.00
150.9800, 9834.000
152.2050, 9139.000
153.4310, 8419.508
154.6560, 7591.000
155.8810, 7120.000
157.1060, 6506.000
158.3310, 5850.000
159.5560, 5505.000
160.7800, 5100.088
162.0050, 4783.889
163.2290, 4564.000
164.4530, 4362.000
165.6770, 4117.000
166.9010, 3991.000
168.1250, 3888.000
169.3480, 3709.000
170.5720, 3681.000
171.7950, 3462.000
173.0180, 3567.000
174.2410, 3516.000
175.4640, 3525.000
176.6860, 3612.000
177.9090, 3552.000
179.1310, 3598.000
180.3530, 3593.000
181.5750, 3836.000
182.7970, 3990.000
184.0190, 4294.000
185.2400, 4501.700
186.4620, 4714.000
187.6830, 4990.000
188.9040, 5284.000
190.1250, 5549.000
191.3460, 5735.000
192.5660, 5701.000
193.7870, 5554.000
195.0070, 5210.000
196.2270, 5029.000
197.4470, 4801.000
198.6670, 4551.000
199.8870, 4303.000
201.1060, 4050.000
202.3260, 3695.000
203.5450, 3612.000
204.7640, 3385.000
205.9830, 3169.000
207.2020, 3085.000
208.4200, 2870.000
209.6390, 2707.000
210.8570, 2529.000
212.0750, 2502.000
213.2940, 2381.000
214.5110, 2376.000
215.7290, 2259.000
216.9470, 2278.000
218.1640, 2276.000
219.3810, 2169.000
220.5990, 2218.000
221.8150, 2141.000
223.0320, 2083.000
224.2490, 2102.000
225.4650, 2054.000
226.6820, 2031.000
227.8980, 1953.000
229.1140, 2014.000
230.3300, 1957.000
231.5460, 1882.000
232.7610, 1979.000
233.9770, 1970.000
235.1920, 2003.000
236.4070, 2042.000
237.6220, 1980.000
238.8370, 1962.000
240.0520, 2027.000
241.2660, 1954.000
242.4810, 1998.000
243.6950, 2082.000
244.9090, 1986.000
246.1230, 2002.000
247.3370, 1984.000
248.5500, 2011.000
249.7640, 2014.000
250.9770, 1986.000
252.1900, 2105.000
253.4030, 2093.000
254.6160, 2109.000
255.8290, 2120.000
257.0410, 2155.000
258.2530, 2260.000
259.4660, 2303.000
260.6780, 2271.000
261.8900, 2243.000
263.1010, 2301.000
264.3130, 2372.000
265.5250, 2442.000
266.7360, 2433.000
267.9470, 2556.000
269.1580, 2559.000
270.3690, 2738.000
271.5800, 2810.000
272.7900, 2889.000
274.0010, 2939.000
275.2110, 3100.000
276.4210, 3256.000
277.6310, 3329.000
278.8410, 3591.000
280.0500, 3731.000
281.2600, 4024.000
282.4690, 4147.000
283.6780, 4463.000
284.8870, 4884.000
286.0960, 5403.000
287.3050, 5811.000
288.5130, 6386.000
289.7220, 7173.000
290.9300, 7928.000
292.1380, 8835.000
293.3460, 9905.000
294.5540, 11124.00
295.7610, 12638.00
296.9690, 14002.00
298.1760, 15247.00
299.3830, 16721.00
300.5900, 17904.00
301.7970, 18740.00
303.0040, 18878.66
304.2100, 18719.00
305.4170, 18008.00
306.6230, 16760.00
307.8290, 15311.00
309.0350, 13879.00
310.2410, 12629.00
311.4460, 11538.00
312.6520, 10933.00
313.8570, 10428.00
315.0620, 9970.000
316.2670, 9927.000
317.4720, 9931.000
318.6770, 10184.00
319.8810, 10371.00
321.0860, 10392.00
322.2900, 10517.00
323.4940, 10672.00
324.6980, 10693.00
325.9020, 10493.00
327.1050, 10350.00
328.3090, 10290.00
329.5120, 10415.00
330.7150, 10723.47
331.9180, 11180.00
333.1210, 11811.00
334.3240, 12783.00
335.5260, 13767.00
336.7290, 15349.00
337.9310, 16732.00
339.1330, 18299.00
340.3350, 19753.00
341.5370, 21022.00
342.7380, 21681.00
343.9400, 21678.00
345.1410, 20947.00
346.3420, 19616.00
347.5430, 18004.00
348.7440, 15966.00
349.9450, 14263.00
351.1450, 12472.00
352.3460, 11116.00
353.5460, 9693.000
354.7460, 8694.000
355.9460, 7854.000
357.1460, 7260.000
358.3450, 6715.000
359.5450, 6305.000
360.7440, 5940.000
361.9430, 5607.000
363.1420, 5458.000
364.3410, 5226.000
365.5400, 5146.000
366.7380, 5048.000
367.9370, 4960.000
369.1350, 4997.000
370.3330, 5088.000
371.5310, 5083.000
372.7280, 5240.000
373.9260, 5394.000
375.1230, 5769.000
376.3210, 6135.826
377.5180, 6534.000
378.7150, 7198.000
379.9120, 7812.000
381.1080, 8597.000
382.3050, 9461.000
383.5010, 10376.00
384.6970, 11184.00
385.8930, 11709.00
387.0890, 12075.00
388.2850, 11773.00
389.4810, 11148.00
390.6760, 9946.000
391.8710, 8745.000
393.0660, 7363.000
394.2610, 6258.000
395.4560, 5411.000
396.6510, 4684.000
397.8450, 4007.000
399.0400, 3511.000
400.2340, 3344.000
401.4280, 2979.000
402.6220, 2820.000
403.8150, 2626.000
405.0090, 2568.000
406.2020, 2456.000
407.3960, 2255.000
408.5890, 2192.000
409.7820, 2056.000
410.9740, 1927.000
412.1670, 1871.000
413.3600, 1806.093
414.5520, 1762.000
415.7440, 1784.000
416.9360, 1778.000
418.1280, 1839.000
419.3200, 1886.221
420.5110, 1884.000
421.7020, 2040.000
422.8940, 2170.000
424.0850, 2284.000
425.2760, 2559.000
426.4660, 2785.000
427.6570, 3086.000
428.8470, 3373.000
430.0380, 3718.000
431.2280, 4040.000
432.4180, 4448.000
433.6080, 4793.000
434.7970, 5122.000
435.9870, 5184.000
437.1760, 5159.000
438.3650, 4830.000
439.5540, 4299.000
440.7430, 3887.000
441.9320, 3488.000
443.1210, 3055.000
444.3090, 2651.000
445.4970, 2342.000
446.6850, 2092.000
447.8730, 1947.000
449.0610, 1814.000
450.2490, 1640.000
451.4360, 1549.000
452.6240, 1460.549
453.8110, 1439.000
454.9980, 1342.000
456.1850, 1349.000
457.3710, 1301.000
458.5580, 1198.000
459.7440, 1229.000
460.9310, 1196.000
462.1170, 1191.000
463.3030, 1125.000
464.4880, 1067.000
465.6740, 1103.000
466.8590, 1116.000
468.0450, 1056.000
469.2300, 1002.000
470.4150, 1064.000
471.6000, 1091.000
472.7840, 1049.000
473.9690, 998.0000
475.1530, 1007.000
476.3370, 976.0000
477.5210, 940.0000
478.7050, 964.0000
479.8890, 972.0000
481.0730, 953.0000
482.2560, 868.0000
483.4390, 930.0000
484.6220, 896.0000
485.8050, 975.0000
486.9880, 944.0000
488.1710, 928.0000
489.3530, 876.0000
490.5360, 875.0000
491.7180, 862.0000
492.9000, 821.0000
494.0820, 902.0000
495.2630, 830.0000
496.4450, 863.0000
497.6260, 892.0000
498.8080, 882.0000
499.9890, 838.0000
501.1700, 834.0000
502.3500, 916.0000
503.5310, 839.0000
504.7110, 868.0000
505.8920, 886.0000
507.0720, 861.0000
508.2520, 847.0000
509.4320, 871.0000
510.6110, 817.0000
511.7910, 849.0000
512.9700, 863.0000
514.1490, 844.0000
515.3280, 833.0000
516.5070, 814.0000
517.6860, 816.1432
518.8650, 812.5830
520.0430, 811.0000
521.2210, 822.0000
522.3990, 794.0000
523.5770, 801.0000
524.7550, 881.0000
525.9330, 802.0000
527.1100, 777.0000
528.2870, 807.0000
529.4650, 879.0000
530.6420, 811.0000
531.8180, 777.0000
532.9950, 848.0000
534.1720, 822.0000
535.3480, 847.0000
536.5240, 845.0000
537.7000, 819.0000
538.8760, 821.0000
540.0520, 753.0000
541.2270, 811.0000
542.4030, 797.0000
543.5780, 790.0000
544.7530, 836.0000
545.9280, 753.0000
547.1030, 804.0000
548.2780, 842.0000
549.4520, 802.0000
550.6260, 804.0000
551.8010, 757.0000
552.9750, 833.0000
554.1480, 877.0000
555.3220, 818.0000
556.4960, 829.0000
557.6690, 830.0000
558.8420, 783.0000
560.0150, 802.0000
561.1880, 810.0000
562.3610, 788.0000
563.5340, 800.0000
564.7060, 820.0000
565.8780, 817.0000
567.0500, 829.0000
568.2220, 816.0000
569.3940, 812.0000
570.5660, 773.0000
571.7370, 764.0000
572.9090, 781.0000
574.0800, 810.0000
575.2510, 799.0000
576.4220, 827.0000
577.5920, 756.0000
578.7630, 846.0000
579.9330, 813.0000
581.1040, 777.0000
582.2740, 816.0000
583.4440, 749.0000
584.6130, 795.0000
585.7830, 774.0000
586.9520, 839.0000
588.1220, 795.0000
589.2910, 771.0000
590.4600, 743.0000
591.6290, 810.0000
592.7970, 737.0000
593.9660, 786.0000
595.1340, 809.0000
596.3020, 778.0000
597.4700, 792.0000
598.6380, 792.5863
599.8060, 719.0000
600.9730, 782.0000
602.1410, 795.0000
603.3080, 754.0000
604.4750, 713.0000
605.6420, 764.0000
606.8090, 745.0000
607.9750, 746.0000
609.1420, 723.0000
610.3080, 731.6041
611.4740, 807.0000
612.6400, 759.0000
613.8060, 756.0000
614.9720, 796.0000
616.1370, 740.0000
617.3020, 746.0000
618.4680, 812.0000
619.6330, 759.0000
620.7970, 709.0000
621.9620, 751.0000
623.1270, 759.0000
624.2910, 838.0000
625.4550, 783.0000
626.6190, 744.0000
627.7830, 828.0000
628.9470, 869.0000
630.1110, 755.0000
631.2740, 793.0000
632.4370, 774.0000
633.6000, 816.0000
634.7630, 848.0000
635.9260, 848.0000
637.0890, 870.0000
638.2510, 814.0000
639.4140, 801.0000
640.5760, 834.0000
641.7380, 841.0000
642.9000, 853.2158
644.0610, 873.0000
645.2230, 862.0000
646.3840, 881.0000
647.5460, 839.0000
648.7070, 830.0000
649.8670, 847.0000
651.0280, 840.0000
652.1890, 864.0000
653.3490, 901.0000
654.5090, 922.0000
655.6700, 931.1102
656.8300, 935.4135
657.9890, 938.0000
659.1490, 929.0000
660.3080, 929.0000
661.4680, 945.0000
662.6270, 898.0000
663.7860, 927.0000
664.9450, 927.0000
666.1030, 954.0000
667.2620, 930.0000
668.4200, 940.0000
669.5790, 997.0000
670.7370, 946.0000
671.8940, 1019.000
673.0520, 1024.000
674.2100, 1051.000
675.3670, 1021.000
676.5240, 1061.000
677.6810, 1047.000
678.8380, 1060.000
679.9950, 1154.000
681.1520, 1143.000
682.3080, 1134.000
683.4650, 1222.000
684.6210, 1262.000
685.7770, 1195.000
686.9320, 1271.000
688.0880, 1339.000
689.2440, 1324.000
690.3990, 1411.000
691.5540, 1446.000
692.7090, 1540.000
693.8640, 1585.000
695.0190, 1660.334
696.1730, 1714.000
697.3280, 1811.000
698.4820, 1887.000
699.6360, 1966.000
700.7900, 1994.000
701.9440, 2040.000
703.0970, 2165.000
704.2510, 2246.000
705.4040, 2218.000
706.5570, 2319.000
707.7100, 2240.000
708.8630, 2319.000
710.0150, 2233.000
711.1680, 2157.000
712.3200, 2086.000
713.4720, 2002.598
714.6240, 1929.121
715.7760, 1858.000
716.9280, 1790.000
718.0790, 1748.000
719.2310, 1712.000
720.3820, 1687.000
721.5330, 1604.000
722.6840, 1665.000
723.8350, 1623.000
724.9850, 1572.000
726.1360, 1588.000
727.2860, 1593.000
728.4360, 1617.000
729.5860, 1602.000
730.7360, 1631.000
731.8850, 1644.000
733.0350, 1636.000
734.1840, 1735.000
735.3330, 1743.366
736.4820, 1760.757
737.6310, 1817.000
738.7800, 1834.000
739.9280, 1842.000
741.0760, 1996.000
742.2250, 1999.000
743.3730, 2088.000
744.5200, 2172.000
745.6680, 2203.000
746.8160, 2311.000
747.9630, 2508.000
749.1100, 2621.000
750.2570, 2718.000
751.4040, 2814.000
752.5510, 3058.000
753.6980, 3310.000
754.8440, 3494.000
755.9900, 3716.000
757.1360, 4160.000
758.2820, 4515.000
759.4280, 4985.000
760.5740, 5454.000
761.7190, 6036.000
762.8640, 6894.000
764.0100, 7732.000
765.1550, 8904.000
766.2990, 10409.00
767.4440, 12139.00
768.5890, 14077.00
769.7330, 16750.00
770.8770, 19487.00
772.0210, 22922.00
773.1650, 26538.00
774.3090, 30407.00
775.4520, 34106.00
776.5960, 37368.00
777.7390, 39086.00
778.8820, 39408.00
780.0250, 38273.00
781.1670, 35539.00
782.3100, 31741.00
783.4520, 28104.00
784.5950, 24220.00
785.7370, 21086.00
786.8790, 18383.00
788.0210, 16347.00
789.1620, 14726.00
790.3040, 13461.00
791.4450, 12604.00
792.5860, 12214.00
793.7270, 11961.00
794.8680, 11828.00
796.0090, 11709.00
797.1490, 11846.00
798.2890, 11855.00
799.4300, 11675.00
800.5700, 11171.00
801.7090, 10692.00
802.8490, 9974.000
803.9890, 9500.000
805.1280, 8677.000
806.2670, 8261.000
807.4060, 7903.000
808.5450, 7687.000
809.6840, 7680.000
810.8230, 7607.000
811.9610, 7784.000
813.0990, 8062.000
814.2370, 8409.000
815.3750, 9035.000
816.5130, 9608.000
817.6510, 10252.00
818.7880, 10952.00
819.9250, 11422.00
821.0630, 11486.00
822.1990, 11485.00
823.3360, 11227.00
824.4730, 11218.00
825.6090, 11332.00
826.7460, 11668.00
827.8820, 11876.00
829.0180, 12348.00
830.1540, 13019.00
831.2890, 13943.00
832.4250, 15118.00
833.5600, 16777.00
834.6960, 18992.00
835.8310, 21943.00
836.9660, 26277.00
838.1000, 31799.00
839.2350, 39108.00
840.3690, 49112.00
841.5030, 61303.00
842.6380, 76833.00
843.7710, 95889.00
844.9050, 117129.0
846.0390, 139673.0
847.1720, 159150.0
848.3060, 170224.0
849.4390, 165634.0
850.5720, 147053.0
851.7040, 119330.0
852.8370, 90818.00
853.9700, 67880.00
855.1020, 50508.00
856.2340, 38684.00
857.3660, 29926.00
858.4980, 23957.00
859.6300, 19835.00
860.7610, 16472.00
861.8920, 14400.00
863.0240, 12746.00
864.1550, 11630.00
865.2850, 10563.00
866.4160, 9618.000
867.5470, 8774.381
868.6770, 8000.000
869.8070, 7367.000
870.9370, 6848.000
872.0670, 6379.000
873.1970, 5944.000
874.3270, 5702.000
875.4560, 5466.000
876.5850, 5341.000
877.7140, 5119.000
878.8430, 5054.000
879.9720, 4994.000
881.1010, 4867.000
882.2290, 4717.000
883.3570, 4606.000
884.4860, 4496.000
885.6140, 4364.000
886.7410, 4341.000
887.8690, 4307.000
888.9960, 4386.000
890.1240, 4470.000
891.2510, 4604.000
892.3780, 4737.000
893.5050, 4668.000
894.6320, 4601.000
895.7580, 4435.000
896.8840, 4248.000
898.0110, 4101.000
899.1370, 3899.000
900.2620, 3761.000
901.3880, 3544.000
902.5140, 3370.000
903.6390, 3209.000
904.7640, 3072.000
905.8890, 2974.000
907.0140, 2799.000
908.1390, 2684.000
909.2640, 2594.000
910.3880, 2429.000
911.5120, 2384.000
912.6360, 2248.000
913.7600, 2157.000
914.8840, 2008.000
916.0080, 2019.000
917.1310, 1942.000
918.2550, 1817.000
919.3780, 1742.000
920.5010, 1765.000
921.6230, 1659.000
922.7460, 1689.000
923.8690, 1626.000
924.9910, 1678.000
926.1130, 1620.000
927.2350, 1563.000
928.3570, 1566.000
929.4790, 1605.000
930.6000, 1474.000
931.7220, 1546.000
932.8430, 1483.000
933.9640, 1461.000
935.0850, 1435.000
936.2050, 1322.000
937.3260, 1374.000
938.4460, 1310.000
939.5660, 1360.000
940.6870, 1285.000
941.8060, 1372.000
942.9260, 1307.000
944.0460, 1236.000
945.1650, 1248.000
946.2840, 1238.000
947.4040, 1167.000
948.5220, 1112.000
949.6410, 1137.000
950.7600, 1134.000
951.8780, 1108.000
952.9970, 1091.000
954.1150, 1074.000
955.2330, 1045.000
956.3500, 1112.000
957.4680, 1024.000
958.5860, 1077.000
959.7030, 1085.000
960.8200, 1077.000
961.9370, 999.0000
963.0540, 1025.000
964.1710, 984.0000
965.2870, 994.0243
966.4030, 1005.000
967.5200, 1024.000
968.6360, 999.0000
969.7510, 998.0000
970.8670, 991.9634
971.9830, 986.1277
973.0980, 979.0000
974.2130, 992.0000
975.3280, 1000.000
976.4430, 1017.545
977.5580, 928.0000
978.6730, 1013.000
979.7870, 978.0000
980.9010, 908.0000
982.0150, 934.0000
983.1290, 968.0000
984.2430, 936.0000
985.3560, 996.0000
986.4700, 906.0000
987.5830, 1007.000
988.6960, 913.0000
989.8090, 978.0000
990.9220, 961.0000
992.0350, 962.0000
993.1470, 980.0000
994.2590, 965.0000
995.3720, 968.7570
996.4830, 937.0000
997.5950, 960.0000
998.7070, 945.0000
999.8180, 940.6493
1000.930, 928.0000
1002.041, 921.0000
1003.152, 901.0000
1004.263, 908.0000
1005.373, 939.0000
1006.484, 947.0000
1007.594, 890.0000
1008.704, 966.0000
1009.815, 927.0000
1010.924, 936.0000
1012.034, 955.0000
1013.144, 941.0000
1014.253, 938.0000
1015.362, 902.0000
1016.471, 961.0000
1017.580, 1002.000
1018.689, 902.0000
1019.797, 979.0000
1020.906, 1013.000
1022.014, 932.0000
1023.122, 948.0000
1024.230, 961.0000
1025.338, 910.0000
1026.445, 912.0000
1027.553, 925.7832
1028.660, 959.0000
1029.767, 969.0000
1030.874, 973.0000
1031.981, 999.0000
1033.088, 995.0000
1034.194, 970.0000
1035.300, 976.0000
1036.406, 952.0000
1037.512, 988.0000
1038.618, 979.0000
1039.724, 963.0000
1040.829, 980.0000
1041.935, 1064.000
1043.040, 922.0000
1044.145, 1023.000
1045.250, 971.0000
1046.354, 975.0000
1047.459, 918.0000
1048.563, 963.0000
1049.667, 991.0000
1050.771, 996.0000
1051.875, 995.0000
1052.979, 990.0000
1054.082, 1000.000
1055.186, 1036.000
1056.289, 1023.000
1057.392, 1023.000
1058.495, 1067.000
1059.598, 972.0000
1060.700, 957.0000
1061.803, 973.0000
1062.905, 936.0000
1064.007, 1018.000
1065.109, 980.0000
1066.210, 995.0000
1067.312, 952.0000
1068.413, 953.0000
1069.515, 912.0000
1070.616, 913.0000
1071.717, 930.6259
1072.817, 917.3732
1073.918, 986.0000
1075.019, 925.0000
1076.119, 950.0000
1077.219, 950.0000
1078.319, 1021.000
1079.419, 982.0000
1080.518, 955.0000
1081.618, 951.0000
1082.717, 906.0000
1083.816, 943.0000
1084.915, 962.0000
1086.014, 946.0000
1087.113, 974.0000
1088.211, 923.0000
1089.309, 877.0000
1090.408, 949.0000
1091.506, 1007.000
1092.603, 972.0000
1093.701, 907.0000
1094.799, 915.0000
1095.896, 913.0000
1096.993, 923.0000
1098.090, 968.0000
1099.187, 973.0000
1100.284, 963.0000
1101.380, 958.9490
1102.477, 913.0000
1103.573, 914.0000
1104.669, 897.0000
1105.765, 882.0000
1106.860, 977.0000
1107.956, 934.0000
1109.051, 936.0000
1110.147, 925.0000
1111.242, 898.0000
1112.336, 898.0000
1113.431, 904.0000
1114.526, 886.0000
1115.620, 847.0000
1116.714, 864.0000
1117.809, 790.0000
1118.902, 898.0000
1119.996, 927.0000
1121.090, 925.0000
1122.183, 902.0000
1123.277, 909.0000
1124.370, 888.0000
1125.463, 889.0000
1126.555, 920.0000
1127.648, 843.0000
1128.740, 883.0000
1129.833, 874.0000
1130.925, 907.0000
1132.017, 914.0000
1133.109, 961.0000
1134.200, 941.0000
1135.292, 898.0000
1136.383, 927.0000
1137.474, 869.0000
1138.565, 913.0000
1139.656, 910.0000
1140.747, 889.0000
1141.837, 906.0000
1142.927, 917.0000
1144.018, 966.0000
1145.108, 967.0000
1146.197, 945.0000
1147.287, 899.0000
1148.377, 897.0000
1149.466, 927.0000
1150.555, 941.0000
1151.644, 883.0000
1152.733, 889.0000
1153.822, 869.0000
1154.910, 983.0000
1155.999, 924.0000
1157.087, 920.0000
1158.175, 899.0000
1159.263, 877.0000
1160.350, 897.0000
1161.438, 867.0000
1162.525, 870.0000
1163.613, 875.0000
1164.700, 830.0000
1165.787, 893.0000
1166.873, 840.0000
1167.960, 833.0000
1169.046, 860.0000
1170.133, 874.0000
1171.219, 784.0000
1172.305, 846.0000
1173.390, 773.0000
1174.476, 853.0000
1175.561, 820.0000
1176.647, 839.0000
1177.732, 760.0000
1178.817, 857.0000
1179.901, 883.0000
1180.986, 846.0000
1182.070, 880.0000
1183.155, 869.0000
1184.239, 840.0000
1185.323, 892.0000
1186.407, 879.0000
1187.490, 863.0000
1188.574, 867.0000
1189.657, 867.0000
1190.740, 837.0000
1191.823, 888.0000
1192.906, 794.0000
1193.988, 903.0000
1195.071, 847.0000
1196.153, 873.0000
1197.235, 774.0000
1198.317, 835.0000
1199.399, 806.0000
1200.481, 843.0000
1201.562, 794.0000
1202.644, 839.0000
1203.725, 789.0000
1204.806, 808.0000
1205.887, 875.0000
1206.967, 766.0000
1208.048, 848.0000
1209.128, 798.0000
1210.208, 804.0000
1211.289, 853.0000
1212.368, 807.0000
1213.448, 835.0000
1214.528, 813.0000
1215.607, 733.0000
1216.686, 753.0000
1217.765, 777.0000
1218.844, 818.0000
1219.923, 792.0000
1221.001, 804.0000
1222.080, 792.0000
1223.158, 786.0000
1224.236, 782.2197
1225.314, 765.0752
1226.392, 770.0000
1227.469, 759.0000
1228.547, 763.0000
1229.624, 761.5295
1230.701, 797.0000
1231.778, 760.0000
1232.855, 731.0000
1233.931, 724.6069
1235.008, 758.0000
1236.084, 720.0000
1237.160, 778.0000
1238.236, 795.0000
1239.312, 741.0000
1240.387, 745.0000
1241.463, 783.0000
1242.538, 767.0000
1243.613, 730.0000
1244.688, 756.0000
