##NAMES=Descloizite
##RRUFFID=R050037
##IDEAL CHEMISTRY=Pb^2+^Zn^2+^V^5+^O_4_(OH)
##LOCALITY=Berg Aukas mine, Namibia
##OWNER=RRUFF
##SOURCE=Eugene Schlepp
##DESCRIPTION=Group of brown thin tabular single crystals
##STATUS=The identification of this mineral has been confirmed by X-ray diffraction and chemical analysis
##URL=rruff.info/R050037
##MEASURED CHEMISTRY=Pb_1.00_(Zn_0.98_Cu_0.02_)_Σ=1_((V_0.98_As_0.02_)_Σ=1_O_4_)(OH) ; OH estimated by difference and stoichiometry
##PIN_ID=m00433
##ORIENTATION=Laser parallel to -a* (-1 0 0). Fiducial mark perpendicular to laser is parallel to b [0 1 0]
64.81000, 436.0000
66.04600, 483.0000
67.28200, 472.0000
68.51800, 545.0000
69.75400, 475.0000
70.98900, 460.0000
72.22500, 435.0000
73.46000, 425.8855
74.69500, 457.0000
75.93000, 461.0000
77.16500, 480.0000
78.40000, 497.2607
79.63400, 515.1439
80.86900, 544.0000
82.10300, 568.0000
83.33700, 601.0160
84.57100, 674.0000
85.80500, 679.0000
87.03800, 722.0000
88.27200, 777.0000
89.50500, 880.0000
90.73800, 983.0000
91.97100, 1076.000
93.20400, 1220.000
94.43700, 1333.000
95.67000, 1502.395
96.90200, 1690.000
98.13400, 1883.000
99.36600, 2092.000
100.5980, 2337.000
101.8300, 2482.000
103.0620, 2776.000
104.2930, 3112.000
105.5250, 3492.000
106.7560, 3744.000
107.9870, 3924.000
109.2180, 4129.000
110.4490, 4361.000
111.6790, 4451.000
112.9100, 4574.000
114.1400, 4620.000
115.3700, 4882.000
116.6000, 5154.000
117.8300, 5283.000
119.0600, 5341.000
120.2900, 5481.000
121.5190, 5563.429
122.7480, 5577.187
123.9770, 5648.000
125.2060, 5663.000
126.4350, 5485.000
127.6640, 5680.000
128.8920, 5727.000
130.1210, 5795.000
131.3490, 5984.000
132.5770, 6146.000
133.8050, 6247.000
135.0330, 6447.000
136.2600, 6332.000
137.4880, 6265.000
138.7150, 6521.000
139.9420, 6351.000
141.1690, 6239.000
142.3960, 6177.000
143.6230, 5976.000
144.8490, 5804.000
146.0760, 5509.000
147.3020, 5450.000
148.5280, 5156.000
149.7540, 4845.000
150.9800, 4727.000
152.2050, 4585.000
153.4310, 4402.000
154.6560, 4296.000
155.8810, 4287.000
157.1060, 4160.000
158.3310, 4126.000
159.5560, 4172.000
160.7800, 4139.000
162.0050, 4082.809
163.2290, 3965.000
164.4530, 3919.000
165.6770, 3772.000
166.9010, 3640.000
168.1250, 3583.000
169.3480, 3482.000
170.5720, 3575.000
171.7950, 3523.000
173.0180, 3426.000
174.2410, 3419.000
175.4640, 3240.000
176.6860, 3308.000
177.9090, 3192.000
179.1310, 3203.000
180.3530, 3068.000
181.5750, 3102.000
182.7970, 2972.000
184.0190, 3085.000
185.2400, 2875.000
186.4620, 2904.000
187.6830, 2889.000
188.9040, 2886.000
190.1250, 2813.000
191.3460, 2860.000
192.5660, 2806.000
193.7870, 2741.000
195.0070, 2738.000
196.2270, 2781.000
197.4470, 2700.000
198.6670, 2751.000
199.8870, 2729.000
201.1060, 2760.000
202.3260, 2741.000
203.5450, 2783.000
204.7640, 2700.000
205.9830, 2741.000
207.2020, 2740.000
208.4200, 2759.000
209.6390, 2757.000
210.8570, 2737.000
212.0750, 2744.000
213.2940, 2807.000
214.5110, 2795.000
215.7290, 2819.000
216.9470, 2783.379
218.1640, 2732.000
219.3810, 2667.000
220.5990, 2783.000
221.8150, 2705.000
223.0320, 2690.000
224.2490, 2730.000
225.4650, 2608.000
226.6820, 2712.000
227.8980, 2588.000
229.1140, 2687.000
230.3300, 2682.000
231.5460, 2521.000
232.7610, 2667.000
233.9770, 2633.000
235.1920, 2703.000
236.4070, 2701.000
237.6220, 2705.000
238.8370, 2680.000
240.0520, 2668.000
241.2660, 2683.000
242.4810, 2721.000
243.6950, 2767.000
244.9090, 2734.000
246.1230, 2791.000
247.3370, 2774.000
248.5500, 2829.000
249.7640, 2845.000
250.9770, 2826.000
252.1900, 2870.000
253.4030, 2876.978
254.6160, 2880.000
255.8290, 2928.000
257.0410, 3022.000
258.2530, 3069.000
259.4660, 3138.000
260.6780, 3259.000
261.8900, 3176.000
263.1010, 3306.000
264.3130, 3365.000
265.5250, 3463.000
266.7360, 3504.000
267.9470, 3624.000
269.1580, 3703.569
270.3690, 3803.000
271.5800, 3901.000
272.7900, 3996.000
274.0010, 4112.000
275.2110, 4301.000
276.4210, 4610.000
277.6310, 4706.000
278.8410, 4998.000
280.0500, 5187.000
281.2600, 5630.000
282.4690, 5999.000
283.6780, 6497.000
284.8870, 6878.000
286.0960, 7548.000
287.3050, 8388.000
288.5130, 9218.000
289.7220, 10416.00
290.9300, 11496.00
292.1380, 12906.00
293.3460, 14671.00
294.5540, 16482.00
295.7610, 18514.00
296.9690, 20464.00
298.1760, 22623.00
299.3830, 24426.00
300.5900, 25431.00
301.7970, 25983.00
303.0040, 25208.00
304.2100, 24221.00
305.4170, 22394.00
306.6230, 20451.00
307.8290, 18387.00
309.0350, 16455.00
310.2410, 14785.00
311.4460, 13363.00
312.6520, 12184.00
313.8570, 11112.00
315.0620, 10296.00
316.2670, 9641.000
317.4720, 9253.000
318.6770, 8976.000
319.8810, 8828.000
321.0860, 8697.000
322.2900, 8717.000
323.4940, 8597.000
324.6980, 8447.000
325.9020, 8665.000
327.1050, 8615.000
328.3090, 8745.000
329.5120, 9158.000
330.7150, 9324.000
331.9180, 9686.000
333.1210, 10077.00
334.3240, 10535.00
335.5260, 10969.00
336.7290, 11632.00
337.9310, 12174.00
339.1330, 12460.00
340.3350, 12629.00
341.5370, 12613.00
342.7380, 12282.00
343.9400, 11801.00
345.1410, 11238.00
346.3420, 10459.00
347.5430, 9581.000
348.7440, 8797.000
349.9450, 8442.000
351.1450, 7698.000
352.3460, 7301.000
353.5460, 6795.000
354.7460, 6487.000
355.9460, 6228.000
357.1460, 6161.000
358.3450, 5961.000
359.5450, 5794.000
360.7440, 5567.000
361.9430, 5254.000
363.1420, 4954.000
364.3410, 4757.000
365.5400, 4545.000
366.7380, 4407.000
367.9370, 4197.000
369.1350, 3975.000
370.3330, 4020.000
371.5310, 3966.000
372.7280, 3858.000
373.9260, 3992.000
375.1230, 3894.000
376.3210, 3883.000
377.5180, 4049.000
378.7150, 4194.000
379.9120, 4408.000
381.1080, 4621.000
382.3050, 4794.000
383.5010, 4926.000
384.6970, 5096.000
385.8930, 5247.000
387.0890, 5151.000
388.2850, 4933.000
389.4810, 4669.000
390.6760, 4427.000
391.8710, 4120.000
393.0660, 3905.000
394.2610, 3587.000
395.4560, 3460.000
396.6510, 3172.000
397.8450, 3111.000
399.0400, 3047.000
400.2340, 2999.000
401.4280, 2799.000
402.6220, 2799.000
403.8150, 2771.000
405.0090, 2702.000
406.2020, 2750.000
407.3960, 2629.000
408.5890, 2692.000
409.7820, 2667.000
410.9740, 2728.000
412.1670, 2711.000
413.3600, 2672.000
414.5520, 2805.000
415.7440, 2953.000
416.9360, 2950.000
418.1280, 3026.000
419.3200, 3277.000
420.5110, 3307.000
421.7020, 3533.000
422.8940, 3705.000
424.0850, 3946.000
425.2760, 4317.000
426.4660, 4574.000
427.6570, 5031.000
428.8470, 5510.000
430.0380, 6228.000
431.2280, 6836.000
432.4180, 7330.000
433.6080, 7810.000
434.7970, 7923.000
435.9870, 7898.000
437.1760, 7602.000
438.3650, 7045.000
439.5540, 6585.000
440.7430, 5866.000
441.9320, 5541.000
443.1210, 5070.000
444.3090, 4606.000
445.4970, 4298.000
446.6850, 4100.000
447.8730, 3869.000
449.0610, 3646.000
450.2490, 3469.000
451.4360, 3379.000
452.6240, 3213.000
453.8110, 3167.000
454.9980, 3085.000
456.1850, 3015.223
457.3710, 3041.000
458.5580, 2927.000
459.7440, 2935.000
460.9310, 2904.000
462.1170, 2889.000
463.3030, 2902.000
464.4880, 2841.000
465.6740, 2858.000
466.8590, 2767.000
468.0450, 2739.000
469.2300, 2677.000
470.4150, 2667.000
471.6000, 2622.000
472.7840, 2601.000
473.9690, 2546.000
475.1530, 2464.000
476.3370, 2487.000
477.5210, 2509.000
478.7050, 2421.000
479.8890, 2391.000
481.0730, 2361.000
482.2560, 2357.000
483.4390, 2289.000
484.6220, 2301.000
485.8050, 2256.497
486.9880, 2230.000
488.1710, 2184.000
489.3530, 2187.000
490.5360, 2141.000
491.7180, 2201.000
492.9000, 2111.000
494.0820, 2159.000
495.2630, 2055.000
496.4450, 2139.000
497.6260, 2166.000
498.8080, 2164.000
499.9890, 2143.000
501.1700, 2101.000
502.3500, 2060.000
503.5310, 2079.000
504.7110, 2086.000
505.8920, 2154.000
507.0720, 2081.000
508.2520, 2025.000
509.4320, 2064.000
510.6110, 2004.000
511.7910, 2094.000
512.9700, 2058.000
514.1490, 2015.000
515.3280, 2062.000
516.5070, 2095.000
517.6860, 2149.000
518.8650, 2059.000
520.0430, 2032.000
521.2210, 2057.000
522.3990, 1993.000
523.5770, 1970.000
524.7550, 2009.000
525.9330, 1966.000
527.1100, 2063.000
528.2870, 2036.000
529.4650, 2072.000
530.6420, 1984.000
531.8180, 1999.000
532.9950, 2050.000
534.1720, 2036.000
535.3480, 2062.000
536.5240, 2016.000
537.7000, 2014.000
538.8760, 2083.000
540.0520, 2004.000
541.2270, 1991.000
542.4030, 2038.000
543.5780, 2011.000
544.7530, 2067.000
545.9280, 2035.000
547.1030, 1973.000
548.2780, 2028.000
549.4520, 2014.000
550.6260, 2055.000
551.8010, 2076.000
552.9750, 2050.000
554.1480, 2172.000
555.3220, 2131.000
556.4960, 2084.000
557.6690, 2043.000
558.8420, 2106.000
560.0150, 2125.000
561.1880, 2097.000
562.3610, 2117.000
563.5340, 2071.000
564.7060, 2112.000
565.8780, 2127.000
567.0500, 2106.000
568.2220, 2159.000
569.3940, 2107.000
570.5660, 2101.000
571.7370, 2117.000
572.9090, 2072.000
574.0800, 2076.000
575.2510, 2088.000
576.4220, 2077.000
577.5920, 2079.150
578.7630, 2065.281
579.9330, 2084.000
581.1040, 2032.000
582.2740, 2062.000
583.4440, 2051.000
584.6130, 2071.000
585.7830, 2080.625
586.9520, 2050.000
588.1220, 2089.000
589.2910, 2074.000
590.4600, 2051.000
591.6290, 2120.000
592.7970, 2055.000
593.9660, 2007.000
595.1340, 2134.000
596.3020, 2100.000
597.4700, 2056.000
598.6380, 2053.000
599.8060, 2060.000
600.9730, 2091.000
602.1410, 2063.000
603.3080, 2092.000
604.4750, 2070.000
605.6420, 2071.616
606.8090, 2069.000
607.9750, 2071.000
609.1420, 2096.000
610.3080, 2104.000
611.4740, 2076.000
612.6400, 2114.000
613.8060, 2088.000
614.9720, 2052.000
616.1370, 2071.000
617.3020, 2053.000
618.4680, 2051.873
619.6330, 2074.000
620.7970, 2060.000
621.9620, 2069.000
623.1270, 2087.000
624.2910, 2099.000
625.4550, 2104.000
626.6190, 2018.000
627.7830, 2114.000
628.9470, 2181.000
630.1110, 2068.000
631.2740, 2125.000
632.4370, 2142.000
633.6000, 2002.000
634.7630, 2137.000
635.9260, 2192.000
637.0890, 2198.000
638.2510, 2143.000
639.4140, 2133.000
640.5760, 2184.000
641.7380, 2124.000
642.9000, 2216.000
644.0610, 2222.000
645.2230, 2237.000
646.3840, 2220.000
647.5460, 2165.000
648.7070, 2128.000
649.8670, 2211.000
651.0280, 2174.000
652.1890, 2200.000
653.3490, 2270.000
654.5090, 2276.000
655.6700, 2272.000
656.8300, 2351.000
657.9890, 2323.000
659.1490, 2327.000
660.3080, 2366.000
661.4680, 2478.000
662.6270, 2377.000
663.7860, 2367.000
664.9450, 2510.000
666.1030, 2531.000
667.2620, 2466.000
668.4200, 2512.000
669.5790, 2638.000
670.7370, 2576.000
671.8940, 2767.000
673.0520, 2780.000
674.2100, 2782.000
675.3670, 2934.000
676.5240, 3001.000
677.6810, 3071.000
678.8380, 3169.000
679.9950, 3319.000
681.1520, 3424.000
682.3080, 3492.000
683.4650, 3681.000
684.6210, 3782.000
685.7770, 3991.000
686.9320, 4194.000
688.0880, 4408.000
689.2440, 4638.000
690.3990, 5077.000
691.5540, 5362.000
692.7090, 5777.000
693.8640, 6099.000
695.0190, 6501.000
696.1730, 6999.000
697.3280, 7643.000
698.4820, 8198.000
699.6360, 8801.000
700.7900, 9476.000
701.9440, 10053.00
703.0970, 10640.00
704.2510, 11090.00
705.4040, 11697.00
706.5570, 11874.00
707.7100, 12044.00
708.8630, 12238.00
710.0150, 12126.00
711.1680, 11750.00
712.3200, 11367.00
713.4720, 10961.00
714.6240, 10500.80
715.7760, 9959.000
716.9280, 9529.000
718.0790, 9045.000
719.2310, 8537.000
720.3820, 8156.000
721.5330, 7730.000
722.6840, 7507.000
723.8350, 7078.000
724.9850, 6815.000
726.1360, 6600.000
727.2860, 6542.000
728.4360, 6276.000
729.5860, 6235.000
730.7360, 6026.000
731.8850, 6023.000
733.0350, 6029.000
734.1840, 5969.000
735.3330, 5989.585
736.4820, 5905.000
737.6310, 5983.000
738.7800, 6040.000
739.9280, 6023.000
741.0760, 6297.000
742.2250, 6422.000
743.3730, 6542.000
744.5200, 6765.000
745.6680, 6987.517
746.8160, 7238.140
747.9630, 7579.000
749.1100, 7855.000
750.2570, 8253.000
751.4040, 8657.000
752.5510, 9155.000
753.6980, 9777.000
754.8440, 10484.51
755.9900, 11178.00
757.1360, 12202.00
758.2820, 13308.00
759.4280, 14395.00
760.5740, 15842.00
761.7190, 17857.00
762.8640, 20047.00
764.0100, 22758.00
765.1550, 26004.00
766.2990, 30069.00
767.4440, 34876.00
768.5890, 40490.00
769.7330, 47568.00
770.8770, 55704.00
772.0210, 64735.00
773.1650, 74280.00
774.3090, 84682.00
775.4520, 93138.00
776.5960, 99633.00
777.7390, 102141.0
778.8820, 100937.0
780.0250, 95400.00
781.1670, 87576.00
782.3100, 78238.00
783.4520, 68810.00
784.5950, 60395.00
785.7370, 52606.00
786.8790, 46023.00
788.0210, 40594.00
789.1620, 36633.00
790.3040, 32683.00
791.4450, 29589.00
792.5860, 27152.00
793.7270, 25093.00
794.8680, 23530.00
796.0090, 22312.00
797.1490, 21045.00
798.2890, 20226.00
799.4300, 19259.00
800.5700, 18599.00
801.7090, 18087.00
802.8490, 17766.00
803.9890, 17474.00
805.1280, 17670.00
806.2670, 17836.00
807.4060, 18300.00
808.5450, 19306.00
809.6840, 20188.00
810.8230, 22104.61
811.9610, 24392.00
813.0990, 27219.00
814.2370, 30882.00
815.3750, 35238.00
816.5130, 39828.00
817.6510, 43995.00
818.7880, 46338.00
819.9250, 45569.00
821.0630, 42182.00
822.1990, 37584.00
823.3360, 33300.00
824.4730, 29446.00
825.6090, 27128.00
826.7460, 25798.00
827.8820, 25046.00
829.0180, 24950.00
830.1540, 25559.00
831.2890, 26479.00
832.4250, 28322.00
833.5600, 30716.00
834.6960, 33538.00
835.8310, 37510.00
836.9660, 43025.00
838.1000, 49116.00
839.2350, 57789.00
840.3690, 68610.00
841.5030, 81998.00
842.6380, 98855.00
843.7710, 116169.0
844.9050, 132720.0
846.0390, 142791.0
847.1720, 142990.0
848.3060, 131580.0
849.4390, 112416.0
850.5720, 91226.00
851.7040, 71369.00
852.8370, 56305.00
853.9700, 44696.00
855.1020, 36193.00
856.2340, 29686.00
857.3660, 25412.00
858.4980, 21756.00
859.6300, 19333.00
860.7610, 17202.00
861.8920, 15497.00
863.0240, 14189.00
864.1550, 13187.00
865.2850, 12160.00
866.4160, 11243.00
867.5470, 10657.00
868.6770, 9940.000
869.8070, 9396.000
870.9370, 9077.000
872.0670, 8611.000
873.1970, 8223.000
874.3270, 7937.000
875.4560, 7643.000
876.5850, 7470.000
877.7140, 7242.000
878.8430, 7217.000
879.9720, 7201.000
881.1010, 6947.000
882.2290, 6952.000
883.3570, 6879.000
884.4860, 6835.000
885.6140, 6789.000
886.7410, 6724.000
887.8690, 6682.000
888.9960, 6664.000
890.1240, 6822.000
891.2510, 6898.000
892.3780, 6945.000
893.5050, 7044.000
894.6320, 7029.000
895.7580, 6969.610
896.8840, 6875.000
898.0110, 6719.000
899.1370, 6583.000
900.2620, 6365.000
901.3880, 5941.000
902.5140, 5666.000
903.6390, 5500.000
904.7640, 5180.000
905.8890, 5038.000
907.0140, 4892.000
908.1390, 4767.000
909.2640, 4615.000
910.3880, 4478.000
911.5120, 4489.000
912.6360, 4335.000
913.7600, 4380.000
914.8840, 4420.000
916.0080, 4214.000
917.1310, 4249.000
918.2550, 4329.000
919.3780, 4124.000
920.5010, 4109.000
921.6230, 4085.000
922.7460, 4132.000
923.8690, 4042.000
924.9910, 4028.000
926.1130, 3964.000
927.2350, 3835.000
928.3570, 3852.000
929.4790, 3881.000
930.6000, 3711.000
931.7220, 3753.000
932.8430, 3636.000
933.9640, 3597.000
935.0850, 3530.000
936.2050, 3450.000
937.3260, 3452.671
938.4460, 3480.000
939.5660, 3458.000
940.6870, 3462.000
941.8060, 3488.000
942.9260, 3383.000
944.0460, 3350.000
945.1650, 3341.000
946.2840, 3270.000
947.4040, 3259.000
948.5220, 3124.000
949.6410, 3251.000
950.7600, 3239.807
951.8780, 3061.000
952.9970, 3324.000
954.1150, 3202.337
955.2330, 3152.000
956.3500, 3073.000
957.4680, 2968.000
958.5860, 2989.000
959.7030, 2955.000
960.8200, 2953.000
961.9370, 2903.000
963.0540, 2909.000
964.1710, 2878.000
965.2870, 2857.806
966.4030, 2783.000
967.5200, 2809.000
968.6360, 2785.000
969.7510, 2735.000
970.8670, 2825.000
971.9830, 2651.000
973.0980, 2737.000
974.2130, 2820.000
975.3280, 2663.000
976.4430, 2686.000
977.5580, 2663.000
978.6730, 2657.000
979.7870, 2706.000
980.9010, 2590.000
982.0150, 2567.000
983.1290, 2605.000
984.2430, 2576.000
985.3560, 2576.000
986.4700, 2624.000
987.5830, 2634.000
988.6960, 2564.000
989.8090, 2570.000
990.9220, 2577.000
992.0350, 2553.000
993.1470, 2582.000
994.2590, 2573.000
995.3720, 2564.000
996.4830, 2632.000
997.5950, 2639.000
998.7070, 2571.000
999.8180, 2564.000
1000.930, 2488.000
1002.041, 2543.000
1003.152, 2575.000
1004.263, 2655.000
1005.373, 2535.000
1006.484, 2597.000
1007.594, 2568.000
1008.704, 2616.000
1009.815, 2541.000
1010.924, 2583.000
1012.034, 2606.000
1013.144, 2581.000
1014.253, 2594.000
1015.362, 2601.000
1016.471, 2631.000
1017.580, 2632.000
1018.689, 2648.594
1019.797, 2653.956
1020.906, 2664.000
1022.014, 2652.000
1023.122, 2640.000
1024.230, 2625.000
1025.338, 2660.000
1026.445, 2632.000
1027.553, 2791.000
1028.660, 2698.000
1029.767, 2621.000
1030.874, 2741.000
1031.981, 2701.000
1033.088, 2701.000
1034.194, 2656.000
1035.300, 2727.000
1036.406, 2799.000
1037.512, 2697.000
1038.618, 2736.000
1039.724, 2676.000
1040.829, 2704.000
1041.935, 2823.000
1043.040, 2710.000
1044.145, 2784.000
1045.250, 2731.000
1046.354, 2763.000
1047.459, 2775.000
1048.563, 2740.000
1049.667, 2763.000
1050.771, 2792.000
1051.875, 2834.000
1052.979, 2744.000
1054.082, 2730.000
1055.186, 2758.000
1056.289, 2809.000
1057.392, 2766.000
1058.495, 2770.000
1059.598, 2758.000
1060.700, 2746.000
1061.803, 2655.000
1062.905, 2702.000
1064.007, 2723.000
1065.109, 2627.000
1066.210, 2651.000
1067.312, 2714.000
1068.413, 2646.000
1069.515, 2620.000
1070.616, 2710.000
1071.717, 2718.000
1072.817, 2620.000
1073.918, 2595.000
1075.019, 2535.000
1076.119, 2607.000
1077.219, 2480.000
1078.319, 2641.000
1079.419, 2590.000
1080.518, 2545.000
1081.618, 2562.000
1082.717, 2567.000
1083.816, 2546.918
1084.915, 2504.000
1086.014, 2533.000
1087.113, 2550.000
1088.211, 2552.000
1089.309, 2475.000
1090.408, 2531.000
1091.506, 2582.000
1092.603, 2485.000
1093.701, 2458.000
1094.799, 2493.000
1095.896, 2487.000
1096.993, 2442.000
1098.090, 2541.000
1099.187, 2525.000
1100.284, 2579.000
1101.380, 2397.000
1102.477, 2459.000
1103.573, 2383.000
1104.669, 2475.000
1105.765, 2445.000
1106.860, 2528.000
1107.956, 2366.000
1109.051, 2449.000
1110.147, 2404.000
1111.242, 2443.000
1112.336, 2383.000
1113.431, 2451.000
1114.526, 2370.000
1115.620, 2354.000
1116.714, 2341.000
1117.809, 2301.000
1118.902, 2389.000
1119.996, 2384.000
1121.090, 2397.000
1122.183, 2402.000
1123.277, 2326.000
1124.370, 2334.000
1125.463, 2309.913
1126.555, 2362.000
1127.648, 2300.000
1128.740, 2330.000
1129.833, 2365.000
1130.925, 2438.000
1132.017, 2320.000
1133.109, 2337.000
1134.200, 2457.000
1135.292, 2296.000
1136.383, 2362.000
1137.474, 2357.000
1138.565, 2400.000
1139.656, 2380.000
1140.747, 2310.000
1141.837, 2361.000
1142.927, 2339.000
1144.018, 2323.000
1145.108, 2391.000
1146.197, 2328.000
1147.287, 2333.000
1148.377, 2356.000
1149.466, 2407.000
1150.555, 2346.000
1151.644, 2385.000
1152.733, 2325.000
1153.822, 2399.000
1154.910, 2397.000
1155.999, 2280.000
1157.087, 2356.000
1158.175, 2289.000
1159.263, 2387.000
1160.350, 2360.000
1161.438, 2383.000
1162.525, 2284.000
1163.613, 2315.000
1164.700, 2335.000
1165.787, 2347.000
1166.873, 2332.000
1167.960, 2417.000
1169.046, 2338.000
1170.133, 2350.710
1171.219, 2422.000
1172.305, 2330.000
1173.390, 2292.000
1174.476, 2338.000
1175.561, 2356.000
1176.647, 2343.000
1177.732, 2252.000
1178.817, 2305.000
1179.901, 2315.000
1180.986, 2237.000
1182.070, 2273.000
1183.155, 2311.000
1184.239, 2178.000
1185.323, 2269.000
1186.407, 2263.000
1187.490, 2257.000
1188.574, 2200.000
1189.657, 2207.217
1190.740, 2183.742
1191.823, 2200.000
1192.906, 2170.000
1193.988, 2192.000
1195.071, 2212.000
1196.153, 2191.000
1197.235, 2182.000
1198.317, 2253.000
1199.399, 2172.000
1200.481, 2280.000
1201.562, 2211.000
1202.644, 2196.000
1203.725, 2112.000
1204.806, 2311.000
1205.887, 2232.000
1206.967, 2258.000
1208.048, 2235.000
1209.128, 2204.000
1210.208, 2181.000
1211.289, 2236.000
1212.368, 2222.000
1213.448, 2281.000
1214.528, 2210.000
1215.607, 2171.000
1216.686, 2155.000
1217.765, 2124.143
1218.844, 2197.000
1219.923, 2129.000
1221.001, 2137.000
1222.080, 2197.000
1223.158, 2180.000
1224.236, 2213.000
1225.314, 2134.000
1226.392, 2177.000
1227.469, 2158.000
1228.547, 2159.000
1229.624, 2138.000
1230.701, 2185.000
1231.778, 2061.000
1232.855, 2086.000
1233.931, 2087.000
1235.008, 2165.000
1236.084, 2054.000
1237.160, 2093.000
1238.236, 2184.000
1239.312, 2096.000
1240.387, 2087.000
1241.463, 2107.000
1242.538, 2054.000
1243.613, 2053.000
1244.688, 2089.000
