##NAMES=Descloizite
##RRUFFID=R050037
##IDEAL CHEMISTRY=Pb^2+^Zn^2+^V^5+^O_4_(OH)
##LOCALITY=Berg Aukas mine, Namibia
##OWNER=RRUFF
##SOURCE=Eugene Schlepp
##DESCRIPTION=Group of brown thin tabular single crystals
##STATUS=The identification of this mineral has been confirmed by X-ray diffraction and chemical analysis
##URL=rruff.info/R050037
##MEASURED CHEMISTRY=Pb_1.00_(Zn_0.98_Cu_0.02_)_Σ=1_((V_0.98_As_0.02_)_Σ=1_O_4_)(OH) ; OH estimated by difference and stoichiometry
##PIN_ID=L00538
##ORIENTATION=Laser parallel to -b* (0 -1 0). Fiducial mark perpendicular to laser is parallel to c [0 0 1]
64.81000, 86.00000
66.04600, 118.0000
67.28200, 119.0000
68.51800, 178.0000
69.75400, 199.0000
70.98900, 187.0000
72.22500, 161.0000
73.46000, 219.0000
74.69500, 190.0000
75.93000, 166.0000
77.16500, 161.0000
78.40000, 257.0000
79.63400, 236.0000
80.86900, 254.0000
82.10300, 262.0000
83.33700, 267.0000
84.57100, 335.0000
85.80500, 383.0000
87.03800, 419.0000
88.27200, 574.0000
89.50500, 670.0000
90.73800, 915.0000
91.97100, 1120.000
93.20400, 1518.000
94.43700, 2072.000
95.67000, 2773.000
96.90200, 3872.000
98.13400, 5364.000
99.36600, 7509.000
100.5980, 10158.00
101.8300, 13276.00
103.0620, 17668.00
104.2930, 22869.00
105.5250, 28587.00
106.7560, 35302.00
107.9870, 41886.00
109.2180, 47424.00
110.4490, 50037.00
111.6790, 48741.00
112.9100, 43346.00
114.1400, 35130.00
115.3700, 27278.00
116.6000, 20701.00
117.8300, 16345.00
119.0600, 13297.00
120.2900, 11174.00
121.5190, 9654.000
122.7480, 9071.000
123.9770, 8535.000
125.2060, 8237.000
126.4350, 8042.000
127.6640, 8428.000
128.8920, 8679.000
130.1210, 9467.000
131.3490, 10289.00
132.5770, 11277.00
133.8050, 12202.00
135.0330, 13420.00
136.2600, 14644.00
137.4880, 15633.00
138.7150, 16619.00
139.9420, 17477.00
141.1690, 18190.00
142.3960, 18417.00
143.6230, 18460.00
144.8490, 17963.00
146.0760, 17172.00
147.3020, 16415.00
148.5280, 15194.00
149.7540, 14043.00
150.9800, 12841.00
152.2050, 11772.00
153.4310, 10626.00
154.6560, 9711.000
155.8810, 8850.000
157.1060, 8160.000
158.3310, 7532.000
159.5560, 6960.000
160.7800, 6417.000
162.0050, 5939.000
163.2290, 5708.000
164.4530, 5449.000
165.6770, 5176.000
166.9010, 4931.000
168.1250, 4787.000
169.3480, 4690.000
170.5720, 4418.000
171.7950, 4375.000
173.0180, 4366.000
174.2410, 4226.000
175.4640, 4166.000
176.6860, 4226.000
177.9090, 4202.000
179.1310, 4317.000
180.3530, 4434.368
181.5750, 4511.000
182.7970, 4798.000
184.0190, 5001.000
185.2400, 5285.556
186.4620, 5385.000
187.6830, 5843.000
188.9040, 6066.000
190.1250, 6341.000
191.3460, 6427.000
192.5660, 6171.000
193.7870, 5942.000
195.0070, 5447.000
196.2270, 5167.000
197.4470, 4748.000
198.6670, 4489.000
199.8870, 4217.000
201.1060, 3936.000
202.3260, 3788.000
203.5450, 3585.831
204.7640, 3457.000
205.9830, 3311.000
207.2020, 3257.000
208.4200, 3164.000
209.6390, 3059.715
210.8570, 2993.053
212.0750, 2914.000
213.2940, 2826.000
214.5110, 2846.000
215.7290, 2758.000
216.9470, 2629.000
218.1640, 2614.000
219.3810, 2623.000
220.5990, 2681.000
221.8150, 2636.000
223.0320, 2587.000
224.2490, 2538.000
225.4650, 2527.046
226.6820, 2508.000
227.8980, 2516.000
229.1140, 2487.000
230.3300, 2488.000
231.5460, 2460.000
232.7610, 2480.000
233.9770, 2488.000
235.1920, 2466.000
236.4070, 2504.000
237.6220, 2491.000
238.8370, 2534.000
240.0520, 2514.000
241.2660, 2526.000
242.4810, 2604.000
243.6950, 2599.000
244.9090, 2555.000
246.1230, 2611.000
247.3370, 2606.000
248.5500, 2594.000
249.7640, 2608.000
250.9770, 2629.000
252.1900, 2696.000
253.4030, 2762.000
254.6160, 2663.000
255.8290, 2703.000
257.0410, 2873.000
258.2530, 2852.000
259.4660, 2959.000
260.6780, 2917.000
261.8900, 3023.000
263.1010, 3080.000
264.3130, 3123.000
265.5250, 3189.000
266.7360, 3316.000
267.9470, 3379.000
269.1580, 3430.000
270.3690, 3587.000
271.5800, 3657.000
272.7900, 3806.000
274.0010, 4049.000
275.2110, 4184.000
276.4210, 4385.000
277.6310, 4528.000
278.8410, 4866.000
280.0500, 5208.000
281.2600, 5517.000
282.4690, 5859.000
283.6780, 6233.000
284.8870, 6821.000
286.0960, 7419.000
287.3050, 8096.000
288.5130, 9003.000
289.7220, 10043.00
290.9300, 11226.00
292.1380, 12655.90
293.3460, 14042.00
294.5540, 16037.00
295.7610, 17922.00
296.9690, 20127.00
298.1760, 22118.00
299.3830, 24192.00
300.5900, 25861.00
301.7970, 26917.00
303.0040, 27003.00
304.2100, 26334.00
305.4170, 25085.00
306.6230, 23131.00
307.8290, 21264.00
309.0350, 19178.00
310.2410, 17346.00
311.4460, 16127.00
312.6520, 14970.00
313.8570, 14285.00
315.0620, 13997.00
316.2670, 13870.00
317.4720, 13878.00
318.6770, 14265.00
319.8810, 14557.00
321.0860, 14820.00
322.2900, 14929.00
323.4940, 14889.00
324.6980, 14868.00
325.9020, 14651.00
327.1050, 14491.00
328.3090, 14373.00
329.5120, 14656.00
330.7150, 15005.00
331.9180, 15772.00
333.1210, 16790.00
334.3240, 18447.00
335.5260, 20105.00
336.7290, 22145.00
337.9310, 24352.00
339.1330, 26520.00
340.3350, 28249.00
341.5370, 29922.00
342.7380, 30711.00
343.9400, 30313.00
345.1410, 29179.00
346.3420, 26995.00
347.5430, 24378.00
348.7440, 21637.00
349.9450, 19107.00
351.1450, 16908.00
352.3460, 14853.00
353.5460, 13036.00
354.7460, 11708.00
355.9460, 10485.00
357.1460, 9767.000
358.3450, 9011.000
359.5450, 8562.000
360.7440, 8057.000
361.9430, 7655.000
363.1420, 7359.000
364.3410, 7148.000
365.5400, 6901.000
366.7380, 6791.191
367.9370, 6721.221
369.1350, 6724.000
370.3330, 6741.000
371.5310, 6923.000
372.7280, 7029.000
373.9260, 7317.000
375.1230, 7704.000
376.3210, 8234.610
377.5180, 8865.000
378.7150, 9698.000
379.9120, 10669.00
381.1080, 11740.00
382.3050, 13104.00
383.5010, 14348.00
384.6970, 15510.00
385.8930, 16394.00
387.0890, 16612.00
388.2850, 16109.00
389.4810, 15256.00
390.6760, 13412.00
391.8710, 11704.00
393.0660, 9827.000
394.2610, 8225.000
395.4560, 7020.000
396.6510, 5904.000
397.8450, 5238.000
399.0400, 4589.000
400.2340, 4012.000
401.4280, 3611.000
402.6220, 3322.000
403.8150, 3154.000
405.0090, 2958.000
406.2020, 2831.000
407.3960, 2699.000
408.5890, 2491.000
409.7820, 2397.000
410.9740, 2277.000
412.1670, 2257.000
413.3600, 2206.000
414.5520, 2146.000
415.7440, 2298.000
416.9360, 2317.000
418.1280, 2325.000
419.3200, 2464.000
420.5110, 2462.000
421.7020, 2646.000
422.8940, 2876.000
424.0850, 3203.000
425.2760, 3391.000
426.4660, 3722.000
427.6570, 4128.000
428.8470, 4594.000
430.0380, 5122.000
431.2280, 5746.000
432.4180, 6240.000
433.6080, 6726.000
434.7970, 7111.000
435.9870, 7223.000
437.1760, 6844.000
438.3650, 6460.000
439.5540, 5744.000
440.7430, 5105.000
441.9320, 4607.000
443.1210, 3949.000
444.3090, 3407.000
445.4970, 3041.000
446.6850, 2706.000
447.8730, 2478.000
449.0610, 2322.000
450.2490, 2055.000
451.4360, 2007.000
452.6240, 1918.000
453.8110, 1798.000
454.9980, 1702.000
456.1850, 1643.179
457.3710, 1652.000
458.5580, 1554.000
459.7440, 1544.000
460.9310, 1537.000
462.1170, 1476.000
463.3030, 1435.000
464.4880, 1368.000
465.6740, 1342.538
466.8590, 1334.000
468.0450, 1321.000
469.2300, 1290.000
470.4150, 1346.000
471.6000, 1337.000
472.7840, 1228.000
473.9690, 1210.000
475.1530, 1269.000
476.3370, 1173.000
477.5210, 1171.000
478.7050, 1182.000
479.8890, 1175.000
481.0730, 1147.000
482.2560, 1086.000
483.4390, 1094.000
484.6220, 1088.000
485.8050, 1168.000
486.9880, 1109.000
488.1710, 1129.000
489.3530, 1035.000
490.5360, 1023.000
491.7180, 1068.000
492.9000, 1032.000
494.0820, 1056.000
495.2630, 997.0000
496.4450, 1059.000
497.6260, 1023.000
498.8080, 985.0000
499.9890, 1009.000
501.1700, 1038.000
502.3500, 1037.000
503.5310, 1052.914
504.7110, 1009.000
505.8920, 1061.000
507.0720, 1022.000
508.2520, 1019.000
509.4320, 1029.000
510.6110, 960.0000
511.7910, 1007.000
512.9700, 1020.000
514.1490, 992.0000
515.3280, 943.0000
516.5070, 931.0000
517.6860, 1007.000
518.8650, 1017.000
520.0430, 951.0000
521.2210, 1009.000
522.3990, 947.0000
523.5770, 955.0000
524.7550, 1045.000
525.9330, 930.0000
527.1100, 957.0000
528.2870, 997.0000
529.4650, 976.0000
530.6420, 947.0000
531.8180, 922.0000
532.9950, 940.0000
534.1720, 926.9021
535.3480, 981.0000
536.5240, 949.0000
537.7000, 941.0000
538.8760, 974.0000
540.0520, 935.0000
541.2270, 960.0000
542.4030, 925.0000
543.5780, 892.0000
544.7530, 989.0000
545.9280, 943.0000
547.1030, 959.0000
548.2780, 982.0000
549.4520, 928.0000
550.6260, 939.0000
551.8010, 941.0000
552.9750, 917.0000
554.1480, 959.0000
555.3220, 926.0000
556.4960, 934.0000
557.6690, 959.0000
558.8420, 934.0000
560.0150, 974.0000
561.1880, 897.0000
562.3610, 977.0000
563.5340, 940.0000
564.7060, 989.0000
565.8780, 969.0000
567.0500, 960.0000
568.2220, 951.0000
569.3940, 961.0000
570.5660, 954.0000
571.7370, 913.0000
572.9090, 939.0000
574.0800, 930.0000
575.2510, 902.0000
576.4220, 907.0000
577.5920, 895.0000
578.7630, 899.4183
579.9330, 923.0000
581.1040, 914.0000
582.2740, 938.0000
583.4440, 939.0000
584.6130, 908.0000
585.7830, 852.0000
586.9520, 931.0000
588.1220, 888.0000
589.2910, 936.0000
590.4600, 891.0000
591.6290, 945.0000
592.7970, 876.0000
593.9660, 875.0000
595.1340, 937.0000
596.3020, 945.0000
597.4700, 925.0000
598.6380, 952.9730
599.8060, 906.0000
600.9730, 948.0000
602.1410, 930.0000
603.3080, 906.0000
604.4750, 855.0000
605.6420, 869.0000
606.8090, 857.0000
607.9750, 848.0000
609.1420, 927.0000
610.3080, 924.0000
611.4740, 919.0000
612.6400, 904.0000
613.8060, 850.0000
614.9720, 903.0000
616.1370, 886.0000
617.3020, 866.0000
618.4680, 924.0000
619.6330, 884.0000
620.7970, 874.0000
621.9620, 870.0000
623.1270, 908.0000
624.2910, 896.0000
625.4550, 927.0000
626.6190, 879.0000
627.7830, 912.0000
628.9470, 931.0000
630.1110, 882.0000
631.2740, 881.0000
632.4370, 913.0000
633.6000, 900.0000
634.7630, 924.0000
635.9260, 971.0000
637.0890, 1024.000
638.2510, 938.0000
639.4140, 992.0000
640.5760, 1005.000
641.7380, 990.0000
642.9000, 997.0000
644.0610, 1064.000
645.2230, 1071.000
646.3840, 1025.000
647.5460, 1030.000
648.7070, 980.0000
649.8670, 1004.000
651.0280, 1058.000
652.1890, 1018.000
653.3490, 1023.000
654.5090, 1065.000
655.6700, 1060.000
656.8300, 1081.000
657.9890, 1090.000
659.1490, 1065.000
660.3080, 1099.000
661.4680, 1136.000
662.6270, 1109.000
663.7860, 1116.000
664.9450, 1101.000
666.1030, 1143.000
667.2620, 1024.000
668.4200, 1136.000
669.5790, 1205.000
670.7370, 1094.000
671.8940, 1194.000
673.0520, 1197.000
674.2100, 1211.000
675.3670, 1248.000
676.5240, 1223.000
677.6810, 1226.000
678.8380, 1350.000
679.9950, 1348.000
681.1520, 1402.000
682.3080, 1375.000
683.4650, 1444.000
684.6210, 1451.000
685.7770, 1497.000
686.9320, 1609.000
688.0880, 1569.000
689.2440, 1617.000
690.3990, 1726.000
691.5540, 1832.000
692.7090, 1916.000
693.8640, 1955.000
695.0190, 2032.000
696.1730, 2145.000
697.3280, 2275.000
698.4820, 2432.000
699.6360, 2464.000
700.7900, 2559.000
701.9440, 2730.000
703.0970, 2755.000
704.2510, 2812.000
705.4040, 2864.000
706.5570, 2932.000
707.7100, 2884.000
708.8630, 2820.000
710.0150, 2902.000
711.1680, 2724.000
712.3200, 2631.000
713.4720, 2469.000
714.6240, 2461.000
715.7760, 2267.000
716.9280, 2238.000
718.0790, 2160.000
719.2310, 2114.000
720.3820, 2054.000
721.5330, 2007.000
722.6840, 1970.000
723.8350, 1937.000
724.9850, 1988.000
726.1360, 1947.000
727.2860, 1941.000
728.4360, 2047.000
729.5860, 2020.000
730.7360, 2017.000
731.8850, 1961.000
733.0350, 2064.000
734.1840, 2138.000
735.3330, 2142.000
736.4820, 2142.000
737.6310, 2284.000
738.7800, 2323.000
739.9280, 2398.000
741.0760, 2385.000
742.2250, 2541.000
743.3730, 2614.000
744.5200, 2739.000
745.6680, 2809.000
746.8160, 2938.000
747.9630, 3123.000
749.1100, 3340.000
750.2570, 3409.000
751.4040, 3583.000
752.5510, 3833.000
753.6980, 4245.000
754.8440, 4412.000
755.9900, 4830.000
757.1360, 5210.000
758.2820, 5839.000
759.4280, 6326.000
760.5740, 7146.000
761.7190, 7876.000
762.8640, 8951.000
764.0100, 10207.00
765.1550, 11747.00
766.2990, 13654.00
767.4440, 15888.00
768.5890, 18724.00
769.7330, 22036.00
770.8770, 26199.00
772.0210, 30679.00
773.1650, 35852.00
774.3090, 41074.00
775.4520, 46199.00
776.5960, 50122.00
777.7390, 52407.00
778.8820, 52537.00
780.0250, 49963.00
781.1670, 46192.00
782.3100, 41020.00
783.4520, 35493.00
784.5950, 30485.00
785.7370, 26421.00
786.8790, 22947.00
788.0210, 20181.00
789.1620, 17834.00
790.3040, 16299.00
791.4450, 14974.00
792.5860, 14076.00
793.7270, 13371.00
794.8680, 12912.00
796.0090, 12797.00
797.1490, 12230.00
798.2890, 12064.00
799.4300, 11704.00
800.5700, 11394.00
801.7090, 10698.00
802.8490, 10356.00
803.9890, 9858.000
805.1280, 9404.000
806.2670, 9236.000
807.4060, 8881.000
808.5450, 8949.000
809.6840, 9102.000
810.8230, 9316.000
811.9610, 9526.000
813.0990, 10004.00
814.2370, 10539.00
815.3750, 11441.00
816.5130, 12201.00
817.6510, 13230.00
818.7880, 14050.00
819.9250, 14556.00
821.0630, 14623.00
822.1990, 14567.00
823.3360, 14400.00
824.4730, 14482.00
825.6090, 14734.00
826.7460, 14843.00
827.8820, 15600.00
829.0180, 16159.00
830.1540, 17076.00
831.2890, 18486.00
832.4250, 20075.00
833.5600, 22460.00
834.6960, 25389.00
835.8310, 30004.00
836.9660, 35555.00
838.1000, 43268.00
839.2350, 54001.00
840.3690, 67775.00
841.5030, 85227.00
842.6380, 107507.0
843.7710, 133822.0
844.9050, 163739.0
846.0390, 193770.0
847.1720, 217578.0
848.3060, 227021.0
849.4390, 215904.0
850.5720, 187424.0
851.7040, 148734.0
852.8370, 112395.0
853.9700, 83061.00
855.1020, 62045.00
856.2340, 47493.00
857.3660, 36970.00
858.4980, 29637.00
859.6300, 24280.00
860.7610, 20610.00
861.8920, 17774.00
863.0240, 15589.00
864.1550, 13807.00
865.2850, 12552.00
866.4160, 11472.00
867.5470, 10322.00
868.6770, 9580.000
869.8070, 8926.000
870.9370, 8178.000
872.0670, 7688.000
873.1970, 7150.000
874.3270, 6876.000
875.4560, 6766.000
876.5850, 6445.000
877.7140, 6272.000
878.8430, 6072.000
879.9720, 5891.398
881.1010, 5719.000
882.2290, 5589.000
883.3570, 5419.000
884.4860, 5227.000
885.6140, 4981.000
886.7410, 4954.000
887.8690, 4811.000
888.9960, 4837.000
890.1240, 4943.000
891.2510, 4820.000
892.3780, 4835.000
893.5050, 4909.000
894.6320, 4794.000
895.7580, 4679.000
896.8840, 4524.000
898.0110, 4396.000
899.1370, 4287.000
900.2620, 4127.760
901.3880, 4021.000
902.5140, 3829.000
903.6390, 3716.000
904.7640, 3560.000
905.8890, 3435.000
907.0140, 3274.000
908.1390, 3127.000
909.2640, 3024.000
910.3880, 2851.000
911.5120, 2735.000
912.6360, 2666.000
913.7600, 2430.000
914.8840, 2409.000
916.0080, 2288.000
917.1310, 2236.000
918.2550, 2163.000
919.3780, 2087.000
920.5010, 2062.000
921.6230, 2012.170
922.7460, 1954.000
923.8690, 1942.000
924.9910, 1945.000
926.1130, 1885.000
927.2350, 1832.000
928.3570, 1746.000
929.4790, 1855.000
930.6000, 1691.000
931.7220, 1756.000
932.8430, 1704.000
933.9640, 1665.000
935.0850, 1609.000
936.2050, 1530.000
937.3260, 1595.000
938.4460, 1575.000
939.5660, 1545.000
940.6870, 1494.000
941.8060, 1477.413
942.9260, 1481.000
944.0460, 1437.000
945.1650, 1416.000
946.2840, 1421.000
947.4040, 1322.000
948.5220, 1327.000
949.6410, 1268.000
950.7600, 1203.000
951.8780, 1245.000
952.9970, 1307.000
954.1150, 1189.000
955.2330, 1254.000
956.3500, 1256.000
957.4680, 1148.000
958.5860, 1193.000
959.7030, 1185.000
960.8200, 1159.000
961.9370, 1179.634
963.0540, 1169.161
964.1710, 1180.000
965.2870, 1165.000
966.4030, 1165.000
967.5200, 1142.000
968.6360, 1161.000
969.7510, 1132.000
970.8670, 1117.000
971.9830, 1104.000
973.0980, 1129.000
974.2130, 1094.000
975.3280, 1116.000
976.4430, 1087.000
977.5580, 1076.000
978.6730, 1091.000
979.7870, 1075.359
980.9010, 1049.000
982.0150, 1068.000
983.1290, 1101.000
984.2430, 1087.000
985.3560, 1061.000
986.4700, 1046.000
987.5830, 1049.479
988.6960, 1029.000
989.8090, 1057.000
990.9220, 1068.000
992.0350, 1057.000
993.1470, 1101.000
994.2590, 1067.000
995.3720, 1086.000
996.4830, 1088.000
997.5950, 1115.000
998.7070, 1069.000
999.8180, 1074.000
1000.930, 1027.000
1002.041, 997.0000
1003.152, 1054.000
1004.263, 1064.000
1005.373, 1050.000
1006.484, 1101.000
1007.594, 1021.000
1008.704, 1086.000
1009.815, 1020.000
1010.924, 1073.000
1012.034, 1061.000
1013.144, 1023.000
1014.253, 1048.000
1015.362, 1008.000
1016.471, 1034.000
1017.580, 1123.000
1018.689, 986.0000
1019.797, 1080.000
1020.906, 1107.000
1022.014, 1051.000
1023.122, 1124.000
1024.230, 1072.000
1025.338, 1011.000
1026.445, 1065.000
1027.553, 1156.000
1028.660, 1158.000
1029.767, 1120.000
1030.874, 1074.000
1031.981, 1153.000
1033.088, 1092.000
1034.194, 1085.000
1035.300, 1122.000
1036.406, 1112.000
1037.512, 1130.000
1038.618, 1128.000
1039.724, 1097.000
1040.829, 1084.000
1041.935, 1088.447
1043.040, 1079.911
1044.145, 1108.000
1045.250, 1099.000
1046.354, 1124.000
1047.459, 1156.938
1048.563, 1085.000
1049.667, 1183.000
1050.771, 1109.000
1051.875, 1085.000
1052.979, 1091.000
1054.082, 1130.000
1055.186, 1160.000
1056.289, 1090.000
1057.392, 1137.000
1058.495, 1097.000
1059.598, 1073.000
1060.700, 1066.000
1061.803, 1101.000
1062.905, 1099.000
1064.007, 1117.000
1065.109, 1118.608
1066.210, 1108.000
1067.312, 1122.000
1068.413, 1109.000
1069.515, 1129.384
1070.616, 1082.000
1071.717, 1125.000
1072.817, 1056.000
1073.918, 1045.000
1075.019, 1084.000
1076.119, 1054.000
1077.219, 1017.000
1078.319, 1069.000
1079.419, 1081.000
1080.518, 1050.000
1081.618, 1120.000
1082.717, 1017.000
1083.816, 1035.000
1084.915, 1036.000
1086.014, 1035.000
1087.113, 1048.000
1088.211, 1041.000
1089.309, 1029.000
1090.408, 1078.000
1091.506, 1053.000
1092.603, 1054.000
1093.701, 999.0000
1094.799, 1025.000
1095.896, 1015.000
1096.993, 996.0000
1098.090, 1083.000
1099.187, 1042.000
1100.284, 1068.000
1101.380, 971.0000
1102.477, 1062.000
1103.573, 1000.000
1104.669, 995.0000
1105.765, 1045.000
1106.860, 1060.000
1107.956, 1006.000
1109.051, 989.0000
1110.147, 1006.000
1111.242, 980.0000
1112.336, 931.0000
1113.431, 1005.000
1114.526, 980.0000
1115.620, 921.0000
1116.714, 977.0000
1117.809, 876.0000
1118.902, 994.0000
1119.996, 981.0000
1121.090, 1002.000
1122.183, 988.0000
1123.277, 952.0000
1124.370, 950.0000
1125.463, 972.0000
1126.555, 983.0000
1127.648, 923.0000
1128.740, 969.0000
1129.833, 954.0000
1130.925, 955.0000
1132.017, 1014.000
1133.109, 1018.000
1134.200, 992.0000
1135.292, 998.0000
1136.383, 1024.000
1137.474, 966.0000
1138.565, 951.0000
1139.656, 1054.000
1140.747, 946.0000
1141.837, 1083.000
1142.927, 981.0000
1144.018, 1045.000
1145.108, 1086.000
1146.197, 968.0000
1147.287, 1049.000
1148.377, 1009.000
1149.466, 1039.000
1150.555, 1032.000
1151.644, 970.0000
1152.733, 1032.000
1153.822, 1006.000
1154.910, 1025.000
1155.999, 995.0000
1157.087, 921.0000
1158.175, 988.0000
1159.263, 919.0000
1160.350, 972.0000
1161.438, 956.0000
1162.525, 960.0000
1163.613, 975.0000
1164.700, 918.0000
1165.787, 963.0000
1166.873, 919.0000
1167.960, 917.0000
1169.046, 875.0000
1170.133, 921.0000
1171.219, 897.0000
1172.305, 918.0000
1173.390, 925.0784
1174.476, 873.0000
1175.561, 917.0000
1176.647, 920.0000
1177.732, 880.0000
1178.817, 941.0000
1179.901, 975.0000
1180.986, 917.0000
1182.070, 932.0000
1183.155, 967.0000
1184.239, 912.0000
1185.323, 948.0000
1186.407, 962.0000
1187.490, 924.0000
1188.574, 965.0000
1189.657, 935.0000
1190.740, 971.0000
1191.823, 936.0000
1192.906, 895.0000
1193.988, 949.0000
1195.071, 946.0000
1196.153, 890.0000
1197.235, 851.0000
1198.317, 916.0000
1199.399, 895.0000
1200.481, 914.0000
1201.562, 923.0000
1202.644, 884.0000
1203.725, 857.0000
1204.806, 865.0000
1205.887, 845.0000
1206.967, 861.0000
1208.048, 915.0000
1209.128, 926.0000
1210.208, 886.0000
1211.289, 905.0000
1212.368, 858.0000
1213.448, 851.0000
1214.528, 896.0000
1215.607, 812.0000
1216.686, 835.0000
1217.765, 903.0000
1218.844, 889.0000
1219.923, 840.0000
1221.001, 889.0000
1222.080, 841.0000
1223.158, 870.0000
1224.236, 857.0000
1225.314, 863.0000
1226.392, 865.0000
1227.469, 864.6443
1228.547, 857.0727
1229.624, 860.0000
1230.701, 841.0000
1231.778, 811.0000
1232.855, 814.0000
1233.931, 824.0000
1235.008, 813.0000
1236.084, 771.0000
1237.160, 826.0000
1238.236, 889.0000
1239.312, 770.0000
1240.387, 792.0000
1241.463, 874.0000
1242.538, 838.0000
1243.613, 776.0000
1244.688, 772.0000
