##NAMES=Descloizite
##RRUFFID=R050037
##IDEAL CHEMISTRY=Pb^2+^Zn^2+^V^5+^O_4_(OH)
##LOCALITY=Berg Aukas mine, Namibia
##OWNER=RRUFF
##SOURCE=Eugene Schlepp
##DESCRIPTION=Group of brown thin tabular single crystals
##STATUS=The identification of this mineral has been confirmed by X-ray diffraction and chemical analysis
##URL=rruff.info/R050037
##MEASURED CHEMISTRY=Pb_1.00_(Zn_0.98_Cu_0.02_)_Σ=1_((V_0.98_As_0.02_)_Σ=1_O_4_)(OH) ; OH estimated by difference and stoichiometry
##PIN_ID=m00197
##ORIENTATION=Laser parallel to c* (0 0 1). Fiducial mark perpendicular to laser is parallel to -a [-1 0 0]
64.81000, 115.0000
66.04600, 120.0000
67.28200, 88.00000
68.51800, 144.0000
69.75400, 146.0000
70.98900, 151.0000
72.22500, 120.0000
73.46000, 160.0000
74.69500, 114.0000
75.93000, 113.0000
77.16500, 93.00000
78.40000, 106.2628
79.63400, 118.4597
80.86900, 157.0000
82.10300, 164.0000
83.33700, 198.0000
84.57100, 224.0000
85.80500, 237.0000
87.03800, 239.0000
88.27200, 332.0000
89.50500, 362.0000
90.73800, 461.0000
91.97100, 514.0000
93.20400, 638.0000
94.43700, 828.0000
95.67000, 959.0000
96.90200, 1180.000
98.13400, 1479.000
99.36600, 1857.000
100.5980, 2310.000
101.8300, 2854.860
103.0620, 3396.000
104.2930, 4185.000
105.5250, 4997.000
106.7560, 5871.000
107.9870, 6700.000
109.2180, 7250.000
110.4490, 7661.000
111.6790, 7549.000
112.9100, 6948.000
114.1400, 6264.000
115.3700, 5853.000
116.6000, 5596.000
117.8300, 5693.000
119.0600, 5796.000
120.2900, 5986.000
121.5190, 6171.000
122.7480, 6071.236
123.9770, 6223.000
125.2060, 5769.000
126.4350, 5497.000
127.6640, 5153.000
128.8920, 5247.000
130.1210, 5385.000
131.3490, 5525.000
132.5770, 5904.000
133.8050, 6283.000
135.0330, 6803.000
136.2600, 7240.000
137.4880, 7561.000
138.7150, 8057.000
139.9420, 8289.000
141.1690, 8495.000
142.3960, 8464.000
143.6230, 8379.000
144.8490, 8092.000
146.0760, 7885.000
147.3020, 7307.000
148.5280, 6798.000
149.7540, 6357.000
150.9800, 5886.000
152.2050, 5474.000
153.4310, 4966.000
154.6560, 4590.000
155.8810, 4262.000
157.1060, 3982.000
158.3310, 3645.000
159.5560, 3469.000
160.7800, 3228.000
162.0050, 3069.000
163.2290, 3019.000
164.4530, 2874.000
165.6770, 2763.000
166.9010, 2694.000
168.1250, 2518.000
169.3480, 2454.000
170.5720, 2430.000
171.7950, 2309.000
173.0180, 2380.000
174.2410, 2330.000
175.4640, 2220.000
176.6860, 2236.000
177.9090, 2210.000
179.1310, 2200.000
180.3530, 2217.642
181.5750, 2238.704
182.7970, 2269.000
184.0190, 2331.000
185.2400, 2406.000
186.4620, 2479.000
187.6830, 2596.000
188.9040, 2664.000
190.1250, 2754.000
191.3460, 2818.000
192.5660, 2768.000
193.7870, 2616.000
195.0070, 2506.000
196.2270, 2458.000
197.4470, 2216.000
198.6670, 2259.000
199.8870, 2046.000
201.1060, 2013.000
202.3260, 1958.000
203.5450, 1893.000
204.7640, 1901.000
205.9830, 1846.000
207.2020, 1812.000
208.4200, 1812.000
209.6390, 1682.000
210.8570, 1649.000
212.0750, 1648.000
213.2940, 1727.000
214.5110, 1690.000
215.7290, 1658.000
216.9470, 1658.000
218.1640, 1665.000
219.3810, 1662.000
220.5990, 1677.821
221.8150, 1638.000
223.0320, 1725.000
224.2490, 1694.000
225.4650, 1748.000
226.6820, 1660.000
227.8980, 1653.000
229.1140, 1760.000
230.3300, 1743.000
231.5460, 1676.000
232.7610, 1755.000
233.9770, 1776.000
235.1920, 1804.000
236.4070, 1822.000
237.6220, 1795.000
238.8370, 1794.000
240.0520, 1812.000
241.2660, 1801.000
242.4810, 1833.000
243.6950, 1883.000
244.9090, 1793.000
246.1230, 1868.000
247.3370, 1883.000
248.5500, 1788.000
249.7640, 1832.000
250.9770, 1799.000
252.1900, 1814.000
253.4030, 1793.000
254.6160, 1814.000
255.8290, 1827.000
257.0410, 1852.359
258.2530, 1922.000
259.4660, 1923.000
260.6780, 1956.000
261.8900, 1984.000
263.1010, 1992.000
264.3130, 1955.000
265.5250, 2060.000
266.7360, 2042.000
267.9470, 2144.000
269.1580, 2137.000
270.3690, 2284.000
271.5800, 2234.000
272.7900, 2355.000
274.0010, 2411.000
275.2110, 2603.000
276.4210, 2655.000
277.6310, 2730.000
278.8410, 2795.000
280.0500, 2953.000
281.2600, 3155.000
282.4690, 3326.000
283.6780, 3573.000
284.8870, 3760.000
286.0960, 4088.000
287.3050, 4465.000
288.5130, 4927.000
289.7220, 5465.000
290.9300, 5917.000
292.1380, 6585.000
293.3460, 7324.000
294.5540, 8184.000
295.7610, 9111.000
296.9690, 9886.000
298.1760, 10766.00
299.3830, 11705.00
300.5900, 12332.00
301.7970, 12746.00
303.0040, 12780.54
304.2100, 12419.00
305.4170, 12028.00
306.6230, 11219.00
307.8290, 10138.00
309.0350, 9285.000
310.2410, 8630.000
311.4460, 8056.000
312.6520, 7634.000
313.8570, 7249.000
315.0620, 7067.000
316.2670, 7006.000
317.4720, 6919.000
318.6770, 7139.000
319.8810, 7393.000
321.0860, 7814.000
322.2900, 8170.000
323.4940, 8683.000
324.6980, 9347.000
325.9020, 10082.00
327.1050, 11020.00
328.3090, 11844.00
329.5120, 13027.00
330.7150, 14290.00
331.9180, 15754.00
333.1210, 16823.00
334.3240, 18345.00
335.5260, 19426.00
336.7290, 20492.00
337.9310, 21097.00
339.1330, 21453.00
340.3350, 21513.00
341.5370, 21098.00
342.7380, 20405.00
343.9400, 19441.00
345.1410, 18180.00
346.3420, 16923.00
347.5430, 15715.00
348.7440, 14844.00
349.9450, 14122.00
351.1450, 13603.01
352.3460, 13332.40
353.5460, 13259.00
354.7460, 13415.00
355.9460, 13860.00
357.1460, 14503.00
358.3450, 15085.00
359.5450, 15660.00
360.7440, 15889.00
361.9430, 15293.00
363.1420, 14349.00
364.3410, 12826.00
365.5400, 10826.00
366.7380, 9165.000
367.9370, 7888.000
369.1350, 6735.000
370.3330, 6151.000
371.5310, 5712.000
372.7280, 5399.000
373.9260, 5421.000
375.1230, 5338.000
376.3210, 5543.000
377.5180, 5947.000
378.7150, 6238.000
379.9120, 6717.000
381.1080, 7501.000
382.3050, 8182.000
383.5010, 8890.000
384.6970, 9500.000
385.8930, 9917.000
387.0890, 10170.00
388.2850, 9812.000
389.4810, 9074.000
390.6760, 8164.000
391.8710, 7285.000
393.0660, 6153.000
394.2610, 5289.000
395.4560, 4509.000
396.6510, 3967.000
397.8450, 3435.000
399.0400, 3042.000
400.2340, 2716.000
401.4280, 2425.000
402.6220, 2269.000
403.8150, 2088.000
405.0090, 1992.000
406.2020, 1865.000
407.3960, 1723.000
408.5890, 1680.000
409.7820, 1596.000
410.9740, 1544.000
412.1670, 1568.000
413.3600, 1441.000
414.5520, 1363.000
415.7440, 1455.000
416.9360, 1451.000
418.1280, 1389.000
419.3200, 1501.000
420.5110, 1433.000
421.7020, 1463.000
422.8940, 1554.000
424.0850, 1559.000
425.2760, 1651.000
426.4660, 1722.000
427.6570, 1822.000
428.8470, 1875.000
430.0380, 2006.000
431.2280, 2109.000
432.4180, 2263.000
433.6080, 2327.000
434.7970, 2459.000
435.9870, 2397.000
437.1760, 2392.000
438.3650, 2218.000
439.5540, 2140.000
440.7430, 1999.000
441.9320, 1951.000
443.1210, 1752.000
444.3090, 1519.000
445.4970, 1547.000
446.6850, 1345.000
447.8730, 1345.000
449.0610, 1266.000
450.2490, 1202.000
451.4360, 1248.000
452.6240, 1194.000
453.8110, 1118.000
454.9980, 1121.000
456.1850, 1127.000
457.3710, 1090.000
458.5580, 1096.741
459.7440, 1022.000
460.9310, 1053.000
462.1170, 1068.000
463.3030, 989.0000
464.4880, 987.0000
465.6740, 990.0000
466.8590, 985.0000
468.0450, 977.0000
469.2300, 975.0000
470.4150, 963.1086
471.6000, 968.0000
472.7840, 941.0000
473.9690, 908.0000
475.1530, 895.5706
476.3370, 885.0000
477.5210, 875.0000
478.7050, 894.0000
479.8890, 887.0000
481.0730, 924.0000
482.2560, 881.0000
483.4390, 913.7180
484.6220, 879.0000
485.8050, 922.0000
486.9880, 915.0000
488.1710, 861.0000
489.3530, 803.0000
490.5360, 805.0000
491.7180, 790.0000
492.9000, 775.0000
494.0820, 782.6778
495.2630, 781.0000
496.4450, 813.0000
497.6260, 792.0000
498.8080, 849.0000
499.9890, 846.0000
501.1700, 782.0000
502.3500, 827.0000
503.5310, 793.0000
504.7110, 771.0000
505.8920, 813.0000
507.0720, 844.0000
508.2520, 769.0000
509.4320, 765.0000
510.6110, 738.0000
511.7910, 764.0000
512.9700, 799.0000
514.1490, 803.0000
515.3280, 824.0629
516.5070, 832.2333
517.6860, 835.0000
518.8650, 816.0000
520.0430, 796.0000
521.2210, 731.0000
522.3990, 743.0000
523.5770, 808.0000
524.7550, 828.0000
525.9330, 733.0000
527.1100, 781.0000
528.2870, 742.0000
529.4650, 817.0000
530.6420, 732.0000
531.8180, 731.0000
532.9950, 790.0000
534.1720, 794.0000
535.3480, 780.0000
536.5240, 776.0000
537.7000, 734.0000
538.8760, 794.0000
540.0520, 730.0000
541.2270, 746.0000
542.4030, 794.0000
543.5780, 763.0000
544.7530, 794.0000
545.9280, 750.0000
547.1030, 789.0000
548.2780, 778.0000
549.4520, 766.0000
550.6260, 732.0000
551.8010, 786.0000
552.9750, 765.0000
554.1480, 779.0000
555.3220, 758.0000
556.4960, 757.0000
557.6690, 762.0000
558.8420, 767.0000
560.0150, 813.0000
561.1880, 749.0000
562.3610, 807.0000
563.5340, 773.0000
564.7060, 816.0000
565.8780, 790.0000
567.0500, 808.0000
568.2220, 784.0000
569.3940, 808.0000
570.5660, 770.0000
571.7370, 755.0000
572.9090, 795.0000
574.0800, 769.0000
575.2510, 757.0000
576.4220, 798.0000
577.5920, 814.0000
578.7630, 844.0000
579.9330, 746.0000
581.1040, 764.0000
582.2740, 804.0000
583.4440, 752.0000
584.6130, 779.0000
585.7830, 745.0000
586.9520, 812.0000
588.1220, 815.0000
589.2910, 848.0000
590.4600, 783.0000
591.6290, 781.0000
592.7970, 753.0000
593.9660, 766.0000
595.1340, 792.0000
596.3020, 791.0000
597.4700, 777.0000
598.6380, 753.0000
599.8060, 748.0000
600.9730, 787.0000
602.1410, 750.0000
603.3080, 764.0000
604.4750, 752.0000
605.6420, 742.0000
606.8090, 784.0000
607.9750, 756.0000
609.1420, 736.0000
610.3080, 835.0000
611.4740, 797.0000
612.6400, 776.0000
613.8060, 778.0000
614.9720, 745.0000
616.1370, 758.0000
617.3020, 782.0000
618.4680, 799.0000
619.6330, 778.0000
620.7970, 774.0000
621.9620, 776.0835
623.1270, 767.4216
624.2910, 779.0000
625.4550, 759.0000
626.6190, 771.0000
627.7830, 755.5924
628.9470, 754.1453
630.1110, 778.0000
631.2740, 752.0000
632.4370, 790.0000
633.6000, 799.0000
634.7630, 840.0000
635.9260, 867.0000
637.0890, 852.0000
638.2510, 823.0000
639.4140, 844.0000
640.5760, 880.0000
641.7380, 860.0000
642.9000, 878.0000
644.0610, 886.0000
645.2230, 913.0000
646.3840, 911.5411
647.5460, 882.0000
648.7070, 908.0000
649.8670, 895.0000
651.0280, 880.0000
652.1890, 902.0000
653.3490, 930.0000
654.5090, 967.0000
655.6700, 925.0000
656.8300, 986.0000
657.9890, 1010.000
659.1490, 966.0000
660.3080, 988.0000
661.4680, 994.5126
662.6270, 966.0000
663.7860, 1038.000
664.9450, 1040.000
666.1030, 1091.000
667.2620, 1084.000
668.4200, 1119.000
669.5790, 1188.000
670.7370, 1207.000
671.8940, 1275.000
673.0520, 1276.000
674.2100, 1357.000
675.3670, 1404.000
676.5240, 1467.000
677.6810, 1446.000
678.8380, 1538.000
679.9950, 1669.000
681.1520, 1822.000
682.3080, 1835.000
683.4650, 2040.000
684.6210, 2125.000
685.7770, 2281.000
686.9320, 2580.000
688.0880, 2710.000
689.2440, 3030.000
690.3990, 3270.000
691.5540, 3613.000
692.7090, 3935.000
693.8640, 4143.000
695.0190, 4372.000
696.1730, 4648.000
697.3280, 4789.000
698.4820, 4910.890
699.6360, 5031.000
700.7900, 5013.000
701.9440, 5021.000
703.0970, 4994.000
704.2510, 5015.000
705.4040, 4887.000
706.5570, 4831.000
707.7100, 4688.000
708.8630, 4604.000
710.0150, 4420.000
711.1680, 4214.000
712.3200, 3930.000
713.4720, 3716.000
714.6240, 3545.000
715.7760, 3272.000
716.9280, 3041.000
718.0790, 2834.000
719.2310, 2756.000
720.3820, 2587.000
721.5330, 2472.000
722.6840, 2373.000
723.8350, 2300.000
724.9850, 2147.000
726.1360, 2123.000
727.2860, 2091.000
728.4360, 2021.000
729.5860, 2073.000
730.7360, 2011.000
731.8850, 2000.000
733.0350, 1972.000
734.1840, 1954.000
735.3330, 1977.000
736.4820, 1947.000
737.6310, 2041.000
738.7800, 2040.000
739.9280, 2115.000
741.0760, 2160.000
742.2250, 2177.000
743.3730, 2262.000
744.5200, 2286.000
745.6680, 2302.000
746.8160, 2443.000
747.9630, 2577.000
749.1100, 2684.000
750.2570, 2885.000
751.4040, 3016.000
752.5510, 3165.000
753.6980, 3385.000
754.8440, 3587.000
755.9900, 3833.000
757.1360, 4194.000
758.2820, 4667.000
759.4280, 5094.000
760.5740, 5657.000
761.7190, 6236.000
762.8640, 7124.000
764.0100, 7880.000
765.1550, 9329.000
766.2990, 10747.00
767.4440, 12724.00
768.5890, 14860.00
769.7330, 17503.00
770.8770, 20519.00
772.0210, 23971.00
773.1650, 27890.00
774.3090, 31766.00
775.4520, 35313.00
776.5960, 37965.00
777.7390, 39216.00
778.8820, 39156.00
780.0250, 37633.00
781.1670, 34511.00
782.3100, 30438.00
783.4520, 26733.00
784.5950, 23097.00
785.7370, 20058.00
786.8790, 17459.00
788.0210, 15283.00
789.1620, 13359.00
790.3040, 12244.00
791.4450, 11060.00
792.5860, 10030.00
793.7270, 9379.000
794.8680, 8642.000
796.0090, 8300.000
797.1490, 7905.000
798.2890, 7597.000
799.4300, 7282.000
800.5700, 6931.000
801.7090, 6859.000
802.8490, 6654.000
803.9890, 6776.000
805.1280, 6648.000
806.2670, 6831.000
807.4060, 6799.000
808.5450, 7087.000
809.6840, 7390.000
810.8230, 7997.000
811.9610, 8560.000
813.0990, 9479.000
814.2370, 10133.00
815.3750, 11032.00
816.5130, 11823.00
817.6510, 12730.00
818.7880, 13415.00
819.9250, 13694.00
821.0630, 13257.00
822.1990, 12737.00
823.3360, 12072.00
824.4730, 11684.00
825.6090, 11221.00
826.7460, 11191.00
827.8820, 11204.00
829.0180, 11439.00
830.1540, 11947.00
831.2890, 12587.00
832.4250, 13594.00
833.5600, 14903.00
834.6960, 16672.00
835.8310, 19087.00
836.9660, 22465.00
838.1000, 26700.00
839.2350, 32778.00
840.3690, 40271.00
841.5030, 49413.00
842.6380, 60748.00
843.7710, 73780.00
844.9050, 87576.00
846.0390, 100168.0
847.1720, 108806.0
848.3060, 110131.0
849.4390, 101710.0
850.5720, 86881.00
851.7040, 68620.00
852.8370, 52104.00
853.9700, 39686.00
855.1020, 30357.00
856.2340, 23723.00
857.3660, 18949.00
858.4980, 15654.00
859.6300, 13150.00
860.7610, 11374.00
861.8920, 10014.00
863.0240, 8872.000
864.1550, 7984.000
865.2850, 7168.000
866.4160, 6598.000
867.5470, 6086.000
868.6770, 5675.000
869.8070, 5269.000
870.9370, 4919.585
872.0670, 4709.000
873.1970, 4390.000
874.3270, 4201.000
875.4560, 4123.000
876.5850, 3848.000
877.7140, 3709.000
878.8430, 3565.000
879.9720, 3477.000
881.1010, 3411.000
882.2290, 3332.000
883.3570, 3195.000
884.4860, 3171.000
885.6140, 3075.000
886.7410, 2961.000
887.8690, 2933.000
888.9960, 2947.000
890.1240, 2937.000
891.2510, 2885.000
892.3780, 2927.000
893.5050, 2906.000
894.6320, 2813.000
895.7580, 2978.000
896.8840, 2887.000
898.0110, 2796.000
899.1370, 2695.000
900.2620, 2646.399
901.3880, 2617.000
902.5140, 2554.000
903.6390, 2484.000
904.7640, 2439.000
905.8890, 2328.000
907.0140, 2281.000
908.1390, 2198.000
909.2640, 2140.041
910.3880, 2080.280
911.5120, 2035.000
912.6360, 1979.000
913.7600, 1921.000
914.8840, 1908.663
916.0080, 1786.000
917.1310, 1838.000
918.2550, 1747.000
919.3780, 1689.000
920.5010, 1670.000
921.6230, 1567.000
922.7460, 1583.000
923.8690, 1569.000
924.9910, 1513.035
926.1130, 1580.000
927.2350, 1481.000
928.3570, 1495.000
929.4790, 1571.000
930.6000, 1419.000
931.7220, 1492.000
932.8430, 1431.000
933.9640, 1442.000
935.0850, 1352.000
936.2050, 1297.000
937.3260, 1410.000
938.4460, 1335.000
939.5660, 1370.000
940.6870, 1366.000
941.8060, 1338.000
942.9260, 1366.000
944.0460, 1327.000
945.1650, 1236.000
946.2840, 1337.000
947.4040, 1196.000
948.5220, 1178.000
949.6410, 1172.000
950.7600, 1177.000
951.8780, 1141.000
952.9970, 1213.000
954.1150, 1163.000
955.2330, 1198.000
956.3500, 1187.000
957.4680, 1107.000
958.5860, 1088.000
959.7030, 1116.000
960.8200, 1099.000
961.9370, 1128.000
963.0540, 1085.000
964.1710, 1097.000
965.2870, 1111.000
966.4030, 1047.000
967.5200, 1088.000
968.6360, 1063.000
969.7510, 1091.000
970.8670, 1066.000
971.9830, 1038.000
973.0980, 1014.000
974.2130, 1013.256
975.3280, 1055.000
976.4430, 1023.000
977.5580, 1037.000
978.6730, 1050.000
979.7870, 993.0000
980.9010, 1006.000
982.0150, 994.0000
983.1290, 1039.000
984.2430, 1042.000
985.3560, 1046.000
986.4700, 974.0000
987.5830, 1031.000
988.6960, 967.0000
989.8090, 1010.000
990.9220, 980.0000
992.0350, 1020.000
993.1470, 998.0000
994.2590, 929.0000
995.3720, 998.0000
996.4830, 982.0000
997.5950, 1081.000
998.7070, 989.0000
999.8180, 971.0000
1000.930, 894.0000
1002.041, 962.0000
1003.152, 937.0000
1004.263, 1005.000
1005.373, 954.0000
1006.484, 971.0000
1007.594, 934.0000
1008.704, 960.0000
1009.815, 925.0000
1010.924, 966.0000
1012.034, 945.0000
1013.144, 958.0000
1014.253, 945.0000
1015.362, 990.0000
1016.471, 975.0000
1017.580, 1025.000
1018.689, 1021.000
1019.797, 974.0000
1020.906, 1023.000
1022.014, 976.0000
1023.122, 971.0000
1024.230, 1010.000
1025.338, 917.0000
1026.445, 956.0000
1027.553, 1075.000
1028.660, 1017.000
1029.767, 1054.000
1030.874, 924.0000
1031.981, 1025.000
1033.088, 1000.000
1034.194, 1060.000
1035.300, 1017.000
1036.406, 1017.000
1037.512, 1005.000
1038.618, 989.0000
1039.724, 941.0000
1040.829, 958.0000
1041.935, 969.9283
1043.040, 983.0000
1044.145, 1034.000
1045.250, 980.0000
1046.354, 1001.000
1047.459, 979.0000
1048.563, 1031.000
1049.667, 1072.000
1050.771, 1014.000
1051.875, 1045.000
1052.979, 1020.000
1054.082, 988.0000
1055.186, 1035.000
1056.289, 1021.000
1057.392, 1048.000
1058.495, 1066.000
1059.598, 977.0000
1060.700, 948.0000
1061.803, 1014.000
1062.905, 1032.000
1064.007, 1052.000
1065.109, 978.0000
1066.210, 1024.000
1067.312, 1002.000
1068.413, 1030.000
1069.515, 948.0000
1070.616, 1004.000
1071.717, 1067.000
1072.817, 987.0000
1073.918, 989.0000
1075.019, 938.0000
1076.119, 1000.000
1077.219, 958.0000
1078.319, 981.0000
1079.419, 1035.000
1080.518, 989.0000
1081.618, 1025.000
1082.717, 980.0000
1083.816, 982.0000
1084.915, 932.0000
1086.014, 976.0000
1087.113, 983.0000
1088.211, 957.0000
1089.309, 967.0000
1090.408, 984.0000
1091.506, 1003.000
1092.603, 1006.000
1093.701, 986.0000
1094.799, 959.0000
1095.896, 959.0000
1096.993, 938.0000
1098.090, 990.0000
1099.187, 965.0000
1100.284, 1027.000
1101.380, 1004.072
1102.477, 989.0000
1103.573, 976.0000
1104.669, 984.0000
1105.765, 981.0000
1106.860, 1001.000
1107.956, 932.0000
1109.051, 924.0000
1110.147, 949.0000
1111.242, 964.0000
1112.336, 957.5394
1113.431, 959.0000
1114.526, 954.0000
1115.620, 914.0000
1116.714, 915.0000
1117.809, 926.6655
1118.902, 958.0000
1119.996, 962.0000
1121.090, 944.0000
1122.183, 941.0000
1123.277, 924.0000
1124.370, 924.0000
1125.463, 869.0000
1126.555, 954.0000
1127.648, 881.0000
1128.740, 912.0000
1129.833, 927.0000
1130.925, 909.0000
1132.017, 948.0000
1133.109, 962.0000
1134.200, 885.0000
1135.292, 885.0000
1136.383, 913.0000
1137.474, 882.0000
1138.565, 934.0000
1139.656, 995.0000
1140.747, 903.0000
1141.837, 925.0000
1142.927, 906.0000
1144.018, 890.9010
1145.108, 902.2693
1146.197, 895.0000
1147.287, 900.0000
1148.377, 898.0000
1149.466, 878.7832
1150.555, 894.6635
1151.644, 883.0000
1152.733, 915.0000
1153.822, 921.0000
1154.910, 934.0000
1155.999, 913.0000
1157.087, 873.0000
1158.175, 887.0000
1159.263, 875.0000
1160.350, 936.0000
1161.438, 874.0000
1162.525, 899.0000
1163.613, 891.0000
1164.700, 819.0000
1165.787, 913.0000
1166.873, 825.0000
1167.960, 912.0000
1169.046, 846.0000
1170.133, 944.0000
1171.219, 913.0000
1172.305, 883.0000
1173.390, 793.0000
1174.476, 905.0000
1175.561, 837.0000
1176.647, 921.0000
1177.732, 796.0000
1178.817, 891.0000
1179.901, 908.0000
1180.986, 834.0000
1182.070, 862.0000
1183.155, 850.0000
1184.239, 865.0000
1185.323, 876.0000
1186.407, 837.0000
1187.490, 866.0000
1188.574, 825.0000
1189.657, 787.0000
1190.740, 810.0000
1191.823, 824.0000
1192.906, 793.0000
1193.988, 817.0000
1195.071, 809.0000
1196.153, 865.0000
1197.235, 816.0000
1198.317, 829.0000
1199.399, 815.0000
1200.481, 868.0000
1201.562, 829.0000
1202.644, 828.0000
1203.725, 765.0000
1204.806, 773.2609
1205.887, 818.0000
1206.967, 780.0000
1208.048, 798.0000
1209.128, 821.0000
1210.208, 794.0000
1211.289, 831.0000
1212.368, 804.0000
1213.448, 885.0000
1214.528, 780.0000
1215.607, 696.0000
1216.686, 858.0000
1217.765, 838.0000
1218.844, 820.0000
1219.923, 759.0000
1221.001, 776.0000
1222.080, 783.0000
1223.158, 752.0000
1224.236, 813.0000
1225.314, 820.0000
1226.392, 755.0000
1227.469, 753.0000
1228.547, 740.0000
1229.624, 719.9194
1230.701, 725.1866
1231.778, 719.0000
1232.855, 727.0000
1233.931, 731.6992
1235.008, 750.0000
1236.084, 747.0000
1237.160, 746.0000
1238.236, 753.5366
1239.312, 752.3793
1240.387, 770.0000
1241.463, 766.0000
1242.538, 773.0000
1243.613, 798.0000
1244.688, 764.0000
