##NAMES=Descloizite
##RRUFFID=R050037
##IDEAL CHEMISTRY=Pb^2+^Zn^2+^V^5+^O_4_(OH)
##LOCALITY=Berg Aukas mine, Namibia
##OWNER=RRUFF
##SOURCE=Eugene Schlepp
##DESCRIPTION=Group of brown thin tabular single crystals
##STATUS=The identification of this mineral has been confirmed by X-ray diffraction and chemical analysis
##URL=rruff.info/R050037
##MEASURED CHEMISTRY=Pb_1.00_(Zn_0.98_Cu_0.02_)_Σ=1_((V_0.98_As_0.02_)_Σ=1_O_4_)(OH) ; OH estimated by difference and stoichiometry
##PIN_ID=m00433
##ORIENTATION=Laser parallel to -a* (-1 0 0). Fiducial mark perpendicular to laser is parallel to b [0 1 0]
64.81000, 437.0000
66.04600, 472.0000
67.28200, 447.0000
68.51800, 522.0000
69.75400, 549.0000
70.98900, 598.0000
72.22500, 557.0000
73.46000, 607.0000
74.69500, 554.0000
75.93000, 548.0000
77.16500, 494.0000
78.40000, 651.0000
79.63400, 616.0000
80.86900, 734.0000
82.10300, 714.0000
83.33700, 717.0000
84.57100, 865.0000
85.80500, 918.0000
87.03800, 980.0000
88.27200, 1185.000
89.50500, 1400.000
90.73800, 1773.000
91.97100, 2169.000
93.20400, 2747.000
94.43700, 3522.000
95.67000, 4677.000
96.90200, 6384.000
98.13400, 8569.000
99.36600, 11373.00
100.5980, 15267.00
101.8300, 20494.00
103.0620, 28068.00
104.2930, 38113.00
105.5250, 50828.00
106.7560, 65231.00
107.9870, 78517.00
109.2180, 86641.00
110.4490, 86526.00
111.6790, 78775.00
112.9100, 65782.00
114.1400, 52218.00
115.3700, 41016.00
116.6000, 32254.00
117.8300, 26553.00
119.0600, 22114.00
120.2900, 18994.00
121.5190, 17513.00
122.7480, 16142.00
123.9770, 14367.00
125.2060, 13093.00
126.4350, 12353.00
127.6640, 12036.00
128.8920, 12034.00
130.1210, 12256.00
131.3490, 12645.00
132.5770, 13183.00
133.8050, 13562.00
135.0330, 14389.00
136.2600, 15046.00
137.4880, 15562.00
138.7150, 16185.00
139.9420, 16419.00
141.1690, 16768.00
142.3960, 16500.00
143.6230, 16329.00
144.8490, 15842.00
146.0760, 15264.00
147.3020, 14643.00
148.5280, 13700.00
149.7540, 13041.00
150.9800, 12052.00
152.2050, 11379.00
153.4310, 10494.00
154.6560, 9841.000
155.8810, 9255.000
157.1060, 8839.000
158.3310, 8229.000
159.5560, 7928.000
160.7800, 7625.000
162.0050, 7196.000
163.2290, 6988.000
164.4530, 6792.000
165.6770, 6514.000
166.9010, 6291.000
168.1250, 6115.000
169.3480, 5951.318
170.5720, 5807.283
171.7950, 5716.000
173.0180, 5616.000
174.2410, 5512.000
175.4640, 5521.000
176.6860, 5524.128
177.9090, 5639.000
179.1310, 5663.000
180.3530, 5697.000
181.5750, 5817.000
182.7970, 6065.000
184.0190, 6343.000
185.2400, 6506.000
186.4620, 6824.000
187.6830, 6982.000
188.9040, 6996.000
190.1250, 6852.000
191.3460, 6623.000
192.5660, 6149.000
193.7870, 5675.000
195.0070, 5313.000
196.2270, 4980.000
197.4470, 4715.000
198.6670, 4695.000
199.8870, 4569.000
201.1060, 4406.000
202.3260, 4390.000
203.5450, 4329.000
204.7640, 4225.000
205.9830, 4197.000
207.2020, 4176.954
208.4200, 4090.000
209.6390, 4166.000
210.8570, 4190.000
212.0750, 4144.000
213.2940, 4164.000
214.5110, 4100.000
215.7290, 4159.000
216.9470, 4088.000
218.1640, 4081.000
219.3810, 4103.000
220.5990, 4047.000
221.8150, 4083.000
223.0320, 4051.000
224.2490, 4026.000
225.4650, 4005.000
226.6820, 3908.000
227.8980, 3891.000
229.1140, 3855.000
230.3300, 3912.000
231.5460, 3887.000
232.7610, 3852.000
233.9770, 3797.000
235.1920, 3848.858
236.4070, 3817.000
237.6220, 3932.000
238.8370, 3932.000
240.0520, 3924.000
241.2660, 3915.000
242.4810, 3889.000
243.6950, 4031.000
244.9090, 4070.000
246.1230, 4112.000
247.3370, 4105.000
248.5500, 4041.000
249.7640, 4018.000
250.9770, 4181.000
252.1900, 4205.000
253.4030, 4315.000
254.6160, 4280.000
255.8290, 4341.000
257.0410, 4435.000
258.2530, 4480.000
259.4660, 4503.000
260.6780, 4678.000
261.8900, 4642.000
263.1010, 4770.000
264.3130, 4874.000
265.5250, 5032.000
266.7360, 5097.000
267.9470, 5287.000
269.1580, 5444.000
270.3690, 5497.000
271.5800, 5805.000
272.7900, 5969.000
274.0010, 6146.000
275.2110, 6429.000
276.4210, 6754.000
277.6310, 6959.000
278.8410, 7285.000
280.0500, 7824.000
281.2600, 8426.000
282.4690, 8853.000
283.6780, 9387.000
284.8870, 10194.00
286.0960, 10933.00
287.3050, 11896.00
288.5130, 13075.00
289.7220, 14293.00
290.9300, 15837.00
292.1380, 17671.91
293.3460, 20181.00
294.5540, 22046.00
295.7610, 24882.00
296.9690, 27737.00
298.1760, 30450.00
299.3830, 32909.00
300.5900, 34742.00
301.7970, 35403.00
303.0040, 35027.00
304.2100, 33889.00
305.4170, 31849.00
306.6230, 29754.00
307.8290, 27357.00
309.0350, 25343.00
310.2410, 23773.00
311.4460, 22815.00
312.6520, 22168.00
313.8570, 21730.00
315.0620, 22171.00
316.2670, 22373.00
317.4720, 23171.00
318.6770, 24012.00
319.8810, 24900.00
321.0860, 25238.00
322.2900, 25656.00
323.4940, 25545.00
324.6980, 25247.00
325.9020, 24913.00
327.1050, 24482.00
328.3090, 24157.00
329.5120, 24303.00
330.7150, 24944.00
331.9180, 26004.00
333.1210, 27751.00
334.3240, 29945.00
335.5260, 32904.00
336.7290, 36249.00
337.9310, 39505.00
339.1330, 42631.00
340.3350, 45394.00
341.5370, 47101.00
342.7380, 47524.00
343.9400, 46367.00
345.1410, 43803.00
346.3420, 40334.00
347.5430, 36523.00
348.7440, 32670.00
349.9450, 28875.00
351.1450, 25768.00
352.3460, 22777.00
353.5460, 20386.00
354.7460, 18405.00
355.9460, 16894.00
357.1460, 15487.00
358.3450, 14366.00
359.5450, 13421.00
360.7440, 12534.00
361.9430, 11945.00
363.1420, 11445.00
364.3410, 10964.00
365.5400, 10546.00
366.7380, 10096.00
367.9370, 9838.000
369.1350, 9581.000
370.3330, 9271.000
371.5310, 9319.000
372.7280, 9285.000
373.9260, 9071.000
375.1230, 9144.000
376.3210, 9074.000
377.5180, 9138.000
378.7150, 9472.000
379.9120, 9879.000
381.1080, 10194.00
382.3050, 10771.00
383.5010, 11142.00
384.6970, 11477.00
385.8930, 11563.00
387.0890, 11252.00
388.2850, 10896.00
389.4810, 10080.00
390.6760, 9188.000
391.8710, 8339.000
393.0660, 7450.000
394.2610, 6797.000
395.4560, 6097.000
396.6510, 5742.000
397.8450, 5266.000
399.0400, 5016.000
400.2340, 4662.000
401.4280, 4482.000
402.6220, 4260.000
403.8150, 4084.000
405.0090, 4086.000
406.2020, 4053.000
407.3960, 3981.541
408.5890, 3906.000
409.7820, 3932.000
410.9740, 3929.000
412.1670, 3948.000
413.3600, 4017.000
414.5520, 4130.000
415.7440, 4223.000
416.9360, 4364.000
418.1280, 4540.000
419.3200, 4875.000
420.5110, 5066.000
421.7020, 5514.000
422.8940, 5813.000
424.0850, 6402.000
425.2760, 6944.000
426.4660, 7631.000
427.6570, 8557.000
428.8470, 9472.000
430.0380, 10552.00
431.2280, 11709.00
432.4180, 12687.00
433.6080, 13395.00
434.7970, 13772.00
435.9870, 13850.00
437.1760, 12946.00
438.3650, 11957.00
439.5540, 10707.00
440.7430, 9368.000
441.9320, 8290.000
443.1210, 7239.000
444.3090, 6453.000
445.4970, 5737.000
446.6850, 5227.000
447.8730, 4692.000
449.0610, 4484.000
450.2490, 4094.000
451.4360, 3998.000
452.6240, 3757.000
453.8110, 3529.000
454.9980, 3399.000
456.1850, 3403.000
457.3710, 3267.000
458.5580, 3154.000
459.7440, 3070.000
460.9310, 2982.161
462.1170, 2969.000
463.3030, 2875.000
464.4880, 2836.000
465.6740, 2839.000
466.8590, 2727.000
468.0450, 2644.000
469.2300, 2701.000
470.4150, 2673.000
471.6000, 2576.000
472.7840, 2525.000
473.9690, 2511.000
475.1530, 2464.000
476.3370, 2442.000
477.5210, 2346.000
478.7050, 2405.000
479.8890, 2287.000
481.0730, 2291.000
482.2560, 2197.000
483.4390, 2219.000
484.6220, 2281.000
485.8050, 2282.000
486.9880, 2291.000
488.1710, 2180.000
489.3530, 2214.000
490.5360, 2174.000
491.7180, 2139.000
492.9000, 2111.000
494.0820, 2100.281
495.2630, 2077.000
496.4450, 2090.000
497.6260, 2118.000
498.8080, 2108.000
499.9890, 2067.000
501.1700, 2046.000
502.3500, 2096.000
503.5310, 2062.000
504.7110, 2085.000
505.8920, 2136.000
507.0720, 2067.000
508.2520, 2114.000
509.4320, 2089.000
510.6110, 2058.000
511.7910, 2062.000
512.9700, 2098.000
514.1490, 1997.000
515.3280, 2062.000
516.5070, 2022.000
517.6860, 2076.000
518.8650, 2000.000
520.0430, 2083.000
521.2210, 2020.000
522.3990, 2077.000
523.5770, 1982.000
524.7550, 2021.000
525.9330, 2024.000
527.1100, 1984.000
528.2870, 2025.000
529.4650, 2059.000
530.6420, 1977.000
531.8180, 2013.000
532.9950, 2052.000
534.1720, 2034.000
535.3480, 2073.000
536.5240, 2019.000
537.7000, 2106.000
538.8760, 2048.000
540.0520, 1970.000
541.2270, 1957.000
542.4030, 2052.000
543.5780, 2039.000
544.7530, 2051.000
545.9280, 2043.000
547.1030, 1938.000
548.2780, 2077.000
549.4520, 2016.000
550.6260, 1999.000
551.8010, 2090.000
552.9750, 2064.000
554.1480, 2105.000
555.3220, 2051.000
556.4960, 2012.000
557.6690, 1977.000
558.8420, 1999.000
560.0150, 2046.000
561.1880, 2080.000
562.3610, 2071.707
563.5340, 1999.000
564.7060, 2038.000
565.8780, 2010.000
567.0500, 1970.000
568.2220, 2018.000
569.3940, 1992.000
570.5660, 1972.000
571.7370, 1967.000
572.9090, 1975.000
574.0800, 1967.000
575.2510, 1970.388
576.4220, 1912.000
577.5920, 1972.000
578.7630, 1949.000
579.9330, 1946.000
581.1040, 1835.000
582.2740, 1852.000
583.4440, 1875.000
584.6130, 1893.000
585.7830, 1890.000
586.9520, 1910.000
588.1220, 1873.000
589.2910, 1939.000
590.4600, 1888.000
591.6290, 1936.000
592.7970, 1877.000
593.9660, 1863.000
595.1340, 1909.000
596.3020, 1927.000
597.4700, 1914.000
598.6380, 1875.000
599.8060, 1880.000
600.9730, 1914.000
602.1410, 1951.000
603.3080, 1967.000
604.4750, 1872.000
605.6420, 1883.000
606.8090, 1797.000
607.9750, 1850.000
609.1420, 1900.000
610.3080, 1917.000
611.4740, 1963.000
612.6400, 1859.000
613.8060, 1862.000
614.9720, 1884.000
616.1370, 1838.000
617.3020, 1870.000
618.4680, 1923.000
619.6330, 1885.000
620.7970, 1918.000
621.9620, 1884.000
623.1270, 1867.000
624.2910, 1958.000
625.4550, 1947.000
626.6190, 1883.000
627.7830, 1985.000
628.9470, 2043.000
630.1110, 1867.000
631.2740, 1945.000
632.4370, 1930.000
633.6000, 1918.000
634.7630, 2024.000
635.9260, 2049.000
637.0890, 2082.000
638.2510, 2033.000
639.4140, 2058.000
640.5760, 2114.000
641.7380, 2092.000
642.9000, 2100.000
644.0610, 2141.000
645.2230, 2133.000
646.3840, 2188.000
647.5460, 2174.846
648.7070, 2119.000
649.8670, 2154.000
651.0280, 2157.000
652.1890, 2132.000
653.3490, 2233.000
654.5090, 2234.000
655.6700, 2181.000
656.8300, 2224.000
657.9890, 2247.000
659.1490, 2182.000
660.3080, 2173.000
661.4680, 2295.000
662.6270, 2256.000
663.7860, 2304.000
664.9450, 2296.000
666.1030, 2338.000
667.2620, 2349.624
668.4200, 2362.160
669.5790, 2380.000
670.7370, 2376.000
671.8940, 2395.000
673.0520, 2410.971
674.2100, 2421.000
675.3670, 2464.000
676.5240, 2477.000
677.6810, 2532.000
678.8380, 2589.000
679.9950, 2682.000
681.1520, 2702.000
682.3080, 2705.000
683.4650, 2845.000
684.6210, 2782.000
685.7770, 2876.000
686.9320, 2940.000
688.0880, 2995.000
689.2440, 3047.000
690.3990, 3179.000
691.5540, 3240.000
692.7090, 3352.000
693.8640, 3507.000
695.0190, 3460.000
696.1730, 3659.000
697.3280, 3701.000
698.4820, 4010.000
699.6360, 3980.000
700.7900, 4283.000
701.9440, 4398.000
703.0970, 4381.000
704.2510, 4485.000
705.4040, 4678.000
706.5570, 4703.000
707.7100, 4716.000
708.8630, 4941.000
710.0150, 4837.000
711.1680, 4894.000
712.3200, 4869.000
713.4720, 4787.000
714.6240, 4840.000
715.7760, 4624.000
716.9280, 4626.000
718.0790, 4532.000
719.2310, 4480.000
720.3820, 4459.000
721.5330, 4510.000
722.6840, 4387.000
723.8350, 4415.000
724.9850, 4412.000
726.1360, 4352.000
727.2860, 4380.000
728.4360, 4500.000
729.5860, 4564.000
730.7360, 4530.000
731.8850, 4539.000
733.0350, 4587.000
734.1840, 4633.476
735.3330, 4696.000
736.4820, 4803.000
737.6310, 4916.000
738.7800, 5024.000
739.9280, 5146.000
741.0760, 5282.000
742.2250, 5389.000
743.3730, 5484.000
744.5200, 5683.000
745.6680, 5792.000
746.8160, 6015.000
747.9630, 6356.000
749.1100, 6534.000
750.2570, 6771.000
751.4040, 7113.000
752.5510, 7514.000
753.6980, 7884.000
754.8440, 8290.000
755.9900, 8874.000
757.1360, 9499.000
758.2820, 10291.00
759.4280, 10957.00
760.5740, 11818.00
761.7190, 12802.00
762.8640, 14399.00
764.0100, 15926.00
765.1550, 17724.00
766.2990, 20181.00
767.4440, 23035.00
768.5890, 26304.00
769.7330, 30475.00
770.8770, 35336.00
772.0210, 41074.00
773.1650, 47182.00
774.3090, 53880.00
775.4520, 59500.00
776.5960, 64338.00
777.7390, 66690.00
778.8820, 65970.00
780.0250, 62849.00
781.1670, 57700.00
782.3100, 51421.00
783.4520, 45414.00
784.5950, 39512.00
785.7370, 34817.00
786.8790, 30519.00
788.0210, 27366.00
789.1620, 24481.00
790.3040, 22198.00
791.4450, 20352.00
792.5860, 18977.00
793.7270, 17668.00
794.8680, 16559.00
796.0090, 15957.00
797.1490, 15072.00
798.2890, 14782.00
799.4300, 14256.00
800.5700, 13978.00
801.7090, 13442.00
802.8490, 13198.00
803.9890, 13149.00
805.1280, 13033.00
806.2670, 13229.00
807.4060, 13403.00
808.5450, 13842.00
809.6840, 14427.00
810.8230, 15532.00
811.9610, 16499.00
813.0990, 18353.00
814.2370, 20348.00
815.3750, 23008.00
816.5130, 25923.00
817.6510, 28827.00
818.7880, 30721.00
819.9250, 30913.00
821.0630, 29813.00
822.1990, 28184.00
823.3360, 26560.00
824.4730, 25386.00
825.6090, 25180.00
826.7460, 25622.00
827.8820, 25946.00
829.0180, 26953.00
830.1540, 28511.00
831.2890, 30586.00
832.4250, 33469.00
833.5600, 37114.00
834.6960, 41982.00
835.8310, 48542.00
836.9660, 57177.00
838.1000, 67919.00
839.2350, 81249.00
840.3690, 98756.00
841.5030, 120692.0
842.6380, 148773.0
843.7710, 181066.0
844.9050, 216284.0
846.0390, 244508.0
847.1720, 259036.0
848.3060, 250108.0
849.4390, 219053.0
850.5720, 178936.0
851.7040, 137973.0
852.8370, 105475.0
853.9700, 80412.00
855.1020, 62725.00
856.2340, 50087.00
857.3660, 40501.00
858.4980, 33929.00
859.6300, 28752.00
860.7610, 24933.00
861.8920, 22039.00
863.0240, 19792.00
864.1550, 17965.00
865.2850, 16364.00
866.4160, 15084.00
867.5470, 13837.00
868.6770, 12938.00
869.8070, 12012.00
870.9370, 11479.00
872.0670, 10853.00
873.1970, 10350.00
874.3270, 10095.00
875.4560, 9807.000
876.5850, 9608.000
877.7140, 9288.000
878.8430, 9218.000
879.9720, 8952.000
881.1010, 8806.000
882.2290, 8588.463
883.3570, 8208.000
884.4860, 8075.000
885.6140, 7893.000
886.7410, 7536.000
887.8690, 7480.000
888.9960, 7317.000
890.1240, 7174.000
891.2510, 7186.000
892.3780, 7116.000
893.5050, 7252.000
894.6320, 7245.000
895.7580, 7235.000
896.8840, 7232.000
898.0110, 7075.000
899.1370, 6881.000
900.2620, 6761.000
901.3880, 6563.000
902.5140, 6251.000
903.6390, 6059.000
904.7640, 5803.000
905.8890, 5674.000
907.0140, 5365.000
908.1390, 5172.000
909.2640, 4931.000
910.3880, 4648.000
911.5120, 4581.000
912.6360, 4458.000
913.7600, 4263.000
914.8840, 4107.000
916.0080, 4020.000
917.1310, 3896.444
918.2550, 3815.000
919.3780, 3747.000
920.5010, 3704.000
921.6230, 3659.000
922.7460, 3529.000
923.8690, 3648.000
924.9910, 3493.000
926.1130, 3534.000
927.2350, 3462.000
928.3570, 3471.000
929.4790, 3473.000
930.6000, 3297.000
931.7220, 3237.000
932.8430, 3160.000
933.9640, 3083.900
935.0850, 3047.619
936.2050, 3021.000
937.3260, 2989.000
938.4460, 3020.000
939.5660, 3027.000
940.6870, 2920.000
941.8060, 2901.000
942.9260, 2806.000
944.0460, 2728.000
945.1650, 2773.000
946.2840, 2738.000
947.4040, 2656.000
948.5220, 2673.000
949.6410, 2618.000
950.7600, 2532.000
951.8780, 2527.000
952.9970, 2583.000
954.1150, 2535.000
955.2330, 2519.000
956.3500, 2438.000
957.4680, 2415.000
958.5860, 2443.000
959.7030, 2499.000
960.8200, 2401.000
961.9370, 2428.000
963.0540, 2430.000
964.1710, 2325.000
965.2870, 2436.000
966.4030, 2339.000
967.5200, 2347.000
968.6360, 2266.000
969.7510, 2306.000
970.8670, 2277.000
971.9830, 2285.000
973.0980, 2279.000
974.2130, 2277.995
975.3280, 2309.000
976.4430, 2292.000
977.5580, 2311.253
978.6730, 2328.000
979.7870, 2307.000
980.9010, 2224.000
982.0150, 2200.000
983.1290, 2188.000
984.2430, 2226.000
985.3560, 2285.000
986.4700, 2169.000
987.5830, 2309.000
988.6960, 2233.000
989.8090, 2158.000
990.9220, 2244.000
992.0350, 2194.000
993.1470, 2221.000
994.2590, 2233.000
995.3720, 2233.000
996.4830, 2274.000
997.5950, 2239.000
998.7070, 2215.000
999.8180, 2249.000
1000.930, 2271.000
1002.041, 2186.000
1003.152, 2179.000
1004.263, 2279.000
1005.373, 2239.000
1006.484, 2160.000
1007.594, 2229.000
1008.704, 2217.000
1009.815, 2180.000
1010.924, 2228.000
1012.034, 2229.000
1013.144, 2257.000
1014.253, 2245.000
1015.362, 2258.000
1016.471, 2257.000
1017.580, 2344.000
1018.689, 2218.000
1019.797, 2279.000
1020.906, 2365.000
1022.014, 2248.000
1023.122, 2256.000
1024.230, 2313.000
1025.338, 2266.000
1026.445, 2260.000
1027.553, 2348.000
1028.660, 2343.000
1029.767, 2325.000
1030.874, 2255.000
1031.981, 2321.000
1033.088, 2300.000
1034.194, 2278.000
1035.300, 2274.000
1036.406, 2298.000
1037.512, 2310.000
1038.618, 2287.000
1039.724, 2178.000
1040.829, 2267.000
1041.935, 2369.000
1043.040, 2233.000
1044.145, 2257.000
1045.250, 2251.000
1046.354, 2242.000
1047.459, 2247.000
1048.563, 2221.000
1049.667, 2229.425
1050.771, 2265.000
1051.875, 2233.000
1052.979, 2263.000
1054.082, 2266.000
1055.186, 2332.000
1056.289, 2284.000
1057.392, 2335.000
1058.495, 2279.000
1059.598, 2220.000
1060.700, 2197.000
1061.803, 2297.000
1062.905, 2198.000
1064.007, 2232.000
1065.109, 2171.000
1066.210, 2240.000
1067.312, 2206.000
1068.413, 2233.000
1069.515, 2153.000
1070.616, 2157.000
1071.717, 2183.000
1072.817, 2166.000
1073.918, 2163.000
1075.019, 2131.000
1076.119, 2210.000
1077.219, 2110.000
1078.319, 2172.000
1079.419, 2170.000
1080.518, 2111.000
1081.618, 2139.000
1082.717, 2097.000
1083.816, 2146.000
1084.915, 2077.000
1086.014, 2106.000
1087.113, 2105.536
1088.211, 2199.000
1089.309, 2133.000
1090.408, 2132.000
1091.506, 2182.000
1092.603, 2137.000
1093.701, 2130.000
1094.799, 2110.000
1095.896, 2121.000
1096.993, 2024.000
1098.090, 2204.000
1099.187, 2163.000
1100.284, 2148.000
1101.380, 2045.000
1102.477, 2135.000
1103.573, 2093.000
1104.669, 2053.000
1105.765, 2088.000
1106.860, 2086.000
1107.956, 2124.000
1109.051, 2114.000
1110.147, 2069.000
1111.242, 2071.000
1112.336, 2034.000
1113.431, 2095.000
1114.526, 2061.000
1115.620, 2000.000
1116.714, 2120.000
1117.809, 2026.000
1118.902, 2109.000
1119.996, 2092.000
1121.090, 2048.000
1122.183, 2103.000
1123.277, 2042.000
1124.370, 2044.000
1125.463, 2104.000
1126.555, 2083.000
1127.648, 2017.000
1128.740, 2175.000
1129.833, 2006.000
1130.925, 2114.000
1132.017, 2094.000
1133.109, 2155.000
1134.200, 2112.000
1135.292, 2015.000
1136.383, 2133.000
1137.474, 2073.000
1138.565, 2076.000
1139.656, 2107.000
1140.747, 2093.000
1141.837, 2125.000
1142.927, 2131.000
1144.018, 2141.000
1145.108, 2148.405
1146.197, 2149.755
1147.287, 2152.000
1148.377, 2143.000
1149.466, 2150.000
1150.555, 2130.000
1151.644, 2116.944
1152.733, 2083.000
1153.822, 2076.000
1154.910, 2058.209
1155.999, 2037.000
1157.087, 2060.000
1158.175, 2070.000
1159.263, 2080.000
1160.350, 2069.000
1161.438, 2002.000
1162.525, 1981.000
1163.613, 2042.000
1164.700, 1964.000
1165.787, 2034.000
1166.873, 1978.000
1167.960, 1947.000
1169.046, 1952.000
1170.133, 2016.000
1171.219, 1970.000
1172.305, 1986.000
1173.390, 1933.000
1174.476, 2022.000
1175.561, 1940.000
1176.647, 2027.000
1177.732, 2002.000
1178.817, 2002.000
1179.901, 2048.000
1180.986, 2069.000
1182.070, 2012.000
1183.155, 2094.000
1184.239, 2029.000
1185.323, 2026.000
1186.407, 2081.000
1187.490, 2044.000
1188.574, 2037.000
1189.657, 2035.000
1190.740, 1988.000
1191.823, 2032.000
1192.906, 1939.000
1193.988, 2046.000
1195.071, 1992.000
1196.153, 1994.000
1197.235, 1944.000
1198.317, 2034.000
1199.399, 1962.000
1200.481, 2037.000
1201.562, 2021.000
1202.644, 2006.000
1203.725, 1960.000
1204.806, 2011.000
1205.887, 1987.000
1206.967, 1995.000
1208.048, 1922.000
1209.128, 1967.000
1210.208, 1939.498
1211.289, 1975.000
1212.368, 1940.000
1213.448, 1946.000
1214.528, 1970.000
1215.607, 1945.528
1216.686, 1962.000
1217.765, 1931.000
1218.844, 1948.000
1219.923, 1946.000
1221.001, 1883.000
1222.080, 1888.000
1223.158, 1893.000
1224.236, 1885.000
1225.314, 1904.000
1226.392, 1891.160
1227.469, 1901.757
1228.547, 1877.000
1229.624, 1905.000
1230.701, 1904.000
1231.778, 1883.000
1232.855, 1907.000
1233.931, 1908.000
1235.008, 1905.000
1236.084, 1924.439
1237.160, 1924.000
1238.236, 1924.000
1239.312, 1892.000
1240.387, 1833.000
1241.463, 1884.000
1242.538, 1852.000
1243.613, 1863.000
1244.688, 1877.000
