##NAMES=Descloizite
##RRUFFID=R050037
##IDEAL CHEMISTRY=Pb^2+^Zn^2+^V^5+^O_4_(OH)
##LOCALITY=Berg Aukas mine, Namibia
##OWNER=RRUFF
##SOURCE=Eugene Schlepp
##DESCRIPTION=Group of brown thin tabular single crystals
##STATUS=The identification of this mineral has been confirmed by X-ray diffraction and chemical analysis
##URL=rruff.info/R050037
##MEASURED CHEMISTRY=Pb_1.00_(Zn_0.98_Cu_0.02_)_Σ=1_((V_0.98_As_0.02_)_Σ=1_O_4_)(OH) ; OH estimated by difference and stoichiometry
##PIN_ID=m00197
##ORIENTATION=Laser parallel to c* (0 0 1). Fiducial mark perpendicular to laser is parallel to -a [-1 0 0]
64.81000, 171.0000
66.04600, 187.0000
67.28200, 165.0000
68.51800, 248.0000
69.75400, 264.0000
70.98900, 256.0000
72.22500, 204.0000
73.46000, 264.0000
74.69500, 192.0000
75.93000, 205.0000
77.16500, 183.0000
78.40000, 255.0000
79.63400, 285.0000
80.86900, 277.0000
82.10300, 302.0000
83.33700, 330.0000
84.57100, 420.0000
85.80500, 460.0000
87.03800, 534.0000
88.27200, 695.0000
89.50500, 804.0000
90.73800, 981.0000
91.97100, 1257.000
93.20400, 1612.000
94.43700, 2054.000
95.67000, 2804.000
96.90200, 3545.000
98.13400, 4753.000
99.36600, 6194.000
100.5980, 7929.000
101.8300, 10064.00
103.0620, 12558.00
104.2930, 15637.00
105.5250, 18708.00
106.7560, 21895.00
107.9870, 24649.00
109.2180, 26456.00
110.4490, 26550.00
111.6790, 24777.00
112.9100, 21663.00
114.1400, 17913.00
115.3700, 14500.00
116.6000, 11938.00
117.8300, 10644.00
119.0600, 9508.000
120.2900, 9130.000
121.5190, 9122.000
122.7480, 9764.000
123.9770, 9941.000
125.2060, 10452.00
126.4350, 11167.00
127.6640, 12170.00
128.8920, 13535.00
130.1210, 15169.00
131.3490, 16970.00
132.5770, 19241.00
133.8050, 21319.00
135.0330, 23702.00
136.2600, 26123.00
137.4880, 28079.00
138.7150, 30157.00
139.9420, 31113.00
141.1690, 32174.00
142.3960, 32527.00
143.6230, 32122.00
144.8490, 31624.00
146.0760, 30055.00
147.3020, 27949.00
148.5280, 25962.00
149.7540, 23807.00
150.9800, 21661.00
152.2050, 19628.00
153.4310, 17706.00
154.6560, 15967.00
155.8810, 14627.00
157.1060, 13190.00
158.3310, 11942.00
159.5560, 11105.00
160.7800, 10170.00
162.0050, 9501.000
163.2290, 8907.000
164.4530, 8518.000
165.6770, 7977.000
166.9010, 7634.000
168.1250, 7308.000
169.3480, 6977.000
170.5720, 6615.000
171.7950, 6434.000
173.0180, 6368.000
174.2410, 6134.000
175.4640, 5913.000
176.6860, 5959.000
177.9090, 5883.000
179.1310, 5929.000
180.3530, 6052.333
181.5750, 6076.000
182.7970, 6393.000
184.0190, 6743.000
185.2400, 7004.000
186.4620, 7325.000
187.6830, 7925.000
188.9040, 8343.000
190.1250, 8636.000
191.3460, 8798.000
192.5660, 8605.000
193.7870, 8263.000
195.0070, 7662.000
196.2270, 7015.000
197.4470, 6419.000
198.6670, 6010.000
199.8870, 5583.000
201.1060, 5265.000
202.3260, 4912.000
203.5450, 4675.677
204.7640, 4575.000
205.9830, 4318.000
207.2020, 4211.000
208.4200, 4142.000
209.6390, 3866.000
210.8570, 3805.000
212.0750, 3679.000
213.2940, 3726.000
214.5110, 3580.000
215.7290, 3540.000
216.9470, 3446.000
218.1640, 3411.000
219.3810, 3244.000
220.5990, 3355.000
221.8150, 3236.000
223.0320, 3260.000
224.2490, 3306.000
225.4650, 3229.000
226.6820, 3217.000
227.8980, 3208.501
229.1140, 3199.000
230.3300, 3181.000
231.5460, 3150.000
232.7610, 3148.000
233.9770, 3125.000
235.1920, 3236.000
236.4070, 3237.000
237.6220, 3280.000
238.8370, 3270.000
240.0520, 3264.933
241.2660, 3270.871
242.4810, 3232.000
243.6950, 3265.000
244.9090, 3254.000
246.1230, 3272.000
247.3370, 3196.000
248.5500, 3224.000
249.7640, 3208.000
250.9770, 3183.000
252.1900, 3215.746
253.4030, 3263.000
254.6160, 3283.000
255.8290, 3318.344
257.0410, 3340.000
258.2530, 3393.000
259.4660, 3460.000
260.6780, 3538.000
261.8900, 3443.000
263.1010, 3608.000
264.3130, 3605.000
265.5250, 3673.000
266.7360, 3780.000
267.9470, 3895.000
269.1580, 3882.000
270.3690, 4025.000
271.5800, 4227.000
272.7900, 4356.000
274.0010, 4573.000
275.2110, 4754.000
276.4210, 5008.000
277.6310, 5111.000
278.8410, 5461.000
280.0500, 5831.000
281.2600, 6140.000
282.4690, 6588.000
283.6780, 7127.000
284.8870, 7627.000
286.0960, 8495.000
287.3050, 9482.000
288.5130, 10340.00
289.7220, 11645.00
290.9300, 13003.00
292.1380, 14810.00
293.3460, 16463.00
294.5540, 18654.00
295.7610, 20918.00
296.9690, 23156.00
298.1760, 25392.00
299.3830, 27513.00
300.5900, 29130.00
301.7970, 29875.00
303.0040, 29745.00
304.2100, 28688.00
305.4170, 26719.00
306.6230, 24416.00
307.8290, 21782.00
309.0350, 19074.00
310.2410, 16933.00
311.4460, 14688.00
312.6520, 13384.00
313.8570, 12012.00
315.0620, 11008.00
316.2670, 10444.00
317.4720, 9829.000
318.6770, 9562.000
319.8810, 9386.000
321.0860, 9275.000
322.2900, 9267.657
323.4940, 9296.000
324.6980, 9490.000
325.9020, 9637.000
327.1050, 9938.000
328.3090, 10384.00
329.5120, 10958.00
330.7150, 11576.00
331.9180, 12421.00
333.1210, 13259.00
334.3240, 14144.00
335.5260, 15474.00
336.7290, 16674.00
337.9310, 17697.00
339.1330, 18859.00
340.3350, 19561.00
341.5370, 20055.00
342.7380, 19745.00
343.9400, 19158.00
345.1410, 18447.00
346.3420, 16814.00
347.5430, 15476.00
348.7440, 14098.00
349.9450, 12876.00
351.1450, 11794.00
352.3460, 10768.00
353.5460, 10075.00
354.7460, 9614.000
355.9460, 9271.000
357.1460, 9171.000
358.3450, 8964.000
359.5450, 9070.000
360.7440, 8838.000
361.9430, 8864.000
363.1420, 8841.000
364.3410, 8633.000
365.5400, 8543.000
366.7380, 8562.000
367.9370, 8744.000
369.1350, 9106.744
370.3330, 9684.000
371.5310, 10351.00
372.7280, 11201.00
373.9260, 12363.00
375.1230, 13661.00
376.3210, 15442.00
377.5180, 17682.00
378.7150, 20245.00
379.9120, 23183.00
381.1080, 26457.00
382.3050, 29566.00
383.5010, 33429.00
384.6970, 36486.00
385.8930, 38721.00
387.0890, 39279.00
388.2850, 38251.00
389.4810, 35255.00
390.6760, 30901.00
391.8710, 26883.00
393.0660, 22351.00
394.2610, 18591.00
395.4560, 15417.00
396.6510, 12796.00
397.8450, 10695.00
399.0400, 8968.000
400.2340, 7683.000
401.4280, 6666.000
402.6220, 5828.000
403.8150, 5130.000
405.0090, 4621.000
406.2020, 4281.000
407.3960, 3900.000
408.5890, 3578.000
409.7820, 3326.000
410.9740, 3098.000
412.1670, 2902.135
413.3600, 2728.000
414.5520, 2628.000
415.7440, 2574.000
416.9360, 2529.000
418.1280, 2410.000
419.3200, 2379.000
420.5110, 2330.673
421.7020, 2254.000
422.8940, 2304.000
424.0850, 2268.000
425.2760, 2332.000
426.4660, 2349.000
427.6570, 2345.000
428.8470, 2424.000
430.0380, 2567.000
431.2280, 2710.000
432.4180, 2713.000
433.6080, 2871.000
434.7970, 2986.000
435.9870, 2899.000
437.1760, 2839.000
438.3650, 2752.000
439.5540, 2630.000
440.7430, 2521.413
441.9320, 2341.000
443.1210, 2255.000
444.3090, 2121.000
445.4970, 1988.000
446.6850, 1903.000
447.8730, 1888.000
449.0610, 1812.000
450.2490, 1768.000
451.4360, 1748.000
452.6240, 1718.000
453.8110, 1687.516
454.9980, 1661.489
456.1850, 1634.000
457.3710, 1601.000
458.5580, 1577.000
459.7440, 1542.000
460.9310, 1547.000
462.1170, 1483.000
463.3030, 1425.000
464.4880, 1432.000
465.6740, 1489.000
466.8590, 1455.000
468.0450, 1467.065
469.2300, 1451.000
470.4150, 1443.000
471.6000, 1421.000
472.7840, 1402.000
473.9690, 1352.000
475.1530, 1394.000
476.3370, 1359.000
477.5210, 1299.000
478.7050, 1315.000
479.8890, 1270.000
481.0730, 1308.000
482.2560, 1237.000
483.4390, 1253.000
484.6220, 1215.000
485.8050, 1290.000
486.9880, 1224.000
488.1710, 1278.000
489.3530, 1198.000
490.5360, 1174.000
491.7180, 1190.000
492.9000, 1165.000
494.0820, 1154.000
495.2630, 1124.000
496.4450, 1154.000
497.6260, 1162.000
498.8080, 1108.000
499.9890, 1150.000
501.1700, 1128.000
502.3500, 1158.000
503.5310, 1144.000
504.7110, 1092.000
505.8920, 1143.000
507.0720, 1139.000
508.2520, 1117.000
509.4320, 1131.000
510.6110, 1078.000
511.7910, 1114.000
512.9700, 1156.000
514.1490, 1095.000
515.3280, 1075.000
516.5070, 1166.000
517.6860, 1149.000
518.8650, 1142.000
520.0430, 1149.000
521.2210, 1070.000
522.3990, 1088.000
523.5770, 1061.000
524.7550, 1170.000
525.9330, 1058.000
527.1100, 1074.000
528.2870, 1004.000
529.4650, 1002.811
530.6420, 1095.000
531.8180, 1039.000
532.9950, 1028.000
534.1720, 1090.000
535.3480, 1098.000
536.5240, 1053.000
537.7000, 1023.000
538.8760, 1073.000
540.0520, 1053.000
541.2270, 1085.000
542.4030, 1102.000
543.5780, 1021.000
544.7530, 1075.000
545.9280, 1040.000
547.1030, 1032.000
548.2780, 1088.000
549.4520, 1024.000
550.6260, 979.0000
551.8010, 1050.000
552.9750, 1061.000
554.1480, 1089.000
555.3220, 1065.000
556.4960, 1037.000
557.6690, 1064.000
558.8420, 1026.000
560.0150, 1060.000
561.1880, 1054.000
562.3610, 1107.000
563.5340, 1046.000
564.7060, 1089.000
565.8780, 1056.000
567.0500, 1077.000
568.2220, 1062.000
569.3940, 1048.000
570.5660, 1082.000
571.7370, 1090.000
572.9090, 1059.000
574.0800, 1066.000
575.2510, 1107.000
576.4220, 1129.000
577.5920, 1092.000
578.7630, 1139.000
579.9330, 1093.000
581.1040, 1057.000
582.2740, 1090.000
583.4440, 1051.000
584.6130, 1056.000
585.7830, 1036.000
586.9520, 1028.336
588.1220, 1053.000
589.2910, 1031.000
590.4600, 1092.000
591.6290, 1121.000
592.7970, 1059.000
593.9660, 1025.000
595.1340, 1096.000
596.3020, 1063.000
597.4700, 1123.000
598.6380, 1045.000
599.8060, 1090.000
600.9730, 1120.000
602.1410, 1148.000
603.3080, 1086.000
604.4750, 1013.000
605.6420, 1086.000
606.8090, 1045.000
607.9750, 1074.000
609.1420, 1021.000
610.3080, 1052.174
611.4740, 1134.000
612.6400, 1106.000
613.8060, 1077.000
614.9720, 1110.000
616.1370, 1092.000
617.3020, 1107.000
618.4680, 1128.000
619.6330, 1147.000
620.7970, 1146.434
621.9620, 1100.000
623.1270, 1145.000
624.2910, 1132.000
625.4550, 1136.000
626.6190, 1034.000
627.7830, 1133.000
628.9470, 1241.000
630.1110, 1117.000
631.2740, 1119.000
632.4370, 1116.000
633.6000, 1154.000
634.7630, 1179.000
635.9260, 1196.000
637.0890, 1226.000
638.2510, 1202.000
639.4140, 1164.000
640.5760, 1259.000
641.7380, 1148.000
642.9000, 1265.000
644.0610, 1297.000
645.2230, 1226.000
646.3840, 1235.000
647.5460, 1243.000
648.7070, 1187.000
649.8670, 1232.000
651.0280, 1239.000
652.1890, 1247.000
653.3490, 1234.000
654.5090, 1314.000
655.6700, 1286.000
656.8300, 1300.000
657.9890, 1362.000
659.1490, 1371.000
660.3080, 1330.000
661.4680, 1454.000
662.6270, 1405.000
663.7860, 1435.385
664.9450, 1367.000
666.1030, 1450.000
667.2620, 1414.000
668.4200, 1408.000
669.5790, 1495.000
670.7370, 1454.000
671.8940, 1495.000
673.0520, 1474.000
674.2100, 1583.000
675.3670, 1626.000
676.5240, 1629.000
677.6810, 1669.000
678.8380, 1745.000
679.9950, 1846.000
681.1520, 1863.000
682.3080, 1895.000
683.4650, 2082.000
684.6210, 2130.000
685.7770, 2214.000
686.9320, 2391.000
688.0880, 2609.000
689.2440, 2692.000
690.3990, 2818.000
691.5540, 3073.000
692.7090, 3166.000
693.8640, 3420.000
695.0190, 3533.000
696.1730, 3726.000
697.3280, 3882.000
698.4820, 4087.000
699.6360, 4231.000
700.7900, 4356.000
701.9440, 4435.000
703.0970, 4538.000
704.2510, 4565.000
705.4040, 4570.000
706.5570, 4540.286
707.7100, 4555.000
708.8630, 4375.000
710.0150, 4331.000
711.1680, 4198.000
712.3200, 3820.000
713.4720, 3727.000
714.6240, 3536.000
715.7760, 3239.000
716.9280, 3105.000
718.0790, 2959.000
719.2310, 2863.000
720.3820, 2835.000
721.5330, 2740.000
722.6840, 2632.000
723.8350, 2528.000
724.9850, 2512.000
726.1360, 2496.000
727.2860, 2388.000
728.4360, 2427.000
729.5860, 2483.000
730.7360, 2455.000
731.8850, 2424.000
733.0350, 2500.000
734.1840, 2469.000
735.3330, 2530.000
736.4820, 2585.000
737.6310, 2718.000
738.7800, 2756.000
739.9280, 2807.000
741.0760, 2874.000
742.2250, 2979.734
743.3730, 3127.000
744.5200, 3220.000
745.6680, 3376.000
746.8160, 3487.000
747.9630, 3747.000
749.1100, 3992.000
750.2570, 4266.000
751.4040, 4498.000
752.5510, 4810.000
753.6980, 5180.000
754.8440, 5620.793
755.9900, 6126.355
757.1360, 6715.000
758.2820, 7369.000
759.4280, 8108.000
760.5740, 8971.000
761.7190, 9892.000
762.8640, 11329.00
764.0100, 12966.00
765.1550, 15184.00
766.2990, 17568.00
767.4440, 20538.00
768.5890, 23900.00
769.7330, 28611.00
770.8770, 33716.00
772.0210, 39319.00
773.1650, 45290.00
774.3090, 52146.00
775.4520, 57613.00
776.5960, 62951.00
777.7390, 65043.00
778.8820, 64692.00
780.0250, 61740.00
781.1670, 56496.00
782.3100, 49717.00
783.4520, 43747.00
784.5950, 37879.00
785.7370, 32770.00
786.8790, 28152.00
788.0210, 25064.00
789.1620, 22376.00
790.3040, 20158.00
791.4450, 18460.00
792.5860, 16788.00
793.7270, 15871.00
794.8680, 15075.00
796.0090, 14222.00
797.1490, 13702.00
798.2890, 13221.00
799.4300, 12936.00
800.5700, 12548.00
801.7090, 11993.00
802.8490, 12047.00
803.9890, 11802.00
805.1280, 11842.00
806.2670, 11806.00
807.4060, 11781.00
808.5450, 12145.00
809.6840, 12408.00
810.8230, 12816.00
811.9610, 13496.00
813.0990, 14209.00
814.2370, 15011.00
815.3750, 15918.00
816.5130, 16887.00
817.6510, 17984.00
818.7880, 18730.00
819.9250, 19466.00
821.0630, 20009.00
822.1990, 20399.00
823.3360, 21103.00
824.4730, 21887.00
825.6090, 22499.00
826.7460, 23369.00
827.8820, 24503.00
829.0180, 26077.00
830.1540, 27747.00
831.2890, 30167.00
832.4250, 32992.00
833.5600, 37118.00
834.6960, 42617.00
835.8310, 49785.00
836.9660, 59489.00
838.1000, 72327.00
839.2350, 89610.00
840.3690, 111255.0
841.5030, 139055.0
842.6380, 172474.0
843.7710, 210499.0
844.9050, 250877.0
846.0390, 288775.0
847.1720, 313737.0
848.3060, 318747.0
849.4390, 297130.0
850.5720, 255019.0
851.7040, 200576.0
852.8370, 151696.0
853.9700, 113480.0
855.1020, 85238.00
856.2340, 65845.00
857.3660, 51859.00
858.4980, 41872.00
859.6300, 34733.00
860.7610, 29541.00
861.8920, 25653.00
863.0240, 22371.00
864.1550, 19968.00
865.2850, 17821.00
866.4160, 16194.00
867.5470, 14779.00
868.6770, 13687.00
869.8070, 12457.00
870.9370, 11666.00
872.0670, 10858.00
873.1970, 10125.00
874.3270, 9545.000
875.4560, 9030.000
876.5850, 8673.000
877.7140, 8258.000
878.8430, 7735.000
879.9720, 7349.000
881.1010, 6947.000
882.2290, 6654.000
883.3570, 6337.000
884.4860, 6061.000
885.6140, 5862.710
886.7410, 5682.916
887.8690, 5547.000
888.9960, 5451.000
890.1240, 5378.000
891.2510, 5306.000
892.3780, 5295.000
893.5050, 5225.000
894.6320, 5100.000
895.7580, 5151.000
896.8840, 5005.000
898.0110, 4978.000
899.1370, 4851.000
900.2620, 4779.000
901.3880, 4615.000
902.5140, 4603.000
903.6390, 4323.000
904.7640, 4380.000
905.8890, 4304.000
907.0140, 3902.000
908.1390, 3913.000
909.2640, 3645.000
910.3880, 3373.000
911.5120, 3333.000
912.6360, 3233.000
913.7600, 3066.000
914.8840, 2979.000
916.0080, 2866.000
917.1310, 2719.000
918.2550, 2658.000
919.3780, 2623.000
920.5010, 2571.000
921.6230, 2447.000
922.7460, 2454.000
923.8690, 2305.000
924.9910, 2415.000
926.1130, 2270.000
927.2350, 2289.000
928.3570, 2171.000
929.4790, 2245.000
930.6000, 2047.000
931.7220, 2156.000
932.8430, 2070.000
933.9640, 2048.000
935.0850, 1997.000
936.2050, 1949.000
937.3260, 1941.000
938.4460, 1948.000
939.5660, 1916.000
940.6870, 1920.000
941.8060, 1961.000
942.9260, 1822.000
944.0460, 1829.000
945.1650, 1777.000
946.2840, 1843.000
947.4040, 1703.000
948.5220, 1621.000
949.6410, 1670.000
950.7600, 1639.000
951.8780, 1637.000
952.9970, 1573.000
954.1150, 1594.000
955.2330, 1634.000
956.3500, 1543.000
957.4680, 1523.000
958.5860, 1553.000
959.7030, 1520.000
960.8200, 1551.000
961.9370, 1533.000
963.0540, 1480.000
964.1710, 1442.000
965.2870, 1537.000
966.4030, 1452.000
967.5200, 1433.000
968.6360, 1367.000
969.7510, 1479.000
970.8670, 1367.000
971.9830, 1403.000
973.0980, 1377.000
974.2130, 1384.000
975.3280, 1384.000
976.4430, 1336.000
977.5580, 1290.000
978.6730, 1374.000
979.7870, 1356.000
980.9010, 1304.000
982.0150, 1298.000
983.1290, 1269.000
984.2430, 1247.000
985.3560, 1294.000
986.4700, 1268.000
987.5830, 1356.000
988.6960, 1296.000
989.8090, 1309.000
990.9220, 1367.000
992.0350, 1939.000
993.1470, 1400.000
994.2590, 1230.000
995.3720, 1252.000
996.4830, 1886.000
997.5950, 1486.870
998.7070, 1398.000
999.8180, 1225.000
1000.930, 1194.000
1002.041, 1207.000
1003.152, 1204.000
1004.263, 1246.000
1005.373, 1176.000
1006.484, 1191.000
1007.594, 1135.000
1008.704, 1187.000
1009.815, 1138.000
1010.924, 1171.000
1012.034, 1161.000
1013.144, 1232.000
1014.253, 1152.000
1015.362, 1192.000
1016.471, 1179.000
1017.580, 1237.000
1018.689, 1123.000
1019.797, 1131.000
1020.906, 1251.000
1022.014, 1146.000
1023.122, 1234.000
1024.230, 1193.000
1025.338, 1174.000
1026.445, 1153.000
1027.553, 1164.733
1028.660, 1259.000
1029.767, 1227.000
1030.874, 1198.000
1031.981, 1263.000
1033.088, 1227.000
1034.194, 1197.000
1035.300, 1288.000
1036.406, 1244.000
1037.512, 1294.000
1038.618, 1268.000
1039.724, 1222.000
1040.829, 1215.000
1041.935, 1304.000
1043.040, 1154.000
1044.145, 1306.000
1045.250, 1237.000
1046.354, 1302.000
1047.459, 1189.000
1048.563, 1198.000
1049.667, 1230.000
1050.771, 1259.000
1051.875, 1182.000
1052.979, 1224.000
1054.082, 1190.000
1055.186, 1254.000
1056.289, 1203.000
1057.392, 1235.000
1058.495, 1281.000
1059.598, 1149.000
1060.700, 1155.000
1061.803, 1229.000
1062.905, 1161.000
1064.007, 1221.000
1065.109, 1158.000
1066.210, 1180.000
1067.312, 1227.000
1068.413, 1188.000
1069.515, 1167.000
1070.616, 1147.000
1071.717, 1261.000
1072.817, 1272.000
1073.918, 1247.000
1075.019, 1093.000
1076.119, 1224.000
1077.219, 1183.000
1078.319, 1194.000
1079.419, 1210.000
1080.518, 1155.000
1081.618, 1168.186
1082.717, 1176.000
1083.816, 1159.000
1084.915, 1157.000
1086.014, 1184.000
1087.113, 1165.328
1088.211, 1193.000
1089.309, 1163.000
1090.408, 1176.000
1091.506, 1193.000
1092.603, 1181.000
1093.701, 1160.000
1094.799, 1150.000
1095.896, 1159.000
1096.993, 1137.000
1098.090, 1222.000
1099.187, 1151.000
1100.284, 1191.000
1101.380, 1049.000
1102.477, 1163.000
1103.573, 1155.000
1104.669, 1131.000
1105.765, 1139.000
1106.860, 1175.000
1107.956, 1108.000
1109.051, 1133.000
1110.147, 1120.000
1111.242, 1079.000
1112.336, 1043.000
1113.431, 1049.000
1114.526, 1067.000
1115.620, 1101.000
1116.714, 1047.000
1117.809, 1082.026
1118.902, 1073.000
1119.996, 1088.000
1121.090, 1086.000
1122.183, 1067.000
1123.277, 1049.000
1124.370, 1099.000
1125.463, 1040.000
1126.555, 1097.000
1127.648, 1055.000
1128.740, 1074.000
1129.833, 1101.000
1130.925, 1042.000
1132.017, 1059.000
1133.109, 1054.000
1134.200, 1090.000
1135.292, 1067.000
1136.383, 1116.000
1137.474, 1030.000
1138.565, 1104.000
1139.656, 1144.000
1140.747, 1067.000
1141.837, 1155.000
1142.927, 1099.000
1144.018, 1158.000
1145.108, 1124.000
1146.197, 1090.000
1147.287, 1131.000
1148.377, 1064.000
1149.466, 1142.000
1150.555, 1143.000
1151.644, 1104.000
1152.733, 1090.000
1153.822, 1068.000
1154.910, 1143.000
1155.999, 1077.000
1157.087, 1090.000
1158.175, 991.0000
1159.263, 1054.000
1160.350, 1053.000
1161.438, 1013.000
1162.525, 1003.000
1163.613, 1014.000
1164.700, 997.0000
1165.787, 994.0421
1166.873, 952.0000
1167.960, 992.0000
1169.046, 993.0000
1170.133, 1023.000
1171.219, 968.0000
1172.305, 1007.000
1173.390, 925.0000
1174.476, 1014.000
1175.561, 959.0000
1176.647, 1030.000
1177.732, 1037.412
1178.817, 955.0000
1179.901, 1053.000
1180.986, 1002.000
1182.070, 978.0000
1183.155, 967.0000
1184.239, 919.0000
1185.323, 994.0000
1186.407, 1005.000
1187.490, 961.0000
1188.574, 979.0000
1189.657, 949.0000
1190.740, 934.0000
1191.823, 904.0000
1192.906, 907.0000
1193.988, 903.5695
1195.071, 905.0000
1196.153, 927.0000
1197.235, 907.0000
1198.317, 936.0000
1199.399, 964.0000
1200.481, 991.0000
1201.562, 921.0000
1202.644, 897.0000
1203.725, 868.0000
1204.806, 862.0000
1205.887, 916.0000
1206.967, 905.0000
1208.048, 910.0000
1209.128, 869.0000
1210.208, 891.0000
1211.289, 936.0000
1212.368, 875.0000
1213.448, 891.0000
1214.528, 890.0000
1215.607, 796.0000
1216.686, 839.0000
1217.765, 856.0000
1218.844, 838.0000
1219.923, 857.0000
1221.001, 897.0000
1222.080, 832.0000
1223.158, 827.0000
1224.236, 853.0000
1225.314, 860.0000
1226.392, 846.0000
1227.469, 797.0000
1228.547, 839.0000
1229.624, 791.0000
1230.701, 828.0000
1231.778, 767.0000
1232.855, 786.0000
1233.931, 771.0000
1235.008, 768.0000
1236.084, 738.0000
1237.160, 746.0000
1238.236, 756.3268
1239.312, 792.0000
1240.387, 785.0000
1241.463, 794.0000
1242.538, 781.0000
1243.613, 722.0000
1244.688, 816.0000
