##NAMES=Diaspore
##RRUFFID=R060287
##IDEAL CHEMISTRY=AlO(OH)
##LOCALITY=Selcuk, Mugla Province, Turkey
##OWNER=RRUFF
##SOURCE=Herb Obodda
##DESCRIPTION=Colorless transparent platy fragment
##STATUS=The identification of this mineral has been confirmed by X-ray diffraction and chemical analysis
##URL=rruff.info/R060287
##MEASURED CHEMISTRY=(Al_0.99_Fe^3+^_0.01_)_Î£=1_O(OH) ; trace amounts of Ti;  OH estimated by difference ; Fe^3+^ by charge balance
##PIN_ID=L01505
##ORIENTATION=Laser parallel to b* (0 1 0). Fiducial mark perpendicular to laser is parallel to c [0 0 1]
168.4860, 10823.00
169.7110, 11177.00
170.9360, 10939.00
172.1610, 10951.00
173.3850, 11181.00
174.6100, 11051.00
175.8340, 11293.00
177.0580, 11269.00
178.2820, 11045.00
179.5050, 11264.00
180.7290, 11087.00
181.9520, 11258.00
183.1760, 11278.00
184.3990, 11151.00
185.6220, 11433.00
186.8450, 11344.00
188.0670, 11239.00
189.2900, 11509.00
190.5120, 11277.00
191.7340, 11455.00
192.9560, 11468.00
194.1780, 11275.00
195.4000, 11485.00
196.6220, 11322.00
197.8430, 11272.00
199.0640, 11678.00
200.2860, 11395.00
201.5070, 11615.00
202.7270, 11758.00
203.9480, 11326.00
205.1690, 11583.00
206.3890, 11475.00
207.6090, 11356.00
208.8290, 11499.00
210.0490, 11382.00
211.2690, 11476.00
212.4890, 11596.00
213.7080, 11292.00
214.9280, 11823.00
216.1470, 11527.00
217.3660, 11503.00
218.5850, 11683.00
219.8030, 11311.00
221.0220, 11685.00
222.2400, 11614.00
223.4590, 11318.00
224.6770, 11659.00
225.8950, 11508.00
227.1120, 11313.00
228.3300, 11705.00
229.5480, 11392.00
230.7650, 11601.00
231.9820, 11699.00
233.1990, 11482.00
234.4160, 11771.00
235.6330, 11512.00
236.8490, 11558.00
238.0660, 11802.00
239.2820, 11530.00
240.4980, 11679.00
241.7140, 11730.00
242.9300, 11554.00
244.1460, 11811.00
245.3610, 11564.00
246.5770, 11712.00
247.7920, 11810.00
249.0070, 11584.00
250.2220, 11860.00
251.4370, 11710.00
252.6510, 11622.00
253.8660, 12056.00
255.0800, 11817.00
256.2940, 11650.00
257.5080, 11968.00
258.7220, 12089.00
259.9360, 11972.84
261.1490, 12282.00
262.3630, 11774.00
263.5760, 11983.00
264.7890, 11835.00
266.0020, 11786.00
267.2150, 12038.00
268.4270, 11906.00
269.6400, 12127.00
270.8520, 12132.00
272.0640, 11862.00
273.2760, 12079.00
274.4880, 11873.00
275.7000, 11932.00
276.9120, 12407.00
278.1230, 11942.00
279.3340, 12048.00
280.5450, 12075.00
281.7560, 11927.00
282.9670, 12232.00
284.1780, 12032.00
285.3880, 12087.00
286.5980, 12157.00
287.8090, 11890.00
289.0190, 12262.00
290.2290, 12205.00
291.4380, 11943.00
292.6480, 12243.00
293.8570, 12105.00
295.0670, 12187.00
296.2760, 12245.00
297.4850, 11985.00
298.6930, 12375.00
299.9020, 12449.00
301.1110, 12074.00
302.3190, 12494.00
303.5270, 12402.00
304.7350, 12408.00
305.9430, 12382.00
307.1510, 12226.00
308.3580, 12471.00
309.5660, 12483.00
310.7730, 12331.00
311.9800, 12525.00
313.1870, 12496.00
314.3940, 12349.00
315.6010, 12659.00
316.8070, 12492.00
318.0130, 12776.00
319.2200, 12935.00
320.4260, 12565.00
321.6310, 13075.00
322.8370, 12981.00
324.0430, 13103.00
325.2480, 13895.00
326.4540, 13563.00
327.6590, 14296.00
328.8640, 15397.00
330.0680, 16740.00
331.2730, 19196.00
332.4780, 21991.00
333.6820, 23290.00
334.8860, 22229.00
336.0900, 19404.00
337.2940, 16997.00
338.4980, 15732.00
339.7010, 14483.00
340.9050, 14221.00
342.1080, 13784.00
343.3110, 13385.00
344.5140, 13617.00
345.7170, 13210.00
346.9200, 13162.00
348.1220, 13450.00
349.3240, 13114.00
350.5270, 13195.00
351.7290, 13287.00
352.9310, 13107.00
354.1320, 13333.00
355.3340, 13277.00
356.5350, 13063.00
357.7370, 13414.00
358.9380, 13021.00
360.1390, 13270.00
361.3400, 13283.00
362.5400, 13067.00
363.7410, 13425.00
364.9410, 13212.00
366.1410, 13252.00
367.3410, 13496.00
368.5410, 13288.00
369.7410, 13532.00
370.9400, 13586.00
372.1400, 13306.00
373.3390, 13530.00
374.5380, 13331.00
375.7370, 13384.00
376.9360, 13523.00
378.1350, 13372.00
379.3330, 13197.00
380.5310, 13704.00
381.7300, 13277.00
382.9280, 13481.00
384.1260, 13648.00
385.3230, 13479.00
386.5210, 13744.00
387.7180, 13585.00
388.9160, 13486.00
390.1130, 13792.00
391.3100, 13510.00
392.5060, 13644.00
393.7030, 13981.00
394.9000, 13585.00
396.0960, 13887.00
397.2920, 13825.00
398.4880, 13721.00
399.6840, 14010.00
400.8800, 13787.00
402.0750, 13912.00
403.2710, 14108.00
404.4660, 13786.00
405.6610, 13944.00
406.8560, 13969.00
408.0510, 13579.00
409.2450, 14034.00
410.4400, 13946.00
411.6340, 13934.00
412.8280, 14245.00
414.0220, 13837.00
415.2160, 13910.00
416.4100, 14129.00
417.6030, 13867.00
418.7970, 14121.00
419.9900, 13991.00
421.1830, 13877.00
422.3760, 14285.00
423.5690, 14104.00
424.7610, 14021.00
425.9540, 14386.00
427.1460, 14015.00
428.3380, 14305.00
429.5300, 14444.00
430.7220, 14303.00
431.9140, 14597.00
433.1050, 14621.00
434.2970, 14784.00
435.4880, 15283.00
436.6790, 15308.00
437.8700, 15639.00
439.0610, 16560.00
440.2510, 16924.00
441.4420, 17735.00
442.6320, 18812.00
443.8220, 20362.00
445.0120, 23611.00
446.2020, 29245.00
447.3910, 39123.00
448.5810, 53965.00
449.7700, 62829.00
450.9600, 59552.00
452.1490, 47258.00
453.3370, 34431.00
454.5260, 26320.00
455.7150, 21615.00
456.9030, 18953.00
458.0910, 17981.00
459.2800, 17005.00
460.4670, 16313.00
461.6550, 16220.00
462.8430, 15542.00
464.0300, 15729.00
465.2180, 15572.00
466.4050, 15193.00
467.5920, 15207.00
468.7790, 15314.00
469.9650, 14976.00
471.1520, 15418.00
472.3380, 15139.00
473.5250, 14831.00
474.7110, 15230.00
475.8970, 14747.00
477.0820, 15063.00
478.2680, 15218.00
479.4540, 14672.00
480.6390, 15128.00
481.8240, 14881.00
483.0090, 14862.00
484.1940, 15188.00
485.3780, 15175.00
486.5630, 15151.00
487.7470, 15746.00
488.9320, 15525.00
490.1160, 16198.00
491.3000, 16952.00
492.4830, 16955.00
493.6670, 18335.00
494.8500, 19544.00
496.0340, 21520.00
497.2170, 26084.00
498.4000, 33372.00
499.5820, 43253.00
500.7650, 48358.00
501.9480, 43477.00
503.1300, 34181.00
504.3120, 26306.00
505.4940, 21078.00
506.6760, 18797.00
507.8580, 17355.00
509.0390, 16417.00
510.2210, 16329.00
511.4020, 15855.00
512.5830, 15602.00
513.7640, 15579.00
514.9450, 15291.00
516.1250, 15431.00
517.3060, 15478.00
518.4860, 15090.00
519.6660, 15431.00
520.8460, 15217.00
522.0260, 15084.00
523.2060, 15370.00
524.3850, 15211.00
525.5650, 15285.00
526.7440, 15449.00
527.9230, 15100.00
529.1020, 15245.00
530.2810, 15423.00
531.4590, 15099.00
532.6380, 15385.00
533.8160, 15339.00
534.9940, 14920.00
536.1720, 15389.00
537.3500, 15166.00
538.5270, 15109.00
539.7050, 15545.00
540.8820, 15130.00
542.0590, 15387.00
543.2360, 15525.00
544.4130, 15121.00
545.5900, 15562.00
546.7660, 15616.00
547.9430, 15153.00
549.1190, 15724.00
550.2950, 15438.00
551.4710, 15576.00
552.6470, 16150.00
553.8220, 16029.00
554.9980, 16144.00
556.1730, 16523.00
557.3480, 15982.00
558.5230, 16004.00
559.6980, 16022.00
560.8730, 15430.00
562.0470, 15792.00
563.2220, 15529.00
564.3960, 15473.00
565.5700, 15720.00
566.7440, 15523.00
567.9170, 15500.00
569.0910, 15786.00
570.2640, 15424.00
571.4380, 15572.00
572.6110, 15719.00
573.7840, 15446.00
574.9570, 15823.00
576.1290, 15532.00
577.3020, 15398.00
578.4740, 15784.00
579.6460, 15454.00
580.8180, 15528.00
581.9900, 15797.00
583.1620, 15462.00
584.3330, 15624.00
585.5040, 15839.00
586.6760, 15440.00
587.8470, 15861.00
589.0180, 15776.00
590.1880, 15584.00
591.3590, 15959.00
592.5290, 15658.00
593.7000, 15596.00
594.8700, 15988.00
596.0400, 15537.00
597.2090, 15662.00
598.3790, 16183.00
599.5490, 15783.00
600.7180, 15932.00
601.8870, 16331.00
603.0560, 15846.00
604.2250, 16267.00
605.3940, 16248.00
606.5620, 16144.00
607.7300, 16779.00
608.8990, 16413.00
610.0670, 16588.00
611.2350, 16815.00
612.4020, 16505.00
613.5700, 16578.00
614.7370, 16885.00
615.9050, 16236.00
617.0720, 16718.00
618.2390, 16516.00
619.4060, 16276.00
620.5720, 16780.00
621.7390, 16502.00
622.9050, 16278.00
624.0710, 16702.00
625.2370, 16614.00
626.4030, 16569.00
627.5690, 16972.00
628.7340, 16442.00
629.9000, 16732.00
631.0650, 16965.00
632.2300, 16500.00
633.3950, 16597.00
634.5600, 16866.00
635.7240, 16348.00
636.8890, 16954.00
638.0530, 16731.00
639.2170, 16620.00
640.3810, 17277.00
641.5450, 16902.00
642.7080, 16930.00
643.8720, 17443.00
645.0350, 17014.00
646.1980, 17428.00
647.3610, 17715.00
648.5240, 17519.00
649.6870, 18017.00
650.8490, 18136.00
652.0120, 18016.00
653.1740, 18735.00
654.3360, 19180.00
655.4980, 19345.00
656.6600, 20519.00
657.8210, 20691.00
658.9830, 21870.00
660.1440, 23057.00
661.3050, 24476.00
662.4660, 26040.00
663.6270, 28246.00
664.7870, 29810.00
665.9480, 32202.00
667.1080, 33293.00
668.2680, 33103.00
669.4280, 33054.00
670.5880, 31431.00
671.7480, 29069.00
672.9070, 27602.00
674.0670, 25648.00
675.2260, 24172.00
676.3850, 23235.00
677.5440, 21994.00
678.7030, 21109.00
679.8610, 20579.00
681.0200, 19828.00
682.1780, 19460.00
683.3360, 19278.00
684.4940, 18562.00
685.6520, 18654.00
686.8090, 18554.00
687.9670, 18153.00
689.1240, 18483.00
690.2810, 18159.00
691.4380, 17959.00
692.5950, 18154.00
693.7520, 17960.00
694.9080, 18017.00
696.0650, 18366.00
697.2210, 17919.00
698.3770, 18041.00
699.5330, 18110.00
700.6880, 17784.00
701.8440, 18206.00
702.9990, 18065.00
704.1550, 17614.00
705.3100, 18061.00
706.4650, 17949.00
707.6190, 17572.00
708.7740, 18173.00
709.9290, 17709.00
711.0830, 17703.00
712.2370, 17955.00
713.3910, 17544.00
714.5450, 17805.00
715.6980, 17870.00
716.8520, 17426.00
718.0050, 17658.00
719.1580, 17877.00
720.3110, 17521.00
721.4640, 17822.00
722.6170, 17823.00
723.7700, 17391.00
724.9220, 17888.00
726.0740, 17537.00
727.2260, 17538.00
728.3780, 17821.00
729.5300, 17702.00
730.6810, 17600.00
731.8330, 17968.00
732.9840, 17674.00
734.1350, 17798.00
735.2860, 18125.00
736.4370, 17580.00
737.5880, 17962.00
738.7380, 17897.00
739.8880, 17639.00
741.0390, 18201.00
742.1890, 17971.00
743.3380, 17733.00
744.4880, 18075.00
745.6380, 17738.00
746.7870, 17567.00
747.9360, 18177.00
749.0850, 17639.00
750.2340, 17750.00
751.3830, 18097.00
752.5310, 17438.00
753.6800, 17708.00
754.8280, 18204.00
755.9760, 17611.00
757.1240, 17971.00
758.2720, 17827.00
759.4190, 17756.00
760.5670, 18015.00
761.7140, 17700.00
762.8610, 17566.00
764.0080, 18021.00
765.1550, 17749.00
766.3020, 17493.00
767.4480, 18122.00
768.5950, 17712.00
769.7410, 17756.00
770.8870, 17994.00
772.0330, 17549.00
773.1780, 17799.00
774.3240, 18147.00
775.4690, 17531.00
776.6140, 17873.00
777.7590, 18065.00
778.9040, 17714.00
780.0490, 18111.00
781.1940, 18054.00
782.3380, 17751.00
783.4820, 18193.00
784.6260, 17688.23
785.7700, 17878.32
786.9140, 17982.62
788.0580, 18005.76
789.2010, 17704.59
790.3450, 17822.19
791.4880, 17771.97
792.6310, 17714.88
793.7730, 17891.42
794.9160, 17637.43
796.0590, 17810.27
797.2010, 17812.73
798.3430, 17893.17
799.4850, 17997.00
800.6270, 17956.00
801.7690, 17647.00
802.9100, 18191.00
804.0520, 17870.00
805.1930, 17848.00
806.3340, 18175.00
807.4750, 17822.00
808.6160, 17565.00
809.7560, 18155.00
810.8970, 17788.00
812.0370, 17712.00
813.1770, 18174.00
814.3170, 17897.00
815.4570, 17723.00
816.5960, 18472.00
817.7360, 17728.00
818.8750, 18262.00
820.0140, 18178.00
821.1530, 17715.00
822.2920, 18159.00
823.4310, 18253.00
824.5690, 17857.00
825.7070, 18368.00
826.8460, 18287.00
827.9840, 17808.00
829.1220, 18140.00
830.2590, 18099.00
831.3970, 18055.00
832.5340, 18484.00
833.6710, 17989.00
834.8080, 18149.00
835.9450, 18360.00
837.0820, 18032.00
838.2190, 18125.00
839.3550, 18539.00
840.4910, 17999.00
841.6270, 18149.00
842.7630, 18422.00
843.8990, 18039.00
845.0350, 18321.00
846.1700, 18554.00
847.3060, 17968.00
848.4410, 18522.00
849.5760, 18700.00
850.7100, 17937.00
851.8450, 18662.00
852.9800, 18431.00
854.1140, 18031.00
855.2480, 18869.00
856.3820, 18515.00
857.5160, 18302.00
858.6500, 19107.00
859.7830, 18448.00
860.9170, 18415.00
862.0500, 18996.00
863.1830, 18360.00
864.3160, 18603.00
865.4480, 19030.00
866.5810, 18545.00
867.7130, 18469.00
868.8460, 18923.00
869.9780, 18346.00
871.1100, 18657.00
872.2410, 18890.00
873.3730, 18403.00
874.5050, 18734.00
875.6360, 18775.00
876.7670, 18388.00
877.8980, 18924.00
879.0290, 18987.00
880.1590, 18487.00
881.2900, 19073.00
882.4200, 18761.00
883.5500, 18477.00
884.6800, 18967.00
885.8100, 18766.00
886.9400, 18637.00
888.0690, 19134.00
889.1990, 18750.00
890.3280, 18807.00
891.4570, 19087.00
892.5860, 18612.00
893.7140, 18718.00
894.8430, 19273.00
895.9710, 18644.00
897.1000, 18970.00
898.2280, 19065.00
899.3560, 18681.00
900.4830, 19086.00
901.6110, 19134.00
902.7380, 18803.00
903.8660, 19151.00
904.9930, 19177.00
906.1200, 18776.00
907.2460, 19285.00
908.3730, 19202.00
909.5000, 18782.00
910.6260, 19444.00
911.7520, 18965.00
912.8780, 18946.00
914.0040, 19566.00
915.1290, 18961.00
916.2550, 19006.00
917.3800, 19343.00
918.5050, 19148.00
919.6300, 19337.00
920.7550, 19504.00
921.8800, 19103.00
923.0040, 19183.00
924.1290, 19661.00
925.2530, 19073.00
926.3770, 19375.00
927.5010, 19562.00
928.6250, 19076.00
929.7480, 19410.00
930.8720, 19511.00
931.9950, 19097.00
933.1180, 19435.00
934.2410, 19509.00
935.3640, 19037.00
936.4860, 19564.00
937.6090, 19616.00
938.7310, 19125.00
939.8530, 19702.00
940.9750, 19554.00
942.0970, 19114.00
943.2180, 19789.00
944.3400, 19397.00
945.4610, 19555.00
946.5820, 19762.00
947.7030, 19493.00
948.8240, 19335.00
949.9450, 20144.00
951.0650, 19464.00
952.1860, 19387.00
953.3060, 20018.00
954.4260, 19412.00
955.5460, 19629.00
956.6650, 19989.00
957.7850, 19575.00
958.9040, 19794.00
960.0230, 20106.00
961.1420, 19358.00
962.2610, 20069.00
963.3800, 19896.40
964.4990, 20023.00
965.6170, 19852.00
966.7350, 20105.00
967.8530, 19630.00
968.9710, 20101.00
970.0890, 20063.00
971.2070, 19676.00
972.3240, 20153.00
973.4410, 20218.00
974.5580, 19827.00
975.6750, 20470.00
976.7920, 20218.00
977.9090, 19605.00
979.0250, 20526.00
980.1410, 20220.00
981.2580, 19897.00
982.3740, 20339.00
983.4890, 20056.00
984.6050, 20109.00
985.7200, 20683.00
986.8360, 20203.00
987.9510, 20217.00
989.0660, 20478.00
990.1810, 20099.00
991.2950, 20133.00
992.4100, 20699.00
993.5240, 20211.00
994.6390, 20203.00
995.7530, 20769.00
996.8660, 20317.00
997.9800, 20512.00
999.0940, 20859.00
1000.207, 20470.00
1001.320, 20805.00
1002.433, 21134.00
1003.546, 20612.00
1004.659, 21102.00
1005.772, 21260.00
1006.884, 20466.00
1007.996, 20848.00
1009.108, 21100.00
1010.220, 20433.00
1011.332, 20886.00
1012.444, 21024.00
1013.555, 20477.00
1014.666, 20981.00
1015.777, 20889.00
1016.888, 20652.00
1017.999, 21205.00
1019.110, 21000.00
1020.220, 20564.00
1021.331, 21221.00
1022.441, 20997.00
1023.551, 20733.00
1024.661, 21167.00
1025.770, 20941.00
1026.880, 20712.00
1027.989, 21362.00
1029.098, 21157.00
1030.207, 20668.00
1031.316, 21255.00
1032.425, 20767.00
1033.533, 20663.00
1034.642, 21271.00
1035.750, 20975.00
1036.858, 20976.00
1037.966, 21351.00
1039.073, 21058.00
1040.181, 20979.00
1041.288, 21403.00
1042.396, 21168.00
1043.503, 21136.00
1044.610, 21613.00
1045.716, 21305.00
1046.823, 21725.00
1047.929, 22233.00
1049.036, 21907.00
1050.142, 22201.00
1051.248, 22453.00
1052.353, 21812.00
1053.459, 21865.00
1054.564, 21800.00
1055.670, 21119.00
1056.775, 21490.00
1057.880, 21748.00
1058.985, 21045.00
1060.089, 21205.00
1061.194, 21491.00
1062.298, 20819.00
1063.402, 21492.00
1064.506, 21504.00
1065.610, 21123.00
1066.713, 21535.00
1067.817, 21474.00
1068.920, 21143.00
1070.023, 21470.00
1071.126, 21618.00
1072.229, 21226.00
1073.332, 21711.00
1074.435, 21684.00
1075.537, 21065.00
1076.639, 21826.00
1077.741, 21576.00
1078.843, 21333.00
1079.945, 21849.00
1081.046, 21766.00
1082.148, 21521.00
1083.249, 21876.00
1084.350, 21730.00
1085.451, 21266.14
1086.551, 21453.77
1087.652, 21555.61
1088.752, 21576.29
1089.853, 21272.65
1090.953, 21387.79
1092.053, 21335.11
1093.152, 21275.55
1094.252, 21449.63
1095.351, 21193.19
1096.451, 21363.56
1097.550, 21363.56
1098.649, 21441.54
1099.748, 22138.00
1100.846, 21558.00
1101.945, 21521.00
1103.043, 22049.00
1104.141, 21699.00
1105.239, 21560.00
1106.337, 22215.00
1107.434, 21543.00
1108.532, 21461.00
1109.629, 22229.00
1110.726, 21660.00
1111.823, 21801.00
1112.920, 22255.00
1114.017, 21661.00
1115.113, 21971.00
1116.210, 22290.00
1117.306, 21919.00
1118.402, 22122.00
1119.498, 22719.00
1120.593, 22158.00
1121.689, 22300.00
1122.784, 23021.00
1123.879, 22352.00
1124.974, 22292.00
1126.069, 22725.00
1127.164, 22194.00
1128.259, 22144.00
1129.353, 22614.00
1130.447, 21645.00
1131.541, 21976.00
1132.635, 22181.00
1133.729, 21748.00
1134.822, 22055.00
1135.916, 22030.99
1137.009, 21896.00
1138.102, 22034.00
1139.195, 22134.00
1140.288, 21762.00
1141.380, 22225.00
1142.473, 22380.00
1143.565, 21871.00
1144.657, 22241.00
1145.749, 22521.00
1146.841, 21841.00
1147.932, 22194.00
1149.024, 22600.00
1150.115, 21916.00
1151.206, 22356.00
1152.297, 22819.00
1153.388, 21956.00
1154.479, 22342.00
1155.569, 22787.00
1156.659, 21971.00
1157.750, 22249.00
1158.839, 22694.00
1159.929, 22122.00
1161.019, 22436.00
1162.108, 22627.00
1163.198, 22141.00
1164.287, 22551.00
1165.376, 22870.00
1166.465, 22241.00
1167.553, 22664.00
1168.642, 22867.00
1169.730, 22025.00
1170.818, 22653.00
1171.906, 22777.00
1172.994, 22124.00
1174.082, 22876.00
1175.170, 23060.00
1176.257, 22268.00
1177.344, 22933.00
1178.431, 22981.00
1179.518, 22414.00
1180.605, 23013.00
1181.691, 23222.00
1182.778, 22732.00
1183.864, 23475.00
1184.950, 23787.00
1186.036, 23469.00
1187.122, 24300.00
1188.207, 25002.00
1189.292, 24958.00
1190.378, 25739.00
1191.463, 26016.00
1192.548, 24920.00
1193.632, 24896.00
1194.717, 24607.00
1195.801, 23203.00
1196.886, 23675.00
1197.970, 23551.00
1199.054, 22667.00
1200.137, 22991.00
1201.221, 23425.00
1202.305, 22326.00
1203.388, 22973.00
1204.471, 23182.00
1205.554, 22521.00
1206.637, 22883.00
1207.719, 23197.00
1208.802, 22516.00
1209.884, 22908.00
1210.966, 23151.00
1212.048, 22542.00
1213.130, 23175.00
1214.212, 23228.00
1215.293, 22610.00
1216.374, 23146.00
1217.456, 23220.00
1218.536, 22751.00
1219.617, 23016.00
1220.698, 23222.00
1221.778, 22570.00
1222.859, 22998.00
1223.939, 23427.00
1225.019, 22596.00
1226.099, 22958.00
1227.178, 23339.00
1228.258, 22719.00
1229.337, 23291.00
1230.417, 23368.00
1231.496, 22957.00
1232.574, 23063.00
1233.653, 23646.00
1234.732, 22974.00
1235.810, 23277.00
1236.888, 23737.00
1237.966, 22894.00
1239.044, 23463.00
1240.122, 23706.00
1241.199, 22895.00
1242.277, 23545.00
1243.354, 23912.00
1244.431, 23045.00
1245.508, 23332.00
1246.585, 23882.00
1247.661, 23209.00
1248.738, 23322.00
1249.814, 23868.00
1250.890, 23127.00
1251.966, 23392.00
1253.042, 23869.00
1254.117, 23046.00
1255.193, 23440.00
1256.268, 23890.00
1257.343, 23367.00
1258.418, 23332.00
1259.493, 24011.00
1260.567, 23420.00
1261.642, 23503.00
1262.716, 24004.00
1263.790, 23375.00
1264.864, 23495.00
1265.938, 23991.00
1267.011, 23566.00
1268.085, 23686.00
1269.158, 24064.00
1270.231, 23591.00
1271.304, 23786.00
1272.377, 24198.00
1273.450, 23798.00
1274.522, 23720.00
1275.594, 24283.00
1276.666, 23827.00
1277.738, 23685.00
1278.810, 24436.00
1279.882, 23819.00
1280.953, 23798.00
1282.025, 24619.00
1283.096, 23925.00
1284.167, 23735.00
1285.238, 24204.00
1286.308, 23946.00
1287.379, 23753.00
1288.449, 24403.00
1289.519, 24042.00
1290.589, 23634.00
1291.659, 24482.00
1292.729, 24118.00
1293.798, 23910.00
1294.868, 24488.00
1295.937, 24138.00
1297.006, 23985.00
1298.075, 24416.00
1299.143, 24223.00
1300.212, 23635.00
1301.280, 24426.00
1302.348, 24317.00
1303.416, 23675.00
1304.484, 24566.00
1305.552, 24326.00
1306.620, 23933.00
1307.687, 24452.00
1308.754, 24452.00
1309.821, 24007.00
1310.888, 24512.00
1311.955, 24672.00
1313.021, 24130.00
1314.088, 24442.00
1315.154, 24772.00
1316.220, 24047.00
1317.286, 24522.00
1318.352, 24698.00
1319.417, 24111.00
1320.483, 24873.00
1321.548, 24891.00
1322.613, 24235.00
1323.678, 24622.00
1324.743, 24807.00
1325.807, 24275.00
1326.872, 24476.00
1327.936, 24970.00
1329.000, 24378.00
1330.064, 24545.00
1331.128, 25054.00
1332.191, 24224.00
1333.255, 24488.00
1334.318, 25161.00
1335.381, 24496.00
1336.444, 24520.00
1337.507, 25160.00
