##NAMES=Diaspore
##RRUFFID=R060546
##IDEAL CHEMISTRY=AlO(OH)
##LOCALITY=Turkey
##OWNER=RRUFF
##SOURCE=Gemological Institute of America
##DESCRIPTION=Platy transparent pale yellow fragment
##STATUS=The identification of this mineral has been confirmed by X-ray diffraction and chemical analysis
##URL=rruff.info/R060546
##MEASURED CHEMISTRY=(Al_0.99_Fe^3+^_0.01_)_Î£=1_O(OH) ; OH estimated by difference; Fe^3+^ by charge balance
##PIN_ID=L01029
##ORIENTATION=Laser parallel to b* (0 1 0). Fiducial mark perpendicular to laser is parallel to c [0 0 1]
132.8980, 13636.00
134.1270, 13647.00
135.3560, 13756.00
136.5850, 13873.00
137.8140, 13757.00
139.0430, 13984.00
140.2710, 13951.00
141.5000, 14162.00
142.7280, 14189.00
143.9560, 14411.00
145.1840, 14351.00
146.4120, 14509.00
147.6390, 14663.00
148.8670, 14659.00
150.0940, 14542.00
151.3210, 14516.00
152.5490, 14551.00
153.7750, 14653.00
155.0020, 14584.00
156.2290, 14789.00
157.4550, 15138.00
158.6810, 15190.00
159.9080, 14774.00
161.1340, 14432.00
162.3590, 14188.00
163.5850, 14190.00
164.8110, 14374.00
166.0360, 14493.00
167.2610, 14343.00
168.4860, 14128.00
169.7110, 14243.00
170.9360, 14117.00
172.1610, 14180.00
173.3850, 14203.00
174.6100, 14180.00
175.8340, 14475.00
177.0580, 14267.00
178.2820, 14260.00
179.5050, 14420.00
180.7290, 14253.00
181.9520, 14395.00
183.1760, 14407.00
184.3990, 14369.00
185.6220, 14410.00
186.8450, 14461.00
188.0670, 14561.00
189.2900, 14652.00
190.5120, 14678.00
191.7340, 14600.00
192.9560, 14551.00
194.1780, 14477.00
195.4000, 14604.00
196.6220, 14610.00
197.8430, 14740.00
199.0640, 14866.00
200.2860, 14837.00
201.5070, 14752.00
202.7270, 14860.00
203.9480, 14804.00
205.1690, 14862.00
206.3890, 14789.00
207.6090, 14554.00
208.8290, 14573.00
210.0490, 14727.00
211.2690, 14480.00
212.4890, 14637.00
213.7080, 14834.00
214.9280, 14796.00
216.1470, 14619.00
217.3660, 14571.00
218.5850, 14729.00
219.8030, 14870.00
221.0220, 14683.00
222.2400, 14832.00
223.4590, 14889.00
224.6770, 14707.00
225.8950, 14851.00
227.1120, 14802.00
228.3300, 14998.00
229.5480, 15024.00
230.7650, 14817.00
231.9820, 15000.00
233.1990, 14903.00
234.4160, 14990.00
235.6330, 15036.00
236.8490, 14844.00
238.0660, 14879.00
239.2820, 15208.00
240.4980, 15083.63
241.7140, 15123.00
242.9300, 15113.00
244.1460, 15146.00
245.3610, 15052.00
246.5770, 14849.00
247.7920, 15238.00
249.0070, 15057.00
250.2220, 15110.00
251.4370, 15285.00
252.6510, 15367.00
253.8660, 15225.00
255.0800, 15289.00
256.2940, 15241.00
257.5080, 15259.00
258.7220, 15457.00
259.9360, 15885.00
261.1490, 16182.00
262.3630, 15644.00
263.5760, 15417.00
264.7890, 15386.00
266.0020, 15364.00
267.2150, 15393.00
268.4270, 15442.00
269.6400, 15416.00
270.8520, 15473.00
272.0640, 15456.00
273.2760, 15535.00
274.4880, 15463.00
275.7000, 15664.00
276.9120, 15463.00
278.1230, 15574.00
279.3340, 15518.00
280.5450, 15563.00
281.7560, 15437.00
282.9670, 15544.00
284.1780, 15505.00
285.3880, 15549.00
286.5980, 15716.00
287.8090, 15595.00
289.0190, 15580.00
290.2290, 15708.00
291.4380, 15606.00
292.6480, 15664.00
293.8570, 15797.00
295.0670, 15615.00
296.2760, 15796.00
297.4850, 15709.00
298.6930, 15681.00
299.9020, 15786.00
301.1110, 15966.00
302.3190, 16024.00
303.5270, 15803.00
304.7350, 15911.00
305.9430, 15808.00
307.1510, 16026.00
308.3580, 15886.00
309.5660, 16061.00
310.7730, 15937.00
311.9800, 15947.00
313.1870, 16078.00
314.3940, 16057.00
315.6010, 15882.00
316.8070, 16327.00
318.0130, 16194.00
319.2200, 16241.00
320.4260, 16499.00
321.6310, 16313.00
322.8370, 16505.00
324.0430, 16669.00
325.2480, 16910.00
326.4540, 17154.00
327.6590, 17651.00
328.8640, 18264.00
330.0680, 19421.00
331.2730, 20961.00
332.4780, 23677.00
333.6820, 26439.00
334.8860, 27321.00
336.0900, 25899.00
337.2940, 23067.00
338.4980, 20729.00
339.7010, 19201.00
340.9050, 18336.00
342.1080, 17837.00
343.3110, 17676.00
344.5140, 17391.00
345.7170, 17212.00
346.9200, 17135.00
348.1220, 17106.00
349.3240, 16984.00
350.5270, 17027.00
351.7290, 17028.00
352.9310, 16926.00
354.1320, 16790.00
355.3340, 17023.00
356.5350, 17074.00
357.7370, 16901.00
358.9380, 16917.00
360.1390, 17000.00
361.3400, 16805.00
362.5400, 17144.00
363.7410, 17011.00
364.9410, 17213.00
366.1410, 17041.00
367.3410, 17291.00
368.5410, 17312.00
369.7410, 17448.00
370.9400, 17549.00
372.1400, 17515.00
373.3390, 17344.00
374.5380, 17295.00
375.7370, 17324.00
376.9360, 17150.00
378.1350, 17073.00
379.3330, 17415.00
380.5310, 17345.00
381.7300, 17391.00
382.9280, 17244.00
384.1260, 17342.00
385.3230, 17523.00
386.5210, 17524.00
387.7180, 17537.00
388.9160, 17542.00
390.1130, 17604.00
391.3100, 17673.00
392.5060, 17764.00
393.7030, 17895.00
394.9000, 17848.00
396.0960, 17786.00
397.2920, 17911.00
398.4880, 17941.00
399.6840, 18014.00
400.8800, 17988.00
402.0750, 17881.00
403.2710, 17872.00
404.4660, 17804.00
405.6610, 18156.00
406.8560, 17768.00
408.0510, 18058.00
409.2450, 17851.00
410.4400, 18051.00
411.6340, 18020.00
412.8280, 17976.00
414.0220, 17970.00
415.2160, 18234.00
416.4100, 18388.00
417.6030, 18121.00
418.7970, 18122.00
419.9900, 17927.00
421.1830, 18229.00
422.3760, 18131.00
423.5690, 18163.00
424.7610, 18222.00
425.9540, 18206.99
427.1460, 18268.51
428.3380, 18304.00
429.5300, 18377.00
430.7220, 18498.00
431.9140, 18605.00
433.1050, 18753.00
434.2970, 18844.00
435.4880, 19100.00
436.6790, 19379.08
437.8700, 19558.00
439.0610, 20172.00
440.2510, 20801.00
441.4420, 21442.00
442.6320, 22346.00
443.8220, 23563.00
445.0120, 25595.00
446.2020, 29206.00
447.3910, 35679.00
448.5810, 46505.00
449.7700, 61263.00
450.9600, 65535.00
452.1490, 64906.00
453.3370, 52013.00
454.5260, 39181.00
455.7150, 31028.00
456.9030, 26360.00
458.0910, 23852.00
459.2800, 22421.00
460.4670, 21492.00
461.6550, 21130.00
462.8430, 20611.00
464.0300, 20156.00
465.2180, 20144.00
466.4050, 19926.00
467.5920, 20106.00
468.7790, 19797.00
469.9650, 19666.00
471.1520, 19590.00
472.3380, 19723.00
473.5250, 19409.00
474.7110, 19530.00
475.8970, 19558.00
477.0820, 19454.00
478.2680, 19558.00
479.4540, 19282.00
480.6390, 19221.00
481.8240, 19334.00
483.0090, 19280.00
484.1940, 19245.00
485.3780, 19535.00
486.5630, 19531.00
487.7470, 19742.00
488.9320, 19996.00
490.1160, 20349.45
491.3000, 20709.21
492.4830, 21438.00
493.6670, 22037.00
494.8500, 22958.00
496.0340, 24690.00
497.2170, 27267.00
498.4000, 32069.00
499.5820, 40465.00
500.7650, 49939.00
501.9480, 53742.00
503.1300, 47591.00
504.3120, 37898.00
505.4940, 30086.00
506.6760, 25518.00
507.8580, 23213.00
509.0390, 21840.00
510.2210, 21237.00
511.4020, 20766.00
512.5830, 20524.00
513.7640, 20204.00
514.9450, 20195.00
516.1250, 20210.00
517.3060, 20164.00
518.4860, 20136.92
519.6660, 20099.00
520.8460, 19972.00
522.0260, 19871.00
523.2060, 19881.01
524.3850, 19830.96
525.5650, 19870.00
526.7440, 19893.00
527.9230, 19834.00
529.1020, 19966.00
530.2810, 20001.00
531.4590, 20104.00
532.6380, 19901.00
533.8160, 20112.00
534.9940, 19946.00
536.1720, 20076.00
537.3500, 20093.00
538.5270, 20131.00
539.7050, 20083.00
540.8820, 20132.00
542.0590, 20014.00
543.2360, 20187.00
544.4130, 20244.00
545.5900, 20048.00
546.7660, 20164.00
547.9430, 20361.00
549.1190, 20448.00
550.2950, 20298.00
551.4710, 20377.00
552.6470, 20483.00
553.8220, 20789.00
554.9980, 20974.00
556.1730, 21211.00
557.3480, 21120.00
558.5230, 20931.00
559.6980, 20660.00
560.8730, 20806.00
562.0470, 20659.00
563.2220, 20607.00
564.3960, 20548.00
565.5700, 20658.00
566.7440, 20510.00
567.9170, 20297.00
569.0910, 20650.00
570.2640, 20355.00
571.4380, 20595.00
572.6110, 20587.00
573.7840, 20615.00
574.9570, 20499.00
576.1290, 20477.00
577.3020, 20470.00
578.4740, 20532.00
579.6460, 20478.00
580.8180, 20509.00
581.9900, 20586.00
583.1620, 20606.00
584.3330, 20517.00
585.5040, 20538.00
586.6760, 20771.00
587.8470, 20581.00
589.0180, 20808.00
590.1880, 20745.00
591.3590, 20818.00
592.5290, 20659.00
593.7000, 20696.00
594.8700, 20841.00
596.0400, 20929.00
597.2090, 20863.00
598.3790, 20827.00
599.5490, 21061.00
600.7180, 21018.00
601.8870, 20980.00
603.0560, 21059.00
604.2250, 21069.00
605.3940, 21397.00
606.5620, 21475.00
607.7300, 21549.00
608.8990, 21749.00
610.0670, 21750.00
611.2350, 21829.00
612.4020, 21760.00
613.5700, 21911.00
614.7370, 21922.00
615.9050, 21708.00
617.0720, 21700.00
618.2390, 21753.00
619.4060, 21745.00
620.5720, 21724.00
621.7390, 21709.00
622.9050, 22100.00
624.0710, 22077.00
625.2370, 22304.00
626.4030, 22507.00
627.5690, 22415.00
628.7340, 22706.00
629.9000, 22672.00
631.0650, 22475.00
632.2300, 22337.00
633.3950, 22123.00
634.5600, 22331.00
635.7240, 22112.00
636.8890, 22196.00
638.0530, 22128.00
639.2170, 22313.00
640.3810, 22397.00
641.5450, 22517.00
642.7080, 22541.00
643.8720, 22639.00
645.0350, 22997.00
646.1980, 22987.00
647.3610, 23092.00
648.5240, 23505.00
649.6870, 23556.00
650.8490, 23751.00
652.0120, 24017.00
653.1740, 24087.00
654.3360, 24528.00
655.4980, 25080.00
656.6600, 25390.00
657.8210, 26233.00
658.9830, 26762.00
660.1440, 27898.00
661.3050, 29204.00
662.4660, 30648.00
663.6270, 32238.00
664.7870, 34313.00
665.9480, 36248.00
667.1080, 37879.00
668.2680, 38857.00
669.4280, 38904.00
670.5880, 38108.00
671.7480, 36431.00
672.9070, 34691.00
674.0670, 32705.00
675.2260, 31155.00
676.3850, 29686.00
677.5440, 28321.00
678.7030, 27470.00
679.8610, 26562.00
681.0200, 25904.00
682.1780, 25114.00
683.3360, 24961.00
684.4940, 24561.00
685.6520, 24189.00
686.8090, 24304.00
687.9670, 23934.00
689.1240, 23832.00
690.2810, 23828.00
691.4380, 23549.00
692.5950, 23432.00
693.7520, 23591.00
694.9080, 23459.00
696.0650, 23577.00
697.2210, 23552.00
698.3770, 23710.00
699.5330, 23744.00
700.6880, 23696.00
701.8440, 23573.00
702.9990, 23634.00
704.1550, 23691.00
705.3100, 23530.00
706.4650, 23613.00
707.6190, 23379.00
708.7740, 23571.00
709.9290, 23291.00
711.0830, 23266.00
712.2370, 23440.00
713.3910, 23324.00
714.5450, 23284.00
715.6980, 23397.00
716.8520, 23365.00
718.0050, 23419.59
719.1580, 23427.50
720.3110, 23476.00
721.4640, 23435.00
722.6170, 23386.00
723.7700, 23416.12
724.9220, 23466.00
726.0740, 23334.00
727.2260, 23328.00
728.3780, 23334.00
729.5300, 23483.00
730.6810, 23684.00
731.8330, 23738.00
732.9840, 23666.00
734.1350, 23477.00
735.2860, 23507.00
736.4370, 23603.00
737.5880, 23660.00
738.7380, 23688.00
739.8880, 23704.00
741.0390, 23767.00
742.1890, 23635.00
743.3380, 23517.00
744.4880, 23637.00
745.6380, 23671.00
746.7870, 23545.00
747.9360, 23776.00
749.0850, 23563.00
750.2340, 23765.00
751.3830, 23680.00
752.5310, 23693.00
753.6800, 23863.00
754.8280, 23504.00
755.9760, 23461.00
757.1240, 23564.00
758.2720, 23650.00
759.4190, 23606.00
760.5670, 23704.00
761.7140, 23464.00
762.8610, 23741.00
764.0080, 23481.00
765.1550, 23698.00
766.3020, 23767.00
767.4480, 23800.00
768.5950, 23810.00
769.7410, 23830.00
770.8870, 23863.00
772.0330, 23811.00
773.1780, 23731.00
774.3240, 23796.00
775.4690, 23749.00
776.6140, 23798.00
777.7590, 24022.00
778.9040, 23822.00
780.0490, 24004.00
781.1940, 24005.00
782.3380, 23732.00
783.4820, 23947.00
784.6260, 23901.00
785.7700, 23987.00
786.9140, 23972.00
788.0580, 24017.00
789.2010, 24038.00
790.3450, 24104.00
791.4880, 24180.00
792.6310, 24129.00
793.7730, 24080.00
794.9160, 24129.00
796.0590, 24126.00
797.2010, 24123.00
798.3430, 24067.00
799.4850, 23985.00
800.6270, 24123.00
801.7690, 24095.00
802.9100, 24176.00
804.0520, 24190.00
805.1930, 24193.65
806.3340, 24143.00
807.4750, 24153.00
808.6160, 24177.00
809.7560, 24048.00
810.8970, 24198.00
812.0370, 24183.00
813.1770, 24140.00
814.3170, 24058.00
815.4570, 24109.00
816.5960, 24077.10
817.7360, 24106.25
818.8750, 24123.00
820.0140, 24210.00
821.1530, 24292.00
822.2920, 24398.00
823.4310, 24256.00
824.5690, 24184.00
825.7070, 24458.00
826.8460, 24270.00
827.9840, 24539.00
829.1220, 24524.00
830.2590, 24293.00
831.3970, 24451.00
832.5340, 24531.00
833.6710, 24468.00
834.8080, 24468.00
835.9450, 24497.18
837.0820, 24577.00
838.2190, 24560.00
839.3550, 24633.00
840.4910, 24733.00
841.6270, 24716.00
842.7630, 24793.00
843.8990, 24903.00
845.0350, 24827.00
846.1700, 24830.00
847.3060, 24982.00
848.4410, 24875.00
849.5760, 25086.00
850.7100, 24995.00
851.8450, 25083.00
852.9800, 25215.00
854.1140, 25139.00
855.2480, 25071.00
856.3820, 25217.00
857.5160, 25272.00
858.6500, 25309.00
859.7830, 25506.00
860.9170, 25494.00
862.0500, 25390.00
863.1830, 25796.00
864.3160, 25581.00
865.4480, 25484.00
866.5810, 25722.00
867.7130, 25524.00
868.8460, 25262.00
869.9780, 25525.00
871.1100, 25522.00
872.2410, 25164.00
873.3730, 25388.00
874.5050, 25326.00
875.6360, 25434.00
876.7670, 25352.00
877.8980, 25283.00
879.0290, 25441.00
880.1590, 25553.00
881.2900, 25394.00
882.4200, 25477.00
883.5500, 25383.00
884.6800, 25370.11
885.8100, 25318.00
886.9400, 25358.00
888.0690, 25512.00
889.1990, 25536.00
890.3280, 25453.00
891.4570, 25681.00
892.5860, 25460.00
893.7140, 25539.00
894.8430, 25501.00
895.9710, 25771.00
897.1000, 25409.00
898.2280, 25828.00
899.3560, 25739.00
900.4830, 25644.00
901.6110, 25665.00
902.7380, 25739.00
903.8660, 25906.00
904.9930, 25831.00
906.1200, 25850.00
907.2460, 25908.00
908.3730, 25829.00
909.5000, 25803.00
910.6260, 25749.00
911.7520, 25936.00
912.8780, 25969.00
914.0040, 26036.00
915.1290, 25897.00
916.2550, 26091.00
917.3800, 25874.00
918.5050, 26087.00
919.6300, 26083.00
920.7550, 25928.00
921.8800, 26021.00
923.0040, 26004.00
924.1290, 26026.00
925.2530, 26017.07
926.3770, 26063.00
927.5010, 25963.00
928.6250, 26025.00
929.7480, 26019.00
930.8720, 26146.00
931.9950, 26282.00
933.1180, 26118.00
934.2410, 26432.00
935.3640, 26438.00
936.4860, 26115.00
937.6090, 26337.00
938.7310, 25980.00
939.8530, 26287.00
940.9750, 26343.00
942.0970, 26229.00
943.2180, 26303.00
944.3400, 26297.00
945.4610, 26437.00
946.5820, 26440.00
947.7030, 26341.00
948.8240, 26380.00
949.9450, 26393.00
951.0650, 26622.00
952.1860, 26517.00
953.3060, 26573.00
954.4260, 26712.00
955.5460, 26714.00
956.6650, 26742.46
957.7850, 26754.20
958.9040, 26755.00
960.0230, 26738.00
961.1420, 26807.00
962.2610, 26870.00
963.3800, 26816.00
964.4990, 26794.00
965.6170, 26699.00
966.7350, 26847.00
967.8530, 26802.71
968.9710, 26665.00
970.0890, 26882.00
971.2070, 26854.00
972.3240, 26940.00
973.4410, 27063.00
974.5580, 26963.00
975.6750, 27081.00
976.7920, 26956.00
977.9090, 26954.00
979.0250, 27174.00
980.1410, 27299.00
981.2580, 27235.00
982.3740, 27104.00
983.4890, 27093.00
984.6050, 27109.00
985.7200, 27186.00
986.8360, 27206.00
987.9510, 27509.00
989.0660, 27652.00
990.1810, 27517.00
991.2950, 27372.00
992.4100, 27532.00
993.5240, 27683.00
994.6390, 27496.00
995.7530, 27588.00
996.8660, 27665.00
997.9800, 27579.00
999.0940, 27715.00
1000.207, 27817.00
1001.320, 27956.00
1002.433, 28088.00
1003.546, 28833.00
1004.659, 28805.00
1005.772, 28617.00
1006.884, 28447.00
1007.996, 28126.00
1009.108, 28126.00
1010.220, 28020.00
1011.332, 28203.00
1012.444, 28277.00
1013.555, 28134.00
1014.666, 28325.00
1015.777, 28199.00
1016.888, 28241.00
1017.999, 28250.00
1019.110, 28213.00
1020.220, 28273.73
1021.331, 28412.00
1022.441, 28373.00
1023.551, 28436.00
1024.661, 28532.00
1025.770, 28349.00
1026.880, 28599.00
1027.989, 28569.00
1029.098, 28346.00
1030.207, 28367.00
1031.316, 28578.00
1032.425, 28399.00
1033.533, 28398.00
1034.642, 28219.00
1035.750, 28377.00
1036.858, 28354.00
1037.966, 28439.00
1039.073, 28463.00
1040.181, 28455.44
1041.288, 28638.00
1042.396, 28480.00
1043.503, 28665.00
1044.610, 28771.00
1045.716, 28920.00
1046.823, 29088.00
1047.929, 29074.00
1049.036, 29328.00
1050.142, 29654.00
1051.248, 29792.00
1052.353, 29490.00
1053.459, 29526.00
1054.564, 29018.00
1055.670, 28997.00
1056.775, 28711.00
1057.880, 28685.00
1058.985, 28577.00
1060.089, 28779.00
1061.194, 28819.00
1062.298, 28673.00
1063.402, 28666.00
1064.506, 28670.44
1065.610, 28770.00
1066.713, 28711.00
1067.817, 28774.00
1068.920, 28830.00
1070.023, 28637.00
1071.126, 28784.00
1072.229, 28781.00
1073.332, 29116.00
1074.435, 28883.00
1075.537, 29154.00
1076.639, 28897.00
1077.741, 29041.00
1078.843, 28870.00
1079.945, 29288.00
1081.046, 29109.00
1082.148, 29339.00
1083.249, 29321.00
1084.350, 29109.00
1085.451, 29526.00
1086.551, 29345.00
1087.652, 29413.00
1088.752, 29415.00
1089.853, 29505.00
1090.953, 29410.00
1092.053, 29133.00
1093.152, 29171.00
1094.252, 29257.00
1095.351, 29315.00
1096.451, 29508.00
1097.550, 29290.00
1098.649, 29328.00
1099.748, 29482.00
1100.846, 29204.00
1101.945, 29385.00
1103.043, 29354.00
1104.141, 29454.00
1105.239, 29163.00
1106.337, 29242.00
1107.434, 29333.00
1108.532, 29484.00
1109.629, 29415.00
1110.726, 29241.00
1111.823, 29485.00
1112.920, 29405.96
1114.017, 29525.81
1115.113, 29519.00
1116.210, 29785.00
1117.306, 29876.00
1118.402, 30027.00
1119.498, 30044.00
1120.593, 30234.00
1121.689, 30192.96
1122.784, 30354.00
1123.879, 30368.64
1124.974, 30337.00
1126.069, 30343.00
1127.164, 30352.00
1128.259, 30200.00
1129.353, 30155.27
1130.447, 29931.00
1131.541, 29955.00
1132.635, 29803.00
1133.729, 29742.00
1134.822, 29562.00
1135.916, 29625.00
1137.009, 29611.00
1138.102, 29813.00
1139.195, 29880.00
1140.288, 29842.00
1141.380, 29689.00
1142.473, 29768.00
1143.565, 29977.00
1144.657, 29777.00
1145.749, 29923.00
1146.841, 30095.00
1147.932, 30069.00
1149.024, 30024.00
1150.115, 29880.00
1151.206, 30020.00
1152.297, 30262.00
1153.388, 30020.00
1154.479, 30199.00
1155.569, 30038.00
1156.659, 30006.00
1157.750, 30228.00
1158.839, 30042.00
1159.929, 30098.00
1161.019, 30202.00
1162.108, 30254.00
1163.198, 30220.00
1164.287, 30040.00
1165.376, 30483.00
1166.465, 30279.00
1167.553, 30198.00
1168.642, 30464.00
1169.730, 30532.00
1170.818, 30350.00
1171.906, 30320.00
1172.994, 30427.00
1174.082, 30538.00
1175.170, 30569.00
1176.257, 30303.00
1177.344, 30649.00
1178.431, 30546.00
1179.518, 30761.00
1180.605, 31067.00
1181.691, 30873.00
1182.778, 31001.00
1183.864, 31083.00
1184.950, 31179.00
1186.036, 31680.00
1187.122, 31765.00
1188.207, 32454.00
1189.292, 32924.00
1190.378, 33646.00
1191.463, 33872.00
1192.548, 33575.00
1193.632, 33046.00
1194.717, 32514.00
1195.801, 31856.00
1196.886, 31563.00
1197.970, 31384.00
1199.054, 31020.00
1200.137, 30961.00
1201.221, 31021.00
1202.305, 31036.00
1203.388, 30860.00
1204.471, 30949.00
1205.554, 30813.00
1206.637, 30800.56
1207.719, 30958.00
1208.802, 30767.00
1209.884, 30784.00
1210.966, 30785.00
1212.048, 30650.00
1213.130, 30861.00
1214.212, 30832.00
1215.293, 30805.00
1216.374, 30806.00
1217.456, 31137.00
1218.536, 31156.00
1219.617, 31046.00
1220.698, 30895.00
1221.778, 31073.00
1222.859, 31010.00
1223.939, 31170.00
1225.019, 30966.00
1226.099, 31161.00
1227.178, 30910.00
1228.258, 31152.00
1229.337, 31100.00
1230.417, 31391.00
1231.496, 31067.00
1232.574, 31264.00
1233.653, 31284.00
1234.732, 31442.00
1235.810, 31426.00
1236.888, 31489.00
1237.966, 31368.00
1239.044, 31474.00
1240.122, 31532.00
1241.199, 31411.00
1242.277, 31382.00
1243.354, 31525.00
1244.431, 31443.00
1245.508, 31552.00
1246.585, 31742.00
1247.661, 31470.00
1248.738, 31776.00
1249.814, 31555.00
1250.890, 31804.00
1251.966, 31557.00
1253.042, 31568.00
1254.117, 31673.00
1255.193, 31362.00
1256.268, 31823.00
1257.343, 31660.00
1258.418, 31617.00
1259.493, 31655.00
1260.567, 31727.00
1261.642, 31685.00
1262.716, 31890.00
1263.790, 31972.00
1264.864, 31894.00
1265.938, 31994.00
1267.011, 31916.00
1268.085, 32050.00
1269.158, 32001.00
1270.231, 32114.00
1271.304, 32184.00
1272.377, 32239.00
1273.450, 32307.53
1274.522, 32281.00
1275.594, 32355.00
1276.666, 32335.00
1277.738, 32247.00
1278.810, 32233.00
1279.882, 32253.00
1280.953, 32284.00
1282.025, 32229.00
1283.096, 32425.00
1284.167, 32266.00
1285.238, 32375.00
1286.308, 32302.00
1287.379, 32595.00
1288.449, 32498.53
1289.519, 32506.32
1290.589, 32461.00
1291.659, 32419.00
1292.729, 32424.00
1293.798, 32414.00
1294.868, 32534.00
1295.937, 32531.00
1297.006, 32507.00
1298.075, 32369.00
1299.143, 32538.00
1300.212, 32423.00
1301.280, 32469.00
1302.348, 32413.00
1303.416, 32732.00
1304.484, 32500.00
1305.552, 32460.00
1306.620, 32354.00
1307.687, 32694.00
