##NAMES=Diaspore
##RRUFFID=R060546
##IDEAL CHEMISTRY=AlO(OH)
##LOCALITY=Turkey
##OWNER=RRUFF
##SOURCE=Gemological Institute of America
##DESCRIPTION=Platy transparent pale yellow fragment
##STATUS=The identification of this mineral has been confirmed by X-ray diffraction and chemical analysis
##URL=rruff.info/R060546
##MEASURED CHEMISTRY=(Al_0.99_Fe^3+^_0.01_)_Î£=1_O(OH) ; OH estimated by difference; Fe^3+^ by charge balance
##PIN_ID=L01871
##ORIENTATION=Laser parallel to a* (1 0 0). Fiducial mark perpendicular to laser is parallel to b [0 1 0]
132.8980, 14674.00
134.1270, 14781.00
135.3560, 14817.00
136.5850, 14860.00
137.8140, 15066.00
139.0430, 15138.00
140.2710, 15245.00
141.5000, 15372.00
142.7280, 15654.00
143.9560, 15965.00
145.1840, 16794.00
146.4120, 17322.00
147.6390, 17352.00
148.8670, 17541.00
150.0940, 18192.00
151.3210, 19162.00
152.5490, 19401.00
153.7750, 19526.00
155.0020, 19623.00
156.2290, 19859.00
157.4550, 19970.00
158.6810, 19185.00
159.9080, 18274.00
161.1340, 17110.00
162.3590, 16451.00
163.5850, 15925.00
164.8110, 15861.00
166.0360, 15689.00
167.2610, 15981.00
168.4860, 15884.00
169.7110, 15720.00
170.9360, 15779.00
172.1610, 15843.00
173.3850, 15869.00
174.6100, 15925.00
175.8340, 15952.63
177.0580, 16001.84
178.2820, 15996.00
179.5050, 16117.00
180.7290, 16127.00
181.9520, 16223.00
183.1760, 16287.00
184.3990, 16156.00
185.6220, 16205.00
186.8450, 16305.00
188.0670, 16196.00
189.2900, 16348.00
190.5120, 16235.00
191.7340, 16258.00
192.9560, 16293.00
194.1780, 16284.00
195.4000, 16350.22
196.6220, 16372.17
197.8430, 16469.00
199.0640, 16470.00
200.2860, 16531.00
201.5070, 16624.00
202.7270, 16498.00
203.9480, 16622.00
205.1690, 16626.00
206.3890, 16582.00
207.6090, 16526.00
208.8290, 16630.00
210.0490, 16775.00
211.2690, 16602.00
212.4890, 16594.00
213.7080, 16806.00
214.9280, 16667.00
216.1470, 16731.00
217.3660, 16867.00
218.5850, 16742.00
219.8030, 16962.00
221.0220, 16710.00
222.2400, 16813.00
223.4590, 16867.00
224.6770, 17019.00
225.8950, 16793.00
227.1120, 16928.00
228.3300, 17060.00
229.5480, 16902.00
230.7650, 17015.00
231.9820, 17097.00
233.1990, 17093.00
234.4160, 17231.00
235.6330, 17189.00
236.8490, 17226.57
238.0660, 17213.00
239.2820, 17222.00
240.4980, 17299.00
241.7140, 17269.00
242.9300, 17335.00
244.1460, 17286.00
245.3610, 17397.00
246.5770, 17420.00
247.7920, 17443.00
249.0070, 17428.00
250.2220, 17310.00
251.4370, 17519.00
252.6510, 17424.00
253.8660, 17530.00
255.0800, 17466.00
256.2940, 17542.00
257.5080, 17668.00
258.7220, 17961.00
259.9360, 17924.12
261.1490, 18423.00
262.3630, 17976.00
263.5760, 17722.00
264.7890, 17746.00
266.0020, 17876.00
267.2150, 17858.00
268.4270, 17949.00
269.6400, 17863.00
270.8520, 18027.00
272.0640, 18135.00
273.2760, 18084.04
274.4880, 18108.00
275.7000, 18072.00
276.9120, 18355.00
278.1230, 18415.00
279.3340, 18536.00
280.5450, 18776.00
281.7560, 18975.00
282.9670, 19132.00
284.1780, 19346.00
285.3880, 19833.00
286.5980, 19833.00
287.8090, 19909.00
289.0190, 20238.00
290.2290, 19958.00
291.4380, 19910.00
292.6480, 19774.00
293.8570, 19286.00
295.0670, 19223.00
296.2760, 18753.00
297.4850, 18891.00
298.6930, 18719.00
299.9020, 18739.00
301.1110, 18648.00
302.3190, 18534.00
303.5270, 18552.00
304.7350, 18646.00
305.9430, 18574.00
307.1510, 18837.00
308.3580, 18746.00
309.5660, 18690.00
310.7730, 18867.00
311.9800, 18789.00
313.1870, 18894.00
314.3940, 19033.00
315.6010, 19096.00
316.8070, 18931.00
318.0130, 19378.00
319.2200, 19379.00
320.4260, 19446.00
321.6310, 20167.00
322.8370, 20711.00
324.0430, 21414.00
325.2480, 21562.00
326.4540, 21941.00
327.6590, 22506.00
328.8640, 23042.00
330.0680, 23491.00
331.2730, 23529.00
332.4780, 23563.00
333.6820, 23380.00
334.8860, 22864.00
336.0900, 22278.00
337.2940, 21372.00
338.4980, 20687.00
339.7010, 20146.00
340.9050, 20007.00
342.1080, 19784.00
343.3110, 19697.00
344.5140, 19724.00
345.7170, 19565.00
346.9200, 19634.00
348.1220, 19526.00
349.3240, 19603.00
350.5270, 19590.00
351.7290, 19663.00
352.9310, 19844.00
354.1320, 19813.00
355.3340, 19957.75
356.5350, 19908.00
357.7370, 20176.00
358.9380, 20274.00
360.1390, 20432.00
361.3400, 20413.00
362.5400, 20646.00
363.7410, 20889.00
364.9410, 21161.00
366.1410, 21205.00
367.3410, 21220.00
368.5410, 21259.00
369.7410, 21267.00
370.9400, 21273.00
372.1400, 20991.00
373.3390, 20722.00
374.5380, 20555.00
375.7370, 20401.00
376.9360, 20378.00
378.1350, 20416.00
379.3330, 20360.00
380.5310, 20399.00
381.7300, 20353.00
382.9280, 20364.00
384.1260, 20467.00
385.3230, 20453.00
386.5210, 20745.00
387.7180, 20611.00
388.9160, 20606.00
390.1130, 20947.00
391.3100, 21110.00
392.5060, 20980.00
393.7030, 21069.00
394.9000, 21233.00
396.0960, 21205.00
397.2920, 21303.00
398.4880, 21193.00
399.6840, 21160.00
400.8800, 20992.00
402.0750, 20972.00
403.2710, 20874.00
404.4660, 20793.64
405.6610, 20690.00
406.8560, 20688.00
408.0510, 20903.00
409.2450, 20937.00
410.4400, 20983.00
411.6340, 21049.00
412.8280, 21027.00
414.0220, 21069.71
415.2160, 21120.02
416.4100, 21144.00
417.6030, 21160.00
418.7970, 21297.00
419.9900, 21178.00
421.1830, 21345.00
422.3760, 21325.00
423.5690, 21558.00
424.7610, 21414.00
425.9540, 21368.00
427.1460, 21659.00
428.3380, 21872.00
429.5300, 21842.00
430.7220, 22307.00
431.9140, 22488.00
433.1050, 22717.00
434.2970, 23382.00
435.4880, 24242.00
436.6790, 25600.00
437.8700, 27985.00
439.0610, 31716.00
440.2510, 35862.00
441.4420, 39602.00
442.6320, 42043.00
443.8220, 46331.00
445.0120, 50872.00
446.2020, 53764.00
447.3910, 55568.00
448.5810, 56320.00
449.7700, 56066.00
450.9600, 53075.00
452.1490, 47427.00
453.3370, 40133.00
454.5260, 33364.00
455.7150, 29116.00
456.9030, 26620.00
458.0910, 25215.00
459.2800, 24233.00
460.4670, 23598.00
461.6550, 23514.00
462.8430, 23098.00
464.0300, 23070.00
465.2180, 22957.00
466.4050, 22724.00
467.5920, 22653.00
468.7790, 22540.00
469.9650, 22753.00
471.1520, 22463.00
472.3380, 22742.00
473.5250, 22295.00
474.7110, 22518.00
475.8970, 22506.00
477.0820, 22632.00
478.2680, 22540.00
479.4540, 22431.00
480.6390, 22654.00
481.8240, 22627.00
483.0090, 22582.00
484.1940, 22718.00
485.3780, 22827.00
486.5630, 22814.00
487.7470, 23065.00
488.9320, 23546.00
490.1160, 24096.00
491.3000, 24823.00
492.4830, 25076.00
493.6670, 25561.00
494.8500, 26399.00
496.0340, 27327.00
497.2170, 27889.00
498.4000, 27919.00
499.5820, 28184.00
500.7650, 27911.00
501.9480, 27270.00
503.1300, 26507.00
504.3120, 25123.00
505.4940, 24105.00
506.6760, 23543.00
507.8580, 23452.00
509.0390, 23227.00
510.2210, 23114.00
511.4020, 23163.00
512.5830, 23114.00
513.7640, 23106.00
514.9450, 23149.00
516.1250, 22991.00
517.3060, 23022.00
518.4860, 22977.00
519.6660, 22929.00
520.8460, 22984.00
522.0260, 22966.54
523.2060, 23012.00
524.3850, 23019.00
525.5650, 23002.67
526.7440, 23061.61
527.9230, 23006.00
529.1020, 23162.00
530.2810, 23260.00
531.4590, 23341.00
532.6380, 23290.00
533.8160, 23334.00
534.9940, 23345.00
536.1720, 23449.00
537.3500, 23491.22
538.5270, 23433.00
539.7050, 23570.00
540.8820, 23462.00
542.0590, 23357.00
543.2360, 23467.00
544.4130, 23643.00
545.5900, 23749.00
546.7660, 23826.00
547.9430, 23745.00
549.1190, 24040.00
550.2950, 23855.00
551.4710, 24156.00
552.6470, 24138.00
553.8220, 24155.00
554.9980, 24248.00
556.1730, 24231.00
557.3480, 24155.00
558.5230, 24209.00
559.6980, 23909.00
560.8730, 24030.00
562.0470, 24002.00
563.2220, 23835.00
564.3960, 24005.00
565.5700, 24108.00
566.7440, 24076.00
567.9170, 24235.00
569.0910, 24169.00
570.2640, 24197.00
571.4380, 24178.00
572.6110, 24341.00
573.7840, 24384.00
574.9570, 24631.00
576.1290, 24778.00
577.3020, 24853.00
578.4740, 24989.00
579.6460, 25046.00
580.8180, 25187.00
581.9900, 25160.00
583.1620, 25164.00
584.3330, 25110.00
585.5040, 24961.00
586.6760, 25099.00
587.8470, 24987.00
589.0180, 24700.00
590.1880, 24731.00
591.3590, 24927.00
592.5290, 24591.00
593.7000, 24881.00
594.8700, 24909.00
596.0400, 24759.00
597.2090, 24885.00
598.3790, 25208.00
599.5490, 25226.00
600.7180, 25481.00
601.8870, 25555.00
603.0560, 25829.00
604.2250, 25975.00
605.3940, 26138.00
606.5620, 26181.00
607.7300, 26435.00
608.8990, 26335.00
610.0670, 26444.00
611.2350, 26414.00
612.4020, 26088.00
613.5700, 26147.00
614.7370, 25976.00
615.9050, 25744.00
617.0720, 25809.00
618.2390, 25617.00
619.4060, 25654.00
620.5720, 25438.00
621.7390, 25452.00
622.9050, 25525.00
624.0710, 25337.00
625.2370, 25463.00
626.4030, 25541.00
627.5690, 25453.00
628.7340, 25442.00
629.9000, 25642.00
631.0650, 25606.00
632.2300, 25601.00
633.3950, 25602.00
634.5600, 25683.00
635.7240, 25625.00
636.8890, 25710.00
638.0530, 25737.00
639.2170, 25783.21
640.3810, 25977.00
641.5450, 25962.00
642.7080, 26100.00
643.8720, 26289.00
645.0350, 26242.00
646.1980, 26404.00
647.3610, 26510.96
648.5240, 26749.00
649.6870, 26790.00
650.8490, 26919.00
652.0120, 27120.43
653.1740, 27389.19
654.3360, 27695.00
655.4980, 28139.00
656.6600, 28502.00
657.8210, 29017.00
658.9830, 29880.00
660.1440, 30487.00
661.3050, 31154.00
662.4660, 31649.00
663.6270, 32233.00
664.7870, 32409.00
665.9480, 32627.00
667.1080, 32554.00
668.2680, 32324.00
669.4280, 32011.29
670.5880, 31293.00
671.7480, 30944.00
672.9070, 30194.00
674.0670, 29487.00
675.2260, 28920.00
676.3850, 28569.00
677.5440, 28195.00
678.7030, 27842.00
679.8610, 27571.00
681.0200, 27470.00
682.1780, 27242.00
683.3360, 27132.00
684.4940, 27025.49
685.6520, 26936.00
686.8090, 26882.00
687.9670, 26893.00
689.1240, 26907.00
690.2810, 27053.00
691.4380, 26717.00
692.5950, 26951.00
693.7520, 26937.00
694.9080, 26745.00
696.0650, 26803.00
697.2210, 27020.00
698.3770, 26964.00
699.5330, 26898.00
700.6880, 26998.00
701.8440, 26894.00
702.9990, 27135.00
704.1550, 27079.00
705.3100, 27142.00
706.4650, 27054.00
707.6190, 27193.00
708.7740, 26818.00
709.9290, 26804.00
711.0830, 26998.00
712.2370, 27034.00
713.3910, 27145.00
714.5450, 27258.00
715.6980, 26942.00
716.8520, 27012.00
718.0050, 27151.00
719.1580, 26916.00
720.3110, 27044.00
721.4640, 26833.00
722.6170, 27227.00
723.7700, 27098.00
724.9220, 27109.00
726.0740, 27172.00
727.2260, 27208.00
728.3780, 27345.00
729.5300, 27404.00
730.6810, 27295.00
731.8330, 27235.00
732.9840, 27453.00
734.1350, 27325.00
735.2860, 27526.00
736.4370, 27485.00
737.5880, 27290.00
738.7380, 27371.00
739.8880, 27366.00
741.0390, 27316.00
742.1890, 27414.00
743.3380, 27560.00
744.4880, 27609.00
745.6380, 27539.00
746.7870, 27571.00
747.9360, 27825.00
749.0850, 27617.00
750.2340, 27817.00
751.3830, 27855.00
752.5310, 27509.00
753.6800, 27672.00
754.8280, 27889.00
755.9760, 27774.00
757.1240, 27791.00
758.2720, 27974.00
759.4190, 27951.00
760.5670, 27966.00
761.7140, 28107.00
762.8610, 27958.00
764.0080, 27902.00
765.1550, 28152.00
766.3020, 28111.00
767.4480, 28151.00
768.5950, 28213.00
769.7410, 28437.00
770.8870, 28357.00
772.0330, 28433.00
773.1780, 28872.00
774.3240, 28625.00
775.4690, 28953.00
776.6140, 28955.00
777.7590, 28918.00
778.9040, 29363.00
780.0490, 29771.00
781.1940, 29957.00
782.3380, 30269.00
783.4820, 30463.00
784.6260, 30689.00
785.7700, 31393.00
786.9140, 31607.00
788.0580, 31942.00
789.2010, 32233.00
790.3450, 32518.00
791.4880, 32934.00
792.6310, 32801.00
793.7730, 32771.00
794.9160, 32502.00
796.0590, 32166.00
797.2010, 31845.00
798.3430, 31428.00
799.4850, 31147.00
800.6270, 30800.00
801.7690, 30302.00
802.9100, 29905.00
804.0520, 29612.00
805.1930, 29786.00
806.3340, 29574.00
807.4750, 29377.00
808.6160, 29157.00
809.7560, 29199.00
810.8970, 29255.00
812.0370, 29136.00
813.1770, 29084.00
814.3170, 29263.00
815.4570, 29108.00
816.5960, 28973.00
817.7360, 28932.00
818.8750, 29078.00
820.0140, 28991.00
821.1530, 28966.00
822.2920, 29015.00
823.4310, 28986.20
824.5690, 28903.00
825.7070, 29004.00
826.8460, 29117.00
827.9840, 29091.50
829.1220, 29245.00
830.2590, 29048.00
831.3970, 29093.00
832.5340, 29119.00
833.6710, 28888.00
834.8080, 29170.00
835.9450, 29164.00
837.0820, 28970.00
838.2190, 29162.00
839.3550, 29208.00
840.4910, 29266.00
841.6270, 29210.00
842.7630, 29178.00
843.8990, 29006.00
845.0350, 29231.00
846.1700, 29160.00
847.3060, 29431.00
848.4410, 29195.00
849.5760, 29329.00
850.7100, 29383.00
851.8450, 29304.00
852.9800, 29233.00
854.1140, 29333.00
855.2480, 29265.00
856.3820, 29420.00
857.5160, 29244.00
858.6500, 29420.00
859.7830, 29571.00
860.9170, 29552.00
862.0500, 29668.00
863.1830, 29438.00
864.3160, 29542.00
865.4480, 29554.00
866.5810, 29510.00
867.7130, 29562.00
868.8460, 29599.00
869.9780, 29705.00
871.1100, 29610.00
872.2410, 29660.00
873.3730, 29580.00
874.5050, 29812.00
875.6360, 29875.00
876.7670, 29784.00
877.8980, 29761.00
879.0290, 29770.00
880.1590, 30029.00
881.2900, 29799.00
882.4200, 29917.00
883.5500, 29713.00
884.6800, 29822.00
885.8100, 29920.00
886.9400, 29702.00
888.0690, 29739.00
889.1990, 30010.00
890.3280, 30044.00
891.4570, 29951.00
892.5860, 29966.00
893.7140, 30045.00
894.8430, 29935.00
895.9710, 30051.00
897.1000, 30247.00
898.2280, 30165.00
899.3560, 30273.00
900.4830, 30185.00
901.6110, 30151.00
902.7380, 30340.00
903.8660, 30525.00
904.9930, 30213.00
906.1200, 30070.00
907.2460, 30460.00
908.3730, 30290.00
909.5000, 30500.00
910.6260, 30107.00
911.7520, 30620.00
912.8780, 30487.00
914.0040, 30526.00
915.1290, 30585.00
916.2550, 30421.00
917.3800, 30767.00
918.5050, 30481.00
919.6300, 30885.00
920.7550, 30744.00
921.8800, 30603.00
923.0040, 30703.00
924.1290, 30852.00
925.2530, 30784.00
926.3770, 30824.00
927.5010, 30908.00
928.6250, 30687.00
929.7480, 30903.00
930.8720, 30904.00
931.9950, 30853.00
933.1180, 30690.00
934.2410, 31055.00
935.3640, 30780.00
936.4860, 30965.00
937.6090, 30945.00
938.7310, 30814.00
939.8530, 30954.00
940.9750, 30937.00
942.0970, 30973.00
943.2180, 31114.00
944.3400, 30981.00
945.4610, 31216.00
946.5820, 31284.00
947.7030, 31137.00
948.8240, 31184.00
949.9450, 31106.00
951.0650, 31197.00
952.1860, 31035.00
953.3060, 31296.00
954.4260, 31325.00
955.5460, 31269.00
956.6650, 31232.00
957.7850, 31245.00
958.9040, 31492.00
960.0230, 31209.00
961.1420, 31393.00
962.2610, 31256.00
963.3800, 31502.00
964.4990, 31554.00
965.6170, 31663.00
966.7350, 31504.00
967.8530, 31624.00
968.9710, 31349.00
970.0890, 31462.00
971.2070, 31725.00
972.3240, 31651.00
973.4410, 31746.00
974.5580, 31683.00
975.6750, 31841.00
976.7920, 31839.00
977.9090, 32055.00
979.0250, 32171.00
980.1410, 32174.11
981.2580, 32215.33
982.3740, 32194.00
983.4890, 32137.00
984.6050, 32133.00
985.7200, 32115.00
986.8360, 32119.70
987.9510, 32207.00
989.0660, 32158.00
990.1810, 32345.00
991.2950, 32382.00
992.4100, 32523.00
993.5240, 32619.00
994.6390, 32616.92
995.7530, 32355.00
996.8660, 32608.00
997.9800, 32503.00
999.0940, 32480.00
1000.207, 32610.00
1001.320, 32701.00
1002.433, 32325.00
1003.546, 32742.00
1004.659, 32925.00
1005.772, 32584.00
1006.884, 32534.00
1007.996, 32647.00
1009.108, 32830.00
1010.220, 32723.00
1011.332, 32964.00
1012.444, 32570.00
1013.555, 32853.00
1014.666, 32784.00
1015.777, 32934.00
1016.888, 32849.00
1017.999, 32975.00
1019.110, 32790.00
1020.220, 32775.00
1021.331, 32924.00
1022.441, 32868.00
1023.551, 33009.00
1024.661, 32982.00
1025.770, 32942.00
1026.880, 33051.00
1027.989, 33032.00
1029.098, 32970.00
1030.207, 32957.00
1031.316, 32934.02
1032.425, 32948.71
1033.533, 32990.00
1034.642, 32990.00
1035.750, 33200.00
1036.858, 33192.00
1037.966, 33267.00
1039.073, 33289.00
1040.181, 33338.00
1041.288, 33488.00
1042.396, 33417.00
1043.503, 33503.00
1044.610, 33797.00
1045.716, 33611.00
1046.823, 33956.00
1047.929, 33774.00
1049.036, 33651.00
1050.142, 33687.00
1051.248, 33906.00
1052.353, 33491.00
1053.459, 33646.00
1054.564, 33648.00
1055.670, 33309.00
1056.775, 33562.00
1057.880, 33486.00
1058.985, 33334.00
1060.089, 33315.00
1061.194, 33559.00
1062.298, 33573.00
1063.402, 33499.00
1064.506, 33603.00
1065.610, 33576.00
1066.713, 33758.00
1067.817, 33439.00
1068.920, 33832.00
1070.023, 33514.00
1071.126, 33694.00
1072.229, 33823.00
1073.332, 33741.00
1074.435, 33647.00
1075.537, 33929.00
1076.639, 33566.00
1077.741, 33620.00
1078.843, 33779.00
1079.945, 33922.00
1081.046, 33936.11
1082.148, 34005.37
1083.249, 33968.00
1084.350, 34008.00
1085.451, 33987.00
1086.551, 33962.00
1087.652, 34032.00
1088.752, 33811.00
1089.853, 34241.00
1090.953, 33853.00
1092.053, 34278.00
1093.152, 33946.00
1094.252, 34269.00
1095.351, 34221.00
1096.451, 34121.00
1097.550, 34163.00
1098.649, 34074.00
1099.748, 34235.00
1100.846, 34106.00
1101.945, 34287.00
1103.043, 34202.00
1104.141, 34338.00
1105.239, 34486.00
1106.337, 34381.00
1107.434, 34460.42
1108.532, 34294.00
1109.629, 34402.00
1110.726, 34401.00
1111.823, 34329.00
1112.920, 34518.00
1114.017, 34313.00
1115.113, 34403.00
1116.210, 34721.00
1117.306, 34836.00
1118.402, 34894.00
1119.498, 35309.00
1120.593, 34904.00
1121.689, 35419.00
1122.784, 35429.00
1123.879, 35486.00
1124.974, 35343.00
1126.069, 35320.00
1127.164, 35239.81
1128.259, 34847.00
1129.353, 35007.00
1130.447, 34750.00
1131.541, 34526.00
1132.635, 34621.00
1133.729, 34787.00
1134.822, 34751.00
1135.916, 34646.00
1137.009, 34779.00
1138.102, 34694.00
1139.195, 35090.00
1140.288, 34905.00
1141.380, 34602.00
1142.473, 34964.00
1143.565, 34748.00
1144.657, 35015.00
1145.749, 35100.00
1146.841, 34881.00
1147.932, 34855.00
1149.024, 34943.00
1150.115, 34868.00
1151.206, 35182.00
1152.297, 35244.00
1153.388, 35044.00
1154.479, 35111.00
1155.569, 35000.00
1156.659, 35086.00
1157.750, 35021.00
1158.839, 35132.00
1159.929, 35099.00
1161.019, 35122.32
1162.108, 35203.00
1163.198, 35166.00
1164.287, 35185.00
1165.376, 35225.00
1166.465, 35310.00
1167.553, 35353.00
1168.642, 35424.38
1169.730, 35534.14
1170.818, 35562.00
1171.906, 35732.00
1172.994, 35808.00
1174.082, 35836.00
1175.170, 35976.00
1176.257, 35759.00
1177.344, 35797.00
1178.431, 35922.00
1179.518, 36177.00
1180.605, 36392.00
1181.691, 36603.00
1182.778, 36913.00
1183.864, 37068.00
1184.950, 37785.00
1186.036, 38228.00
1187.122, 38793.00
1188.207, 39683.00
1189.292, 39979.00
1190.378, 41000.00
1191.463, 41415.00
1192.548, 41858.00
1193.632, 41638.00
1194.717, 41764.00
1195.801, 41573.00
1196.886, 40523.00
1197.970, 40166.00
1199.054, 39315.00
1200.137, 38591.00
1201.221, 37888.00
1202.305, 37466.00
1203.388, 36988.00
1204.471, 37029.00
1205.554, 36761.00
1206.637, 36718.00
1207.719, 36553.00
1208.802, 36447.00
1209.884, 36321.00
1210.966, 36228.00
1212.048, 36181.00
1213.130, 36255.00
1214.212, 36330.00
1215.293, 36254.00
1216.374, 36368.00
1217.456, 36178.00
1218.536, 36218.00
1219.617, 36126.00
1220.698, 36151.00
1221.778, 36368.00
1222.859, 36072.00
1223.939, 36221.00
1225.019, 36337.00
1226.099, 36164.00
1227.178, 36302.00
1228.258, 36205.00
1229.337, 36213.00
1230.417, 36291.00
1231.496, 36345.00
1232.574, 36364.00
1233.653, 36393.00
1234.732, 36225.00
1235.810, 36292.00
1236.888, 36430.00
1237.966, 36289.00
1239.044, 36463.00
1240.122, 36461.00
1241.199, 36565.00
1242.277, 36529.00
1243.354, 36406.00
1244.431, 36545.00
1245.508, 36499.00
1246.585, 36484.00
1247.661, 36587.00
1248.738, 36548.00
1249.814, 36628.00
1250.890, 36736.00
1251.966, 36405.00
1253.042, 36541.00
1254.117, 36461.00
1255.193, 36236.00
1256.268, 36705.00
1257.343, 36512.00
1258.418, 36619.00
1259.493, 36889.00
1260.567, 36698.00
1261.642, 36375.00
1262.716, 36871.00
1263.790, 36940.00
1264.864, 36682.00
1265.938, 37013.00
1267.011, 36941.00
1268.085, 36698.00
1269.158, 36776.00
1270.231, 36950.00
1271.304, 36629.00
1272.377, 37043.00
1273.450, 36813.00
1274.522, 36744.00
1275.594, 37018.00
1276.666, 36856.00
1277.738, 36843.00
1278.810, 36907.00
1279.882, 37152.00
1280.953, 36923.00
1282.025, 36999.00
1283.096, 36840.00
1284.167, 36972.00
1285.238, 37023.00
1286.308, 37081.00
1287.379, 37247.00
1288.449, 37300.00
1289.519, 37091.00
1290.589, 37140.00
1291.659, 37359.00
1292.729, 37029.00
1293.798, 37344.00
1294.868, 37088.00
1295.937, 37206.00
1297.006, 37414.00
1298.075, 37050.00
1299.143, 37135.00
1300.212, 37340.00
1301.280, 37266.00
1302.348, 37322.00
1303.416, 37291.00
1304.484, 37375.00
1305.552, 37516.00
1306.620, 37195.00
1307.687, 37551.00
