##NAMES=Diaspore
##RRUFFID=R060546
##IDEAL CHEMISTRY=AlO(OH)
##LOCALITY=Turkey
##OWNER=RRUFF
##SOURCE=Gemological Institute of America
##DESCRIPTION=Platy transparent pale yellow fragment
##STATUS=The identification of this mineral has been confirmed by X-ray diffraction and chemical analysis
##URL=rruff.info/R060546
##MEASURED CHEMISTRY=(Al_0.99_Fe^3+^_0.01_)_Î£=1_O(OH) ; OH estimated by difference; Fe^3+^ by charge balance
##PIN_ID=L01871
##ORIENTATION=Laser parallel to a* (1 0 0). Fiducial mark perpendicular to laser is parallel to b [0 1 0]
132.8980, 19002.00
134.1270, 19007.00
135.3560, 19150.00
136.5850, 19291.00
137.8140, 19500.00
139.0430, 19486.00
140.2710, 19780.00
141.5000, 19849.00
142.7280, 19794.00
143.9560, 20029.00
145.1840, 20257.00
146.4120, 20273.00
147.6390, 20391.00
148.8670, 20469.00
150.0940, 20549.00
151.3210, 21013.00
152.5490, 21047.00
153.7750, 21191.00
155.0020, 20827.00
156.2290, 20842.00
157.4550, 21004.00
158.6810, 20837.00
159.9080, 20746.00
161.1340, 20580.00
162.3590, 20636.00
163.5850, 20831.00
164.8110, 20610.00
166.0360, 20872.00
167.2610, 20592.00
168.4860, 20711.00
169.7110, 20878.00
170.9360, 21004.00
172.1610, 20837.00
173.3850, 20884.00
174.6100, 20756.00
175.8340, 20910.00
177.0580, 21076.00
178.2820, 21121.00
179.5050, 21278.00
180.7290, 21321.00
181.9520, 21391.00
183.1760, 21372.00
184.3990, 21371.00
185.6220, 21475.00
186.8450, 21534.00
188.0670, 21539.00
189.2900, 21637.00
190.5120, 21733.00
191.7340, 21657.00
192.9560, 21822.00
194.1780, 21754.00
195.4000, 21705.00
196.6220, 21767.00
197.8430, 21823.00
199.0640, 22008.00
200.2860, 21931.00
201.5070, 22108.00
202.7270, 22158.00
203.9480, 22341.00
205.1690, 22202.00
206.3890, 21978.00
207.6090, 22071.00
208.8290, 21972.00
210.0490, 22210.00
211.2690, 22022.00
212.4890, 22214.00
213.7080, 22269.00
214.9280, 22443.00
216.1470, 22467.00
217.3660, 22369.00
218.5850, 22264.00
219.8030, 22672.00
221.0220, 22679.00
222.2400, 22439.00
223.4590, 22438.00
224.6770, 22252.00
225.8950, 22300.07
227.1120, 22438.00
228.3300, 22446.00
229.5480, 22678.00
230.7650, 22797.00
231.9820, 22725.00
233.1990, 22788.00
234.4160, 22725.00
235.6330, 22790.00
236.8490, 22777.75
238.0660, 22776.17
239.2820, 22773.00
240.4980, 22804.00
241.7140, 22796.00
242.9300, 22851.00
244.1460, 23118.00
245.3610, 23034.00
246.5770, 23119.00
247.7920, 22980.00
249.0070, 23112.00
250.2220, 23220.00
251.4370, 23114.00
252.6510, 23181.00
253.8660, 23207.00
255.0800, 23361.00
256.2940, 23414.00
257.5080, 23503.00
258.7220, 23849.00
259.9360, 23754.79
261.1490, 23749.90
262.3630, 23785.00
263.5760, 23480.00
264.7890, 23579.00
266.0020, 23427.00
267.2150, 23650.00
268.4270, 23726.00
269.6400, 23817.00
270.8520, 23799.00
272.0640, 23681.00
273.2760, 23743.00
274.4880, 23917.00
275.7000, 23844.00
276.9120, 23982.00
278.1230, 24073.00
279.3340, 24137.00
280.5450, 24114.00
281.7560, 24311.00
282.9670, 24078.00
284.1780, 24368.00
285.3880, 24338.00
286.5980, 24375.00
287.8090, 24396.00
289.0190, 24459.00
290.2290, 24446.71
291.4380, 24338.00
292.6480, 24425.00
293.8570, 24483.00
295.0670, 24458.00
296.2760, 24570.00
297.4850, 24570.00
298.6930, 24629.00
299.9020, 24745.00
301.1110, 24561.00
302.3190, 24620.00
303.5270, 24668.00
304.7350, 24718.00
305.9430, 24972.00
307.1510, 24863.00
308.3580, 25032.00
309.5660, 24999.00
310.7730, 24978.00
311.9800, 24975.00
313.1870, 25083.00
314.3940, 25288.00
315.6010, 25300.00
316.8070, 25374.00
318.0130, 25409.00
319.2200, 25872.00
320.4260, 26273.00
321.6310, 27031.00
322.8370, 27846.00
324.0430, 28638.00
325.2480, 29139.00
326.4540, 29902.00
327.6590, 30787.00
328.8640, 31424.00
330.0680, 31572.00
331.2730, 31863.00
332.4780, 31427.00
333.6820, 30881.00
334.8860, 30361.00
336.0900, 30091.00
337.2940, 28606.00
338.4980, 27658.00
339.7010, 27197.00
340.9050, 26707.00
342.1080, 26641.00
343.3110, 26441.00
344.5140, 26245.00
345.7170, 26260.00
346.9200, 26256.00
348.1220, 26136.00
349.3240, 26298.00
350.5270, 26243.00
351.7290, 26342.00
352.9310, 26331.00
354.1320, 26290.00
355.3340, 26550.00
356.5350, 26687.00
357.7370, 26804.00
358.9380, 26827.00
360.1390, 27009.00
361.3400, 27161.00
362.5400, 27418.00
363.7410, 27341.00
364.9410, 27717.00
366.1410, 27809.00
367.3410, 27893.00
368.5410, 27635.00
369.7410, 27666.00
370.9400, 27595.00
372.1400, 27576.00
373.3390, 27454.00
374.5380, 27342.00
375.7370, 27297.00
376.9360, 27224.00
378.1350, 27132.00
379.3330, 27209.00
380.5310, 27190.00
381.7300, 27479.00
382.9280, 27331.00
384.1260, 27635.00
385.3230, 27641.00
386.5210, 27412.00
387.7180, 27475.00
388.9160, 27514.00
390.1130, 27507.00
391.3100, 27733.00
392.5060, 27669.00
393.7030, 27814.00
394.9000, 27814.00
396.0960, 27905.00
397.2920, 27826.00
398.4880, 27867.00
399.6840, 27930.00
400.8800, 27977.00
402.0750, 28028.00
403.2710, 28039.00
404.4660, 28055.89
405.6610, 28078.33
406.8560, 28050.00
408.0510, 28118.00
409.2450, 28112.00
410.4400, 28160.60
411.6340, 28249.00
412.8280, 28204.00
414.0220, 28315.00
415.2160, 28341.00
416.4100, 28437.00
417.6030, 28624.00
418.7970, 28484.00
419.9900, 28357.00
421.1830, 28605.00
422.3760, 28613.00
423.5690, 28618.00
424.7610, 28911.00
425.9540, 28787.00
427.1460, 29004.00
428.3380, 29215.00
429.5300, 29535.00
430.7220, 29425.00
431.9140, 29681.00
433.1050, 29767.00
434.2970, 30350.00
435.4880, 31233.00
436.6790, 32453.00
437.8700, 34695.00
439.0610, 38140.00
440.2510, 42278.00
441.4420, 45694.00
442.6320, 48126.00
443.8220, 51911.00
445.0120, 55893.00
446.2020, 57460.00
447.3910, 57030.00
448.5810, 55274.00
449.7700, 54018.00
450.9600, 51175.00
452.1490, 46964.00
453.3370, 42094.00
454.5260, 38051.00
455.7150, 34767.00
456.9030, 32967.00
458.0910, 32058.00
459.2800, 31189.00
460.4670, 30920.00
461.6550, 30664.00
462.8430, 30547.00
464.0300, 30425.85
465.2180, 30271.00
466.4050, 30452.00
467.5920, 30428.00
468.7790, 30380.89
469.9650, 30102.00
471.1520, 30277.00
472.3380, 30280.00
473.5250, 30180.00
474.7110, 30236.00
475.8970, 30356.00
477.0820, 30419.00
478.2680, 30263.00
479.4540, 30455.00
480.6390, 30652.00
481.8240, 30547.00
483.0090, 30813.00
484.1940, 30980.00
485.3780, 31302.00
486.5630, 31824.00
487.7470, 32520.00
488.9320, 33683.00
490.1160, 35848.00
491.3000, 37457.44
492.4830, 40585.00
493.6670, 41967.00
494.8500, 44706.00
496.0340, 47274.00
497.2170, 48388.00
498.4000, 47420.00
499.5820, 46776.00
500.7650, 45309.00
501.9480, 43263.00
503.1300, 40434.00
504.3120, 37382.00
505.4940, 34972.00
506.6760, 33307.00
507.8580, 32500.00
509.0390, 31751.00
510.2210, 31538.00
511.4020, 31377.00
512.5830, 31441.00
513.7640, 31149.00
514.9450, 31435.00
516.1250, 31222.00
517.3060, 31237.00
518.4860, 31279.00
519.6660, 31363.00
520.8460, 31431.00
522.0260, 31281.00
523.2060, 31160.00
524.3850, 31114.00
525.5650, 31454.00
526.7440, 31348.00
527.9230, 31322.00
529.1020, 31520.00
530.2810, 31482.00
531.4590, 31463.00
532.6380, 31629.00
533.8160, 31552.00
534.9940, 31591.00
536.1720, 31787.00
537.3500, 31709.00
538.5270, 31453.00
539.7050, 31747.00
540.8820, 31599.00
542.0590, 31839.00
543.2360, 31712.00
544.4130, 32179.00
545.5900, 32184.00
546.7660, 32432.00
547.9430, 32347.00
549.1190, 32762.00
550.2950, 32432.00
551.4710, 32693.00
552.6470, 32802.00
553.8220, 32655.00
554.9980, 32787.00
556.1730, 32567.00
557.3480, 32558.00
558.5230, 32661.00
559.6980, 32506.00
560.8730, 32391.00
562.0470, 32569.00
563.2220, 32367.00
564.3960, 32410.00
565.5700, 32657.00
566.7440, 32392.00
567.9170, 32521.00
569.0910, 32533.00
570.2640, 32855.00
571.4380, 32884.00
572.6110, 32710.00
573.7840, 32770.00
574.9570, 32561.00
576.1290, 32924.00
577.3020, 32895.00
578.4740, 32962.00
579.6460, 32890.00
580.8180, 32703.00
581.9900, 32925.00
583.1620, 32654.00
584.3330, 32826.00
585.5040, 32964.00
586.6760, 33066.00
587.8470, 33389.00
589.0180, 32950.00
590.1880, 33011.00
591.3590, 33165.00
592.5290, 33198.00
593.7000, 33022.00
594.8700, 33331.00
596.0400, 33126.00
597.2090, 33363.00
598.3790, 33399.00
599.5490, 33493.00
600.7180, 33716.00
601.8870, 33663.00
603.0560, 33943.00
604.2250, 33803.00
605.3940, 33926.00
606.5620, 34049.00
607.7300, 34137.00
608.8990, 34210.00
610.0670, 34121.00
611.2350, 34366.00
612.4020, 34186.00
613.5700, 34066.00
614.7370, 34295.00
615.9050, 34146.00
617.0720, 34365.00
618.2390, 33961.00
619.4060, 34089.00
620.5720, 34096.00
621.7390, 34100.00
622.9050, 34046.00
624.0710, 34108.59
625.2370, 34164.49
626.4030, 34262.00
627.5690, 34280.00
628.7340, 34479.00
629.9000, 34392.00
631.0650, 34368.00
632.2300, 34452.00
633.3950, 34862.00
634.5600, 34576.00
635.7240, 34651.00
636.8890, 35105.00
638.0530, 34712.00
639.2170, 35038.00
640.3810, 34995.00
641.5450, 35276.00
642.7080, 35185.00
643.8720, 35471.00
645.0350, 35695.00
646.1980, 35804.00
647.3610, 36065.00
648.5240, 36127.00
649.6870, 36771.00
650.8490, 37041.00
652.0120, 37452.00
653.1740, 38315.00
654.3360, 38839.00
655.4980, 39961.00
656.6600, 41281.00
657.8210, 42517.00
658.9830, 43554.00
660.1440, 45179.00
661.3050, 46333.00
662.4660, 47700.00
663.6270, 48174.00
664.7870, 48658.00
665.9480, 48743.00
667.1080, 48430.00
668.2680, 47864.00
669.4280, 46754.00
670.5880, 45303.00
671.7480, 44323.00
672.9070, 43020.00
674.0670, 41989.45
675.2260, 41074.00
676.3850, 40083.00
677.5440, 39430.00
678.7030, 38704.00
679.8610, 38459.00
681.0200, 37923.00
682.1780, 37583.00
683.3360, 37374.00
684.4940, 37078.00
685.6520, 37126.00
686.8090, 37258.00
687.9670, 37087.00
689.1240, 37146.00
690.2810, 36869.00
691.4380, 36992.00
692.5950, 36850.00
693.7520, 36881.00
694.9080, 37054.00
696.0650, 36981.00
697.2210, 36807.00
698.3770, 36858.00
699.5330, 36919.00
700.6880, 37145.00
701.8440, 37278.00
702.9990, 36962.00
704.1550, 36916.00
705.3100, 36900.00
706.4650, 36864.00
707.6190, 36888.39
708.7740, 36878.00
709.9290, 36933.00
711.0830, 36986.00
712.2370, 36968.00
713.3910, 36882.00
714.5450, 37090.00
715.6980, 36850.00
716.8520, 37133.00
718.0050, 37117.00
719.1580, 37193.00
720.3110, 37305.00
721.4640, 37124.00
722.6170, 37229.00
723.7700, 37002.00
724.9220, 37246.00
726.0740, 37289.00
727.2260, 37248.00
728.3780, 37446.00
729.5300, 37410.66
730.6810, 37654.00
731.8330, 37494.00
732.9840, 37301.00
734.1350, 37392.00
735.2860, 37317.00
736.4370, 37565.00
737.5880, 37409.00
738.7380, 37476.00
739.8880, 37354.00
741.0390, 37402.00
742.1890, 37689.00
743.3380, 37607.18
744.4880, 37392.00
745.6380, 37665.00
746.7870, 37617.00
747.9360, 37561.00
749.0850, 37513.00
750.2340, 37351.00
751.3830, 37585.00
752.5310, 37610.00
753.6800, 37497.00
754.8280, 37473.00
755.9760, 37851.00
757.1240, 37636.00
758.2720, 37478.00
759.4190, 37800.00
760.5670, 37603.00
761.7140, 37525.00
762.8610, 37833.00
764.0080, 37777.00
765.1550, 38121.00
766.3020, 37719.00
767.4480, 38022.00
768.5950, 37652.00
769.7410, 37860.00
770.8870, 37821.00
772.0330, 37969.00
773.1780, 37984.29
774.3240, 38287.00
775.4690, 38019.00
776.6140, 38159.00
777.7590, 38223.00
778.9040, 38052.00
780.0490, 37865.00
781.1940, 38180.00
782.3380, 38311.00
783.4820, 38387.00
784.6260, 38464.00
785.7700, 38596.00
786.9140, 38767.00
788.0580, 38549.00
789.2010, 38677.00
790.3450, 38722.00
791.4880, 38829.00
792.6310, 38861.00
793.7730, 38705.00
794.9160, 38494.00
796.0590, 38688.00
797.2010, 38515.56
798.3430, 38698.00
799.4850, 38486.00
800.6270, 38567.00
801.7690, 38653.00
802.9100, 38638.00
804.0520, 38565.00
805.1930, 38650.00
806.3340, 38888.00
807.4750, 38815.00
808.6160, 38707.00
809.7560, 38922.00
810.8970, 38743.00
812.0370, 38710.00
813.1770, 38648.00
814.3170, 38767.00
815.4570, 38951.00
816.5960, 38998.00
817.7360, 38954.00
818.8750, 39060.00
820.0140, 38854.00
821.1530, 38954.00
822.2920, 38901.00
823.4310, 38773.00
824.5690, 38947.00
825.7070, 39050.00
826.8460, 38952.00
827.9840, 39267.00
829.1220, 39162.00
830.2590, 39034.00
831.3970, 39202.00
832.5340, 39216.00
833.6710, 39326.00
834.8080, 39377.00
835.9450, 39143.00
837.0820, 39153.00
838.2190, 39433.00
839.3550, 39689.00
840.4910, 39318.00
841.6270, 39393.00
842.7630, 39422.00
843.8990, 39417.00
845.0350, 39453.00
846.1700, 39509.17
847.3060, 39568.94
848.4410, 39660.00
849.5760, 39702.00
850.7100, 39808.00
851.8450, 39802.00
852.9800, 39798.00
854.1140, 39844.00
855.2480, 39751.00
856.3820, 39671.00
857.5160, 39720.00
858.6500, 39753.00
859.7830, 40009.00
860.9170, 39988.00
862.0500, 39806.00
863.1830, 40241.00
864.3160, 40217.00
865.4480, 40263.00
866.5810, 39940.00
867.7130, 40220.00
868.8460, 40057.00
869.9780, 40153.00
871.1100, 40142.00
872.2410, 40199.00
873.3730, 40412.00
874.5050, 40292.00
875.6360, 40517.00
876.7670, 40274.00
877.8980, 40282.00
879.0290, 40357.00
880.1590, 40583.00
881.2900, 40512.00
882.4200, 40635.00
883.5500, 40429.00
884.6800, 40671.00
885.8100, 40575.00
886.9400, 40611.00
888.0690, 40721.00
889.1990, 40682.00
890.3280, 40718.00
891.4570, 40926.00
892.5860, 40735.00
893.7140, 40354.00
894.8430, 40755.00
895.9710, 41188.00
897.1000, 40850.00
898.2280, 40823.00
899.3560, 41086.00
900.4830, 40940.00
901.6110, 41044.00
902.7380, 41193.00
903.8660, 41179.00
904.9930, 41072.00
906.1200, 41283.00
907.2460, 40908.00
908.3730, 41176.00
909.5000, 41202.00
910.6260, 41410.00
911.7520, 41497.00
912.8780, 41215.00
914.0040, 41365.00
915.1290, 41428.00
916.2550, 41306.00
917.3800, 41396.00
918.5050, 41574.00
919.6300, 41524.00
920.7550, 41712.00
921.8800, 41423.00
923.0040, 41654.62
924.1290, 41817.00
925.2530, 41885.00
926.3770, 41658.00
927.5010, 41636.00
928.6250, 41669.44
929.7480, 41487.00
930.8720, 41787.00
931.9950, 41792.00
933.1180, 41911.00
934.2410, 41793.00
935.3640, 41759.00
936.4860, 42137.00
937.6090, 41974.00
938.7310, 42038.00
939.8530, 41988.00
940.9750, 42028.00
942.0970, 42064.00
943.2180, 42052.00
944.3400, 42112.00
945.4610, 42191.00
946.5820, 42352.00
947.7030, 42326.00
948.8240, 42351.00
949.9450, 42218.00
951.0650, 42183.00
952.1860, 42332.00
953.3060, 42429.00
954.4260, 42718.00
955.5460, 42487.00
956.6650, 42662.00
957.7850, 42369.00
958.9040, 42605.00
960.0230, 42459.00
961.1420, 42473.00
962.2610, 42555.00
963.3800, 42582.00
964.4990, 42763.00
965.6170, 42950.00
966.7350, 42719.00
967.8530, 42943.00
968.9710, 42594.00
970.0890, 42681.00
971.2070, 42583.00
972.3240, 42747.00
973.4410, 42898.00
974.5580, 42775.00
975.6750, 43305.00
976.7920, 42974.00
977.9090, 42986.00
979.0250, 43270.00
980.1410, 43434.00
981.2580, 43317.00
982.3740, 43248.00
983.4890, 43298.00
984.6050, 43231.68
985.7200, 43265.17
986.8360, 43279.00
987.9510, 43364.00
989.0660, 43407.36
990.1810, 43433.65
991.2950, 43521.00
992.4100, 43557.00
993.5240, 43568.00
994.6390, 43776.00
995.7530, 43942.00
996.8660, 43854.00
997.9800, 43990.00
999.0940, 43898.00
1000.207, 43794.00
1001.320, 44133.00
1002.433, 43957.00
1003.546, 44083.00
1004.659, 43995.00
1005.772, 43980.00
1006.884, 44090.00
1007.996, 44301.00
1009.108, 44090.00
1010.220, 44321.00
1011.332, 44188.00
1012.444, 44289.00
1013.555, 44412.00
1014.666, 44058.00
1015.777, 44402.00
1016.888, 44266.00
1017.999, 44616.00
1019.110, 44265.00
1020.220, 44830.00
1021.331, 44274.00
1022.441, 44426.00
1023.551, 44757.00
1024.661, 44482.00
1025.770, 44575.00
1026.880, 44319.00
1027.989, 44294.00
1029.098, 44665.00
1030.207, 44554.00
1031.316, 44719.00
1032.425, 44350.00
1033.533, 44622.00
1034.642, 44957.00
1035.750, 44676.00
1036.858, 44501.00
1037.966, 44623.00
1039.073, 44846.00
1040.181, 45079.00
1041.288, 45286.00
1042.396, 45415.93
1043.503, 45525.61
1044.610, 45565.00
1045.716, 45581.00
1046.823, 45493.00
1047.929, 45369.00
1049.036, 45551.00
1050.142, 45606.00
1051.248, 45306.00
1052.353, 45161.00
1053.459, 45183.00
1054.564, 45374.00
1055.670, 45339.00
1056.775, 45386.00
1057.880, 45234.00
1058.985, 45090.00
1060.089, 45484.00
1061.194, 45338.00
1062.298, 45619.00
1063.402, 45276.00
1064.506, 45279.00
1065.610, 45460.00
1066.713, 45548.00
1067.817, 45442.00
1068.920, 45589.00
1070.023, 45440.00
1071.126, 45649.00
1072.229, 45383.00
1073.332, 45719.00
1074.435, 45947.00
1075.537, 45703.00
1076.639, 45379.00
1077.741, 45714.00
1078.843, 45625.00
1079.945, 45978.00
1081.046, 45810.00
1082.148, 45870.00
1083.249, 45927.00
1084.350, 45869.00
1085.451, 45823.00
1086.551, 46210.00
1087.652, 45947.00
1088.752, 45840.00
1089.853, 46189.00
1090.953, 46001.00
1092.053, 46147.00
1093.152, 46270.00
1094.252, 46138.00
1095.351, 46192.00
1096.451, 46192.49
1097.550, 46269.00
1098.649, 46144.00
1099.748, 46214.00
1100.846, 46087.00
1101.945, 46093.00
1103.043, 46227.00
1104.141, 46382.00
1105.239, 46283.00
1106.337, 46496.00
1107.434, 46236.00
1108.532, 46680.00
1109.629, 46178.00
1110.726, 46456.00
1111.823, 46696.00
1112.920, 46745.00
1114.017, 46420.00
1115.113, 46541.00
1116.210, 46598.00
1117.306, 46655.00
1118.402, 46634.00
1119.498, 46837.00
1120.593, 47032.00
1121.689, 47177.00
1122.784, 47208.00
1123.879, 47030.00
1124.974, 47502.00
1126.069, 46828.00
1127.164, 46854.00
1128.259, 46883.00
1129.353, 47157.00
1130.447, 47008.00
1131.541, 46819.00
1132.635, 46836.00
1133.729, 46870.00
1134.822, 46906.00
1135.916, 47018.00
1137.009, 46778.00
1138.102, 47032.00
1139.195, 47027.00
1140.288, 46727.00
1141.380, 46982.00
1142.473, 47174.00
1143.565, 46888.00
1144.657, 47465.00
1145.749, 46947.00
1146.841, 47166.00
1147.932, 47282.00
1149.024, 47496.00
1150.115, 47324.00
1151.206, 47647.00
1152.297, 47610.00
1153.388, 47365.00
1154.479, 47531.00
1155.569, 47479.00
1156.659, 47493.00
1157.750, 47665.00
1158.839, 47517.00
1159.929, 47695.00
1161.019, 47520.00
1162.108, 47524.00
1163.198, 47580.00
1164.287, 47674.00
1165.376, 47673.00
1166.465, 47715.00
1167.553, 47607.00
1168.642, 47734.00
1169.730, 47687.00
1170.818, 47874.00
1171.906, 48011.00
1172.994, 47715.00
1174.082, 47862.00
1175.170, 47930.00
1176.257, 47994.00
1177.344, 48242.00
1178.431, 48505.00
1179.518, 48243.00
1180.605, 48464.00
1181.691, 48630.00
1182.778, 48943.00
1183.864, 49329.00
1184.950, 49594.00
1186.036, 50140.00
1187.122, 50549.00
1188.207, 50934.00
1189.292, 50847.00
1190.378, 51021.00
1191.463, 50606.00
1192.548, 50255.00
1193.632, 50160.00
1194.717, 49889.00
1195.801, 49712.00
1196.886, 49436.00
1197.970, 49292.00
1199.054, 48710.00
1200.137, 48838.00
1201.221, 48854.00
1202.305, 48553.00
1203.388, 48787.00
1204.471, 48588.00
1205.554, 48734.00
1206.637, 48676.00
1207.719, 48635.00
1208.802, 48564.00
1209.884, 48541.30
1210.966, 48558.46
1212.048, 48520.00
1213.130, 48634.00
1214.212, 48700.00
1215.293, 48747.00
1216.374, 48829.18
1217.456, 48828.00
1218.536, 48896.00
1219.617, 48871.00
1220.698, 48778.00
1221.778, 48582.00
1222.859, 48824.00
1223.939, 48848.00
1225.019, 48623.00
1226.099, 48882.00
1227.178, 48664.00
1228.258, 49091.00
1229.337, 49128.00
1230.417, 49196.00
1231.496, 49118.00
1232.574, 49373.00
1233.653, 49040.00
1234.732, 48893.00
1235.810, 49487.00
1236.888, 49134.00
1237.966, 49610.00
1239.044, 49181.00
1240.122, 49195.00
1241.199, 49287.00
1242.277, 49496.00
1243.354, 49192.00
1244.431, 49374.00
1245.508, 49572.00
1246.585, 49279.00
1247.661, 49309.00
1248.738, 49306.00
1249.814, 49390.00
1250.890, 49546.00
1251.966, 49460.00
1253.042, 49610.00
1254.117, 49064.00
1255.193, 49513.00
1256.268, 49301.00
1257.343, 49239.00
1258.418, 49641.00
1259.493, 49433.00
1260.567, 49327.00
1261.642, 49898.00
1262.716, 49547.00
1263.790, 49747.00
1264.864, 49879.00
1265.938, 49841.00
1267.011, 49587.00
1268.085, 49982.00
1269.158, 49807.00
1270.231, 49735.00
1271.304, 50082.00
1272.377, 49852.00
1273.450, 49740.00
1274.522, 50011.00
1275.594, 50034.00
1276.666, 50167.00
1277.738, 49886.00
1278.810, 50152.00
1279.882, 49925.00
1280.953, 50161.00
1282.025, 49853.00
1283.096, 50174.00
1284.167, 50026.00
1285.238, 50181.00
1286.308, 50086.00
1287.379, 50181.00
1288.449, 49893.00
1289.519, 49979.00
1290.589, 49997.60
1291.659, 50453.00
1292.729, 50147.00
1293.798, 50325.00
1294.868, 50437.00
1295.937, 50417.00
1297.006, 50539.13
1298.075, 50395.00
1299.143, 50553.00
1300.212, 50530.00
1301.280, 50335.00
1302.348, 50417.00
1303.416, 50321.00
1304.484, 50719.00
1305.552, 50886.00
1306.620, 50736.00
1307.687, 50721.00
