##NAMES=Diopside
##RRUFFID=R060085
##IDEAL CHEMISTRY=CaMgSi_2_O_6_
##LOCALITY=Tyrol, Austria
##OWNER=RRUFF
##SOURCE=University of Arizona Mineral Museum
##DESCRIPTION=Brownish-green massive
##STATUS=The identification of this mineral has been confirmed by X-ray diffraction and chemical analysis
##URL=rruff.info/R060085
##MEASURED CHEMISTRY=(Ca_0.97_Na_0.03_)_Σ=1_(Mg_0.79_Fe^2+^_0.10_Fe^3+^_0.04_Al_0.04_Ti_0.02_Cr_0.01_)_Σ=1_(Si_1.90_Al_0.10_)_Σ=2_O_6_
##PIN_ID=M01980
##ORIENTATION=Laser parallel to -b* (0 -1 0). Fiducial mark perpendicular to laser is parallel to c [0 0 1]
125.3850, 11704.00
126.6170, 11794.79
127.8490, 11821.00
129.0810, 12070.00
130.3130, 12319.00
131.5450, 12481.12
132.7770, 12691.00
134.0080, 12821.00
135.2390, 13027.00
136.4710, 13253.00
137.7020, 13614.00
138.9320, 13815.00
140.1630, 14168.00
141.3930, 14077.00
142.6240, 13890.00
143.8540, 13565.00
145.0840, 13156.00
146.3140, 12659.00
147.5440, 12549.00
148.7730, 12249.00
150.0020, 12185.00
151.2320, 12002.00
152.4610, 11917.00
153.6900, 11903.00
154.9180, 11687.00
156.1470, 11808.00
157.3750, 11701.00
158.6040, 11697.00
159.8320, 11564.00
161.0600, 11696.00
162.2870, 11719.00
163.5150, 11697.00
164.7420, 11748.00
165.9700, 11781.00
167.1970, 11709.00
168.4240, 11734.00
169.6510, 11763.00
170.8770, 11771.00
172.1040, 11753.00
173.3300, 11869.00
174.5560, 11781.00
175.7820, 11855.00
177.0080, 11769.00
178.2340, 11851.00
179.4590, 11909.00
180.6850, 11907.00
181.9100, 11882.00
183.1350, 11962.00
184.3600, 12048.00
185.5850, 12079.00
186.8090, 12187.00
188.0340, 12200.49
189.2580, 12022.00
190.4820, 12181.00
191.7060, 12218.00
192.9300, 12076.00
194.1530, 12241.00
195.3770, 12423.00
196.6000, 12427.00
197.8230, 12428.00
199.0460, 12613.00
200.2690, 12582.00
201.4910, 12503.00
202.7140, 12524.00
203.9360, 12407.00
205.1580, 12301.00
206.3800, 12336.00
207.6020, 12259.00
208.8240, 12307.00
210.0450, 12370.00
211.2670, 12386.00
212.4880, 12413.00
213.7090, 12374.00
214.9300, 12499.00
216.1510, 12377.00
217.3710, 12333.00
218.5920, 12456.00
219.8120, 12382.00
221.0320, 12441.00
222.2520, 12407.00
223.4720, 12608.00
224.6910, 12597.00
225.9110, 12622.00
227.1300, 12677.00
228.3490, 12704.00
229.5680, 12748.00
230.7870, 12851.00
232.0050, 12962.00
233.2240, 12971.00
234.4420, 12894.00
235.6600, 12944.00
236.8780, 13020.00
238.0960, 12802.00
239.3140, 12873.00
240.5310, 12930.00
241.7490, 12972.00
242.9660, 13072.00
244.1830, 12819.00
245.4000, 13052.00
246.6160, 13106.00
247.8330, 12954.00
249.0490, 13192.00
250.2660, 13104.00
251.4820, 13161.00
252.6980, 13151.00
253.9130, 13185.00
255.1290, 13340.00
256.3440, 13292.00
257.5600, 13303.00
258.7750, 13250.00
259.9900, 13061.00
261.2040, 13252.00
262.4190, 13113.00
263.6330, 12936.00
264.8480, 13086.00
266.0620, 13042.00
267.2760, 13168.00
268.4900, 13070.00
269.7030, 13134.00
270.9170, 13051.00
272.1300, 13010.00
273.3430, 13191.00
274.5560, 13086.00
275.7690, 13089.00
276.9820, 13174.00
278.1940, 13222.00
279.4070, 13237.00
280.6190, 13266.00
281.8310, 13378.00
283.0430, 13413.00
284.2550, 13389.00
285.4660, 13353.00
286.6770, 13355.00
287.8890, 13466.00
289.1000, 13452.00
290.3110, 13461.00
291.5210, 13559.00
292.7320, 13559.00
293.9420, 13620.00
295.1530, 13526.00
296.3630, 13678.00
297.5730, 13709.00
298.7830, 13642.00
299.9920, 13702.00
301.2020, 13747.00
302.4110, 13948.00
303.6200, 13874.00
304.8290, 13939.00
306.0380, 13842.00
307.2470, 13988.00
308.4550, 14054.00
309.6630, 14108.00
310.8720, 14210.00
312.0800, 14280.40
313.2880, 14507.00
314.4950, 14463.00
315.7030, 14716.00
316.9100, 14843.00
318.1170, 14840.00
319.3240, 15070.00
320.5310, 15215.00
321.7380, 15411.00
322.9450, 15703.00
324.1510, 16019.00
325.3570, 16010.00
326.5630, 15922.00
327.7690, 15997.00
328.9750, 15891.00
330.1810, 15868.85
331.3860, 15724.00
332.5910, 15749.00
333.7960, 15571.00
335.0010, 15445.00
336.2060, 15249.00
337.4110, 15197.00
338.6150, 15004.00
339.8200, 15093.00
341.0240, 14924.00
342.2280, 15045.00
343.4320, 15028.00
344.6350, 15042.00
345.8390, 14930.00
347.0420, 14973.00
348.2450, 15019.00
349.4480, 15089.00
350.6510, 15123.00
351.8540, 15199.18
353.0560, 15263.00
354.2590, 15342.00
355.4610, 15473.00
356.6630, 15548.38
357.8650, 15521.00
359.0670, 15689.00
360.2680, 15632.00
361.4700, 15698.00
362.6710, 15669.00
363.8720, 15603.00
365.0730, 15629.00
366.2740, 15417.00
367.4740, 15511.00
368.6750, 15401.00
369.8750, 15283.00
371.0750, 15398.00
372.2750, 15646.00
373.4750, 15290.00
374.6740, 15346.00
375.8740, 15553.00
377.0730, 15460.00
378.2720, 15524.00
379.4710, 15359.00
380.6700, 15598.00
381.8690, 15560.00
383.0670, 15683.00
384.2660, 15793.00
385.4640, 15951.00
386.6620, 16064.00
387.8600, 16325.00
389.0570, 16601.00
390.2550, 16786.00
391.4520, 17279.00
392.6490, 17282.00
393.8460, 17279.00
395.0430, 17136.00
396.2400, 16970.00
397.4370, 16894.00
398.6330, 16617.00
399.8290, 16250.00
401.0250, 16268.00
402.2210, 15903.00
403.4170, 15831.00
404.6130, 15656.00
405.8080, 15413.00
407.0030, 15369.00
408.1980, 15428.00
409.3930, 15365.00
410.5880, 15264.00
411.7830, 15229.00
412.9770, 15194.91
414.1720, 15149.41
415.3660, 15205.00
416.5600, 15120.00
417.7530, 15200.00
418.9470, 15236.00
420.1410, 15183.00
421.3340, 15324.00
422.5270, 15290.00
423.7200, 15204.00
424.9130, 15160.00
426.1060, 15321.00
427.2980, 15216.00
428.4900, 15444.00
429.6830, 15372.00
430.8750, 15355.00
432.0670, 15295.00
433.2580, 15318.52
434.4500, 15306.73
435.6410, 15379.00
436.8320, 15343.00
438.0240, 15364.00
439.2140, 15414.00
440.4050, 15448.00
441.5960, 15330.00
442.7860, 15458.00
443.9760, 15403.00
445.1670, 15336.00
446.3560, 15498.00
447.5460, 15420.00
448.7360, 15651.00
449.9250, 15571.00
451.1150, 15489.00
452.3040, 15469.00
453.4930, 15527.00
454.6810, 15574.00
455.8700, 15678.00
457.0590, 15560.00
458.2470, 15765.00
459.4350, 15515.00
460.6230, 15827.00
461.8110, 15641.00
462.9980, 15634.00
464.1860, 15747.00
465.3730, 15699.00
466.5600, 15675.00
467.7470, 15654.00
468.9340, 15753.00
470.1210, 15780.00
471.3080, 15889.00
472.4940, 15945.00
473.6800, 15914.00
474.8660, 15917.00
476.0520, 15952.01
477.2380, 15870.00
478.4230, 15983.00
479.6090, 15851.04
480.7940, 15960.78
481.9790, 16031.85
483.1640, 16066.26
484.3490, 15958.14
485.5330, 16031.04
486.7180, 16029.56
487.9020, 16023.76
489.0860, 16118.38
490.2700, 16024.22
491.4540, 16114.61
492.6370, 16129.48
493.8210, 16177.00
495.0040, 16149.68
496.1870, 16143.76
497.3700, 16134.00
498.5530, 16360.00
499.7360, 16286.00
500.9180, 16279.00
502.1000, 16131.00
503.2830, 16255.42
504.4650, 16508.00
505.6460, 16526.00
506.8280, 16609.00
508.0100, 16845.00
509.1910, 16823.00
510.3720, 17028.00
511.5530, 16874.00
512.7340, 16918.70
513.9150, 16867.00
515.0950, 16811.00
516.2760, 16756.00
517.4560, 16610.00
518.6360, 16597.00
519.8160, 16843.00
520.9950, 16655.00
522.1750, 16753.00
523.3540, 16782.00
524.5340, 16761.00
525.7130, 16658.00
526.8920, 16876.00
528.0700, 16734.00
529.2490, 16854.00
530.4270, 16838.00
531.6060, 16928.00
532.7840, 16868.00
533.9620, 16943.00
535.1390, 17159.00
536.3170, 17080.00
537.4940, 17059.00
538.6720, 16965.00
539.8490, 17130.00
541.0260, 17107.00
542.2030, 17080.00
543.3790, 17258.00
544.5560, 17272.00
545.7320, 17111.00
546.9080, 17161.00
548.0840, 17228.00
549.2600, 17168.00
550.4360, 17151.00
551.6110, 17165.00
552.7860, 17152.46
553.9620, 17187.00
555.1370, 17174.00
556.3110, 17204.00
557.4860, 17203.00
558.6610, 17229.00
559.8350, 17008.00
561.0090, 17230.00
562.1830, 17177.00
563.3570, 17375.00
564.5310, 17265.00
565.7040, 17293.00
566.8780, 17356.00
568.0510, 17174.00
569.2240, 17441.00
570.3970, 17206.00
571.5700, 17299.00
572.7420, 17129.00
573.9150, 17188.00
575.0870, 17235.00
576.2590, 17320.00
577.4310, 17209.00
578.6030, 17236.00
579.7740, 17382.00
580.9460, 17139.00
582.1170, 17137.00
583.2880, 17278.00
584.4590, 17220.00
585.6300, 17245.00
586.8010, 17186.00
587.9710, 17291.00
589.1410, 17274.00
590.3110, 17343.00
591.4810, 17300.00
592.6510, 17327.00
593.8210, 17221.00
594.9900, 17123.00
596.1600, 17128.00
597.3290, 17291.00
598.4980, 17216.00
599.6670, 17216.00
600.8350, 17295.00
602.0040, 17294.00
603.1720, 17417.00
604.3400, 17251.00
605.5080, 17218.00
606.6760, 17251.00
607.8440, 17380.00
609.0120, 17332.00
610.1790, 17402.00
611.3460, 17375.00
612.5130, 17425.00
613.6800, 17368.00
614.8470, 17464.00
616.0130, 17414.00
617.1800, 17625.00
618.3460, 17507.00
619.5120, 17353.00
620.6780, 17843.00
621.8440, 17532.00
623.0090, 17812.00
624.1750, 17759.00
625.3400, 17718.00
626.5050, 17745.00
627.6700, 17746.00
628.8350, 17693.00
629.9990, 17999.00
631.1640, 17817.00
632.3280, 17950.00
633.4920, 17911.00
634.6560, 18197.00
635.8200, 17892.00
636.9840, 18131.00
638.1470, 17985.00
639.3100, 18208.00
640.4730, 18247.00
641.6360, 18272.00
642.7990, 18362.00
643.9620, 18404.00
645.1240, 18647.00
646.2870, 18698.00
647.4490, 18853.00
648.6110, 18911.00
649.7730, 19019.00
650.9340, 19176.00
652.0960, 19469.00
653.2570, 19728.00
654.4180, 19870.00
655.5790, 20108.00
656.7400, 20586.00
657.9010, 20782.00
659.0620, 21447.00
660.2220, 22081.00
661.3820, 22995.00
662.5420, 23867.00
663.7020, 25164.00
664.8620, 26226.00
666.0210, 27076.00
667.1810, 27745.00
668.3400, 27726.00
669.4990, 27559.00
670.6580, 26717.00
671.8170, 25902.00
672.9750, 24883.00
674.1340, 23758.00
675.2920, 22755.00
676.4500, 22335.00
677.6080, 21779.00
678.7660, 21255.00
679.9230, 20955.00
681.0810, 20653.00
682.2380, 20367.00
683.3950, 20194.00
684.5520, 19913.00
685.7090, 19850.00
686.8660, 19595.00
688.0220, 19554.00
689.1780, 19542.00
690.3340, 19323.00
691.4900, 19443.00
692.6460, 19308.00
693.8020, 19171.00
694.9570, 19324.00
696.1130, 19145.00
697.2680, 19088.00
698.4230, 19182.00
699.5780, 18836.00
700.7320, 19170.00
701.8870, 18986.00
703.0410, 19000.00
704.1950, 19031.00
705.3490, 18960.00
706.5030, 18893.00
707.6570, 18920.00
708.8110, 18909.00
709.9640, 18886.00
711.1170, 18952.00
712.2700, 18918.00
713.4230, 19140.00
714.5760, 18978.00
715.7280, 19035.00
716.8810, 18952.00
718.0330, 18893.00
719.1850, 18921.00
720.3370, 18946.00
721.4890, 18936.00
722.6400, 19009.00
723.7920, 18867.00
724.9430, 19051.00
726.0940, 19016.00
727.2450, 19167.00
728.3960, 19056.00
729.5460, 19160.00
730.6970, 19061.00
731.8470, 18924.00
732.9970, 19074.00
734.1470, 18979.00
735.2970, 19037.12
736.4460, 19125.00
737.5960, 19128.00
738.7450, 19150.00
739.8940, 19167.00
741.0430, 19166.00
742.1920, 19117.00
743.3410, 19114.00
744.4890, 19091.00
745.6370, 19239.00
746.7850, 19316.00
747.9330, 19258.00
749.0810, 19267.00
750.2290, 19348.00
751.3760, 19284.00
752.5240, 19378.00
753.6710, 19424.00
754.8180, 19297.00
755.9650, 19434.00
757.1110, 19432.00
758.2580, 19344.00
759.4040, 19491.00
760.5510, 19357.00
761.6970, 19336.00
762.8420, 19502.00
763.9880, 19626.00
765.1340, 19528.00
766.2790, 19586.00
767.4240, 19483.00
768.5690, 19577.00
769.7140, 19678.00
770.8590, 19650.00
772.0030, 19710.00
773.1480, 19707.56
774.2920, 19658.00
775.4360, 19667.00
776.5800, 19680.00
777.7240, 19616.00
778.8670, 19796.00
780.0110, 19691.00
781.1540, 19807.00
782.2970, 19702.00
783.4400, 19946.00
784.5830, 19822.00
785.7250, 19924.00
786.8680, 20066.00
788.0100, 19798.00
789.1520, 20082.00
790.2940, 19981.00
791.4360, 19827.00
792.5780, 19914.00
793.7190, 19953.00
794.8600, 19824.00
796.0010, 20020.00
797.1420, 20052.00
798.2830, 20169.00
799.4240, 20050.00
800.5640, 20159.00
801.7050, 19987.00
802.8450, 20149.00
803.9850, 20024.00
805.1250, 20068.00
806.2640, 20218.00
807.4040, 20009.00
808.5430, 20195.00
809.6820, 20015.00
810.8210, 20200.00
811.9600, 20171.00
813.0990, 20230.00
814.2370, 20447.00
815.3760, 20389.00
816.5140, 20355.00
817.6520, 20372.00
818.7900, 20257.00
819.9270, 20474.00
821.0650, 20385.00
822.2020, 20531.00
823.3390, 20557.00
824.4760, 20688.00
825.6130, 20590.00
826.7500, 20666.00
827.8870, 20535.00
829.0230, 20737.00
830.1590, 20609.00
831.2950, 20690.00
832.4310, 20706.00
833.5670, 20686.00
834.7030, 20738.00
835.8380, 20771.51
836.9730, 20697.00
838.1080, 20824.00
839.2430, 20886.00
840.3780, 20790.00
841.5130, 20762.00
842.6470, 20866.00
843.7810, 20892.00
844.9150, 20803.00
846.0490, 20871.00
847.1830, 20949.00
848.3170, 21103.00
849.4500, 21090.00
850.5830, 21084.00
851.7160, 21189.00
852.8490, 21289.00
853.9820, 21356.00
855.1150, 21390.00
856.2470, 21473.00
857.3800, 21706.00
858.5120, 21738.00
859.6440, 21704.00
860.7760, 21916.00
861.9070, 21783.00
863.0390, 21801.00
864.1700, 21873.00
865.3010, 21716.00
866.4320, 21844.00
867.5630, 21737.00
868.6940, 21808.00
869.8240, 21779.00
870.9540, 21514.00
872.0850, 21698.00
873.2150, 21740.00
874.3450, 21485.00
875.4740, 21516.00
876.6040, 21772.00
877.7330, 21574.00
878.8620, 21582.00
879.9910, 21590.00
881.1200, 21692.00
882.2490, 21585.00
883.3770, 21537.00
884.5060, 21550.35
885.6340, 21558.00
886.7620, 21566.00
887.8900, 21514.00
889.0180, 21635.00
890.1450, 21578.00
891.2730, 21516.00
892.4000, 21638.00
893.5270, 21539.00
894.6540, 21798.00
895.7810, 21740.00
896.9070, 21551.00
898.0340, 21711.00
899.1600, 21753.00
900.2860, 21768.00
901.4120, 21784.00
902.5380, 21780.00
903.6630, 21777.00
904.7890, 21763.00
905.9140, 21707.36
907.0390, 21815.29
908.1640, 21885.92
909.2890, 21921.27
910.4130, 21815.61
911.5380, 21892.03
912.6620, 21895.47
913.7860, 21895.91
914.9100, 21997.93
916.0340, 21912.78
917.1580, 22013.19
918.2810, 22039.50
919.4040, 22099.72
920.5280, 22086.55
921.6510, 22096.03
922.7730, 22178.92
923.8960, 22221.18
925.0180, 22199.51
926.1410, 22261.88
927.2630, 22174.13
928.3850, 22218.09
929.5070, 22318.89
930.6280, 22300.90
931.7500, 22364.59
932.8710, 22397.16
933.9920, 22288.38
935.1130, 22425.42
936.2340, 22456.15
937.3550, 22377.73
938.4760, 22506.35
939.5960, 22442.95
940.7160, 22448.09
941.8360, 22452.00
942.9560, 22394.00
944.0760, 22536.00
945.1950, 22548.00
946.3150, 22533.00
947.4340, 22652.00
948.5530, 22619.33
949.6720, 22610.00
950.7900, 22667.00
951.9090, 22619.00
953.0270, 22641.98
954.1460, 22754.64
955.2640, 22830.53
956.3820, 22871.69
957.4990, 22772.37
958.6170, 22855.74
959.7340, 22866.67
960.8520, 22875.21
961.9690, 22985.88
963.0860, 22909.90
964.2020, 23020.07
965.3190, 23056.73
966.4350, 23127.85
967.5520, 23126.13
968.6680, 23147.62
969.7840, 23243.13
970.8990, 23298.51
972.0150, 23290.57
973.1310, 23367.22
974.2460, 23294.26
975.3610, 23353.63
976.4760, 23470.40
977.5910, 23468.94
978.7050, 23549.69
979.8200, 23458.00
980.9340, 23324.00
982.0480, 23565.00
983.1620, 23590.00
984.2760, 23598.00
985.3900, 23684.00
986.5030, 23895.00
987.6160, 23945.00
988.7300, 23995.00
989.8430, 24107.00
990.9550, 24185.00
992.0680, 24453.00
993.1810, 24531.00
994.2930, 24771.00
995.4050, 24624.00
996.5170, 24904.00
997.6290, 25025.00
998.7410, 25133.00
999.8520, 25634.00
1000.964, 25839.00
1002.075, 26145.00
1003.186, 26713.00
1004.297, 27084.00
1005.407, 27426.00
1006.518, 28033.00
1007.628, 28493.00
1008.738, 29208.00
1009.848, 30172.00
1010.958, 30901.00
1012.068, 31413.00
1013.178, 31785.00
1014.287, 31809.00
1015.396, 31074.00
1016.505, 30158.00
1017.614, 29309.00
1018.723, 28348.00
1019.831, 27682.00
1020.940, 26808.00
1022.048, 26284.00
1023.156, 26308.00
1024.264, 25743.00
1025.372, 25574.00
1026.479, 25574.00
1027.587, 25265.00
1028.694, 24886.00
1029.801, 25064.00
1030.908, 24966.00
1032.015, 25021.00
1033.121, 25157.00
1034.228, 25018.00
1035.334, 25046.00
1036.440, 25057.00
1037.546, 25081.00
1038.652, 24974.00
1039.758, 25224.00
1040.863, 25142.00
1041.968, 25380.00
1043.074, 25385.00
1044.178, 25527.00
1045.283, 25364.00
1046.388, 25559.00
1047.492, 25519.00
1048.597, 25376.90
1049.701, 25418.35
1050.805, 25384.88
1051.909, 25280.53
1053.012, 24893.09
1054.116, 24871.23
1055.219, 24702.93
1056.322, 24840.00
1057.425, 24916.00
1058.528, 24939.00
1059.631, 24932.00
1060.733, 24883.37
1061.836, 24938.00
1062.938, 24768.00
1064.040, 24687.00
1065.142, 24753.00
1066.243, 24864.00
1067.345, 24839.00
1068.446, 24790.00
1069.547, 24919.00
1070.648, 24770.00
1071.749, 24773.00
1072.850, 24740.00
1073.951, 24840.00
1075.051, 24929.00
1076.151, 24683.00
1077.251, 24776.00
1078.351, 24751.00
1079.451, 24664.00
1080.550, 24917.00
1081.650, 24832.00
1082.749, 24949.00
1083.848, 24864.00
1084.947, 24828.00
1086.046, 25144.00
1087.144, 24775.00
1088.243, 24837.00
1089.341, 24867.00
1090.439, 25081.00
1091.537, 24948.00
1092.635, 25002.00
1093.732, 24974.00
1094.830, 25038.00
1095.927, 25186.00
1097.024, 25179.00
1098.121, 25033.00
1099.218, 25147.00
1100.314, 25312.00
1101.411, 25151.00
1102.507, 24924.00
1103.603, 25064.00
1104.699, 25087.00
1105.795, 25220.00
1106.890, 25265.00
1107.986, 25220.00
1109.081, 25178.00
1110.176, 25219.66
1111.271, 25159.89
1112.366, 25278.00
1113.461, 25191.00
1114.555, 25234.00
1115.649, 25451.00
1116.744, 25342.00
1117.838, 25375.00
1118.931, 25609.00
1120.025, 25381.00
1121.119, 25423.00
1122.212, 25379.00
1123.305, 25475.00
1124.398, 25529.00
1125.491, 25478.00
1126.584, 25567.00
1127.676, 25699.00
1128.768, 25717.00
1129.861, 25790.38
1130.953, 25735.00
1132.044, 25815.00
1133.136, 25690.00
1134.228, 25578.00
1135.319, 25885.00
1136.410, 25691.00
1137.501, 25674.00
1138.592, 25732.00
1139.683, 25849.00
1140.773, 25944.00
1141.864, 25751.00
1142.954, 25778.00
1144.044, 25871.00
1145.134, 25882.00
1146.224, 25909.00
1147.313, 25890.00
1148.402, 25853.00
1149.492, 25918.00
1150.581, 25967.00
1151.670, 25929.00
1152.758, 26011.45
1153.847, 25956.00
1154.935, 26055.00
1156.024, 26075.00
1157.112, 25977.00
1158.200, 26073.00
1159.287, 26136.00
1160.375, 26124.00
1161.462, 25958.00
1162.550, 26107.00
1163.637, 26062.00
1164.724, 26185.00
1165.810, 26221.00
1166.897, 26260.00
1167.983, 26164.00
1169.070, 26052.00
1170.156, 26089.00
1171.242, 26252.00
1172.327, 26154.00
1173.413, 26264.00
1174.499, 26235.00
1175.584, 26254.00
1176.669, 26335.00
1177.754, 26311.89
1178.839, 26500.06
1179.923, 26613.29
1181.008, 26655.66
1182.092, 26414.79
1183.176, 26539.63
1184.260, 26517.92
1185.344, 26490.19
1186.428, 26666.51
1187.511, 26466.82
1188.595, 26639.90
1189.678, 26664.17
1190.761, 26756.53
1191.843, 26701.42
1192.926, 26691.87
1194.009, 26829.84
1195.091, 26886.10
1196.173, 26814.01
1197.255, 26910.70
1198.337, 26762.00
1199.419, 26878.00
1200.500, 26820.00
1201.582, 26969.00
1202.663, 26839.00
1203.744, 27008.00
1204.825, 26891.00
1205.905, 26886.00
1206.986, 26863.00
1208.066, 26833.00
1209.146, 26876.00
1210.226, 27115.00
1211.306, 27091.00
1212.386, 27251.00
1213.466, 26993.00
1214.545, 27161.00
1215.624, 27036.00
1216.703, 27247.00
1217.782, 26983.00
1218.861, 27326.00
1219.939, 27360.00
1221.018, 27134.00
1222.096, 27431.00
1223.174, 27200.00
1224.252, 27260.00
1225.330, 27597.00
1226.407, 27310.00
1227.485, 27476.00
1228.562, 27411.00
1229.639, 27386.00
1230.716, 27671.00
1231.793, 27506.00
1232.869, 27375.00
1233.946, 27514.00
1235.022, 27589.00
1236.098, 27721.00
1237.174, 27659.00
1238.250, 27796.00
1239.325, 27739.04
1240.401, 27488.00
1241.476, 27704.00
1242.551, 27572.00
1243.626, 27675.00
1244.701, 27797.00
1245.776, 27576.00
1246.850, 27735.00
1247.924, 27832.00
1248.999, 27688.00
1250.073, 27788.00
1251.146, 27905.00
1252.220, 27751.00
1253.293, 28024.00
1254.367, 27871.00
1255.440, 28044.00
1256.513, 28116.00
1257.586, 28009.00
1258.658, 27882.00
1259.731, 27870.00
1260.803, 28213.00
1261.875, 28314.00
1262.947, 27747.00
1264.019, 28249.00
1265.091, 28027.00
1266.162, 28152.00
1267.234, 28182.00
1268.305, 28131.00
1269.376, 28368.00
1270.447, 28309.00
1271.517, 28296.00
1272.588, 28350.00
1273.658, 28127.00
1274.729, 28379.00
1275.799, 28076.00
1276.868, 28362.00
1277.938, 28245.00
1279.008, 28332.00
1280.077, 28337.00
1281.146, 28360.00
1282.215, 28353.00
1283.284, 28407.00
1284.353, 28413.90
1285.421, 28400.47
1286.490, 28417.00
1287.558, 28365.00
1288.626, 28276.00
1289.694, 28258.00
1290.762, 28677.00
1291.829, 28519.00
1292.897, 28623.00
1293.964, 28412.00
1295.031, 28404.00
1296.098, 28462.00
1297.165, 28593.00
1298.231, 28597.00
1299.298, 28439.00
