##NAMES=Diopside
##RRUFFID=R050666
##IDEAL CHEMISTRY=CaMgSi_2_O_6_
##LOCALITY=Franklin, Sussex County, New Jersey, USA
##OWNER=RRUFF
##SOURCE=University of Arizona Mineral Museum
##DESCRIPTION=Brown cleavage fragment with white hardystonite
##STATUS=The identification of this mineral has been confirmed by X-ray diffraction and chemical analysis
##URL=rruff.info/R050666
##MEASURED CHEMISTRY=Ca(Mg_0.66_Mn_0.33_Fe_0.01_)Si_2_O_6_
##PIN_ID=L00985
##ORIENTATION=Laser parallel to (1 0 1). Fiducial mark perpendicular to laser is parallel to -b [0 -1 0]
129.2090, 34182.00
130.4390, 34456.00
131.6680, 34628.00
132.8980, 34906.00
134.1270, 34802.00
135.3560, 35094.00
136.5850, 35044.00
137.8140, 35142.00
139.0430, 35108.00
140.2710, 35310.00
141.5000, 35346.00
142.7280, 35448.93
143.9560, 35756.00
145.1840, 35680.00
146.4120, 35784.00
147.6390, 35933.00
148.8670, 35962.00
150.0940, 36307.00
151.3210, 36295.66
152.5490, 36394.00
153.7750, 36466.00
155.0020, 36505.00
156.2290, 36694.00
157.4550, 36761.10
158.6810, 36858.00
159.9080, 36966.00
161.1340, 37070.00
162.3590, 37117.00
163.5850, 37098.00
164.8110, 37245.00
166.0360, 37446.00
167.2610, 37670.00
168.4860, 37721.04
169.7110, 37810.21
170.9360, 37835.00
172.1610, 37833.00
173.3850, 37878.00
174.6100, 37936.48
175.8340, 37976.00
177.0580, 38093.00
178.2820, 38180.00
179.5050, 38274.90
180.7290, 38333.57
181.9520, 38398.00
183.1760, 38470.00
184.3990, 38427.00
185.6220, 38574.00
186.8450, 38756.00
188.0670, 38689.00
189.2900, 39003.00
190.5120, 38945.00
191.7340, 38975.00
192.9560, 39188.00
194.1780, 39131.00
195.4000, 39181.00
196.6220, 39153.00
197.8430, 39280.00
199.0640, 39141.00
200.2860, 39389.00
201.5070, 39460.00
202.7270, 39737.00
203.9480, 39587.00
205.1690, 39461.00
206.3890, 39810.00
207.6090, 39965.00
208.8290, 39579.00
210.0490, 39748.00
211.2690, 40015.00
212.4890, 40180.00
213.7080, 40083.00
214.9280, 40126.00
216.1470, 40308.00
217.3660, 40148.00
218.5850, 40388.00
219.8030, 40229.00
221.0220, 40368.00
222.2400, 40568.00
223.4590, 40425.00
224.6770, 40442.00
225.8950, 40809.00
227.1120, 40867.00
228.3300, 41035.00
229.5480, 41025.00
230.7650, 40996.00
231.9820, 41125.00
233.1990, 40908.00
234.4160, 41422.00
235.6330, 41186.00
236.8490, 41122.00
238.0660, 41468.00
239.2820, 41054.00
240.4980, 41518.00
241.7140, 41497.00
242.9300, 41751.00
244.1460, 41633.00
245.3610, 41889.00
246.5770, 41758.00
247.7920, 41882.00
249.0070, 41865.00
250.2220, 41778.00
251.4370, 41778.00
252.6510, 42067.00
253.8660, 41965.00
255.0800, 42046.00
256.2940, 42329.00
257.5080, 42229.00
258.7220, 42470.00
259.9360, 42166.00
261.1490, 42488.00
262.3630, 42524.00
263.5760, 42406.00
264.7890, 42627.00
266.0020, 42639.00
267.2150, 42472.00
268.4270, 42632.00
269.6400, 42402.00
270.8520, 42883.00
272.0640, 42667.00
273.2760, 42991.00
274.4880, 43133.00
275.7000, 42753.00
276.9120, 42734.00
278.1230, 43229.00
279.3340, 43221.00
280.5450, 43082.00
281.7560, 43448.00
282.9670, 43338.00
284.1780, 43344.00
285.3880, 43514.00
286.5980, 43677.00
287.8090, 43811.00
289.0190, 43857.00
290.2290, 43836.00
291.4380, 43878.00
292.6480, 44049.00
293.8570, 44262.00
295.0670, 44375.00
296.2760, 44244.00
297.4850, 44010.00
298.6930, 44519.00
299.9020, 44490.00
301.1110, 44939.00
302.3190, 45039.00
303.5270, 45073.00
304.7350, 45244.00
305.9430, 45395.00
307.1510, 45459.00
308.3580, 45470.00
309.5660, 45357.00
310.7730, 45558.00
311.9800, 45480.00
313.1870, 45745.00
314.3940, 45893.00
315.6010, 45908.00
316.8070, 45595.00
318.0130, 45768.00
319.2200, 45750.00
320.4260, 45374.00
321.6310, 45740.00
322.8370, 45489.00
324.0430, 45368.00
325.2480, 45484.00
326.4540, 45465.00
327.6590, 45214.00
328.8640, 45564.00
330.0680, 45718.00
331.2730, 45502.00
332.4780, 45738.00
333.6820, 45578.00
334.8860, 45884.00
336.0900, 45945.00
337.2940, 46152.00
338.4980, 46452.00
339.7010, 46647.00
340.9050, 46808.08
342.1080, 46926.00
343.3110, 46971.00
344.5140, 47032.00
345.7170, 47084.36
346.9200, 46983.00
348.1220, 47154.00
349.3240, 47043.00
350.5270, 47065.07
351.7290, 47098.00
352.9310, 46925.00
354.1320, 46915.00
355.3340, 46894.00
356.5350, 46784.00
357.7370, 46945.00
358.9380, 46808.00
360.1390, 46774.00
361.3400, 46976.00
362.5400, 46958.00
363.7410, 47064.00
364.9410, 47221.00
366.1410, 47334.00
367.3410, 47444.28
368.5410, 47486.00
369.7410, 47648.00
370.9400, 47884.00
372.1400, 47983.00
373.3390, 48640.00
374.5380, 48677.00
375.7370, 48966.00
376.9360, 48938.00
378.1350, 49321.00
379.3330, 49182.00
380.5310, 49158.00
381.7300, 49235.00
382.9280, 49177.00
384.1260, 48659.00
385.3230, 48547.00
386.5210, 48475.00
387.7180, 48216.00
388.9160, 48212.00
390.1130, 47908.00
391.3100, 47808.00
392.5060, 47622.00
393.7030, 47882.00
394.9000, 47395.00
396.0960, 47118.00
397.2920, 47513.00
398.4880, 47553.00
399.6840, 47499.00
400.8800, 47501.00
402.0750, 47587.00
403.2710, 47528.00
404.4660, 47591.00
405.6610, 47637.56
406.8560, 47617.00
408.0510, 47777.00
409.2450, 47831.00
410.4400, 47956.00
411.6340, 47746.00
412.8280, 47824.75
414.0220, 47752.00
415.2160, 47830.00
416.4100, 47813.62
417.6030, 47739.00
418.7970, 47814.00
419.9900, 47883.00
421.1830, 47907.00
422.3760, 48085.00
423.5690, 48033.00
424.7610, 48195.00
425.9540, 48100.00
427.1460, 47958.00
428.3380, 48165.00
429.5300, 47925.00
430.7220, 48233.00
431.9140, 47959.00
433.1050, 48362.00
434.2970, 48416.00
435.4880, 48295.00
436.6790, 48171.00
437.8700, 48285.00
439.0610, 48333.00
440.2510, 48233.00
441.4420, 48547.00
442.6320, 48312.00
443.8220, 48466.00
445.0120, 48393.00
446.2020, 48694.00
447.3910, 48858.00
448.5810, 48579.00
449.7700, 48631.00
450.9600, 48696.00
452.1490, 48705.00
453.3370, 48821.00
454.5260, 48839.66
455.7150, 48675.00
456.9030, 48856.00
458.0910, 49071.00
459.2800, 48954.00
460.4670, 48822.00
461.6550, 48459.00
462.8430, 48903.00
464.0300, 49146.00
465.2180, 49055.00
466.4050, 48728.00
467.5920, 48981.00
468.7790, 48910.00
469.9650, 48942.00
471.1520, 48772.00
472.3380, 48831.00
473.5250, 49230.00
474.7110, 49474.00
475.8970, 49487.91
477.0820, 49424.00
478.2680, 49484.00
479.4540, 49469.00
480.6390, 49365.00
481.8240, 48961.00
483.0090, 49157.00
484.1940, 48997.00
485.3780, 49492.00
486.5630, 49350.00
487.7470, 49305.00
488.9320, 49362.00
490.1160, 49299.00
491.3000, 49359.00
492.4830, 49287.00
493.6670, 49395.00
494.8500, 49666.00
496.0340, 49678.00
497.2170, 49492.00
498.4000, 49797.00
499.5820, 49880.00
500.7650, 49473.00
501.9480, 49827.00
503.1300, 49848.00
504.3120, 49989.00
505.4940, 49721.00
506.6760, 49795.00
507.8580, 49906.00
509.0390, 49831.00
510.2210, 50049.00
511.4020, 49893.00
512.5830, 49811.00
513.7640, 49790.00
514.9450, 49807.00
516.1250, 49794.00
517.3060, 50126.00
518.4860, 49996.00
519.6660, 50267.00
520.8460, 49885.00
522.0260, 50089.00
523.2060, 49931.00
524.3850, 50041.00
525.5650, 50150.00
526.7440, 50334.00
527.9230, 50077.00
529.1020, 50172.00
530.2810, 49948.00
531.4590, 50318.00
532.6380, 49862.00
533.8160, 50211.00
534.9940, 50257.00
536.1720, 50320.00
537.3500, 50558.00
538.5270, 50227.00
539.7050, 50144.00
540.8820, 50262.00
542.0590, 50275.00
543.2360, 50532.00
544.4130, 50511.00
545.5900, 50441.00
546.7660, 50788.00
547.9430, 50389.00
549.1190, 50586.00
550.2950, 50703.00
551.4710, 50694.00
552.6470, 50547.00
553.8220, 50697.00
554.9980, 50870.00
556.1730, 50465.00
557.3480, 50901.00
558.5230, 50710.00
559.6980, 50559.00
560.8730, 50725.00
562.0470, 50434.00
563.2220, 50712.00
564.3960, 50653.00
565.5700, 50639.00
566.7440, 50454.00
567.9170, 50507.80
569.0910, 50674.00
570.2640, 50523.00
571.4380, 50684.00
572.6110, 50676.00
573.7840, 50740.00
574.9570, 50529.00
576.1290, 50425.00
577.3020, 50775.00
578.4740, 50605.00
579.6460, 50809.00
580.8180, 50808.00
581.9900, 50760.00
583.1620, 50728.00
584.3330, 50653.00
585.5040, 50815.00
586.6760, 50804.00
587.8470, 50880.00
589.0180, 50732.00
590.1880, 50826.00
591.3590, 50777.00
592.5290, 50554.00
593.7000, 50678.00
594.8700, 50593.00
596.0400, 50999.00
597.2090, 50880.00
598.3790, 51009.00
599.5490, 50982.00
600.7180, 50908.00
601.8870, 51058.00
603.0560, 50966.00
604.2250, 50936.00
605.3940, 51121.00
606.5620, 50951.00
607.7300, 50969.00
608.8990, 51083.00
610.0670, 51058.00
611.2350, 50916.00
612.4020, 51053.00
613.5700, 51218.00
614.7370, 50941.00
615.9050, 51158.00
617.0720, 51301.00
618.2390, 50795.00
619.4060, 50908.00
620.5720, 51014.00
621.7390, 51116.00
622.9050, 51120.00
624.0710, 51172.71
625.2370, 51408.00
626.4030, 51173.00
627.5690, 51091.00
628.7340, 51046.00
629.9000, 51207.00
631.0650, 51583.00
632.2300, 51333.00
633.3950, 51910.00
634.5600, 51604.00
635.7240, 51731.00
636.8890, 51550.00
638.0530, 51624.00
639.2170, 51730.00
640.3810, 51755.00
641.5450, 52188.00
642.7080, 52131.00
643.8720, 52310.00
645.0350, 52434.00
646.1980, 52908.00
647.3610, 53358.00
648.5240, 53667.00
649.6870, 54058.00
650.8490, 55118.00
652.0120, 55730.00
653.1740, 56457.00
654.3360, 56956.00
655.4980, 57305.77
656.6600, 57525.00
657.8210, 57667.00
658.9830, 57595.00
660.1440, 57425.00
661.3050, 56768.00
662.4660, 56552.00
663.6270, 56018.00
664.7870, 55351.00
665.9480, 54791.00
667.1080, 53866.00
668.2680, 53563.00
669.4280, 52987.00
670.5880, 52654.00
671.7480, 52911.00
672.9070, 52420.00
674.0670, 52297.00
675.2260, 52029.00
676.3850, 51822.00
677.5440, 51752.00
678.7030, 51760.00
679.8610, 51603.30
681.0200, 51709.00
682.1780, 51474.00
683.3360, 51330.00
684.4940, 51383.00
685.6520, 51090.00
686.8090, 51467.00
687.9670, 51223.00
689.1240, 51343.00
690.2810, 50950.00
691.4380, 51185.00
692.5950, 51275.00
693.7520, 51187.00
694.9080, 51184.00
696.0650, 51007.00
697.2210, 51283.00
698.3770, 51406.00
699.5330, 51161.00
700.6880, 51177.00
701.8440, 51080.00
702.9990, 50976.00
704.1550, 51112.00
705.3100, 50949.00
706.4650, 50938.00
707.6190, 51127.00
708.7740, 50977.00
709.9290, 51048.00
711.0830, 51110.00
712.2370, 50959.00
713.3910, 51257.00
714.5450, 50997.00
715.6980, 50768.00
716.8520, 50893.00
718.0050, 50750.98
719.1580, 51058.00
720.3110, 50864.00
721.4640, 50765.00
722.6170, 51010.00
723.7700, 50935.00
724.9220, 51056.00
726.0740, 51232.00
727.2260, 50869.00
728.3780, 51011.00
729.5300, 50970.00
730.6810, 50853.00
731.8330, 50783.00
732.9840, 51030.00
734.1350, 50958.00
735.2860, 50938.00
736.4370, 50855.00
737.5880, 50925.00
738.7380, 50722.00
739.8880, 51072.00
741.0390, 50715.00
742.1890, 51014.00
743.3380, 51015.00
744.4880, 50831.00
745.6380, 50927.00
746.7870, 50795.00
747.9360, 50576.00
749.0850, 50956.00
750.2340, 50636.00
751.3830, 50884.00
752.5310, 50637.00
753.6800, 51164.00
754.8280, 51047.00
755.9760, 50579.00
757.1240, 50449.00
758.2720, 50685.00
759.4190, 50820.00
760.5670, 50656.00
761.7140, 50614.00
762.8610, 50959.00
764.0080, 50576.00
765.1550, 50713.00
766.3020, 50753.00
767.4480, 50529.00
768.5950, 50302.00
769.7410, 50693.00
770.8870, 50733.00
772.0330, 50780.00
773.1780, 50546.00
774.3240, 50762.00
775.4690, 50478.00
776.6140, 50597.00
777.7590, 50432.00
778.9040, 50512.00
780.0490, 50495.00
781.1940, 50772.00
782.3380, 50668.00
783.4820, 50252.00
784.6260, 50574.00
785.7700, 50726.00
786.9140, 50092.00
788.0580, 50284.00
789.2010, 50491.00
790.3450, 50342.00
791.4880, 50598.00
792.6310, 50388.00
793.7730, 50227.00
794.9160, 50257.00
796.0590, 50344.00
797.2010, 50462.00
798.3430, 50468.00
799.4850, 50349.00
800.6270, 50397.33
801.7690, 50481.00
802.9100, 50362.00
804.0520, 50384.00
805.1930, 50423.00
806.3340, 50219.00
807.4750, 50184.00
808.6160, 50328.00
809.7560, 50237.00
810.8970, 50343.00
812.0370, 50305.00
813.1770, 50149.00
814.3170, 49978.00
815.4570, 50146.00
816.5960, 50222.00
817.7360, 50525.00
818.8750, 50050.00
820.0140, 50315.00
821.1530, 50208.00
822.2920, 50135.00
823.4310, 50147.00
824.5690, 50128.00
825.7070, 50148.00
826.8460, 50078.00
827.9840, 49979.00
829.1220, 50109.00
830.2590, 49999.00
831.3970, 49974.00
832.5340, 50066.00
833.6710, 50235.00
834.8080, 50282.00
835.9450, 50052.00
837.0820, 50354.00
838.2190, 50110.00
839.3550, 50112.00
840.4910, 50539.00
841.6270, 50754.00
842.7630, 50677.00
843.8990, 50681.00
845.0350, 50835.00
846.1700, 50644.00
847.3060, 50870.00
848.4410, 50754.00
849.5760, 50579.00
850.7100, 50533.00
851.8450, 50264.00
852.9800, 50148.65
854.1140, 50140.00
855.2480, 49937.00
856.3820, 49919.00
857.5160, 50073.00
858.6500, 50104.00
859.7830, 49688.00
860.9170, 49776.00
862.0500, 49579.00
863.1830, 49926.00
864.3160, 49489.00
865.4480, 49456.00
866.5810, 49492.00
867.7130, 49907.00
868.8460, 49618.00
869.9780, 49452.00
871.1100, 49598.00
872.2410, 49486.00
873.3730, 49620.00
874.5050, 49626.00
875.6360, 49266.00
876.7670, 49768.00
877.8980, 49338.00
879.0290, 49178.00
880.1590, 49374.00
881.2900, 49066.00
882.4200, 49044.00
883.5500, 49229.00
884.6800, 49215.00
885.8100, 49344.00
886.9400, 49372.00
888.0690, 49387.76
889.1990, 49127.00
890.3280, 49369.00
891.4570, 49130.00
892.5860, 49009.00
893.7140, 49221.00
894.8430, 49379.00
895.9710, 49082.00
897.1000, 49218.00
898.2280, 48846.00
899.3560, 48959.00
900.4830, 48883.00
901.6110, 48752.00
902.7380, 48913.00
903.8660, 48898.00
904.9930, 48803.00
906.1200, 48939.00
907.2460, 48621.00
908.3730, 48775.00
909.5000, 48861.00
910.6260, 48946.00
911.7520, 48818.00
912.8780, 49052.00
914.0040, 49026.00
915.1290, 48738.00
916.2550, 48576.00
917.3800, 48868.00
918.5050, 48518.00
919.6300, 48881.00
920.7550, 48756.00
921.8800, 48704.00
923.0040, 48744.31
924.1290, 48926.00
925.2530, 48583.00
926.3770, 48384.00
927.5010, 48266.00
928.6250, 48624.00
929.7480, 48567.00
930.8720, 48848.00
931.9950, 48353.00
933.1180, 48132.00
934.2410, 48375.00
935.3640, 48495.00
936.4860, 48250.00
937.6090, 48102.00
938.7310, 48361.00
939.8530, 48137.00
940.9750, 48216.00
942.0970, 48339.00
943.2180, 48383.00
944.3400, 48415.66
945.4610, 48195.00
946.5820, 48307.00
947.7030, 48274.00
948.8240, 47955.00
949.9450, 48045.00
951.0650, 47946.00
952.1860, 48181.00
953.3060, 48257.00
954.4260, 47947.00
955.5460, 47979.00
956.6650, 48092.00
957.7850, 48046.00
958.9040, 48173.00
960.0230, 47860.00
961.1420, 47974.00
962.2610, 47713.00
963.3800, 48100.00
964.4990, 47589.00
965.6170, 47784.00
966.7350, 47777.00
967.8530, 48091.00
968.9710, 47537.00
970.0890, 47183.00
971.2070, 47677.00
972.3240, 47842.00
973.4410, 47494.00
974.5580, 47718.00
975.6750, 47593.00
976.7920, 47770.00
977.9090, 47757.00
979.0250, 47595.00
980.1410, 47616.00
981.2580, 47776.00
982.3740, 47842.00
983.4890, 47576.00
984.6050, 47404.00
985.7200, 47839.00
986.8360, 47524.00
987.9510, 47739.00
989.0660, 47409.00
990.1810, 47898.00
991.2950, 47767.00
992.4100, 47655.00
993.5240, 47921.00
994.6390, 47777.00
995.7530, 48032.00
996.8660, 47984.00
997.9800, 48292.00
999.0940, 48202.00
1000.207, 48526.00
1001.320, 49047.00
1002.433, 49597.00
1003.546, 50558.00
1004.659, 51340.00
1005.772, 53121.00
1006.884, 54450.00
1007.996, 55821.00
1009.108, 56948.00
1010.220, 57452.00
1011.332, 57630.00
1012.444, 56920.00
1013.555, 55888.00
1014.666, 54884.00
1015.777, 53531.00
1016.888, 52157.00
1017.999, 50701.00
1019.110, 50182.00
1020.220, 49081.00
1021.331, 48840.00
1022.441, 48154.00
1023.551, 47907.00
1024.661, 47601.00
1025.770, 47756.00
1026.880, 47857.00
1027.989, 47449.00
1029.098, 47223.00
1030.207, 47210.00
1031.316, 47177.68
1032.425, 47161.00
1033.533, 47540.00
1034.642, 47530.00
1035.750, 47911.00
1036.858, 47612.00
1037.966, 48144.00
1039.073, 47645.00
1040.181, 47694.00
1041.288, 47394.00
1042.396, 47391.00
1043.503, 47179.00
1044.610, 46790.00
1045.716, 46779.00
1046.823, 46687.00
1047.929, 46500.00
1049.036, 46385.00
1050.142, 46242.36
1051.248, 46129.00
1052.353, 46028.00
1053.459, 45862.00
1054.564, 45902.00
1055.670, 45700.00
1056.775, 45747.00
1057.880, 45685.00
1058.985, 45740.00
1060.089, 45644.00
1061.194, 45685.00
1062.298, 45715.00
1063.402, 45488.00
1064.506, 45647.00
1065.610, 45812.00
1066.713, 45633.00
1067.817, 45556.00
1068.920, 45532.79
1070.023, 45361.00
1071.126, 45378.00
1072.229, 45292.00
1073.332, 45227.00
1074.435, 45222.00
1075.537, 45251.00
1076.639, 45278.00
1077.741, 45229.00
1078.843, 45255.00
1079.945, 45207.61
1081.046, 45209.06
1082.148, 45139.00
1083.249, 45196.00
1084.350, 45215.00
1085.451, 45198.66
1086.551, 44841.00
1087.652, 44996.00
1088.752, 45003.00
1089.853, 44758.00
1090.953, 44825.00
1092.053, 44959.00
1093.152, 44669.00
1094.252, 44740.00
1095.351, 44644.00
1096.451, 44797.00
1097.550, 44640.00
1098.649, 44510.00
1099.748, 44384.00
1100.846, 44588.00
1101.945, 44754.00
1103.043, 44435.00
1104.141, 44412.00
1105.239, 44374.00
1106.337, 44309.00
1107.434, 44266.00
1108.532, 44351.00
1109.629, 44210.00
1110.726, 44262.00
1111.823, 44115.00
1112.920, 44413.00
1114.017, 44340.00
1115.113, 44241.00
1116.210, 44040.00
1117.306, 43980.00
1118.402, 44297.00
1119.498, 44178.00
1120.593, 44223.00
1121.689, 44307.00
1122.784, 44166.00
1123.879, 43943.00
1124.974, 43863.00
1126.069, 44216.00
1127.164, 43678.00
1128.259, 43856.00
1129.353, 43976.00
1130.447, 43786.00
1131.541, 43766.00
1132.635, 43826.00
1133.729, 43481.00
1134.822, 43605.00
1135.916, 43599.00
1137.009, 43649.00
1138.102, 43551.00
1139.195, 43446.00
1140.288, 43243.00
1141.380, 43531.00
1142.473, 43191.00
1143.565, 43171.00
1144.657, 43316.00
1145.749, 42973.00
1146.841, 43310.00
1147.932, 43189.00
1149.024, 43303.00
1150.115, 42999.00
1151.206, 42885.00
1152.297, 42916.00
1153.388, 42887.00
1154.479, 42857.57
1155.569, 42856.00
1156.659, 42869.00
1157.750, 42740.00
1158.839, 42807.00
1159.929, 42929.00
1161.019, 42765.00
1162.108, 42813.00
1163.198, 42697.00
1164.287, 42620.05
1165.376, 42609.00
1166.465, 42458.00
1167.553, 42560.00
1168.642, 42502.00
1169.730, 42563.00
1170.818, 42447.00
1171.906, 42494.00
1172.994, 42498.00
1174.082, 42533.00
1175.170, 42514.00
1176.257, 42458.00
1177.344, 42251.00
1178.431, 42274.00
1179.518, 42477.00
1180.605, 42104.00
1181.691, 42154.00
1182.778, 41982.00
1183.864, 42145.00
1184.950, 42160.00
1186.036, 41995.00
1187.122, 42178.00
1188.207, 41874.00
1189.292, 41838.00
1190.378, 42000.00
1191.463, 42030.00
1192.548, 41796.00
1193.632, 41850.00
1194.717, 41648.00
1195.801, 41741.00
1196.886, 41582.00
1197.970, 41701.00
1199.054, 41675.00
1200.137, 41801.00
1201.221, 41643.00
1202.305, 41400.00
1203.388, 41734.00
1204.471, 41287.00
1205.554, 41369.00
1206.637, 41482.00
1207.719, 41368.00
1208.802, 41389.00
1209.884, 41215.00
1210.966, 41321.00
1212.048, 41414.00
1213.130, 41223.00
1214.212, 41172.00
1215.293, 41118.00
1216.374, 41059.00
1217.456, 41000.23
1218.536, 41101.00
1219.617, 40952.00
1220.698, 40973.00
1221.778, 41119.00
1222.859, 40970.00
1223.939, 40695.00
1225.019, 40940.00
1226.099, 40921.00
1227.178, 40700.00
1228.258, 40818.00
1229.337, 40527.00
1230.417, 40634.00
1231.496, 40670.00
1232.574, 40810.00
1233.653, 40778.16
1234.732, 40610.00
1235.810, 40687.00
1236.888, 40510.00
1237.966, 40366.00
1239.044, 40704.00
1240.122, 40364.00
1241.199, 40453.00
1242.277, 40286.00
1243.354, 40033.00
1244.431, 40172.00
1245.508, 40269.00
1246.585, 40196.00
1247.661, 40025.00
1248.738, 40326.00
1249.814, 39950.00
1250.890, 40193.00
1251.966, 39937.00
1253.042, 39887.00
1254.117, 39697.00
1255.193, 39685.27
1256.268, 39790.00
1257.343, 39690.00
1258.418, 39656.00
1259.493, 39622.00
1260.567, 39812.00
1261.642, 39705.00
1262.716, 39614.00
1263.790, 39515.00
1264.864, 39837.00
1265.938, 39437.00
1267.011, 39599.00
1268.085, 39592.00
1269.158, 39396.00
1270.231, 39314.00
1271.304, 39591.00
1272.377, 39383.00
1273.450, 38996.00
1274.522, 39295.00
1275.594, 39286.00
1276.666, 39055.00
1277.738, 39116.00
1278.810, 39181.00
1279.882, 39109.00
1280.953, 39151.00
1282.025, 38962.00
1283.096, 38961.00
1284.167, 38928.00
1285.238, 38682.00
1286.308, 38938.00
1287.379, 38953.00
1288.449, 38821.00
1289.519, 38588.00
1290.589, 38755.00
1291.659, 38499.00
1292.729, 38662.00
1293.798, 38674.00
1294.868, 38699.00
1295.937, 38722.16
1297.006, 38570.00
1298.075, 38636.00
1299.143, 38531.00
1300.212, 38386.00
1301.280, 38377.00
1302.348, 38389.00
1303.416, 38323.00
1304.484, 38155.00
