##NAMES=Diopside
##RRUFFID=R060861
##IDEAL CHEMISTRY=CaMgSi_2_O_6_
##LOCALITY=Red Mountain Volcano, NW of Flagstaff, Arizona, USA
##OWNER=RRUFF
##SOURCE=Jennifer Sano
##DESCRIPTION=Worn brown fragment
##STATUS=The identification of this mineral has been confirmed by X-ray diffraction and chemical analysis
##URL=rruff.info/R060861
##MEASURED CHEMISTRY=(Ca_0.72_Fe^2+^_0.23_Na_0.05_)_Σ=1_(Mg_0.80_Al_0.15_Ti_0.03_Fe^3+^_0.02_)_Σ=1_(Si_1.82_Al_0.18_)_Σ=2_O_6_
##PIN_ID=M01674
##ORIENTATION=Laser parallel to b* (0 1 0). Fiducial mark perpendicular to laser is parallel to c [0 0 1]
164.8280, 15561.34
166.0620, 15729.00
167.2970, 15637.00
168.5310, 15896.00
169.7650, 15981.00
170.9990, 16159.00
172.2330, 16021.00
173.4670, 16015.00
174.7000, 15935.00
175.9330, 15870.00
177.1660, 16049.00
178.3990, 16248.00
179.6310, 16352.00
180.8640, 16345.00
182.0960, 16120.00
183.3280, 16276.00
184.5600, 16306.00
185.7910, 16549.00
187.0220, 16591.00
188.2540, 16628.00
189.4840, 16623.00
190.7150, 16622.00
191.9460, 16810.00
193.1760, 16595.00
194.4060, 16834.00
195.6360, 16873.00
196.8660, 16676.00
198.0960, 16552.00
199.3250, 16620.00
200.5540, 16698.00
201.7830, 16560.00
203.0120, 16657.00
204.2400, 15972.00
205.4690, 15188.00
206.6970, 14935.00
207.9250, 14745.00
209.1530, 14602.00
210.3800, 14618.00
211.6080, 14693.00
212.8350, 14773.00
214.0620, 14700.00
215.2880, 14560.00
216.5150, 14621.00
217.7410, 14652.00
218.9680, 14453.00
220.1940, 14567.00
221.4190, 14657.00
222.6450, 14474.00
223.8700, 14638.00
225.0960, 14559.00
226.3210, 14782.00
227.5450, 14711.00
228.7700, 14709.00
229.9940, 14615.00
231.2190, 14506.00
232.4430, 14745.00
233.6660, 14533.00
234.8900, 14614.00
236.1140, 14657.00
237.3370, 14604.00
238.5600, 14652.00
239.7830, 14769.00
241.0050, 14696.00
242.2280, 14796.00
243.4500, 14998.00
244.6720, 15106.00
245.8940, 15128.00
247.1160, 15454.00
248.3370, 15304.00
249.5580, 15296.00
250.7790, 15360.00
252.0000, 15750.00
253.2210, 17261.00
254.4410, 17423.00
255.6620, 17402.00
256.8820, 17671.97
258.1020, 17328.98
259.3210, 16861.00
260.5410, 16580.00
261.7600, 15435.00
262.9790, 14832.00
264.1980, 14810.00
265.4170, 14658.00
266.6360, 14358.00
267.8540, 14315.00
269.0720, 14132.00
270.2900, 14270.00
271.5080, 14060.00
272.7260, 14030.00
273.9430, 13955.00
275.1600, 14055.00
276.3770, 14152.00
277.5940, 14088.00
278.8100, 14238.00
280.0270, 14212.00
281.2430, 14316.00
282.4590, 14457.00
283.6750, 14393.00
284.8910, 14568.00
286.1060, 14780.00
287.3210, 14855.00
288.5360, 14985.00
289.7510, 15235.00
290.9660, 15426.00
292.1800, 15475.00
293.3950, 15711.00
294.6090, 15843.00
295.8230, 16175.00
297.0360, 16542.00
298.2500, 16665.00
299.4630, 16910.00
300.6760, 17271.00
301.8890, 17563.00
303.1020, 18041.00
304.3150, 18143.00
305.5270, 19302.00
306.7390, 19972.00
307.9510, 19877.00
309.1630, 19833.00
310.3750, 20438.00
311.5860, 20912.00
312.7970, 21367.00
314.0080, 21931.00
315.2190, 22484.00
316.4300, 23073.21
317.6400, 23859.00
318.8510, 24411.00
320.0610, 24987.78
321.2710, 25842.00
322.4800, 26089.00
323.6900, 26880.00
324.8990, 27707.00
326.1080, 28024.00
327.3170, 28563.00
328.5260, 28993.00
329.7340, 29424.00
330.9430, 29579.00
332.1510, 30019.00
333.3590, 30042.00
334.5670, 29967.00
335.7740, 29710.00
336.9820, 29689.00
338.1890, 29406.00
339.3960, 29189.00
340.6030, 28901.00
341.8100, 28418.00
343.0160, 28036.00
344.2220, 27603.00
345.4280, 27335.00
346.6340, 27123.00
347.8400, 26871.00
349.0460, 26595.00
350.2510, 26227.00
351.4560, 25923.00
352.6610, 25559.00
353.8660, 25259.00
355.0700, 24909.00
356.2750, 24646.00
357.4790, 24295.59
358.6830, 24097.00
359.8870, 23630.00
361.0910, 23244.00
362.2940, 22916.00
363.4970, 22506.65
364.7000, 22153.00
365.9030, 21794.00
367.1060, 21452.42
368.3080, 21130.16
369.5110, 20807.00
370.7130, 20608.00
371.9150, 20401.00
373.1170, 20171.00
374.3180, 19841.00
375.5200, 19753.00
376.7210, 19579.00
377.9220, 19606.00
379.1230, 19367.00
380.3230, 19369.00
381.5240, 19559.00
382.7240, 19445.00
383.9240, 19456.00
385.1240, 19941.00
386.3240, 19696.00
387.5230, 19901.00
388.7230, 19972.00
389.9220, 20142.00
391.1210, 20257.00
392.3200, 20590.00
393.5180, 20431.00
394.7170, 20537.00
395.9150, 20397.00
397.1130, 20020.00
398.3110, 19799.00
399.5080, 19286.00
400.7060, 18847.00
401.9030, 18437.00
403.1000, 17750.00
404.2970, 17134.00
405.4940, 16676.00
406.6910, 16065.00
407.8870, 15664.00
409.0830, 14994.00
410.2790, 14418.00
411.4750, 14254.00
412.6710, 13933.00
413.8660, 13520.00
415.0610, 13208.00
416.2560, 12993.00
417.4510, 12754.00
418.6460, 12668.00
419.8410, 12486.00
421.0350, 12534.00
422.2290, 12295.00
423.4230, 12259.00
424.6170, 12171.00
425.8100, 12047.00
427.0040, 12080.00
428.1970, 11862.00
429.3900, 11850.00
430.5830, 11836.00
431.7760, 11816.00
432.9680, 11836.00
434.1610, 11700.00
435.3530, 11758.00
436.5450, 11532.00
437.7360, 11506.03
438.9280, 11460.78
440.1190, 11369.00
441.3110, 11364.00
442.5020, 11338.00
443.6930, 11268.00
444.8830, 11231.00
446.0740, 11323.00
447.2640, 11187.00
448.4540, 11285.00
449.6440, 11363.00
450.8340, 11085.00
452.0240, 11094.00
453.2130, 11109.00
454.4020, 11291.00
455.5910, 11280.00
456.7800, 11284.00
457.9690, 11397.00
459.1570, 11358.00
460.3460, 11362.00
461.5340, 11456.00
462.7220, 11366.00
463.9090, 11423.69
465.0970, 11321.00
466.2840, 11487.00
467.4720, 11474.42
468.6590, 11575.00
469.8460, 11548.00
471.0320, 11544.00
472.2190, 11380.00
473.4050, 11406.00
474.5910, 11447.63
475.7770, 11562.00
476.9630, 11545.00
478.1490, 11533.45
479.3340, 11420.05
480.5190, 11379.00
481.7040, 11343.00
482.8890, 11507.00
484.0740, 11365.00
485.2580, 11582.00
486.4430, 11446.00
487.6270, 11670.00
488.8110, 11579.00
489.9950, 11696.00
491.1780, 11873.00
492.3620, 11876.00
493.5450, 11975.00
494.7280, 12128.00
495.9110, 12147.00
497.0940, 12441.00
498.2760, 12676.00
499.4590, 12925.00
500.6410, 13281.00
501.8230, 13732.00
503.0050, 14102.00
504.1860, 14610.13
505.3680, 15239.00
506.5490, 15619.00
507.7300, 16144.00
508.9110, 16595.00
510.0920, 16598.33
511.2730, 16638.00
512.4530, 16463.00
513.6330, 16098.00
514.8130, 15892.00
515.9930, 15424.00
517.1730, 15053.00
518.3520, 14925.00
519.5320, 14726.00
520.7110, 14482.00
521.8900, 14515.00
523.0690, 14249.00
524.2470, 14306.00
525.4260, 14409.00
526.6040, 14336.00
527.7820, 14495.00
528.9600, 14650.00
530.1380, 14613.00
531.3150, 14590.00
532.4930, 14687.00
533.6700, 14887.00
534.8470, 14997.00
536.0240, 15061.00
537.2000, 14964.00
538.3770, 15057.00
539.5530, 14942.00
540.7290, 15062.00
541.9050, 14923.00
543.0810, 14846.00
544.2570, 14886.00
545.4320, 14652.00
546.6080, 14734.00
547.7830, 14686.00
548.9580, 14595.00
550.1320, 14537.00
551.3070, 14567.00
552.4810, 14633.00
553.6550, 14665.00
554.8300, 14539.02
556.0030, 14389.00
557.1770, 14273.00
558.3510, 14307.00
559.5240, 14266.00
560.6970, 14213.00
561.8700, 14105.00
563.0430, 14073.00
564.2160, 14091.00
565.3880, 13797.00
566.5600, 13718.00
567.7320, 13693.00
568.9040, 13526.00
570.0760, 13601.00
571.2480, 13532.00
572.4190, 13368.00
573.5900, 13250.00
574.7610, 13155.19
575.9320, 12962.00
577.1030, 12920.00
578.2740, 12807.00
579.4440, 12616.00
580.6140, 12345.00
581.7840, 12309.00
582.9540, 12092.00
584.1240, 12134.00
585.2930, 11836.00
586.4630, 11425.00
587.6320, 11451.00
588.8010, 11235.00
589.9700, 11093.00
591.1380, 11086.00
592.3070, 10704.00
593.4750, 10626.00
594.6430, 10390.00
595.8110, 10279.00
596.9790, 10078.00
598.1460, 9983.000
599.3140, 9844.000
600.4810, 9697.000
601.6480, 9780.000
602.8150, 9599.000
603.9820, 9720.000
605.1480, 9639.000
606.3150, 9463.000
607.4810, 9574.000
608.6470, 9559.000
609.8130, 9598.000
610.9790, 9813.000
612.1440, 9628.000
613.3100, 9692.000
614.4750, 9875.000
615.6400, 9895.000
616.8050, 9921.000
617.9690, 9977.000
619.1340, 10118.00
620.2980, 10280.00
621.4620, 10259.00
622.6260, 10485.00
623.7900, 10613.00
624.9540, 10737.00
626.1170, 10955.00
627.2810, 10994.00
628.4440, 11294.00
629.6070, 11596.00
630.7690, 11598.00
631.9320, 12077.00
633.0950, 12357.00
634.2570, 12743.00
635.4190, 13022.00
636.5810, 13585.00
637.7430, 13698.00
638.9040, 14286.00
640.0660, 14849.00
641.2270, 15321.00
642.3880, 16040.00
643.5490, 16746.00
644.7100, 17458.00
645.8700, 18415.00
647.0310, 19502.00
648.1910, 20606.00
649.3510, 22082.00
650.5110, 23549.00
651.6710, 25190.00
652.8300, 27386.00
653.9900, 29322.00
655.1490, 31748.00
656.3080, 34818.00
657.4670, 37688.00
658.6250, 41177.00
659.7840, 44362.00
660.9420, 48204.00
662.1010, 51965.00
663.2590, 55238.00
664.4170, 58110.00
665.5740, 60664.00
666.7320, 62033.00
667.8890, 62134.00
669.0460, 61647.00
670.2030, 59864.00
671.3600, 56935.00
672.5170, 53682.00
673.6740, 49990.00
674.8300, 45999.00
675.9860, 42334.00
677.1420, 38930.00
678.2980, 35497.00
679.4540, 32567.00
680.6090, 30235.00
681.7650, 27684.00
682.9200, 26081.00
684.0750, 24009.00
685.2300, 22406.00
686.3840, 20813.00
687.5390, 19539.00
688.6930, 18846.00
689.8470, 17802.00
691.0010, 16997.00
692.1550, 16178.00
693.3090, 15642.00
694.4620, 15105.00
695.6160, 14659.00
696.7690, 14106.00
697.9220, 13791.00
699.0750, 13416.00
700.2280, 13364.00
701.3800, 13116.00
702.5320, 12841.00
703.6850, 12567.00
704.8370, 12475.00
705.9880, 12266.00
707.1400, 12082.00
708.2920, 11882.00
709.4430, 11858.00
710.5940, 11621.34
711.7450, 11484.67
712.8960, 11353.00
714.0470, 11142.00
715.1970, 11208.00
716.3480, 11055.00
717.4980, 10970.00
718.6480, 10684.00
719.7980, 10620.00
720.9470, 10530.00
722.0970, 10293.00
723.2460, 10375.00
724.3960, 10256.00
725.5450, 10255.00
726.6940, 10044.00
727.8420, 10097.00
728.9910, 9908.000
730.1390, 9907.000
731.2870, 9822.000
732.4350, 9800.000
733.5830, 9733.000
734.7310, 9737.000
735.8790, 9531.000
737.0260, 9608.000
738.1730, 9520.000
739.3200, 9660.000
740.4670, 9738.000
741.6140, 9664.000
742.7610, 9744.000
743.9070, 9765.000
745.0530, 9772.000
746.1990, 9805.000
747.3450, 9747.000
748.4910, 9809.000
749.6370, 9898.000
750.7820, 10072.00
751.9270, 10022.00
753.0720, 10215.00
754.2170, 10163.00
755.3620, 10152.00
756.5070, 10397.00
757.6510, 10347.00
758.7950, 10478.00
759.9400, 10586.00
761.0840, 10627.00
762.2270, 10689.00
763.3710, 10832.00
764.5140, 10824.00
765.6580, 10915.24
766.8010, 10906.00
767.9440, 11009.00
769.0870, 10998.00
770.2290, 11001.00
771.3720, 10965.00
772.5140, 11170.00
773.6560, 11208.00
774.7990, 11129.00
775.9400, 11408.00
777.0820, 11347.00
778.2240, 11418.00
779.3650, 11456.00
780.5060, 11582.00
781.6470, 11544.00
782.7880, 11561.00
783.9290, 11612.00
785.0690, 11653.00
786.2100, 11842.00
787.3500, 11945.00
788.4900, 11871.00
789.6300, 11824.00
790.7700, 11897.00
791.9090, 12094.00
793.0490, 12199.00
794.1880, 12275.90
795.3270, 12334.54
796.4660, 12452.00
797.6050, 12335.00
798.7440, 12489.00
799.8820, 12452.00
801.0200, 12584.00
802.1590, 12649.00
803.2970, 12642.00
804.4340, 12823.00
805.5720, 12869.00
806.7100, 13057.00
807.8470, 13105.00
808.9840, 13038.00
810.1210, 13211.00
811.2580, 13150.00
812.3950, 13422.00
813.5310, 13394.00
814.6680, 13543.00
815.8040, 13492.00
816.9400, 13620.00
818.0760, 13612.00
819.2120, 13767.00
820.3470, 13776.00
821.4830, 13803.00
822.6180, 13863.34
823.7530, 13833.00
824.8880, 13909.00
826.0230, 13996.00
827.1580, 14015.45
828.2920, 14025.93
829.4270, 13993.00
830.5610, 13968.00
831.6950, 13937.00
832.8290, 13871.00
833.9620, 13806.00
835.0960, 13764.00
836.2290, 13779.00
837.3620, 13667.00
838.4950, 13705.00
839.6280, 13629.00
840.7610, 13726.00
841.8940, 13697.14
843.0260, 13622.00
844.1580, 13664.00
845.2910, 13619.00
846.4230, 13514.00
847.5540, 13803.00
848.6860, 13654.00
849.8170, 13817.00
850.9490, 13847.00
852.0800, 13870.00
853.2110, 14019.00
854.3420, 14089.00
855.4730, 14358.00
856.6030, 14340.00
857.7340, 14391.00
858.8640, 14693.00
859.9940, 15000.00
861.1240, 15026.00
862.2540, 15087.00
863.3830, 15388.00
864.5130, 15253.00
865.6420, 15506.00
866.7710, 15564.00
867.9000, 15474.00
869.0290, 15820.00
870.1570, 15780.00
871.2860, 15702.00
872.4140, 15748.00
873.5430, 15814.00
874.6710, 15726.00
875.7980, 15698.00
876.9260, 15495.00
878.0540, 15634.00
879.1810, 15644.00
880.3080, 15488.00
881.4360, 15528.84
882.5630, 15598.00
883.6890, 15427.00
884.8160, 15384.00
885.9420, 15372.00
887.0690, 15237.00
888.1950, 15290.00
889.3210, 15309.00
890.4470, 15273.00
891.5730, 15132.00
892.6980, 15295.00
893.8240, 15287.00
894.9490, 15422.00
896.0740, 15301.00
897.1990, 15339.00
898.3240, 15279.00
899.4480, 15178.00
900.5730, 15272.00
901.6970, 15405.00
902.8210, 15375.00
903.9450, 15226.00
905.0690, 15507.00
906.1930, 15371.00
907.3160, 15357.00
908.4400, 15379.00
909.5630, 15225.00
910.6860, 15340.00
911.8090, 15362.75
912.9320, 15514.00
914.0550, 15561.00
915.1770, 15667.00
916.2990, 15824.00
917.4210, 15721.00
918.5440, 15864.00
919.6650, 16055.00
920.7870, 15915.00
921.9090, 15923.00
923.0300, 16180.00
924.1510, 16085.00
925.2720, 16149.00
926.3930, 16234.00
927.5140, 16214.84
928.6350, 16238.00
929.7550, 16307.00
930.8760, 16394.00
931.9960, 16509.00
933.1160, 16645.00
934.2360, 16676.92
935.3550, 16777.00
936.4750, 16763.00
937.5940, 16714.00
938.7140, 16769.00
939.8330, 16812.69
940.9520, 16796.00
942.0710, 16975.00
943.1890, 17028.00
944.3080, 17102.00
945.4260, 17083.00
946.5440, 17217.00
947.6620, 17267.47
948.7800, 17523.00
949.8980, 17474.00
951.0160, 17713.00
952.1330, 17908.00
953.2500, 18083.00
954.3680, 18254.00
955.4850, 18551.00
956.6010, 18420.00
957.7180, 18761.00
958.8350, 18945.00
959.9510, 18882.00
961.0670, 19234.00
962.1830, 19385.00
963.2990, 19718.00
964.4150, 19795.00
965.5310, 20167.00
966.6460, 20381.00
967.7620, 20719.00
968.8770, 21003.00
969.9920, 21405.00
971.1070, 21617.00
972.2210, 22046.00
973.3360, 22701.00
974.4500, 23265.00
975.5650, 23570.00
976.6790, 23736.00
977.7930, 24330.00
978.9070, 24691.00
980.0200, 25352.00
981.1340, 25903.00
982.2470, 26624.17
983.3610, 27413.93
984.4740, 28279.00
985.5870, 29188.00
986.6990, 30194.00
987.8120, 31269.00
988.9250, 32314.00
990.0370, 33566.65
991.1490, 34834.00
992.2610, 36244.00
993.3730, 37759.00
994.4850, 39338.00
995.5960, 41177.00
996.7080, 42766.00
997.8190, 44375.00
998.9300, 46498.00
1000.041, 48083.00
1001.152, 49718.00
1002.263, 50985.00
1003.373, 51790.00
1004.484, 52639.00
1005.594, 53335.00
1006.704, 53312.00
1007.814, 53037.18
1008.924, 52573.00
1010.034, 51132.00
1011.143, 49591.00
1012.253, 47550.00
1013.362, 45597.00
1014.471, 43582.00
1015.580, 41163.00
1016.689, 39129.00
1017.797, 36855.00
1018.906, 34657.00
1020.014, 32890.00
1021.122, 30932.00
1022.230, 29513.00
1023.338, 28164.00
1024.446, 26995.00
1025.554, 26053.00
1026.661, 24975.00
1027.768, 24389.00
1028.875, 23713.00
1029.983, 23240.00
1031.089, 22715.00
1032.196, 22162.00
1033.303, 21691.00
1034.409, 21233.08
1035.515, 20952.00
1036.622, 20410.00
1037.728, 20121.00
1038.833, 19778.00
1039.939, 19717.00
1041.045, 19312.00
1042.150, 19064.00
1043.255, 18849.00
1044.360, 18521.00
1045.465, 18202.00
1046.570, 17905.00
1047.675, 17534.00
1048.779, 17299.00
1049.884, 17006.00
1050.988, 16720.00
1052.092, 16553.00
1053.196, 16236.00
1054.300, 15892.00
1055.404, 15746.00
1056.507, 15518.00
1057.610, 15315.00
1058.714, 15087.00
1059.817, 14930.00
1060.920, 14831.00
1062.022, 14735.00
1063.125, 14390.00
1064.228, 14179.00
1065.330, 14149.00
1066.432, 13897.00
1067.534, 13807.00
1068.636, 13755.00
1069.738, 13601.00
1070.840, 13543.00
1071.941, 13548.00
1073.042, 13411.00
1074.144, 13339.61
1075.245, 13182.00
1076.346, 13146.00
1077.446, 13047.00
1078.547, 13019.00
1079.647, 12834.00
1080.748, 12776.00
1081.848, 12700.00
1082.948, 12692.00
1084.048, 12624.00
1085.148, 12551.00
1086.247, 12537.00
1087.347, 12432.00
1088.446, 12389.62
1089.545, 12472.00
1090.644, 12280.00
1091.743, 12276.00
1092.842, 12248.00
1093.940, 12127.16
1095.039, 12128.00
1096.137, 12002.00
1097.235, 11898.00
1098.333, 11916.00
1099.431, 11866.00
1100.529, 11872.00
1101.627, 11930.00
1102.724, 11872.00
1103.822, 11702.00
1104.919, 11582.00
1106.016, 11574.00
1107.113, 11585.00
1108.209, 11542.00
1109.306, 11521.26
1110.402, 11398.00
1111.499, 11406.00
1112.595, 11403.00
1113.691, 11266.00
1114.787, 11394.00
1115.883, 11368.00
1116.978, 11268.00
1118.074, 11260.00
1119.169, 11276.00
1120.264, 11160.00
1121.359, 11127.00
1122.454, 11004.00
1123.549, 10930.00
1124.644, 10806.00
1125.738, 10594.00
1126.832, 10391.00
1127.927, 10289.00
1129.021, 10036.00
1130.115, 9948.000
1131.208, 9743.000
1132.302, 9654.000
1133.396, 9466.000
1134.489, 9372.000
1135.582, 9180.000
1136.675, 9213.000
1137.768, 9178.000
1138.861, 9075.000
1139.954, 8818.000
1141.046, 8738.000
1142.138, 8738.000
1143.231, 8795.000
1144.323, 8667.000
1145.415, 8672.000
1146.507, 8561.000
1147.598, 8497.000
1148.690, 8365.000
1149.781, 8309.000
1150.872, 8351.000
1151.964, 8235.000
1153.054, 8335.000
1154.145, 8171.000
1155.236, 8010.000
1156.327, 8152.000
1157.417, 8103.000
1158.507, 8004.000
1159.597, 8106.000
1160.687, 8098.000
1161.777, 8070.000
1162.867, 7988.000
1163.956, 8032.000
1165.046, 7992.000
1166.135, 7894.000
1167.224, 7915.000
1168.313, 7977.000
1169.402, 7994.000
1170.491, 7995.367
1171.580, 8008.401
1172.668, 7928.000
1173.756, 7968.000
1174.845, 7834.000
1175.933, 7752.000
1177.020, 7865.000
1178.108, 7732.000
1179.196, 7744.000
1180.283, 7746.000
1181.371, 7724.000
1182.458, 7723.901
1183.545, 7770.000
1184.632, 7734.000
1185.719, 7727.000
1186.805, 7808.000
1187.892, 7699.000
1188.978, 7648.000
1190.065, 7634.000
1191.151, 7696.000
1192.237, 7721.000
1193.323, 7802.000
1194.408, 7744.000
1195.494, 7744.000
1196.579, 7728.000
1197.664, 7757.000
1198.750, 7777.000
1199.835, 7707.000
1200.919, 7615.000
1202.004, 7735.000
1203.089, 7664.000
1204.173, 7571.000
1205.258, 7735.000
1206.342, 7754.000
1207.426, 7725.000
1208.510, 7653.000
1209.594, 7709.000
1210.677, 7597.000
1211.761, 7705.000
1212.844, 7771.000
1213.927, 7748.000
1215.010, 7768.678
1216.093, 7637.000
1217.176, 7701.000
1218.259, 7678.000
1219.341, 7637.000
1220.424, 7717.000
1221.506, 7713.000
1222.588, 7779.000
1223.670, 7715.000
1224.752, 7725.000
1225.834, 7736.000
1226.915, 7722.000
1227.997, 7729.000
1229.078, 7751.000
1230.159, 7730.000
1231.240, 7728.000
1232.321, 7705.000
1233.402, 7775.000
1234.483, 7749.000
1235.563, 7781.000
1236.644, 7791.000
1237.724, 7806.000
1238.804, 7791.000
1239.884, 7746.060
1240.964, 7787.000
1242.044, 7702.000
1243.123, 7593.000
1244.203, 7738.000
1245.282, 7709.000
1246.361, 7638.000
1247.440, 7732.000
1248.519, 7668.000
1249.598, 7797.000
1250.676, 7809.976
1251.755, 7796.833
1252.833, 7927.000
1253.911, 7714.000
1254.989, 7824.000
1256.067, 7657.000
1257.145, 7671.000
1258.223, 7742.000
1259.300, 7724.000
1260.378, 7756.000
1261.455, 7819.000
1262.532, 7775.000
1263.609, 7836.000
1264.686, 7856.000
1265.763, 7864.000
1266.840, 7869.000
1267.916, 8146.000
1268.992, 7955.800
1270.069, 7941.000
1271.145, 7786.000
1272.221, 7658.000
1273.296, 7702.000
1274.372, 7797.000
1275.448, 7733.000
1276.523, 7827.000
1277.598, 7903.000
1278.673, 7838.000
1279.749, 7752.000
1280.823, 7801.000
1281.898, 7889.000
1282.973, 7723.000
1284.047, 7874.000
1285.122, 7689.000
1286.196, 7755.000
1287.270, 7708.000
1288.344, 7775.000
1289.418, 7796.000
1290.491, 7800.000
1291.565, 7865.000
1292.638, 7887.000
1293.712, 7912.511
1294.785, 7882.000
1295.858, 7965.000
1296.931, 7897.000
1298.003, 7921.000
1299.076, 7915.000
1300.149, 7900.000
1301.221, 7956.000
1302.293, 7899.000
1303.365, 7876.000
1304.437, 7876.000
1305.509, 7822.000
1306.581, 7875.000
1307.652, 7928.000
1308.724, 7895.000
1309.795, 7940.000
1310.866, 7968.000
1311.937, 7945.000
1313.008, 7939.000
1314.079, 7907.000
1315.150, 7961.000
1316.220, 7926.729
1317.291, 8010.000
1318.361, 7893.000
1319.431, 7873.000
1320.501, 7832.000
1321.571, 7850.000
1322.641, 7973.000
1323.710, 8012.000
1324.780, 7951.000
1325.849, 7923.000
1326.918, 7990.000
1327.987, 8081.000
1329.056, 8051.000
1330.125, 8049.000
1331.194, 8048.000
1332.263, 8073.000
1333.331, 8060.000
1334.399, 8057.000
