##NAMES=Diopside
##RRUFFID=R060171
##IDEAL CHEMISTRY=CaMgSi_2_O_6_
##LOCALITY=Jeffrey mine, Asbestos, Quebec, Canada
##OWNER=RRUFF
##SOURCE=Guy Ouellet
##DESCRIPTION=Yellowish-brown tabular crystals associated with vesuvianite, R060170
##STATUS=The identification of this mineral has been confirmed by X-ray diffraction and chemical analysis
##URL=rruff.info/R060171
##MEASURED CHEMISTRY=Ca_1.00_(Mg_0.98_Mn_0.02_)_Î£=1_Si_2.00_O_6_
##PIN_ID=L00630
##ORIENTATION=Laser parallel to (-1 0 -1). Fiducial mark perpendicular to laser is parallel to -b [0 -1 0]
125.5190, 16492.00
126.7490, 16517.00
127.9790, 16855.00
129.2090, 16978.00
130.4390, 17266.00
131.6680, 17309.00
132.8980, 17518.00
134.1270, 17640.00
135.3560, 17982.00
136.5850, 18278.00
137.8140, 18377.00
139.0430, 19091.00
140.2710, 19736.00
141.5000, 20684.00
142.7280, 21426.00
143.9560, 20942.00
145.1840, 20338.00
146.4120, 19638.00
147.6390, 19303.00
148.8670, 19004.00
150.0940, 19062.00
151.3210, 18972.00
152.5490, 18919.00
153.7750, 18895.00
155.0020, 19186.00
156.2290, 19068.00
157.4550, 19188.00
158.6810, 19241.00
159.9080, 19161.00
161.1340, 19376.00
162.3590, 19178.00
163.5850, 19410.00
164.8110, 19557.00
166.0360, 19570.00
167.2610, 19774.00
168.4860, 19814.00
169.7110, 19751.00
170.9360, 19715.00
172.1610, 19790.00
173.3850, 19833.00
174.6100, 19764.00
175.8340, 19749.00
177.0580, 19896.00
178.2820, 19899.00
179.5050, 20051.00
180.7290, 20082.00
181.9520, 20294.00
183.1760, 20336.15
184.3990, 20371.60
185.6220, 20449.00
186.8450, 20385.00
188.0670, 20371.00
189.2900, 20359.00
190.5120, 20320.00
191.7340, 20360.00
192.9560, 20303.00
194.1780, 20228.00
195.4000, 20457.00
196.6220, 20504.00
197.8430, 20676.00
199.0640, 20693.00
200.2860, 20738.00
201.5070, 20787.00
202.7270, 20643.00
203.9480, 20707.00
205.1690, 20694.71
206.3890, 20688.00
207.6090, 20788.00
208.8290, 20775.00
210.0490, 20946.00
211.2690, 20890.00
212.4890, 20974.00
213.7080, 20918.00
214.9280, 21014.00
216.1470, 21045.00
217.3660, 20973.00
218.5850, 20880.00
219.8030, 21139.00
221.0220, 21277.00
222.2400, 20974.00
223.4590, 21352.00
224.6770, 21428.00
225.8950, 21296.00
227.1120, 21589.00
228.3300, 21662.00
229.5480, 21831.00
230.7650, 22150.00
231.9820, 22346.00
233.1990, 22193.00
234.4160, 22265.00
235.6330, 22148.00
236.8490, 21863.00
238.0660, 21857.00
239.2820, 21789.00
240.4980, 21719.00
241.7140, 21817.00
242.9300, 21758.00
244.1460, 21949.00
245.3610, 21750.00
246.5770, 21990.00
247.7920, 21722.00
249.0070, 21940.00
250.2220, 21798.00
251.4370, 21951.00
252.6510, 22138.00
253.8660, 22125.00
255.0800, 22079.00
256.2940, 22481.00
257.5080, 22354.00
258.7220, 22563.00
259.9360, 22402.00
261.1490, 22287.00
262.3630, 22102.00
263.5760, 22329.00
264.7890, 22388.00
266.0020, 22246.00
267.2150, 22369.00
268.4270, 22424.00
269.6400, 22420.00
270.8520, 22444.00
272.0640, 22561.00
273.2760, 22398.00
274.4880, 22497.00
275.7000, 22630.00
276.9120, 22685.00
278.1230, 22586.00
279.3340, 22506.00
280.5450, 22535.00
281.7560, 22557.00
282.9670, 22611.12
284.1780, 22554.00
285.3880, 22784.00
286.5980, 22855.00
287.8090, 22920.00
289.0190, 22786.00
290.2290, 22835.00
291.4380, 22831.00
292.6480, 22970.00
293.8570, 22868.00
295.0670, 22987.00
296.2760, 23143.00
297.4850, 23001.00
298.6930, 23189.00
299.9020, 23230.00
301.1110, 23366.00
302.3190, 23469.00
303.5270, 23459.00
304.7350, 23885.00
305.9430, 23613.00
307.1510, 23752.00
308.3580, 23374.00
309.5660, 23760.00
310.7730, 23740.00
311.9800, 23691.00
313.1870, 23724.00
314.3940, 23927.00
315.6010, 24076.00
316.8070, 24352.00
318.0130, 24409.00
319.2200, 24478.00
320.4260, 25033.00
321.6310, 25935.00
322.8370, 26599.00
324.0430, 27621.00
325.2480, 28096.00
326.4540, 28178.00
327.6590, 27573.00
328.8640, 26482.00
330.0680, 25522.00
331.2730, 25247.00
332.4780, 24826.00
333.6820, 24591.00
334.8860, 24257.00
336.0900, 24288.00
337.2940, 24364.00
338.4980, 24204.00
339.7010, 24125.00
340.9050, 24263.00
342.1080, 24184.00
343.3110, 24168.00
344.5140, 24199.00
345.7170, 24118.00
346.9200, 24339.00
348.1220, 24504.00
349.3240, 24297.00
350.5270, 24517.00
351.7290, 24761.00
352.9310, 24879.00
354.1320, 25116.72
355.3340, 25300.49
356.5350, 25485.00
357.7370, 25631.00
358.9380, 25750.00
360.1390, 25784.00
361.3400, 25612.00
362.5400, 25530.00
363.7410, 25303.00
364.9410, 25264.00
366.1410, 25293.00
367.3410, 25108.00
368.5410, 25420.00
369.7410, 25691.00
370.9400, 25465.00
372.1400, 25370.00
373.3390, 25225.00
374.5380, 25171.00
375.7370, 25224.00
376.9360, 25267.00
378.1350, 25259.00
379.3330, 25271.00
380.5310, 25532.00
381.7300, 25623.00
382.9280, 25807.00
384.1260, 26047.00
385.3230, 26247.00
386.5210, 26919.00
387.7180, 27627.00
388.9160, 28740.00
390.1130, 29962.00
391.3100, 30361.00
392.5060, 30316.00
393.7030, 29510.00
394.9000, 28317.00
396.0960, 27424.00
397.2920, 26660.00
398.4880, 26212.00
399.6840, 26029.00
400.8800, 25818.00
402.0750, 25645.00
403.2710, 25566.00
404.4660, 25420.00
405.6610, 25605.00
406.8560, 25448.00
408.0510, 25496.00
409.2450, 25547.00
410.4400, 25478.00
411.6340, 25697.00
412.8280, 25477.00
414.0220, 25649.00
415.2160, 25804.00
416.4100, 25803.00
417.6030, 25887.97
418.7970, 25707.00
419.9900, 25799.00
421.1830, 25841.00
422.3760, 25554.00
423.5690, 25898.00
424.7610, 25875.00
425.9540, 25912.00
427.1460, 25817.00
428.3380, 25731.00
429.5300, 25794.00
430.7220, 25760.11
431.9140, 25978.00
433.1050, 25865.00
434.2970, 26015.00
435.4880, 26170.00
436.6790, 25816.00
437.8700, 26096.00
439.0610, 26000.00
440.2510, 25869.00
441.4420, 25934.00
442.6320, 25929.00
443.8220, 26163.00
445.0120, 26148.00
446.2020, 26144.00
447.3910, 26259.00
448.5810, 26255.00
449.7700, 26341.00
450.9600, 26509.00
452.1490, 26386.00
453.3370, 26467.00
454.5260, 26401.00
455.7150, 26319.00
456.9030, 26381.00
458.0910, 26632.00
459.2800, 26357.00
460.4670, 26661.00
461.6550, 26441.00
462.8430, 26628.00
464.0300, 26581.00
465.2180, 26716.00
466.4050, 26617.00
467.5920, 26827.00
468.7790, 26908.00
469.9650, 26660.00
471.1520, 27049.00
472.3380, 26882.00
473.5250, 27035.00
474.7110, 26902.00
475.8970, 26900.00
477.0820, 26905.00
478.2680, 26935.00
479.4540, 26949.84
480.6390, 26995.32
481.8240, 26974.00
483.0090, 27070.00
484.1940, 27021.00
485.3780, 26995.00
486.5630, 27175.00
487.7470, 27314.00
488.9320, 27346.00
490.1160, 27202.00
491.3000, 27180.00
492.4830, 27034.00
493.6670, 27238.00
494.8500, 27401.00
496.0340, 27222.00
497.2170, 27291.00
498.4000, 27425.00
499.5820, 27519.00
500.7650, 27554.00
501.9480, 27234.00
503.1300, 27649.00
504.3120, 27594.00
505.4940, 27323.00
506.6760, 27647.00
507.8580, 27624.00
509.0390, 27608.00
510.2210, 27604.00
511.4020, 27615.10
512.5830, 27639.06
513.7640, 27673.00
514.9450, 27746.00
516.1250, 27812.00
517.3060, 27938.00
518.4860, 27787.00
519.6660, 28070.00
520.8460, 27922.00
522.0260, 27968.00
523.2060, 27830.00
524.3850, 28015.00
525.5650, 28049.00
526.7440, 28277.00
527.9230, 28307.00
529.1020, 28407.00
530.2810, 28393.00
531.4590, 28467.00
532.6380, 28397.00
533.8160, 28150.00
534.9940, 28535.00
536.1720, 28620.00
537.3500, 28460.00
538.5270, 28165.00
539.7050, 28202.00
540.8820, 28383.00
542.0590, 28527.00
543.2360, 28530.79
544.4130, 28566.00
545.5900, 28527.00
546.7660, 28343.00
547.9430, 28249.00
549.1190, 28453.00
550.2950, 28439.00
551.4710, 28644.00
552.6470, 28567.00
553.8220, 28687.00
554.9980, 28811.00
556.1730, 28741.00
557.3480, 28677.00
558.5230, 28996.00
559.6980, 28876.00
560.8730, 28835.00
562.0470, 28933.00
563.2220, 28817.00
564.3960, 28732.00
565.5700, 28891.00
566.7440, 28845.00
567.9170, 28729.00
569.0910, 28880.00
570.2640, 29122.00
571.4380, 28836.00
572.6110, 29099.00
573.7840, 29102.00
574.9570, 29129.00
576.1290, 29009.00
577.3020, 29105.00
578.4740, 29280.00
579.6460, 29181.00
580.8180, 29301.56
581.9900, 29310.00
583.1620, 29319.00
584.3330, 29362.00
585.5040, 29243.00
586.6760, 29352.00
587.8470, 29266.00
589.0180, 29183.00
590.1880, 29287.00
591.3590, 29323.00
592.5290, 29498.00
593.7000, 29384.00
594.8700, 29635.00
596.0400, 29516.00
597.2090, 29788.00
598.3790, 29557.00
599.5490, 29571.00
600.7180, 29767.00
601.8870, 29636.00
603.0560, 29459.00
604.2250, 29800.00
605.3940, 29880.00
606.5620, 30034.00
607.7300, 29725.00
608.8990, 29876.00
610.0670, 29919.00
611.2350, 29950.00
612.4020, 30040.00
613.5700, 29979.00
614.7370, 30084.02
615.9050, 30056.00
617.0720, 30160.00
618.2390, 30209.00
619.4060, 30105.00
620.5720, 30085.00
621.7390, 30153.00
622.9050, 30113.00
624.0710, 30383.00
625.2370, 30324.00
626.4030, 30264.00
627.5690, 30390.00
628.7340, 30182.00
629.9000, 30267.00
631.0650, 30248.00
632.2300, 30394.00
633.3950, 30266.00
634.5600, 30452.00
635.7240, 30520.00
636.8890, 30650.00
638.0530, 30732.91
639.2170, 30717.00
640.3810, 30866.00
641.5450, 30751.00
642.7080, 30794.00
643.8720, 30731.00
645.0350, 30755.00
646.1980, 30938.00
647.3610, 30942.00
648.5240, 31280.00
649.6870, 31212.00
650.8490, 31293.00
652.0120, 31250.00
653.1740, 31481.00
654.3360, 31448.00
655.4980, 31695.00
656.6600, 31659.00
657.8210, 32185.00
658.9830, 32436.00
660.1440, 32972.00
661.3050, 33120.00
662.4660, 33944.00
663.6270, 34550.00
664.7870, 35448.00
665.9480, 36096.00
667.1080, 36602.00
668.2680, 36610.00
669.4280, 36214.00
670.5880, 35520.00
671.7480, 34504.00
672.9070, 34004.00
674.0670, 33185.00
675.2260, 32901.00
676.3850, 32611.00
677.5440, 32436.00
678.7030, 32151.00
679.8610, 32159.00
681.0200, 31890.00
682.1780, 31990.00
683.3360, 32029.00
684.4940, 31877.00
685.6520, 31934.00
686.8090, 31890.01
687.9670, 31854.00
689.1240, 31875.00
690.2810, 31804.00
691.4380, 31831.00
692.5950, 31969.00
693.7520, 31910.00
694.9080, 31951.00
696.0650, 31922.00
697.2210, 31833.00
698.3770, 31957.00
699.5330, 32239.00
700.6880, 32219.00
701.8440, 32297.00
702.9990, 32092.00
704.1550, 31985.00
705.3100, 32082.00
706.4650, 32212.00
707.6190, 32219.00
708.7740, 32223.00
709.9290, 32286.00
711.0830, 32137.00
712.2370, 32255.00
713.3910, 32204.00
714.5450, 32346.00
715.6980, 32587.00
716.8520, 32171.00
718.0050, 32473.00
719.1580, 32417.00
720.3110, 32300.00
721.4640, 32515.00
722.6170, 32223.00
723.7700, 32927.00
724.9220, 32486.00
726.0740, 32310.00
727.2260, 32868.00
728.3780, 32675.00
729.5300, 32780.00
730.6810, 32855.00
731.8330, 32943.00
732.9840, 32637.00
734.1350, 32782.00
735.2860, 32642.00
736.4370, 32743.00
737.5880, 32812.00
738.7380, 32823.00
739.8880, 32848.00
741.0390, 32940.40
742.1890, 32868.00
743.3380, 33083.00
744.4880, 33096.00
745.6380, 33087.00
746.7870, 33064.00
747.9360, 33085.00
749.0850, 33205.00
750.2340, 33072.00
751.3830, 33260.00
752.5310, 33280.00
753.6800, 33202.00
754.8280, 33425.00
755.9760, 33447.00
757.1240, 33182.00
758.2720, 33463.00
759.4190, 33158.00
760.5670, 33721.00
761.7140, 33304.00
762.8610, 33440.00
764.0080, 33563.00
765.1550, 33645.00
766.3020, 33565.00
767.4480, 33839.00
768.5950, 33788.00
769.7410, 33701.00
770.8870, 33874.00
772.0330, 33603.00
773.1780, 33938.00
774.3240, 33666.00
775.4690, 33698.00
776.6140, 33728.00
777.7590, 33805.00
778.9040, 33983.00
780.0490, 34177.00
781.1940, 33917.00
782.3380, 34087.00
783.4820, 33848.00
784.6260, 34143.00
785.7700, 34017.00
786.9140, 33923.00
788.0580, 34010.00
789.2010, 34086.00
790.3450, 34139.93
791.4880, 34233.46
792.6310, 34348.00
793.7730, 34400.00
794.9160, 34491.00
796.0590, 34572.00
797.2010, 34710.00
798.3430, 34449.00
799.4850, 34495.00
800.6270, 34393.00
801.7690, 34589.00
802.9100, 34725.00
804.0520, 34531.00
805.1930, 34602.00
806.3340, 34669.00
807.4750, 34786.00
808.6160, 34645.00
809.7560, 34920.00
810.8970, 34868.00
812.0370, 34657.00
813.1770, 35146.00
814.3170, 34987.00
815.4570, 34925.00
816.5960, 35038.00
817.7360, 35046.00
818.8750, 35118.00
820.0140, 35098.00
821.1530, 35133.00
822.2920, 35256.00
823.4310, 35159.00
824.5690, 34998.00
825.7070, 35467.00
826.8460, 35295.00
827.9840, 35203.00
829.1220, 35441.00
830.2590, 35497.00
831.3970, 35666.00
832.5340, 35481.00
833.6710, 35233.00
834.8080, 35270.00
835.9450, 35634.00
837.0820, 35477.00
838.2190, 35769.00
839.3550, 35867.00
840.4910, 35714.00
841.6270, 35811.00
842.7630, 35948.00
843.8990, 35773.00
845.0350, 35865.00
846.1700, 36141.00
847.3060, 35962.00
848.4410, 36271.00
849.5760, 36442.00
850.7100, 36112.00
851.8450, 36710.00
852.9800, 36939.00
854.1140, 37082.00
855.2480, 36945.00
856.3820, 37122.00
857.5160, 36983.00
858.6500, 36841.00
859.7830, 36714.00
860.9170, 36588.00
862.0500, 36451.00
863.1830, 36556.00
864.3160, 36481.30
865.4480, 36649.00
866.5810, 36563.00
867.7130, 36439.00
868.8460, 36561.00
869.9780, 36719.00
871.1100, 36742.00
872.2410, 36774.48
873.3730, 36876.00
874.5050, 36713.00
875.6360, 36668.00
876.7670, 36595.00
877.8980, 36563.80
879.0290, 36986.00
880.1590, 36640.00
881.2900, 36945.00
882.4200, 37174.00
883.5500, 36993.00
884.6800, 36959.00
885.8100, 37164.00
886.9400, 37240.00
888.0690, 37216.34
889.1990, 37152.00
890.3280, 37183.00
891.4570, 37146.00
892.5860, 37145.00
893.7140, 37289.00
894.8430, 37426.00
895.9710, 37367.00
897.1000, 37248.00
898.2280, 37518.00
899.3560, 37336.00
900.4830, 37403.98
901.6110, 37740.00
902.7380, 37473.00
903.8660, 37719.00
904.9930, 37901.00
906.1200, 37675.00
907.2460, 37700.00
908.3730, 37765.00
909.5000, 37902.00
910.6260, 38058.00
911.7520, 38003.00
912.8780, 38201.00
914.0040, 37875.00
915.1290, 38110.00
916.2550, 38365.00
917.3800, 38133.00
918.5050, 38441.00
919.6300, 38229.00
920.7550, 38063.00
921.8800, 38267.00
923.0040, 38233.00
924.1290, 38231.00
925.2530, 38175.00
926.3770, 38285.48
927.5010, 38541.00
928.6250, 38586.00
929.7480, 38530.00
930.8720, 38815.00
931.9950, 38504.00
933.1180, 38549.00
934.2410, 38611.00
935.3640, 38653.00
936.4860, 38670.00
937.6090, 38767.00
938.7310, 38763.00
939.8530, 38917.00
940.9750, 38945.00
942.0970, 38944.00
943.2180, 39172.00
944.3400, 39045.00
945.4610, 39061.00
946.5820, 39008.00
947.7030, 39457.00
948.8240, 39306.00
949.9450, 39255.00
951.0650, 39478.00
952.1860, 39290.00
953.3060, 39498.00
954.4260, 39334.00
955.5460, 39276.00
956.6650, 39760.00
957.7850, 39736.00
958.9040, 39641.00
960.0230, 39751.00
961.1420, 39612.00
962.2610, 39772.00
963.3800, 40001.00
964.4990, 39713.00
965.6170, 39696.00
966.7350, 40184.00
967.8530, 39790.00
968.9710, 39938.00
970.0890, 39931.00
971.2070, 40025.00
972.3240, 40104.00
973.4410, 40261.00
974.5580, 40092.00
975.6750, 40489.00
976.7920, 40179.00
977.9090, 40486.00
979.0250, 40410.00
980.1410, 40709.00
981.2580, 40565.00
982.3740, 40481.00
983.4890, 40634.00
984.6050, 40647.00
985.7200, 40848.00
986.8360, 40683.00
987.9510, 40859.00
989.0660, 40830.00
990.1810, 40836.00
991.2950, 41133.00
992.4100, 40862.00
993.5240, 41018.00
994.6390, 40983.00
995.7530, 41241.00
996.8660, 41326.00
997.9800, 41313.00
999.0940, 41356.00
1000.207, 41498.00
1001.320, 41774.00
1002.433, 41773.00
1003.546, 42130.00
1004.659, 42617.00
1005.772, 42814.00
1006.884, 43120.00
1007.996, 43820.00
1009.108, 44776.00
1010.220, 46070.00
1011.332, 47836.00
1012.444, 49597.00
1013.555, 50948.00
1014.666, 51011.00
1015.777, 50330.00
1016.888, 48307.00
1017.999, 46965.00
1019.110, 45176.00
1020.220, 44391.00
1021.331, 43743.00
1022.441, 43573.00
1023.551, 42972.00
1024.661, 42825.00
1025.770, 42870.00
1026.880, 42649.00
1027.989, 42627.00
1029.098, 42712.00
1030.207, 42745.00
1031.316, 42889.00
1032.425, 42990.00
1033.533, 42722.00
1034.642, 42981.00
1035.750, 42632.00
1036.858, 42642.00
1037.966, 42872.00
1039.073, 42897.00
1040.181, 42759.00
1041.288, 42816.00
1042.396, 43063.00
1043.503, 43267.00
1044.610, 43169.00
1045.716, 43322.00
1046.823, 43226.00
1047.929, 43521.00
1049.036, 43505.00
1050.142, 43424.00
1051.248, 43503.00
1052.353, 43473.00
1053.459, 43572.00
1054.564, 43290.00
1055.670, 43524.00
1056.775, 43472.00
1057.880, 43971.00
1058.985, 43366.00
1060.089, 43977.00
1061.194, 43512.00
1062.298, 43747.00
1063.402, 43963.00
1064.506, 44247.00
1065.610, 43929.00
1066.713, 43702.00
1067.817, 44033.00
1068.920, 43965.00
1070.023, 44119.00
1071.126, 44084.00
1072.229, 44284.00
1073.332, 44256.00
1074.435, 44265.00
1075.537, 44157.00
1076.639, 44196.88
1077.741, 44137.00
1078.843, 44313.00
1079.945, 44365.00
1081.046, 44620.00
1082.148, 44262.00
1083.249, 44596.00
1084.350, 44670.00
1085.451, 44414.00
1086.551, 44501.00
1087.652, 44689.00
1088.752, 44942.00
1089.853, 44877.00
1090.953, 44775.00
1092.053, 44816.00
1093.152, 44854.32
1094.252, 45027.00
1095.351, 44999.00
1096.451, 45213.00
1097.550, 45191.00
1098.649, 45154.00
1099.748, 45278.00
1100.846, 45262.00
1101.945, 45252.00
1103.043, 45276.00
1104.141, 45282.00
1105.239, 45607.00
1106.337, 45545.00
1107.434, 45615.00
1108.532, 45863.00
1109.629, 45607.00
1110.726, 45328.00
1111.823, 45817.00
1112.920, 45879.00
1114.017, 45742.00
1115.113, 46229.00
1116.210, 46242.00
1117.306, 46131.00
1118.402, 46317.00
1119.498, 46117.00
1120.593, 46510.00
1121.689, 46497.00
1122.784, 46343.00
1123.879, 46414.00
1124.974, 46653.00
1126.069, 46420.00
1127.164, 46654.00
1128.259, 46706.00
1129.353, 46482.00
1130.447, 46658.00
1131.541, 46736.00
1132.635, 46801.00
1133.729, 47285.00
1134.822, 47082.00
1135.916, 46817.00
1137.009, 47284.00
1138.102, 47098.00
1139.195, 47284.00
1140.288, 47090.00
1141.380, 47285.00
1142.473, 47191.00
1143.565, 47420.00
1144.657, 47458.00
1145.749, 47620.00
1146.841, 47506.00
1147.932, 47429.00
1149.024, 47609.00
1150.115, 47886.00
1151.206, 47515.00
1152.297, 47777.00
1153.388, 47396.00
1154.479, 48028.00
1155.569, 47720.00
1156.659, 48039.00
1157.750, 47792.00
1158.839, 48077.00
1159.929, 48115.00
1161.019, 47932.00
1162.108, 48354.00
1163.198, 48158.00
1164.287, 48089.00
1165.376, 48090.00
1166.465, 48266.00
1167.553, 48415.00
1168.642, 48621.00
1169.730, 48673.00
1170.818, 48565.00
1171.906, 48660.00
1172.994, 48561.00
1174.082, 48803.00
1175.170, 48899.00
1176.257, 48996.00
1177.344, 48652.00
1178.431, 48996.00
1179.518, 49054.00
1180.605, 48692.00
1181.691, 49167.00
1182.778, 49149.00
1183.864, 49155.00
1184.950, 49172.00
1186.036, 49164.13
1187.122, 49381.00
1188.207, 49248.00
1189.292, 49275.00
1190.378, 49488.00
1191.463, 49644.00
1192.548, 49620.00
1193.632, 49884.00
1194.717, 49397.00
1195.801, 49752.00
1196.886, 50051.00
1197.970, 49786.00
1199.054, 50031.00
1200.137, 49916.00
1201.221, 50191.00
1202.305, 50272.00
1203.388, 50322.00
1204.471, 50418.00
1205.554, 50437.00
1206.637, 50486.00
1207.719, 50475.00
1208.802, 50536.14
1209.884, 50515.00
1210.966, 50647.00
1212.048, 50837.00
1213.130, 50925.28
1214.212, 50722.00
1215.293, 51009.00
1216.374, 50872.00
1217.456, 50935.00
1218.536, 50989.00
1219.617, 50879.00
1220.698, 51302.00
1221.778, 50955.00
1222.859, 51484.00
1223.939, 51389.00
1225.019, 51220.00
1226.099, 51618.00
1227.178, 51442.00
1228.258, 51418.00
1229.337, 51521.00
1230.417, 51797.00
1231.496, 51686.00
1232.574, 51824.00
1233.653, 52366.00
1234.732, 51889.00
1235.810, 52127.00
1236.888, 52176.00
1237.966, 51995.00
1239.044, 52188.00
1240.122, 52235.00
1241.199, 52043.00
1242.277, 52686.00
1243.354, 52224.00
1244.431, 52449.00
1245.508, 52634.00
1246.585, 52766.00
1247.661, 52641.00
1248.738, 52733.00
1249.814, 52681.00
1250.890, 52804.00
1251.966, 53075.00
1253.042, 52986.00
1254.117, 53077.00
1255.193, 52972.00
1256.268, 52865.00
1257.343, 53144.00
1258.418, 53234.00
1259.493, 53188.00
1260.567, 53352.00
1261.642, 53434.00
1262.716, 53388.00
1263.790, 53420.00
1264.864, 53957.00
1265.938, 53448.00
1267.011, 53846.00
1268.085, 53789.00
1269.158, 53572.00
1270.231, 53675.00
1271.304, 53500.00
1272.377, 53916.00
1273.450, 53936.00
1274.522, 53992.00
1275.594, 54086.00
1276.666, 54119.46
1277.738, 54248.47
1278.810, 54272.00
1279.882, 54434.00
1280.953, 54603.00
1282.025, 54567.00
1283.096, 54602.00
1284.167, 54502.00
1285.238, 54829.00
1286.308, 54867.00
1287.379, 54816.00
1288.449, 54724.00
1289.519, 54846.00
1290.589, 54785.72
1291.659, 55069.00
1292.729, 54891.00
1293.798, 54944.00
1294.868, 55186.00
1295.937, 54961.00
1297.006, 54950.00
1298.075, 55256.00
##END=



