##NAMES=Diopside
##RRUFFID=R050496
##IDEAL CHEMISTRY=CaMgSi_2_O_6_
##LOCALITY=New City Quarry, Riverside, Riverside County, Calfornia, USA
##OWNER=RRUFF
##SOURCE=California Institute of Technology
##DESCRIPTION=Aggregate of light green irregular grains
##STATUS=The identification of this mineral has been confirmed by X-ray diffraction and chemical analysis
##URL=rruff.info/R050496
##MEASURED CHEMISTRY=Ca(Mg_0.66_Fe_0.33_Mn_0.01_)(Si_0.95_Al_0.05_)_2_O_6_
##PIN_ID=M01464
##ORIENTATION=Laser parallel to b* (0 1 0). Fiducial mark perpendicular to laser is parallel to -c [0 0 -1]
114.2860, 14049.00
115.5200, 14671.00
116.7530, 14641.00
117.9870, 14756.00
119.2200, 14799.00
120.4530, 14732.00
121.6860, 14854.78
122.9190, 14807.00
124.1520, 14994.00
125.3850, 15172.00
126.6170, 15257.00
127.8490, 15247.00
129.0810, 15553.00
130.3130, 15719.00
131.5450, 16095.00
132.7770, 16743.00
134.0080, 17445.00
135.2390, 18419.00
136.4710, 19156.00
137.7020, 19954.00
138.9320, 20220.00
140.1630, 19885.00
141.3930, 19245.00
142.6240, 18420.00
143.8540, 17530.00
145.0840, 16800.00
146.3140, 16284.00
147.5440, 15933.00
148.7730, 15557.00
150.0020, 15252.00
151.2320, 15157.00
152.4610, 15108.00
153.6900, 15077.00
154.9180, 14882.00
156.1470, 14789.00
157.3750, 14756.00
158.6040, 14626.00
159.8320, 14639.00
161.0600, 14533.00
162.2870, 14675.00
163.5150, 14558.00
164.7420, 14620.00
165.9700, 14780.00
167.1970, 14819.00
168.4240, 14921.00
169.6510, 14929.00
170.8770, 14981.28
172.1040, 14986.00
173.3300, 15082.00
174.5560, 15125.00
175.7820, 15254.00
177.0080, 15266.39
178.2340, 15370.00
179.4590, 15320.00
180.6850, 15302.00
181.9100, 15343.00
183.1350, 15185.00
184.3600, 15159.00
185.5850, 15229.00
186.8090, 15145.00
188.0340, 15177.00
189.2580, 15149.00
190.4820, 15059.00
191.7060, 15201.00
192.9300, 15339.00
194.1530, 15371.00
195.3770, 15370.00
196.6000, 15330.00
197.8230, 15389.00
199.0460, 15377.73
200.2690, 15188.00
201.4910, 15393.00
202.7140, 15495.00
203.9360, 15474.00
205.1580, 15279.00
206.3800, 15184.00
207.6020, 15146.00
208.8240, 15038.00
210.0450, 15085.00
211.2670, 15021.00
212.4880, 15067.00
213.7090, 15164.00
214.9300, 15103.00
216.1510, 15157.00
217.3710, 15165.00
218.5920, 15275.00
219.8120, 15133.00
221.0320, 15396.00
222.2520, 15239.00
223.4720, 15332.00
224.6910, 15439.00
225.9110, 15434.00
227.1300, 15502.00
228.3490, 15577.00
229.5680, 15693.00
230.7870, 15856.00
232.0050, 16067.00
233.2240, 16038.00
234.4420, 15877.00
235.6600, 15968.00
236.8780, 15835.00
238.0960, 15690.00
239.3140, 15891.00
240.5310, 15893.00
241.7490, 15818.00
242.9660, 15709.00
244.1830, 15789.00
245.4000, 15772.00
246.6160, 15934.00
247.8330, 15900.00
249.0490, 15784.00
250.2660, 15943.00
251.4820, 15609.00
252.6980, 15840.00
253.9130, 15934.00
255.1290, 15761.00
256.3440, 15845.00
257.5600, 15874.00
258.7750, 15780.00
259.9900, 15902.00
261.2040, 15777.00
262.4190, 15825.00
263.6330, 15843.33
264.8480, 15899.88
266.0620, 15873.00
267.2760, 15979.00
268.4900, 15987.00
269.7030, 15956.66
270.9170, 16009.00
272.1300, 15899.00
273.3430, 15858.00
274.5560, 15875.00
275.7690, 15837.00
276.9820, 15895.00
278.1940, 15986.00
279.4070, 16033.00
280.6190, 16096.16
281.8310, 16116.00
283.0430, 16178.00
284.2550, 16133.00
285.4660, 16108.00
286.6770, 16112.00
287.8890, 16066.00
289.1000, 16240.00
290.3110, 16179.00
291.5210, 16313.00
292.7320, 16442.00
293.9420, 16536.00
295.1530, 16561.00
296.3630, 16544.00
297.5730, 16600.00
298.7830, 16757.00
299.9920, 16895.00
301.2020, 16888.00
302.4110, 17177.00
303.6200, 17159.00
304.8290, 17473.00
306.0380, 17567.00
307.2470, 17943.00
308.4550, 17983.00
309.6630, 18385.00
310.8720, 18591.00
312.0800, 19026.00
313.2880, 19352.00
314.4950, 19845.00
315.7030, 20237.00
316.9100, 20767.00
318.1170, 21286.00
319.3240, 21612.00
320.5310, 22159.00
321.7380, 22212.00
322.9450, 22343.00
324.1510, 22261.00
325.3570, 22119.00
326.5630, 22012.00
327.7690, 21704.00
328.9750, 21306.00
330.1810, 20804.00
331.3860, 20476.00
332.5910, 20102.00
333.7960, 19985.00
335.0010, 19812.00
336.2060, 19563.00
337.4110, 19514.00
338.6150, 19375.00
339.8200, 19215.00
341.0240, 19146.00
342.2280, 19151.00
343.4320, 19175.00
344.6350, 19221.20
345.8390, 19277.00
347.0420, 19416.00
348.2450, 19504.00
349.4480, 19663.00
350.6510, 19810.00
351.8540, 20005.00
353.0560, 20007.00
354.2590, 20081.00
355.4610, 19984.15
356.6630, 19803.00
357.8650, 19662.00
359.0670, 19458.00
360.2680, 19232.00
361.4700, 19069.00
362.6710, 18827.00
363.8720, 18888.00
365.0730, 18930.00
366.2740, 18688.00
367.4740, 18528.00
368.6750, 18639.00
369.8750, 18432.00
371.0750, 18590.00
372.2750, 18817.00
373.4750, 18701.00
374.6740, 18880.00
375.8740, 18892.00
377.0730, 19041.00
378.2720, 19335.00
379.4710, 19683.00
380.6700, 20029.42
381.8690, 20290.00
383.0670, 20930.00
384.2660, 21291.00
385.4640, 21860.00
386.6620, 22070.00
387.8600, 22422.00
389.0570, 22474.00
390.2550, 22444.00
391.4520, 22065.00
392.6490, 21411.00
393.8460, 20803.00
395.0430, 20314.00
396.2400, 19803.00
397.4370, 19505.00
398.6330, 18932.00
399.8290, 18639.00
401.0250, 18318.00
402.2210, 18259.00
403.4170, 18164.00
404.6130, 17923.00
405.8080, 17778.00
407.0030, 17794.00
408.1980, 17835.00
409.3930, 17778.00
410.5880, 17668.00
411.7830, 17838.00
412.9770, 17623.00
414.1720, 17518.00
415.3660, 17683.00
416.5600, 17687.00
417.7530, 17655.00
418.9470, 17680.00
420.1410, 17678.00
421.3340, 17698.00
422.5270, 17703.00
423.7200, 17811.00
424.9130, 17852.00
426.1060, 17788.00
427.2980, 17824.19
428.4900, 17694.00
429.6830, 17775.00
430.8750, 17682.00
432.0670, 17656.00
433.2580, 17690.00
434.4500, 17720.00
435.6410, 17622.00
436.8320, 17780.00
438.0240, 17822.00
439.2140, 17797.00
440.4050, 17742.00
441.5960, 17899.00
442.7860, 17867.83
443.9760, 17879.00
445.1670, 17918.00
446.3560, 17900.00
447.5460, 17855.00
448.7360, 17821.00
449.9250, 17872.00
451.1150, 18032.00
452.3040, 18071.00
453.4930, 18269.00
454.6810, 18183.00
455.8700, 18035.00
457.0590, 18238.00
458.2470, 18157.00
459.4350, 18220.00
460.6230, 18144.00
461.8110, 18188.00
462.9980, 18217.00
464.1860, 18379.00
465.3730, 18418.00
466.5600, 18323.00
467.7470, 18338.00
468.9340, 18275.00
470.1210, 18299.00
471.3080, 18368.00
472.4940, 18295.00
473.6800, 18479.00
474.8660, 18437.00
476.0520, 18408.00
477.2380, 18442.00
478.4230, 18515.00
479.6090, 18415.00
480.7940, 18438.00
481.9790, 18748.00
483.1640, 18622.00
484.3490, 18723.00
485.5330, 18628.00
486.7180, 18834.00
487.9020, 18919.00
489.0860, 18902.00
490.2700, 18985.00
491.4540, 18837.00
492.6370, 19008.00
493.8210, 19030.00
495.0040, 19032.00
496.1870, 19319.00
497.3700, 19462.00
498.5530, 19689.00
499.7360, 19978.00
500.9180, 20115.62
502.1000, 20341.00
503.2830, 20444.00
504.4650, 20654.00
505.6460, 20765.00
506.8280, 20503.00
508.0100, 20543.00
509.1910, 20342.00
510.3720, 19950.00
511.5530, 19982.00
512.7340, 19928.00
513.9150, 19829.00
515.0950, 19833.00
516.2760, 19866.00
517.4560, 19991.00
518.6360, 19927.00
519.8160, 20064.00
520.9950, 19904.00
522.1750, 19943.00
523.3540, 20039.00
524.5340, 20085.00
525.7130, 20119.00
526.8920, 20398.00
528.0700, 20601.00
529.2490, 20452.00
530.4270, 20388.00
531.6060, 20514.00
532.7840, 20473.00
533.9620, 20287.00
535.1390, 20287.00
536.3170, 20310.00
537.4940, 20323.00
538.6720, 20202.00
539.8490, 20120.00
541.0260, 20212.00
542.2030, 20468.00
543.3790, 20260.00
544.5560, 20412.00
545.7320, 20240.00
546.9080, 20121.00
548.0840, 20025.00
549.2600, 19962.00
550.4360, 19969.46
551.6110, 20027.00
552.7860, 20025.00
553.9620, 20285.00
555.1370, 20277.00
556.3110, 20214.00
557.4860, 20074.00
558.6610, 20367.00
559.8350, 20207.00
561.0090, 20268.00
562.1830, 20210.00
563.3570, 20395.00
564.5310, 20317.00
565.7040, 20275.00
566.8780, 20420.00
568.0510, 20385.00
569.2240, 20268.00
570.3970, 20407.00
571.5700, 20304.00
572.7420, 20160.00
573.9150, 20132.00
575.0870, 20081.00
576.2590, 20052.00
577.4310, 19879.00
578.6030, 19871.00
579.7740, 19851.00
580.9460, 19905.00
582.1170, 19835.00
583.2880, 19634.00
584.4590, 19539.00
585.6300, 19402.00
586.8010, 19529.00
587.9710, 19501.00
589.1410, 19434.00
590.3110, 19445.00
591.4810, 19372.00
592.6510, 19347.00
593.8210, 19395.00
594.9900, 19315.00
596.1600, 19351.00
597.3290, 19281.00
598.4980, 19310.00
599.6670, 19268.00
600.8350, 19486.00
602.0040, 19333.00
603.1720, 19381.00
604.3400, 19239.00
605.5080, 19509.00
606.6760, 19330.00
607.8440, 19522.00
609.0120, 19517.00
610.1790, 19417.00
611.3460, 19606.00
612.5130, 19667.00
613.6800, 19814.00
614.8470, 19746.00
616.0130, 19926.00
617.1800, 19815.00
618.3460, 19854.00
619.5120, 19785.00
620.6780, 20171.00
621.8440, 20010.00
623.0090, 20168.00
624.1750, 19965.00
625.3400, 20113.00
626.5050, 20140.00
627.6700, 20449.00
628.8350, 20352.00
629.9990, 20355.00
631.1640, 20685.00
632.3280, 20690.00
633.4920, 20613.00
634.6560, 20705.00
635.8200, 20839.00
636.9840, 21018.00
638.1470, 21068.00
639.3100, 21353.00
640.4730, 21388.00
641.6360, 21562.00
642.7990, 21829.00
643.9620, 22114.00
645.1240, 22379.00
646.2870, 22590.00
647.4490, 23079.00
648.6110, 23472.00
649.7730, 23921.00
650.9340, 24536.00
652.0960, 24982.00
653.2570, 25895.00
654.4180, 26607.00
655.5790, 27776.00
656.7400, 29471.00
657.9010, 31192.00
659.0620, 33103.00
660.2220, 35650.00
661.3820, 38199.00
662.5420, 40481.00
663.7020, 42615.00
664.8620, 43647.00
666.0210, 43468.00
667.1810, 42410.00
668.3400, 40443.00
669.4990, 38105.00
670.6580, 35905.00
671.8170, 33363.00
672.9750, 31259.00
674.1340, 29553.00
675.2920, 28042.00
676.4500, 26951.00
677.6080, 25721.00
678.7660, 25121.00
679.9230, 24421.00
681.0810, 23881.00
682.2380, 23373.00
683.3950, 22912.00
684.5520, 22757.00
685.7090, 22560.00
686.8660, 22236.00
688.0220, 21870.00
689.1780, 21960.00
690.3340, 21759.00
691.4900, 21839.00
692.6460, 21574.00
693.8020, 21170.00
694.9570, 21390.00
696.1130, 21131.00
697.2680, 21123.00
698.4230, 21140.00
699.5780, 21328.00
700.7320, 21072.00
701.8870, 21004.00
703.0410, 20909.00
704.1950, 21023.00
705.3490, 20890.00
706.5030, 20836.00
707.6570, 21048.00
708.8110, 20963.00
709.9640, 20858.00
711.1170, 20892.00
712.2700, 20806.00
713.4230, 20785.00
714.5760, 20908.00
715.7280, 20991.00
716.8810, 20816.00
718.0330, 20809.00
719.1850, 20598.00
720.3370, 20931.00
721.4890, 20760.00
722.6400, 20852.00
723.7920, 20836.00
724.9430, 20822.00
726.0940, 20867.00
727.2450, 21002.00
728.3960, 20886.00
729.5460, 20726.00
730.6970, 20892.00
731.8470, 20988.00
732.9970, 20910.00
734.1470, 20958.00
735.2970, 20901.00
736.4460, 20779.00
737.5960, 20947.00
738.7450, 20914.00
739.8940, 21116.00
741.0430, 21102.00
742.1920, 21183.00
743.3410, 21043.00
744.4890, 21026.00
745.6370, 21042.00
746.7850, 21135.00
747.9330, 21275.00
749.0810, 21206.00
750.2290, 21122.00
751.3760, 21209.00
752.5240, 21149.00
753.6710, 21371.00
754.8180, 21315.00
755.9650, 21332.00
757.1110, 21508.00
758.2580, 21428.00
759.4040, 21278.00
760.5510, 21380.00
761.6970, 21439.00
762.8420, 21539.00
763.9880, 21577.00
765.1340, 21437.00
766.2790, 21553.00
767.4240, 21622.00
768.5690, 21629.00
769.7140, 21810.00
770.8590, 21602.00
772.0030, 21551.00
773.1480, 21651.00
774.2920, 21912.00
775.4360, 21731.00
776.5800, 21981.00
777.7240, 21843.00
778.8670, 22050.00
780.0110, 21846.00
781.1540, 21946.00
782.2970, 22003.00
783.4400, 21964.00
784.5830, 21931.00
785.7250, 21873.00
786.8680, 21972.00
788.0100, 22128.00
789.1520, 22076.00
790.2940, 22026.00
791.4360, 22206.00
792.5780, 22241.00
793.7190, 22062.00
794.8600, 22229.00
796.0010, 22180.00
797.1420, 22213.00
798.2830, 22322.00
799.4240, 22141.00
800.5640, 22104.00
801.7050, 22106.00
802.8450, 22192.00
803.9850, 22065.00
805.1250, 22148.00
806.2640, 22167.00
807.4040, 22293.00
808.5430, 22167.00
809.6820, 22151.00
810.8210, 22363.00
811.9600, 22448.00
813.0990, 22549.00
814.2370, 22496.00
815.3760, 22669.00
816.5140, 22714.00
817.6520, 22852.00
818.7900, 22900.00
819.9270, 22863.00
821.0650, 22896.00
822.2020, 22940.00
823.3390, 22914.00
824.4760, 22866.00
825.6130, 22971.00
826.7500, 22719.00
827.8870, 22932.00
829.0230, 22819.00
830.1590, 22842.00
831.2950, 22763.00
832.4310, 22761.00
833.5670, 22677.00
834.7030, 22749.00
835.8380, 22572.00
836.9730, 22917.00
838.1080, 22698.00
839.2430, 22820.00
840.3780, 22758.00
841.5130, 22825.62
842.6470, 22965.35
843.7810, 22872.00
844.9150, 23285.00
846.0490, 22978.00
847.1830, 23133.00
848.3170, 23348.00
849.4500, 23696.00
850.5830, 24229.00
851.7160, 24350.00
852.8490, 24879.00
853.9820, 25001.00
855.1150, 25137.00
856.2470, 25110.00
857.3800, 25220.00
858.5120, 24947.00
859.6440, 24697.00
860.7760, 24607.00
861.9070, 24444.00
863.0390, 24227.00
864.1700, 24153.00
865.3010, 24027.00
866.4320, 23921.00
867.5630, 23864.00
868.6940, 23861.00
869.8240, 23628.00
870.9540, 23824.00
872.0850, 23604.00
873.2150, 23621.00
874.3450, 23484.00
875.4740, 23638.00
876.6040, 23627.00
877.7330, 23479.00
878.8620, 23654.00
879.9910, 23555.00
881.1200, 23564.00
882.2490, 23554.00
883.3770, 23439.00
884.5060, 23579.00
885.6340, 23415.00
886.7620, 23565.00
887.8900, 23757.00
889.0180, 23618.00
890.1450, 23608.00
891.2730, 23828.00
892.4000, 23835.00
893.5270, 23750.00
894.6540, 23547.00
895.7810, 23733.00
896.9070, 23714.00
898.0340, 23912.00
899.1600, 23633.00
900.2860, 23973.00
901.4120, 23740.00
902.5380, 23796.00
903.6630, 23856.00
904.7890, 23937.00
905.9140, 23791.00
907.0390, 23764.00
908.1640, 23734.00
909.2890, 23785.00
910.4130, 24052.00
911.5380, 24067.00
912.6620, 24076.00
913.7860, 24202.00
914.9100, 24100.00
916.0340, 24220.47
917.1580, 23982.00
918.2810, 24265.00
919.4040, 24257.00
920.5280, 24049.00
921.6510, 24153.00
922.7730, 24414.00
923.8960, 24350.00
925.0180, 24483.00
926.1410, 24312.00
927.2630, 24539.00
928.3850, 24256.00
929.5070, 24292.00
930.6280, 24349.00
931.7500, 24441.00
932.8710, 24493.00
933.9920, 24601.00
935.1130, 24490.00
936.2340, 24549.00
937.3550, 24467.00
938.4760, 24569.00
939.5960, 24617.00
940.7160, 24538.00
941.8360, 24693.00
942.9560, 24711.00
944.0760, 24541.00
945.1950, 24896.00
946.3150, 24660.00
947.4340, 24669.00
948.5530, 24752.00
949.6720, 24786.00
950.7900, 24971.00
951.9090, 24739.00
953.0270, 24992.00
954.1460, 24817.00
955.2640, 25041.00
956.3820, 25238.00
957.4990, 25107.00
958.6170, 25057.00
959.7340, 25013.00
960.8520, 25160.00
961.9690, 25214.00
963.0860, 25344.00
964.2020, 25411.82
965.3190, 25370.00
966.4350, 25515.00
967.5520, 25524.00
968.6680, 25506.00
969.7840, 25390.00
970.8990, 25402.00
972.0150, 25736.00
973.1310, 25505.00
974.2460, 25730.00
975.3610, 25723.00
976.4760, 25652.00
977.5910, 25562.00
978.7050, 25716.00
979.8200, 25833.00
980.9340, 25962.00
982.0480, 26030.58
983.1620, 26028.00
984.2760, 26197.00
985.3900, 26182.00
986.5030, 26382.00
987.6160, 26490.00
988.7300, 26906.00
989.8430, 26829.00
990.9550, 26892.00
992.0680, 27265.00
993.1810, 27342.00
994.2930, 28031.00
995.4050, 28176.00
996.5170, 28702.00
997.6290, 29218.00
998.7410, 29622.00
999.8520, 31187.00
1000.964, 32670.00
1002.075, 33434.00
1003.186, 34459.00
1004.297, 35133.00
1005.407, 36809.00
1006.518, 38574.00
1007.628, 41075.00
1008.738, 43182.00
1009.848, 45466.00
1010.958, 47839.00
1012.068, 48796.00
1013.178, 49297.00
1014.287, 47497.00
1015.396, 45168.00
1016.505, 42257.00
1017.614, 39053.00
1018.723, 36413.00
1019.831, 34880.00
1020.940, 33080.00
1022.048, 31671.00
1023.156, 31110.00
1024.264, 30293.00
1025.372, 29724.00
1026.479, 29323.49
1027.587, 28749.00
1028.694, 28683.00
1029.801, 28613.00
1030.908, 28406.00
1032.015, 28076.00
1033.121, 28138.00
1034.228, 28101.00
1035.334, 28169.00
1036.440, 28242.00
1037.546, 28261.00
1038.652, 28145.00
1039.758, 28262.00
1040.863, 28302.00
1041.968, 28557.00
1043.074, 28471.00
1044.178, 28556.00
1045.283, 28415.00
1046.388, 28352.00
1047.492, 28164.00
1048.597, 27808.00
1049.701, 27854.00
1050.805, 27494.00
1051.909, 27463.00
1053.012, 27360.00
1054.116, 27183.00
1055.219, 27095.00
1056.322, 27179.00
1057.425, 27102.00
1058.528, 27028.00
1059.631, 26966.00
1060.733, 26925.00
1061.836, 26821.00
1062.938, 26767.00
1064.040, 26579.00
1065.142, 26731.00
1066.243, 26529.00
1067.345, 26652.00
1068.446, 26765.00
1069.547, 26715.00
1070.648, 26718.00
1071.749, 26883.00
1072.850, 26611.00
1073.951, 26578.00
1075.051, 26901.00
1076.151, 26812.00
1077.251, 26585.00
1078.351, 26655.00
1079.451, 26742.00
1080.550, 26767.00
1081.650, 26804.62
1082.749, 26835.00
1083.848, 26799.47
1084.947, 26672.00
1086.046, 26586.00
1087.144, 26796.00
1088.243, 26796.00
1089.341, 27020.00
1090.439, 26691.00
1091.537, 27278.00
1092.635, 26902.00
1093.732, 26712.00
1094.830, 26679.00
1095.927, 26931.00
1097.024, 26835.00
1098.121, 26936.00
1099.218, 26803.00
1100.314, 26890.00
1101.411, 26673.00
1102.507, 26970.00
1103.603, 26924.00
1104.699, 27010.00
1105.795, 26957.00
1106.890, 26871.00
1107.986, 26997.91
1109.081, 27062.77
1110.176, 27162.00
1111.271, 27217.00
1112.366, 27257.00
1113.461, 27005.00
1114.555, 27079.00
1115.649, 27064.00
1116.744, 27130.00
1117.838, 27102.00
1118.931, 27126.00
1120.025, 27114.00
1121.119, 27144.74
1122.212, 27006.00
1123.305, 27216.00
1124.398, 27255.00
1125.491, 27291.00
1126.584, 27183.00
1127.676, 27188.00
1128.768, 27241.00
1129.861, 27412.00
1130.953, 27374.00
1132.044, 27297.00
1133.136, 27408.00
1134.228, 27367.12
1135.319, 27224.00
1136.410, 27393.00
1137.501, 27466.00
1138.592, 27452.00
1139.683, 27404.00
1140.773, 27528.00
1141.864, 27300.00
1142.954, 27254.00
1144.044, 27205.00
1145.134, 27319.00
1146.224, 27342.00
1147.313, 27156.00
1148.402, 27335.00
1149.492, 27387.00
1150.581, 27492.00
1151.670, 27383.00
1152.758, 27279.00
1153.847, 27369.00
1154.935, 27284.00
1156.024, 27395.00
1157.112, 27420.00
1158.200, 27332.00
1159.287, 27457.00
1160.375, 27411.00
1161.462, 27467.00
1162.550, 27508.00
1163.637, 27485.00
1164.724, 27581.00
1165.810, 27515.00
1166.897, 27439.00
1167.983, 27467.00
1169.070, 27570.00
1170.156, 27371.00
1171.242, 27537.00
1172.327, 27531.00
1173.413, 27679.00
1174.499, 27595.00
1175.584, 27666.00
1176.669, 27725.00
1177.754, 27932.00
1178.839, 27773.00
1179.923, 27870.00
1181.008, 27701.00
1182.092, 27901.00
1183.176, 27560.00
1184.260, 27887.00
1185.344, 28000.00
1186.428, 27744.00
1187.511, 27846.00
1188.595, 27983.00
1189.678, 28108.00
1190.761, 27839.00
1191.843, 27980.00
1192.926, 27895.00
1194.009, 27907.00
1195.091, 27991.00
1196.173, 28007.00
1197.255, 28059.00
1198.337, 28080.79
1199.419, 28156.00
1200.500, 28050.00
1201.582, 28049.00
1202.663, 27910.00
1203.744, 28134.00
1204.825, 28335.00
1205.905, 28301.00
1206.986, 28220.00
1208.066, 28100.00
1209.146, 28320.00
1210.226, 28343.00
1211.306, 28230.00
1212.386, 28382.00
1213.466, 28422.00
1214.545, 28542.00
1215.624, 28565.00
1216.703, 28584.02
1217.782, 28593.00
1218.861, 28520.00
1219.939, 28628.00
1221.018, 28481.00
1222.096, 28387.00
1223.174, 28604.00
1224.252, 28632.00
1225.330, 28809.00
1226.407, 28579.00
1227.485, 28516.00
1228.562, 28686.00
1229.639, 28548.00
1230.716, 28536.00
1231.793, 28641.00
1232.869, 28623.00
1233.946, 28590.00
1235.022, 28920.00
1236.098, 28756.00
1237.174, 28682.00
1238.250, 28932.00
1239.325, 28778.00
1240.401, 28690.00
1241.476, 28868.00
1242.551, 28908.00
1243.626, 28799.00
1244.701, 28681.00
1245.776, 29014.00
1246.850, 28844.00
1247.924, 28905.00
1248.999, 28941.00
1250.073, 28707.00
1251.146, 29248.00
1252.220, 29124.00
1253.293, 28918.00
1254.367, 29283.00
1255.440, 29003.00
1256.513, 29121.00
1257.586, 28994.00
1258.658, 29220.00
1259.731, 29181.00
1260.803, 29193.00
1261.875, 29052.00
1262.947, 29117.00
1264.019, 29252.00
1265.091, 29370.00
1266.162, 29061.00
1267.234, 29184.00
1268.305, 29390.00
1269.376, 29024.00
1270.447, 29542.00
1271.517, 29462.00
1272.588, 29171.00
1273.658, 29420.00
1274.729, 29307.00
1275.799, 29366.00
1276.868, 29317.00
1277.938, 29458.00
1279.008, 29274.00
1280.077, 29383.00
1281.146, 29365.00
1282.215, 29423.00
1283.284, 29590.00
1284.353, 29101.00
1285.421, 29509.00
1286.490, 29361.00
1287.558, 29449.00
1288.626, 29577.00
