##NAMES=Diopside
##RRUFFID=R050666
##IDEAL CHEMISTRY=CaMgSi_2_O_6_
##LOCALITY=Franklin, Sussex County, New Jersey, USA
##OWNER=RRUFF
##SOURCE=University of Arizona Mineral Museum
##DESCRIPTION=Brown cleavage fragment with white hardystonite
##STATUS=The identification of this mineral has been confirmed by X-ray diffraction and chemical analysis
##URL=rruff.info/R050666
##MEASURED CHEMISTRY=Ca(Mg_0.66_Mn_0.33_Fe_0.01_)Si_2_O_6_
##PIN_ID=L00985
##ORIENTATION=Laser parallel to (1 0 1). Fiducial mark perpendicular to laser is parallel to -b [0 -1 0]
129.2090, 29363.00
130.4390, 29403.00
131.6680, 29581.00
132.8980, 29650.00
134.1270, 29613.00
135.3560, 29907.00
136.5850, 29986.00
137.8140, 30134.00
139.0430, 30015.00
140.2710, 30042.00
141.5000, 30365.00
142.7280, 30007.00
143.9560, 30446.00
145.1840, 30427.00
146.4120, 30695.00
147.6390, 30786.00
148.8670, 30845.00
150.0940, 30957.00
151.3210, 31009.00
152.5490, 31105.75
153.7750, 31176.72
155.0020, 31265.00
156.2290, 31321.00
157.4550, 31352.00
158.6810, 31430.26
159.9080, 31456.20
161.1340, 31538.00
162.3590, 31517.00
163.5850, 31636.00
164.8110, 31656.16
166.0360, 31720.00
167.2610, 31833.00
168.4860, 31869.00
169.7110, 31938.00
170.9360, 32096.00
172.1610, 32115.85
173.3850, 32298.00
174.6100, 32268.00
175.8340, 32239.00
177.0580, 32387.00
178.2820, 32458.00
179.5050, 32459.00
180.7290, 32712.00
181.9520, 32429.00
183.1760, 32571.00
184.3990, 32609.00
185.6220, 32713.00
186.8450, 32639.00
188.0670, 32757.61
189.2900, 32851.00
190.5120, 32866.00
191.7340, 32987.00
192.9560, 32949.00
194.1780, 33048.00
195.4000, 33114.00
196.6220, 33174.00
197.8430, 33229.00
199.0640, 33395.00
200.2860, 33538.00
201.5070, 33627.00
202.7270, 33697.85
203.9480, 33650.00
205.1690, 33690.00
206.3890, 33661.00
207.6090, 33489.00
208.8290, 33778.00
210.0490, 33793.00
211.2690, 33982.00
212.4890, 33868.00
213.7080, 33894.00
214.9280, 34079.00
216.1470, 34009.00
217.3660, 34046.00
218.5850, 34046.00
219.8030, 34220.00
221.0220, 34284.00
222.2400, 34398.00
223.4590, 34377.00
224.6770, 34541.00
225.8950, 34564.00
227.1120, 34625.00
228.3300, 34676.00
229.5480, 34684.00
230.7650, 34818.00
231.9820, 34899.00
233.1990, 34562.00
234.4160, 34780.00
235.6330, 34685.00
236.8490, 34822.00
238.0660, 35099.00
239.2820, 34952.00
240.4980, 35150.00
241.7140, 34977.00
242.9300, 35368.00
244.1460, 35197.00
245.3610, 35165.00
246.5770, 35168.00
247.7920, 35271.00
249.0070, 35260.00
250.2220, 35366.00
251.4370, 35237.00
252.6510, 35387.00
253.8660, 35469.00
255.0800, 35658.00
256.2940, 35553.00
257.5080, 35769.00
258.7220, 35771.88
259.9360, 36017.00
261.1490, 35809.00
262.3630, 35809.00
263.5760, 35744.00
264.7890, 35655.00
266.0020, 35955.00
267.2150, 36222.00
268.4270, 35815.00
269.6400, 36090.00
270.8520, 36107.00
272.0640, 35897.00
273.2760, 36115.00
274.4880, 36502.00
275.7000, 36299.00
276.9120, 36405.00
278.1230, 36366.00
279.3340, 36407.00
280.5450, 36419.00
281.7560, 36489.00
282.9670, 36836.00
284.1780, 36746.00
285.3880, 36760.00
286.5980, 36948.00
287.8090, 36885.00
289.0190, 36672.00
290.2290, 36967.00
291.4380, 36920.00
292.6480, 37127.00
293.8570, 37196.00
295.0670, 37474.00
296.2760, 37634.00
297.4850, 37723.00
298.6930, 37987.00
299.9020, 38112.00
301.1110, 38228.00
302.3190, 38433.00
303.5270, 38724.00
304.7350, 38851.00
305.9430, 39132.00
307.1510, 39446.00
308.3580, 39569.00
309.5660, 39728.00
310.7730, 40177.00
311.9800, 40192.00
313.1870, 40017.00
314.3940, 39710.00
315.6010, 39937.00
316.8070, 39928.00
318.0130, 39669.00
319.2200, 39752.00
320.4260, 39715.00
321.6310, 39593.00
322.8370, 39567.21
324.0430, 39457.46
325.2480, 39356.00
326.4540, 39279.00
327.6590, 39133.00
328.8640, 39090.00
330.0680, 39061.00
331.2730, 39142.00
332.4780, 39167.00
333.6820, 39449.00
334.8860, 39647.00
336.0900, 39747.00
337.2940, 40055.00
338.4980, 39917.00
339.7010, 40276.00
340.9050, 40565.00
342.1080, 40580.00
343.3110, 40860.00
344.5140, 40932.00
345.7170, 41185.00
346.9200, 41373.00
348.1220, 41381.00
349.3240, 41090.00
350.5270, 40685.00
351.7290, 40817.00
352.9310, 40657.00
354.1320, 40500.00
355.3340, 40236.00
356.5350, 40288.00
357.7370, 39930.00
358.9380, 40186.00
360.1390, 39988.00
361.3400, 39892.00
362.5400, 39983.00
363.7410, 39864.00
364.9410, 39872.00
366.1410, 40216.00
367.3410, 40257.00
368.5410, 40568.00
369.7410, 40733.00
370.9400, 41048.00
372.1400, 41608.00
373.3390, 42376.00
374.5380, 42652.00
375.7370, 43037.00
376.9360, 43252.00
378.1350, 43551.00
379.3330, 43637.00
380.5310, 43420.00
381.7300, 43438.00
382.9280, 43445.00
384.1260, 42878.00
385.3230, 42367.00
386.5210, 42254.00
387.7180, 41860.00
388.9160, 41565.12
390.1130, 41342.60
391.3100, 40959.00
392.5060, 40817.00
393.7030, 40467.00
394.9000, 40175.00
396.0960, 40215.00
397.2920, 40174.00
398.4880, 40180.00
399.6840, 40161.00
400.8800, 40017.00
402.0750, 39982.00
403.2710, 39980.04
404.4660, 40035.00
405.6610, 39977.00
406.8560, 40087.00
408.0510, 40024.00
409.2450, 39979.00
410.4400, 40344.00
411.6340, 39907.00
412.8280, 40022.00
414.0220, 40290.00
415.2160, 40186.00
416.4100, 40308.00
417.6030, 40110.00
418.7970, 40101.00
419.9900, 40215.00
421.1830, 40318.00
422.3760, 40283.00
423.5690, 40379.16
424.7610, 40272.00
425.9540, 40488.00
427.1460, 40354.00
428.3380, 40453.00
429.5300, 40446.00
430.7220, 40446.63
431.9140, 40520.00
433.1050, 40522.00
434.2970, 40549.00
435.4880, 40634.00
436.6790, 40682.98
437.8700, 40712.71
439.0610, 40816.00
440.2510, 40827.00
441.4420, 40823.00
442.6320, 40999.00
443.8220, 40897.00
445.0120, 40868.00
446.2020, 41132.00
447.3910, 41041.00
448.5810, 41031.00
449.7700, 40991.00
450.9600, 40755.00
452.1490, 41060.00
453.3370, 41158.00
454.5260, 41140.00
455.7150, 40985.00
456.9030, 40866.00
458.0910, 40897.00
459.2800, 41087.00
460.4670, 40921.00
461.6550, 41363.00
462.8430, 41027.00
464.0300, 40948.00
465.2180, 40828.00
466.4050, 41115.00
467.5920, 41346.00
468.7790, 41385.00
469.9650, 41351.00
471.1520, 41409.75
472.3380, 41295.00
473.5250, 41390.00
474.7110, 41168.00
475.8970, 41227.00
477.0820, 41296.00
478.2680, 41468.00
479.4540, 41639.00
480.6390, 41332.00
481.8240, 41241.00
483.0090, 41547.00
484.1940, 41656.00
485.3780, 41622.00
486.5630, 41823.00
487.7470, 41727.30
488.9320, 41756.18
490.1160, 41607.00
491.3000, 41707.00
492.4830, 41678.00
493.6670, 41652.00
494.8500, 41695.96
496.0340, 41688.11
497.2170, 41708.00
498.4000, 41787.00
499.5820, 41776.00
500.7650, 41785.85
501.9480, 41973.00
503.1300, 41786.00
504.3120, 41798.00
505.4940, 41854.00
506.6760, 42092.00
507.8580, 41836.00
509.0390, 42057.00
510.2210, 41921.00
511.4020, 41924.00
512.5830, 42158.00
513.7640, 41970.00
514.9450, 41916.00
516.1250, 42108.00
517.3060, 42203.00
518.4860, 42321.00
519.6660, 42080.00
520.8460, 42341.00
522.0260, 42195.00
523.2060, 42174.00
524.3850, 42470.00
525.5650, 42180.00
526.7440, 42450.00
527.9230, 42525.00
529.1020, 42464.00
530.2810, 42239.00
531.4590, 42577.00
532.6380, 42099.00
533.8160, 42208.00
534.9940, 42447.00
536.1720, 42398.00
537.3500, 42130.00
538.5270, 42410.00
539.7050, 42438.00
540.8820, 42409.00
542.0590, 42629.00
543.2360, 42739.00
544.4130, 43052.00
545.5900, 42970.00
546.7660, 43000.00
547.9430, 43559.00
549.1190, 43609.00
550.2950, 43883.00
551.4710, 43569.00
552.6470, 43357.00
553.8220, 43791.00
554.9980, 43406.00
556.1730, 43327.00
557.3480, 43300.00
558.5230, 43149.00
559.6980, 43141.00
560.8730, 42989.00
562.0470, 42594.00
563.2220, 42807.00
564.3960, 42691.00
565.5700, 42606.00
566.7440, 42728.00
567.9170, 42647.00
569.0910, 42635.00
570.2640, 42810.00
571.4380, 42588.00
572.6110, 42740.00
573.7840, 42738.00
574.9570, 42628.00
576.1290, 42621.00
577.3020, 42814.00
578.4740, 42611.00
579.6460, 42641.00
580.8180, 42897.00
581.9900, 42843.00
583.1620, 42863.00
584.3330, 42709.00
585.5040, 42542.00
586.6760, 42664.00
587.8470, 42938.00
589.0180, 42588.00
590.1880, 42475.00
591.3590, 42842.00
592.5290, 42885.00
593.7000, 42757.00
594.8700, 42755.00
596.0400, 42759.50
597.2090, 42769.00
598.3790, 42802.00
599.5490, 42866.00
600.7180, 42936.00
601.8870, 42648.00
603.0560, 42910.00
604.2250, 42686.00
605.3940, 42842.00
606.5620, 42846.00
607.7300, 42744.00
608.8990, 42716.00
610.0670, 42815.00
611.2350, 42803.00
612.4020, 42832.00
613.5700, 42890.00
614.7370, 42808.00
615.9050, 42949.00
617.0720, 43090.00
618.2390, 43055.00
619.4060, 43062.00
620.5720, 42929.00
621.7390, 43167.00
622.9050, 43236.00
624.0710, 43139.00
625.2370, 43142.00
626.4030, 43178.68
627.5690, 43368.00
628.7340, 43224.00
629.9000, 43087.00
631.0650, 43041.00
632.2300, 43277.00
633.3950, 43438.00
634.5600, 43213.00
635.7240, 43556.00
636.8890, 43545.00
638.0530, 43734.00
639.2170, 43777.00
640.3810, 43731.00
641.5450, 43979.00
642.7080, 43864.00
643.8720, 44321.00
645.0350, 44633.00
646.1980, 44728.00
647.3610, 45164.00
648.5240, 45313.00
649.6870, 45878.00
650.8490, 46606.00
652.0120, 47216.00
653.1740, 48021.00
654.3360, 48917.00
655.4980, 49265.00
656.6600, 49363.00
657.8210, 49609.00
658.9830, 49410.00
660.1440, 48971.00
661.3050, 48668.00
662.4660, 48226.00
663.6270, 47808.00
664.7870, 47155.00
665.9480, 46388.00
667.1080, 45899.00
668.2680, 45426.00
669.4280, 45069.00
670.5880, 44690.00
671.7480, 44371.00
672.9070, 44311.00
674.0670, 44158.00
675.2260, 43890.00
676.3850, 43729.00
677.5440, 43862.00
678.7030, 43675.00
679.8610, 43691.00
681.0200, 43599.00
682.1780, 43370.00
683.3360, 43724.00
684.4940, 43566.00
685.6520, 43145.00
686.8090, 43466.00
687.9670, 43693.00
689.1240, 43410.00
690.2810, 43455.00
691.4380, 43265.00
692.5950, 43358.00
693.7520, 43386.00
694.9080, 43262.00
696.0650, 43374.00
697.2210, 43111.00
698.3770, 43218.00
699.5330, 42975.00
700.6880, 43154.00
701.8440, 43350.00
702.9990, 43186.00
704.1550, 43003.00
705.3100, 43193.00
706.4650, 43248.00
707.6190, 42971.00
708.7740, 43024.00
709.9290, 43154.00
711.0830, 43321.00
712.2370, 43304.00
713.3910, 43061.00
714.5450, 42844.00
715.6980, 43022.00
716.8520, 43229.00
718.0050, 43028.00
719.1580, 43036.00
720.3110, 43171.00
721.4640, 42886.00
722.6170, 43138.00
723.7700, 43106.00
724.9220, 43065.00
726.0740, 42954.00
727.2260, 42988.00
728.3780, 42872.00
729.5300, 43150.00
730.6810, 42957.00
731.8330, 43008.00
732.9840, 43148.00
734.1350, 43135.00
735.2860, 43035.00
736.4370, 42927.00
737.5880, 42966.00
738.7380, 43013.00
739.8880, 42942.00
741.0390, 42670.00
742.1890, 42764.68
743.3380, 43129.00
744.4880, 42803.00
745.6380, 42937.00
746.7870, 43041.00
747.9360, 42842.00
749.0850, 43076.00
750.2340, 43151.00
751.3830, 42809.00
752.5310, 42966.00
753.6800, 42919.00
754.8280, 42894.00
755.9760, 43048.00
757.1240, 42888.00
758.2720, 42999.00
759.4190, 42756.00
760.5670, 42821.00
761.7140, 43190.00
762.8610, 42768.00
764.0080, 42878.00
765.1550, 42805.00
766.3020, 42688.00
767.4480, 43026.00
768.5950, 42760.00
769.7410, 42742.00
770.8870, 42857.00
772.0330, 42684.00
773.1780, 42939.00
774.3240, 42652.00
775.4690, 42965.00
776.6140, 42853.00
777.7590, 42659.00
778.9040, 42819.00
780.0490, 42523.00
781.1940, 42775.00
782.3380, 42852.00
783.4820, 42749.00
784.6260, 42656.00
785.7700, 42669.00
786.9140, 42839.00
788.0580, 42940.00
789.2010, 42806.00
790.3450, 42666.00
791.4880, 42729.00
792.6310, 42695.00
793.7730, 42594.00
794.9160, 42755.00
796.0590, 42646.00
797.2010, 42644.00
798.3430, 42729.00
799.4850, 42644.00
800.6270, 42350.00
801.7690, 42483.00
802.9100, 42645.00
804.0520, 42298.00
805.1930, 42854.00
806.3340, 42626.00
807.4750, 42837.00
808.6160, 42451.00
809.7560, 42575.00
810.8970, 42394.00
812.0370, 42353.00
813.1770, 42722.00
814.3170, 42629.00
815.4570, 42456.00
816.5960, 42338.00
817.7360, 42433.00
818.8750, 42506.00
820.0140, 42720.00
821.1530, 42660.00
822.2920, 42496.00
823.4310, 42333.00
824.5690, 42729.00
825.7070, 42493.00
826.8460, 42611.00
827.9840, 42755.00
829.1220, 42545.00
830.2590, 42463.00
831.3970, 42524.00
832.5340, 42255.00
833.6710, 42555.00
834.8080, 42377.00
835.9450, 42400.00
837.0820, 42747.00
838.2190, 42519.00
839.3550, 42838.00
840.4910, 42885.00
841.6270, 42909.00
842.7630, 43394.00
843.8990, 42861.00
845.0350, 43236.00
846.1700, 43174.00
847.3060, 43109.00
848.4410, 43216.00
849.5760, 43026.00
850.7100, 42779.00
851.8450, 42784.00
852.9800, 42578.00
854.1140, 42401.00
855.2480, 42574.00
856.3820, 42529.00
857.5160, 42466.00
858.6500, 42361.00
859.7830, 42221.00
860.9170, 42240.85
862.0500, 42064.00
863.1830, 42184.00
864.3160, 42199.00
865.4480, 42012.00
866.5810, 41987.00
867.7130, 41998.73
868.8460, 42214.00
869.9780, 42097.00
871.1100, 42291.00
872.2410, 42438.00
873.3730, 42027.00
874.5050, 42407.00
875.6360, 42122.00
876.7670, 42078.00
877.8980, 41939.00
879.0290, 42125.00
880.1590, 42166.00
881.2900, 42077.00
882.4200, 41999.00
883.5500, 42130.00
884.6800, 42015.00
885.8100, 42022.15
886.9400, 42054.00
888.0690, 42004.00
889.1990, 41927.00
890.3280, 42003.00
891.4570, 41937.00
892.5860, 41892.19
893.7140, 42008.00
894.8430, 41824.00
895.9710, 41871.00
897.1000, 41964.00
898.2280, 41705.00
899.3560, 42035.00
900.4830, 41985.00
901.6110, 41807.00
902.7380, 41976.00
903.8660, 41928.00
904.9930, 41663.00
906.1200, 41684.00
907.2460, 41752.00
908.3730, 41950.00
909.5000, 41882.00
910.6260, 41733.00
911.7520, 41628.00
912.8780, 41799.00
914.0040, 41767.00
915.1290, 41584.00
916.2550, 41641.00
917.3800, 41542.00
918.5050, 41303.00
919.6300, 41717.00
920.7550, 41551.00
921.8800, 41757.00
923.0040, 41633.00
924.1290, 41288.00
925.2530, 41344.00
926.3770, 41610.00
927.5010, 41474.00
928.6250, 41154.00
929.7480, 41456.00
930.8720, 41396.00
931.9950, 41268.00
933.1180, 41288.00
934.2410, 41226.88
935.3640, 41394.00
936.4860, 41181.00
937.6090, 41294.00
938.7310, 41272.00
939.8530, 41106.00
940.9750, 41067.00
942.0970, 41027.03
943.2180, 41183.00
944.3400, 41057.00
945.4610, 41053.00
946.5820, 41241.00
947.7030, 41184.00
948.8240, 41099.00
949.9450, 40972.00
951.0650, 41099.00
952.1860, 41179.00
953.3060, 41334.00
954.4260, 41285.00
955.5460, 41293.53
956.6650, 41184.00
957.7850, 41134.00
958.9040, 41030.00
960.0230, 40864.00
961.1420, 41085.00
962.2610, 41127.00
963.3800, 41104.00
964.4990, 40988.00
965.6170, 40785.00
966.7350, 40899.00
967.8530, 40690.00
968.9710, 40599.00
970.0890, 40841.00
971.2070, 41007.00
972.3240, 40955.00
973.4410, 40875.00
974.5580, 40879.00
975.6750, 40897.00
976.7920, 41063.00
977.9090, 40843.00
979.0250, 40989.00
980.1410, 40712.00
981.2580, 41174.00
982.3740, 41029.00
983.4890, 40701.00
984.6050, 41225.00
985.7200, 41132.00
986.8360, 40808.00
987.9510, 41111.00
989.0660, 40880.00
990.1810, 41145.00
991.2950, 40931.00
992.4100, 41384.00
993.5240, 41379.00
994.6390, 41204.00
995.7530, 41471.00
996.8660, 41442.00
997.9800, 41805.00
999.0940, 42144.00
1000.207, 42609.00
1001.320, 43422.00
1002.433, 44209.00
1003.546, 45105.00
1004.659, 46712.00
1005.772, 48392.00
1006.884, 50171.00
1007.996, 52499.00
1009.108, 53988.00
1010.220, 54924.00
1011.332, 55157.00
1012.444, 54223.00
1013.555, 53295.00
1014.666, 51434.00
1015.777, 49959.00
1016.888, 48047.00
1017.999, 46516.00
1019.110, 44764.00
1020.220, 43981.00
1021.331, 42910.00
1022.441, 42465.00
1023.551, 41991.00
1024.661, 41634.00
1025.770, 41426.36
1026.880, 41449.00
1027.989, 41227.00
1029.098, 41191.00
1030.207, 41274.00
1031.316, 41212.00
1032.425, 41262.00
1033.533, 41387.00
1034.642, 41595.00
1035.750, 41603.00
1036.858, 41724.00
1037.966, 41628.00
1039.073, 41809.00
1040.181, 41471.00
1041.288, 41522.00
1042.396, 41337.00
1043.503, 41030.00
1044.610, 40805.00
1045.716, 40353.00
1046.823, 40378.00
1047.929, 40104.00
1049.036, 40003.00
1050.142, 40103.00
1051.248, 39827.00
1052.353, 39536.00
1053.459, 39891.00
1054.564, 39523.00
1055.670, 39502.00
1056.775, 39686.00
1057.880, 39458.00
1058.985, 39335.00
1060.089, 39384.00
1061.194, 39211.00
1062.298, 39230.11
1063.402, 39335.00
1064.506, 39213.00
1065.610, 39175.00
1066.713, 39168.00
1067.817, 39085.00
1068.920, 39147.00
1070.023, 39280.00
1071.126, 39287.00
1072.229, 39244.47
1073.332, 39203.94
1074.435, 38989.00
1075.537, 39058.00
1076.639, 38772.00
1077.741, 38829.00
1078.843, 38893.00
1079.945, 38906.00
1081.046, 38925.00
1082.148, 38802.00
1083.249, 38854.00
1084.350, 38707.00
1085.451, 38851.00
1086.551, 38415.00
1087.652, 38845.00
1088.752, 38591.00
1089.853, 38684.00
1090.953, 38630.00
1092.053, 38569.00
1093.152, 38553.00
1094.252, 38598.00
1095.351, 38560.00
1096.451, 38589.00
1097.550, 38472.00
1098.649, 38437.16
1099.748, 38214.00
1100.846, 38322.00
1101.945, 38327.00
1103.043, 38349.00
1104.141, 38483.00
1105.239, 38124.00
1106.337, 38259.00
1107.434, 38519.00
1108.532, 37950.00
1109.629, 38322.00
1110.726, 38033.00
1111.823, 38116.00
1112.920, 38109.00
1114.017, 38079.00
1115.113, 38158.00
1116.210, 38126.00
1117.306, 38065.00
1118.402, 38070.00
1119.498, 37717.00
1120.593, 38372.00
1121.689, 38191.00
1122.784, 37822.00
1123.879, 38260.00
1124.974, 38241.00
1126.069, 37968.00
1127.164, 37761.00
1128.259, 37737.00
1129.353, 37624.00
1130.447, 37619.00
1131.541, 37707.00
1132.635, 37431.00
1133.729, 37697.00
1134.822, 37660.00
1135.916, 37584.00
1137.009, 37530.00
1138.102, 37415.00
1139.195, 37396.00
1140.288, 37437.00
1141.380, 37471.00
1142.473, 37395.00
1143.565, 37321.00
1144.657, 37196.00
1145.749, 37172.35
1146.841, 37206.00
1147.932, 37131.00
1149.024, 37123.00
1150.115, 37168.00
1151.206, 37071.38
1152.297, 37151.00
1153.388, 36947.00
1154.479, 36933.00
1155.569, 36891.00
1156.659, 37027.00
1157.750, 37071.00
1158.839, 37181.00
1159.929, 36825.00
1161.019, 36856.00
1162.108, 36891.00
1163.198, 36676.00
1164.287, 36892.00
1165.376, 36949.00
1166.465, 36724.00
1167.553, 36697.00
1168.642, 36676.00
1169.730, 36891.00
1170.818, 36858.00
1171.906, 36298.00
1172.994, 36848.00
1174.082, 36498.00
1175.170, 36497.00
1176.257, 36826.00
1177.344, 36730.00
1178.431, 36401.00
1179.518, 36360.00
1180.605, 36299.00
1181.691, 36391.00
1182.778, 36425.00
1183.864, 36418.00
1184.950, 36444.00
1186.036, 36173.00
1187.122, 36441.00
1188.207, 36225.00
1189.292, 36290.00
1190.378, 36286.00
1191.463, 36251.00
1192.548, 36311.00
1193.632, 36230.00
1194.717, 35985.00
1195.801, 36133.00
1196.886, 35994.00
1197.970, 36158.00
1199.054, 36127.00
1200.137, 36165.00
1201.221, 35921.00
1202.305, 36248.00
1203.388, 35795.00
1204.471, 36019.00
1205.554, 35859.00
1206.637, 35855.00
1207.719, 35927.00
1208.802, 35948.00
1209.884, 35715.00
1210.966, 35519.00
1212.048, 35663.00
1213.130, 35541.00
1214.212, 35642.00
1215.293, 35646.00
1216.374, 35621.00
1217.456, 35531.00
1218.536, 35694.00
1219.617, 35394.00
1220.698, 35468.00
1221.778, 35578.00
1222.859, 35557.00
1223.939, 35447.00
1225.019, 35235.00
1226.099, 35396.00
1227.178, 35608.00
1228.258, 35515.00
1229.337, 35304.00
1230.417, 35214.00
1231.496, 35308.00
1232.574, 35123.00
1233.653, 35036.00
1234.732, 35258.00
1235.810, 35281.00
1236.888, 35124.00
1237.966, 34912.00
1239.044, 35017.00
1240.122, 35062.00
1241.199, 34951.00
1242.277, 34903.00
1243.354, 34896.00
1244.431, 34864.00
1245.508, 34820.82
1246.585, 34838.00
1247.661, 34755.00
1248.738, 34766.00
1249.814, 34782.29
1250.890, 34750.00
1251.966, 34747.00
1253.042, 34695.00
1254.117, 34612.00
1255.193, 34699.00
1256.268, 34579.00
1257.343, 34421.00
1258.418, 34378.00
1259.493, 34422.00
1260.567, 34487.00
1261.642, 34386.00
1262.716, 34451.89
1263.790, 34453.00
1264.864, 34423.00
1265.938, 34517.00
1267.011, 34398.00
1268.085, 34533.00
1269.158, 34382.00
1270.231, 34419.00
1271.304, 34092.00
1272.377, 34237.00
1273.450, 33804.00
1274.522, 34076.00
1275.594, 34003.00
1276.666, 33971.00
1277.738, 33949.00
1278.810, 34035.00
1279.882, 34138.00
1280.953, 34048.00
1282.025, 34038.65
1283.096, 33802.00
1284.167, 33841.00
1285.238, 33830.00
1286.308, 33697.00
1287.379, 33803.00
1288.449, 33531.00
1289.519, 33588.00
1290.589, 33856.00
1291.659, 33682.00
1292.729, 33480.00
1293.798, 33605.00
1294.868, 33751.00
1295.937, 33610.00
1297.006, 33441.00
1298.075, 33688.00
1299.143, 33551.00
1300.212, 33367.00
1301.280, 33425.00
1302.348, 33322.36
1303.416, 33353.00
1304.484, 33281.00
