##NAMES=Diopside
##RRUFFID=R050406
##IDEAL CHEMISTRY=CaMgSi_2_O_6_
##LOCALITY=unknown
##OWNER=RRUFF
##SOURCE=University of Arizona Mineral Museum
##DESCRIPTION=Brownish gray massive
##STATUS=The identification of this mineral has been confirmed by X-ray diffraction and chemical analysis
##URL=rruff.info/R050406
##MEASURED CHEMISTRY=(Ca_0.95_Na_0.05_)(Mg_0.75_Fe^2+^_0.18_Fe^3+^_0.05_Al_0.01_Ti_0.01_Mn^2+^_0.01_)(Si_0.98_Al_0.02_)_2_O_6_
##PIN_ID=M00407
##ORIENTATION=Laser parallel to a* (1 0 0). Fiducial mark perpendicular to laser is parallel to b [0 1 0]
116.9030, 9493.000
118.1340, 9678.000
119.3650, 9715.000
120.5960, 10011.00
121.8270, 10507.00
123.0580, 11232.00
124.2880, 11674.00
125.5190, 12453.00
126.7490, 13604.00
127.9790, 15351.00
129.2090, 17223.00
130.4390, 19686.00
131.6680, 22903.00
132.8980, 27042.00
134.1270, 31767.00
135.3560, 35595.00
136.5850, 36627.00
137.8140, 34259.00
139.0430, 30391.00
140.2710, 25559.00
141.5000, 21855.00
142.7280, 18573.00
143.9560, 16298.00
145.1840, 14595.00
146.4120, 13268.00
147.6390, 12357.00
148.8670, 11578.00
150.0940, 11158.00
151.3210, 10896.00
152.5490, 10609.00
153.7750, 10345.00
155.0020, 10205.28
156.2290, 10085.61
157.4550, 10026.00
158.6810, 10045.00
159.9080, 10101.00
161.1340, 10207.00
162.3590, 10244.00
163.5850, 10349.00
164.8110, 10355.00
166.0360, 10197.00
167.2610, 10089.00
168.4860, 10137.00
169.7110, 10173.00
170.9360, 10246.00
172.1610, 10134.00
173.3850, 10346.00
174.6100, 10317.00
175.8340, 10550.00
177.0580, 10643.00
178.2820, 10583.00
179.5050, 10558.00
180.7290, 10571.00
181.9520, 10259.00
183.1760, 10258.00
184.3990, 10155.00
185.6220, 10352.00
186.8450, 10318.00
188.0670, 10306.00
189.2900, 10294.00
190.5120, 10420.00
191.7340, 10300.00
192.9560, 10500.00
194.1780, 10463.00
195.4000, 10363.00
196.6220, 10363.00
197.8430, 10377.00
199.0640, 10492.00
200.2860, 10437.00
201.5070, 10349.00
202.7270, 10398.00
203.9480, 10092.00
205.1690, 10010.00
206.3890, 9952.000
207.6090, 9874.000
208.8290, 9921.000
210.0490, 9956.000
211.2690, 9838.000
212.4890, 10111.00
213.7080, 10086.00
214.9280, 10250.00
216.1470, 10275.00
217.3660, 10366.00
218.5850, 10469.00
219.8030, 10481.00
221.0220, 10549.00
222.2400, 10579.00
223.4590, 10592.00
224.6770, 10753.00
225.8950, 10721.00
227.1120, 10665.00
228.3300, 10794.00
229.5480, 10674.00
230.7650, 10689.00
231.9820, 10562.00
233.1990, 10594.00
234.4160, 10328.00
235.6330, 10415.00
236.8490, 10202.00
238.0660, 10109.00
239.2820, 10252.00
240.4980, 10206.00
241.7140, 10081.00
242.9300, 10141.00
244.1460, 10172.00
245.3610, 10257.00
246.5770, 10231.00
247.7920, 10194.00
249.0070, 10282.00
250.2220, 10315.00
251.4370, 10194.00
252.6510, 10154.00
253.8660, 9920.000
255.0800, 10005.00
256.2940, 9986.000
257.5080, 10377.00
258.7220, 10089.18
259.9360, 10169.00
261.1490, 9715.000
262.3630, 9597.000
263.5760, 9493.000
264.7890, 9398.000
266.0020, 9385.786
267.2150, 9435.000
268.4270, 9404.000
269.6400, 9383.000
270.8520, 9397.000
272.0640, 9422.000
273.2760, 9429.000
274.4880, 9419.000
275.7000, 9524.000
276.9120, 9596.000
278.1230, 9554.000
279.3340, 9674.000
280.5450, 9622.000
281.7560, 9680.000
282.9670, 9691.000
284.1780, 9911.000
285.3880, 9817.000
286.5980, 10105.00
287.8090, 10177.00
289.0190, 10270.00
290.2290, 10492.00
291.4380, 10712.00
292.6480, 10709.00
293.8570, 10856.00
295.0670, 11286.00
296.2760, 11385.34
297.4850, 11598.72
298.6930, 11860.00
299.9020, 11996.00
301.1110, 12178.00
302.3190, 12553.00
303.5270, 12908.00
304.7350, 13428.00
305.9430, 13784.00
307.1510, 14475.00
308.3580, 15240.00
309.5660, 16350.00
310.7730, 17128.00
311.9800, 18470.00
313.1870, 19933.00
314.3940, 21298.00
315.6010, 23082.00
316.8070, 24705.00
318.0130, 25860.00
319.2200, 26641.00
320.4260, 26989.00
321.6310, 26704.00
322.8370, 26086.00
324.0430, 25067.00
325.2480, 23901.00
326.4540, 22833.00
327.6590, 21299.00
328.8640, 20307.00
330.0680, 19248.00
331.2730, 18481.00
332.4780, 17716.00
333.6820, 16963.00
334.8860, 16402.00
336.0900, 16037.00
337.2940, 15691.00
338.4980, 15437.00
339.7010, 15289.00
340.9050, 15198.42
342.1080, 15225.00
343.3110, 15310.00
344.5140, 15539.00
345.7170, 15853.00
346.9200, 16201.00
348.1220, 16556.00
349.3240, 16828.00
350.5270, 17350.00
351.7290, 17630.00
352.9310, 17914.00
354.1320, 17955.00
355.3340, 18041.00
356.5350, 17853.00
357.7370, 17666.00
358.9380, 17512.00
360.1390, 17216.00
361.3400, 17123.00
362.5400, 16813.00
363.7410, 16512.00
364.9410, 16503.00
366.1410, 16391.00
367.3410, 16430.00
368.5410, 16235.00
369.7410, 16260.00
370.9400, 16555.00
372.1400, 16682.00
373.3390, 17183.00
374.5380, 17646.00
375.7370, 18401.00
376.9360, 19563.00
378.1350, 21048.00
379.3330, 22090.00
380.5310, 23936.00
381.7300, 25586.00
382.9280, 27447.00
384.1260, 28935.00
385.3230, 30024.00
386.5210, 29910.00
387.7180, 29277.00
388.9160, 27843.00
390.1130, 26034.00
391.3100, 23882.00
392.5060, 21841.00
393.7030, 19778.00
394.9000, 18316.00
396.0960, 16794.00
397.2920, 15652.00
398.4880, 14580.00
399.6840, 13675.00
400.8800, 13131.00
402.0750, 12646.00
403.2710, 12258.00
404.4660, 11937.08
405.6610, 11593.00
406.8560, 11520.00
408.0510, 11242.00
409.2450, 11185.00
410.4400, 10998.00
411.6340, 11023.00
412.8280, 10824.00
414.0220, 10642.00
415.2160, 10780.00
416.4100, 10664.00
417.6030, 10670.00
418.7970, 10640.00
419.9900, 10575.38
421.1830, 10448.00
422.3760, 10463.00
423.5690, 10428.00
424.7610, 10330.00
425.9540, 10342.00
427.1460, 10271.44
428.3380, 10304.00
429.5300, 10178.00
430.7220, 10201.00
431.9140, 10163.00
433.1050, 10175.00
434.2970, 10139.00
435.4880, 10175.00
436.6790, 10131.00
437.8700, 10158.00
439.0610, 10163.00
440.2510, 10156.00
441.4420, 10122.00
442.6320, 10183.00
443.8220, 10181.21
445.0120, 10019.00
446.2020, 10244.00
447.3910, 10213.00
448.5810, 10252.00
449.7700, 10430.00
450.9600, 10383.00
452.1490, 10326.00
453.3370, 10332.00
454.5260, 10249.00
455.7150, 10447.00
456.9030, 10592.00
458.0910, 10449.00
459.2800, 10409.00
460.4670, 10483.00
461.6550, 10427.00
462.8430, 10518.00
464.0300, 10566.00
465.2180, 10432.00
466.4050, 10431.00
467.5920, 10443.80
468.7790, 10432.60
469.9650, 10463.00
471.1520, 10420.00
472.3380, 10380.00
473.5250, 10404.92
474.7110, 10411.00
475.8970, 10415.00
477.0820, 10424.00
478.2680, 10407.00
479.4540, 10558.00
480.6390, 10382.00
481.8240, 10575.00
483.0090, 10658.00
484.1940, 10416.00
485.3780, 10495.00
486.5630, 10403.00
487.7470, 10567.00
488.9320, 10589.00
490.1160, 10463.00
491.3000, 10472.00
492.4830, 10434.00
493.6670, 10475.00
494.8500, 10598.00
496.0340, 10736.00
497.2170, 10602.00
498.4000, 10777.00
499.5820, 10871.00
500.7650, 11121.00
501.9480, 11210.00
503.1300, 11278.00
504.3120, 11331.00
505.4940, 11390.58
506.6760, 11451.17
507.8580, 11494.00
509.0390, 11584.00
510.2210, 11664.00
511.4020, 11764.00
512.5830, 11765.00
513.7640, 11821.00
514.9450, 11826.00
516.1250, 12024.00
517.3060, 11796.00
518.4860, 12037.00
519.6660, 11958.00
520.8460, 12151.00
522.0260, 12240.00
523.2060, 12174.00
524.3850, 12453.00
525.5650, 12347.00
526.7440, 12400.00
527.9230, 12536.00
529.1020, 12603.00
530.2810, 12454.00
531.4590, 12567.00
532.6380, 12466.00
533.8160, 12383.00
534.9940, 12355.00
536.1720, 12239.00
537.3500, 12393.00
538.5270, 12388.00
539.7050, 12287.00
540.8820, 12410.00
542.0590, 12270.00
543.2360, 12157.00
544.4130, 12095.00
545.5900, 12071.46
546.7660, 12145.00
547.9430, 12140.00
549.1190, 12085.00
550.2950, 12193.00
551.4710, 12148.00
552.6470, 12192.00
553.8220, 12050.00
554.9980, 12190.00
556.1730, 12045.00
557.3480, 12092.00
558.5230, 12318.00
559.6980, 12194.00
560.8730, 12163.00
562.0470, 12004.00
563.2220, 11933.00
564.3960, 11825.00
565.5700, 11852.00
566.7440, 11956.00
567.9170, 11956.00
569.0910, 11947.00
570.2640, 11852.00
571.4380, 11888.00
572.6110, 11674.00
573.7840, 11672.00
574.9570, 11604.00
576.1290, 11687.00
577.3020, 11471.00
578.4740, 11409.00
579.6460, 11296.00
580.8180, 11203.00
581.9900, 11114.00
583.1620, 11028.70
584.3330, 10932.90
585.5040, 10918.00
586.6760, 10808.00
587.8470, 10839.00
589.0180, 10922.00
590.1880, 10741.00
591.3590, 10788.00
592.5290, 10683.00
593.7000, 10739.00
594.8700, 10760.00
596.0400, 10687.00
597.2090, 10532.00
598.3790, 10651.00
599.5490, 10666.00
600.7180, 10651.00
601.8870, 10733.00
603.0560, 10618.00
604.2250, 10620.00
605.3940, 10643.00
606.5620, 10667.00
607.7300, 10827.00
608.8990, 10842.00
610.0670, 10863.00
611.2350, 10786.00
612.4020, 10908.00
613.5700, 10991.00
614.7370, 10929.00
615.9050, 11058.00
617.0720, 11018.00
618.2390, 11116.00
619.4060, 11220.00
620.5720, 11335.00
621.7390, 11411.00
622.9050, 11351.00
624.0710, 11648.00
625.2370, 11675.00
626.4030, 11757.00
627.5690, 11644.00
628.7340, 11993.00
629.9000, 12066.00
631.0650, 12183.00
632.2300, 12345.00
633.3950, 12419.00
634.5600, 12509.00
635.7240, 12771.00
636.8890, 12904.00
638.0530, 13197.00
639.2170, 13588.00
640.3810, 13619.00
641.5450, 14101.00
642.7080, 14415.00
643.8720, 14862.00
645.0350, 15290.00
646.1980, 15939.00
647.3610, 16768.00
648.5240, 17932.00
649.6870, 18693.00
650.8490, 20172.00
652.0120, 21923.00
653.1740, 24242.00
654.3360, 26771.00
655.4980, 30164.00
656.6600, 34665.00
657.8210, 38918.00
658.9830, 44310.00
660.1440, 49636.00
661.3050, 54909.00
662.4660, 58677.00
663.6270, 60147.00
664.7870, 59806.00
665.9480, 56762.00
667.1080, 52574.00
668.2680, 47348.00
669.4280, 41729.00
670.5880, 37122.00
671.7480, 32908.00
672.9070, 29379.00
674.0670, 26274.00
675.2260, 23775.00
676.3850, 21679.00
677.5440, 20229.00
678.7030, 19020.00
679.8610, 17781.00
681.0200, 16942.00
682.1780, 16177.00
683.3360, 15698.00
684.4940, 15307.00
685.6520, 14655.00
686.8090, 14268.00
687.9670, 14335.00
689.1240, 13783.00
690.2810, 13654.00
691.4380, 13403.00
692.5950, 13265.00
693.7520, 13296.00
694.9080, 13164.00
696.0650, 12915.00
697.2210, 12973.00
698.3770, 12893.00
699.5330, 12765.00
700.6880, 12737.00
701.8440, 12701.00
702.9990, 12651.00
704.1550, 12624.39
705.3100, 12560.00
706.4650, 12554.00
707.6190, 12484.08
708.7740, 12437.50
709.9290, 12381.00
711.0830, 12274.00
712.2370, 12225.00
713.3910, 12105.00
714.5450, 12021.00
715.6980, 11978.00
716.8520, 12083.00
718.0050, 11982.00
719.1580, 11830.00
720.3110, 11902.00
721.4640, 11749.00
722.6170, 11763.00
723.7700, 11834.00
724.9220, 11662.00
726.0740, 11809.00
727.2260, 11568.00
728.3780, 11796.00
729.5300, 11628.00
730.6810, 11660.00
731.8330, 11655.00
732.9840, 11670.00
734.1350, 11790.00
735.2860, 11528.00
736.4370, 11665.00
737.5880, 11737.00
738.7380, 11574.00
739.8880, 11770.00
741.0390, 11611.00
742.1890, 11726.00
743.3380, 11776.00
744.4880, 11638.00
745.6380, 11620.00
746.7870, 11637.00
747.9360, 11721.00
749.0850, 11692.00
750.2340, 11850.00
751.3830, 11761.00
752.5310, 11848.00
753.6800, 11780.00
754.8280, 11708.00
755.9760, 11830.00
757.1240, 11740.00
758.2720, 11772.00
759.4190, 11806.00
760.5670, 11701.00
761.7140, 11742.41
762.8610, 11772.00
764.0080, 11787.00
765.1550, 11781.00
766.3020, 11935.00
767.4480, 11831.00
768.5950, 11900.00
769.7410, 11908.00
770.8870, 11834.00
772.0330, 12130.00
773.1780, 12001.00
774.3240, 12107.00
775.4690, 11915.00
776.6140, 11981.00
777.7590, 12011.00
778.9040, 11983.00
780.0490, 12019.00
781.1940, 12017.00
782.3380, 12111.00
783.4820, 12099.00
784.6260, 12012.00
785.7700, 12291.00
786.9140, 11991.00
788.0580, 11941.00
789.2010, 12238.00
790.3450, 12095.00
791.4880, 12114.00
792.6310, 12182.00
793.7730, 12027.00
794.9160, 12029.00
796.0590, 12163.00
797.2010, 12171.00
798.3430, 12145.00
799.4850, 12229.00
800.6270, 12219.00
801.7690, 12206.00
802.9100, 12285.00
804.0520, 12225.00
805.1930, 12177.00
806.3340, 12226.00
807.4750, 12295.00
808.6160, 12363.00
809.7560, 12337.00
810.8970, 12411.00
812.0370, 12412.00
813.1770, 12417.00
814.3170, 12370.00
815.4570, 12364.00
816.5960, 12534.00
817.7360, 12389.00
818.8750, 12720.00
820.0140, 12396.00
821.1530, 12530.00
822.2920, 12765.00
823.4310, 12701.00
824.5690, 12591.00
825.7070, 12670.00
826.8460, 12765.00
827.9840, 12753.00
829.1220, 12843.00
830.2590, 12875.00
831.3970, 12784.00
832.5340, 12834.00
833.6710, 12923.00
834.8080, 12785.00
835.9450, 12890.00
837.0820, 13213.00
838.2190, 13122.00
839.3550, 13201.00
840.4910, 13380.00
841.6270, 13347.00
842.7630, 13868.00
843.8990, 13997.00
845.0350, 14322.00
846.1700, 14909.00
847.3060, 15574.00
848.4410, 16083.00
849.5760, 16982.00
850.7100, 17686.00
851.8450, 18188.00
852.9800, 18804.00
854.1140, 18971.00
855.2480, 18943.00
856.3820, 18439.00
857.5160, 17875.00
858.6500, 17271.00
859.7830, 17151.00
860.9170, 16514.00
862.0500, 16124.00
863.1830, 15939.00
864.3160, 15467.00
865.4480, 15096.00
866.5810, 15250.00
867.7130, 14872.00
868.8460, 14954.00
869.9780, 14867.00
871.1100, 14740.00
872.2410, 14723.00
873.3730, 14599.00
874.5050, 14720.00
875.6360, 14562.00
876.7670, 14607.00
877.8980, 14707.00
879.0290, 14468.00
880.1590, 14673.00
881.2900, 14633.00
882.4200, 14748.00
883.5500, 14694.00
884.6800, 14625.00
885.8100, 14877.00
886.9400, 14722.00
888.0690, 14918.00
889.1990, 14812.00
890.3280, 14806.00
891.4570, 14847.00
892.5860, 14730.00
893.7140, 14636.00
894.8430, 14699.00
895.9710, 14963.00
897.1000, 14915.00
898.2280, 14887.00
899.3560, 14843.00
900.4830, 14803.00
901.6110, 14806.00
902.7380, 14717.00
903.8660, 14835.00
904.9930, 14865.00
906.1200, 14664.00
907.2460, 14719.00
908.3730, 14795.00
909.5000, 14678.00
910.6260, 14827.00
911.7520, 14826.00
912.8780, 14733.00
914.0040, 14887.00
915.1290, 14918.00
916.2550, 14889.00
917.3800, 14820.00
918.5050, 14938.00
919.6300, 14956.00
920.7550, 14978.00
921.8800, 14935.00
923.0040, 14887.00
924.1290, 14759.00
925.2530, 14733.00
926.3770, 14581.00
927.5010, 14818.00
928.6250, 14790.00
929.7480, 14698.00
930.8720, 14713.00
931.9950, 14643.00
933.1180, 14630.00
934.2410, 14626.00
935.3640, 14547.00
936.4860, 14544.00
937.6090, 14784.00
938.7310, 14625.00
939.8530, 14594.00
940.9750, 14707.00
942.0970, 14479.00
943.2180, 14688.00
944.3400, 14621.00
945.4610, 14775.00
946.5820, 14603.00
947.7030, 14839.00
948.8240, 14759.00
949.9450, 14757.00
951.0650, 14855.00
952.1860, 14927.00
953.3060, 14954.86
954.4260, 15118.00
955.5460, 15080.00
956.6650, 15150.00
957.7850, 15300.00
958.9040, 15428.00
960.0230, 15215.00
961.1420, 15366.00
962.2610, 15363.00
963.3800, 15663.00
964.4990, 15409.00
965.6170, 15807.00
966.7350, 15651.00
967.8530, 15774.00
968.9710, 15799.00
970.0890, 15982.00
971.2070, 15891.00
972.3240, 15901.00
973.4410, 16021.00
974.5580, 16119.00
975.6750, 16304.00
976.7920, 16169.00
977.9090, 16283.00
979.0250, 16347.00
980.1410, 16215.00
981.2580, 16506.00
982.3740, 16518.00
983.4890, 16833.00
984.6050, 16997.00
985.7200, 17009.00
986.8360, 17183.24
987.9510, 17298.80
989.0660, 17397.00
990.1810, 17641.00
991.2950, 17925.00
992.4100, 18250.00
993.5240, 18801.00
994.6390, 19332.00
995.7530, 20005.00
996.8660, 20560.00
997.9800, 21572.00
999.0940, 22691.00
1000.207, 24073.00
1001.320, 25670.00
1002.433, 27586.00
1003.546, 30346.00
1004.659, 33169.00
1005.772, 36672.00
1006.884, 41087.00
1007.996, 45415.00
1009.108, 48977.00
1010.220, 52085.00
1011.332, 53255.00
1012.444, 52526.00
1013.555, 49482.00
1014.666, 45212.00
1015.777, 40830.00
1016.888, 36142.00
1017.999, 32483.00
1019.110, 29030.00
1020.220, 26883.00
1021.331, 24657.00
1022.441, 23292.00
1023.551, 22358.00
1024.661, 21159.00
1025.770, 20623.00
1026.880, 20265.00
1027.989, 19544.00
1029.098, 19437.00
1030.207, 19131.00
1031.316, 18967.00
1032.425, 18631.00
1033.533, 18752.00
1034.642, 18662.00
1035.750, 18667.00
1036.858, 18699.00
1037.966, 18574.00
1039.073, 18442.00
1040.181, 18615.00
1041.288, 18517.00
1042.396, 18505.00
1043.503, 18441.00
1044.610, 18327.00
1045.716, 18213.00
1046.823, 18129.00
1047.929, 17878.00
1049.036, 17906.00
1050.142, 17745.00
1051.248, 17578.00
1052.353, 17580.00
1053.459, 17516.00
1054.564, 17412.00
1055.670, 17367.00
1056.775, 17290.67
1057.880, 17169.00
1058.985, 17162.00
1060.089, 17079.00
1061.194, 17013.00
1062.298, 16921.00
1063.402, 16895.00
1064.506, 16864.00
1065.610, 16885.00
1066.713, 16792.00
1067.817, 16753.00
1068.920, 16713.00
1070.023, 16611.00
1071.126, 16396.00
1072.229, 16631.00
1073.332, 16432.00
1074.435, 16436.00
1075.537, 16727.00
1076.639, 16443.00
1077.741, 16365.00
1078.843, 16402.00
1079.945, 16443.00
1081.046, 16378.00
1082.148, 16340.00
1083.249, 16252.00
1084.350, 16286.00
1085.451, 16312.00
1086.551, 16371.00
1087.652, 16282.00
1088.752, 16279.00
1089.853, 16260.00
1090.953, 16223.13
1092.053, 16409.00
1093.152, 16141.00
1094.252, 16171.00
1095.351, 16037.00
1096.451, 16233.00
1097.550, 16225.00
1098.649, 16225.00
1099.748, 16170.00
1100.846, 16181.77
1101.945, 16236.00
1103.043, 16178.00
1104.141, 16221.00
1105.239, 16234.00
1106.337, 16082.00
1107.434, 16166.00
1108.532, 16185.00
1109.629, 16120.00
1110.726, 16026.00
1111.823, 16035.00
1112.920, 16077.00
1114.017, 16104.00
1115.113, 16041.00
1116.210, 16267.00
1117.306, 16265.00
1118.402, 16460.00
1119.498, 16323.00
1120.593, 16380.00
1121.689, 16495.00
1122.784, 16533.00
1123.879, 16418.00
1124.974, 16511.00
1126.069, 16433.00
1127.164, 16270.00
1128.259, 16069.00
1129.353, 16274.00
1130.447, 16195.00
1131.541, 16181.00
1132.635, 16147.00
1133.729, 16081.00
1134.822, 16058.00
1135.916, 15870.00
1137.009, 15952.00
1138.102, 15879.00
1139.195, 15948.00
1140.288, 15971.00
1141.380, 16076.00
1142.473, 15888.00
1143.565, 15980.00
1144.657, 15931.00
1145.749, 15704.00
1146.841, 15767.00
1147.932, 15860.00
1149.024, 15653.00
1150.115, 15778.00
1151.206, 15739.00
1152.297, 15691.00
1153.388, 15694.00
1154.479, 15667.00
1155.569, 15651.24
1156.659, 15740.00
1157.750, 15592.00
1158.839, 15640.00
1159.929, 15541.00
1161.019, 15627.00
1162.108, 15633.00
1163.198, 15566.00
1164.287, 15740.00
1165.376, 15577.00
1166.465, 15683.00
1167.553, 15669.00
1168.642, 15810.00
1169.730, 15846.00
1170.818, 15680.00
1171.906, 15811.00
1172.994, 15791.00
1174.082, 15689.00
1175.170, 15787.00
1176.257, 15630.00
1177.344, 15629.00
1178.431, 15713.00
1179.518, 15725.00
1180.605, 15839.00
1181.691, 15811.00
1182.778, 15852.86
1183.864, 15793.00
1184.950, 15873.00
1186.036, 15941.00
1187.122, 15938.00
1188.207, 15747.00
1189.292, 15887.00
1190.378, 15807.00
1191.463, 15938.00
1192.548, 15973.00
1193.632, 16027.00
1194.717, 16030.70
1195.801, 16066.27
1196.886, 16006.00
1197.970, 16043.00
1199.054, 16091.00
1200.137, 15942.00
1201.221, 15903.00
1202.305, 15969.00
1203.388, 16009.00
1204.471, 15948.00
1205.554, 16033.00
1206.637, 16021.00
1207.719, 16125.00
1208.802, 16101.00
1209.884, 16044.00
1210.966, 16035.00
1212.048, 16031.31
1213.130, 16137.00
1214.212, 16056.00
1215.293, 16171.00
1216.374, 16203.00
1217.456, 16264.00
1218.536, 16232.00
1219.617, 16282.00
1220.698, 16215.00
1221.778, 16152.00
1222.859, 16112.00
1223.939, 16288.00
1225.019, 16203.00
1226.099, 16254.00
1227.178, 16284.00
1228.258, 16269.00
1229.337, 16440.00
1230.417, 16312.00
1231.496, 16261.00
1232.574, 16424.00
1233.653, 16213.00
1234.732, 16321.00
1235.810, 16507.00
1236.888, 16307.00
1237.966, 16338.00
1239.044, 16345.00
1240.122, 16456.00
1241.199, 16443.00
1242.277, 16492.00
1243.354, 16449.00
1244.431, 16269.00
1245.508, 16531.00
1246.585, 16418.00
1247.661, 16488.00
1248.738, 16591.00
1249.814, 16568.00
1250.890, 16657.00
1251.966, 16589.00
1253.042, 16645.00
1254.117, 16634.00
1255.193, 16672.00
1256.268, 16367.00
1257.343, 16618.00
1258.418, 16461.00
1259.493, 16633.00
1260.567, 16568.00
1261.642, 16526.00
1262.716, 16624.00
1263.790, 16721.00
1264.864, 16595.00
1265.938, 16811.00
1267.011, 16885.00
1268.085, 16758.00
1269.158, 16737.00
1270.231, 16711.00
1271.304, 16768.00
1272.377, 16691.00
1273.450, 16712.00
1274.522, 16948.00
1275.594, 16907.00
1276.666, 16866.00
1277.738, 17027.00
1278.810, 16976.00
1279.882, 16889.00
1280.953, 16814.00
1282.025, 16746.00
1283.096, 16798.00
1284.167, 16870.00
1285.238, 16888.00
1286.308, 16958.56
1287.379, 16862.00
1288.449, 17021.00
1289.519, 17001.00
1290.589, 16915.00
1291.659, 17119.00
1292.729, 17183.00
1293.798, 17231.00
