##NAMES=Diopside
##RRUFFID=R060171
##IDEAL CHEMISTRY=CaMgSi_2_O_6_
##LOCALITY=Jeffrey mine, Asbestos, Quebec, Canada
##OWNER=RRUFF
##SOURCE=Guy Ouellet
##DESCRIPTION=Yellowish-brown tabular crystals associated with vesuvianite, R060170
##STATUS=The identification of this mineral has been confirmed by X-ray diffraction and chemical analysis
##URL=rruff.info/R060171
##MEASURED CHEMISTRY=Ca_1.00_(Mg_0.98_Mn_0.02_)_Î£=1_Si_2.00_O_6_
##PIN_ID=L01396
##ORIENTATION=Laser parallel to -a* (-1 0 0). Fiducial mark perpendicular to laser is parallel to b [0 1 0]
129.2090, 19788.00
130.4390, 20070.00
131.6680, 20285.00
132.8980, 20620.00
134.1270, 21022.00
135.3560, 21471.00
136.5850, 21911.00
137.8140, 22742.00
139.0430, 23448.00
140.2710, 23713.00
141.5000, 23062.00
142.7280, 22386.00
143.9560, 21770.00
145.1840, 21561.00
146.4120, 21162.00
147.6390, 21209.00
148.8670, 21130.00
150.0940, 21222.00
151.3210, 21137.85
152.5490, 21066.00
153.7750, 21044.00
155.0020, 21109.00
156.2290, 21144.00
157.4550, 21113.00
158.6810, 21212.00
159.9080, 21239.00
161.1340, 21276.00
162.3590, 21394.00
163.5850, 21360.00
164.8110, 21557.00
166.0360, 21653.00
167.2610, 21621.00
168.4860, 21622.00
169.7110, 21627.00
170.9360, 21729.00
172.1610, 21732.00
173.3850, 21792.00
174.6100, 21779.00
175.8340, 21830.04
177.0580, 21963.00
178.2820, 21938.00
179.5050, 22137.00
180.7290, 22256.00
181.9520, 22347.00
183.1760, 22192.00
184.3990, 22165.00
185.6220, 22187.00
186.8450, 22321.00
188.0670, 22178.00
189.2900, 22347.00
190.5120, 22442.00
191.7340, 22398.00
192.9560, 22497.00
194.1780, 22250.00
195.4000, 22455.00
196.6220, 22321.00
197.8430, 22638.00
199.0640, 22494.00
200.2860, 22726.00
201.5070, 22722.00
202.7270, 22686.00
203.9480, 22713.00
205.1690, 22815.00
206.3890, 22756.00
207.6090, 22801.00
208.8290, 22680.00
210.0490, 22720.00
211.2690, 22741.47
212.4890, 22778.61
213.7080, 22863.00
214.9280, 22888.00
216.1470, 23020.00
217.3660, 22955.00
218.5850, 22971.00
219.8030, 23172.00
221.0220, 23366.00
222.2400, 23019.00
223.4590, 23295.00
224.6770, 23191.00
225.8950, 23239.00
227.1120, 23335.00
228.3300, 23625.00
229.5480, 23367.00
230.7650, 23802.00
231.9820, 23454.00
233.1990, 23484.00
234.4160, 23614.00
235.6330, 23555.00
236.8490, 23638.00
238.0660, 23479.00
239.2820, 23538.00
240.4980, 23797.00
241.7140, 23605.00
242.9300, 23854.00
244.1460, 23889.00
245.3610, 23724.00
246.5770, 23828.00
247.7920, 24003.00
249.0070, 23926.00
250.2220, 23977.00
251.4370, 24037.00
252.6510, 24186.00
253.8660, 24175.00
255.0800, 24292.00
256.2940, 24108.00
257.5080, 24058.00
258.7220, 24025.00
259.9360, 24379.00
261.1490, 24207.00
262.3630, 24215.00
263.5760, 24327.00
264.7890, 24249.00
266.0020, 24311.00
267.2150, 24216.00
268.4270, 24148.00
269.6400, 24424.00
270.8520, 24465.00
272.0640, 24322.00
273.2760, 24398.00
274.4880, 24356.00
275.7000, 24645.00
276.9120, 24411.00
278.1230, 24487.00
279.3340, 24760.00
280.5450, 24714.00
281.7560, 24730.00
282.9670, 24753.00
284.1780, 24447.00
285.3880, 24814.00
286.5980, 24581.00
287.8090, 24919.00
289.0190, 24931.00
290.2290, 24792.00
291.4380, 24975.00
292.6480, 25147.00
293.8570, 24998.00
295.0670, 25060.00
296.2760, 24977.00
297.4850, 25175.00
298.6930, 25164.00
299.9020, 25237.00
301.1110, 25323.00
302.3190, 25035.00
303.5270, 25333.00
304.7350, 25421.00
305.9430, 25565.00
307.1510, 25239.00
308.3580, 25343.00
309.5660, 25537.00
310.7730, 25639.00
311.9800, 25812.00
313.1870, 25908.00
314.3940, 26280.00
315.6010, 26285.00
316.8070, 26816.00
318.0130, 26754.00
319.2200, 27238.00
320.4260, 27545.00
321.6310, 27947.00
322.8370, 28084.00
324.0430, 27891.00
325.2480, 27631.00
326.4540, 27195.00
327.6590, 26910.00
328.8640, 26604.00
330.0680, 26442.00
331.2730, 26168.00
332.4780, 26381.00
333.6820, 26312.00
334.8860, 26217.00
336.0900, 26338.00
337.2940, 26100.00
338.4980, 26359.00
339.7010, 26272.00
340.9050, 26054.00
342.1080, 26235.00
343.3110, 26075.00
344.5140, 26285.00
345.7170, 26387.00
346.9200, 26144.00
348.1220, 26281.00
349.3240, 26337.00
350.5270, 26235.00
351.7290, 26591.00
352.9310, 26566.00
354.1320, 26433.00
355.3340, 26453.00
356.5350, 26581.00
357.7370, 26743.00
358.9380, 26657.00
360.1390, 26560.00
361.3400, 26730.00
362.5400, 26723.00
363.7410, 26871.00
364.9410, 26724.00
366.1410, 26774.00
367.3410, 26742.00
368.5410, 26725.00
369.7410, 26894.00
370.9400, 26819.00
372.1400, 26860.00
373.3390, 27185.00
374.5380, 26835.00
375.7370, 26879.00
376.9360, 27118.00
378.1350, 27198.00
379.3330, 27191.00
380.5310, 27339.00
381.7300, 27422.85
382.9280, 27556.00
384.1260, 27763.00
385.3230, 27998.00
386.5210, 28376.00
387.7180, 28503.00
388.9160, 28585.00
390.1130, 28642.00
391.3100, 28295.00
392.5060, 27976.00
393.7030, 27993.00
394.9000, 27802.00
396.0960, 27530.00
397.2920, 27628.00
398.4880, 27515.00
399.6840, 27438.00
400.8800, 27577.00
402.0750, 27549.00
403.2710, 27534.00
404.4660, 27428.00
405.6610, 27496.00
406.8560, 27366.00
408.0510, 27385.00
409.2450, 27472.00
410.4400, 27562.00
411.6340, 27511.00
412.8280, 27517.00
414.0220, 27602.00
415.2160, 27462.00
416.4100, 27612.00
417.6030, 27724.00
418.7970, 27852.00
419.9900, 27747.00
421.1830, 27975.00
422.3760, 27577.00
423.5690, 27527.00
424.7610, 27815.00
425.9540, 27705.00
427.1460, 27747.00
428.3380, 28058.00
429.5300, 27933.00
430.7220, 27919.00
431.9140, 28054.00
433.1050, 27976.00
434.2970, 27991.00
435.4880, 28121.00
436.6790, 28083.00
437.8700, 28000.00
439.0610, 28242.00
440.2510, 28239.00
441.4420, 28065.00
442.6320, 28335.00
443.8220, 28253.00
445.0120, 28177.00
446.2020, 28058.00
447.3910, 28268.00
448.5810, 28245.00
449.7700, 28420.00
450.9600, 28272.00
452.1490, 28394.00
453.3370, 28527.00
454.5260, 28364.00
455.7150, 28586.00
456.9030, 28378.00
458.0910, 28434.00
459.2800, 28525.00
460.4670, 28539.00
461.6550, 28545.00
462.8430, 28550.00
464.0300, 28706.00
465.2180, 28599.00
466.4050, 28743.00
467.5920, 28836.00
468.7790, 28618.00
469.9650, 28790.00
471.1520, 28601.00
472.3380, 29070.00
473.5250, 28648.00
474.7110, 28944.00
475.8970, 28860.00
477.0820, 28720.00
478.2680, 28900.00
479.4540, 29010.00
480.6390, 29073.00
481.8240, 28974.00
483.0090, 29025.00
484.1940, 29230.00
485.3780, 28946.00
486.5630, 29279.00
487.7470, 29121.00
488.9320, 29223.00
490.1160, 29140.00
491.3000, 29272.00
492.4830, 29229.00
493.6670, 29282.00
494.8500, 29445.00
496.0340, 29333.00
497.2170, 29252.00
498.4000, 29395.00
499.5820, 29381.00
500.7650, 29413.00
501.9480, 29329.00
503.1300, 29437.00
504.3120, 29350.00
505.4940, 29712.00
506.6760, 29619.00
507.8580, 29626.00
509.0390, 29684.00
510.2210, 29624.00
511.4020, 29540.00
512.5830, 29692.00
513.7640, 29535.00
514.9450, 29513.00
516.1250, 29639.00
517.3060, 29636.00
518.4860, 29706.00
519.6660, 29714.00
520.8460, 29747.00
522.0260, 29874.00
523.2060, 29856.00
524.3850, 29822.00
525.5650, 29711.00
526.7440, 29899.00
527.9230, 29989.00
529.1020, 30184.00
530.2810, 30047.00
531.4590, 30041.00
532.6380, 29994.00
533.8160, 29979.00
534.9940, 30215.00
536.1720, 30162.00
537.3500, 30223.25
538.5270, 30276.00
539.7050, 30232.00
540.8820, 30104.00
542.0590, 30047.00
543.2360, 30230.00
544.4130, 30274.00
545.5900, 30346.00
546.7660, 30561.00
547.9430, 30240.00
549.1190, 30414.00
550.2950, 30390.00
551.4710, 30564.00
552.6470, 30457.00
553.8220, 30364.00
554.9980, 30467.00
556.1730, 30409.00
557.3480, 30322.00
558.5230, 30724.00
559.6980, 30444.00
560.8730, 30606.00
562.0470, 30541.00
563.2220, 30591.00
564.3960, 30577.00
565.5700, 30588.18
566.7440, 30753.00
567.9170, 30682.00
569.0910, 30618.00
570.2640, 30769.00
571.4380, 30944.00
572.6110, 30728.00
573.7840, 30642.00
574.9570, 30773.00
576.1290, 30708.00
577.3020, 30896.00
578.4740, 31093.00
579.6460, 31114.00
580.8180, 30786.00
581.9900, 31093.00
583.1620, 30921.00
584.3330, 30903.00
585.5040, 30985.00
586.6760, 30985.00
587.8470, 31126.00
589.0180, 31052.00
590.1880, 31171.00
591.3590, 31295.00
592.5290, 31353.00
593.7000, 31066.00
594.8700, 31382.00
596.0400, 31142.00
597.2090, 31343.00
598.3790, 31378.00
599.5490, 31219.00
600.7180, 31356.00
601.8870, 31123.00
603.0560, 31274.00
604.2250, 31460.00
605.3940, 31415.00
606.5620, 31516.00
607.7300, 31367.00
608.8990, 31517.00
610.0670, 31353.00
611.2350, 31507.00
612.4020, 31790.00
613.5700, 31535.00
614.7370, 31474.00
615.9050, 31597.00
617.0720, 31644.00
618.2390, 31716.00
619.4060, 31768.37
620.5720, 31826.00
621.7390, 31851.00
622.9050, 31937.00
624.0710, 32001.00
625.2370, 31954.00
626.4030, 31970.00
627.5690, 31881.00
628.7340, 31977.00
629.9000, 32055.00
631.0650, 32140.00
632.2300, 32092.00
633.3950, 32205.00
634.5600, 32082.00
635.7240, 32041.00
636.8890, 32282.00
638.0530, 32168.00
639.2170, 32372.00
640.3810, 32323.00
641.5450, 32498.00
642.7080, 32376.00
643.8720, 32535.00
645.0350, 32540.00
646.1980, 32466.00
647.3610, 32637.00
648.5240, 32908.00
649.6870, 32985.00
650.8490, 32820.00
652.0120, 33122.00
653.1740, 33407.00
654.3360, 33581.00
655.4980, 34092.00
656.6600, 34432.00
657.8210, 34748.00
658.9830, 35421.00
660.1440, 36132.00
661.3050, 36904.00
662.4660, 37544.00
663.6270, 37867.00
664.7870, 38019.64
665.9480, 38000.78
667.1080, 37616.00
668.2680, 37379.00
669.4280, 36600.00
670.5880, 35900.00
671.7480, 35284.00
672.9070, 34816.98
674.0670, 34421.00
675.2260, 34160.00
676.3850, 33987.00
677.5440, 33897.00
678.7030, 33680.21
679.8610, 33417.00
681.0200, 33430.00
682.1780, 33243.00
683.3360, 33275.00
684.4940, 33268.00
685.6520, 33167.00
686.8090, 33298.00
687.9670, 33290.00
689.1240, 33187.00
690.2810, 33102.00
691.4380, 33157.04
692.5950, 33133.00
693.7520, 33249.00
694.9080, 33233.00
696.0650, 33256.00
697.2210, 33288.00
698.3770, 33374.00
699.5330, 33291.00
700.6880, 33468.00
701.8440, 33394.00
702.9990, 33316.00
704.1550, 33345.00
705.3100, 33408.00
706.4650, 33444.00
707.6190, 33663.00
708.7740, 33587.00
709.9290, 33499.00
711.0830, 33745.00
712.2370, 33592.00
713.3910, 33759.00
714.5450, 33488.00
715.6980, 33558.00
716.8520, 33973.00
718.0050, 33755.00
719.1580, 33706.00
720.3110, 33508.00
721.4640, 33863.00
722.6170, 33719.00
723.7700, 33974.00
724.9220, 33660.00
726.0740, 33833.00
727.2260, 33969.00
728.3780, 33942.00
729.5300, 33774.00
730.6810, 33950.00
731.8330, 34110.00
732.9840, 34012.00
734.1350, 34293.00
735.2860, 34044.00
736.4370, 33958.00
737.5880, 33865.00
738.7380, 34090.00
739.8880, 34112.00
741.0390, 34034.00
742.1890, 34355.00
743.3380, 34307.00
744.4880, 34375.00
745.6380, 34172.00
746.7870, 34291.00
747.9360, 34214.00
749.0850, 34463.00
750.2340, 34258.00
751.3830, 34414.00
752.5310, 34548.00
753.6800, 34415.00
754.8280, 34522.00
755.9760, 34371.00
757.1240, 34607.00
758.2720, 34719.00
759.4190, 34632.00
760.5670, 34575.00
761.7140, 34629.00
762.8610, 34643.00
764.0080, 34635.00
765.1550, 34701.00
766.3020, 34502.00
767.4480, 34677.00
768.5950, 34697.00
769.7410, 34868.00
770.8870, 34712.00
772.0330, 34877.00
773.1780, 34858.00
774.3240, 34687.00
775.4690, 34897.00
776.6140, 35040.00
777.7590, 34809.00
778.9040, 34961.00
780.0490, 35299.00
781.1940, 35032.00
782.3380, 35066.00
783.4820, 35124.00
784.6260, 35131.00
785.7700, 35123.95
786.9140, 35163.00
788.0580, 35102.00
789.2010, 35041.00
790.3450, 35092.00
791.4880, 35186.00
792.6310, 35304.00
793.7730, 35523.00
794.9160, 35312.00
796.0590, 35347.00
797.2010, 35531.00
798.3430, 35226.00
799.4850, 35303.00
800.6270, 35309.00
801.7690, 35575.00
802.9100, 35455.00
804.0520, 35573.00
805.1930, 35696.00
806.3340, 35545.00
807.4750, 35452.00
808.6160, 35623.00
809.7560, 35816.00
810.8970, 35885.00
812.0370, 35632.00
813.1770, 35645.00
814.3170, 35749.00
815.4570, 35992.00
816.5960, 35958.00
817.7360, 35855.00
818.8750, 36050.00
820.0140, 36021.00
821.1530, 36039.00
822.2920, 36100.00
823.4310, 36034.00
824.5690, 36145.00
825.7070, 36164.00
826.8460, 36181.00
827.9840, 36147.00
829.1220, 36144.00
830.2590, 36169.69
831.3970, 36185.00
832.5340, 36185.00
833.6710, 36181.00
834.8080, 36217.60
835.9450, 36274.00
837.0820, 36312.00
838.2190, 36360.00
839.3550, 36462.00
840.4910, 36704.00
841.6270, 36527.00
842.7630, 36834.00
843.8990, 36875.00
845.0350, 36981.00
846.1700, 36838.00
847.3060, 36981.00
848.4410, 36989.00
849.5760, 37079.00
850.7100, 37204.00
851.8450, 37282.00
852.9800, 37468.00
854.1140, 37511.00
855.2480, 37345.00
856.3820, 37190.00
857.5160, 37207.00
858.6500, 37154.00
859.7830, 36992.00
860.9170, 36969.00
862.0500, 37174.00
863.1830, 37327.00
864.3160, 37284.00
865.4480, 37424.00
866.5810, 37262.00
867.7130, 37518.00
868.8460, 37194.00
869.9780, 37100.00
871.1100, 37351.00
872.2410, 37248.00
873.3730, 37401.00
874.5050, 37539.00
875.6360, 37518.00
876.7670, 37336.00
877.8980, 37554.00
879.0290, 37524.00
880.1590, 37428.00
881.2900, 37867.00
882.4200, 37590.00
883.5500, 37600.00
884.6800, 37592.00
885.8100, 37726.00
886.9400, 37728.00
888.0690, 37635.00
889.1990, 37483.00
890.3280, 37744.00
891.4570, 37927.00
892.5860, 37781.00
893.7140, 37965.00
894.8430, 38054.00
895.9710, 38094.00
897.1000, 38074.00
898.2280, 37932.00
899.3560, 38031.00
900.4830, 37993.00
901.6110, 38095.00
902.7380, 38201.00
903.8660, 38177.00
904.9930, 38093.00
906.1200, 38357.00
907.2460, 38154.00
908.3730, 38385.00
909.5000, 38256.00
910.6260, 38655.00
911.7520, 38519.00
912.8780, 38577.00
914.0040, 38501.00
915.1290, 38624.00
916.2550, 38603.37
917.3800, 38670.00
918.5050, 38674.00
919.6300, 38645.00
920.7550, 38762.00
921.8800, 38933.00
923.0040, 38772.00
924.1290, 38894.00
925.2530, 38628.00
926.3770, 38852.00
927.5010, 38988.00
928.6250, 38631.00
929.7480, 38992.00
930.8720, 39116.00
931.9950, 38847.00
933.1180, 38963.00
934.2410, 38830.00
935.3640, 39132.00
936.4860, 39335.00
937.6090, 39082.00
938.7310, 39224.00
939.8530, 39083.00
940.9750, 39258.00
942.0970, 39398.00
943.2180, 39461.00
944.3400, 39659.00
945.4610, 39489.00
946.5820, 39229.00
947.7030, 39467.00
948.8240, 39528.00
949.9450, 39520.00
951.0650, 39604.00
952.1860, 39485.00
953.3060, 39833.00
954.4260, 39562.00
955.5460, 39744.00
956.6650, 39906.00
957.7850, 39833.00
958.9040, 39747.00
960.0230, 39780.00
961.1420, 39832.51
962.2610, 39960.00
963.3800, 40047.00
964.4990, 40009.00
965.6170, 40093.00
966.7350, 40064.00
967.8530, 39973.00
968.9710, 40041.00
970.0890, 40200.00
971.2070, 40371.00
972.3240, 40538.00
973.4410, 40299.00
974.5580, 40352.00
975.6750, 40666.00
976.7920, 40322.00
977.9090, 40636.00
979.0250, 40470.00
980.1410, 40811.00
981.2580, 40588.00
982.3740, 40681.00
983.4890, 40690.00
984.6050, 40709.00
985.7200, 40667.00
986.8360, 40649.00
987.9510, 41029.00
989.0660, 41088.00
990.1810, 40996.00
991.2950, 40966.00
992.4100, 40955.00
993.5240, 40986.38
994.6390, 41138.00
995.7530, 41164.00
996.8660, 41221.00
997.9800, 41403.00
999.0940, 41482.48
1000.207, 41372.00
1001.320, 41751.00
1002.433, 41863.00
1003.546, 41975.00
1004.659, 42576.00
1005.772, 42590.00
1006.884, 42990.00
1007.996, 43778.00
1009.108, 44420.00
1010.220, 44835.00
1011.332, 45142.48
1012.444, 45279.91
1013.555, 45190.00
1014.666, 44990.00
1015.777, 44520.00
1016.888, 43772.00
1017.999, 43245.00
1019.110, 43014.00
1020.220, 42795.00
1021.331, 42404.00
1022.441, 42593.00
1023.551, 42494.00
1024.661, 42471.00
1025.770, 42480.00
1026.880, 42355.00
1027.989, 42228.00
1029.098, 42657.00
1030.207, 42618.00
1031.316, 42593.00
1032.425, 42632.00
1033.533, 42502.00
1034.642, 42683.00
1035.750, 42688.00
1036.858, 42753.00
1037.966, 42497.00
1039.073, 42709.00
1040.181, 42861.00
1041.288, 42734.00
1042.396, 43051.00
1043.503, 42950.00
1044.610, 43031.00
1045.716, 43072.00
1046.823, 43072.11
1047.929, 43124.00
1049.036, 43181.00
1050.142, 43140.00
1051.248, 43268.00
1052.353, 43126.00
1053.459, 43202.00
1054.564, 43298.00
1055.670, 43144.00
1056.775, 43430.00
1057.880, 43469.00
1058.985, 43680.00
1060.089, 43541.00
1061.194, 43487.00
1062.298, 43566.00
1063.402, 43847.00
1064.506, 43696.00
1065.610, 43947.00
1066.713, 43785.00
1067.817, 43814.00
1068.920, 44033.00
1070.023, 43780.00
1071.126, 43739.00
1072.229, 43933.00
1073.332, 44080.00
1074.435, 44100.00
1075.537, 44174.85
1076.639, 44093.00
1077.741, 44232.00
1078.843, 44380.00
1079.945, 44530.00
1081.046, 44387.00
1082.148, 44382.00
1083.249, 44418.00
1084.350, 44624.00
1085.451, 44574.00
1086.551, 44506.00
1087.652, 44696.00
1088.752, 44589.00
1089.853, 44704.00
1090.953, 44630.00
1092.053, 44772.00
1093.152, 44544.00
1094.252, 44833.00
1095.351, 44647.00
1096.451, 44913.00
1097.550, 45105.00
1098.649, 44936.00
1099.748, 45261.00
1100.846, 44763.00
1101.945, 45007.00
1103.043, 45110.00
1104.141, 45201.00
1105.239, 45374.00
1106.337, 45274.00
1107.434, 45147.00
1108.532, 45752.00
1109.629, 45333.00
1110.726, 45665.00
1111.823, 45567.00
1112.920, 45668.00
1114.017, 45621.00
1115.113, 45857.00
1116.210, 45840.00
1117.306, 45619.00
1118.402, 46009.00
1119.498, 45919.00
1120.593, 46239.00
1121.689, 46247.63
1122.784, 45991.00
1123.879, 46256.00
1124.974, 46292.00
1126.069, 46261.00
1127.164, 46151.00
1128.259, 46213.00
1129.353, 46265.00
1130.447, 46174.00
1131.541, 46213.00
1132.635, 46280.31
1133.729, 46379.00
1134.822, 46470.00
1135.916, 46463.00
1137.009, 46580.00
1138.102, 46682.00
1139.195, 46407.00
1140.288, 46454.00
1141.380, 46623.00
1142.473, 47056.00
1143.565, 47023.00
1144.657, 46992.00
1145.749, 47262.00
1146.841, 47054.00
1147.932, 47134.00
1149.024, 47049.00
1150.115, 47024.00
1151.206, 47337.00
1152.297, 47558.00
1153.388, 47465.00
1154.479, 47699.00
1155.569, 47577.00
1156.659, 47661.00
1157.750, 47705.00
1158.839, 47543.00
1159.929, 47777.00
1161.019, 47612.00
1162.108, 47648.00
1163.198, 47845.00
1164.287, 48126.00
1165.376, 47865.00
1166.465, 47920.00
1167.553, 47960.00
1168.642, 48054.00
1169.730, 48068.00
1170.818, 48240.00
1171.906, 48218.00
1172.994, 48253.00
1174.082, 48262.00
1175.170, 48462.00
1176.257, 48257.00
1177.344, 48647.00
1178.431, 48279.00
1179.518, 48948.00
1180.605, 48692.00
1181.691, 48608.00
1182.778, 48739.00
1183.864, 49095.00
1184.950, 48927.00
1186.036, 48732.00
1187.122, 49102.00
1188.207, 49082.00
1189.292, 49144.00
1190.378, 49206.00
1191.463, 49218.00
1192.548, 49433.00
1193.632, 49198.00
1194.717, 49225.00
1195.801, 49299.00
1196.886, 49504.00
1197.970, 49635.00
1199.054, 49364.00
1200.137, 49551.00
1201.221, 49704.00
1202.305, 49620.00
1203.388, 50064.00
1204.471, 49828.00
1205.554, 50207.00
1206.637, 49868.00
1207.719, 50036.00
1208.802, 50068.00
1209.884, 50137.00
1210.966, 50053.00
1212.048, 50315.00
1213.130, 50328.00
1214.212, 50590.00
1215.293, 50267.00
1216.374, 50343.00
1217.456, 50431.00
1218.536, 50375.27
1219.617, 50530.00
1220.698, 50491.00
1221.778, 50557.00
1222.859, 50584.09
1223.939, 50685.91
1225.019, 50960.00
1226.099, 50896.00
1227.178, 51211.00
1228.258, 51238.00
1229.337, 51350.28
1230.417, 51109.00
1231.496, 51462.00
1232.574, 51398.00
1233.653, 51223.00
1234.732, 51478.00
1235.810, 51366.00
1236.888, 51369.00
1237.966, 51673.00
1239.044, 52022.00
1240.122, 51694.00
1241.199, 52093.00
1242.277, 51833.00
1243.354, 51923.00
1244.431, 52065.00
1245.508, 51844.00
1246.585, 52026.00
1247.661, 52249.00
1248.738, 52380.00
1249.814, 52232.00
1250.890, 52329.00
1251.966, 52381.00
1253.042, 52490.00
1254.117, 52484.00
1255.193, 52635.00
1256.268, 52898.00
1257.343, 52747.00
1258.418, 52723.00
1259.493, 52947.00
1260.567, 52786.00
1261.642, 53078.00
1262.716, 53028.00
1263.790, 53304.00
1264.864, 53210.00
1265.938, 53330.00
1267.011, 53132.00
1268.085, 53370.00
1269.158, 53474.00
1270.231, 53253.00
1271.304, 53394.00
1272.377, 53311.00
1273.450, 53535.00
##END=



