##NAMES=Diopside
##RRUFFID=R060276
##IDEAL CHEMISTRY=CaMgSi_2_O_6_
##LOCALITY=Inagli, Yakutia, Siberia, Russia
##OWNER=RRUFF
##SOURCE=Herb Obodda
##DESCRIPTION=Transparent green cleavage fragment
##STATUS=The identification of this mineral has been confirmed by X-ray diffraction and chemical analysis
##URL=rruff.info/R060276
##MEASURED CHEMISTRY=(Ca_0.97_Na_0.03_)_Σ=1_(Mg_0.96_Fe_0.03_Cr_0.01_)_Σ=1_(Si_1.98_Al_0.02_)_Σ=2_O_6_
##PIN_ID=L01339
##ORIENTATION=Laser parallel to -b* (0 -1 0). Fiducial mark perpendicular to laser is parallel to c [0 0 1]
109.5120, 7895.000
110.7440, 7851.000
111.9760, 8001.000
113.2080, 7999.000
114.4400, 8034.000
115.6710, 8223.000
116.9030, 8265.000
118.1340, 8492.000
119.3650, 8509.000
120.5960, 8407.000
121.8270, 8545.000
123.0580, 8451.000
124.2880, 8643.000
125.5190, 8807.000
126.7490, 8741.000
127.9790, 8918.000
129.2090, 9112.000
130.4390, 9237.000
131.6680, 9316.000
132.8980, 9584.000
134.1270, 9849.000
135.3560, 10040.00
136.5850, 10399.00
137.8140, 10508.00
139.0430, 10896.00
140.2710, 11052.00
141.5000, 11118.00
142.7280, 11160.00
143.9560, 10951.00
145.1840, 10648.00
146.4120, 10429.00
147.6390, 10231.00
148.8670, 9937.000
150.0940, 9778.000
151.3210, 9680.966
152.5490, 9670.000
153.7750, 9600.000
155.0020, 9593.000
156.2290, 9615.000
157.4550, 9541.000
158.6810, 9531.000
159.9080, 9585.000
161.1340, 9697.000
162.3590, 9577.000
163.5850, 9740.000
164.8110, 9620.000
166.0360, 9716.000
167.2610, 9850.000
168.4860, 9802.000
169.7110, 9811.000
170.9360, 10008.00
172.1610, 10083.00
173.3850, 10045.00
174.6100, 10224.00
175.8340, 10272.57
177.0580, 10580.00
178.2820, 10486.00
179.5050, 10681.00
180.7290, 10815.00
181.9520, 10702.00
183.1760, 10580.00
184.3990, 10607.00
185.6220, 10374.00
186.8450, 10393.00
188.0670, 10386.00
189.2900, 10286.00
190.5120, 10412.00
191.7340, 10504.00
192.9560, 10428.00
194.1780, 10381.00
195.4000, 10535.00
196.6220, 10535.00
197.8430, 10447.00
199.0640, 10428.00
200.2860, 10423.00
201.5070, 10456.00
202.7270, 10391.00
203.9480, 10330.00
205.1690, 10375.00
206.3890, 10511.00
207.6090, 10355.00
208.8290, 10524.00
210.0490, 10439.00
211.2690, 10452.00
212.4890, 10558.00
213.7080, 10602.00
214.9280, 10642.00
216.1470, 10619.00
217.3660, 10595.00
218.5850, 10652.00
219.8030, 10704.00
221.0220, 10753.00
222.2400, 10971.00
223.4590, 11077.00
224.6770, 11151.00
225.8950, 11290.00
227.1120, 11384.00
228.3300, 11661.00
229.5480, 11704.00
230.7650, 11933.00
231.9820, 12022.00
233.1990, 12009.00
234.4160, 12151.00
235.6330, 11774.00
236.8490, 11759.00
238.0660, 11614.00
239.2820, 11547.00
240.4980, 11578.00
241.7140, 11689.00
242.9300, 11632.00
244.1460, 11590.00
245.3610, 11968.00
246.5770, 12027.00
247.7920, 12212.00
249.0070, 12528.00
250.2220, 12876.00
251.4370, 13188.00
252.6510, 13374.00
253.8660, 13535.00
255.0800, 13334.00
256.2940, 13167.00
257.5080, 13006.00
258.7220, 12683.00
259.9360, 12320.00
261.1490, 11922.00
262.3630, 11762.00
263.5760, 11697.00
264.7890, 11577.00
266.0020, 11627.00
267.2150, 11576.00
268.4270, 11472.00
269.6400, 11575.00
270.8520, 11597.00
272.0640, 11524.00
273.2760, 11609.00
274.4880, 11595.00
275.7000, 11603.00
276.9120, 11638.00
278.1230, 11657.68
279.3340, 11775.00
280.5450, 11748.00
281.7560, 11825.00
282.9670, 11902.00
284.1780, 11722.00
285.3880, 11803.00
286.5980, 11743.00
287.8090, 11981.00
289.0190, 12025.00
290.2290, 12024.00
291.4380, 12116.00
292.6480, 12082.00
293.8570, 12207.00
295.0670, 12124.00
296.2760, 12226.00
297.4850, 12194.00
298.6930, 12509.00
299.9020, 12377.00
301.1110, 12547.00
302.3190, 12714.00
303.5270, 12615.00
304.7350, 12853.00
305.9430, 13109.00
307.1510, 13272.00
308.3580, 13552.00
309.5660, 13879.00
310.7730, 14092.00
311.9800, 14614.00
313.1870, 15050.00
314.3940, 15808.00
315.6010, 16470.00
316.8070, 17322.00
318.0130, 18313.00
319.2200, 19411.00
320.4260, 20385.00
321.6310, 21402.00
322.8370, 21897.00
324.0430, 21711.00
325.2480, 21241.00
326.4540, 20397.00
327.6590, 19219.00
328.8640, 18171.00
330.0680, 17184.00
331.2730, 16374.00
332.4780, 15865.00
333.6820, 15118.00
334.8860, 14688.00
336.0900, 14509.00
337.2940, 14195.00
338.4980, 13946.00
339.7010, 13801.00
340.9050, 13686.76
342.1080, 13793.00
343.3110, 13639.00
344.5140, 13727.00
345.7170, 13770.00
346.9200, 13716.00
348.1220, 13669.00
349.3240, 13616.00
350.5270, 13820.00
351.7290, 13850.00
352.9310, 13772.00
354.1320, 13984.00
355.3340, 13854.00
356.5350, 13928.00
357.7370, 14125.00
358.9380, 14087.00
360.1390, 13993.00
361.3400, 14121.00
362.5400, 13980.00
363.7410, 13931.00
364.9410, 13865.00
366.1410, 13859.00
367.3410, 13782.00
368.5410, 13781.00
369.7410, 13763.00
370.9400, 13720.00
372.1400, 13661.00
373.3390, 13802.00
374.5380, 13830.00
375.7370, 13783.00
376.9360, 13872.00
378.1350, 13848.00
379.3330, 13860.00
380.5310, 13965.00
381.7300, 13968.00
382.9280, 14063.00
384.1260, 14276.00
385.3230, 14315.00
386.5210, 14326.00
387.7180, 14681.00
388.9160, 14859.00
390.1130, 14869.00
391.3100, 14833.00
392.5060, 14814.00
393.7030, 14838.00
394.9000, 14667.00
396.0960, 14665.00
397.2920, 14496.00
398.4880, 14372.00
399.6840, 14267.00
400.8800, 14155.00
402.0750, 14066.00
403.2710, 14071.00
404.4660, 13911.00
405.6610, 13983.00
406.8560, 13875.00
408.0510, 13867.00
409.2450, 13877.00
410.4400, 14078.00
411.6340, 14024.00
412.8280, 14012.00
414.0220, 13846.00
415.2160, 14002.00
416.4100, 13975.00
417.6030, 14066.00
418.7970, 14305.00
419.9900, 14051.00
421.1830, 14196.00
422.3760, 14182.00
423.5690, 14102.00
424.7610, 14133.00
425.9540, 14225.00
427.1460, 14168.00
428.3380, 14188.00
429.5300, 14240.82
430.7220, 14249.25
431.9140, 14321.00
433.1050, 14358.00
434.2970, 14374.00
435.4880, 14467.00
436.6790, 14487.00
437.8700, 14632.00
439.0610, 14558.00
440.2510, 14336.00
441.4420, 14623.00
442.6320, 14475.00
443.8220, 14731.00
445.0120, 14459.00
446.2020, 14667.00
447.3910, 14833.00
448.5810, 14585.00
449.7700, 14785.00
450.9600, 14718.00
452.1490, 14806.00
453.3370, 14804.00
454.5260, 14802.00
455.7150, 14853.64
456.9030, 14899.00
458.0910, 14926.00
459.2800, 14867.00
460.4670, 14929.00
461.6550, 14964.62
462.8430, 15074.00
464.0300, 15107.00
465.2180, 15050.00
466.4050, 15143.00
467.5920, 15078.00
468.7790, 15014.00
469.9650, 15173.00
471.1520, 15115.00
472.3380, 15090.00
473.5250, 15098.00
474.7110, 15222.00
475.8970, 15123.00
477.0820, 15184.00
478.2680, 15239.00
479.4540, 15214.00
480.6390, 15433.00
481.8240, 15359.00
483.0090, 15326.00
484.1940, 15498.00
485.3780, 15524.00
486.5630, 15359.00
487.7470, 15601.00
488.9320, 15506.00
490.1160, 15747.00
491.3000, 15573.00
492.4830, 15901.00
493.6670, 15746.00
494.8500, 15917.00
496.0340, 16067.00
497.2170, 16327.00
498.4000, 16679.00
499.5820, 16802.00
500.7650, 17218.00
501.9480, 17714.00
503.1300, 18234.00
504.3120, 18972.00
505.4940, 19546.00
506.6760, 19660.00
507.8580, 19604.00
509.0390, 19301.00
510.2210, 18927.00
511.4020, 18287.00
512.5830, 17843.00
513.7640, 17448.00
514.9450, 17151.00
516.1250, 16920.00
517.3060, 16750.00
518.4860, 16587.00
519.6660, 16615.00
520.8460, 16530.57
522.0260, 16520.00
523.2060, 16527.00
524.3850, 16587.00
525.5650, 16589.00
526.7440, 16574.00
527.9230, 16631.00
529.1020, 16625.00
530.2810, 16711.00
531.4590, 16621.00
532.6380, 16688.00
533.8160, 16692.00
534.9940, 16720.00
536.1720, 16697.00
537.3500, 16725.93
538.5270, 16724.00
539.7050, 16741.00
540.8820, 16701.00
542.0590, 16658.00
543.2360, 16739.00
544.4130, 16612.00
545.5900, 16684.00
546.7660, 16638.00
547.9430, 16733.00
549.1190, 16764.27
550.2950, 16843.00
551.4710, 16862.00
552.6470, 16936.00
553.8220, 16965.00
554.9980, 17053.00
556.1730, 17103.00
557.3480, 17203.00
558.5230, 17077.00
559.6980, 17328.00
560.8730, 17343.00
562.0470, 17185.00
563.2220, 17306.00
564.3960, 17069.00
565.5700, 17134.00
566.7440, 17084.00
567.9170, 17169.00
569.0910, 17242.00
570.2640, 17129.00
571.4380, 17318.00
572.6110, 17171.00
573.7840, 17249.00
574.9570, 17270.00
576.1290, 17485.00
577.3020, 17352.00
578.4740, 17427.00
579.6460, 17239.00
580.8180, 17331.00
581.9900, 17317.00
583.1620, 17447.00
584.3330, 17439.56
585.5040, 17326.00
586.6760, 17430.00
587.8470, 17475.00
589.0180, 17404.00
590.1880, 17641.00
591.3590, 17453.00
592.5290, 17518.00
593.7000, 17568.00
594.8700, 17539.00
596.0400, 17598.00
597.2090, 17503.00
598.3790, 17498.00
599.5490, 17591.00
600.7180, 17576.00
601.8870, 17605.00
603.0560, 17723.00
604.2250, 17807.00
605.3940, 17947.00
606.5620, 17862.00
607.7300, 17762.00
608.8990, 17906.00
610.0670, 17878.00
611.2350, 17989.00
612.4020, 18060.00
613.5700, 17843.00
614.7370, 18064.00
615.9050, 18228.00
617.0720, 18067.00
618.2390, 18141.00
619.4060, 18295.00
620.5720, 18329.00
621.7390, 18401.73
622.9050, 18437.00
624.0710, 18471.00
625.2370, 18522.00
626.4030, 18514.00
627.5690, 18636.00
628.7340, 18638.00
629.9000, 18694.00
631.0650, 18852.00
632.2300, 19048.00
633.3950, 19090.00
634.5600, 19228.00
635.7240, 19292.00
636.8890, 19427.00
638.0530, 19535.00
639.2170, 19625.26
640.3810, 19666.00
641.5450, 19810.00
642.7080, 20014.00
643.8720, 20090.00
645.0350, 20501.00
646.1980, 20682.00
647.3610, 21009.00
648.5240, 21381.00
649.6870, 21878.00
650.8490, 22537.00
652.0120, 23148.00
653.1740, 23869.00
654.3360, 25334.00
655.4980, 26841.00
656.6600, 28754.59
657.8210, 30662.00
658.9830, 33540.00
660.1440, 36441.00
661.3050, 39570.00
662.4660, 42647.00
663.6270, 45602.00
664.7870, 47108.00
665.9480, 47376.00
667.1080, 46089.00
668.2680, 43477.00
669.4280, 40453.00
670.5880, 36937.00
671.7480, 33910.00
672.9070, 30897.00
674.0670, 28602.00
675.2260, 26898.00
676.3850, 25412.00
677.5440, 24398.00
678.7030, 23495.00
679.8610, 22881.00
681.0200, 22431.00
682.1780, 21980.00
683.3360, 21530.00
684.4940, 21226.00
685.6520, 20972.00
686.8090, 21022.00
687.9670, 20848.00
689.1240, 20728.00
690.2810, 20604.00
691.4380, 20462.00
692.5950, 20428.00
693.7520, 20450.00
694.9080, 20459.00
696.0650, 20302.00
697.2210, 20240.00
698.3770, 20359.00
699.5330, 20078.00
700.6880, 20114.00
701.8440, 20153.00
702.9990, 20338.00
704.1550, 20106.00
705.3100, 20339.00
706.4650, 20271.00
707.6190, 20202.00
708.7740, 20381.00
709.9290, 20317.00
711.0830, 20195.00
712.2370, 20345.00
713.3910, 20384.00
714.5450, 20209.00
715.6980, 20348.00
716.8520, 20313.00
718.0050, 20290.00
719.1580, 20193.00
720.3110, 20222.00
721.4640, 20348.00
722.6170, 20242.00
723.7700, 20392.00
724.9220, 20157.00
726.0740, 20371.00
727.2260, 20391.00
728.3780, 20348.00
729.5300, 20184.00
730.6810, 20377.00
731.8330, 20390.00
732.9840, 20503.00
734.1350, 20496.00
735.2860, 20403.00
736.4370, 20703.00
737.5880, 20481.00
738.7380, 20522.00
739.8880, 20548.00
741.0390, 20639.00
742.1890, 20684.00
743.3380, 20620.00
744.4880, 20607.00
745.6380, 20634.00
746.7870, 20680.00
747.9360, 20578.00
749.0850, 20615.00
750.2340, 20593.00
751.3830, 20643.00
752.5310, 20750.00
753.6800, 20859.00
754.8280, 20768.00
755.9760, 20997.00
757.1240, 20948.00
758.2720, 20855.00
759.4190, 20905.00
760.5670, 21061.00
761.7140, 21015.00
762.8610, 20902.00
764.0080, 21056.00
765.1550, 20937.00
766.3020, 21120.00
767.4480, 21114.00
768.5950, 21153.00
769.7410, 21117.00
770.8870, 21154.00
772.0330, 21190.44
773.1780, 21101.00
774.3240, 21254.00
775.4690, 21386.00
776.6140, 21357.00
777.7590, 21291.00
778.9040, 21468.00
780.0490, 21333.00
781.1940, 21547.00
782.3380, 21569.00
783.4820, 21576.00
784.6260, 21683.00
785.7700, 21763.00
786.9140, 21767.00
788.0580, 21505.00
789.2010, 21689.00
790.3450, 21615.00
791.4880, 21654.00
792.6310, 21830.00
793.7730, 21863.00
794.9160, 21718.00
796.0590, 21771.00
797.2010, 21706.00
798.3430, 21877.00
799.4850, 21914.00
800.6270, 21833.00
801.7690, 22124.00
802.9100, 21979.00
804.0520, 22095.00
805.1930, 22103.00
806.3340, 22131.00
807.4750, 22168.96
808.6160, 22078.00
809.7560, 22213.00
810.8970, 22132.00
812.0370, 22184.00
813.1770, 22086.00
814.3170, 22125.00
815.4570, 22183.00
816.5960, 22300.00
817.7360, 22274.00
818.8750, 22311.00
820.0140, 22404.00
821.1530, 22483.00
822.2920, 22363.00
823.4310, 22455.00
824.5690, 22409.00
825.7070, 22453.00
826.8460, 22496.00
827.9840, 22617.00
829.1220, 22572.00
830.2590, 22569.00
831.3970, 22530.00
832.5340, 22641.00
833.6710, 22627.00
834.8080, 22644.00
835.9450, 22627.00
837.0820, 22794.00
838.2190, 22804.00
839.3550, 22841.00
840.4910, 22830.00
841.6270, 22912.00
842.7630, 22973.00
843.8990, 23027.00
845.0350, 22895.00
846.1700, 23036.00
847.3060, 23053.00
848.4410, 23305.00
849.5760, 23064.00
850.7100, 23269.00
851.8450, 23270.00
852.9800, 23328.00
854.1140, 23417.00
855.2480, 23507.00
856.3820, 23527.00
857.5160, 23593.90
858.6500, 23606.00
859.7830, 23651.00
860.9170, 23603.00
862.0500, 23582.00
863.1830, 23759.00
864.3160, 23419.00
865.4480, 23556.00
866.5810, 23774.00
867.7130, 23706.00
868.8460, 23857.00
869.9780, 23831.00
871.1100, 23706.00
872.2410, 23780.00
873.3730, 23830.00
874.5050, 23748.00
875.6360, 24218.00
876.7670, 23865.00
877.8980, 24265.00
879.0290, 24068.00
880.1590, 24255.00
881.2900, 24057.00
882.4200, 23929.00
883.5500, 24160.00
884.6800, 24038.00
885.8100, 24174.00
886.9400, 24235.00
888.0690, 24294.00
889.1990, 24384.00
890.3280, 24323.00
891.4570, 24412.00
892.5860, 24381.00
893.7140, 24393.00
894.8430, 24422.70
895.9710, 24419.66
897.1000, 24438.00
898.2280, 24448.00
899.3560, 24431.18
900.4830, 24435.00
901.6110, 24581.00
902.7380, 24602.00
903.8660, 24872.00
904.9930, 24670.00
906.1200, 24623.00
907.2460, 24714.00
908.3730, 24550.00
909.5000, 24591.00
910.6260, 24620.20
911.7520, 24735.00
912.8780, 24729.00
914.0040, 24836.00
915.1290, 24938.00
916.2550, 24751.00
917.3800, 24936.00
918.5050, 24847.00
919.6300, 24903.00
920.7550, 24931.00
921.8800, 24833.00
923.0040, 24978.00
924.1290, 25139.00
925.2530, 25144.00
926.3770, 25256.00
927.5010, 25127.00
928.6250, 25115.00
929.7480, 24980.00
930.8720, 25173.00
931.9950, 25229.00
933.1180, 25312.00
934.2410, 25226.00
935.3640, 25265.00
936.4860, 25410.00
937.6090, 25315.00
938.7310, 25364.00
939.8530, 25489.00
940.9750, 25381.00
942.0970, 25615.00
943.2180, 25591.00
944.3400, 25497.00
945.4610, 25499.00
946.5820, 25494.00
947.7030, 25458.00
948.8240, 25501.78
949.9450, 25530.85
951.0650, 25566.00
952.1860, 25700.00
953.3060, 25723.00
954.4260, 25925.00
955.5460, 25943.00
956.6650, 25806.00
957.7850, 26123.00
958.9040, 26093.00
960.0230, 26144.00
961.1420, 26393.00
962.2610, 26052.00
963.3800, 26281.00
964.4990, 26384.00
965.6170, 26338.00
966.7350, 26239.00
967.8530, 26454.00
968.9710, 26396.00
970.0890, 26408.00
971.2070, 26719.00
972.3240, 26646.00
973.4410, 26439.00
974.5580, 26780.00
975.6750, 26612.00
976.7920, 26726.00
977.9090, 26960.00
979.0250, 26869.00
980.1410, 26950.00
981.2580, 26960.00
982.3740, 27206.00
983.4890, 27135.00
984.6050, 27401.00
985.7200, 27626.00
986.8360, 27753.00
987.9510, 27751.00
989.0660, 27657.00
990.1810, 28072.00
991.2950, 28268.00
992.4100, 28392.00
993.5240, 28817.00
994.6390, 28821.00
995.7530, 29365.00
996.8660, 29772.00
997.9800, 30006.00
999.0940, 30715.00
1000.207, 31341.00
1001.320, 32705.00
1002.433, 33909.00
1003.546, 35569.00
1004.659, 37948.00
1005.772, 40616.00
1006.884, 43866.00
1007.996, 47616.00
1009.108, 51488.00
1010.220, 55319.00
1011.332, 57799.00
1012.444, 58260.00
1013.555, 56493.00
1014.666, 53109.00
1015.777, 48836.00
1016.888, 44542.00
1017.999, 40691.00
1019.110, 37572.00
1020.220, 35301.00
1021.331, 33691.00
1022.441, 32671.00
1023.551, 31687.00
1024.661, 31103.00
1025.770, 30595.00
1026.880, 30290.00
1027.989, 30226.00
1029.098, 29804.00
1030.207, 29666.00
1031.316, 29555.00
1032.425, 29360.00
1033.533, 29488.00
1034.642, 29367.00
1035.750, 29284.00
1036.858, 29473.00
1037.966, 29212.00
1039.073, 29447.00
1040.181, 29604.00
1041.288, 29361.00
1042.396, 29467.00
1043.503, 29843.00
1044.610, 29662.00
1045.716, 29735.00
1046.823, 29618.00
1047.929, 29726.00
1049.036, 29430.00
1050.142, 29695.00
1051.248, 29151.00
1052.353, 29223.00
1053.459, 29198.00
1054.564, 29165.00
1055.670, 29029.00
1056.775, 28912.00
1057.880, 29060.00
1058.985, 29154.00
1060.089, 28974.00
1061.194, 28989.00
1062.298, 28961.00
1063.402, 29137.00
1064.506, 28765.00
1065.610, 28921.00
1066.713, 28916.00
1067.817, 29193.00
1068.920, 29143.00
1070.023, 28960.00
1071.126, 28755.00
1072.229, 29259.00
1073.332, 29071.00
1074.435, 29132.00
1075.537, 29296.00
1076.639, 29333.00
1077.741, 29177.00
1078.843, 29218.00
1079.945, 29207.00
1081.046, 29091.00
1082.148, 29185.00
1083.249, 29054.00
1084.350, 29512.00
1085.451, 29710.00
1086.551, 29617.00
1087.652, 29521.00
1088.752, 29416.00
1089.853, 29749.00
1090.953, 29422.00
1092.053, 29598.00
1093.152, 29489.00
1094.252, 29365.00
1095.351, 29381.00
1096.451, 29528.00
1097.550, 29399.00
1098.649, 29578.00
1099.748, 29599.00
1100.846, 29604.00
1101.945, 29554.00
1103.043, 29536.00
1104.141, 29598.21
1105.239, 29579.79
1106.337, 29707.00
1107.434, 29684.00
1108.532, 29664.00
1109.629, 29842.00
1110.726, 29684.00
1111.823, 29810.00
1112.920, 29930.00
1114.017, 29875.00
1115.113, 30123.00
1116.210, 30092.00
1117.306, 30342.00
1118.402, 30368.00
1119.498, 30048.00
1120.593, 30008.00
1121.689, 30303.00
1122.784, 30431.00
1123.879, 30341.00
1124.974, 30281.00
1126.069, 30579.00
1127.164, 30351.00
1128.259, 30453.00
1129.353, 30411.00
1130.447, 30206.00
1131.541, 30254.00
1132.635, 30365.00
1133.729, 30534.00
1134.822, 30469.00
1135.916, 30551.00
1137.009, 30580.49
1138.102, 30604.00
1139.195, 30609.00
1140.288, 30617.00
1141.380, 30615.00
1142.473, 30692.00
1143.565, 30578.00
1144.657, 30793.00
1145.749, 30960.00
1146.841, 30584.00
1147.932, 30805.00
1149.024, 30863.00
1150.115, 30902.00
1151.206, 30804.00
1152.297, 30925.00
1153.388, 30924.00
1154.479, 30850.00
1155.569, 31105.00
1156.659, 31004.00
1157.750, 30963.00
1158.839, 31159.00
1159.929, 31230.00
1161.019, 31033.00
1162.108, 30827.00
1163.198, 31211.00
1164.287, 30893.00
1165.376, 31242.00
1166.465, 31327.00
1167.553, 31520.00
1168.642, 31246.00
1169.730, 31483.00
1170.818, 31350.00
1171.906, 31330.00
1172.994, 31277.00
1174.082, 31272.12
1175.170, 31407.00
1176.257, 31350.00
1177.344, 31594.00
1178.431, 31722.00
1179.518, 31592.00
1180.605, 31503.00
1181.691, 31839.00
1182.778, 31557.00
1183.864, 31879.00
1184.950, 31800.00
1186.036, 31672.00
1187.122, 31716.00
1188.207, 31800.00
1189.292, 31770.00
1190.378, 31979.00
1191.463, 31924.00
1192.548, 31976.00
1193.632, 32006.00
1194.717, 31999.00
1195.801, 32125.00
1196.886, 32261.00
1197.970, 32306.00
1199.054, 32391.00
1200.137, 32110.00
1201.221, 32068.00
1202.305, 32189.00
1203.388, 32130.00
1204.471, 32251.00
1205.554, 32318.00
1206.637, 32270.00
1207.719, 32369.40
1208.802, 32451.00
1209.884, 32448.00
1210.966, 32460.00
1212.048, 32481.00
1213.130, 32617.00
1214.212, 32537.00
1215.293, 32540.00
1216.374, 32719.00
1217.456, 32670.00
1218.536, 32646.00
1219.617, 32794.00
1220.698, 32595.00
1221.778, 32672.00
1222.859, 32785.00
1223.939, 32900.00
1225.019, 32993.00
1226.099, 33007.00
1227.178, 33056.00
1228.258, 33015.00
1229.337, 32937.00
1230.417, 32878.00
1231.496, 33096.00
1232.574, 32972.00
1233.653, 33261.00
1234.732, 33164.00
1235.810, 33267.00
1236.888, 33378.00
1237.966, 33511.00
1239.044, 33518.00
1240.122, 33367.00
1241.199, 33553.00
1242.277, 33633.00
1243.354, 33405.00
1244.431, 33672.00
1245.508, 33588.00
1246.585, 33436.00
1247.661, 33502.00
1248.738, 33608.00
1249.814, 33489.00
1250.890, 33440.00
1251.966, 34134.00
1253.042, 33802.00
1254.117, 34022.00
1255.193, 33638.00
1256.268, 33848.00
1257.343, 33932.00
1258.418, 34183.00
1259.493, 34000.00
1260.567, 34092.00
1261.642, 34098.00
1262.716, 34258.00
1263.790, 34307.00
1264.864, 34314.00
1265.938, 34229.00
1267.011, 34327.00
1268.085, 34173.00
1269.158, 34428.00
1270.231, 34100.00
1271.304, 34624.00
1272.377, 34403.00
1273.450, 34424.00
1274.522, 34456.00
1275.594, 34560.00
1276.666, 34718.00
1277.738, 34405.00
1278.810, 34445.00
1279.882, 34477.00
1280.953, 34628.00
1282.025, 34413.00
1283.096, 34547.00
1284.167, 34581.00
1285.238, 34881.00
1286.308, 34651.00
1287.379, 35085.00
