##NAMES=Diopside
##RRUFFID=R060861
##IDEAL CHEMISTRY=CaMgSi_2_O_6_
##LOCALITY=Red Mountain Volcano, NW of Flagstaff, Arizona, USA
##OWNER=RRUFF
##SOURCE=Jennifer Sano
##DESCRIPTION=Worn brown fragment
##STATUS=The identification of this mineral has been confirmed by X-ray diffraction and chemical analysis
##URL=rruff.info/R060861
##MEASURED CHEMISTRY=(Ca_0.72_Fe^2+^_0.23_Na_0.05_)_Σ=1_(Mg_0.80_Al_0.15_Ti_0.03_Fe^3+^_0.02_)_Σ=1_(Si_1.82_Al_0.18_)_Σ=2_O_6_
##PIN_ID=M01653
##ORIENTATION=Laser parallel to -c* (0 0 -1). Fiducial mark perpendicular to laser is parallel to a [1 0 0]
212.8350, 14027.00
214.0620, 14187.62
215.2880, 14315.75
216.5150, 14558.00
217.7410, 14641.00
218.9680, 14835.00
220.1940, 15080.00
221.4190, 14956.00
222.6450, 15437.00
223.8700, 15360.00
225.0960, 15500.00
226.3210, 15542.00
227.5450, 15654.00
228.7700, 15389.00
229.9940, 15304.00
231.2190, 15094.00
232.4430, 15060.00
233.6660, 14959.00
234.8900, 14786.00
236.1140, 14746.00
237.3370, 14599.00
238.5600, 14609.00
239.7830, 14603.00
241.0050, 14680.00
242.2280, 14641.23
243.4500, 14552.00
244.6720, 14626.00
245.8940, 14551.00
247.1160, 14581.00
248.3370, 14666.00
249.5580, 14842.00
250.7790, 14660.00
252.0000, 14858.00
253.2210, 14783.00
254.4410, 14745.00
255.6620, 14789.00
256.8820, 14737.00
258.1020, 14907.00
259.3210, 15478.00
260.5410, 15483.00
261.7600, 14957.00
262.9790, 14459.00
264.1980, 14376.00
265.4170, 14496.00
266.6360, 14304.00
267.8540, 14315.00
269.0720, 14165.00
270.2900, 14328.00
271.5080, 14205.00
272.7260, 14197.00
273.9430, 14391.00
275.1600, 14441.00
276.3770, 14285.00
277.5940, 14426.00
278.8100, 14609.00
280.0270, 14599.00
281.2430, 14786.00
282.4590, 14967.00
283.6750, 15129.00
284.8910, 15206.00
286.1060, 15356.00
287.3210, 15516.00
288.5360, 15824.00
289.7510, 16270.00
290.9660, 16360.00
292.1800, 16551.00
293.3950, 16819.00
294.6090, 16956.83
295.8230, 17189.56
297.0360, 17378.00
298.2500, 17622.00
299.4630, 17911.00
300.6760, 18179.00
301.8890, 18361.00
303.1020, 18669.00
304.3150, 18984.00
305.5270, 19269.61
306.7390, 19638.00
307.9510, 19911.00
309.1630, 20332.00
310.3750, 20632.00
311.5860, 21000.00
312.7970, 21696.00
314.0080, 22466.00
315.2190, 22692.00
316.4300, 23094.00
317.6400, 24222.00
318.8510, 24689.00
320.0610, 25257.00
321.2710, 26041.00
322.4800, 26899.00
323.6900, 27655.00
324.8990, 28252.00
326.1080, 28713.00
327.3170, 29575.00
328.5260, 30139.00
329.7340, 30485.00
330.9430, 30604.00
332.1510, 31185.00
333.3590, 31331.00
334.5670, 31244.00
335.7740, 31279.00
336.9820, 31181.00
338.1890, 30814.00
339.3960, 30700.00
340.6030, 30414.00
341.8100, 30192.00
343.0160, 29977.00
344.2220, 29810.00
345.4280, 29702.00
346.6340, 29544.00
347.8400, 29363.00
349.0460, 29526.00
350.2510, 29417.00
351.4560, 29561.00
352.6610, 29583.00
353.8660, 29575.00
355.0700, 29612.00
356.2750, 29663.00
357.4790, 29646.00
358.6830, 29620.69
359.8870, 29543.82
361.0910, 29466.44
362.2940, 29255.07
363.4970, 29072.00
364.7000, 28775.00
365.9030, 28296.00
367.1060, 28258.00
368.3080, 27907.00
369.5110, 27786.00
370.7130, 27443.00
371.9150, 27206.02
373.1170, 27037.21
374.3180, 26766.00
375.5200, 26675.00
376.7210, 26628.00
377.9220, 26460.00
379.1230, 26655.00
380.3230, 26519.00
381.5240, 26655.00
382.7240, 26962.00
383.9240, 27486.00
385.1240, 27939.00
386.3240, 28237.00
387.5230, 28921.00
388.7230, 29390.00
389.9220, 29725.00
391.1210, 30371.00
392.3200, 30919.00
393.5180, 30862.00
394.7170, 31199.00
395.9150, 30976.00
397.1130, 30291.00
398.3110, 29692.00
399.5080, 28952.00
400.7060, 28057.00
401.9030, 27189.00
403.1000, 25795.00
404.2970, 24525.00
405.4940, 23242.00
406.6910, 22303.00
407.8870, 21058.00
409.0830, 20127.00
410.2790, 19113.00
411.4750, 18554.00
412.6710, 17612.00
413.8660, 17182.00
415.0610, 16495.00
416.2560, 16064.00
417.4510, 15916.00
418.6460, 15563.00
419.8410, 15289.00
421.0350, 15129.00
422.2290, 14887.00
423.4230, 14769.00
424.6170, 14597.00
425.8100, 14423.00
427.0040, 14372.00
428.1970, 14198.00
429.3900, 14212.00
430.5830, 13980.00
431.7760, 13953.00
432.9680, 13944.00
434.1610, 13948.00
435.3530, 13806.00
436.5450, 13727.00
437.7360, 13723.00
438.9280, 13699.00
440.1190, 13684.00
441.3110, 13655.00
442.5020, 13417.00
443.6930, 13358.00
444.8830, 13343.00
446.0740, 13325.00
447.2640, 13304.58
448.4540, 13496.00
449.6440, 13316.00
450.8340, 13410.00
452.0240, 13481.00
453.2130, 13368.00
454.4020, 13574.00
455.5910, 13301.00
456.7800, 13611.00
457.9690, 13660.00
459.1570, 13626.00
460.3460, 13846.00
461.5340, 13817.00
462.7220, 13811.00
463.9090, 13966.00
465.0970, 13848.00
466.2840, 14058.00
467.4720, 14059.00
468.6590, 14079.00
469.8460, 13975.00
471.0320, 14137.00
472.2190, 14025.00
473.4050, 14108.00
474.5910, 14134.00
475.7770, 14231.00
476.9630, 13976.00
478.1490, 13993.00
479.3340, 14004.00
480.5190, 14185.00
481.7040, 13866.00
482.8890, 14179.00
484.0740, 14125.00
485.2580, 13834.00
486.4430, 13907.00
487.6270, 13907.00
488.8110, 13977.00
489.9950, 14032.00
491.1780, 14084.00
492.3620, 14065.26
493.5450, 13916.00
494.7280, 14040.00
495.9110, 13963.00
497.0940, 14039.00
498.2760, 14013.00
499.4590, 14063.00
500.6410, 13962.00
501.8230, 14173.00
503.0050, 14262.00
504.1860, 14083.00
505.3680, 14280.00
506.5490, 14161.00
507.7300, 14387.00
508.9110, 14481.00
510.0920, 14550.00
511.2730, 14734.00
512.4530, 14768.00
513.6330, 14819.00
514.8130, 15130.00
515.9930, 15211.00
517.1730, 15092.00
518.3520, 15222.00
519.5320, 15448.00
520.7110, 15543.00
521.8900, 15721.00
523.0690, 15669.00
524.2470, 15873.00
525.4260, 16120.00
526.6040, 16149.07
527.7820, 16493.00
528.9600, 16427.00
530.1380, 16431.00
531.3150, 16693.00
532.4930, 16690.00
533.6700, 16886.00
534.8470, 17011.00
536.0240, 16954.00
537.2000, 16907.00
538.3770, 16950.00
539.5530, 17060.00
540.7290, 16977.65
541.9050, 17109.00
543.0810, 16831.00
544.2570, 16840.00
545.4320, 16643.00
546.6080, 16842.00
547.7830, 16714.00
548.9580, 16790.00
550.1320, 16694.00
551.3070, 16530.00
552.4810, 16774.00
553.6550, 16640.00
554.8300, 16484.00
556.0030, 16730.00
557.1770, 16683.00
558.3510, 16432.00
559.5240, 16565.00
560.6970, 16353.00
561.8700, 16106.00
563.0430, 15818.00
564.2160, 15702.00
565.3880, 15376.00
566.5600, 15291.00
567.7320, 15181.00
568.9040, 14725.00
570.0760, 14769.00
571.2480, 14430.00
572.4190, 14354.00
573.5900, 14161.00
574.7610, 13998.00
575.9320, 13664.00
577.1030, 13775.00
578.2740, 13538.00
579.4440, 13492.00
580.6140, 13207.00
581.7840, 13116.00
582.9540, 12797.00
584.1240, 12706.00
585.2930, 12505.00
586.4630, 12340.00
587.6320, 12157.00
588.8010, 12007.00
589.9700, 11721.00
591.1380, 11465.00
592.3070, 11372.00
593.4750, 11227.00
594.6430, 11325.00
595.8110, 11007.00
596.9790, 10961.00
598.1460, 10727.00
599.3140, 10630.00
600.4810, 10608.00
601.6480, 10506.00
602.8150, 10537.00
603.9820, 10493.00
605.1480, 10496.00
606.3150, 10546.00
607.4810, 10529.00
608.6470, 10638.00
609.8130, 10738.00
610.9790, 10792.00
612.1440, 10843.43
613.3100, 10820.00
614.4750, 10924.00
615.6400, 11013.00
616.8050, 11123.00
617.9690, 11232.83
619.1340, 11339.00
620.2980, 11469.00
621.4620, 11522.00
622.6260, 11647.00
623.7900, 11668.00
624.9540, 11886.00
626.1170, 12181.00
627.2810, 12467.00
628.4440, 12541.00
629.6070, 12870.00
630.7690, 13035.00
631.9320, 13275.00
633.0950, 13588.00
634.2570, 13818.00
635.4190, 14227.00
636.5810, 14676.00
637.7430, 14874.00
638.9040, 15322.00
640.0660, 15844.00
641.2270, 16272.00
642.3880, 16719.00
643.5490, 17338.00
644.7100, 17961.00
645.8700, 18641.00
647.0310, 19619.00
648.1910, 20586.00
649.3510, 21719.00
650.5110, 23103.00
651.6710, 24454.00
652.8300, 26109.00
653.9900, 28221.00
655.1490, 30338.00
656.3080, 32790.00
657.4670, 35268.00
658.6250, 38199.00
659.7840, 41237.00
660.9420, 44268.00
662.1010, 47563.00
663.2590, 50249.00
664.4170, 53149.00
665.5740, 54662.00
666.7320, 55808.00
667.8890, 55916.00
669.0460, 54829.22
670.2030, 53134.00
671.3600, 50547.00
672.5170, 47727.00
673.6740, 44370.00
674.8300, 41579.00
675.9860, 37770.00
677.1420, 35181.00
678.2980, 32595.00
679.4540, 29982.00
680.6090, 27967.00
681.7650, 25919.00
682.9200, 24337.00
684.0750, 22763.00
685.2300, 21641.00
686.3840, 20480.00
687.5390, 19351.00
688.6930, 18663.00
689.8470, 17758.00
691.0010, 17275.00
692.1550, 16601.00
693.3090, 16059.00
694.4620, 15655.54
695.6160, 15343.00
696.7690, 14908.00
697.9220, 14569.00
699.0750, 14243.00
700.2280, 14043.00
701.3800, 14021.00
702.5320, 13583.00
703.6850, 13389.00
704.8370, 13357.00
705.9880, 13057.00
707.1400, 12924.00
708.2920, 12835.00
709.4430, 12731.00
710.5940, 12605.00
711.7450, 12581.00
712.8960, 12239.00
714.0470, 12095.00
715.1970, 11992.00
716.3480, 11867.00
717.4980, 11786.00
718.6480, 11632.00
719.7980, 11534.00
720.9470, 11408.00
722.0970, 11284.72
723.2460, 11225.00
724.3960, 11051.00
725.5450, 10995.00
726.6940, 10889.00
727.8420, 10770.00
728.9910, 10841.00
730.1390, 10592.00
731.2870, 10643.00
732.4350, 10544.00
733.5830, 10473.00
734.7310, 10443.00
735.8790, 10507.00
737.0260, 10391.00
738.1730, 10263.00
739.3200, 10415.00
740.4670, 10369.00
741.6140, 10496.00
742.7610, 10567.00
743.9070, 10468.00
745.0530, 10520.00
746.1990, 10625.00
747.3450, 10647.00
748.4910, 10610.00
749.6370, 10603.00
750.7820, 10791.00
751.9270, 10794.14
753.0720, 11028.00
754.2170, 10972.00
755.3620, 11059.00
756.5070, 11158.00
757.6510, 11229.36
758.7950, 11626.00
759.9400, 11403.00
761.0840, 11710.00
762.2270, 11664.00
763.3710, 11763.00
764.5140, 11724.00
765.6580, 12000.00
766.8010, 11975.00
767.9440, 12061.00
769.0870, 11964.00
770.2290, 12096.00
771.3720, 12298.00
772.5140, 12302.00
773.6560, 12292.00
774.7990, 12352.00
775.9400, 12427.00
777.0820, 12437.00
778.2240, 12358.00
779.3650, 12510.00
780.5060, 12455.00
781.6470, 12501.00
782.7880, 12615.00
783.9290, 12489.00
785.0690, 12646.00
786.2100, 12598.00
787.3500, 12736.00
788.4900, 12649.00
789.6300, 12792.00
790.7700, 12755.00
791.9090, 12704.00
793.0490, 12670.00
794.1880, 12672.00
795.3270, 12803.00
796.4660, 12825.00
797.6050, 12953.00
798.7440, 12911.00
799.8820, 12839.00
801.0200, 13015.00
802.1590, 13072.00
803.2970, 12978.00
804.4340, 13069.00
805.5720, 13083.79
806.7100, 13207.00
807.8470, 13192.00
808.9840, 13276.00
810.1210, 13365.00
811.2580, 13424.00
812.3950, 13465.00
813.5310, 13525.00
814.6680, 13521.00
815.8040, 13648.00
816.9400, 13603.00
818.0760, 13694.00
819.2120, 13716.00
820.3470, 13788.00
821.4830, 13810.00
822.6180, 13767.00
823.7530, 13697.00
824.8880, 13765.00
826.0230, 13578.00
827.1580, 13579.00
828.2920, 13646.00
829.4270, 13724.00
830.5610, 13504.00
831.6950, 13442.00
832.8290, 13495.00
833.9620, 13451.00
835.0960, 13437.14
836.2290, 13477.00
837.3620, 13424.00
838.4950, 13304.00
839.6280, 13346.00
840.7610, 13318.00
841.8940, 13216.00
843.0260, 13301.00
844.1580, 13298.00
845.2910, 13391.00
846.4230, 13321.00
847.5540, 13346.00
848.6860, 13518.00
849.8170, 13432.00
850.9490, 13802.00
852.0800, 13867.00
853.2110, 14110.00
854.3420, 14234.00
855.4730, 14508.00
856.6030, 14449.00
857.7340, 14819.00
858.8640, 14931.00
859.9940, 15113.00
861.1240, 15330.00
862.2540, 15670.00
863.3830, 15727.00
864.5130, 16062.00
865.6420, 16030.00
866.7710, 16128.00
867.9000, 16228.00
869.0290, 16329.00
870.1570, 16159.00
871.2860, 16291.00
872.4140, 16519.00
873.5430, 16346.00
874.6710, 16473.00
875.7980, 16676.00
876.9260, 16447.00
878.0540, 16450.00
879.1810, 16563.00
880.3080, 16292.00
881.4360, 16276.00
882.5630, 16168.00
883.6890, 16394.00
884.8160, 16156.00
885.9420, 16102.00
887.0690, 16324.00
888.1950, 16217.00
889.3210, 16200.00
890.4470, 16270.00
891.5730, 16049.00
892.6980, 16156.00
893.8240, 16146.00
894.9490, 15962.00
896.0740, 16096.00
897.1990, 15990.00
898.3240, 16164.00
899.4480, 15952.00
900.5730, 16052.00
901.6970, 16177.00
902.8210, 15964.00
903.9450, 16099.00
905.0690, 16089.00
906.1930, 15999.00
907.3160, 15996.00
908.4400, 16059.00
909.5630, 16061.00
910.6860, 16151.00
911.8090, 16147.00
912.9320, 16254.00
914.0550, 16102.00
915.1770, 16186.00
916.2990, 16023.00
917.4210, 16335.00
918.5440, 16214.00
919.6650, 16423.00
920.7870, 16285.00
921.9090, 16456.00
923.0300, 16465.00
924.1510, 16446.00
925.2720, 16503.00
926.3930, 16532.00
927.5140, 16550.00
928.6350, 16592.35
929.7550, 16622.29
930.8760, 16660.00
931.9960, 16662.00
933.1160, 16707.00
934.2360, 16655.00
935.3550, 16656.00
936.4750, 16722.00
937.5940, 16841.00
938.7140, 16739.00
939.8330, 16640.00
940.9520, 16880.00
942.0710, 16940.00
943.1890, 16975.00
944.3080, 16941.00
945.4260, 17194.00
946.5440, 17089.00
947.6620, 17306.00
948.7800, 17407.00
949.8980, 17508.00
951.0160, 17624.00
952.1330, 17866.00
953.2500, 17882.00
954.3680, 18045.00
955.4850, 18371.00
956.6010, 18433.00
957.7180, 18574.00
958.8350, 18773.00
959.9510, 18966.00
961.0670, 18998.00
962.1830, 19329.00
963.2990, 19423.00
964.4150, 19807.00
965.5310, 19892.00
966.6460, 20205.00
967.7620, 20245.00
968.8770, 20589.00
969.9920, 20719.00
971.1070, 21156.00
972.2210, 21400.00
973.3360, 21655.00
974.4500, 22168.00
975.5650, 22399.00
976.6790, 22903.00
977.7930, 23141.00
978.9070, 23724.00
980.0200, 24269.00
981.1340, 24648.00
982.2470, 25343.00
983.3610, 26028.00
984.4740, 26469.00
985.5870, 27194.00
986.6990, 28131.00
987.8120, 28803.00
988.9250, 29728.00
990.0370, 30962.00
991.1490, 31946.00
992.2610, 33126.00
993.3730, 34583.00
994.4850, 36040.00
995.5960, 37325.00
996.7080, 39229.00
997.8190, 40532.00
998.9300, 42475.00
1000.041, 43999.00
1001.152, 45652.00
1002.263, 46910.00
1003.373, 48487.00
1004.484, 49293.00
1005.594, 50098.00
1006.704, 50522.00
1007.814, 50029.00
1008.924, 49567.00
1010.034, 49062.00
1011.143, 47961.00
1012.253, 45861.00
1013.362, 44028.00
1014.471, 41777.00
1015.580, 39614.00
1016.689, 37364.00
1017.797, 35195.00
1018.906, 33297.00
1020.014, 31577.00
1021.122, 29893.88
1022.230, 28108.00
1023.338, 26915.00
1024.446, 25765.00
1025.554, 24349.00
1026.661, 23708.00
1027.768, 22755.00
1028.875, 22225.00
1029.983, 21500.00
1031.089, 21072.00
1032.196, 20442.00
1033.303, 20118.00
1034.409, 19745.00
1035.515, 19524.00
1036.622, 19156.14
1037.728, 18722.00
1038.833, 18507.00
1039.939, 18191.00
1041.045, 17879.00
1042.150, 17700.00
1043.255, 17425.00
1044.360, 17107.00
1045.465, 17034.00
1046.570, 16741.00
1047.675, 16400.00
1048.779, 15996.00
1049.884, 15868.00
1050.988, 15585.00
1052.092, 15447.00
1053.196, 15282.00
1054.300, 15032.00
1055.404, 14847.00
1056.507, 14661.00
1057.610, 14525.00
1058.714, 14273.00
1059.817, 14103.00
1060.920, 13959.00
1062.022, 13712.00
1063.125, 13823.00
1064.228, 13458.00
1065.330, 13482.00
1066.432, 13221.00
1067.534, 13090.00
1068.636, 13138.00
1069.738, 12838.00
1070.840, 12940.00
1071.941, 12851.00
1073.042, 12885.00
1074.144, 12665.00
1075.245, 12739.00
1076.346, 12504.00
1077.446, 12535.00
1078.547, 12431.00
1079.647, 12608.00
1080.748, 12475.00
1081.848, 12530.00
1082.948, 12296.00
1084.048, 12503.00
1085.148, 12443.00
1086.247, 12382.00
1087.347, 12267.00
1088.446, 12116.00
1089.545, 12040.00
1090.644, 12150.00
1091.743, 12000.00
1092.842, 12025.00
1093.940, 12027.00
1095.039, 11928.00
1096.137, 11887.00
1097.235, 11872.99
1098.333, 11659.00
1099.431, 11826.00
1100.529, 11715.00
1101.627, 11649.00
1102.724, 11738.00
1103.822, 11705.00
1104.919, 11740.00
1106.016, 11717.00
1107.113, 11672.77
1108.209, 11629.00
1109.306, 11548.00
1110.402, 11535.00
1111.499, 11436.00
1112.595, 11542.00
1113.691, 11349.00
1114.787, 11326.00
1115.883, 11375.00
1116.978, 11235.00
1118.074, 11337.00
1119.169, 11034.00
1120.264, 11032.00
1121.359, 10997.00
1122.454, 10923.00
1123.549, 10849.43
1124.644, 10683.00
1125.738, 10640.00
1126.832, 10492.00
1127.927, 10380.00
1129.021, 10304.00
1130.115, 10168.00
1131.208, 9931.000
1132.302, 9964.000
1133.396, 9739.000
1134.489, 9710.000
1135.582, 9589.000
1136.675, 9450.000
1137.768, 9475.000
1138.861, 9321.699
1139.954, 9411.000
1141.046, 9164.000
1142.138, 9010.000
1143.231, 9019.000
1144.323, 9011.000
1145.415, 8905.000
1146.507, 8733.000
1147.598, 8757.802
1148.690, 8707.000
1149.781, 8737.000
1150.872, 8586.000
1151.964, 8587.000
1153.054, 8626.000
1154.145, 8535.000
1155.236, 8546.601
1156.327, 8460.000
1157.417, 8484.000
1158.507, 8438.000
1159.597, 8388.000
1160.687, 8409.000
1161.777, 8318.000
1162.867, 8371.000
1163.956, 8369.000
1165.046, 8266.000
1166.135, 8307.000
1167.224, 8362.000
1168.313, 8211.000
1169.402, 8324.000
1170.491, 8258.000
1171.580, 8292.000
1172.668, 8251.000
1173.756, 8299.000
1174.845, 8224.000
1175.933, 8326.000
1177.020, 8195.000
1178.108, 8259.000
1179.196, 8211.000
1180.283, 8206.000
1181.371, 8182.000
1182.458, 8178.000
1183.545, 8125.000
1184.632, 8104.146
1185.719, 8172.000
1186.805, 8087.000
1187.892, 8097.000
1188.978, 8203.000
1190.065, 8078.000
1191.151, 8248.000
1192.237, 8141.000
1193.323, 8083.000
1194.408, 8118.000
1195.494, 8163.000
1196.579, 8162.000
1197.664, 8219.000
1198.750, 8135.000
1199.835, 8172.000
1200.919, 8229.000
1202.004, 8130.000
1203.089, 8154.000
1204.173, 8153.000
1205.258, 8132.000
1206.342, 8165.000
1207.426, 8143.000
1208.510, 8066.000
1209.594, 8136.000
1210.677, 8141.000
1211.761, 8145.000
1212.844, 8218.000
1213.927, 8122.000
1215.010, 8154.000
1216.093, 8151.000
1217.176, 8162.000
1218.259, 8240.000
1219.341, 8059.000
1220.424, 8129.000
1221.506, 8073.000
1222.588, 8174.000
1223.670, 8251.000
1224.752, 8177.941
1225.834, 8228.046
1226.915, 8141.000
1227.997, 8142.000
1229.078, 8270.000
1230.159, 8127.000
1231.240, 8032.000
1232.321, 8277.000
1233.402, 8178.000
1234.483, 8248.000
1235.563, 8162.000
1236.644, 8184.000
1237.724, 8186.000
1238.804, 8081.000
1239.884, 8119.000
1240.964, 8187.000
1242.044, 8195.000
1243.123, 8212.731
1244.203, 8353.000
1245.282, 8203.000
1246.361, 8178.000
1247.440, 8153.812
1248.519, 8458.000
1249.598, 8159.000
1250.676, 8326.000
1251.755, 8249.000
1252.833, 8254.000
1253.911, 8128.000
1254.989, 8246.000
1256.067, 8233.000
1257.145, 8176.000
1258.223, 8271.000
1259.300, 8265.000
1260.378, 8160.000
1261.455, 8278.000
1262.532, 8245.000
1263.609, 8225.000
1264.686, 8363.000
1265.763, 8425.000
1266.840, 8393.000
1267.916, 8259.000
1268.992, 8219.000
1270.069, 8293.000
1271.145, 8274.000
1272.221, 8308.000
1273.296, 8263.000
1274.372, 8163.000
1275.448, 8246.000
1276.523, 8403.000
1277.598, 8123.000
1278.673, 8257.000
1279.749, 8366.000
1280.823, 8282.000
1281.898, 8359.000
1282.973, 8176.000
1284.047, 8352.000
1285.122, 8338.000
1286.196, 8242.000
1287.270, 8346.000
1288.344, 8356.000
1289.418, 8253.000
1290.491, 8345.000
1291.565, 8375.000
1292.638, 8446.000
1293.712, 8409.000
1294.785, 8475.000
1295.858, 8371.000
1296.931, 8381.000
1298.003, 8385.000
1299.076, 8500.000
1300.149, 8483.000
1301.221, 8404.000
1302.293, 8519.000
1303.365, 8499.000
1304.437, 8498.000
1305.509, 8467.000
1306.581, 8435.000
1307.652, 8353.000
1308.724, 8527.000
1309.795, 8625.000
1310.866, 8610.000
1311.937, 8642.331
1313.008, 8516.000
1314.079, 8491.000
1315.150, 8543.000
1316.220, 8336.000
1317.291, 8466.000
1318.361, 8505.000
1319.431, 8521.000
1320.501, 8605.000
1321.571, 8542.000
1322.641, 8510.000
1323.710, 8491.000
1324.780, 8481.000
1325.849, 8442.000
1326.918, 8531.000
1327.987, 8511.000
1329.056, 8551.000
1330.125, 8681.000
1331.194, 8492.000
1332.263, 8508.000
1333.331, 8661.000
1334.399, 8427.000
1335.467, 8644.000
1336.535, 8632.000
1337.603, 8664.000
1338.671, 8610.000
1339.739, 8632.000
1340.806, 8591.000
1341.874, 8655.000
1342.941, 8657.000
1344.008, 8670.000
1345.075, 8676.489
1346.142, 8660.839
1347.209, 8647.000
1348.275, 8650.000
1349.342, 8614.000
1350.408, 8661.000
1351.475, 8638.000
1352.541, 8629.309
1353.607, 8593.000
1354.673, 8621.000
1355.738, 8632.000
1356.804, 8672.000
1357.869, 8696.000
1358.935, 8525.000
1360.000, 8548.000
1361.065, 8632.000
1362.130, 8567.000
1363.195, 8700.000
1364.259, 8540.000
1365.324, 8594.000
1366.388, 8561.000
1367.453, 8575.000
1368.517, 8568.000
1369.581, 8478.000
1370.645, 8558.000
1371.709, 8468.000
1372.772, 8541.000
1373.836, 8619.000
1374.899, 8611.000
