##NAMES=Diopside
##RRUFFID=R050666
##IDEAL CHEMISTRY=CaMgSi_2_O_6_
##LOCALITY=Franklin, Sussex County, New Jersey, USA
##OWNER=RRUFF
##SOURCE=University of Arizona Mineral Museum
##DESCRIPTION=Brown cleavage fragment with white hardystonite
##STATUS=The identification of this mineral has been confirmed by X-ray diffraction and chemical analysis
##URL=rruff.info/R050666
##MEASURED CHEMISTRY=Ca(Mg_0.66_Mn_0.33_Fe_0.01_)Si_2_O_6_
##PIN_ID=L00985
##ORIENTATION=Laser parallel to (1 0 1). Fiducial mark perpendicular to laser is parallel to -b [0 -1 0]
124.2880, 22576.00
125.5190, 22653.00
126.7490, 22841.00
127.9790, 23018.00
129.2090, 23070.00
130.4390, 23265.00
131.6680, 23460.00
132.8980, 23467.00
134.1270, 23567.00
135.3560, 23525.00
136.5850, 23651.00
137.8140, 23539.00
139.0430, 23671.00
140.2710, 23645.80
141.5000, 23648.39
142.7280, 23662.00
143.9560, 23691.00
145.1840, 23750.38
146.4120, 23827.00
147.6390, 23958.00
148.8670, 24264.00
150.0940, 24318.00
151.3210, 24532.00
152.5490, 24550.00
153.7750, 24551.00
155.0020, 24498.00
156.2290, 24771.00
157.4550, 24760.00
158.6810, 24686.00
159.9080, 24871.00
161.1340, 24888.00
162.3590, 24795.00
163.5850, 25054.00
164.8110, 25199.00
166.0360, 25440.00
167.2610, 25480.00
168.4860, 25667.00
169.7110, 25548.00
170.9360, 25545.00
172.1610, 25699.00
173.3850, 25734.00
174.6100, 25772.00
175.8340, 25832.00
177.0580, 25841.69
178.2820, 25946.00
179.5050, 25865.00
180.7290, 25818.00
181.9520, 25809.00
183.1760, 25844.00
184.3990, 25796.16
185.6220, 25882.00
186.8450, 25848.00
188.0670, 25909.00
189.2900, 26155.00
190.5120, 26402.00
191.7340, 26145.00
192.9560, 26021.00
194.1780, 26352.00
195.4000, 26215.00
196.6220, 26215.00
197.8430, 26108.00
199.0640, 26312.00
200.2860, 26291.00
201.5070, 26558.00
202.7270, 26657.00
203.9480, 26498.00
205.1690, 26744.00
206.3890, 26523.00
207.6090, 26624.00
208.8290, 26743.00
210.0490, 26619.00
211.2690, 26640.00
212.4890, 26639.00
213.7080, 26791.00
214.9280, 26720.00
216.1470, 26849.00
217.3660, 27033.00
218.5850, 26979.00
219.8030, 27174.00
221.0220, 27144.00
222.2400, 27492.00
223.4590, 27355.00
224.6770, 27512.00
225.8950, 27360.00
227.1120, 27645.00
228.3300, 27683.00
229.5480, 27798.00
230.7650, 27861.85
231.9820, 27729.00
233.1990, 27807.00
234.4160, 27794.00
235.6330, 27590.00
236.8490, 27726.00
238.0660, 27799.00
239.2820, 27744.00
240.4980, 27877.00
241.7140, 27834.00
242.9300, 27743.00
244.1460, 27906.00
245.3610, 27807.00
246.5770, 27738.00
247.7920, 28058.00
249.0070, 27886.00
250.2220, 27839.00
251.4370, 27922.00
252.6510, 27949.00
253.8660, 27910.00
255.0800, 27977.00
256.2940, 28038.00
257.5080, 28140.00
258.7220, 28506.00
259.9360, 28296.00
261.1490, 28094.00
262.3630, 28350.00
263.5760, 28176.00
264.7890, 28207.00
266.0020, 28361.00
267.2150, 28469.00
268.4270, 28273.00
269.6400, 28292.00
270.8520, 28351.00
272.0640, 28355.00
273.2760, 28458.00
274.4880, 28382.00
275.7000, 28635.00
276.9120, 28457.00
278.1230, 28928.00
279.3340, 28569.00
280.5450, 28698.00
281.7560, 28967.00
282.9670, 28888.00
284.1780, 28879.00
285.3880, 29115.00
286.5980, 29139.00
287.8090, 29207.00
289.0190, 29489.00
290.2290, 29503.00
291.4380, 29669.06
292.6480, 29654.00
293.8570, 29893.00
295.0670, 30013.00
296.2760, 30075.00
297.4850, 30270.00
298.6930, 30638.00
299.9020, 31001.00
301.1110, 31411.00
302.3190, 32078.00
303.5270, 32518.00
304.7350, 33571.00
305.9430, 34017.00
307.1510, 34865.00
308.3580, 35772.00
309.5660, 35902.00
310.7730, 36274.00
311.9800, 36711.00
313.1870, 36522.00
314.3940, 36369.00
315.6010, 36384.00
316.8070, 36245.00
318.0130, 35793.00
319.2200, 35638.00
320.4260, 35006.00
321.6310, 34302.00
322.8370, 33884.00
324.0430, 33432.00
325.2480, 33102.00
326.4540, 32670.00
327.6590, 32482.00
328.8640, 31976.00
330.0680, 31936.00
331.2730, 31690.00
332.4780, 31988.00
333.6820, 31644.00
334.8860, 31585.00
336.0900, 31969.00
337.2940, 31415.00
338.4980, 32020.00
339.7010, 31854.00
340.9050, 31721.00
342.1080, 31750.00
343.3110, 31997.00
344.5140, 31842.00
345.7170, 31951.00
346.9200, 32196.00
348.1220, 32240.00
349.3240, 32149.00
350.5270, 32220.00
351.7290, 32233.00
352.9310, 32074.00
354.1320, 31989.00
355.3340, 32005.00
356.5350, 32007.00
357.7370, 32185.00
358.9380, 32195.00
360.1390, 32186.00
361.3400, 32289.00
362.5400, 32765.00
363.7410, 32805.00
364.9410, 33037.00
366.1410, 33794.00
367.3410, 34173.00
368.5410, 34638.00
369.7410, 35507.00
370.9400, 36885.00
372.1400, 38160.00
373.3390, 39743.00
374.5380, 41281.00
375.7370, 42242.00
376.9360, 42753.00
378.1350, 43054.00
379.3330, 42968.00
380.5310, 42774.00
381.7300, 42792.00
382.9280, 41642.00
384.1260, 40782.00
385.3230, 39709.00
386.5210, 38832.00
387.7180, 37571.00
388.9160, 36495.00
390.1130, 35320.00
391.3100, 34298.00
392.5060, 33697.00
393.7030, 33324.00
394.9000, 33123.00
396.0960, 32741.00
397.2920, 32438.00
398.4880, 32118.00
399.6840, 31963.79
400.8800, 32250.00
402.0750, 31808.00
403.2710, 31937.00
404.4660, 32040.00
405.6610, 31658.00
406.8560, 32032.00
408.0510, 31798.00
409.2450, 31814.00
410.4400, 32051.00
411.6340, 31775.00
412.8280, 31770.00
414.0220, 31899.00
415.2160, 31755.00
416.4100, 31732.00
417.6030, 31562.00
418.7970, 31666.00
419.9900, 31872.00
421.1830, 31912.00
422.3760, 32055.00
423.5690, 32045.44
424.7610, 31874.00
425.9540, 31998.00
427.1460, 31809.00
428.3380, 31812.00
429.5300, 31737.00
430.7220, 31876.00
431.9140, 31872.00
433.1050, 31779.00
434.2970, 32125.00
435.4880, 31912.00
436.6790, 32277.00
437.8700, 32122.00
439.0610, 31959.00
440.2510, 31947.00
441.4420, 32004.00
442.6320, 32056.00
443.8220, 32372.00
445.0120, 31921.00
446.2020, 32262.00
447.3910, 32407.00
448.5810, 32171.00
449.7700, 32437.00
450.9600, 32554.00
452.1490, 32374.00
453.3370, 32453.00
454.5260, 32329.00
455.7150, 32451.00
456.9030, 32655.00
458.0910, 32569.00
459.2800, 32352.00
460.4670, 32459.00
461.6550, 32377.00
462.8430, 32398.00
464.0300, 32440.00
465.2180, 32380.00
466.4050, 32396.00
467.5920, 32343.00
468.7790, 32629.00
469.9650, 32482.00
471.1520, 32576.00
472.3380, 32357.00
473.5250, 32498.00
474.7110, 32604.00
475.8970, 32767.00
477.0820, 32542.00
478.2680, 32447.00
479.4540, 32556.00
480.6390, 32575.00
481.8240, 32562.00
483.0090, 32734.00
484.1940, 32512.00
485.3780, 32733.00
486.5630, 32656.00
487.7470, 32765.00
488.9320, 32683.00
490.1160, 33014.00
491.3000, 32963.00
492.4830, 32665.00
493.6670, 33067.00
494.8500, 32826.00
496.0340, 32875.00
497.2170, 33181.00
498.4000, 32998.00
499.5820, 33206.00
500.7650, 33144.00
501.9480, 33350.00
503.1300, 33263.00
504.3120, 33293.00
505.4940, 33390.00
506.6760, 33309.00
507.8580, 33428.00
509.0390, 33387.00
510.2210, 33243.00
511.4020, 33326.00
512.5830, 33691.00
513.7640, 33507.00
514.9450, 33887.00
516.1250, 34040.00
517.3060, 34054.00
518.4860, 34425.00
519.6660, 34411.00
520.8460, 34409.00
522.0260, 34562.00
523.2060, 34455.00
524.3850, 34656.00
525.5650, 34524.00
526.7440, 34075.00
527.9230, 34139.00
529.1020, 34126.00
530.2810, 33722.00
531.4590, 33881.00
532.6380, 33859.00
533.8160, 33833.00
534.9940, 33714.00
536.1720, 33823.00
537.3500, 33656.00
538.5270, 33803.00
539.7050, 33590.00
540.8820, 33823.00
542.0590, 33687.00
543.2360, 33643.00
544.4130, 33917.00
545.5900, 33965.00
546.7660, 34115.00
547.9430, 34309.00
549.1190, 34298.00
550.2950, 34276.00
551.4710, 34330.00
552.6470, 34383.00
553.8220, 34628.00
554.9980, 34141.00
556.1730, 34388.00
557.3480, 34297.00
558.5230, 34065.00
559.6980, 33943.00
560.8730, 33863.45
562.0470, 33797.00
563.2220, 33758.00
564.3960, 33639.00
565.5700, 33641.00
566.7440, 33921.00
567.9170, 33680.00
569.0910, 33793.00
570.2640, 33759.00
571.4380, 33594.00
572.6110, 33727.00
573.7840, 33738.00
574.9570, 33672.00
576.1290, 33739.00
577.3020, 33667.00
578.4740, 33792.00
579.6460, 33622.00
580.8180, 33768.00
581.9900, 34096.00
583.1620, 33883.00
584.3330, 33854.00
585.5040, 33825.00
586.6760, 33751.00
587.8470, 33703.00
589.0180, 33781.00
590.1880, 33940.00
591.3590, 33805.00
592.5290, 33741.00
593.7000, 33968.00
594.8700, 33823.00
596.0400, 33873.00
597.2090, 33819.00
598.3790, 33831.00
599.5490, 33765.00
600.7180, 33866.00
601.8870, 33898.00
603.0560, 33918.00
604.2250, 33961.85
605.3940, 33866.00
606.5620, 33958.00
607.7300, 33963.00
608.8990, 33875.00
610.0670, 33952.00
611.2350, 33952.68
612.4020, 33953.00
613.5700, 34072.00
614.7370, 34097.00
615.9050, 34231.00
617.0720, 34065.00
618.2390, 34163.00
619.4060, 34174.00
620.5720, 34046.00
621.7390, 34200.00
622.9050, 34289.00
624.0710, 34415.00
625.2370, 34145.00
626.4030, 34299.00
627.5690, 34469.00
628.7340, 34142.00
629.9000, 34281.00
631.0650, 34526.00
632.2300, 34706.00
633.3950, 34388.00
634.5600, 34559.00
635.7240, 34769.00
636.8890, 34668.00
638.0530, 34982.00
639.2170, 35040.00
640.3810, 35079.00
641.5450, 35071.00
642.7080, 35632.00
643.8720, 35456.00
645.0350, 35776.00
646.1980, 36274.00
647.3610, 37050.00
648.5240, 37479.00
649.6870, 38179.00
650.8490, 39024.00
652.0120, 40135.00
653.1740, 40780.00
654.3360, 41878.00
655.4980, 42317.00
656.6600, 42582.00
657.8210, 42833.00
658.9830, 42629.00
660.1440, 42496.00
661.3050, 41923.00
662.4660, 41513.00
663.6270, 40563.00
664.7870, 39750.00
665.9480, 39032.00
667.1080, 38182.00
668.2680, 37767.00
669.4280, 36879.00
670.5880, 36467.00
671.7480, 36270.00
672.9070, 35710.00
674.0670, 35902.00
675.2260, 35398.00
676.3850, 35322.00
677.5440, 35056.00
678.7030, 34969.00
679.8610, 34858.85
681.0200, 34916.00
682.1780, 34720.00
683.3360, 34763.00
684.4940, 34782.00
685.6520, 34782.00
686.8090, 34593.00
687.9670, 34702.00
689.1240, 34493.00
690.2810, 34504.00
691.4380, 34474.00
692.5950, 34415.00
693.7520, 34690.00
694.9080, 34562.00
696.0650, 34252.00
697.2210, 34533.00
698.3770, 34182.00
699.5330, 34453.00
700.6880, 34425.00
701.8440, 34251.00
702.9990, 34403.00
704.1550, 34305.00
705.3100, 34272.00
706.4650, 34462.00
707.6190, 34373.00
708.7740, 34469.00
709.9290, 34727.00
711.0830, 34429.00
712.2370, 34230.00
713.3910, 34319.00
714.5450, 34263.00
715.6980, 34460.00
716.8520, 34331.00
718.0050, 34385.00
719.1580, 34129.00
720.3110, 34562.00
721.4640, 34332.00
722.6170, 33941.00
723.7700, 34269.00
724.9220, 34405.00
726.0740, 34295.00
727.2260, 34198.00
728.3780, 34209.00
729.5300, 34320.00
730.6810, 34359.00
731.8330, 34252.00
732.9840, 34359.00
734.1350, 34269.00
735.2860, 34184.00
736.4370, 34334.00
737.5880, 34426.00
738.7380, 34245.00
739.8880, 34014.00
741.0390, 34398.00
742.1890, 34163.00
743.3380, 34407.00
744.4880, 34197.00
745.6380, 34268.00
746.7870, 34416.00
747.9360, 34354.00
749.0850, 34332.00
750.2340, 34183.00
751.3830, 34351.00
752.5310, 34352.00
753.6800, 34433.00
754.8280, 34292.00
755.9760, 34374.00
757.1240, 34325.00
758.2720, 34176.00
759.4190, 34319.00
760.5670, 34049.00
761.7140, 34054.00
762.8610, 34150.00
764.0080, 34278.00
765.1550, 34343.00
766.3020, 34381.00
767.4480, 34114.00
768.5950, 34170.00
769.7410, 34230.00
770.8870, 34068.00
772.0330, 34195.00
773.1780, 34003.00
774.3240, 34252.00
775.4690, 33909.00
776.6140, 34353.00
777.7590, 34305.00
778.9040, 33993.00
780.0490, 34247.00
781.1940, 34071.00
782.3380, 34220.00
783.4820, 34101.00
784.6260, 34361.00
785.7700, 34150.00
786.9140, 34279.00
788.0580, 34380.00
789.2010, 34017.00
790.3450, 34163.00
791.4880, 34112.00
792.6310, 34325.00
793.7730, 34032.00
794.9160, 34022.00
796.0590, 34117.00
797.2010, 34146.00
798.3430, 34132.21
799.4850, 34028.00
800.6270, 34114.00
801.7690, 34043.00
802.9100, 34063.00
804.0520, 33968.00
805.1930, 34104.00
806.3340, 34074.00
807.4750, 34024.00
808.6160, 34090.00
809.7560, 34131.00
810.8970, 33981.00
812.0370, 33871.00
813.1770, 34021.00
814.3170, 34035.00
815.4570, 34096.00
816.5960, 34094.05
817.7360, 34127.00
818.8750, 33994.07
820.0140, 33956.00
821.1530, 33828.00
822.2920, 33917.00
823.4310, 33892.00
824.5690, 33935.00
825.7070, 34236.00
826.8460, 34039.00
827.9840, 33896.00
829.1220, 34143.00
830.2590, 34087.00
831.3970, 33974.00
832.5340, 33761.00
833.6710, 34029.00
834.8080, 34233.00
835.9450, 33958.00
837.0820, 34210.00
838.2190, 33946.00
839.3550, 34139.00
840.4910, 34377.00
841.6270, 34058.00
842.7630, 34038.00
843.8990, 33915.00
845.0350, 34284.00
846.1700, 34214.00
847.3060, 34271.00
848.4410, 34409.00
849.5760, 34196.00
850.7100, 34247.00
851.8450, 34225.00
852.9800, 34130.00
854.1140, 33921.00
855.2480, 33886.00
856.3820, 33948.00
857.5160, 34206.00
858.6500, 34047.00
859.7830, 34121.00
860.9170, 33918.00
862.0500, 34055.00
863.1830, 33875.00
864.3160, 33832.00
865.4480, 34224.00
866.5810, 33896.00
867.7130, 34105.00
868.8460, 34100.00
869.9780, 34153.00
871.1100, 34170.41
872.2410, 34119.80
873.3730, 34116.00
874.5050, 34062.00
875.6360, 34043.00
876.7670, 34140.00
877.8980, 33860.00
879.0290, 33703.00
880.1590, 33953.00
881.2900, 33819.00
882.4200, 33904.00
883.5500, 33636.00
884.6800, 34008.00
885.8100, 33911.00
886.9400, 33967.00
888.0690, 33945.00
889.1990, 33617.00
890.3280, 33880.00
891.4570, 33978.00
892.5860, 33694.00
893.7140, 33964.00
894.8430, 34167.00
895.9710, 33999.00
897.1000, 33750.00
898.2280, 33609.00
899.3560, 33844.00
900.4830, 33855.00
901.6110, 33924.00
902.7380, 33691.00
903.8660, 33603.00
904.9930, 34216.00
906.1200, 33786.00
907.2460, 33782.00
908.3730, 33754.00
909.5000, 33527.00
910.6260, 33616.00
911.7520, 33591.00
912.8780, 33523.00
914.0040, 33641.00
915.1290, 33711.00
916.2550, 33581.00
917.3800, 33676.00
918.5050, 33603.00
919.6300, 33616.00
920.7550, 33339.00
921.8800, 33591.00
923.0040, 33444.00
924.1290, 33395.00
925.2530, 33522.00
926.3770, 33460.00
927.5010, 33403.00
928.6250, 33561.00
929.7480, 33550.00
930.8720, 33469.00
931.9950, 33544.00
933.1180, 33479.50
934.2410, 33304.00
935.3640, 33468.00
936.4860, 33351.00
937.6090, 33433.00
938.7310, 33446.00
939.8530, 33287.00
940.9750, 33538.00
942.0970, 33528.00
943.2180, 33338.00
944.3400, 33242.00
945.4610, 33118.00
946.5820, 33224.00
947.7030, 33237.00
948.8240, 33394.00
949.9450, 33329.00
951.0650, 33253.00
952.1860, 33428.00
953.3060, 33111.00
954.4260, 33466.00
955.5460, 33391.00
956.6650, 33453.00
957.7850, 33178.00
958.9040, 33389.00
960.0230, 33535.00
961.1420, 33859.00
962.2610, 33294.00
963.3800, 33527.00
964.4990, 33587.00
965.6170, 33294.00
966.7350, 33263.00
967.8530, 33342.00
968.9710, 33391.00
970.0890, 33079.00
971.2070, 33293.00
972.3240, 33390.00
973.4410, 33389.00
974.5580, 33639.00
975.6750, 33340.00
976.7920, 33524.00
977.9090, 33692.00
979.0250, 33445.00
980.1410, 33405.00
981.2580, 33615.00
982.3740, 33336.00
983.4890, 33747.00
984.6050, 33728.00
985.7200, 33860.00
986.8360, 33780.00
987.9510, 34079.00
989.0660, 34160.00
990.1810, 34141.00
991.2950, 34440.00
992.4100, 34704.00
993.5240, 34836.00
994.6390, 35197.00
995.7530, 35337.00
996.8660, 36036.00
997.9800, 36501.00
999.0940, 37741.00
1000.207, 38862.00
1001.320, 40058.00
1002.433, 42066.00
1003.546, 44890.00
1004.659, 48447.00
1005.772, 52401.00
1006.884, 57522.00
1007.996, 61325.00
1009.108, 64413.00
1010.220, 65397.00
1011.332, 65364.00
1012.444, 63741.00
1013.555, 61218.00
1014.666, 57871.00
1015.777, 54597.00
1016.888, 50400.00
1017.999, 46450.00
1019.110, 43402.00
1020.220, 40954.00
1021.331, 38913.00
1022.441, 37802.00
1023.551, 36810.00
1024.661, 36200.00
1025.770, 35619.00
1026.880, 35251.00
1027.989, 35029.00
1029.098, 35015.00
1030.207, 34828.00
1031.316, 34664.00
1032.425, 34646.00
1033.533, 34640.00
1034.642, 34841.00
1035.750, 34716.00
1036.858, 34766.00
1037.966, 34858.00
1039.073, 34639.00
1040.181, 34589.00
1041.288, 34234.00
1042.396, 34107.00
1043.503, 33905.00
1044.610, 33876.00
1045.716, 33285.00
1046.823, 33283.00
1047.929, 33091.00
1049.036, 33090.00
1050.142, 32924.31
1051.248, 32757.00
1052.353, 32734.00
1053.459, 32601.00
1054.564, 32764.00
1055.670, 32497.00
1056.775, 32496.00
1057.880, 32521.00
1058.985, 32280.00
1060.089, 32223.00
1061.194, 32102.00
1062.298, 32109.00
1063.402, 32038.00
1064.506, 32155.00
1065.610, 32084.00
1066.713, 31996.00
1067.817, 32013.00
1068.920, 31756.00
1070.023, 31924.00
1071.126, 31763.00
1072.229, 31884.00
1073.332, 31819.00
1074.435, 31896.00
1075.537, 32073.00
1076.639, 31918.00
1077.741, 31867.00
1078.843, 31874.00
1079.945, 31741.00
1081.046, 31717.00
1082.148, 31703.00
1083.249, 31658.27
1084.350, 31640.57
1085.451, 31657.00
1086.551, 31615.00
1087.652, 31640.00
1088.752, 31689.00
1089.853, 31559.00
1090.953, 31610.00
1092.053, 31408.00
1093.152, 31553.00
1094.252, 31668.00
1095.351, 31432.00
1096.451, 31389.00
1097.550, 31524.00
1098.649, 31401.00
1099.748, 31304.00
1100.846, 31380.00
1101.945, 31470.00
1103.043, 31618.00
1104.141, 31170.00
1105.239, 31547.00
1106.337, 31382.00
1107.434, 31106.00
1108.532, 31410.00
1109.629, 31197.00
1110.726, 31192.00
1111.823, 31230.00
1112.920, 31117.00
1114.017, 31165.00
1115.113, 31171.00
1116.210, 31307.00
1117.306, 31590.00
1118.402, 31296.00
1119.498, 31330.00
1120.593, 31226.00
1121.689, 31489.00
1122.784, 31079.00
1123.879, 31205.00
1124.974, 31213.00
1126.069, 31147.00
1127.164, 31255.00
1128.259, 31024.00
1129.353, 30959.00
1130.447, 30764.00
1131.541, 30688.00
1132.635, 30765.00
1133.729, 31042.00
1134.822, 30864.00
1135.916, 30844.00
1137.009, 30865.00
1138.102, 30745.00
1139.195, 30675.00
1140.288, 30628.00
1141.380, 30588.48
1142.473, 30559.00
1143.565, 30584.00
1144.657, 30621.00
1145.749, 30658.00
1146.841, 30569.00
1147.932, 30534.00
1149.024, 30446.00
1150.115, 30292.00
1151.206, 30264.00
1152.297, 30294.00
1153.388, 30224.00
1154.479, 30436.00
1155.569, 30341.00
1156.659, 30102.00
1157.750, 30481.00
1158.839, 29975.00
1159.929, 29992.00
1161.019, 30129.00
1162.108, 30355.00
1163.198, 30170.00
1164.287, 29918.00
1165.376, 29918.00
1166.465, 29859.38
1167.553, 29814.00
1168.642, 29947.00
1169.730, 29938.00
1170.818, 30008.00
1171.906, 30248.00
1172.994, 29901.00
1174.082, 29777.00
1175.170, 29950.00
1176.257, 29789.00
1177.344, 30101.00
1178.431, 29773.00
1179.518, 29792.00
1180.605, 29803.00
1181.691, 29974.00
1182.778, 29791.00
1183.864, 29827.00
1184.950, 29590.00
1186.036, 29665.00
1187.122, 29781.00
1188.207, 29645.00
1189.292, 29697.00
1190.378, 29916.00
1191.463, 29618.00
1192.548, 29608.00
1193.632, 29723.00
1194.717, 29489.00
1195.801, 29633.00
1196.886, 29498.00
1197.970, 29762.00
1199.054, 29543.00
1200.137, 29601.00
1201.221, 29561.00
1202.305, 29556.00
1203.388, 29335.00
1204.471, 29575.00
1205.554, 29341.00
1206.637, 29487.00
1207.719, 29328.00
1208.802, 29300.00
1209.884, 29475.00
1210.966, 29401.00
1212.048, 29485.00
1213.130, 29428.00
1214.212, 29263.00
1215.293, 29183.00
1216.374, 29362.00
1217.456, 29066.00
1218.536, 29263.00
1219.617, 29230.00
1220.698, 28945.00
1221.778, 29201.00
1222.859, 29379.00
1223.939, 28992.00
1225.019, 29031.00
1226.099, 29282.00
1227.178, 29076.00
1228.258, 29054.00
1229.337, 28833.00
1230.417, 28895.00
1231.496, 28830.00
1232.574, 28742.78
1233.653, 28992.00
1234.732, 28735.00
1235.810, 28663.00
1236.888, 28893.00
1237.966, 28920.00
1239.044, 28876.00
1240.122, 28696.00
1241.199, 28854.00
1242.277, 28797.00
1243.354, 28876.00
1244.431, 28618.00
1245.508, 28719.00
1246.585, 28779.00
1247.661, 28597.00
1248.738, 28656.00
1249.814, 28920.00
1250.890, 28216.00
1251.966, 28645.00
1253.042, 28377.00
1254.117, 28602.00
1255.193, 28365.00
1256.268, 28384.00
1257.343, 28432.00
1258.418, 28365.00
1259.493, 28446.00
1260.567, 28183.00
1261.642, 28236.00
1262.716, 28255.00
1263.790, 28351.00
1264.864, 28367.00
1265.938, 28148.00
1267.011, 28220.00
1268.085, 28460.00
1269.158, 28195.00
1270.231, 28202.00
1271.304, 28033.00
1272.377, 28470.00
1273.450, 27900.00
1274.522, 28246.00
1275.594, 28291.00
1276.666, 27935.00
1277.738, 27810.00
1278.810, 27972.00
1279.882, 27866.00
1280.953, 28037.00
1282.025, 27976.00
1283.096, 27847.00
1284.167, 27863.00
1285.238, 27928.00
1286.308, 27686.00
1287.379, 27869.00
1288.449, 27911.00
1289.519, 27806.00
1290.589, 27757.00
1291.659, 27842.00
1292.729, 27663.00
1293.798, 27700.00
1294.868, 27648.00
1295.937, 27538.00
1297.006, 27593.00
1298.075, 27679.00
1299.143, 27738.00
1300.212, 27488.00
