##NAMES=Diopside
##RRUFFID=R060171
##IDEAL CHEMISTRY=CaMgSi_2_O_6_
##LOCALITY=Jeffrey mine, Asbestos, Quebec, Canada
##OWNER=RRUFF
##SOURCE=Guy Ouellet
##DESCRIPTION=Yellowish-brown tabular crystals associated with vesuvianite, R060170
##STATUS=The identification of this mineral has been confirmed by X-ray diffraction and chemical analysis
##URL=rruff.info/R060171
##MEASURED CHEMISTRY=Ca_1.00_(Mg_0.98_Mn_0.02_)_Î£=1_Si_2.00_O_6_
##PIN_ID=L01396
##ORIENTATION=Laser parallel to -a* (-1 0 0). Fiducial mark perpendicular to laser is parallel to b [0 1 0]
129.2090, 16493.00
130.4390, 16585.00
131.6680, 16841.00
132.8980, 16795.00
134.1270, 16817.00
135.3560, 17162.00
136.5850, 17177.00
137.8140, 17486.00
139.0430, 17576.00
140.2710, 17678.00
141.5000, 17642.00
142.7280, 17691.00
143.9560, 17638.00
145.1840, 17557.00
146.4120, 17480.00
147.6390, 17465.00
148.8670, 17484.00
150.0940, 17529.00
151.3210, 17593.60
152.5490, 17708.00
153.7750, 17747.00
155.0020, 17766.00
156.2290, 17773.95
157.4550, 17831.00
158.6810, 17838.00
159.9080, 17873.00
161.1340, 17891.00
162.3590, 18002.00
163.5850, 17930.00
164.8110, 18210.00
166.0360, 18163.00
167.2610, 18133.00
168.4860, 18076.00
169.7110, 18229.00
170.9360, 18286.00
172.1610, 18350.00
173.3850, 18529.00
174.6100, 18373.00
175.8340, 18353.00
177.0580, 18478.00
178.2820, 18732.00
179.5050, 18983.00
180.7290, 18854.00
181.9520, 18747.00
183.1760, 18633.00
184.3990, 18599.00
185.6220, 18652.00
186.8450, 18879.00
188.0670, 18703.00
189.2900, 18882.00
190.5120, 18821.00
191.7340, 18976.00
192.9560, 18936.00
194.1780, 18941.00
195.4000, 18896.00
196.6220, 18982.00
197.8430, 19046.00
199.0640, 19029.00
200.2860, 18961.00
201.5070, 19184.00
202.7270, 19079.00
203.9480, 19173.00
205.1690, 19255.00
206.3890, 19257.97
207.6090, 19214.00
208.8290, 19326.00
210.0490, 19318.00
211.2690, 19264.00
212.4890, 19099.00
213.7080, 19146.00
214.9280, 19347.00
216.1470, 19504.00
217.3660, 19350.00
218.5850, 19502.00
219.8030, 19417.00
221.0220, 19522.00
222.2400, 19620.00
223.4590, 19622.00
224.6770, 19776.00
225.8950, 19768.00
227.1120, 19939.00
228.3300, 19894.00
229.5480, 19929.00
230.7650, 20046.00
231.9820, 20133.00
233.1990, 20016.00
234.4160, 20247.00
235.6330, 19909.00
236.8490, 19957.00
238.0660, 19868.00
239.2820, 20082.00
240.4980, 20006.00
241.7140, 19996.00
242.9300, 20026.00
244.1460, 20204.00
245.3610, 19992.00
246.5770, 20140.00
247.7920, 20038.00
249.0070, 20222.00
250.2220, 20254.00
251.4370, 20177.00
252.6510, 20437.00
253.8660, 20461.00
255.0800, 20292.00
256.2940, 20428.00
257.5080, 20368.00
258.7220, 20356.00
259.9360, 20350.00
261.1490, 20334.00
262.3630, 20419.00
263.5760, 20372.00
264.7890, 20242.00
266.0020, 20411.00
267.2150, 20452.00
268.4270, 20326.00
269.6400, 20389.00
270.8520, 20668.00
272.0640, 20444.00
273.2760, 20571.00
274.4880, 20471.00
275.7000, 20646.00
276.9120, 20606.00
278.1230, 20827.00
279.3340, 20666.00
280.5450, 20722.00
281.7560, 20658.00
282.9670, 20704.00
284.1780, 20824.00
285.3880, 20857.00
286.5980, 20981.00
287.8090, 20920.00
289.0190, 20918.00
290.2290, 21005.00
291.4380, 21127.00
292.6480, 21095.00
293.8570, 21015.00
295.0670, 21244.00
296.2760, 21194.00
297.4850, 21125.00
298.6930, 21418.00
299.9020, 21378.00
301.1110, 21540.00
302.3190, 21490.00
303.5270, 21568.00
304.7350, 21460.00
305.9430, 21603.00
307.1510, 21859.00
308.3580, 21723.00
309.5660, 21962.00
310.7730, 21731.00
311.9800, 22090.00
313.1870, 22183.00
314.3940, 22601.00
315.6010, 22813.00
316.8070, 23268.00
318.0130, 23491.00
319.2200, 24029.00
320.4260, 24534.00
321.6310, 24693.00
322.8370, 24785.00
324.0430, 24319.00
325.2480, 24107.00
326.4540, 23388.00
327.6590, 22994.00
328.8640, 22908.00
330.0680, 22710.00
331.2730, 22315.00
332.4780, 22378.00
333.6820, 22108.00
334.8860, 22076.00
336.0900, 21952.00
337.2940, 22155.00
338.4980, 22065.00
339.7010, 22090.00
340.9050, 22158.00
342.1080, 22159.00
343.3110, 22116.00
344.5140, 22195.00
345.7170, 22086.00
346.9200, 22232.00
348.1220, 22428.00
349.3240, 22369.00
350.5270, 22323.00
351.7290, 22373.00
352.9310, 22641.00
354.1320, 22645.00
355.3340, 22658.00
356.5350, 22628.00
357.7370, 22563.00
358.9380, 22503.00
360.1390, 22469.00
361.3400, 22545.99
362.5400, 22617.00
363.7410, 22713.00
364.9410, 22737.41
366.1410, 22793.09
367.3410, 22761.00
368.5410, 22859.00
369.7410, 22817.00
370.9400, 22846.00
372.1400, 22707.00
373.3390, 22675.00
374.5380, 22794.00
375.7370, 23022.00
376.9360, 23110.00
378.1350, 23297.00
379.3330, 23490.00
380.5310, 23705.00
381.7300, 24107.00
382.9280, 24377.00
384.1260, 24769.00
385.3230, 25193.00
386.5210, 25767.00
387.7180, 25719.00
388.9160, 25862.00
390.1130, 25583.00
391.3100, 25288.00
392.5060, 24632.00
393.7030, 24064.00
394.9000, 23990.00
396.0960, 23803.00
397.2920, 23381.00
398.4880, 23688.00
399.6840, 23311.00
400.8800, 23182.00
402.0750, 23400.00
403.2710, 23444.00
404.4660, 23367.00
405.6610, 23457.00
406.8560, 23416.00
408.0510, 23207.00
409.2450, 23133.00
410.4400, 23398.00
411.6340, 23144.00
412.8280, 23416.00
414.0220, 23507.00
415.2160, 23368.00
416.4100, 23381.00
417.6030, 23422.00
418.7970, 23488.00
419.9900, 23508.93
421.1830, 23496.00
422.3760, 23598.00
423.5690, 23542.00
424.7610, 23611.00
425.9540, 23547.00
427.1460, 23706.00
428.3380, 23622.00
429.5300, 23599.00
430.7220, 23600.00
431.9140, 23746.00
433.1050, 23530.00
434.2970, 24018.00
435.4880, 23621.00
436.6790, 23968.00
437.8700, 23758.00
439.0610, 23896.00
440.2510, 23863.00
441.4420, 23680.00
442.6320, 23982.00
443.8220, 23907.00
445.0120, 23866.00
446.2020, 24020.00
447.3910, 23940.00
448.5810, 23991.00
449.7700, 23868.00
450.9600, 23999.00
452.1490, 24008.00
453.3370, 24021.00
454.5260, 24093.00
455.7150, 23969.00
456.9030, 24188.00
458.0910, 24053.00
459.2800, 24391.00
460.4670, 24139.00
461.6550, 24274.00
462.8430, 24196.00
464.0300, 24368.00
465.2180, 24225.00
466.4050, 24432.00
467.5920, 24347.00
468.7790, 24425.00
469.9650, 24495.00
471.1520, 24532.00
472.3380, 24609.00
473.5250, 24376.00
474.7110, 24340.00
475.8970, 24477.00
477.0820, 24555.00
478.2680, 24693.00
479.4540, 24530.00
480.6390, 24743.00
481.8240, 24488.00
483.0090, 24690.00
484.1940, 24708.00
485.3780, 24622.00
486.5630, 24843.00
487.7470, 24688.00
488.9320, 24944.00
490.1160, 24759.00
491.3000, 24681.00
492.4830, 24878.00
493.6670, 24777.00
494.8500, 24775.00
496.0340, 24809.00
497.2170, 24923.00
498.4000, 24930.00
499.5820, 25050.00
500.7650, 25115.00
501.9480, 24968.00
503.1300, 25009.00
504.3120, 25068.00
505.4940, 25186.00
506.6760, 25461.00
507.8580, 25416.00
509.0390, 25235.00
510.2210, 25432.00
511.4020, 25303.00
512.5830, 25080.00
513.7640, 25358.00
514.9450, 25286.00
516.1250, 25395.00
517.3060, 25552.00
518.4860, 25414.00
519.6660, 25411.00
520.8460, 25393.00
522.0260, 25629.00
523.2060, 25732.00
524.3850, 25697.00
525.5650, 25792.00
526.7440, 25853.00
527.9230, 25712.00
529.1020, 25790.00
530.2810, 25844.00
531.4590, 25719.00
532.6380, 25863.00
533.8160, 25601.00
534.9940, 25866.00
536.1720, 25777.00
537.3500, 25842.00
538.5270, 25842.00
539.7050, 25949.00
540.8820, 25739.00
542.0590, 25652.00
543.2360, 25683.00
544.4130, 25963.00
545.5900, 25825.00
546.7660, 25865.00
547.9430, 25770.00
549.1190, 25976.00
550.2950, 25869.00
551.4710, 26221.00
552.6470, 25889.00
553.8220, 25942.00
554.9980, 25948.00
556.1730, 26307.00
557.3480, 25940.00
558.5230, 26145.00
559.6980, 26287.00
560.8730, 26259.00
562.0470, 26306.00
563.2220, 26050.00
564.3960, 26058.00
565.5700, 26149.00
566.7440, 26306.00
567.9170, 26249.00
569.0910, 26388.00
570.2640, 26392.00
571.4380, 26599.00
572.6110, 26258.00
573.7840, 26337.00
574.9570, 26457.00
576.1290, 26466.00
577.3020, 26583.00
578.4740, 26411.00
579.6460, 26494.00
580.8180, 26510.41
581.9900, 26710.00
583.1620, 26610.00
584.3330, 26518.00
585.5040, 26606.00
586.6760, 26550.00
587.8470, 26649.00
589.0180, 26705.80
590.1880, 26746.00
591.3590, 26801.00
592.5290, 26859.00
593.7000, 26764.00
594.8700, 26781.00
596.0400, 26843.00
597.2090, 26856.00
598.3790, 26948.00
599.5490, 26843.00
600.7180, 26871.00
601.8870, 27052.00
603.0560, 27006.00
604.2250, 26873.00
605.3940, 27000.00
606.5620, 27038.00
607.7300, 27183.00
608.8990, 27069.00
610.0670, 27469.00
611.2350, 27287.00
612.4020, 27181.00
613.5700, 27521.00
614.7370, 27179.00
615.9050, 27288.00
617.0720, 27203.00
618.2390, 27327.00
619.4060, 27472.00
620.5720, 27396.00
621.7390, 27515.46
622.9050, 27514.00
624.0710, 27587.00
625.2370, 27493.00
626.4030, 27493.00
627.5690, 27549.26
628.7340, 27577.00
629.9000, 27694.00
631.0650, 27792.00
632.2300, 27945.00
633.3950, 27706.00
634.5600, 27612.00
635.7240, 27777.00
636.8890, 27765.00
638.0530, 27756.00
639.2170, 27843.00
640.3810, 27870.00
641.5450, 27900.00
642.7080, 27976.62
643.8720, 28087.00
645.0350, 28053.00
646.1980, 28122.00
647.3610, 28050.00
648.5240, 28140.00
649.6870, 28280.00
650.8490, 28462.00
652.0120, 28432.00
653.1740, 28529.00
654.3360, 28580.00
655.4980, 28777.07
656.6600, 28969.00
657.8210, 29282.00
658.9830, 29612.00
660.1440, 29947.00
661.3050, 30173.00
662.4660, 30503.00
663.6270, 30513.00
664.7870, 30829.00
665.9480, 30877.00
667.1080, 30730.00
668.2680, 30169.00
669.4280, 30097.00
670.5880, 29756.00
671.7480, 29362.00
672.9070, 29399.00
674.0670, 29186.00
675.2260, 29078.00
676.3850, 29197.00
677.5440, 28965.00
678.7030, 28796.00
679.8610, 28839.00
681.0200, 28759.00
682.1780, 28834.00
683.3360, 28870.00
684.4940, 28838.00
685.6520, 28831.00
686.8090, 28837.00
687.9670, 28831.76
689.1240, 28878.00
690.2810, 28797.00
691.4380, 28896.00
692.5950, 28777.00
693.7520, 29103.00
694.9080, 28851.00
696.0650, 29078.00
697.2210, 29051.00
698.3770, 29074.00
699.5330, 29034.00
700.6880, 29062.55
701.8440, 29156.00
702.9990, 29110.00
704.1550, 29175.00
705.3100, 29207.00
706.4650, 29201.08
707.6190, 29221.46
708.7740, 29201.00
709.9290, 29278.00
711.0830, 29241.00
712.2370, 29414.00
713.3910, 29260.00
714.5450, 29238.00
715.6980, 29629.00
716.8520, 29657.00
718.0050, 29572.00
719.1580, 29551.00
720.3110, 29467.00
721.4640, 29661.00
722.6170, 29522.00
723.7700, 29511.00
724.9220, 29605.00
726.0740, 29482.00
727.2260, 29691.00
728.3780, 29504.00
729.5300, 29484.00
730.6810, 29837.00
731.8330, 29696.00
732.9840, 29492.00
734.1350, 29821.00
735.2860, 30056.00
736.4370, 29826.00
737.5880, 29757.00
738.7380, 29873.00
739.8880, 29797.83
741.0390, 29855.00
742.1890, 29923.00
743.3380, 29960.00
744.4880, 30092.00
745.6380, 30199.00
746.7870, 30124.00
747.9360, 30066.00
749.0850, 30154.98
750.2340, 30199.00
751.3830, 30269.00
752.5310, 30052.00
753.6800, 30093.00
754.8280, 30102.00
755.9760, 30282.00
757.1240, 30266.04
758.2720, 30300.00
759.4190, 30292.00
760.5670, 30348.00
761.7140, 30275.00
762.8610, 30585.00
764.0080, 30662.00
765.1550, 30595.00
766.3020, 30372.00
767.4480, 30476.00
768.5950, 30618.00
769.7410, 30825.00
770.8870, 30742.00
772.0330, 30549.00
773.1780, 30787.00
774.3240, 30653.00
775.4690, 30676.00
776.6140, 30686.00
777.7590, 30874.00
778.9040, 30658.00
780.0490, 31040.00
781.1940, 30996.00
782.3380, 30919.00
783.4820, 30923.00
784.6260, 30874.61
785.7700, 31240.00
786.9140, 30916.00
788.0580, 31000.00
789.2010, 31229.00
790.3450, 31023.00
791.4880, 31175.00
792.6310, 31202.00
793.7730, 31127.00
794.9160, 30963.00
796.0590, 31195.00
797.2010, 31360.00
798.3430, 31221.00
799.4850, 31222.00
800.6270, 31354.00
801.7690, 31327.00
802.9100, 31159.00
804.0520, 31178.00
805.1930, 31255.00
806.3340, 31228.00
807.4750, 31480.00
808.6160, 31529.00
809.7560, 31609.63
810.8970, 31545.00
812.0370, 31697.00
813.1770, 31754.00
814.3170, 31654.00
815.4570, 31715.00
816.5960, 31818.00
817.7360, 31804.00
818.8750, 31802.28
820.0140, 31777.00
821.1530, 31729.00
822.2920, 31934.00
823.4310, 31951.00
824.5690, 32021.00
825.7070, 31965.00
826.8460, 32029.94
827.9840, 32100.00
829.1220, 32042.00
830.2590, 32191.00
831.3970, 32081.00
832.5340, 31959.00
833.6710, 32198.00
834.8080, 31926.00
835.9450, 32201.00
837.0820, 32422.00
838.2190, 32242.00
839.3550, 32402.00
840.4910, 32157.00
841.6270, 32479.00
842.7630, 32639.00
843.8990, 32540.00
845.0350, 32612.00
846.1700, 32604.00
847.3060, 32628.00
848.4410, 32811.00
849.5760, 32890.00
850.7100, 33036.00
851.8450, 33094.00
852.9800, 32873.00
854.1140, 32855.00
855.2480, 32997.00
856.3820, 33004.00
857.5160, 33220.00
858.6500, 32724.00
859.7830, 32935.00
860.9170, 32841.00
862.0500, 33041.00
863.1830, 33134.00
864.3160, 33164.00
865.4480, 33240.76
866.5810, 33130.00
867.7130, 33254.00
868.8460, 33109.00
869.9780, 33063.00
871.1100, 33315.00
872.2410, 33384.00
873.3730, 33316.00
874.5050, 33282.00
875.6360, 33550.00
876.7670, 33407.00
877.8980, 33162.00
879.0290, 33443.00
880.1590, 33546.00
881.2900, 33450.00
882.4200, 33535.00
883.5500, 33651.00
884.6800, 33700.00
885.8100, 33788.00
886.9400, 33830.00
888.0690, 33583.00
889.1990, 33784.00
890.3280, 33843.00
891.4570, 33645.00
892.5860, 33895.00
893.7140, 33934.00
894.8430, 33652.00
895.9710, 34033.00
897.1000, 33994.00
898.2280, 34203.00
899.3560, 34028.00
900.4830, 34239.00
901.6110, 34243.00
902.7380, 34069.00
903.8660, 34207.00
904.9930, 34354.00
906.1200, 34191.00
907.2460, 34376.00
908.3730, 34445.00
909.5000, 34384.00
910.6260, 34276.00
911.7520, 34583.00
912.8780, 34686.00
914.0040, 34600.00
915.1290, 34467.00
916.2550, 34617.00
917.3800, 34683.00
918.5050, 34676.00
919.6300, 34865.00
920.7550, 34770.00
921.8800, 34632.00
923.0040, 34947.00
924.1290, 34966.00
925.2530, 34688.00
926.3770, 34878.00
927.5010, 34969.00
928.6250, 34853.00
929.7480, 34624.00
930.8720, 34945.00
931.9950, 34924.00
933.1180, 35000.00
934.2410, 35200.00
935.3640, 34993.00
936.4860, 35172.00
937.6090, 35264.00
938.7310, 35301.00
939.8530, 35259.00
940.9750, 35532.00
942.0970, 35583.00
943.2180, 35434.00
944.3400, 35258.00
945.4610, 35314.00
946.5820, 35460.00
947.7030, 35639.00
948.8240, 35487.00
949.9450, 35651.00
951.0650, 35564.00
952.1860, 35718.00
953.3060, 35721.00
954.4260, 35798.00
955.5460, 35856.50
956.6650, 35819.00
957.7850, 35926.00
958.9040, 35967.00
960.0230, 35968.00
961.1420, 36146.00
962.2610, 36322.00
963.3800, 35941.00
964.4990, 36049.00
965.6170, 36236.00
966.7350, 36106.00
967.8530, 36170.00
968.9710, 36317.00
970.0890, 36236.00
971.2070, 36238.00
972.3240, 36278.00
973.4410, 36477.00
974.5580, 36473.00
975.6750, 36636.00
976.7920, 36580.00
977.9090, 36766.00
979.0250, 36704.00
980.1410, 36706.00
981.2580, 36555.00
982.3740, 36816.00
983.4890, 36648.00
984.6050, 37034.00
985.7200, 37085.00
986.8360, 37018.00
987.9510, 36895.00
989.0660, 37073.00
990.1810, 37186.00
991.2950, 37048.00
992.4100, 37246.00
993.5240, 37514.00
994.6390, 37386.00
995.7530, 37503.00
996.8660, 37685.00
997.9800, 37627.00
999.0940, 37920.00
1000.207, 37867.00
1001.320, 37992.00
1002.433, 38503.00
1003.546, 38988.00
1004.659, 39324.00
1005.772, 39892.00
1006.884, 40662.00
1007.996, 42186.00
1009.108, 42924.00
1010.220, 43987.00
1011.332, 44853.00
1012.444, 44939.00
1013.555, 44094.00
1014.666, 42973.00
1015.777, 42052.00
1016.888, 40985.00
1017.999, 40268.00
1019.110, 39538.00
1020.220, 39282.00
1021.331, 39122.00
1022.441, 38955.00
1023.551, 38871.00
1024.661, 38839.00
1025.770, 38576.00
1026.880, 38631.00
1027.989, 38891.00
1029.098, 38578.00
1030.207, 38725.00
1031.316, 38846.00
1032.425, 38751.00
1033.533, 38638.00
1034.642, 38817.00
1035.750, 39018.00
1036.858, 38998.00
1037.966, 38829.00
1039.073, 38779.00
1040.181, 39041.00
1041.288, 39104.00
1042.396, 39263.00
1043.503, 39239.00
1044.610, 39195.00
1045.716, 39240.00
1046.823, 39384.00
1047.929, 39356.00
1049.036, 39440.00
1050.142, 39449.00
1051.248, 39566.00
1052.353, 39377.00
1053.459, 39489.00
1054.564, 39458.00
1055.670, 39698.00
1056.775, 39559.00
1057.880, 39555.00
1058.985, 39561.00
1060.089, 39712.00
1061.194, 39620.00
1062.298, 39767.00
1063.402, 40003.00
1064.506, 39800.00
1065.610, 39944.00
1066.713, 40157.00
1067.817, 39915.00
1068.920, 40231.00
1070.023, 40083.00
1071.126, 40208.00
1072.229, 40108.00
1073.332, 40293.00
1074.435, 40188.00
1075.537, 40210.77
1076.639, 40213.00
1077.741, 40274.00
1078.843, 40287.00
1079.945, 40499.00
1081.046, 40255.00
1082.148, 40548.00
1083.249, 40386.00
1084.350, 40741.00
1085.451, 40694.00
1086.551, 40533.00
1087.652, 40613.00
1088.752, 40772.00
1089.853, 40881.00
1090.953, 40927.00
1092.053, 41068.00
1093.152, 40974.00
1094.252, 41064.00
1095.351, 41144.00
1096.451, 40903.00
1097.550, 41210.00
1098.649, 41030.00
1099.748, 41306.00
1100.846, 41487.00
1101.945, 41259.00
1103.043, 41397.00
1104.141, 41481.00
1105.239, 41764.00
1106.337, 41481.00
1107.434, 41566.00
1108.532, 41617.00
1109.629, 41849.00
1110.726, 41500.00
1111.823, 41597.00
1112.920, 41770.00
1114.017, 41824.00
1115.113, 42054.00
1116.210, 41972.00
1117.306, 41946.00
1118.402, 42180.00
1119.498, 42044.00
1120.593, 42025.00
1121.689, 42272.00
1122.784, 42298.00
1123.879, 42316.00
1124.974, 42309.00
1126.069, 42265.00
1127.164, 42326.68
1128.259, 42360.54
1129.353, 42437.00
1130.447, 42542.00
1131.541, 42631.00
1132.635, 42810.00
1133.729, 42817.00
1134.822, 42922.00
1135.916, 42859.00
1137.009, 43115.00
1138.102, 43073.00
1139.195, 42760.00
1140.288, 43301.00
1141.380, 43008.00
1142.473, 43054.00
1143.565, 43533.00
1144.657, 43126.00
1145.749, 43174.00
1146.841, 43548.00
1147.932, 43187.00
1149.024, 43599.00
1150.115, 43227.00
1151.206, 43755.00
1152.297, 43636.00
1153.388, 43563.00
1154.479, 43614.00
1155.569, 43667.00
1156.659, 43691.35
1157.750, 44052.00
1158.839, 43940.00
1159.929, 43865.00
1161.019, 44240.00
1162.108, 44259.00
1163.198, 43939.00
1164.287, 44238.00
1165.376, 44082.00
1166.465, 44312.00
1167.553, 44205.00
1168.642, 44377.00
1169.730, 44495.00
1170.818, 44715.00
1171.906, 44496.00
1172.994, 44557.00
1174.082, 44700.00
1175.170, 44612.00
1176.257, 44702.00
1177.344, 44842.00
1178.431, 45011.00
1179.518, 44918.00
1180.605, 45164.00
1181.691, 45079.00
1182.778, 44948.00
1183.864, 45118.00
1184.950, 45111.00
1186.036, 45153.00
1187.122, 45248.00
1188.207, 45222.00
1189.292, 45529.00
1190.378, 45620.00
1191.463, 45735.00
1192.548, 45794.91
1193.632, 45727.00
1194.717, 45743.00
1195.801, 45933.00
1196.886, 45843.00
1197.970, 45919.00
1199.054, 46092.00
1200.137, 45960.00
1201.221, 46176.00
1202.305, 45981.00
1203.388, 46198.00
1204.471, 46001.00
1205.554, 45958.00
1206.637, 46385.00
1207.719, 46228.00
1208.802, 46511.00
1209.884, 46571.00
1210.966, 46535.00
1212.048, 46600.00
1213.130, 46571.00
1214.212, 46630.00
1215.293, 46560.00
1216.374, 46656.21
1217.456, 46704.30
1218.536, 46873.00
1219.617, 46871.00
1220.698, 47083.00
1221.778, 47185.00
1222.859, 47104.00
1223.939, 47376.00
1225.019, 47320.00
1226.099, 47376.00
1227.178, 47719.00
1228.258, 47280.00
1229.337, 47382.00
1230.417, 47520.00
1231.496, 47583.00
1232.574, 47894.00
1233.653, 47917.00
1234.732, 47758.00
1235.810, 47855.00
1236.888, 47633.00
1237.966, 48063.00
1239.044, 47968.00
1240.122, 48229.00
1241.199, 47906.00
1242.277, 48144.00
1243.354, 48225.00
1244.431, 48366.00
1245.508, 48400.00
1246.585, 48504.00
1247.661, 48547.21
1248.738, 48625.00
1249.814, 48583.00
1250.890, 48864.00
1251.966, 48831.00
1253.042, 48844.00
1254.117, 49020.00
1255.193, 48908.00
1256.268, 48902.00
1257.343, 48835.00
1258.418, 49128.00
1259.493, 49154.00
1260.567, 49368.00
1261.642, 49425.00
1262.716, 49359.00
1263.790, 49286.00
1264.864, 49395.00
1265.938, 49479.00
1267.011, 49625.00
1268.085, 49860.00
1269.158, 49862.27
1270.231, 49743.00
1271.304, 49921.00
1272.377, 49820.00
1273.450, 49802.00
1274.522, 49904.44
1275.594, 49844.45
1276.666, 50083.00
1277.738, 49873.00
1278.810, 50039.00
1279.882, 50098.00
1280.953, 50282.00
1282.025, 50270.00
1283.096, 50539.00
1284.167, 50502.00
1285.238, 50637.00
1286.308, 50733.87
1287.379, 50537.00
1288.449, 50782.00
1289.519, 50693.00
1290.589, 50483.00
1291.659, 50987.00
1292.729, 50857.00
1293.798, 50854.00
1294.868, 51089.00
1295.937, 51052.00
1297.006, 51201.00
1298.075, 51256.00
1299.143, 51058.00
1300.212, 51482.00
1301.280, 51480.00
1302.348, 51208.00
1303.416, 51239.00
1304.484, 51473.00
