##NAMES=Diopside
##RRUFFID=R060085
##IDEAL CHEMISTRY=CaMgSi_2_O_6_
##LOCALITY=Tyrol, Austria
##OWNER=RRUFF
##SOURCE=University of Arizona Mineral Museum
##DESCRIPTION=Brownish-green massive
##STATUS=The identification of this mineral has been confirmed by X-ray diffraction and chemical analysis
##URL=rruff.info/R060085
##MEASURED CHEMISTRY=(Ca_0.97_Na_0.03_)_Σ=1_(Mg_0.79_Fe^2+^_0.10_Fe^3+^_0.04_Al_0.04_Ti_0.02_Cr_0.01_)_Σ=1_(Si_1.90_Al_0.10_)_Σ=2_O_6_
##PIN_ID=M00509
##ORIENTATION=Laser parallel to a* (1 0 0). Fiducial mark perpendicular to laser is parallel to b [0 1 0]
91.91600, 10152.00
93.15400, 10150.00
94.39300, 10149.00
95.63100, 10133.57
96.86900, 10176.00
98.10700, 10086.00
99.34500, 10272.00
100.5820, 10193.00
101.8200, 10143.00
103.0570, 10079.00
104.2940, 10031.00
105.5310, 10322.00
106.7680, 10407.00
108.0040, 10335.00
109.2410, 10200.00
110.4770, 10332.00
111.7130, 10310.00
112.9490, 10316.00
114.1850, 10531.00
115.4200, 10459.00
116.6560, 10419.00
117.8910, 10341.00
119.1260, 10390.00
120.3610, 10455.00
121.5960, 10528.00
122.8300, 10516.00
124.0640, 10422.00
125.2990, 10487.00
126.5330, 10552.00
127.7670, 10506.00
129.0000, 10630.00
130.2340, 10748.00
131.4670, 10845.00
132.7000, 10824.00
133.9330, 10955.00
135.1660, 10894.00
136.3990, 11138.00
137.6310, 11249.00
138.8640, 11345.00
140.0960, 11260.00
141.3280, 11228.00
142.5600, 11177.00
143.7910, 10995.00
145.0230, 10816.00
146.2540, 10690.00
147.4850, 10589.56
148.7160, 10432.00
149.9470, 10460.00
151.1780, 10496.00
152.4080, 10462.00
153.6380, 10345.00
154.8690, 10353.00
156.0980, 10431.00
157.3280, 10320.00
158.5580, 10467.00
159.7870, 10387.00
161.0170, 10406.00
162.2460, 10337.00
163.4750, 10421.00
164.7030, 10246.00
165.9320, 10430.00
167.1600, 10355.00
168.3890, 10279.00
169.6170, 10244.00
170.8450, 10273.00
172.0730, 10442.00
173.3000, 10493.00
174.5280, 10453.00
175.7550, 10442.00
176.9820, 10507.00
178.2090, 10529.00
179.4350, 10537.00
180.6620, 10539.00
181.8880, 10546.00
183.1150, 10578.00
184.3410, 10603.00
185.5670, 10508.00
186.7920, 10576.00
188.0180, 10514.00
189.2430, 10443.00
190.4690, 10571.00
191.6940, 10672.00
192.9180, 10720.00
194.1430, 10732.00
195.3680, 10796.00
196.5920, 10784.31
197.8160, 10704.00
199.0400, 10724.00
200.2640, 10686.00
201.4880, 10556.00
202.7110, 10456.00
203.9350, 10654.00
205.1580, 10704.00
206.3810, 10630.00
207.6040, 10576.00
208.8270, 10695.00
210.0490, 10652.00
211.2710, 10628.00
212.4940, 10704.00
213.7160, 10677.00
214.9370, 10623.00
216.1590, 10658.00
217.3810, 10776.00
218.6020, 10791.00
219.8230, 10953.00
221.0440, 10918.00
222.2650, 10958.00
223.4860, 10960.00
224.7060, 11050.00
225.9260, 11150.00
227.1470, 11295.00
228.3670, 11261.00
229.5860, 11139.00
230.8060, 11306.00
232.0260, 11261.00
233.2450, 11145.00
234.4640, 11284.00
235.6830, 11096.00
236.9020, 10971.00
238.1200, 11097.00
239.3390, 11041.00
240.5570, 11107.00
241.7750, 11021.00
242.9930, 11031.00
244.2110, 11040.00
245.4290, 10984.00
246.6460, 11051.00
247.8630, 11051.80
249.0810, 10898.00
250.2980, 11116.00
251.5140, 11074.00
252.7310, 11101.00
253.9470, 11207.00
255.1640, 11002.00
256.3800, 11110.00
257.5960, 11082.00
258.8120, 11009.00
260.0270, 11134.00
261.2430, 11019.00
262.4580, 11060.00
263.6730, 10883.00
264.8880, 10847.00
266.1030, 11040.00
267.3170, 11075.00
268.5320, 11172.00
269.7460, 11209.00
270.9600, 11060.00
272.1740, 11075.00
273.3880, 11048.00
274.6010, 11031.00
275.8150, 11105.00
277.0280, 11049.00
278.2410, 11174.00
279.4540, 11309.00
280.6670, 11284.00
281.8790, 11330.17
283.0920, 11321.00
284.3040, 11262.00
285.5160, 11210.00
286.7280, 11117.00
287.9400, 11155.45
289.1510, 11236.00
290.3630, 11274.00
291.5740, 11366.00
292.7850, 11392.87
293.9960, 11440.00
295.2070, 11443.00
296.4170, 11563.00
297.6280, 11569.00
298.8380, 11584.00
300.0480, 11590.00
301.2580, 11593.27
302.4680, 11633.88
303.6770, 11610.00
304.8870, 11707.00
306.0960, 11753.00
307.3050, 11771.00
308.5140, 11917.00
309.7230, 11861.00
310.9310, 11933.00
312.1400, 11971.00
313.3480, 12169.00
314.5560, 12164.00
315.7640, 12508.00
316.9720, 12367.00
318.1790, 12650.00
319.3870, 12945.00
320.5940, 13029.00
321.8010, 13227.00
323.0080, 13342.00
324.2150, 13535.00
325.4210, 13480.00
326.6280, 13459.00
327.8340, 13501.00
329.0400, 13504.00
330.2460, 13226.00
331.4510, 13100.00
332.6570, 12991.00
333.8620, 12935.00
335.0680, 12809.29
336.2730, 12653.00
337.4780, 12624.00
338.6820, 12501.00
339.8870, 12449.00
341.0910, 12510.00
342.2950, 12515.00
343.5000, 12341.00
344.7030, 12449.00
345.9070, 12392.00
347.1110, 12407.00
348.3140, 12433.00
349.5170, 12447.68
350.7200, 12484.63
351.9230, 12547.00
353.1260, 12561.00
354.3290, 12638.00
355.5310, 12681.00
356.7330, 12638.00
357.9350, 12667.00
359.1370, 12787.00
360.3390, 12899.00
361.5400, 12723.00
362.7420, 12668.00
363.9430, 12885.00
365.1440, 12753.00
366.3450, 12824.00
367.5460, 12932.00
368.7460, 12792.00
369.9470, 12877.00
371.1470, 12825.00
372.3470, 12793.00
373.5470, 12748.00
374.7460, 12746.00
375.9460, 12740.34
377.1450, 12721.00
378.3450, 12784.00
379.5440, 12835.00
380.7430, 12907.00
381.9410, 12921.00
383.1400, 12863.00
384.3380, 13038.00
385.5370, 13117.00
386.7350, 13296.00
387.9320, 13439.00
389.1300, 13789.00
390.3280, 14002.00
391.5250, 14023.00
392.7220, 14081.00
393.9190, 14157.00
395.1160, 13906.00
396.3130, 13738.00
397.5100, 13590.00
398.7060, 13498.00
399.9020, 13366.00
401.0980, 13160.00
402.2940, 12932.00
403.4900, 12933.00
404.6860, 12722.00
405.8810, 12690.00
407.0760, 12677.00
408.2710, 12550.00
409.4660, 12649.00
410.6610, 12524.00
411.8550, 12566.00
413.0500, 12603.00
414.2440, 12377.00
415.4380, 12571.00
416.6320, 12594.00
417.8260, 12406.00
419.0190, 12587.00
420.2130, 12457.00
421.4060, 12592.00
422.5990, 12600.00
423.7920, 12588.23
424.9850, 12558.00
426.1770, 12619.00
427.3700, 12628.00
428.5620, 12662.00
429.7540, 12674.00
430.9460, 12693.06
432.1380, 12681.70
433.3290, 12696.00
434.5210, 12685.00
435.7120, 12693.11
436.9030, 12702.00
438.0940, 12700.00
439.2850, 12644.00
440.4750, 12629.00
441.6660, 12794.00
442.8560, 12693.00
444.0460, 12801.00
445.2360, 12705.00
446.4260, 12741.00
447.6160, 12682.00
448.8050, 12706.00
449.9940, 12800.00
451.1830, 12828.00
452.3720, 12913.00
453.5610, 12948.40
454.7500, 12920.00
455.9380, 12978.00
457.1260, 12961.00
458.3150, 12883.00
459.5020, 12910.00
460.6900, 13021.00
461.8780, 12866.00
463.0650, 12942.00
464.2530, 13077.00
465.4400, 13031.00
466.6270, 13050.00
467.8130, 13100.00
469.0000, 13033.00
470.1870, 13002.00
471.3730, 13034.00
472.5590, 13000.00
473.7450, 13151.00
474.9310, 13051.00
476.1160, 12999.00
477.3020, 13198.00
478.4870, 13145.00
479.6720, 13206.00
480.8570, 13247.00
482.0420, 13152.00
483.2270, 13189.00
484.4110, 13217.00
485.5960, 13297.00
486.7800, 13257.00
487.9640, 13301.00
489.1480, 13309.96
490.3310, 13229.00
491.5150, 13320.00
492.6980, 13448.00
493.8810, 13458.00
495.0640, 13381.00
496.2470, 13451.05
497.4300, 13423.00
498.6120, 13484.00
499.7950, 13488.84
500.9770, 13438.00
502.1590, 13503.00
503.3410, 13551.00
504.5220, 13552.00
505.7040, 13646.00
506.8850, 13612.00
508.0660, 13564.00
509.2470, 13911.00
510.4280, 13921.00
511.6090, 13820.00
512.7890, 13965.00
513.9700, 13856.00
515.1500, 13852.00
516.3300, 13913.00
517.5100, 13774.00
518.6900, 13935.00
519.8690, 14053.00
521.0490, 13899.00
522.2280, 14038.00
523.4070, 14057.00
524.5860, 13949.00
525.7640, 14081.00
526.9430, 14072.00
528.1210, 14100.00
529.3000, 14058.00
530.4780, 14097.00
531.6560, 14224.00
532.8330, 14099.00
534.0110, 14044.00
535.1880, 14178.00
536.3650, 14286.00
537.5430, 14189.00
538.7190, 14216.00
539.8960, 14120.00
541.0730, 14073.00
542.2490, 14274.00
543.4250, 14155.00
544.6020, 14177.00
545.7780, 14348.00
546.9530, 14188.00
548.1290, 14092.00
549.3040, 14223.00
550.4800, 14130.00
551.6550, 14249.00
552.8300, 14285.00
554.0040, 14313.00
555.1790, 14176.00
556.3540, 14258.00
557.5280, 14106.00
558.7020, 14164.00
559.8760, 14235.00
561.0500, 14350.00
562.2230, 14352.50
563.3970, 14381.00
564.5700, 14365.00
565.7430, 14331.00
566.9160, 14298.00
568.0890, 14226.00
569.2620, 14310.00
570.4340, 14289.00
571.6070, 14414.00
572.7790, 14233.00
573.9510, 14237.00
575.1230, 14273.00
576.2940, 14209.00
577.4660, 14217.32
578.6370, 14324.10
579.8080, 14386.38
580.9790, 14406.57
582.1500, 14258.56
583.3210, 14327.74
584.4910, 14309.88
585.6620, 14288.45
586.8320, 14388.19
588.0020, 14264.64
589.1720, 14362.46
590.3410, 14371.91
591.5110, 14421.81
592.6800, 14384.12
593.8500, 14373.49
595.0190, 14450.46
596.1880, 14478.92
597.3560, 14431.16
598.5250, 14348.00
599.6930, 14313.00
600.8620, 14340.00
602.0300, 14357.00
603.1970, 14374.00
604.3650, 14356.86
605.5330, 14343.00
606.7000, 14353.00
607.8680, 14317.00
609.0350, 14412.00
610.2020, 14583.00
611.3680, 14365.00
612.5350, 14562.00
613.7010, 14473.00
614.8680, 14442.00
616.0340, 14597.00
617.2000, 14742.00
618.3660, 14540.00
619.5310, 14690.00
620.6970, 14712.00
621.8620, 14755.00
623.0270, 14799.00
624.1920, 14824.37
625.3570, 14852.00
626.5220, 14920.00
627.6860, 14845.00
628.8500, 14958.00
630.0140, 14788.00
631.1780, 14727.00
632.3420, 14991.00
633.5060, 15051.00
634.6700, 14943.00
635.8330, 14933.00
636.9960, 15030.00
638.1590, 15131.00
639.3220, 15092.00
640.4850, 15108.00
641.6470, 15092.00
642.8100, 15156.00
643.9720, 15212.00
645.1340, 15404.00
646.2960, 15451.00
647.4570, 15428.00
648.6190, 15452.00
649.7800, 15423.00
650.9420, 15506.93
652.1030, 15600.71
653.2640, 15733.00
654.4240, 15903.00
655.5850, 16132.00
656.7450, 16367.00
657.9060, 16711.00
659.0660, 16916.00
660.2260, 17176.00
661.3850, 17671.00
662.5450, 18055.00
663.7040, 18421.00
664.8640, 18937.00
666.0230, 19008.00
667.1820, 19350.00
668.3410, 19070.00
669.4990, 18639.00
670.6580, 18416.00
671.8160, 18042.00
672.9740, 17606.00
674.1320, 17371.00
675.2900, 17172.00
676.4480, 16734.00
677.6050, 16650.00
678.7630, 16375.00
679.9200, 16399.00
681.0770, 16436.00
682.2340, 16385.00
683.3900, 16246.00
684.5470, 15923.00
685.7030, 15986.00
686.8590, 15916.00
688.0150, 16105.00
689.1710, 15922.00
690.3270, 15946.00
691.4830, 15822.00
692.6380, 15774.00
693.7930, 15781.80
694.9480, 15831.00
696.1030, 15806.00
697.2580, 15846.00
698.4130, 15899.00
699.5670, 15944.00
700.7210, 15952.95
701.8750, 15895.00
703.0290, 15934.00
704.1830, 15932.00
705.3370, 15781.10
706.4900, 15896.49
707.6430, 15967.40
708.7970, 15996.22
709.9490, 15856.82
711.1020, 15934.62
712.2550, 15925.38
713.4070, 15912.57
714.5600, 16020.93
715.7120, 15906.00
716.8640, 16012.43
718.0160, 16030.50
719.1670, 16089.00
720.3190, 16059.93
721.4700, 16057.91
722.6210, 16143.48
723.7720, 16180.55
724.9230, 16141.39
726.0740, 16202.46
727.2250, 16084.46
728.3750, 16123.58
729.5250, 16230.50
730.6750, 16195.74
731.8250, 16258.40
732.9750, 16283.95
734.1240, 16140.87
735.2740, 16291.05
736.4230, 16314.40
737.5720, 16207.53
738.7210, 16347.66
739.8700, 16097.00
741.0190, 16294.00
742.1670, 16289.00
743.3150, 16139.00
744.4630, 16116.00
745.6110, 16284.00
746.7590, 16271.00
747.9070, 16415.00
749.0540, 16290.00
750.2020, 16196.00
751.3490, 16409.00
752.4960, 16328.00
753.6430, 16292.00
754.7890, 16236.00
755.9360, 16518.00
757.0820, 16393.00
758.2280, 16559.00
759.3740, 16425.00
760.5200, 16354.00
761.6660, 16488.00
762.8120, 16522.00
763.9570, 16648.00
765.1020, 16640.91
766.2470, 16608.00
767.3920, 16640.00
768.5370, 16662.00
769.6810, 16712.00
770.8260, 16589.00
771.9700, 16517.00
773.1140, 16766.00
774.2580, 16517.00
775.4020, 16955.00
776.5460, 16635.00
777.6890, 16793.00
778.8320, 16875.00
779.9750, 16695.00
781.1180, 16794.00
782.2610, 16844.00
783.4040, 16709.00
784.5460, 16726.00
785.6890, 16763.00
786.8310, 16852.00
787.9730, 16771.00
789.1150, 16966.00
790.2560, 16972.00
791.3980, 16937.00
792.5390, 16884.00
793.6810, 16859.00
794.8220, 16964.00
795.9630, 16961.00
797.1030, 17031.00
798.2440, 17073.00
799.3840, 16995.00
800.5240, 17145.00
801.6650, 17049.00
802.8040, 17103.00
803.9440, 17023.00
805.0840, 17062.00
806.2230, 17034.00
807.3630, 17051.00
808.5020, 17156.00
809.6410, 17214.00
810.7790, 17334.00
811.9180, 17149.00
813.0570, 17227.00
814.1950, 17195.00
815.3330, 17389.00
816.4710, 17397.00
817.6090, 17349.00
818.7470, 17324.00
819.8840, 17312.00
821.0220, 17441.00
822.1590, 17579.00
823.2960, 17598.00
824.4330, 17643.00
825.5690, 17503.00
826.7060, 17551.00
827.8420, 17636.00
828.9790, 17544.00
830.1150, 17708.00
831.2510, 17639.00
832.3860, 17727.00
833.5220, 17642.00
834.6570, 17619.00
835.7930, 17741.00
836.9280, 17702.00
838.0630, 17786.00
839.1980, 17728.00
840.3320, 17795.80
841.4670, 17822.00
842.6010, 17862.00
843.7350, 17979.00
844.8690, 17927.00
846.0030, 17787.00
847.1370, 17753.00
848.2700, 17878.00
849.4040, 17824.00
850.5370, 17964.00
851.6700, 18095.00
852.8030, 17955.00
853.9360, 18118.00
855.0680, 18096.00
856.2000, 18410.00
857.3330, 18274.00
858.4650, 18280.00
859.5970, 18503.00
860.7290, 18399.00
861.8600, 18356.00
862.9920, 18254.00
864.1230, 18535.00
865.2540, 18290.00
866.3850, 18438.00
867.5160, 18443.00
868.6460, 18365.00
869.7770, 18487.00
870.9070, 18328.00
872.0370, 18390.00
873.1670, 18302.00
874.2970, 18412.00
875.4270, 18273.00
876.5570, 18361.00
877.6860, 18350.00
878.8150, 18389.00
879.9440, 18291.00
881.0730, 18415.00
882.2020, 18561.00
883.3300, 18338.00
884.4590, 18421.00
885.5870, 18451.00
886.7150, 18465.00
887.8430, 18453.00
888.9710, 18443.32
890.0990, 18400.00
891.2260, 18445.00
892.3530, 18480.00
893.4810, 18608.00
894.6080, 18603.00
895.7340, 18617.00
896.8610, 18514.00
897.9880, 18542.00
899.1140, 18669.00
900.2400, 18539.00
901.3660, 18789.00
902.4920, 18632.00
903.6180, 18669.00
904.7430, 18738.00
905.8690, 18748.00
906.9940, 18843.00
908.1190, 18925.00
909.2440, 18776.00
910.3690, 18893.00
911.4930, 18766.00
912.6180, 18743.00
913.7420, 18767.00
914.8660, 18959.00
915.9900, 18971.00
917.1140, 18971.00
918.2380, 18871.00
919.3610, 18852.00
920.4850, 18982.00
921.6080, 19046.00
922.7310, 19058.00
923.8540, 19115.18
924.9760, 19212.00
926.0990, 19134.00
927.2210, 19136.00
928.3440, 19120.00
929.4660, 19032.00
930.5880, 19280.00
931.7090, 19205.00
932.8310, 19331.00
933.9520, 19129.00
935.0740, 19279.00
936.1950, 19238.00
937.3160, 19260.00
938.4360, 19179.00
939.5570, 19182.00
940.6780, 19450.00
941.7980, 19336.00
942.9180, 19365.00
944.0380, 19335.00
945.1580, 19176.00
946.2780, 19459.00
947.3970, 19382.00
948.5170, 19358.00
949.6360, 19512.00
950.7550, 19542.00
951.8740, 19588.00
952.9930, 19535.00
954.1110, 19493.00
955.2300, 19659.00
956.3480, 19574.00
957.4660, 19530.00
958.5840, 19636.00
959.7020, 19571.00
960.8190, 19643.00
961.9370, 19657.95
963.0540, 19750.00
964.1710, 19695.00
965.2880, 19791.00
966.4050, 19815.00
967.5220, 19704.00
968.6380, 19961.00
969.7550, 20016.00
970.8710, 19901.00
971.9870, 19745.00
973.1030, 19890.00
974.2190, 20058.00
975.3340, 19983.00
976.4500, 19938.00
977.5650, 20003.00
978.6800, 20089.00
979.7950, 20021.00
980.9100, 20260.00
982.0250, 20219.00
983.1390, 20274.00
984.2530, 20367.00
985.3680, 20374.00
986.4820, 20513.00
987.5950, 20536.00
988.7090, 20629.00
989.8230, 20729.00
990.9360, 20638.00
992.0490, 20465.00
993.1620, 20748.00
994.2750, 20791.00
995.3880, 21073.00
996.5010, 21102.00
997.6130, 21262.00
998.7250, 21414.00
999.8370, 21557.00
1000.949, 22021.00
1002.061, 22120.00
1003.173, 22488.00
1004.284, 22784.00
1005.396, 22612.00
1006.507, 23087.00
1007.618, 23291.00
1008.729, 23603.00
1009.839, 24053.00
1010.950, 24012.00
1012.060, 24081.00
1013.171, 24130.00
1014.281, 23738.00
1015.391, 23348.00
1016.500, 22828.00
1017.610, 22450.00
1018.719, 22244.00
1019.829, 21929.00
1020.938, 21746.00
1022.047, 21627.00
1023.156, 21314.00
1024.264, 21322.00
1025.373, 21294.00
1026.481, 21385.00
1027.589, 21193.00
1028.697, 21286.00
1029.805, 21164.00
1030.913, 21338.00
1032.020, 21214.00
1033.128, 21212.00
1034.235, 21204.00
1035.342, 21431.00
1036.449, 21070.00
1037.556, 21210.00
1038.663, 21352.00
1039.769, 21160.00
1040.875, 21217.00
1041.981, 21298.00
1043.087, 21324.00
1044.193, 21345.19
1045.299, 21453.00
1046.404, 21328.00
1047.510, 21233.00
1048.615, 21174.00
1049.720, 21342.00
1050.825, 21229.00
1051.930, 21255.00
1053.034, 21385.00
1054.139, 21376.00
1055.243, 21341.00
1056.347, 21351.00
1057.451, 21267.00
1058.555, 21433.00
1059.658, 21515.00
1060.762, 21354.00
1061.865, 21411.00
1062.968, 21389.00
1064.071, 21613.00
1065.174, 21506.00
1066.277, 21376.00
1067.380, 21582.00
1068.482, 21387.00
1069.584, 21442.00
1070.686, 21562.00
1071.788, 21465.00
1072.890, 21444.00
1073.992, 21640.00
1075.093, 21657.00
1076.194, 21534.00
1077.295, 21508.00
1078.396, 21625.00
1079.497, 21661.00
1080.598, 21876.00
1081.698, 21712.00
1082.799, 21734.00
1083.899, 21722.00
1084.999, 21889.00
1086.099, 21872.00
1087.199, 21710.00
1088.298, 21817.00
1089.398, 21770.00
1090.497, 21924.00
1091.596, 21672.00
1092.695, 21921.00
1093.794, 21869.00
1094.892, 21941.00
1095.991, 22090.00
1097.089, 21782.00
1098.187, 21963.00
1099.285, 22062.00
1100.383, 21786.00
1101.481, 21921.00
1102.579, 21936.00
1103.676, 21950.00
1104.773, 22050.00
1105.870, 22031.00
1106.967, 21941.00
1108.064, 22253.00
1109.161, 22098.00
1110.257, 22188.00
1111.353, 22185.00
1112.449, 22146.00
1113.545, 22192.00
1114.641, 22319.00
1115.737, 22327.00
1116.832, 22399.00
1117.928, 22122.00
1119.023, 22280.00
1120.118, 22305.00
1121.213, 22455.00
1122.308, 22512.00
1123.402, 22525.00
1124.497, 22301.00
1125.591, 22398.00
1126.685, 22394.00
1127.779, 22535.00
1128.873, 22243.00
1129.967, 22453.00
1131.060, 22511.00
1132.153, 22343.00
1133.247, 22540.00
1134.340, 22553.00
1135.433, 22545.00
1136.525, 22618.38
1137.618, 22450.00
1138.710, 22668.00
1139.802, 22502.00
1140.895, 22567.00
1141.987, 22644.00
1143.078, 22756.00
1144.170, 22600.00
1145.261, 22816.00
1146.353, 22640.00
1147.444, 22697.00
1148.535, 22883.00
1149.626, 22977.00
1150.716, 22780.00
1151.807, 22738.00
1152.897, 22886.00
1153.988, 22764.00
1155.078, 22855.00
1156.168, 22845.00
1157.257, 22815.00
1158.347, 22963.00
1159.436, 23063.00
1160.526, 23015.00
1161.615, 22787.00
1162.704, 23037.00
1163.793, 23172.00
1164.881, 22963.00
1165.970, 23104.00
1167.058, 22979.00
1168.147, 23134.00
1169.235, 23170.00
1170.323, 23175.00
1171.410, 23101.00
1172.498, 23147.00
1173.585, 23203.00
1174.673, 23206.55
1175.760, 23453.00
1176.847, 23323.00
1177.934, 23410.00
1179.020, 23542.00
1180.107, 23449.00
1181.193, 23374.00
1182.279, 23538.00
1183.365, 23355.00
1184.451, 23322.00
1185.537, 23386.00
1186.623, 23534.00
1187.708, 23556.00
1188.793, 23339.00
1189.878, 23505.00
1190.963, 23353.00
1192.048, 23287.00
1193.133, 23526.00
1194.217, 23459.00
1195.302, 23535.00
1196.386, 23762.00
1197.470, 23677.00
1198.554, 23675.00
1199.638, 23592.00
1200.721, 23827.00
1201.805, 23760.00
1202.888, 23834.00
1203.971, 23805.00
1205.054, 23747.00
1206.137, 23757.00
1207.219, 23914.00
1208.302, 23811.00
1209.384, 23898.00
1210.466, 23738.00
1211.548, 24053.00
1212.630, 24077.00
1213.712, 24038.00
1214.794, 23787.00
1215.875, 24052.00
1216.956, 23993.00
1218.037, 24075.00
1219.118, 24182.00
1220.199, 24230.00
1221.280, 24024.00
1222.360, 24230.00
1223.441, 24200.00
1224.521, 24534.00
1225.601, 24100.00
1226.681, 24359.00
1227.760, 24359.00
1228.840, 24294.00
1229.919, 24280.00
1230.999, 24428.00
1232.078, 24263.00
1233.157, 24672.00
1234.236, 24546.00
1235.314, 24327.00
1236.393, 24330.00
1237.471, 24615.00
1238.549, 24431.00
1239.627, 24648.00
1240.705, 24430.00
1241.783, 24512.00
1242.860, 24524.00
1243.938, 24578.00
1245.015, 24722.00
1246.092, 24772.00
1247.169, 24586.00
1248.246, 24742.00
1249.323, 24623.00
1250.399, 24784.00
1251.475, 24814.00
1252.552, 24628.00
1253.628, 24609.00
1254.703, 24668.00
1255.779, 24766.00
1256.855, 24934.00
1257.930, 24855.00
1259.005, 24819.00
1260.080, 24872.00
1261.155, 24791.00
1262.230, 24986.00
1263.305, 25042.00
1264.379, 24963.00
1265.454, 25000.00
1266.528, 25202.00
1267.602, 25127.00
1268.676, 25235.00
1269.750, 25223.00
1270.823, 25197.00
