##NAMES=Diopside
##RRUFFID=R040097
##IDEAL CHEMISTRY=CaMgSi_2_O_6_
##LOCALITY=Fassathal, Tyrol
##OWNER=RRUFF
##SOURCE=University of Arizona Mineral Museum
##DESCRIPTION=Green prismatic crystals
##STATUS=The identification of this mineral has been confirmed by X-ray diffraction and chemical analysis
##URL=rruff.info/R040097
##MEASURED CHEMISTRY=Ca_1.00_(Mg_0.83_Al_0.10_Fe_0.09_Ca_0.02_Ti_0.02_)(Si_0.88_Al_0.12_)_2_O_6_
##PIN_ID=L00346
##ORIENTATION=Laser parallel to a [1 0 0]. Fiducial mark perpendicular to laser is parallel to b* (0 1 0)
65.21800, 13253.00
66.45100, 14729.00
67.68400, 17216.00
68.91600, 20152.00
70.14900, 23733.00
71.38100, 28284.00
72.61300, 33523.00
73.84500, 39922.00
75.07600, 47367.00
76.30800, 55947.00
77.54000, 65777.00
78.77100, 75864.00
80.00200, 87001.00
81.23300, 99666.00
82.46400, 112623.0
83.69500, 126178.0
84.92600, 140724.0
86.15700, 154160.0
87.38700, 167213.0
88.61700, 180453.0
89.84800, 192817.0
91.07800, 204078.0
92.30800, 216236.0
93.53700, 226687.0
94.76700, 236340.0
95.99600, 245844.0
97.22600, 252440.0
98.45500, 259504.0
99.68400, 266212.0
100.9130, 271755.0
102.1420, 276369.0
103.3710, 280779.0
104.5990, 284831.0
105.8280, 288171.0
107.0560, 291964.0
108.2840, 294868.0
109.5120, 295973.0
110.7400, 299174.0
111.9680, 300066.0
113.1950, 303050.0
114.4230, 303618.0
115.6500, 306601.0
116.8780, 307972.0
118.1050, 309958.0
119.3320, 311652.0
120.5580, 312301.0
121.7850, 313409.0
123.0120, 314939.0
124.2380, 315278.0
125.4640, 316419.0
126.6900, 317321.0
127.9160, 318188.0
129.1420, 319035.0
130.3680, 320311.0
131.5940, 321387.9
132.8190, 323375.0
134.0440, 324317.0
135.2700, 326662.0
136.4950, 329102.0
137.7200, 330998.0
138.9440, 333156.0
140.1690, 334558.0
141.3930, 335679.0
142.6180, 338417.0
143.8420, 339415.0
145.0660, 340340.0
146.2900, 340466.0
147.5140, 340193.0
148.7380, 339834.0
149.9610, 339088.0
151.1850, 338749.0
152.4080, 339039.0
153.6310, 338558.0
154.8540, 339496.0
156.0770, 338060.0
157.3000, 338639.0
158.5220, 338592.0
159.7450, 339988.0
160.9670, 339708.0
162.1890, 340155.0
163.4110, 340558.0
164.6330, 341809.0
165.8550, 341734.0
167.0760, 342220.0
168.2980, 343128.0
169.5190, 344940.0
170.7410, 345823.0
171.9620, 347182.0
173.1830, 347964.0
174.4030, 348591.0
175.6240, 350247.0
176.8450, 350466.0
178.0650, 351638.0
179.2850, 352236.0
180.5050, 353776.0
181.7250, 355139.0
182.9450, 356231.0
184.1650, 357835.0
185.3840, 360084.0
186.6040, 361377.0
187.8230, 362071.0
189.0420, 362660.0
190.2610, 363362.0
191.4800, 365064.0
192.6990, 363884.0
193.9180, 366153.0
195.1360, 366803.0
196.3540, 368976.0
197.5730, 369002.0
198.7910, 369579.0
200.0080, 369403.0
201.2260, 369425.0
202.4440, 368769.0
203.6610, 368556.0
204.8790, 367857.0
206.0960, 367611.0
207.3130, 367283.0
208.5300, 366626.0
209.7470, 368168.0
210.9630, 369116.0
212.1800, 370706.0
213.3960, 370731.0
214.6130, 372484.0
215.8290, 372128.0
217.0450, 373848.0
218.2600, 374238.0
219.4760, 376874.0
220.6920, 377659.0
221.9070, 379826.0
223.1220, 381691.0
224.3370, 382307.0
225.5520, 384316.0
226.7670, 385154.0
227.9820, 388819.0
229.1970, 388365.0
230.4110, 389786.0
231.6250, 390314.0
232.8390, 390459.0
234.0530, 389147.0
235.2670, 387877.0
236.4810, 388428.0
237.6950, 387471.0
238.9080, 386967.0
240.1210, 386495.0
241.3350, 387445.0
242.5480, 386890.0
243.7600, 388023.0
244.9730, 388883.0
246.1860, 389502.0
247.3980, 390117.0
248.6110, 390464.0
249.8230, 391975.0
251.0350, 392567.2
252.2470, 393882.0
253.4580, 394236.0
254.6700, 395489.0
255.8820, 395789.0
257.0930, 396084.0
258.3040, 396799.0
259.5150, 396906.2
260.7260, 396555.0
261.9370, 397382.0
263.1480, 397560.0
264.3580, 397795.0
265.5680, 397229.0
266.7790, 398526.0
267.9890, 396716.0
269.1990, 398392.0
270.4080, 397658.0
271.6180, 400096.0
272.8280, 400112.0
274.0370, 400160.0
275.2460, 399879.0
276.4550, 400833.0
277.6640, 401999.0
278.8730, 400740.0
280.0820, 402010.0
281.2900, 402534.0
282.4990, 404352.0
283.7070, 403938.0
284.9150, 405561.0
286.1230, 406385.0
287.3310, 407517.0
288.5380, 408063.0
289.7460, 408196.0
290.9530, 409312.0
292.1600, 410222.0
293.3680, 411951.0
294.5740, 413000.0
295.7810, 413473.0
296.9880, 413892.0
298.1940, 417555.0
299.4010, 417017.0
300.6070, 419534.0
301.8130, 419343.0
303.0190, 422274.0
304.2250, 424047.0
305.4310, 425456.0
306.6360, 427185.0
307.8420, 428327.0
309.0470, 430518.0
310.2520, 432485.0
311.4570, 436122.0
312.6620, 438703.0
313.8660, 442431.0
315.0710, 444541.0
316.2750, 448876.0
317.4800, 452006.0
318.6840, 457533.0
319.8880, 459508.0
321.0910, 464163.0
322.2950, 468332.0
323.4990, 470739.0
324.7020, 474203.0
325.9050, 475459.0
327.1080, 476108.0
328.3110, 475139.0
329.5140, 474913.0
330.7170, 471940.0
331.9190, 469549.0
333.1220, 465920.0
334.3240, 464327.0
335.5260, 461755.0
336.7280, 460347.0
337.9300, 457496.0
339.1320, 456070.0
340.3330, 455728.0
341.5340, 454452.0
342.7360, 454115.0
343.9370, 452093.0
345.1380, 453423.0
346.3390, 452667.0
347.5390, 453796.0
348.7400, 453547.0
349.9400, 455161.0
351.1400, 454570.0
352.3400, 456800.0
353.5400, 455726.0
354.7400, 456859.0
355.9400, 457705.0
357.1390, 458035.0
358.3390, 458793.0
359.5380, 458487.0
360.7370, 458543.0
361.9360, 459201.0
363.1350, 460348.0
364.3330, 460081.0
365.5320, 461309.0
366.7300, 462093.0
367.9280, 461943.0
369.1260, 463572.0
370.3240, 464513.0
371.5220, 465385.0
372.7200, 465891.0
373.9170, 465742.0
375.1140, 465011.0
376.3120, 468238.0
377.5090, 467306.0
378.7060, 469816.0
379.9020, 470333.0
381.0990, 473987.0
382.2950, 476739.0
383.4920, 479901.0
384.6880, 484705.0
385.8840, 488344.0
387.0800, 492940.0
388.2760, 496265.0
389.4710, 504160.0
390.6670, 505770.0
391.8620, 511957.0
393.0570, 514669.0
394.2520, 515294.0
395.4470, 515657.0
396.6420, 513084.0
397.8360, 510077.0
399.0310, 503732.0
400.2250, 500545.0
401.4190, 493656.0
402.6130, 490043.0
403.8070, 484121.0
405.0000, 482732.0
406.1940, 478278.0
407.3870, 475171.0
408.5810, 474131.0
409.7740, 472971.0
410.9670, 472378.0
412.1600, 469999.0
413.3520, 470606.0
414.5450, 469813.0
415.7370, 470452.0
416.9290, 470164.0
418.1210, 471273.0
419.3130, 471414.0
420.5050, 470362.0
421.6970, 472045.0
422.8880, 472036.0
424.0800, 472897.0
425.2710, 473094.0
426.4620, 473889.0
427.6530, 473664.0
428.8440, 475583.0
430.0340, 474825.0
431.2250, 476054.0
432.4150, 476347.0
433.6050, 477177.0
434.7950, 477434.0
435.9850, 477965.0
437.1750, 478350.0
438.3640, 479268.0
439.5540, 479186.0
440.7430, 479711.0
441.9320, 480602.0
443.1210, 481033.0
444.3100, 482535.0
445.4990, 482457.0
446.6870, 482982.0
447.8760, 482798.0
449.0640, 484118.0
450.2520, 484903.0
451.4400, 485309.0
452.6280, 486364.4
453.8150, 487037.0
455.0030, 488031.0
456.1900, 489209.0
457.3780, 490342.0
458.5650, 490178.0
459.7520, 491882.0
460.9380, 491289.0
462.1250, 491838.0
463.3110, 493313.0
464.4980, 493208.0
465.6840, 494858.0
466.8700, 495382.0
468.0560, 495589.0
469.2420, 495490.0
470.4270, 496174.0
471.6130, 496182.0
472.7980, 496841.0
473.9830, 496897.0
475.1680, 497156.0
476.3530, 498178.0
477.5380, 496723.0
478.7220, 499094.0
479.9070, 498761.0
481.0910, 500177.0
482.2750, 500387.0
483.4590, 501155.0
484.6430, 502130.0
485.8260, 501516.0
487.0100, 503649.0
488.1930, 503204.0
489.3760, 505135.0
490.5590, 504800.0
491.7420, 506435.0
492.9250, 506260.0
494.1080, 508348.0
495.2900, 507801.0
496.4730, 508120.0
497.6550, 509979.0
498.8370, 511366.0
500.0190, 511538.0
501.2000, 511994.0
502.3820, 515586.0
503.5630, 515007.0
504.7450, 517315.0
505.9260, 519296.0
507.1070, 520681.0
508.2870, 522141.0
509.4680, 523144.0
510.6490, 525523.0
511.8290, 526044.0
513.0090, 527280.0
514.1890, 527205.0
515.3690, 528229.0
516.5490, 527701.0
517.7290, 529402.0
518.9080, 530042.0
520.0870, 530195.0
521.2670, 529159.0
522.4460, 530431.0
523.6240, 528889.0
524.8030, 529650.0
525.9820, 529778.0
527.1600, 530020.0
528.3380, 530818.0
529.5170, 530689.0
530.6950, 531966.0
531.8720, 532903.0
533.0500, 533252.0
534.2280, 533118.0
535.4050, 533168.0
536.5820, 535418.0
537.7590, 534601.0
538.9360, 535089.0
540.1130, 534560.0
541.2890, 535177.0
542.4660, 534285.0
543.6420, 535093.0
544.8180, 536397.0
545.9940, 536348.0
547.1700, 537912.0
548.3460, 537470.0
549.5220, 539968.0
550.6970, 538125.0
551.8720, 540971.0
553.0470, 541038.0
554.2220, 542223.0
555.3970, 543340.0
556.5720, 542514.0
557.7460, 544245.0
558.9200, 545158.0
560.0950, 548357.0
561.2690, 545762.0
562.4430, 548538.0
563.6160, 548033.0
564.7900, 548251.0
565.9630, 548499.0
567.1370, 547747.0
568.3100, 549536.0
569.4830, 547922.0
570.6560, 549749.0
571.8280, 548412.0
573.0010, 550681.0
574.1730, 549549.0
575.3450, 550739.0
576.5170, 552132.0
577.6890, 552089.0
578.8610, 552816.0
580.0330, 550758.0
581.2040, 553800.0
582.3760, 551592.0
583.5470, 554567.0
584.7180, 553646.0
585.8890, 555036.0
587.0590, 554567.0
588.2300, 556484.0
589.4000, 556831.0
590.5700, 556390.0
591.7410, 557860.0
592.9100, 557416.0
594.0800, 559069.0
595.2500, 556533.0
596.4190, 559583.0
597.5890, 559166.0
598.7580, 559558.0
599.9270, 561303.0
601.0960, 560553.0
602.2640, 561883.0
603.4330, 560962.0
604.6010, 563172.0
605.7700, 564489.0
606.9380, 564501.0
608.1060, 565140.0
609.2740, 566836.0
610.4410, 567069.0
611.6090, 566542.0
612.7760, 568158.0
613.9430, 567918.0
615.1100, 570781.0
616.2770, 569365.0
617.4440, 570767.0
618.6100, 572010.0
619.7770, 570473.0
620.9430, 572945.0
622.1090, 572388.0
623.2750, 573918.0
624.4410, 573732.0
625.6070, 575155.0
626.7720, 576018.0
627.9370, 576953.0
629.1030, 577946.0
630.2680, 577757.0
631.4330, 580001.0
632.5970, 579006.0
633.7620, 582157.0
634.9260, 580913.0
636.0910, 583605.0
637.2550, 583663.0
638.4190, 585462.0
639.5820, 587174.0
640.7460, 588146.0
641.9100, 589824.0
643.0730, 591105.0
644.2360, 591897.0
645.3990, 592583.0
646.5620, 595704.0
647.7250, 596568.0
648.8870, 599213.0
650.0500, 600710.0
651.2120, 602402.0
652.3740, 606023.0
653.5360, 607593.0
654.6980, 612853.0
655.8600, 614051.0
657.0210, 621456.0
658.1820, 630384.0
659.3440, 631342.0
660.5050, 638016.0
661.6650, 643462.0
662.8260, 651198.0
663.9870, 656922.0
665.1470, 665197.0
666.3070, 668808.0
667.4670, 672886.0
668.6270, 672486.0
669.7870, 672767.0
670.9470, 668369.0
672.1060, 662216.0
673.2660, 657223.0
674.4250, 649197.0
675.5840, 643840.0
676.7430, 637538.0
677.9010, 635054.0
679.0600, 630325.0
680.2180, 627013.0
681.3770, 626209.0
682.5350, 622481.0
683.6930, 623968.0
684.8500, 620871.0
686.0080, 620939.0
687.1650, 619972.0
688.3230, 619926.0
689.4800, 619761.0
690.6370, 618800.0
691.7940, 619417.0
692.9500, 619117.9
694.1070, 619238.0
695.2630, 619343.0
696.4200, 619812.0
697.5760, 619994.0
698.7310, 620116.5
699.8870, 620587.0
701.0430, 620499.0
702.1980, 621018.0
703.3540, 621661.0
704.5090, 622758.0
705.6640, 622794.0
706.8180, 625039.0
707.9730, 625717.0
709.1280, 625733.0
710.2820, 627010.0
711.4360, 625475.0
712.5900, 626088.0
713.7440, 625984.0
714.8980, 625656.0
716.0510, 627484.0
717.2050, 629057.0
718.3580, 626870.0
719.5110, 628445.0
720.6640, 629949.0
721.8170, 629296.0
722.9690, 631364.0
724.1220, 630285.0
725.2740, 630913.0
726.4260, 630981.0
727.5780, 632500.0
728.7300, 631982.0
729.8820, 632108.0
731.0330, 634978.0
732.1850, 634049.0
733.3360, 635327.0
734.4870, 635169.0
735.6380, 636811.0
736.7890, 637431.0
737.9390, 636997.0
739.0900, 639711.0
740.2400, 637954.0
741.3900, 640264.0
742.5400, 638967.0
743.6900, 641884.0
744.8390, 642519.0
745.9890, 641627.0
747.1380, 642631.0
748.2870, 643786.0
749.4360, 644989.0
750.5850, 645742.6
751.7340, 646654.8
752.8830, 646866.0
754.0310, 648415.0
755.1790, 648145.0
756.3270, 649604.0
757.4750, 651598.0
758.6230, 650267.0
759.7700, 652693.0
760.9180, 651602.0
762.0650, 653456.0
763.2120, 653292.0
764.3590, 654704.0
765.5060, 655736.0
766.6530, 655745.0
767.7990, 658109.0
768.9460, 657439.0
770.0920, 659624.0
771.2380, 659992.0
772.3840, 660374.0
773.5290, 662244.0
774.6750, 661775.0
775.8200, 664721.0
776.9650, 662867.0
778.1100, 665384.0
779.2550, 666186.0
780.4000, 666866.0
781.5450, 666921.0
782.6890, 668534.0
783.8330, 667661.0
784.9780, 668196.0
786.1220, 671856.0
787.2650, 670365.0
788.4090, 673274.0
789.5520, 672682.0
790.6960, 673937.0
791.8390, 675008.0
792.9820, 674857.0
794.1250, 676075.0
795.2670, 674087.0
796.4100, 678878.0
797.5520, 677325.0
798.6950, 679643.0
799.8370, 681140.0
800.9790, 680443.0
802.1200, 682416.0
803.2620, 681332.0
804.4030, 684091.0
805.5450, 683419.0
806.6860, 684523.0
807.8270, 685121.0
808.9670, 686518.0
810.1080, 687114.0
811.2480, 687421.0
812.3890, 689283.2
813.5290, 690491.0
814.6690, 692454.0
815.8090, 692931.0
816.9480, 694145.0
818.0880, 695410.0
819.2270, 694361.0
820.3660, 697469.0
821.5050, 698043.0
822.6440, 700281.0
823.7830, 698738.0
824.9220, 700697.0
826.0600, 702578.0
827.1980, 702751.0
828.3360, 704125.0
829.4740, 702900.0
830.6120, 706169.0
831.7490, 704969.0
832.8870, 705500.0
834.0240, 706749.0
835.1610, 705274.0
836.2980, 706817.0
837.4350, 706451.0
838.5720, 709743.0
839.7080, 707612.0
840.8440, 709361.0
841.9810, 709747.0
843.1170, 708656.0
844.2520, 710652.0
845.3880, 710028.0
846.5240, 711576.0
847.6590, 710501.0
848.7940, 713290.0
849.9290, 714494.0
851.0640, 715834.0
852.1990, 715527.0
853.3330, 716591.0
854.4680, 719202.0
855.6020, 719057.0
856.7360, 720774.0
857.8700, 721624.0
859.0040, 721526.0
860.1370, 724249.0
861.2710, 724240.0
862.4040, 727177.0
863.5370, 725354.0
864.6700, 728869.0
865.8030, 727704.0
866.9350, 730138.0
868.0680, 729793.0
869.2000, 729462.0
870.3320, 731310.0
871.4640, 730813.0
872.5960, 731301.0
873.7280, 731137.0
874.8590, 732481.0
875.9910, 733221.0
877.1220, 733398.0
878.2530, 735877.0
879.3840, 733467.0
880.5140, 735970.0
881.6450, 735317.0
882.7750, 736217.0
883.9050, 736580.0
885.0350, 737401.0
886.1650, 738342.1
887.2950, 739013.2
888.4250, 740499.0
889.5540, 741073.0
890.6830, 742429.0
891.8120, 744273.0
892.9410, 744364.0
894.0700, 745108.0
895.1990, 744033.0
896.3270, 747164.0
897.4550, 746626.0
898.5830, 749001.0
899.7110, 749600.0
900.8390, 749958.0
901.9670, 752508.0
903.0940, 751333.0
904.2210, 754025.0
905.3490, 753602.0
906.4760, 754790.0
907.6020, 756326.0
908.7290, 755654.0
909.8550, 757619.0
910.9820, 757264.0
912.1080, 759336.0
913.2340, 759763.0
914.3600, 759897.0
915.4850, 761848.0
916.6110, 762589.0
917.7360, 765087.0
918.8620, 764475.0
919.9870, 766387.0
921.1110, 764516.0
922.2360, 767975.0
923.3610, 769186.0
924.4850, 766604.0
925.6090, 771497.0
926.7330, 769556.0
927.8570, 771521.0
928.9810, 770813.0
930.1040, 772844.0
931.2280, 772806.0
932.3510, 773211.0
933.4740, 776357.0
934.5970, 773822.0
935.7200, 775684.0
936.8420, 774553.0
937.9650, 777770.0
939.0870, 778202.0
940.2090, 777323.0
941.3310, 779991.0
942.4530, 779841.0
943.5750, 781067.0
944.6960, 781678.0
945.8170, 782272.0
946.9380, 783345.0
948.0590, 782896.0
949.1800, 786481.0
950.3010, 785005.0
951.4210, 787552.0
952.5420, 786794.0
953.6620, 788219.0
954.7820, 789469.0
955.9020, 787739.0
957.0210, 791276.0
958.1410, 790896.0
959.2600, 793693.0
960.3790, 796339.0
961.4980, 795968.0
962.6170, 797671.0
963.7360, 798180.0
964.8540, 799876.0
965.9730, 799078.0
967.0910, 800958.0
968.2090, 801533.0
969.3270, 803293.0
970.4440, 804027.0
971.5620, 804091.0
972.6790, 806217.0
973.7960, 807220.0
974.9130, 807105.0
976.0300, 808315.0
977.1470, 808880.6
978.2640, 810339.0
979.3800, 810465.0
980.4960, 811798.0
981.6120, 812733.0
982.7280, 813293.0
983.8440, 814923.0
984.9590, 816133.0
986.0750, 818092.0
987.1900, 819492.0
988.3050, 820664.0
989.4200, 821142.0
990.5350, 825198.0
991.6490, 826808.0
992.7640, 829288.0
993.8780, 832999.0
994.9920, 834782.0
996.1060, 838596.0
997.2200, 844242.0
998.3330, 847892.0
999.4470, 855603.0
1000.560, 863170.0
1001.673, 869194.0
1002.786, 875169.0
1003.899, 884940.0
1005.011, 891731.0
1006.124, 900117.0
1007.236, 912056.0
1008.348, 916611.0
1009.460, 924131.0
1010.572, 927554.0
1011.684, 929585.0
1012.795, 926799.0
1013.906, 921849.0
1015.017, 912966.0
1016.128, 899838.0
1017.239, 889952.0
1018.350, 878401.0
1019.460, 868835.0
1020.571, 862787.0
1021.681, 857279.0
1022.791, 856096.0
1023.900, 851054.0
1025.010, 851449.0
1026.120, 850143.0
1027.229, 850573.0
1028.338, 850842.0
1029.447, 850851.0
1030.556, 853242.0
1031.664, 851382.0
1032.773, 853989.0
1033.881, 856152.0
1034.989, 855045.0
1036.097, 856794.0
1037.205, 859737.0
1038.313, 860695.0
1039.420, 859670.0
1040.528, 861962.0
1041.635, 862142.0
1042.742, 863650.0
1043.849, 866034.0
1044.955, 864848.0
1046.062, 865235.0
1047.168, 865434.0
1048.274, 866211.0
1049.380, 867007.0
1050.486, 866642.0
1051.592, 866980.0
1052.697, 866563.0
1053.803, 867246.0
1054.908, 868857.0
1056.013, 867895.0
1057.117, 868158.0
1058.222, 865945.0
1059.327, 867823.0
1060.431, 867401.0
1061.535, 869568.0
1062.639, 870068.0
1063.743, 870014.0
1064.847, 872568.0
1065.950, 871564.0
1067.054, 873456.0
1068.157, 874234.0
1069.260, 874202.0
1070.363, 873065.0
1071.465, 875838.0
1072.568, 875117.0
1073.670, 876758.0
1074.772, 879693.0
1075.874, 879228.0
1076.976, 880404.0
1078.078, 882266.0
1079.179, 881665.0
1080.281, 884897.0
1081.382, 882816.0
1082.483, 884457.0
1083.584, 885196.0
1084.684, 885524.4
1085.785, 887925.0
1086.885, 887891.0
1087.985, 888543.0
1089.085, 890178.0
1090.185, 890979.0
1091.285, 892950.0
1092.384, 894611.0
1093.484, 896133.0
1094.583, 897074.0
1095.682, 897182.0
1096.781, 897789.0
1097.879, 897294.0
1098.978, 901299.0
1100.076, 898133.0
1101.174, 902905.0
1102.272, 901644.0
1103.370, 903626.0
1104.468, 905839.0
1105.565, 904207.0
1106.663, 907626.0
1107.760, 906067.0
1108.857, 908047.0
1109.954, 909403.0
1111.050, 909940.0
1112.147, 911478.0
1113.243, 910279.0
1114.339, 911673.0
1115.435, 911834.0
1116.531, 914045.0
1117.627, 915385.0
1118.722, 914251.0
1119.818, 915067.0
1120.913, 917133.0
1122.008, 918703.0
1123.103, 920535.0
1124.197, 919353.0
1125.292, 920564.0
1126.386, 920431.0
1127.480, 923559.0
1128.574, 921696.0
1129.668, 922976.0
1130.762, 925421.0
1131.855, 922581.0
1132.949, 929090.0
1134.042, 925830.0
1135.135, 929557.0
1136.228, 929176.0
1137.320, 929416.0
1138.413, 931902.0
1139.505, 929850.0
1140.597, 932162.0
1141.689, 931653.0
1142.781, 935159.0
1143.873, 938337.0
1144.964, 935036.0
1146.055, 938760.0
1147.146, 938028.0
1148.237, 938751.0
1149.328, 937165.0
1150.419, 939421.0
1151.509, 941420.0
1152.600, 941414.0
1153.690, 945440.0
1154.780, 941984.0
1155.869, 945654.0
1156.959, 946435.0
1158.049, 945564.0
1159.138, 949061.0
1160.227, 949622.0
1161.316, 949969.0
1162.405, 950366.0
1163.493, 952034.0
1164.582, 952955.0
1165.670, 952333.0
1166.758, 955068.0
1167.846, 954766.0
1168.934, 956548.0
1170.021, 957537.0
1171.109, 958754.0
1172.196, 960515.0
1173.283, 961020.0
1174.370, 963168.0
1175.457, 963874.0
1176.543, 963322.0
1177.630, 966504.0
1178.716, 963904.0
1179.802, 967664.0
1180.888, 966900.0
1181.974, 970064.0
1183.059, 971572.0
1184.145, 970037.0
1185.230, 972469.0
1186.315, 971844.0
1187.400, 972904.0
1188.485, 974738.0
1189.569, 974322.0
1190.653, 977314.0
1191.738, 974873.0
1192.822, 978177.0
1193.906, 978072.0
1194.989, 978360.0
1196.073, 981583.0
1197.156, 980642.0
1198.239, 983035.0
1199.322, 984613.0
1200.405, 983465.0
1201.488, 985964.0
1202.570, 984742.0
1203.653, 988060.0
1204.735, 987705.0
1205.817, 988659.0
1206.899, 990786.0
1207.980, 989696.0
1209.062, 992929.0
1210.143, 991628.0
1211.224, 995156.0
1212.305, 995729.0
1213.386, 994441.0
1214.467, 997817.0
1215.547, 997172.0
1216.628, 999319.0
1217.708, 999264.0
1218.788, 1000123.
1219.868, 1002497.
1220.947, 1000771.
1222.027, 1004663.
1223.106, 1005122.
1224.185, 1008397.
1225.264, 1009592.
1226.343, 1007918.
1227.421, 1011060.
1228.500, 1010409.
1229.578, 1012326.
1230.656, 1012099.
1231.734, 1013927.
1232.812, 1014937.
1233.890, 1013431.
1234.967, 1017559.
1236.044, 1015779.
1237.121, 1018324.
1238.198, 1020755.
1239.275, 1020086.
1240.352, 1023013.
1241.428, 1022832.
1242.504, 1023114.
1243.580, 1025057.
1244.656, 1024095.
1245.732, 1028369.
1246.807, 1026842.
1247.883, 1030623.
1248.958, 1032042.
