##NAMES=Diopside
##RRUFFID=R050666
##IDEAL CHEMISTRY=CaMgSi_2_O_6_
##LOCALITY=Franklin, Sussex County, New Jersey, USA
##OWNER=RRUFF
##SOURCE=University of Arizona Mineral Museum
##DESCRIPTION=Brown cleavage fragment with white hardystonite
##STATUS=The identification of this mineral has been confirmed by X-ray diffraction and chemical analysis
##URL=rruff.info/R050666
##MEASURED CHEMISTRY=Ca(Mg_0.66_Mn_0.33_Fe_0.01_)Si_2_O_6_
##PIN_ID=L01400
##ORIENTATION=Laser parallel to -a* (-1 0 0). Fiducial mark perpendicular to laser is parallel to -b [0 -1 0]
155.0020, 21090.00
156.2290, 21055.00
157.4550, 20953.00
158.6810, 21173.00
159.9080, 20961.00
161.1340, 21083.00
162.3590, 21046.00
163.5850, 21070.00
164.8110, 21186.00
166.0360, 20982.00
167.2610, 21338.00
168.4860, 21254.00
169.7110, 21285.00
170.9360, 21563.00
172.1610, 21608.00
173.3850, 21981.00
174.6100, 21858.00
175.8340, 21832.00
177.0580, 21715.00
178.2820, 21676.00
179.5050, 21740.00
180.7290, 21624.00
181.9520, 21632.00
183.1760, 21666.66
184.3990, 21546.00
185.6220, 21731.00
186.8450, 21815.00
188.0670, 21819.00
189.2900, 21643.00
190.5120, 21896.00
191.7340, 21827.00
192.9560, 22187.00
194.1780, 22023.00
195.4000, 22089.00
196.6220, 22261.00
197.8430, 22189.00
199.0640, 22253.00
200.2860, 22309.00
201.5070, 22325.00
202.7270, 22552.00
203.9480, 22440.79
205.1690, 22170.00
206.3890, 22330.00
207.6090, 22169.00
208.8290, 22136.00
210.0490, 22212.00
211.2690, 22238.00
212.4890, 22310.00
213.7080, 22332.00
214.9280, 22386.00
216.1470, 22239.00
217.3660, 22298.00
218.5850, 22398.00
219.8030, 22533.00
221.0220, 22337.00
222.2400, 22360.00
223.4590, 22457.00
224.6770, 22491.00
225.8950, 22560.00
227.1120, 22689.00
228.3300, 22771.00
229.5480, 23051.00
230.7650, 22987.00
231.9820, 23124.00
233.1990, 23340.00
234.4160, 23223.00
235.6330, 23239.00
236.8490, 22854.00
238.0660, 22932.00
239.2820, 22830.00
240.4980, 22756.00
241.7140, 22883.00
242.9300, 22561.00
244.1460, 23080.00
245.3610, 22903.00
246.5770, 22713.00
247.7920, 22635.00
249.0070, 23137.00
250.2220, 22716.00
251.4370, 23030.00
252.6510, 23114.00
253.8660, 23195.00
255.0800, 23200.00
256.2940, 23096.00
257.5080, 23632.00
258.7220, 23433.97
259.9360, 24031.00
261.1490, 23445.00
262.3630, 23311.00
263.5760, 23370.00
264.7890, 23175.00
266.0020, 23321.00
267.2150, 23316.00
268.4270, 23141.00
269.6400, 23172.00
270.8520, 23149.38
272.0640, 23362.00
273.2760, 23221.00
274.4880, 23313.00
275.7000, 23439.00
276.9120, 23307.00
278.1230, 23507.00
279.3340, 23534.00
280.5450, 23406.00
281.7560, 23565.00
282.9670, 23626.00
284.1780, 23741.00
285.3880, 23839.23
286.5980, 23696.00
287.8090, 23927.00
289.0190, 23849.00
290.2290, 23680.00
291.4380, 24194.00
292.6480, 24180.00
293.8570, 24408.00
295.0670, 24330.00
296.2760, 24487.00
297.4850, 24487.00
298.6930, 24659.00
299.9020, 24925.00
301.1110, 25248.00
302.3190, 25385.00
303.5270, 25748.00
304.7350, 26098.05
305.9430, 26527.00
307.1510, 26955.00
308.3580, 27660.00
309.5660, 28242.00
310.7730, 28821.00
311.9800, 29283.00
313.1870, 29835.00
314.3940, 29894.00
315.6010, 29959.00
316.8070, 29703.00
318.0130, 29325.00
319.2200, 28905.00
320.4260, 28144.00
321.6310, 27678.00
322.8370, 27433.00
324.0430, 27012.00
325.2480, 26854.00
326.4540, 26478.00
327.6590, 26232.00
328.8640, 26322.00
330.0680, 25833.00
331.2730, 25918.00
332.4780, 25887.00
333.6820, 25858.00
334.8860, 25935.28
336.0900, 26066.00
337.2940, 26130.00
338.4980, 26254.00
339.7010, 26547.00
340.9050, 26837.00
342.1080, 27003.00
343.3110, 27232.00
344.5140, 27382.00
345.7170, 27813.00
346.9200, 27799.00
348.1220, 28070.00
349.3240, 27836.00
350.5270, 27612.00
351.7290, 27717.00
352.9310, 27397.00
354.1320, 27199.04
355.3340, 26897.00
356.5350, 26782.00
357.7370, 26660.00
358.9380, 26788.00
360.1390, 26397.00
361.3400, 26404.00
362.5400, 26330.00
363.7410, 26187.00
364.9410, 26496.00
366.1410, 26339.00
367.3410, 26517.00
368.5410, 26873.00
369.7410, 27039.00
370.9400, 27316.00
372.1400, 27889.00
373.3390, 28261.00
374.5380, 28777.00
375.7370, 29558.00
376.9360, 30364.00
378.1350, 31149.00
379.3330, 31833.00
380.5310, 32495.00
381.7300, 32969.00
382.9280, 32614.00
384.1260, 32165.00
385.3230, 31489.00
386.5210, 30332.00
387.7180, 29505.00
388.9160, 28438.00
390.1130, 27910.00
391.3100, 27521.00
392.5060, 26740.00
393.7030, 26505.00
394.9000, 26289.00
396.0960, 26051.00
397.2920, 25913.00
398.4880, 25852.00
399.6840, 25755.00
400.8800, 25833.00
402.0750, 25518.00
403.2710, 25715.00
404.4660, 25542.00
405.6610, 25465.00
406.8560, 25606.00
408.0510, 25629.00
409.2450, 25412.00
410.4400, 25506.00
411.6340, 25473.00
412.8280, 25473.00
414.0220, 25426.00
415.2160, 25490.00
416.4100, 25404.00
417.6030, 25450.00
418.7970, 25572.00
419.9900, 25512.00
421.1830, 25543.11
422.3760, 25607.00
423.5690, 25499.00
424.7610, 25389.00
425.9540, 25361.00
427.1460, 25357.06
428.3380, 25394.86
429.5300, 25486.00
430.7220, 25504.00
431.9140, 25675.00
433.1050, 25618.00
434.2970, 25612.00
435.4880, 25753.00
436.6790, 25878.00
437.8700, 25738.00
439.0610, 25661.00
440.2510, 25597.00
441.4420, 25663.00
442.6320, 25639.62
443.8220, 25788.00
445.0120, 25797.00
446.2020, 25699.00
447.3910, 25957.00
448.5810, 26110.00
449.7700, 25851.00
450.9600, 25822.00
452.1490, 26014.00
453.3370, 26128.00
454.5260, 26085.00
455.7150, 26040.00
456.9030, 25967.00
458.0910, 25752.00
459.2800, 25922.00
460.4670, 25778.00
461.6550, 25877.00
462.8430, 25953.00
464.0300, 25947.00
465.2180, 25824.00
466.4050, 25887.00
467.5920, 26053.00
468.7790, 25958.00
469.9650, 26093.00
471.1520, 25905.00
472.3380, 26002.00
473.5250, 25906.00
474.7110, 25851.00
475.8970, 26065.00
477.0820, 25875.00
478.2680, 26054.00
479.4540, 25932.00
480.6390, 26136.00
481.8240, 26174.00
483.0090, 26258.00
484.1940, 26051.00
485.3780, 25989.00
486.5630, 26101.00
487.7470, 26077.00
488.9320, 26350.00
490.1160, 26177.00
491.3000, 26249.00
492.4830, 26483.00
493.6670, 26448.00
494.8500, 26703.00
496.0340, 26762.00
497.2170, 26769.00
498.4000, 26981.00
499.5820, 27095.00
500.7650, 27395.00
501.9480, 27368.00
503.1300, 27145.00
504.3120, 27326.00
505.4940, 27133.00
506.6760, 27027.00
507.8580, 26960.00
509.0390, 26804.89
510.2210, 26741.00
511.4020, 26602.00
512.5830, 26686.00
513.7640, 26672.00
514.9450, 26739.00
516.1250, 26957.00
517.3060, 26786.00
518.4860, 26854.00
519.6660, 26715.00
520.8460, 26848.00
522.0260, 27052.00
523.2060, 26664.00
524.3850, 26995.00
525.5650, 27198.00
526.7440, 26929.00
527.9230, 26819.00
529.1020, 26907.00
530.2810, 26840.00
531.4590, 26825.00
532.6380, 26724.00
533.8160, 26879.00
534.9940, 26678.00
536.1720, 26575.00
537.3500, 26752.00
538.5270, 26605.00
539.7050, 26446.00
540.8820, 26854.00
542.0590, 27091.00
543.2360, 26997.00
544.4130, 27193.00
545.5900, 27011.00
546.7660, 27021.00
547.9430, 27251.00
549.1190, 27278.00
550.2950, 27547.00
551.4710, 27705.00
552.6470, 27842.00
553.8220, 27850.00
554.9980, 27738.00
556.1730, 27827.00
557.3480, 27820.00
558.5230, 27370.00
559.6980, 27460.00
560.8730, 27297.00
562.0470, 26810.00
563.2220, 27108.00
564.3960, 26862.00
565.5700, 26842.00
566.7440, 26977.00
567.9170, 26954.00
569.0910, 27016.00
570.2640, 26904.00
571.4380, 26940.00
572.6110, 26850.00
573.7840, 26805.00
574.9570, 26768.00
576.1290, 26736.00
577.3020, 26577.00
578.4740, 26472.00
579.6460, 26876.00
580.8180, 26810.00
581.9900, 26766.00
583.1620, 26836.00
584.3330, 26737.00
585.5040, 26579.00
586.6760, 26737.00
587.8470, 26592.00
589.0180, 26691.00
590.1880, 26727.00
591.3590, 26549.00
592.5290, 26832.00
593.7000, 26736.00
594.8700, 26715.00
596.0400, 26661.00
597.2090, 26740.00
598.3790, 26677.00
599.5490, 26702.00
600.7180, 26662.00
601.8870, 26820.00
603.0560, 26619.00
604.2250, 26510.00
605.3940, 26853.00
606.5620, 26800.00
607.7300, 26678.00
608.8990, 26540.00
610.0670, 26625.00
611.2350, 26636.00
612.4020, 26741.00
613.5700, 26856.00
614.7370, 26931.00
615.9050, 27100.00
617.0720, 26810.00
618.2390, 27267.00
619.4060, 27065.00
620.5720, 26998.00
621.7390, 27230.00
622.9050, 27091.00
624.0710, 27099.00
625.2370, 27302.00
626.4030, 27258.00
627.5690, 27341.00
628.7340, 27455.00
629.9000, 27443.00
631.0650, 27297.00
632.2300, 27616.00
633.3950, 27615.00
634.5600, 27439.00
635.7240, 27685.00
636.8890, 27721.00
638.0530, 27958.00
639.2170, 28102.00
640.3810, 28171.00
641.5450, 28269.00
642.7080, 28560.00
643.8720, 28535.00
645.0350, 29219.00
646.1980, 29560.00
647.3610, 30054.00
648.5240, 30827.00
649.6870, 31479.00
650.8490, 32438.00
652.0120, 33737.00
653.1740, 35270.00
654.3360, 37034.00
655.4980, 38733.00
656.6600, 40351.00
657.8210, 42079.00
658.9830, 43021.00
660.1440, 43487.00
661.3050, 43123.00
662.4660, 42171.00
663.6270, 40515.00
664.7870, 38657.00
665.9480, 36887.00
667.1080, 35014.00
668.2680, 33643.00
669.4280, 32595.00
670.5880, 31303.00
671.7480, 30706.00
672.9070, 29919.00
674.0670, 29313.00
675.2260, 29388.00
676.3850, 28832.00
677.5440, 28589.00
678.7030, 28369.00
679.8610, 28166.00
681.0200, 28002.36
682.1780, 27814.00
683.3360, 27719.00
684.4940, 27553.00
685.6520, 27413.00
686.8090, 27464.00
687.9670, 27542.00
689.1240, 27203.00
690.2810, 27426.00
691.4380, 27444.00
692.5950, 27139.00
693.7520, 27205.00
694.9080, 27435.00
696.0650, 27225.00
697.2210, 27128.00
698.3770, 26942.00
699.5330, 27138.00
700.6880, 27188.00
701.8440, 27219.00
702.9990, 27314.00
704.1550, 27176.37
705.3100, 27134.00
706.4650, 26989.00
707.6190, 26900.00
708.7740, 27016.00
709.9290, 26977.00
711.0830, 27114.00
712.2370, 26943.00
713.3910, 27044.00
714.5450, 26969.40
715.6980, 26845.00
716.8520, 26818.00
718.0050, 26850.00
719.1580, 26734.00
720.3110, 26770.00
721.4640, 26598.00
722.6170, 26731.00
723.7700, 26929.00
724.9220, 26735.00
726.0740, 26714.00
727.2260, 26777.00
728.3780, 26708.00
729.5300, 26794.00
730.6810, 26740.00
731.8330, 26772.00
732.9840, 26670.00
734.1350, 26872.00
735.2860, 26612.00
736.4370, 26648.00
737.5880, 26515.00
738.7380, 26757.00
739.8880, 26765.00
741.0390, 26824.00
742.1890, 26702.00
743.3380, 26651.00
744.4880, 26591.00
745.6380, 26608.34
746.7870, 26686.00
747.9360, 26676.00
749.0850, 26802.00
750.2340, 26789.00
751.3830, 26786.00
752.5310, 26809.00
753.6800, 26738.00
754.8280, 26670.00
755.9760, 26819.00
757.1240, 26723.00
758.2720, 26646.00
759.4190, 26605.00
760.5670, 26791.00
761.7140, 26568.00
762.8610, 26716.00
764.0080, 26721.00
765.1550, 26580.00
766.3020, 26692.00
767.4480, 26674.00
768.5950, 26788.00
769.7410, 26766.94
770.8870, 26455.00
772.0330, 26717.00
773.1780, 26567.00
774.3240, 26492.00
775.4690, 26800.00
776.6140, 26662.00
777.7590, 26628.00
778.9040, 26576.00
780.0490, 26639.00
781.1940, 26522.00
782.3380, 26705.00
783.4820, 26520.00
784.6260, 26585.00
785.7700, 26379.00
786.9140, 26609.00
788.0580, 26457.00
789.2010, 26425.00
790.3450, 26547.00
791.4880, 26445.00
792.6310, 26613.00
793.7730, 26621.00
794.9160, 26411.00
796.0590, 26523.00
797.2010, 26628.00
798.3430, 26811.00
799.4850, 26541.00
800.6270, 26419.00
801.7690, 26528.00
802.9100, 26630.00
804.0520, 26368.00
805.1930, 26672.00
806.3340, 26453.00
807.4750, 26567.00
808.6160, 26529.00
809.7560, 26572.00
810.8970, 26698.00
812.0370, 26679.00
813.1770, 26582.00
814.3170, 26556.00
815.4570, 26414.00
816.5960, 26425.00
817.7360, 26394.49
818.8750, 26434.00
820.0140, 26465.00
821.1530, 26342.00
822.2920, 26511.00
823.4310, 26408.00
824.5690, 26491.00
825.7070, 26548.00
826.8460, 26662.00
827.9840, 26506.00
829.1220, 26746.00
830.2590, 26473.00
831.3970, 26710.00
832.5340, 26584.00
833.6710, 26310.00
834.8080, 26608.00
835.9450, 26897.00
837.0820, 26547.00
838.2190, 26864.00
839.3550, 27003.00
840.4910, 27297.00
841.6270, 27503.13
842.7630, 27404.00
843.8990, 27847.00
845.0350, 28006.00
846.1700, 27999.00
847.3060, 28327.00
848.4410, 28407.00
849.5760, 28120.00
850.7100, 28093.00
851.8450, 27937.00
852.9800, 27728.00
854.1140, 27449.00
855.2480, 27245.00
856.3820, 27067.00
857.5160, 27023.00
858.6500, 26809.00
859.7830, 26816.00
860.9170, 26691.00
862.0500, 26858.00
863.1830, 26791.00
864.3160, 26689.00
865.4480, 26606.00
866.5810, 26633.00
867.7130, 26573.00
868.8460, 26471.00
869.9780, 26691.00
871.1100, 26383.00
872.2410, 26555.00
873.3730, 26620.00
874.5050, 26450.00
875.6360, 26574.00
876.7670, 26485.00
877.8980, 26721.00
879.0290, 26542.00
880.1590, 26384.00
881.2900, 26925.00
882.4200, 26388.00
883.5500, 26295.00
884.6800, 26498.00
885.8100, 26448.00
886.9400, 26707.00
888.0690, 26653.00
889.1990, 26494.00
890.3280, 26472.00
891.4570, 26406.00
892.5860, 26371.00
893.7140, 26484.00
894.8430, 26466.00
895.9710, 26500.00
897.1000, 26375.00
898.2280, 26538.00
899.3560, 26286.00
900.4830, 26542.00
901.6110, 26430.00
902.7380, 26505.00
903.8660, 26221.00
904.9930, 26541.00
906.1200, 26511.00
907.2460, 26295.00
908.3730, 26378.00
909.5000, 26513.00
910.6260, 26438.00
911.7520, 26524.00
912.8780, 26472.00
914.0040, 26464.00
915.1290, 26254.00
916.2550, 26465.00
917.3800, 26415.00
918.5050, 26486.00
919.6300, 26205.00
920.7550, 26400.00
921.8800, 26302.00
923.0040, 26367.00
924.1290, 26276.00
925.2530, 26233.00
926.3770, 26257.00
927.5010, 26353.00
928.6250, 26324.00
929.7480, 26221.00
930.8720, 26177.00
931.9950, 26134.00
933.1180, 26245.00
934.2410, 26002.00
935.3640, 26305.00
936.4860, 26071.00
937.6090, 26140.00
938.7310, 26306.00
939.8530, 25992.00
940.9750, 26068.00
942.0970, 26118.00
943.2180, 26175.00
944.3400, 26000.00
945.4610, 25930.00
946.5820, 26059.00
947.7030, 26028.00
948.8240, 26028.00
949.9450, 26096.00
951.0650, 26166.00
952.1860, 26250.00
953.3060, 26054.00
954.4260, 26254.00
955.5460, 26232.00
956.6650, 26160.00
957.7850, 26269.00
958.9040, 26236.00
960.0230, 26260.00
961.1420, 26224.00
962.2610, 26247.00
963.3800, 26395.00
964.4990, 26220.00
965.6170, 26440.00
966.7350, 26252.00
967.8530, 26237.00
968.9710, 26146.00
970.0890, 26215.00
971.2070, 26370.00
972.3240, 26184.00
973.4410, 26385.00
974.5580, 26273.00
975.6750, 26333.00
976.7920, 26597.00
977.9090, 26344.00
979.0250, 26651.00
980.1410, 26253.00
981.2580, 26457.00
982.3740, 26472.00
983.4890, 26630.00
984.6050, 26509.00
985.7200, 26640.00
986.8360, 26609.00
987.9510, 26698.00
989.0660, 26649.00
990.1810, 26739.00
991.2950, 26951.00
992.4100, 27054.00
993.5240, 27014.00
994.6390, 27454.00
995.7530, 27454.00
996.8660, 27895.00
997.9800, 28052.00
999.0940, 28417.00
1000.207, 29150.00
1001.320, 29685.00
1002.433, 30728.00
1003.546, 32088.00
1004.659, 33355.00
1005.772, 35299.00
1006.884, 38266.00
1007.996, 41305.00
1009.108, 44997.00
1010.220, 48557.00
1011.332, 51910.00
1012.444, 53245.00
1013.555, 53059.00
1014.666, 50557.00
1015.777, 46315.00
1016.888, 42364.00
1017.999, 38495.00
1019.110, 35496.00
1020.220, 33064.00
1021.331, 31615.00
1022.441, 30289.00
1023.551, 29683.00
1024.661, 29050.00
1025.770, 28573.00
1026.880, 28484.00
1027.989, 28127.00
1029.098, 28099.00
1030.207, 28218.00
1031.316, 28014.00
1032.425, 28045.00
1033.533, 28160.00
1034.642, 28325.00
1035.750, 28437.54
1036.858, 28858.00
1037.966, 28691.00
1039.073, 28759.00
1040.181, 28741.00
1041.288, 28587.00
1042.396, 28462.00
1043.503, 28067.00
1044.610, 27813.00
1045.716, 27360.00
1046.823, 27077.00
1047.929, 27005.00
1049.036, 26641.00
1050.142, 26374.00
1051.248, 26509.00
1052.353, 26120.00
1053.459, 26291.00
1054.564, 26144.00
1055.670, 26187.00
1056.775, 25897.00
1057.880, 26076.00
1058.985, 25920.00
1060.089, 25974.00
1061.194, 25919.22
1062.298, 25937.00
1063.402, 25760.00
1064.506, 25725.00
1065.610, 25633.00
1066.713, 25724.00
1067.817, 25709.00
1068.920, 25821.00
1070.023, 25716.00
1071.126, 25411.00
1072.229, 25580.00
1073.332, 25468.00
1074.435, 25455.00
1075.537, 25666.00
1076.639, 25595.00
1077.741, 25611.00
1078.843, 25352.00
1079.945, 25357.00
1081.046, 25255.00
1082.148, 25490.00
1083.249, 25553.00
1084.350, 25318.00
1085.451, 25320.00
1086.551, 25297.00
1087.652, 25313.00
1088.752, 25430.00
1089.853, 25397.00
1090.953, 25024.00
1092.053, 25279.00
1093.152, 25039.00
1094.252, 25205.00
1095.351, 25266.00
1096.451, 25152.00
1097.550, 25051.00
1098.649, 24989.00
1099.748, 25076.00
1100.846, 25127.00
1101.945, 25269.00
1103.043, 24955.00
1104.141, 25010.00
1105.239, 24927.00
1106.337, 25118.00
1107.434, 24872.00
1108.532, 24854.00
1109.629, 24944.00
1110.726, 24777.00
1111.823, 25029.00
1112.920, 24905.00
1114.017, 24828.00
1115.113, 25059.00
1116.210, 25188.00
1117.306, 25396.00
1118.402, 25508.00
1119.498, 25636.00
1120.593, 26001.00
1121.689, 25932.00
1122.784, 26105.00
1123.879, 25667.00
1124.974, 25696.00
1126.069, 25238.00
1127.164, 24902.00
1128.259, 25050.00
1129.353, 24659.00
1130.447, 24819.00
1131.541, 24808.00
1132.635, 24517.00
1133.729, 24459.00
1134.822, 24502.00
1135.916, 24389.00
1137.009, 24319.00
1138.102, 24464.00
1139.195, 24264.00
1140.288, 24330.00
1141.380, 24425.00
1142.473, 24414.00
1143.565, 24438.20
1144.657, 24343.00
1145.749, 24389.00
1146.841, 24217.00
1147.932, 24135.00
1149.024, 24194.00
1150.115, 24061.00
1151.206, 24106.89
1152.297, 24064.00
1153.388, 24169.00
1154.479, 24064.00
1155.569, 24131.00
1156.659, 23979.00
1157.750, 23948.00
1158.839, 24052.00
1159.929, 24037.00
1161.019, 23964.00
1162.108, 23994.00
1163.198, 23709.00
1164.287, 23898.00
1165.376, 23729.00
1166.465, 23756.00
1167.553, 24061.00
1168.642, 23653.00
1169.730, 23762.00
1170.818, 23662.00
1171.906, 23726.00
1172.994, 23725.00
1174.082, 23701.00
1175.170, 23542.00
1176.257, 23787.00
1177.344, 23848.00
1178.431, 23943.00
1179.518, 23606.00
1180.605, 23694.00
1181.691, 23716.00
1182.778, 23677.00
1183.864, 23802.00
1184.950, 23742.03
1186.036, 23806.00
1187.122, 23724.00
1188.207, 23729.00
1189.292, 23779.00
1190.378, 23665.81
1191.463, 23517.00
1192.548, 23524.00
1193.632, 23445.00
1194.717, 23424.00
1195.801, 23416.00
1196.886, 23517.00
1197.970, 23507.00
1199.054, 23496.00
1200.137, 23528.00
1201.221, 23496.99
1202.305, 23471.69
1203.388, 23477.00
1204.471, 23399.00
1205.554, 23418.00
1206.637, 23409.00
1207.719, 23469.00
1208.802, 23372.00
1209.884, 23422.00
1210.966, 23354.00
1212.048, 23225.00
1213.130, 23382.00
1214.212, 23273.00
1215.293, 23551.00
1216.374, 23242.00
1217.456, 23191.00
1218.536, 23179.00
1219.617, 23409.00
1220.698, 23399.00
1221.778, 23373.00
1222.859, 23311.00
1223.939, 23369.00
1225.019, 23242.00
1226.099, 23127.00
1227.178, 23161.00
1228.258, 23300.00
1229.337, 23347.00
1230.417, 23372.81
1231.496, 23359.69
1232.574, 23368.00
1233.653, 23274.00
1234.732, 23199.00
1235.810, 23225.00
1236.888, 23131.00
1237.966, 23159.00
1239.044, 23327.00
1240.122, 22995.00
1241.199, 23188.00
1242.277, 23154.00
1243.354, 23086.00
1244.431, 23112.00
1245.508, 23161.00
1246.585, 22993.00
1247.661, 22827.00
1248.738, 22919.00
1249.814, 23022.00
1250.890, 23042.00
1251.966, 22859.00
1253.042, 22732.00
1254.117, 22704.00
1255.193, 22702.00
1256.268, 22734.00
1257.343, 22700.79
1258.418, 22777.00
1259.493, 22693.00
1260.567, 22754.00
1261.642, 22808.00
1262.716, 22874.00
1263.790, 22740.00
1264.864, 22947.00
1265.938, 22795.00
1267.011, 22774.00
1268.085, 22905.00
1269.158, 22604.00
1270.231, 22804.00
1271.304, 22595.00
1272.377, 22557.00
1273.450, 22583.00
1274.522, 22690.00
1275.594, 22568.00
1276.666, 22639.00
1277.738, 22695.00
1278.810, 22705.00
1279.882, 22719.00
1280.953, 22615.00
1282.025, 22585.00
1283.096, 22632.00
1284.167, 22501.00
1285.238, 22541.00
1286.308, 22642.00
1287.379, 22545.44
1288.449, 22563.00
1289.519, 22466.00
1290.589, 22516.00
1291.659, 22460.00
1292.729, 22330.00
1293.798, 22490.00
1294.868, 22375.00
1295.937, 22541.00
1297.006, 22483.00
1298.075, 22637.00
1299.143, 22651.00
1300.212, 22530.00
1301.280, 22490.00
1302.348, 22486.00
1303.416, 22529.00
1304.484, 22328.00
1305.552, 22476.00
1306.620, 22350.00
1307.687, 22453.00
1308.754, 22452.00
1309.821, 22461.00
1310.888, 22327.00
1311.955, 22440.00
1313.021, 22319.00
1314.088, 22514.00
1315.154, 22448.00
1316.220, 22272.00
1317.286, 22163.00
1318.352, 22381.00
1319.417, 22475.00
1320.483, 22259.00
1321.548, 22335.00
1322.613, 22184.00
1323.678, 22306.00
1324.743, 22336.00
1325.807, 22339.00
1326.872, 22415.00
