##NAMES=Diopside
##RRUFFID=R060861
##IDEAL CHEMISTRY=CaMgSi_2_O_6_
##LOCALITY=Red Mountain Volcano, NW of Flagstaff, Arizona, USA
##OWNER=RRUFF
##SOURCE=Jennifer Sano
##DESCRIPTION=Worn brown fragment
##STATUS=The identification of this mineral has been confirmed by X-ray diffraction and chemical analysis
##URL=rruff.info/R060861
##MEASURED CHEMISTRY=(Ca_0.72_Fe^2+^_0.23_Na_0.05_)_Σ=1_(Mg_0.80_Al_0.15_Ti_0.03_Fe^3+^_0.02_)_Σ=1_(Si_1.82_Al_0.18_)_Σ=2_O_6_
##PIN_ID=M00947
##ORIENTATION=Laser parallel to a* (1 0 0). Fiducial mark perpendicular to laser is parallel to b [0 1 0]
212.8350, 14024.00
214.0620, 14105.00
215.2880, 13929.00
216.5150, 13927.00
217.7410, 13867.00
218.9680, 13881.00
220.1940, 13798.00
221.4190, 13870.00
222.6450, 13946.00
223.8700, 13850.00
225.0960, 13907.00
226.3210, 14069.00
227.5450, 14033.00
228.7700, 14027.00
229.9940, 14000.00
231.2190, 14004.00
232.4430, 14034.00
233.6660, 14030.00
234.8900, 14010.00
236.1140, 14003.00
237.3370, 14039.00
238.5600, 14080.00
239.7830, 14086.00
241.0050, 14231.00
242.2280, 14069.00
243.4500, 14015.00
244.6720, 14222.00
245.8940, 14303.00
247.1160, 14220.00
248.3370, 14277.00
249.5580, 14433.00
250.7790, 14221.00
252.0000, 13963.00
253.2210, 14078.00
254.4410, 14032.00
255.6620, 14088.00
256.8820, 13839.00
258.1020, 13988.00
259.3210, 13825.58
260.5410, 13594.35
261.7600, 13562.00
262.9790, 13123.00
264.1980, 12852.00
265.4170, 12728.00
266.6360, 12629.00
267.8540, 12551.00
269.0720, 12453.00
270.2900, 12337.00
271.5080, 12295.00
272.7260, 12308.00
273.9430, 12385.00
275.1600, 12309.00
276.3770, 12296.00
277.5940, 12477.00
278.8100, 12462.00
280.0270, 12364.00
281.2430, 12610.00
282.4590, 12662.00
283.6750, 12671.00
284.8910, 12808.00
286.1060, 12635.00
287.3210, 13016.00
288.5360, 13149.00
289.7510, 13052.00
290.9660, 13345.00
292.1800, 13620.00
293.3950, 13730.00
294.6090, 13784.00
295.8230, 14135.00
297.0360, 14256.00
298.2500, 14627.00
299.4630, 14797.00
300.6760, 14922.00
301.8890, 15453.00
303.1020, 15616.00
304.3150, 15910.00
305.5270, 16159.00
306.7390, 16635.00
307.9510, 17217.00
309.1630, 17364.00
310.3750, 18031.00
311.5860, 18604.00
312.7970, 19130.00
314.0080, 19747.00
315.2190, 20453.00
316.4300, 20897.00
317.6400, 21719.00
318.8510, 22424.00
320.0610, 23053.00
321.2710, 24005.00
322.4800, 24683.00
323.6900, 25410.00
324.8990, 26204.00
326.1080, 26614.00
327.3170, 27397.00
328.5260, 27632.00
329.7340, 28225.00
330.9430, 28236.00
332.1510, 28269.00
333.3590, 28276.00
334.5670, 27983.00
335.7740, 27757.00
336.9820, 27460.00
338.1890, 27051.00
339.3960, 26626.00
340.6030, 26211.75
341.8100, 25672.25
343.0160, 25262.40
344.2220, 24759.22
345.4280, 24210.00
346.6340, 23700.00
347.8400, 23157.00
349.0460, 22561.00
350.2510, 22308.00
351.4560, 21625.00
352.6610, 21297.00
353.8660, 20913.00
355.0700, 20373.00
356.2750, 19838.00
357.4790, 19541.00
358.6830, 19052.00
359.8870, 18738.00
361.0910, 18492.00
362.2940, 18099.00
363.4970, 17781.00
364.7000, 17481.00
365.9030, 17122.00
367.1060, 17129.00
368.3080, 16993.00
369.5110, 16691.00
370.7130, 16629.00
371.9150, 16323.00
373.1170, 16192.00
374.3180, 16304.00
375.5200, 16104.00
376.7210, 16202.00
377.9220, 16108.00
379.1230, 16073.00
380.3230, 16013.00
381.5240, 16176.00
382.7240, 16242.00
383.9240, 16367.00
385.1240, 16386.00
386.3240, 16489.00
387.5230, 16576.00
388.7230, 16620.00
389.9220, 16647.00
391.1210, 16733.00
392.3200, 16821.00
393.5180, 16836.00
394.7170, 16761.00
395.9150, 16533.00
397.1130, 16452.00
398.3110, 16288.00
399.5080, 15814.00
400.7060, 15534.00
401.9030, 15057.00
403.1000, 14767.00
404.2970, 14213.00
405.4940, 13844.00
406.6910, 13268.00
407.8870, 13019.00
409.0830, 12701.00
410.2790, 12398.00
411.4750, 12086.00
412.6710, 11815.00
413.8660, 11610.00
415.0610, 11500.00
416.2560, 11402.00
417.4510, 11203.00
418.6460, 11074.00
419.8410, 11014.00
421.0350, 11015.00
422.2290, 10905.00
423.4230, 10829.00
424.6170, 10831.00
425.8100, 10693.00
427.0040, 10665.00
428.1970, 10675.00
429.3900, 10659.00
430.5830, 10714.00
431.7760, 10608.00
432.9680, 10707.00
434.1610, 10560.00
435.3530, 10568.00
436.5450, 10469.00
437.7360, 10548.00
438.9280, 10430.00
440.1190, 10453.00
441.3110, 10248.00
442.5020, 10361.00
443.6930, 10345.00
444.8830, 10233.00
446.0740, 10277.00
447.2640, 10254.00
448.4540, 10272.00
449.6440, 10199.00
450.8340, 10129.00
452.0240, 10192.00
453.2130, 10126.00
454.4020, 10118.00
455.5910, 10254.00
456.7800, 10261.00
457.9690, 10404.00
459.1570, 10270.00
460.3460, 10250.00
461.5340, 10374.00
462.7220, 10161.00
463.9090, 10274.00
465.0970, 10251.00
466.2840, 10269.00
467.4720, 10306.00
468.6590, 10242.00
469.8460, 10304.00
471.0320, 10297.00
472.2190, 10202.00
473.4050, 10316.00
474.5910, 10227.00
475.7770, 10252.00
476.9630, 10176.00
478.1490, 10236.00
479.3340, 10293.00
480.5190, 10174.00
481.7040, 10306.00
482.8890, 10427.00
484.0740, 10279.00
485.2580, 10323.00
486.4430, 10421.00
487.6270, 10437.00
488.8110, 10450.00
489.9950, 10676.00
491.1780, 10693.00
492.3620, 10817.00
493.5450, 10830.00
494.7280, 10927.00
495.9110, 11190.00
497.0940, 11629.00
498.2760, 11643.00
499.4590, 12047.00
500.6410, 12153.00
501.8230, 12674.00
503.0050, 13303.00
504.1860, 13669.00
505.3680, 14280.00
506.5490, 14871.00
507.7300, 15312.00
508.9110, 15585.00
510.0920, 15874.00
511.2730, 15744.00
512.4530, 15688.00
513.6330, 15360.00
514.8130, 15046.00
515.9930, 14635.00
517.1730, 14461.00
518.3520, 14259.00
519.5320, 14220.00
520.7110, 14030.00
521.8900, 13914.71
523.0690, 13959.00
524.2470, 13792.00
525.4260, 13718.00
526.6040, 13940.00
527.7820, 13893.00
528.9600, 13947.00
530.1380, 13954.00
531.3150, 14008.00
532.4930, 14118.00
533.6700, 14266.00
534.8470, 14213.00
536.0240, 14314.00
537.2000, 14284.00
538.3770, 14494.00
539.5530, 14444.59
540.7290, 14574.00
541.9050, 14502.00
543.0810, 14313.00
544.2570, 14478.00
545.4320, 14259.00
546.6080, 14506.00
547.7830, 14405.00
548.9580, 14270.00
550.1320, 14245.00
551.3070, 14115.00
552.4810, 14069.00
553.6550, 14012.61
554.8300, 14014.00
556.0030, 13938.00
557.1770, 13872.00
558.3510, 13892.00
559.5240, 13833.00
560.6970, 13806.00
561.8700, 13828.00
563.0430, 13804.00
564.2160, 13844.00
565.3880, 13697.00
566.5600, 13552.00
567.7320, 13666.00
568.9040, 13597.00
570.0760, 13625.00
571.2480, 13588.09
572.4190, 13421.00
573.5900, 13473.00
574.7610, 13361.32
575.9320, 13300.99
577.1030, 13220.00
578.2740, 13066.00
579.4440, 12860.00
580.6140, 12713.00
581.7840, 12579.00
582.9540, 12434.00
584.1240, 12285.00
585.2930, 12120.00
586.4630, 11822.00
587.6320, 11647.00
588.8010, 11400.00
589.9700, 11244.00
591.1380, 11130.00
592.3070, 11023.00
593.4750, 10787.00
594.6430, 10621.00
595.8110, 10533.00
596.9790, 10352.00
598.1460, 10216.54
599.3140, 10021.00
600.4810, 9899.000
601.6480, 9771.000
602.8150, 9576.000
603.9820, 9643.000
605.1480, 9464.000
606.3150, 9409.000
607.4810, 9511.000
608.6470, 9356.000
609.8130, 9376.000
610.9790, 9458.000
612.1440, 9332.000
613.3100, 9448.000
614.4750, 9456.000
615.6400, 9626.000
616.8050, 9593.000
617.9690, 9638.000
619.1340, 9766.000
620.2980, 9826.000
621.4620, 9886.000
622.6260, 9963.000
623.7900, 10093.00
624.9540, 10116.00
626.1170, 10255.00
627.2810, 10487.00
628.4440, 10484.00
629.6070, 10769.00
630.7690, 10956.00
631.9320, 11375.00
633.0950, 11500.00
634.2570, 11560.00
635.4190, 12087.00
636.5810, 12204.00
637.7430, 12677.00
638.9040, 13012.00
640.0660, 13393.00
641.2270, 14044.00
642.3880, 14544.00
643.5490, 15242.00
644.7100, 15879.00
645.8700, 16754.00
647.0310, 17547.00
648.1910, 18527.00
649.3510, 19808.00
650.5110, 21182.00
651.6710, 22855.00
652.8300, 24721.00
653.9900, 26641.00
655.1490, 28828.00
656.3080, 31608.00
657.4670, 34011.00
658.6250, 37538.00
659.7840, 40836.00
660.9420, 43987.00
662.1010, 47538.00
663.2590, 51220.00
664.4170, 54414.00
665.5740, 56634.00
666.7320, 58070.00
667.8890, 58386.00
669.0460, 57869.00
670.2030, 56076.00
671.3600, 53694.00
672.5170, 50240.00
673.6740, 46579.00
674.8300, 43014.00
675.9860, 39701.00
677.1420, 36517.00
678.2980, 33437.00
679.4540, 30710.00
680.6090, 28266.00
681.7650, 26135.00
682.9200, 24244.00
684.0750, 22468.00
685.2300, 21202.00
686.3840, 19997.00
687.5390, 18904.00
688.6930, 17943.32
689.8470, 16981.00
691.0010, 16292.00
692.1550, 15643.00
693.3090, 15017.00
694.4620, 14504.00
695.6160, 14142.00
696.7690, 13781.00
697.9220, 13511.00
699.0750, 13149.00
700.2280, 12872.17
701.3800, 12690.00
702.5320, 12339.00
703.6850, 12166.00
704.8370, 11972.00
705.9880, 11811.00
707.1400, 11558.00
708.2920, 11560.00
709.4430, 11278.00
710.5940, 11148.00
711.7450, 10887.00
712.8960, 10917.00
714.0470, 10680.00
715.1970, 10533.00
716.3480, 10486.00
717.4980, 10371.00
718.6480, 10286.00
719.7980, 10146.00
720.9470, 10069.00
722.0970, 10050.00
723.2460, 9971.000
724.3960, 9939.000
725.5450, 9706.000
726.6940, 9580.000
727.8420, 9631.000
728.9910, 9536.000
730.1390, 9493.000
731.2870, 9499.000
732.4350, 9472.000
733.5830, 9430.328
734.7310, 9435.000
735.8790, 9366.000
737.0260, 9302.000
738.1730, 9317.000
739.3200, 9390.000
740.4670, 9392.445
741.6140, 9376.273
742.7610, 9459.000
743.9070, 9325.000
745.0530, 9277.000
746.1990, 9287.000
747.3450, 9233.000
748.4910, 9377.000
749.6370, 9381.000
750.7820, 9440.000
751.9270, 9374.000
753.0720, 9519.000
754.2170, 9647.000
755.3620, 9516.000
756.5070, 9648.000
757.6510, 9608.000
758.7950, 9658.000
759.9400, 9644.000
761.0840, 9648.000
762.2270, 9625.000
763.3710, 9642.000
764.5140, 9742.000
765.6580, 9775.000
766.8010, 9895.000
767.9440, 9838.000
769.0870, 9830.000
770.2290, 9871.000
771.3720, 9839.000
772.5140, 9952.000
773.6560, 10062.00
774.7990, 10022.00
775.9400, 10014.00
777.0820, 10256.00
778.2240, 10144.00
779.3650, 9986.000
780.5060, 10160.00
781.6470, 10265.00
782.7880, 10260.00
783.9290, 10212.00
785.0690, 10298.00
786.2100, 10536.00
787.3500, 10761.00
788.4900, 10595.00
789.6300, 10441.00
790.7700, 10690.00
791.9090, 10829.00
793.0490, 10756.84
794.1880, 10733.00
795.3270, 10779.00
796.4660, 10847.00
797.6050, 10995.00
798.7440, 10949.00
799.8820, 11187.00
801.0200, 11224.00
802.1590, 11132.00
803.2970, 11423.00
804.4340, 11298.00
805.5720, 11480.00
806.7100, 11554.00
807.8470, 11658.00
808.9840, 11815.00
810.1210, 11829.00
811.2580, 12052.00
812.3950, 11851.00
813.5310, 12045.00
814.6680, 12252.00
815.8040, 12121.00
816.9400, 12249.00
818.0760, 12425.00
819.2120, 12297.00
820.3470, 12305.00
821.4830, 12364.00
822.6180, 12436.00
823.7530, 12372.00
824.8880, 12390.00
826.0230, 12489.00
827.1580, 12544.00
828.2920, 12518.44
829.4270, 12431.00
830.5610, 12460.00
831.6950, 12362.00
832.8290, 12333.00
833.9620, 12431.00
835.0960, 12315.00
836.2290, 12427.00
837.3620, 12449.00
838.4950, 12302.00
839.6280, 12270.00
840.7610, 12371.00
841.8940, 12252.00
843.0260, 12192.00
844.1580, 12249.00
845.2910, 12222.00
846.4230, 12296.00
847.5540, 12268.00
848.6860, 12143.00
849.8170, 12457.00
850.9490, 12369.00
852.0800, 12612.00
853.2110, 12533.00
854.3420, 12622.00
855.4730, 12730.00
856.6030, 12928.00
857.7340, 12976.38
858.8640, 12979.00
859.9940, 13115.00
861.1240, 13142.00
862.2540, 13159.00
863.3830, 13196.00
864.5130, 13293.00
865.6420, 13438.00
866.7710, 13352.00
867.9000, 13364.00
869.0290, 13326.00
870.1570, 13286.00
871.2860, 13291.01
872.4140, 13448.00
873.5430, 13236.00
874.6710, 13342.00
875.7980, 13236.00
876.9260, 13283.00
878.0540, 13020.00
879.1810, 13055.00
880.3080, 13006.00
881.4360, 13008.00
882.5630, 13116.00
883.6890, 12860.00
884.8160, 12994.00
885.9420, 12770.00
887.0690, 12855.00
888.1950, 12885.00
889.3210, 12799.00
890.4470, 12863.00
891.5730, 12781.00
892.6980, 12744.00
893.8240, 12740.00
894.9490, 12720.50
896.0740, 12712.32
897.1990, 12751.00
898.3240, 12725.00
899.4480, 12760.00
900.5730, 12811.46
901.6970, 12800.89
902.8210, 12974.00
903.9450, 12785.00
905.0690, 12774.00
906.1930, 12687.00
907.3160, 12856.00
908.4400, 12730.00
909.5630, 12946.00
910.6860, 12869.00
911.8090, 12789.00
912.9320, 12719.00
914.0550, 12898.00
915.1770, 12926.00
916.2990, 12989.00
917.4210, 13039.00
918.5440, 13144.00
919.6650, 13176.94
920.7870, 13217.00
921.9090, 13271.00
923.0300, 13395.00
924.1510, 13449.49
925.2720, 13503.00
926.3930, 13490.00
927.5140, 13415.00
928.6350, 13339.00
929.7550, 13407.00
930.8760, 13468.00
931.9960, 13420.00
933.1160, 13499.00
934.2360, 13490.00
935.3550, 13537.00
936.4750, 13498.00
937.5940, 13532.00
938.7140, 13561.00
939.8330, 13538.00
940.9520, 13562.98
942.0710, 13534.00
943.1890, 13564.00
944.3080, 13563.00
945.4260, 13550.00
946.5440, 13644.00
947.6620, 13515.00
948.7800, 13712.00
949.8980, 13789.00
951.0160, 13791.00
952.1330, 13950.00
953.2500, 13977.67
954.3680, 13978.00
955.4850, 14199.00
956.6010, 14068.00
957.7180, 14362.00
958.8350, 14286.00
959.9510, 14378.00
961.0670, 14673.00
962.1830, 14722.00
963.2990, 14852.00
964.4150, 14844.00
965.5310, 14989.00
966.6460, 15207.00
967.7620, 15306.00
968.8770, 15534.00
969.9920, 15634.00
971.1070, 15797.00
972.2210, 15804.00
973.3360, 16082.00
974.4500, 16312.00
975.5650, 16213.00
976.6790, 16600.42
977.7930, 16810.00
978.9070, 17070.00
980.0200, 17509.00
981.1340, 17609.00
982.2470, 17747.00
983.3610, 18160.00
984.4740, 18440.13
985.5870, 18737.00
986.6990, 19201.00
987.8120, 19710.00
988.9250, 19961.00
990.0370, 20265.00
991.1490, 20982.00
992.2610, 21358.00
993.3730, 21932.00
994.4850, 22478.00
995.5960, 23171.00
996.7080, 23666.00
997.8190, 24293.00
998.9300, 25025.00
1000.041, 25664.00
1001.152, 26327.00
1002.263, 27008.00
1003.373, 27184.00
1004.484, 27668.00
1005.594, 27664.00
1006.704, 27967.00
1007.814, 27619.00
1008.924, 27597.00
1010.034, 27145.00
1011.143, 26572.00
1012.253, 25923.00
1013.362, 25145.00
1014.471, 24360.00
1015.580, 23466.00
1016.689, 22443.00
1017.797, 21512.00
1018.906, 20944.00
1020.014, 20442.00
1021.122, 19669.00
1022.230, 19113.00
1023.338, 18808.00
1024.446, 18406.00
1025.554, 18064.61
1026.661, 17768.00
1027.768, 17484.00
1028.875, 17309.00
1029.983, 17063.00
1031.089, 16945.00
1032.196, 16959.00
1033.303, 16575.00
1034.409, 16687.00
1035.515, 16587.00
1036.622, 16473.00
1037.728, 16352.00
1038.833, 16209.79
1039.939, 15985.00
1041.045, 15911.00
1042.150, 15744.00
1043.255, 15609.00
1044.360, 15610.00
1045.465, 15469.00
1046.570, 15298.00
1047.675, 14915.00
1048.779, 14818.00
1049.884, 14684.00
1050.988, 14611.00
1052.092, 14315.00
1053.196, 14200.00
1054.300, 14048.00
1055.404, 13821.00
1056.507, 13664.00
1057.610, 13590.00
1058.714, 13332.00
1059.817, 13125.00
1060.920, 12971.00
1062.022, 12928.00
1063.125, 12856.00
1064.228, 12672.00
1065.330, 12563.00
1066.432, 12376.00
1067.534, 12288.00
1068.636, 12212.00
1069.738, 12226.00
1070.840, 12069.00
1071.941, 12073.00
1073.042, 11858.00
1074.144, 11931.00
1075.245, 11717.00
1076.346, 11665.00
1077.446, 11670.00
1078.547, 11584.00
1079.647, 11467.00
1080.748, 11506.00
1081.848, 11519.00
1082.948, 11436.00
1084.048, 11303.00
1085.148, 11119.00
1086.247, 11194.00
1087.347, 11136.00
1088.446, 11009.00
1089.545, 11066.00
1090.644, 11020.00
1091.743, 10931.00
1092.842, 10817.00
1093.940, 10864.00
1095.039, 10741.00
1096.137, 10685.00
1097.235, 10692.00
1098.333, 10557.00
1099.431, 10469.00
1100.529, 10465.00
1101.627, 10426.00
1102.724, 10548.00
1103.822, 10326.00
1104.919, 10354.00
1106.016, 10140.00
1107.113, 10221.00
1108.209, 10220.00
1109.306, 10106.00
1110.402, 10151.00
1111.499, 9999.000
1112.595, 9913.000
1113.691, 9968.000
1114.787, 9953.000
1115.883, 9981.000
1116.978, 9942.000
1118.074, 10041.00
1119.169, 10007.26
1120.264, 9914.000
1121.359, 9983.000
1122.454, 9961.000
1123.549, 9914.000
1124.644, 9874.000
1125.738, 9639.000
1126.832, 9543.000
1127.927, 9331.000
1129.021, 9274.000
1130.115, 9146.000
1131.208, 8978.000
1132.302, 8970.000
1133.396, 8931.000
1134.489, 8783.000
1135.582, 8736.000
1136.675, 8729.000
1137.768, 8708.000
1138.861, 8609.000
1139.954, 8534.000
1141.046, 8566.000
1142.138, 8425.000
1143.231, 8464.000
1144.323, 8468.000
1145.415, 8396.000
1146.507, 8248.000
1147.598, 8315.000
1148.690, 8226.000
1149.781, 8104.000
1150.872, 8209.000
1151.964, 8116.000
1153.054, 8213.000
1154.145, 8244.000
1155.236, 8082.000
1156.327, 8077.000
1157.417, 8198.000
1158.507, 8138.000
1159.597, 8044.000
1160.687, 8053.000
1161.777, 7952.000
1162.867, 7949.000
1163.956, 7973.000
1165.046, 8032.000
1166.135, 7956.000
1167.224, 7944.000
1168.313, 7958.000
1169.402, 7954.000
1170.491, 7857.000
1171.580, 7948.000
1172.668, 7829.000
1173.756, 7852.000
1174.845, 7918.000
1175.933, 7893.000
1177.020, 7886.000
1178.108, 7775.000
1179.196, 7885.000
1180.283, 7831.000
1181.371, 7763.000
1182.458, 7899.000
1183.545, 7752.000
1184.632, 7763.000
1185.719, 7739.000
1186.805, 7814.000
1187.892, 7786.000
1188.978, 7744.000
1190.065, 7927.000
1191.151, 7833.000
1192.237, 7945.000
1193.323, 7829.000
1194.408, 7791.000
1195.494, 7862.000
1196.579, 7725.000
1197.664, 7749.000
1198.750, 7847.000
1199.835, 7835.000
1200.919, 7685.000
1202.004, 7873.000
1203.089, 7800.000
1204.173, 7715.000
1205.258, 7761.000
1206.342, 7741.000
1207.426, 7732.000
1208.510, 7809.000
1209.594, 7669.000
1210.677, 7716.000
1211.761, 7795.000
1212.844, 7784.000
1213.927, 7689.000
1215.010, 7708.000
1216.093, 7715.817
1217.176, 7659.000
1218.259, 7774.000
1219.341, 7777.000
1220.424, 7778.000
1221.506, 7751.000
1222.588, 7719.000
1223.670, 7796.000
1224.752, 7776.000
1225.834, 7838.000
1226.915, 7759.000
1227.997, 7781.000
1229.078, 7874.000
1230.159, 7794.000
1231.240, 7777.000
1232.321, 7799.000
1233.402, 7763.000
1234.483, 7834.000
1235.563, 7767.000
1236.644, 7675.000
1237.724, 7727.000
1238.804, 7670.000
1239.884, 7781.000
1240.964, 7679.000
1242.044, 7805.000
1243.123, 7811.000
1244.203, 7735.000
1245.282, 7712.000
1246.361, 7801.000
1247.440, 7714.000
1248.519, 7780.000
1249.598, 7770.000
1250.676, 7790.000
1251.755, 7724.000
1252.833, 7742.000
1253.911, 7737.000
1254.989, 7757.000
1256.067, 7816.000
1257.145, 7692.000
1258.223, 7758.000
1259.300, 7775.000
1260.378, 7706.000
1261.455, 7635.000
1262.532, 7717.000
1263.609, 7635.000
1264.686, 7762.000
1265.763, 7732.000
1266.840, 7757.000
1267.916, 7671.000
1268.992, 7640.000
1270.069, 7733.000
1271.145, 7770.000
1272.221, 7781.000
1273.296, 7861.000
1274.372, 7671.000
1275.448, 7758.000
1276.523, 7678.000
1277.598, 7686.000
1278.673, 7758.000
1279.749, 7799.000
1280.823, 7741.000
1281.898, 7646.000
1282.973, 7748.000
1284.047, 7667.000
1285.122, 7724.000
1286.196, 7714.000
1287.270, 7593.000
1288.344, 7737.000
1289.418, 7802.000
1290.491, 7683.000
1291.565, 7815.000
1292.638, 7781.000
1293.712, 7810.000
1294.785, 7745.000
1295.858, 7845.000
1296.931, 7761.000
1298.003, 7726.000
1299.076, 7776.000
1300.149, 7755.000
1301.221, 7817.000
1302.293, 7723.000
1303.365, 7831.000
1304.437, 7869.000
1305.509, 7786.000
1306.581, 7819.000
1307.652, 7844.000
1308.724, 7975.000
1309.795, 7849.000
1310.866, 7828.000
1311.937, 7877.000
1313.008, 7819.000
1314.079, 7904.000
1315.150, 7739.000
1316.220, 7852.000
1317.291, 7779.000
1318.361, 7758.000
1319.431, 7826.000
1320.501, 7787.000
1321.571, 7873.317
1322.641, 7980.166
1323.710, 8001.002
1324.780, 7888.000
1325.849, 7872.000
1326.918, 7944.000
1327.987, 7981.000
1329.056, 7930.000
1330.125, 7968.226
1331.194, 8000.000
1332.263, 7957.000
1333.331, 7994.000
1334.399, 7993.000
1335.467, 7988.979
1336.535, 7979.727
1337.603, 8012.000
1338.671, 7953.000
1339.739, 7994.000
1340.806, 8032.000
1341.874, 7978.000
1342.941, 7992.000
1344.008, 8009.000
1345.075, 7985.000
1346.142, 8001.000
1347.209, 8002.032
1348.275, 8005.768
1349.342, 8026.000
1350.408, 8038.000
1351.475, 8079.000
1352.541, 8124.000
1353.607, 7988.000
1354.673, 8035.000
1355.738, 8156.000
1356.804, 7981.000
1357.869, 7993.000
1358.935, 7987.000
1360.000, 8040.000
1361.065, 8024.843
1362.130, 8046.641
1363.195, 8076.000
1364.259, 8026.000
1365.324, 8039.288
1366.388, 8062.000
1367.453, 8001.000
1368.517, 8051.836
1369.581, 8023.070
1370.645, 8052.000
1371.709, 8060.000
1372.772, 8034.000
1373.836, 8004.000
1374.899, 7953.000
1375.963, 7934.000
