##NAMES=Diopside
##RRUFFID=R060861
##IDEAL CHEMISTRY=CaMgSi_2_O_6_
##LOCALITY=Red Mountain Volcano, NW of Flagstaff, Arizona, USA
##OWNER=RRUFF
##SOURCE=Jennifer Sano
##DESCRIPTION=Worn brown fragment
##STATUS=The identification of this mineral has been confirmed by X-ray diffraction and chemical analysis
##URL=rruff.info/R060861
##MEASURED CHEMISTRY=(Ca_0.72_Fe^2+^_0.23_Na_0.05_)_Σ=1_(Mg_0.80_Al_0.15_Ti_0.03_Fe^3+^_0.02_)_Σ=1_(Si_1.82_Al_0.18_)_Σ=2_O_6_
##PIN_ID=M01599
##ORIENTATION=Laser parallel to (1 0 1). Fiducial mark perpendicular to laser is parallel to b [0 1 0]
183.3280, 14053.00
184.5600, 14244.00
185.7910, 14574.00
187.0220, 14638.00
188.2540, 14811.00
189.4840, 15113.00
190.7150, 15048.00
191.9460, 15360.00
193.1760, 15462.00
194.4060, 15324.00
195.6360, 15530.00
196.8660, 15512.00
198.0960, 15466.00
199.3250, 15566.00
200.5540, 15616.00
201.7830, 15744.00
203.0120, 15621.00
204.2400, 15317.00
205.4690, 14837.00
206.6970, 14578.00
207.9250, 14435.00
209.1530, 14576.00
210.3800, 14783.00
211.6080, 14890.00
212.8350, 15078.00
214.0620, 15479.00
215.2880, 15492.00
216.5150, 16363.00
217.7410, 16680.00
218.9680, 16540.00
220.1940, 17033.00
221.4190, 17157.00
222.6450, 17151.00
223.8700, 17501.00
225.0960, 17661.00
226.3210, 17448.00
227.5450, 17447.00
228.7700, 17427.00
229.9940, 17328.00
231.2190, 17133.00
232.4430, 16925.00
233.6660, 16723.00
234.8900, 16508.00
236.1140, 16392.00
237.3370, 16254.00
238.5600, 16080.00
239.7830, 15908.00
241.0050, 15868.00
242.2280, 15773.00
243.4500, 15748.00
244.6720, 15660.00
245.8940, 15672.06
247.1160, 15673.00
248.3370, 15722.00
249.5580, 15722.86
250.7790, 15927.00
252.0000, 15761.00
253.2210, 15838.00
254.4410, 15880.00
255.6620, 15784.00
256.8820, 15710.00
258.1020, 15905.00
259.3210, 15804.91
260.5410, 15692.14
261.7600, 15755.00
262.9790, 15341.00
264.1980, 15159.00
265.4170, 14964.00
266.6360, 15098.00
267.8540, 14966.00
269.0720, 14835.00
270.2900, 15009.00
271.5080, 14917.00
272.7260, 14826.00
273.9430, 14973.00
275.1600, 15106.00
276.3770, 15218.00
277.5940, 15248.00
278.8100, 15490.00
280.0270, 15404.00
281.2430, 15805.00
282.4590, 15844.00
283.6750, 16160.00
284.8910, 16331.00
286.1060, 16785.00
287.3210, 16894.00
288.5360, 17086.00
289.7510, 17537.00
290.9660, 17802.00
292.1800, 18217.00
293.3950, 18619.00
294.6090, 19043.00
295.8230, 19467.00
297.0360, 19780.00
298.2500, 20371.00
299.4630, 20406.00
300.6760, 20847.00
301.8890, 21318.00
303.1020, 21580.00
304.3150, 21985.00
305.5270, 22445.57
306.7390, 22870.49
307.9510, 23436.00
309.1630, 23945.00
310.3750, 24556.00
311.5860, 25281.00
312.7970, 25921.00
314.0080, 26784.00
315.2190, 27480.00
316.4300, 28319.00
317.6400, 29327.00
318.8510, 30473.00
320.0610, 31379.00
321.2710, 32496.00
322.4800, 33550.00
323.6900, 34610.00
324.8990, 35554.00
326.1080, 36465.00
327.3170, 37289.00
328.5260, 37866.00
329.7340, 38599.00
330.9430, 39045.00
332.1510, 39548.00
333.3590, 39751.00
334.5670, 39694.00
335.7740, 39899.00
336.9820, 39640.52
338.1890, 39393.00
339.3960, 38917.00
340.6030, 38494.00
341.8100, 37742.36
343.0160, 37460.63
344.2220, 37406.00
345.4280, 36794.00
346.6340, 37430.00
347.8400, 37329.00
349.0460, 36615.00
350.2510, 36901.00
351.4560, 36721.00
352.6610, 36096.00
353.8660, 35942.00
355.0700, 35707.00
356.2750, 35989.00
357.4790, 35795.00
358.6830, 35622.00
359.8870, 35525.00
361.0910, 35522.00
362.2940, 35306.00
363.4970, 35108.00
364.7000, 34862.00
365.9030, 34505.00
367.1060, 34216.11
368.3080, 33681.00
369.5110, 33563.00
370.7130, 33096.00
371.9150, 32866.00
373.1170, 32602.00
374.3180, 32403.00
375.5200, 32358.00
376.7210, 32358.00
377.9220, 32364.00
379.1230, 32550.06
380.3230, 32636.00
381.5240, 33129.00
382.7240, 33834.00
383.9240, 34432.00
385.1240, 35421.00
386.3240, 36054.00
387.5230, 37216.00
388.7230, 37966.00
389.9220, 39074.00
391.1210, 39653.00
392.3200, 40317.00
393.5180, 40584.00
394.7170, 40660.00
395.9150, 41003.00
397.1130, 40517.00
398.3110, 39565.00
399.5080, 38695.00
400.7060, 37200.00
401.9030, 35736.00
403.1000, 33880.00
404.2970, 32040.00
405.4940, 30365.00
406.6910, 28426.00
407.8870, 26586.00
409.0830, 25059.00
410.2790, 23598.00
411.4750, 22126.00
412.6710, 21151.00
413.8660, 19999.00
415.0610, 19174.00
416.2560, 18300.00
417.4510, 17768.00
418.6460, 17242.00
419.8410, 16656.00
421.0350, 16381.00
422.2290, 15860.00
423.4230, 15594.00
424.6170, 15405.00
425.8100, 15147.00
427.0040, 14802.00
428.1970, 14682.00
429.3900, 14533.00
430.5830, 14439.00
431.7760, 14323.53
432.9680, 14173.00
434.1610, 14069.00
435.3530, 13989.00
436.5450, 13749.00
437.7360, 13672.12
438.9280, 13429.00
440.1190, 13462.00
441.3110, 13289.00
442.5020, 13277.00
443.6930, 13284.00
444.8830, 13178.25
446.0740, 13174.00
447.2640, 13078.00
448.4540, 13069.00
449.6440, 13052.00
450.8340, 12981.00
452.0240, 12997.00
453.2130, 13280.00
454.4020, 13128.00
455.5910, 13251.00
456.7800, 13223.00
457.9690, 13291.00
459.1570, 13253.00
460.3460, 13441.00
461.5340, 13514.00
462.7220, 13717.00
463.9090, 13744.00
465.0970, 13814.00
466.2840, 13722.00
467.4720, 13706.00
468.6590, 13707.00
469.8460, 13820.00
471.0320, 13871.00
472.2190, 13607.00
473.4050, 13824.00
474.5910, 13848.00
475.7770, 13610.00
476.9630, 13676.00
478.1490, 13595.00
479.3340, 13683.00
480.5190, 13551.00
481.7040, 13668.00
482.8890, 13559.26
484.0740, 13556.00
485.2580, 13513.00
486.4430, 13256.00
487.6270, 13492.00
488.8110, 13342.00
489.9950, 13576.00
491.1780, 13491.00
492.3620, 13470.00
493.5450, 13457.00
494.7280, 13388.00
495.9110, 13510.00
497.0940, 13318.00
498.2760, 13382.00
499.4590, 13479.00
500.6410, 13268.00
501.8230, 13267.00
503.0050, 13322.00
504.1860, 13353.00
505.3680, 13418.00
506.5490, 13432.00
507.7300, 13706.00
508.9110, 13771.00
510.0920, 13795.00
511.2730, 14089.00
512.4530, 14072.63
513.6330, 14415.00
514.8130, 14094.00
515.9930, 14434.00
517.1730, 14236.24
518.3520, 14737.00
519.5320, 14862.00
520.7110, 15015.00
521.8900, 15210.00
523.0690, 15333.00
524.2470, 15524.00
525.4260, 15744.00
526.6040, 15882.53
527.7820, 15958.00
528.9600, 16172.00
530.1380, 16294.00
531.3150, 16347.00
532.4930, 16486.00
533.6700, 16501.00
534.8470, 16701.00
536.0240, 16690.00
537.2000, 16755.00
538.3770, 16741.00
539.5530, 16820.00
540.7290, 16812.00
541.9050, 16704.00
543.0810, 16727.00
544.2570, 16677.88
545.4320, 16630.00
546.6080, 16638.00
547.7830, 16668.00
548.9580, 16681.00
550.1320, 16682.00
551.3070, 16807.00
552.4810, 16707.00
553.6550, 16663.00
554.8300, 16860.00
556.0030, 16794.00
557.1770, 16659.00
558.3510, 16725.00
559.5240, 16511.00
560.6970, 16330.00
561.8700, 16108.00
563.0430, 15866.40
564.2160, 15668.00
565.3880, 15373.00
566.5600, 15059.00
567.7320, 14836.00
568.9040, 14553.11
570.0760, 14180.00
571.2480, 14069.00
572.4190, 13819.00
573.5900, 13618.00
574.7610, 13131.00
575.9320, 12964.00
577.1030, 12755.00
578.2740, 12558.00
579.4440, 12462.00
580.6140, 12130.00
581.7840, 11832.00
582.9540, 11477.00
584.1240, 11353.00
585.2930, 11159.00
586.4630, 10850.00
587.6320, 10636.00
588.8010, 10337.00
589.9700, 10167.00
591.1380, 9998.000
592.3070, 9719.000
593.4750, 9458.000
594.6430, 9290.000
595.8110, 9206.000
596.9790, 8930.000
598.1460, 8844.000
599.3140, 8653.000
600.4810, 8617.000
601.6480, 8614.000
602.8150, 8435.000
603.9820, 8431.000
605.1480, 8426.000
606.3150, 8493.000
607.4810, 8450.000
608.6470, 8466.000
609.8130, 8424.000
610.9790, 8534.000
612.1440, 8567.000
613.3100, 8717.000
614.4750, 8767.000
615.6400, 8811.000
616.8050, 8841.000
617.9690, 8986.000
619.1340, 9087.000
620.2980, 9310.000
621.4620, 9260.000
622.6260, 9400.000
623.7900, 9439.000
624.9540, 9685.000
626.1170, 9714.000
627.2810, 9832.000
628.4440, 10082.00
629.6070, 10383.00
630.7690, 10654.00
631.9320, 10801.00
633.0950, 11056.00
634.2570, 11428.00
635.4190, 11601.00
636.5810, 11974.00
637.7430, 12653.00
638.9040, 13016.00
640.0660, 13506.00
641.2270, 14120.00
642.3880, 14834.00
643.5490, 15607.00
644.7100, 16194.00
645.8700, 17334.00
647.0310, 18242.00
648.1910, 19255.00
649.3510, 20634.00
650.5110, 22361.00
651.6710, 24282.00
652.8300, 26223.00
653.9900, 28506.00
655.1490, 30837.00
656.3080, 33680.00
657.4670, 37002.00
658.6250, 39953.00
659.7840, 43225.00
660.9420, 46320.00
662.1010, 50239.00
663.2590, 52843.00
664.4170, 55365.00
665.5740, 57259.00
666.7320, 57875.00
667.8890, 58103.00
669.0460, 56986.00
670.2030, 55228.00
671.3600, 53081.00
672.5170, 49359.00
673.6740, 46153.00
674.8300, 42718.00
675.9860, 39158.00
677.1420, 35820.00
678.2980, 32820.00
679.4540, 30163.00
680.6090, 27758.00
681.7650, 25697.00
682.9200, 23702.00
684.0750, 21889.00
685.2300, 20568.00
686.3840, 19294.00
687.5390, 17984.00
688.6930, 16776.00
689.8470, 16029.00
691.0010, 15285.00
692.1550, 14507.00
693.3090, 14013.00
694.4620, 13531.00
695.6160, 13055.00
696.7690, 12567.00
697.9220, 12269.00
699.0750, 11854.00
700.2280, 11584.00
701.3800, 11372.00
702.5320, 11122.00
703.6850, 10891.00
704.8370, 11037.00
705.9880, 11294.00
707.1400, 10219.00
708.2920, 10431.00
709.4430, 9988.000
710.5940, 9787.000
711.7450, 9742.000
712.8960, 9465.629
714.0470, 9352.163
715.1970, 9201.000
716.3480, 9068.000
717.4980, 9002.000
718.6480, 8926.000
719.7980, 8767.000
720.9470, 8714.000
722.0970, 8565.000
723.2460, 8411.000
724.3960, 8410.000
725.5450, 8307.000
726.6940, 8264.000
727.8420, 8232.759
728.9910, 8220.000
730.1390, 8150.000
731.2870, 8059.000
732.4350, 7981.000
733.5830, 8023.000
734.7310, 8009.000
735.8790, 8042.710
737.0260, 8066.031
738.1730, 8154.000
739.3200, 8117.000
740.4670, 8181.000
741.6140, 8202.958
742.7610, 8161.000
743.9070, 8321.000
745.0530, 8383.000
746.1990, 8484.000
747.3450, 8630.000
748.4910, 8724.385
749.6370, 8788.000
750.7820, 8950.000
751.9270, 9058.000
753.0720, 9125.000
754.2170, 9229.000
755.3620, 9356.955
756.5070, 9491.979
757.6510, 9635.000
758.7950, 9744.000
759.9400, 9895.000
761.0840, 9874.000
762.2270, 10238.00
763.3710, 10386.00
764.5140, 10435.00
765.6580, 10409.00
766.8010, 10718.00
767.9440, 10755.00
769.0870, 10770.00
770.2290, 11071.00
771.3720, 11014.00
772.5140, 10960.00
773.6560, 11165.00
774.7990, 11110.00
775.9400, 11364.00
777.0820, 11332.00
778.2240, 11313.00
779.3650, 11491.00
780.5060, 11471.49
781.6470, 11591.00
782.7880, 11615.00
783.9290, 11482.00
785.0690, 11598.00
786.2100, 11505.00
787.3500, 11672.00
788.4900, 11717.00
789.6300, 11786.00
790.7700, 11828.59
791.9090, 11765.00
793.0490, 11823.00
794.1880, 11902.00
795.3270, 11848.00
796.4660, 11745.00
797.6050, 11878.00
798.7440, 12135.00
799.8820, 11953.00
801.0200, 12119.00
802.1590, 12168.00
803.2970, 12230.00
804.4340, 12396.00
805.5720, 12405.00
806.7100, 12658.00
807.8470, 12569.00
808.9840, 12566.00
810.1210, 12987.00
811.2580, 12894.48
812.3950, 13001.00
813.5310, 12961.00
814.6680, 13224.00
815.8040, 13065.00
816.9400, 13223.00
818.0760, 13298.00
819.2120, 13379.00
820.3470, 13384.83
821.4830, 13310.00
822.6180, 13351.00
823.7530, 13369.00
824.8880, 13405.00
826.0230, 13400.00
827.1580, 13450.00
828.2920, 13422.92
829.4270, 13424.00
830.5610, 13346.00
831.6950, 13345.00
832.8290, 13243.00
833.9620, 13291.00
835.0960, 13209.00
836.2290, 13149.00
837.3620, 13107.00
838.4950, 13194.00
839.6280, 12896.00
840.7610, 13178.00
841.8940, 12992.00
843.0260, 13045.00
844.1580, 13090.00
845.2910, 13067.00
846.4230, 13071.00
847.5540, 13138.18
848.6860, 13211.26
849.8170, 13313.00
850.9490, 13457.00
852.0800, 13643.00
853.2110, 13809.00
854.3420, 13980.00
855.4730, 14114.00
856.6030, 14446.00
857.7340, 14481.00
858.8640, 14728.00
859.9940, 14969.00
861.1240, 15057.00
862.2540, 15301.00
863.3830, 15564.00
864.5130, 15655.00
865.6420, 15786.00
866.7710, 15889.00
867.9000, 16007.00
869.0290, 16132.00
870.1570, 16203.63
871.2860, 16289.42
872.4140, 16290.00
873.5430, 16423.00
874.6710, 16342.00
875.7980, 16411.00
876.9260, 16370.00
878.0540, 16306.00
879.1810, 16413.00
880.3080, 16584.00
881.4360, 16432.00
882.5630, 16498.00
883.6890, 16454.00
884.8160, 16316.00
885.9420, 16417.00
887.0690, 16348.00
888.1950, 16401.00
889.3210, 16388.00
890.4470, 16342.00
891.5730, 16401.00
892.6980, 16344.00
893.8240, 16361.88
894.9490, 16376.00
896.0740, 16380.00
897.1990, 16355.00
898.3240, 16380.00
899.4480, 16285.00
900.5730, 16272.00
901.6970, 16316.00
902.8210, 16391.00
903.9450, 16255.00
905.0690, 16353.00
906.1930, 16277.00
907.3160, 16228.00
908.4400, 16413.00
909.5630, 16378.00
910.6860, 16254.00
911.8090, 16419.00
912.9320, 16407.00
914.0550, 16480.00
915.1770, 16600.00
916.2990, 16499.00
917.4210, 16634.00
918.5440, 16535.00
919.6650, 16598.00
920.7870, 16957.00
921.9090, 16768.00
923.0300, 16790.00
924.1510, 16947.00
925.2720, 16850.00
926.3930, 16986.00
927.5140, 17008.00
928.6350, 16993.00
929.7550, 17130.00
930.8760, 17014.00
931.9960, 17135.00
933.1160, 16968.00
934.2360, 17287.00
935.3550, 17212.00
936.4750, 17379.00
937.5940, 17392.00
938.7140, 17485.00
939.8330, 17400.00
940.9520, 17545.00
942.0710, 17543.00
943.1890, 17712.00
944.3080, 17783.00
945.4260, 18044.00
946.5440, 18052.00
947.6620, 18106.00
948.7800, 18475.00
949.8980, 18645.00
951.0160, 18891.00
952.1330, 19018.00
953.2500, 19199.00
954.3680, 19484.00
955.4850, 20036.00
956.6010, 20046.00
957.7180, 20293.00
958.8350, 20258.00
959.9510, 20841.00
961.0670, 21067.00
962.1830, 21422.00
963.2990, 21724.00
964.4150, 22072.00
965.5310, 22287.00
966.6460, 22591.00
967.7620, 23082.00
968.8770, 23348.00
969.9920, 23759.00
971.1070, 24284.00
972.2210, 24918.00
973.3360, 25421.00
974.4500, 25881.00
975.5650, 26368.00
976.6790, 26993.00
977.7930, 27747.00
978.9070, 28072.00
980.0200, 28850.00
981.1340, 29529.00
982.2470, 30612.00
983.3610, 31296.00
984.4740, 32359.00
985.5870, 33163.00
986.6990, 34761.00
987.8120, 36086.00
988.9250, 36998.00
990.0370, 38779.00
991.1490, 40526.00
992.2610, 42334.00
993.3730, 44176.93
994.4850, 46072.00
995.5960, 48025.00
996.7080, 49985.00
997.8190, 52164.14
998.9300, 54393.00
1000.041, 56349.00
1001.152, 58387.00
1002.263, 60197.00
1003.373, 61475.00
1004.484, 62682.00
1005.594, 63298.00
1006.704, 63187.00
1007.814, 62913.00
1008.924, 61964.00
1010.034, 60938.00
1011.143, 58549.00
1012.253, 56672.00
1013.362, 54041.00
1014.471, 51345.00
1015.580, 48160.00
1016.689, 45324.00
1017.797, 42757.00
1018.906, 39828.00
1020.014, 37572.00
1021.122, 35085.00
1022.230, 32995.00
1023.338, 31228.00
1024.446, 29640.00
1025.554, 28230.35
1026.661, 27182.00
1027.768, 26063.00
1028.875, 25052.00
1029.983, 24441.00
1031.089, 23481.00
1032.196, 22913.00
1033.303, 22491.00
1034.409, 21820.00
1035.515, 21353.00
1036.622, 20751.00
1037.728, 20372.00
1038.833, 19899.00
1039.939, 19739.00
1041.045, 19291.00
1042.150, 19024.00
1043.255, 18546.00
1044.360, 18307.00
1045.465, 17885.00
1046.570, 17616.00
1047.675, 17157.00
1048.779, 16740.00
1049.884, 16405.00
1050.988, 16299.00
1052.092, 15919.00
1053.196, 15696.00
1054.300, 15464.39
1055.404, 15088.00
1056.507, 14930.00
1057.610, 14621.00
1058.714, 14258.00
1059.817, 14062.00
1060.920, 13809.00
1062.022, 13601.00
1063.125, 13348.00
1064.228, 13101.00
1065.330, 12886.00
1066.432, 12712.40
1067.534, 12524.00
1068.636, 12452.00
1069.738, 12354.00
1070.840, 12315.00
1071.941, 12117.00
1073.042, 11934.00
1074.144, 11864.00
1075.245, 11679.00
1076.346, 11663.00
1077.446, 11543.00
1078.547, 11445.00
1079.647, 11351.00
1080.748, 11440.00
1081.848, 11427.00
1082.948, 11159.00
1084.048, 11290.00
1085.148, 11050.00
1086.247, 11028.00
1087.347, 11022.00
1088.446, 10828.00
1089.545, 10858.00
1090.644, 10815.00
1091.743, 10852.00
1092.842, 10654.00
1093.940, 10487.00
1095.039, 10498.00
1096.137, 10604.00
1097.235, 10609.00
1098.333, 10369.00
1099.431, 10252.00
1100.529, 10349.00
1101.627, 10207.00
1102.724, 10147.00
1103.822, 10257.00
1104.919, 10107.00
1106.016, 10135.00
1107.113, 10083.00
1108.209, 10115.00
1109.306, 10051.00
1110.402, 9901.000
1111.499, 9827.000
1112.595, 9813.000
1113.691, 9631.000
1114.787, 9505.000
1115.883, 9661.000
1116.978, 9534.000
1118.074, 9676.000
1119.169, 9517.000
1120.264, 9428.000
1121.359, 9416.000
1122.454, 9256.712
1123.549, 9108.000
1124.644, 9022.000
1125.738, 8783.000
1126.832, 8651.000
1127.927, 8348.000
1129.021, 8135.000
1130.115, 7992.000
1131.208, 7999.000
1132.302, 7750.000
1133.396, 7634.000
1134.489, 7497.000
1135.582, 7404.000
1136.675, 8047.000
1137.768, 7407.000
1138.861, 7669.000
1139.954, 6902.000
1141.046, 6894.000
1142.138, 6872.000
1143.231, 6666.000
1144.323, 6465.000
1145.415, 6511.000
1146.507, 6374.000
1147.598, 6237.000
1148.690, 6244.000
1149.781, 6144.000
1150.872, 6138.000
1151.964, 5977.000
1153.054, 5998.000
1154.145, 5896.000
1155.236, 5848.000
1156.327, 5872.000
1157.417, 5853.000
1158.507, 5913.000
1159.597, 5723.000
1160.687, 5793.000
1161.777, 5724.000
1162.867, 5734.000
1163.956, 5716.000
1165.046, 5624.000
1166.135, 5676.000
1167.224, 5693.000
1168.313, 5565.000
1169.402, 5640.000
1170.491, 5609.000
1171.580, 5580.000
1172.668, 5448.000
1173.756, 5594.000
1174.845, 5547.000
1175.933, 5613.000
1177.020, 5482.000
1178.108, 5457.000
1179.196, 5492.000
1180.283, 5477.000
1181.371, 5479.000
1182.458, 5463.000
1183.545, 5483.000
1184.632, 5456.369
1185.719, 5433.000
1186.805, 5403.000
1187.892, 5424.000
1188.978, 5375.000
1190.065, 5387.000
1191.151, 5436.000
1192.237, 5330.000
1193.323, 5305.000
1194.408, 5333.000
1195.494, 5449.000
1196.579, 5408.000
1197.664, 5379.000
1198.750, 5344.000
1199.835, 5441.000
1200.919, 5318.000
1202.004, 5344.000
1203.089, 5406.000
1204.173, 5332.000
1205.258, 5296.000
1206.342, 5311.000
1207.426, 5307.000
1208.510, 5377.000
1209.594, 5306.000
1210.677, 5374.000
1211.761, 5312.000
1212.844, 5330.000
1213.927, 5411.000
1215.010, 5320.000
1216.093, 5363.000
1217.176, 5294.000
1218.259, 5357.000
1219.341, 5418.000
1220.424, 5351.630
1221.506, 5496.000
1222.588, 5279.000
1223.670, 5284.000
1224.752, 5265.000
1225.834, 5334.000
1226.915, 5283.000
1227.997, 5398.000
1229.078, 5370.000
1230.159, 5335.000
1231.240, 5350.000
1232.321, 5332.000
1233.402, 5347.000
1234.483, 5341.000
1235.563, 5319.283
1236.644, 5286.000
1237.724, 5272.000
1238.804, 5306.000
1239.884, 5285.000
1240.964, 5345.000
1242.044, 5238.000
1243.123, 5323.000
1244.203, 5294.000
1245.282, 5315.000
1246.361, 5345.000
1247.440, 5359.000
1248.519, 5330.000
1249.598, 5223.000
1250.676, 5319.000
1251.755, 5200.000
1252.833, 5240.136
1253.911, 5451.000
1254.989, 5263.000
1256.067, 5335.000
1257.145, 5309.000
1258.223, 5319.000
1259.300, 5279.000
1260.378, 5280.000
1261.455, 5329.000
1262.532, 5285.000
1263.609, 5190.000
1264.686, 5265.000
1265.763, 5310.000
1266.840, 5201.000
1267.916, 5224.000
1268.992, 5225.000
1270.069, 5302.000
1271.145, 5375.000
1272.221, 5323.000
1273.296, 5367.835
1274.372, 5213.000
1275.448, 5337.000
1276.523, 5288.000
1277.598, 5230.000
1278.673, 5275.658
1279.749, 5282.531
1280.823, 5232.000
1281.898, 5382.000
1282.973, 5294.000
1284.047, 5329.000
1285.122, 5283.000
1286.196, 5296.000
1287.270, 5350.000
1288.344, 5239.000
1289.418, 5275.000
1290.491, 5275.000
1291.565, 5294.000
1292.638, 5370.000
1293.712, 5230.000
1294.785, 5343.000
1295.858, 5288.000
1296.931, 5371.000
1298.003, 5309.000
1299.076, 5263.000
1300.149, 5273.000
1301.221, 5256.000
1302.293, 5265.000
1303.365, 5289.000
1304.437, 5247.000
1305.509, 5251.000
1306.581, 5206.000
1307.652, 5338.000
1308.724, 5259.000
1309.795, 5440.000
1310.866, 5393.382
1311.937, 5423.762
1313.008, 5377.000
1314.079, 5408.000
1315.150, 5440.000
1316.220, 5341.000
1317.291, 5324.000
1318.361, 5353.000
1319.431, 5307.000
1320.501, 5447.000
1321.571, 5377.000
1322.641, 5370.000
1323.710, 5449.000
1324.780, 5355.000
1325.849, 5377.000
1326.918, 5322.000
1327.987, 5497.000
1329.056, 5349.000
1330.125, 5418.000
1331.194, 5389.000
1332.263, 5299.000
1333.331, 5502.000
1334.399, 5439.000
1335.467, 5435.000
1336.535, 5425.000
1337.603, 5451.000
1338.671, 5407.000
1339.739, 5437.000
1340.806, 5407.000
1341.874, 5328.000
1342.941, 5469.000
1344.008, 5347.000
1345.075, 5422.000
1346.142, 5308.000
1347.209, 5472.000
1348.275, 5450.000
1349.342, 5447.000
1350.408, 5453.000
