##NAMES=Diopside
##RRUFFID=R060085
##IDEAL CHEMISTRY=CaMgSi_2_O_6_
##LOCALITY=Tyrol, Austria
##OWNER=RRUFF
##SOURCE=University of Arizona Mineral Museum
##DESCRIPTION=Brownish-green massive
##STATUS=The identification of this mineral has been confirmed by X-ray diffraction and chemical analysis
##URL=rruff.info/R060085
##MEASURED CHEMISTRY=(Ca_0.97_Na_0.03_)_Σ=1_(Mg_0.79_Fe^2+^_0.10_Fe^3+^_0.04_Al_0.04_Ti_0.02_Cr_0.01_)_Σ=1_(Si_1.90_Al_0.10_)_Σ=2_O_6_
##PIN_ID=M00537
##ORIENTATION=Laser parallel to (-1 0 -1). Fiducial mark perpendicular to laser is parallel to b [0 1 0]
92.59500, 11223.00
93.83500, 11360.00
95.07500, 11359.00
96.31500, 11204.00
97.55400, 11430.00
98.79400, 11396.00
100.0330, 11472.00
101.2720, 11377.00
102.5110, 11483.00
103.7500, 11595.00
104.9890, 11680.00
106.2270, 11801.00
107.4650, 11716.00
108.7040, 11786.00
109.9420, 11694.00
111.1790, 11796.00
112.4170, 11871.00
113.6540, 12051.00
114.8920, 11929.00
116.1290, 11980.00
117.3650, 12120.00
118.6020, 12141.00
119.8390, 12155.55
121.0750, 12173.00
122.3110, 12073.00
123.5470, 12162.00
124.7830, 12020.00
126.0190, 12071.00
127.2540, 12033.00
128.4900, 12141.00
129.7250, 12166.00
130.9600, 12307.00
132.1950, 12246.00
133.4290, 12410.00
134.6640, 12451.00
135.8980, 12478.00
137.1320, 12589.00
138.3660, 12375.00
139.6000, 12460.00
140.8340, 12578.00
142.0670, 12379.00
143.3000, 12375.00
144.5330, 12411.00
145.7660, 12402.00
146.9990, 12481.00
148.2320, 12419.00
149.4640, 12423.00
150.6960, 12591.00
151.9280, 12439.00
153.1600, 12411.00
154.3920, 12539.00
155.6230, 12392.00
156.8550, 12474.00
158.0860, 12542.00
159.3170, 12589.00
160.5480, 12558.00
161.7780, 12589.00
163.0090, 12617.00
164.2390, 12780.00
165.4690, 12661.00
166.6990, 12753.00
167.9290, 12775.00
169.1590, 12644.00
170.3880, 12638.00
171.6180, 12734.00
172.8470, 12848.00
174.0760, 12877.00
175.3040, 12964.65
176.5330, 12956.00
177.7610, 13149.00
178.9900, 13222.00
180.2180, 13458.00
181.4460, 13377.00
182.6730, 13341.00
183.9010, 13300.00
185.1280, 13196.00
186.3560, 13196.00
187.5830, 13248.00
188.8100, 13067.00
190.0360, 13172.00
191.2630, 13079.00
192.4890, 13185.00
193.7150, 13229.00
194.9410, 13241.00
196.1670, 13240.00
197.3930, 13304.00
198.6180, 13477.00
199.8440, 13293.00
201.0690, 13388.00
202.2940, 13425.00
203.5190, 13198.00
204.7430, 13280.00
205.9680, 13247.00
207.1920, 13380.00
208.4160, 13347.00
209.6400, 13230.00
210.8640, 13281.00
212.0880, 13244.83
213.3110, 13285.80
214.5340, 13315.00
215.7570, 13405.00
216.9800, 13562.00
218.2030, 13613.00
219.4260, 13615.00
220.6480, 13660.00
221.8700, 13652.00
223.0920, 13705.55
224.3140, 13671.00
225.5360, 13809.00
226.7580, 13896.00
227.9790, 13961.00
229.2000, 13980.00
230.4210, 14060.00
231.6420, 14042.00
232.8630, 14035.01
234.0830, 14130.00
235.3040, 14018.00
236.5240, 14122.00
237.7440, 14234.00
238.9640, 14077.00
240.1830, 14285.00
241.4030, 14110.00
242.6220, 14072.00
243.8410, 14027.00
245.0600, 14111.00
246.2790, 14147.00
247.4980, 14125.00
248.7160, 14093.00
249.9340, 14379.00
251.1530, 14386.00
252.3710, 14475.00
253.5880, 14527.57
254.8060, 14540.00
256.0230, 14473.00
257.2410, 14382.00
258.4580, 14249.00
259.6750, 14224.00
260.8910, 14175.00
262.1080, 14145.26
263.3240, 14165.33
264.5410, 14149.00
265.7570, 14197.00
266.9730, 14225.00
268.1880, 14189.00
269.4040, 14188.00
270.6190, 14243.00
271.8350, 14153.00
273.0500, 14238.00
274.2650, 14139.00
275.4790, 14192.00
276.6940, 14305.00
277.9080, 14208.00
279.1220, 14451.00
280.3360, 14409.00
281.5500, 14324.00
282.7640, 14547.00
283.9770, 14380.00
285.1910, 14521.00
286.4040, 14532.00
287.6170, 14670.00
288.8300, 14759.00
290.0420, 14564.00
291.2550, 14852.00
292.4670, 14790.00
293.6790, 14783.00
294.8910, 15032.00
296.1030, 14721.00
297.3150, 14894.00
298.5260, 14997.00
299.7380, 15261.00
300.9490, 15032.00
302.1600, 15189.00
303.3710, 15207.00
304.5810, 15446.00
305.7920, 15543.83
307.0020, 15633.77
308.2120, 15794.00
309.4220, 15894.00
310.6320, 15937.00
311.8410, 16224.00
313.0510, 16571.00
314.2600, 16665.00
315.4690, 16966.00
316.6780, 17306.00
317.8870, 17933.00
319.0950, 18547.00
320.3040, 19269.00
321.5120, 20258.00
322.7200, 20669.00
323.9280, 21113.00
325.1360, 21063.00
326.3430, 20481.00
327.5510, 20009.00
328.7580, 19216.00
329.9650, 18778.00
331.1720, 18187.00
332.3790, 17843.00
333.5850, 17494.00
334.7910, 17124.00
335.9980, 16793.00
337.2040, 16631.00
338.4100, 16484.00
339.6150, 16492.00
340.8210, 16450.00
342.0260, 16345.47
343.2310, 16222.00
344.4360, 16184.00
345.6410, 16192.00
346.8460, 16140.00
348.0500, 16036.00
349.2550, 16179.00
350.4590, 16067.00
351.6630, 16165.00
352.8670, 16201.00
354.0700, 16245.00
355.2740, 16291.00
356.4770, 16230.00
357.6800, 16220.00
358.8830, 16227.59
360.0860, 16290.00
361.2890, 16233.00
362.4910, 16310.00
363.6930, 16333.00
364.8960, 16485.00
366.0980, 16242.00
367.2990, 16411.00
368.5010, 16530.00
369.7020, 16437.00
370.9040, 16546.00
372.1050, 16640.00
373.3060, 16721.00
374.5070, 16772.00
375.7070, 16935.00
376.9080, 17070.44
378.1080, 17371.00
379.3080, 17498.00
380.5080, 17678.00
381.7080, 18047.00
382.9070, 18284.00
384.1070, 18867.00
385.3060, 19664.00
386.5050, 20647.00
387.7040, 21518.00
388.9030, 22270.00
390.1010, 22942.00
391.3000, 22759.00
392.4980, 22459.00
393.6960, 21912.00
394.8940, 21002.00
396.0920, 20370.00
397.2890, 19505.00
398.4870, 19076.00
399.6840, 18446.00
400.8810, 17893.00
402.0780, 17670.00
403.2750, 17458.00
404.4710, 17148.00
405.6680, 17013.00
406.8640, 16983.00
408.0600, 16850.00
409.2560, 16761.00
410.4520, 16665.00
411.6470, 16941.00
412.8430, 16659.00
414.0380, 16843.00
415.2330, 16689.00
416.4280, 16696.00
417.6220, 16621.00
418.8170, 16749.00
420.0110, 16787.00
421.2050, 16614.00
422.4000, 16791.00
423.5930, 16633.00
424.7870, 16603.00
425.9810, 16687.00
427.1740, 16599.00
428.3670, 16769.00
429.5600, 16669.00
430.7530, 16825.00
431.9460, 16573.00
433.1380, 16703.00
434.3310, 16689.00
435.5230, 16648.00
436.7150, 16824.00
437.9070, 16805.00
439.0980, 16936.00
440.2900, 16884.00
441.4810, 16798.00
442.6720, 16920.00
443.8630, 16869.00
445.0540, 16839.00
446.2450, 16953.00
447.4350, 17023.00
448.6260, 17054.00
449.8160, 16961.00
451.0060, 16912.00
452.1960, 17111.00
453.3850, 16976.00
454.5750, 17045.00
455.7640, 17166.00
456.9530, 17119.00
458.1420, 17159.00
459.3310, 17248.00
460.5200, 17182.00
461.7080, 17239.00
462.8970, 17318.00
464.0850, 17092.00
465.2730, 17159.00
466.4610, 17239.00
467.6480, 17339.00
468.8360, 17146.00
470.0230, 17174.00
471.2100, 17172.00
472.3970, 17443.00
473.5840, 17364.00
474.7710, 17194.00
475.9570, 17384.00
477.1440, 17225.00
478.3300, 17479.00
479.5160, 17584.00
480.7020, 17576.00
481.8870, 17327.00
483.0730, 17533.00
484.2580, 17554.00
485.4430, 17639.00
486.6280, 17708.00
487.8130, 17739.00
488.9980, 17571.00
490.1820, 17633.00
491.3660, 17707.00
492.5510, 17530.00
493.7350, 17685.00
494.9180, 17608.00
496.1020, 17714.00
497.2860, 17721.00
498.4690, 17869.00
499.6520, 17880.00
500.8350, 17840.00
502.0180, 17829.00
503.2000, 17786.00
504.3830, 17875.00
505.5650, 17970.00
506.7470, 17781.00
507.9290, 17832.00
509.1110, 17933.00
510.2930, 18075.00
511.4740, 18005.00
512.6560, 17975.00
513.8370, 18135.00
515.0180, 18210.00
516.1980, 18228.00
517.3790, 18408.00
518.5600, 18358.00
519.7400, 18554.00
520.9200, 18359.00
522.1000, 18534.00
523.2800, 18819.00
524.4590, 18718.00
525.6390, 18843.00
526.8180, 18821.00
527.9970, 18922.00
529.1760, 19038.00
530.3550, 18944.00
531.5340, 18984.00
532.7120, 19037.00
533.8910, 19084.00
535.0690, 18810.00
536.2470, 19012.00
537.4250, 18813.00
538.6020, 18987.00
539.7800, 18806.00
540.9570, 18814.00
542.1340, 18687.00
543.3110, 18785.00
544.4880, 18681.00
545.6650, 18767.27
546.8410, 18811.00
548.0170, 18904.00
549.1940, 18954.00
550.3690, 18948.00
551.5450, 19070.00
552.7210, 18898.00
553.8960, 18911.00
555.0720, 19024.00
556.2470, 18991.00
557.4220, 19119.00
558.5970, 18993.00
559.7710, 19157.00
560.9460, 18989.00
562.1200, 18965.00
563.2940, 19028.00
564.4680, 19260.00
565.6420, 18869.00
566.8160, 18825.00
567.9890, 19128.00
569.1630, 18955.00
570.3360, 19069.00
571.5090, 19137.00
572.6820, 19059.00
573.8540, 18976.00
575.0270, 19231.00
576.1990, 18927.00
577.3710, 18889.00
578.5430, 19086.00
579.7150, 19014.00
580.8870, 18981.00
582.0580, 19029.00
583.2300, 18999.00
584.4010, 19120.00
585.5720, 18983.00
586.7430, 19143.00
587.9130, 19003.00
589.0840, 19175.00
590.2540, 19248.00
591.4240, 19104.00
592.5940, 19354.00
593.7640, 19219.94
594.9340, 19262.00
596.1030, 19166.00
597.2730, 19088.00
598.4420, 19198.00
599.6110, 19129.67
600.7800, 19190.00
601.9490, 19166.00
603.1170, 19214.00
604.2850, 19277.00
605.4540, 19327.00
606.6220, 19378.41
607.7900, 19376.00
608.9570, 19444.00
610.1250, 19500.00
611.2920, 19459.00
612.4590, 19439.00
613.6260, 19377.00
614.7930, 19580.00
615.9600, 19563.00
617.1270, 19552.00
618.2930, 19383.00
619.4590, 19724.00
620.6250, 19612.00
621.7910, 19809.00
622.9570, 19582.00
624.1220, 19631.00
625.2880, 19768.00
626.4530, 19689.00
627.6180, 19706.00
628.7830, 19734.00
629.9480, 19855.00
631.1120, 19932.00
632.2770, 19951.00
633.4410, 19810.00
634.6050, 19965.00
635.7690, 19974.00
636.9330, 20044.00
638.0960, 20165.00
639.2600, 20098.00
640.4230, 20093.00
641.5860, 20135.00
642.7490, 20250.00
643.9120, 20353.00
645.0740, 20255.00
646.2370, 20565.00
647.3990, 20389.00
648.5610, 20672.00
649.7230, 20688.00
650.8850, 20780.00
652.0460, 20999.00
653.2080, 21023.00
654.3690, 21149.00
655.5300, 21537.00
656.6910, 21833.00
657.8520, 21919.00
659.0130, 22370.00
660.1730, 22858.00
661.3330, 23491.00
662.4930, 23868.00
663.6530, 24494.00
664.8130, 24771.00
665.9730, 25225.00
667.1320, 25038.00
668.2920, 24800.00
669.4510, 24284.00
670.6100, 23874.00
671.7680, 23448.00
672.9270, 23092.12
674.0860, 22797.00
675.2440, 22475.00
676.4020, 22277.00
677.5600, 22026.00
678.7180, 21875.00
679.8760, 21812.00
681.0330, 21555.00
682.1900, 21610.00
683.3480, 21617.00
684.5050, 21575.00
685.6610, 21455.00
686.8180, 21332.00
687.9750, 21393.00
689.1310, 21400.00
690.2870, 21171.00
691.4430, 21330.00
692.5990, 21269.00
693.7550, 21366.00
694.9100, 21223.00
696.0660, 21312.00
697.2210, 21123.00
698.3760, 21267.00
699.5310, 21325.00
700.6860, 21278.00
701.8400, 21358.03
702.9940, 21422.00
704.1490, 21331.00
705.3030, 21227.00
706.4570, 21080.00
707.6100, 21182.00
708.7640, 21186.00
709.9170, 21151.00
711.0710, 21279.00
712.2240, 21213.00
713.3770, 21393.00
714.5290, 21408.00
715.6820, 21441.42
716.8340, 21513.00
717.9870, 21485.00
719.1390, 21406.00
720.2910, 21358.00
721.4430, 21428.00
722.5940, 21272.00
723.7460, 21317.00
724.8970, 21323.00
726.0480, 21522.00
727.1990, 21366.00
728.3500, 21512.00
729.5000, 21346.00
730.6510, 21456.00
731.8010, 21363.00
732.9510, 21482.00
734.1010, 21401.00
735.2510, 21601.00
736.4010, 21610.00
737.5500, 21347.00
738.7000, 21697.00
739.8490, 21809.00
740.9980, 21655.00
742.1470, 21613.00
743.2950, 21850.00
744.4440, 21597.00
745.5920, 21839.00
746.7400, 21691.00
747.8880, 21564.00
749.0360, 21777.00
750.1840, 21647.00
751.3310, 21896.00
752.4790, 21750.00
753.6260, 21921.00
754.7730, 21861.00
755.9200, 21983.00
757.0670, 21891.00
758.2130, 22079.00
759.3600, 21709.00
760.5060, 22081.00
761.6520, 22023.00
762.7980, 21837.00
763.9440, 22149.00
765.0890, 21950.00
766.2350, 21883.00
767.3800, 21993.00
768.5250, 22079.00
769.6700, 22219.00
770.8150, 22270.00
771.9590, 22085.00
773.1040, 22190.00
774.2480, 22216.00
775.3920, 22285.00
776.5360, 22437.00
777.6800, 22343.00
778.8240, 22194.00
779.9670, 22276.00
781.1100, 22247.00
782.2540, 22426.00
783.3970, 22352.00
784.5390, 22370.00
785.6820, 22390.00
786.8240, 22208.00
787.9670, 22574.00
789.1090, 22403.00
790.2510, 22635.00
791.3930, 22639.00
792.5350, 22678.00
793.6760, 22470.00
794.8170, 22623.00
795.9590, 22375.00
797.1000, 22643.00
798.2410, 22712.00
799.3810, 22590.00
800.5220, 22559.00
801.6620, 22695.00
802.8030, 22707.00
803.9430, 22725.00
805.0820, 22752.00
806.2220, 22859.00
807.3620, 22894.00
808.5010, 22834.00
809.6410, 23003.00
810.7800, 22904.00
811.9190, 22927.00
813.0570, 23074.00
814.1960, 22924.00
815.3340, 22977.00
816.4730, 23086.00
817.6110, 22905.00
818.7490, 23058.00
819.8870, 23208.00
821.0240, 23249.00
822.1620, 23320.00
823.2990, 23197.00
824.4360, 23245.00
825.5730, 23334.00
826.7100, 23394.00
827.8470, 23211.00
828.9830, 23493.00
830.1200, 23527.00
831.2560, 23282.00
832.3920, 23338.00
833.5280, 23667.00
834.6630, 23373.00
835.7990, 23571.00
836.9340, 23495.00
838.0700, 23558.00
839.2050, 23580.00
840.3400, 23550.00
841.4740, 23512.00
842.6090, 23654.00
843.7430, 23582.00
844.8780, 23529.00
846.0120, 23929.00
847.1460, 23596.00
848.2790, 23887.00
849.4130, 23719.00
850.5460, 23793.00
851.6800, 23774.00
852.8130, 23869.00
853.9460, 23733.00
855.0790, 24188.00
856.2110, 23991.00
857.3440, 23765.00
858.4760, 24063.00
859.6080, 23949.00
860.7400, 23849.00
861.8720, 23876.00
863.0040, 23889.66
864.1350, 24176.00
865.2670, 24112.00
866.3980, 24075.00
867.5290, 24311.00
868.6600, 24040.00
869.7900, 24104.00
870.9210, 24013.00
872.0510, 24178.00
873.1820, 24194.00
874.3120, 24202.00
875.4420, 24456.00
876.5710, 24123.00
877.7010, 24267.00
878.8300, 24553.00
879.9600, 24230.00
881.0890, 24292.00
882.2180, 24533.00
883.3460, 24295.00
884.4750, 24359.00
885.6040, 24418.00
886.7320, 24366.00
887.8600, 24437.00
888.9880, 24501.00
890.1160, 24681.00
891.2430, 24409.00
892.3710, 24588.00
893.4980, 24383.00
894.6260, 24593.00
895.7530, 24607.00
896.8790, 24820.00
898.0060, 24809.00
899.1330, 24538.00
900.2590, 24665.00
901.3850, 24592.00
902.5110, 24413.00
903.6370, 24784.00
904.7630, 24562.00
905.8890, 24798.00
907.0140, 24580.00
908.1390, 24835.00
909.2640, 24804.00
910.3890, 24746.00
911.5140, 24888.00
912.6390, 24652.00
913.7630, 24782.00
914.8870, 24959.00
916.0120, 25123.00
917.1360, 24998.00
918.2590, 24986.00
919.3830, 25149.00
920.5070, 24882.00
921.6300, 24941.00
922.7530, 25366.00
923.8760, 25264.00
924.9990, 25159.00
926.1220, 25235.00
927.2440, 25214.00
928.3670, 25253.00
929.4890, 25439.00
930.6110, 25320.00
931.7330, 25145.00
932.8540, 25391.00
933.9760, 25517.00
935.0980, 25433.00
936.2190, 25542.00
937.3400, 25312.00
938.4610, 25620.00
939.5820, 25765.00
940.7020, 25477.00
941.8230, 25438.00
942.9430, 25424.00
944.0630, 25494.00
945.1830, 25537.00
946.3030, 25724.00
947.4230, 25701.00
948.5420, 25912.00
949.6610, 25870.00
950.7810, 25816.00
951.9000, 25897.00
953.0190, 25969.00
954.1370, 25963.00
955.2560, 25884.00
956.3740, 25918.00
957.4920, 25971.00
958.6110, 26050.00
959.7280, 26134.00
960.8460, 26245.00
961.9640, 25953.00
963.0810, 26203.00
964.1990, 26143.00
965.3160, 26279.00
966.4330, 26443.00
967.5490, 26309.00
968.6660, 26491.00
969.7830, 26388.00
970.8990, 26386.00
972.0150, 26635.00
973.1310, 26503.22
974.2470, 26700.91
975.3630, 26827.62
976.4780, 26915.57
977.5930, 26967.15
978.7090, 26857.05
979.8240, 26968.32
980.9390, 26998.56
982.0530, 27030.67
983.1680, 27188.80
984.2820, 27130.36
985.3970, 27297.54
986.5110, 27382.29
987.6250, 27512.73
988.7380, 27561.50
989.8520, 27642.71
990.9660, 27816.51
992.0790, 27991.00
993.1920, 28125.00
994.3050, 28259.00
995.4180, 28611.00
996.5300, 28896.00
997.6430, 28959.00
998.7550, 29447.00
999.8680, 29809.00
1000.980, 30285.00
1002.091, 30668.00
1003.203, 31511.00
1004.315, 31767.00
1005.426, 32554.00
1006.537, 33549.00
1007.648, 34646.00
1008.759, 36323.00
1009.870, 37696.00
1010.981, 39167.00
1012.091, 39968.00
1013.201, 39340.00
1014.312, 38033.00
1015.422, 36359.00
1016.531, 34461.00
1017.641, 32974.00
1018.751, 31735.00
1019.860, 30666.00
1020.969, 30082.00
1022.078, 29532.00
1023.187, 29116.00
1024.296, 29048.00
1025.404, 28655.00
1026.513, 28411.00
1027.621, 28541.00
1028.729, 28432.00
1029.837, 28433.00
1030.945, 28258.00
1032.052, 28435.00
1033.160, 28253.00
1034.267, 28315.00
1035.374, 28242.00
1036.481, 28166.00
1037.588, 28279.00
1038.695, 28371.00
1039.801, 28391.00
1040.907, 28473.00
1042.014, 28346.00
1043.120, 28265.00
1044.225, 28294.00
1045.331, 28441.00
1046.437, 28580.00
1047.542, 28508.00
1048.647, 28408.00
1049.752, 28392.00
1050.857, 28326.00
1051.962, 28348.00
1053.067, 28348.89
1054.171, 28322.00
1055.275, 28407.00
1056.380, 28382.00
1057.484, 28423.00
1058.587, 28225.00
1059.691, 28350.00
1060.795, 28307.00
1061.898, 28410.00
1063.001, 28478.00
1064.104, 28501.24
1065.207, 28363.00
1066.310, 28619.00
1067.412, 28340.07
1068.515, 28568.36
1069.617, 28706.20
1070.719, 28758.49
1071.821, 28468.97
1072.923, 28620.83
1074.024, 28595.78
1075.126, 28563.50
1076.227, 28777.46
1077.328, 28537.64
1078.429, 28747.69
1079.530, 28778.16
1080.631, 28890.82
1081.731, 28825.48
1082.831, 28815.12
1083.932, 28982.81
1085.032, 29051.90
1086.132, 28966.08
1087.231, 29083.92
1088.331, 28837.87
1089.430, 28911.13
1090.530, 29122.21
1091.629, 29045.31
1092.728, 29166.41
1093.826, 29212.08
1094.925, 28915.09
1096.023, 29214.04
1097.122, 28953.00
1098.220, 28943.00
1099.318, 28961.00
1100.416, 28867.00
1101.513, 29111.00
1102.611, 29248.00
1103.708, 29100.00
1104.806, 29280.00
1105.903, 29206.00
1107.000, 29145.00
1108.096, 29138.00
1109.193, 29434.00
1110.289, 29289.00
1111.386, 29344.00
1112.482, 29251.00
1113.578, 29284.00
1114.673, 29080.00
1115.769, 29379.00
1116.865, 29553.00
1117.960, 29486.00
1119.055, 29522.00
1120.150, 29374.00
1121.245, 29433.04
1122.340, 29543.00
1123.434, 29503.00
1124.529, 29532.00
1125.623, 29596.00
1126.717, 29554.00
1127.811, 29435.00
1128.905, 29688.00
1129.998, 29745.00
1131.092, 29669.00
1132.185, 29927.00
1133.278, 29960.00
1134.371, 29932.00
1135.464, 30053.11
1136.557, 29994.12
1137.649, 30090.00
1138.742, 29937.00
1139.834, 29870.00
1140.926, 29836.00
1142.018, 30337.00
1143.109, 29988.00
1144.201, 30014.00
1145.292, 30328.00
1146.384, 30003.00
1147.475, 30243.00
1148.566, 30237.00
1149.657, 30287.00
1150.747, 30077.00
1151.838, 30227.00
1152.928, 30244.00
1154.018, 30424.00
1155.108, 30302.00
1156.198, 30319.00
1157.288, 30390.00
1158.377, 30441.00
1159.467, 30463.00
1160.556, 30636.00
1161.645, 30572.75
1162.734, 30706.00
1163.823, 30510.00
1164.911, 30466.00
1166.000, 30418.00
1167.088, 30500.00
1168.176, 30630.00
1169.264, 30532.00
1170.352, 30628.45
1171.440, 30850.00
1172.527, 30645.00
1173.615, 30828.00
1174.702, 30783.00
1175.789, 30668.00
1176.876, 31072.00
1177.963, 30712.00
1179.049, 30981.00
1180.136, 30956.00
1181.222, 30960.00
1182.308, 31107.00
1183.394, 31100.00
1184.480, 31092.00
1185.566, 31095.00
1186.651, 31090.42
1187.736, 31072.00
1188.822, 31093.00
1189.907, 31158.00
1190.992, 31172.00
1192.076, 31264.63
1193.161, 31307.00
1194.245, 31410.00
1195.330, 31440.00
1196.414, 31425.00
1197.498, 31351.00
1198.581, 31260.00
1199.665, 31391.00
1200.749, 31630.00
1201.832, 31376.00
1202.915, 31751.00
1203.998, 31691.00
1205.081, 31534.00
1206.164, 31726.00
1207.246, 31608.00
1208.329, 31720.00
1209.411, 31771.78
1210.493, 31572.00
1211.575, 31782.00
1212.657, 31882.00
1213.738, 31677.00
1214.820, 31888.00
1215.901, 32064.00
1216.982, 31869.00
1218.063, 31762.00
1219.144, 31871.00
1220.225, 31995.00
1221.305, 31967.00
1222.386, 31772.00
1223.466, 32186.00
1224.546, 32123.00
1225.626, 32041.00
1226.706, 32309.00
1227.785, 32012.00
1228.865, 31938.00
1229.944, 32394.00
1231.023, 32285.00
1232.102, 32296.00
1233.181, 32368.00
1234.260, 32474.00
1235.338, 32499.00
1236.417, 32560.64
1237.495, 32595.22
1238.573, 32620.00
1239.651, 32615.00
1240.729, 32608.00
1241.806, 32620.97
1242.884, 32643.00
1243.961, 32645.40
1245.038, 32680.55
1246.115, 32728.00
1247.192, 32782.00
1248.269, 32819.00
1249.345, 32904.00
1250.421, 32799.00
1251.498, 32870.00
1252.574, 33009.00
1253.650, 32898.00
1254.725, 32843.00
1255.801, 33064.00
1256.876, 32908.00
1257.952, 33267.00
1259.027, 32807.00
1260.102, 33055.00
1261.177, 33086.00
1262.251, 33119.00
1263.326, 33299.00
1264.400, 33274.45
1265.474, 33266.00
1266.548, 33313.00
1267.622, 33368.00
1268.696, 33373.00
1269.770, 33362.00
1270.843, 33412.00
1271.916, 33359.00
