##NAMES=Diopside
##RRUFFID=R060861
##IDEAL CHEMISTRY=CaMgSi_2_O_6_
##LOCALITY=Red Mountain Volcano, NW of Flagstaff, Arizona, USA
##OWNER=RRUFF
##SOURCE=Jennifer Sano
##DESCRIPTION=Worn brown fragment
##STATUS=The identification of this mineral has been confirmed by X-ray diffraction and chemical analysis
##URL=rruff.info/R060861
##MEASURED CHEMISTRY=(Ca_0.72_Fe^2+^_0.23_Na_0.05_)_Σ=1_(Mg_0.80_Al_0.15_Ti_0.03_Fe^3+^_0.02_)_Σ=1_(Si_1.82_Al_0.18_)_Σ=2_O_6_
##PIN_ID=M01674
##ORIENTATION=Laser parallel to b* (0 1 0). Fiducial mark perpendicular to laser is parallel to c [0 0 1]
169.7650, 14535.00
170.9990, 14627.00
172.2330, 14563.00
173.4670, 14477.00
174.7000, 14419.00
175.9330, 14277.00
177.1660, 14413.00
178.3990, 14672.00
179.6310, 14503.00
180.8640, 14710.00
182.0960, 14510.00
183.3280, 14592.00
184.5600, 14900.00
185.7910, 14929.00
187.0220, 15272.00
188.2540, 15199.00
189.4840, 15088.00
190.7150, 15188.00
191.9460, 15293.00
193.1760, 15006.00
194.4060, 15276.00
195.6360, 15113.00
196.8660, 15140.00
198.0960, 14915.00
199.3250, 14962.00
200.5540, 14974.00
201.7830, 15029.00
203.0120, 14941.00
204.2400, 14496.00
205.4690, 13954.00
206.6970, 13611.00
207.9250, 13604.00
209.1530, 13525.00
210.3800, 13559.00
211.6080, 13484.00
212.8350, 13477.00
214.0620, 13627.00
215.2880, 13547.00
216.5150, 13467.00
217.7410, 13545.00
218.9680, 13490.00
220.1940, 13594.00
221.4190, 13680.00
222.6450, 13603.00
223.8700, 13511.00
225.0960, 13707.00
226.3210, 13507.00
227.5450, 13670.00
228.7700, 13517.00
229.9940, 13607.00
231.2190, 13527.00
232.4430, 13432.00
233.6660, 13539.00
234.8900, 13529.00
236.1140, 13438.00
237.3370, 13421.00
238.5600, 13518.00
239.7830, 13576.00
241.0050, 13400.00
242.2280, 13568.00
243.4500, 13482.00
244.6720, 13545.00
245.8940, 13627.00
247.1160, 13736.00
248.3370, 13684.00
249.5580, 13962.00
250.7790, 13855.00
252.0000, 13889.00
253.2210, 13957.00
254.4410, 13869.00
255.6620, 13984.00
256.8820, 13861.00
258.1020, 14111.00
259.3210, 14041.54
260.5410, 13859.00
261.7600, 13981.00
262.9790, 13454.00
264.1980, 13267.00
265.4170, 13191.00
266.6360, 13294.00
267.8540, 13163.00
269.0720, 12995.00
270.2900, 13068.00
271.5080, 12893.00
272.7260, 13030.00
273.9430, 13029.00
275.1600, 13254.00
276.3770, 13186.00
277.5940, 13225.00
278.8100, 13434.00
280.0270, 13331.00
281.2430, 13476.00
282.4590, 13618.00
283.6750, 13687.00
284.8910, 13751.00
286.1060, 13835.00
287.3210, 14100.00
288.5360, 14334.00
289.7510, 14293.00
290.9660, 14459.00
292.1800, 14802.00
293.3950, 14825.00
294.6090, 15126.00
295.8230, 15518.00
297.0360, 15646.00
298.2500, 15785.00
299.4630, 16227.00
300.6760, 16524.00
301.8890, 16815.00
303.1020, 17094.00
304.3150, 17531.00
305.5270, 17788.00
306.7390, 18334.00
307.9510, 18693.00
309.1630, 19099.00
310.3750, 19659.00
311.5860, 20154.00
312.7970, 20666.00
314.0080, 21333.00
315.2190, 21706.00
316.4300, 22248.00
317.6400, 23092.00
318.8510, 23689.00
320.0610, 24192.00
321.2710, 24911.00
322.4800, 25600.00
323.6900, 26503.00
324.8990, 26519.00
326.1080, 27465.00
327.3170, 27961.00
328.5260, 28237.00
329.7340, 28950.00
330.9430, 29000.00
332.1510, 28946.00
333.3590, 28871.00
334.5670, 28999.00
335.7740, 29027.00
336.9820, 28656.00
338.1890, 28612.00
339.3960, 28173.00
340.6030, 27978.00
341.8100, 27845.00
343.0160, 27248.00
344.2220, 27197.00
345.4280, 27132.00
346.6340, 26922.00
347.8400, 26252.00
349.0460, 26176.00
350.2510, 25917.00
351.4560, 25739.00
352.6610, 25672.00
353.8660, 25575.00
355.0700, 25540.00
356.2750, 25276.00
357.4790, 24910.00
358.6830, 24902.00
359.8870, 24827.00
361.0910, 24405.00
362.2940, 24607.00
363.4970, 24119.00
364.7000, 24131.00
365.9030, 23862.00
367.1060, 23539.00
368.3080, 23398.00
369.5110, 23182.00
370.7130, 23087.00
371.9150, 22892.00
373.1170, 22865.00
374.3180, 22701.00
375.5200, 22724.00
376.7210, 22881.00
377.9220, 22863.00
379.1230, 22899.00
380.3230, 22956.00
381.5240, 23200.00
382.7240, 23449.00
383.9240, 23836.00
385.1240, 24120.00
386.3240, 24411.00
387.5230, 24944.00
388.7230, 25158.00
389.9220, 25678.00
391.1210, 26067.00
392.3200, 26644.00
393.5180, 26541.00
394.7170, 26608.00
395.9150, 26469.00
397.1130, 26170.00
398.3110, 25655.00
399.5080, 24750.00
400.7060, 23941.00
401.9030, 22805.00
403.1000, 21881.00
404.2970, 20887.00
405.4940, 19770.00
406.6910, 18824.00
407.8870, 18226.00
409.0830, 17238.00
410.2790, 16432.00
411.4750, 16030.00
412.6710, 15226.00
413.8660, 15012.00
415.0610, 14442.00
416.2560, 13977.00
417.4510, 13822.00
418.6460, 13440.00
419.8410, 13302.00
421.0350, 13107.00
422.2290, 13003.00
423.4230, 12603.00
424.6170, 12559.95
425.8100, 12559.00
427.0040, 12330.00
428.1970, 12404.00
429.3900, 12303.00
430.5830, 12163.00
431.7760, 12114.00
432.9680, 11940.00
434.1610, 11926.00
435.3530, 11820.00
436.5450, 11751.35
437.7360, 11765.00
438.9280, 11636.00
440.1190, 11683.00
441.3110, 11628.00
442.5020, 11551.00
443.6930, 11501.00
444.8830, 11493.00
446.0740, 11370.00
447.2640, 11435.00
448.4540, 11364.00
449.6440, 11315.00
450.8340, 11345.55
452.0240, 11335.51
453.2130, 11392.00
454.4020, 11409.00
455.5910, 11506.00
456.7800, 11570.00
457.9690, 11670.00
459.1570, 11550.00
460.3460, 11791.00
461.5340, 11738.00
462.7220, 11634.00
463.9090, 11954.00
465.0970, 11724.00
466.2840, 12037.00
467.4720, 11898.00
468.6590, 11994.00
469.8460, 11900.00
471.0320, 11725.00
472.2190, 11824.00
473.4050, 11849.00
474.5910, 11833.00
475.7770, 11961.00
476.9630, 11831.00
478.1490, 11758.00
479.3340, 11840.00
480.5190, 11764.00
481.7040, 11831.00
482.8890, 11880.00
484.0740, 11790.00
485.2580, 11772.00
486.4430, 11850.00
487.6270, 11854.00
488.8110, 11864.00
489.9950, 12019.00
491.1780, 12037.00
492.3620, 12041.00
493.5450, 12150.00
494.7280, 12115.00
495.9110, 12225.00
497.0940, 12243.00
498.2760, 12419.00
499.4590, 12587.00
500.6410, 12700.00
501.8230, 12928.00
503.0050, 13191.00
504.1860, 13459.00
505.3680, 13580.00
506.5490, 13919.00
507.7300, 14157.00
508.9110, 14246.00
510.0920, 14280.00
511.2730, 14411.00
512.4530, 14349.00
513.6330, 14398.00
514.8130, 14381.00
515.9930, 14286.89
517.1730, 14294.00
518.3520, 14213.00
519.5320, 14190.00
520.7110, 14428.00
521.8900, 14455.00
523.0690, 14595.00
524.2470, 14839.00
525.4260, 14864.00
526.6040, 14827.00
527.7820, 15220.00
528.9600, 15333.00
530.1380, 15437.00
531.3150, 15726.00
532.4930, 15782.00
533.6700, 15840.00
534.8470, 15964.00
536.0240, 15991.67
537.2000, 16032.57
538.3770, 16055.00
539.5530, 16036.00
540.7290, 15988.00
541.9050, 15919.91
543.0810, 15865.06
544.2570, 15804.00
545.4320, 15690.00
546.6080, 15632.00
547.7830, 15482.70
548.9580, 15366.12
550.1320, 15265.00
551.3070, 15095.00
552.4810, 15008.00
553.6550, 14892.00
554.8300, 14797.00
556.0030, 14652.00
557.1770, 14563.00
558.3510, 14567.00
559.5240, 14370.00
560.6970, 14354.00
561.8700, 14377.00
563.0430, 14083.00
564.2160, 14043.00
565.3880, 14008.00
566.5600, 13823.00
567.7320, 13717.00
568.9040, 13668.00
570.0760, 13511.00
571.2480, 13334.00
572.4190, 13289.00
573.5900, 13129.00
574.7610, 12910.00
575.9320, 12742.00
577.1030, 12663.00
578.2740, 12539.00
579.4440, 12273.00
580.6140, 12113.00
581.7840, 12056.00
582.9540, 11719.00
584.1240, 11547.00
585.2930, 11206.00
586.4630, 11183.00
587.6320, 10833.00
588.8010, 10787.00
589.9700, 10465.00
591.1380, 10317.00
592.3070, 10228.00
593.4750, 9935.000
594.6430, 9705.000
595.8110, 9484.000
596.9790, 9268.000
598.1460, 9277.000
599.3140, 9161.000
600.4810, 9021.000
601.6480, 8889.000
602.8150, 8821.000
603.9820, 8751.391
605.1480, 8839.000
606.3150, 8707.000
607.4810, 8871.000
608.6470, 8922.000
609.8130, 8777.000
610.9790, 8941.000
612.1440, 8924.000
613.3100, 8881.000
614.4750, 9110.000
615.6400, 9067.000
616.8050, 9142.000
617.9690, 9245.000
619.1340, 9388.000
620.2980, 9428.000
621.4620, 9593.000
622.6260, 9712.000
623.7900, 9717.000
624.9540, 9926.000
626.1170, 10086.00
627.2810, 10267.00
628.4440, 10521.00
629.6070, 10676.00
630.7690, 10933.00
631.9320, 11176.00
633.0950, 11485.00
634.2570, 11860.00
635.4190, 12125.00
636.5810, 12491.00
637.7430, 13028.00
638.9040, 13382.00
640.0660, 13836.00
641.2270, 14540.00
642.3880, 15077.00
643.5490, 15877.00
644.7100, 16840.00
645.8700, 17730.00
647.0310, 18869.25
648.1910, 19909.00
649.3510, 21427.00
650.5110, 22909.00
651.6710, 24598.00
652.8300, 26612.00
653.9900, 28792.00
655.1490, 31330.00
656.3080, 34426.00
657.4670, 37195.00
658.6250, 40189.00
659.7840, 43883.00
660.9420, 47154.00
662.1010, 51057.00
663.2590, 53688.00
664.4170, 56745.00
665.5740, 58638.00
666.7320, 59400.00
667.8890, 59574.00
669.0460, 58126.00
670.2030, 56121.00
671.3600, 53461.00
672.5170, 49934.00
673.6740, 46269.00
674.8300, 42495.00
675.9860, 39156.00
677.1420, 36036.00
678.2980, 32853.00
679.4540, 30225.00
680.6090, 27726.00
681.7650, 25568.00
682.9200, 23800.00
684.0750, 21997.00
685.2300, 20629.00
686.3840, 19322.00
687.5390, 18184.00
688.6930, 17172.00
689.8470, 16259.00
691.0010, 15594.00
692.1550, 14924.00
693.3090, 14260.00
694.4620, 13887.00
695.6160, 13285.00
696.7690, 13089.00
697.9220, 12620.00
699.0750, 12191.00
700.2280, 12047.00
701.3800, 11671.00
702.5320, 11505.00
703.6850, 11367.00
704.8370, 11224.00
705.9880, 11103.00
707.1400, 10841.00
708.2920, 10546.00
709.4430, 10529.00
710.5940, 10326.00
711.7450, 10284.00
712.8960, 9953.000
714.0470, 10092.00
715.1970, 9923.000
716.3480, 9669.000
717.4980, 9674.000
718.6480, 9428.000
719.7980, 9390.000
720.9470, 9232.000
722.0970, 9306.000
723.2460, 8943.000
724.3960, 9012.000
725.5450, 8864.000
726.6940, 8770.191
727.8420, 8731.000
728.9910, 8621.000
730.1390, 8584.499
731.2870, 8559.000
732.4350, 8515.000
733.5830, 8512.000
734.7310, 8521.000
735.8790, 8438.000
737.0260, 8483.000
738.1730, 8414.000
739.3200, 8459.000
740.4670, 8332.000
741.6140, 8322.000
742.7610, 8386.000
743.9070, 8485.000
745.0530, 8584.000
746.1990, 8631.000
747.3450, 8575.000
748.4910, 8693.000
749.6370, 8713.000
750.7820, 8709.000
751.9270, 8809.000
753.0720, 8961.000
754.2170, 9048.000
755.3620, 9069.000
756.5070, 9242.000
757.6510, 9173.000
758.7950, 9280.000
759.9400, 9286.689
761.0840, 9449.917
762.2270, 9570.048
763.3710, 9649.505
764.5140, 9566.191
765.6580, 9693.050
766.8010, 9735.645
767.9440, 9774.783
769.0870, 9931.154
770.2290, 9871.451
771.3720, 10033.00
772.5140, 10016.00
773.6560, 9960.000
774.7990, 10102.00
775.9400, 10069.00
777.0820, 10247.00
778.2240, 10213.00
779.3650, 10383.00
780.5060, 10482.00
781.6470, 10449.00
782.7880, 10529.00
783.9290, 10469.00
785.0690, 10471.00
786.2100, 10582.00
787.3500, 10561.00
788.4900, 10621.50
789.6300, 10596.00
790.7700, 10736.00
791.9090, 10810.00
793.0490, 10937.00
794.1880, 10864.00
795.3270, 10955.00
796.4660, 10922.00
797.6050, 11018.00
798.7440, 11042.00
799.8820, 11162.00
801.0200, 11135.00
802.1590, 11232.00
803.2970, 11161.00
804.4340, 11340.00
805.5720, 11358.00
806.7100, 11521.00
807.8470, 11634.00
808.9840, 11518.00
810.1210, 11589.00
811.2580, 11599.00
812.3950, 11803.00
813.5310, 11779.00
814.6680, 11889.00
815.8040, 11974.00
816.9400, 12035.00
818.0760, 11942.00
819.2120, 12068.00
820.3470, 12006.00
821.4830, 12011.00
822.6180, 12063.00
823.7530, 12012.00
824.8880, 12013.00
826.0230, 12029.00
827.1580, 12036.00
828.2920, 12052.00
829.4270, 12078.00
830.5610, 12056.00
831.6950, 12067.00
832.8290, 11932.00
833.9620, 12008.00
835.0960, 11938.00
836.2290, 11856.00
837.3620, 11971.00
838.4950, 11962.00
839.6280, 11876.00
840.7610, 11797.00
841.8940, 11846.00
843.0260, 11827.00
844.1580, 11803.00
845.2910, 11925.00
846.4230, 11940.00
847.5540, 11995.00
848.6860, 12065.00
849.8170, 12203.00
850.9490, 12314.00
852.0800, 12547.00
853.2110, 12714.00
854.3420, 12818.00
855.4730, 13128.00
856.6030, 13391.00
857.7340, 13579.00
858.8640, 13846.00
859.9940, 13994.00
861.1240, 14250.00
862.2540, 14496.00
863.3830, 14596.00
864.5130, 15039.00
865.6420, 15202.00
866.7710, 15206.00
867.9000, 15326.00
869.0290, 15290.00
870.1570, 15252.00
871.2860, 15379.00
872.4140, 15317.00
873.5430, 15319.00
874.6710, 15295.00
875.7980, 15230.00
876.9260, 15266.00
878.0540, 15013.00
879.1810, 15061.00
880.3080, 14829.00
881.4360, 14576.00
882.5630, 14773.00
883.6890, 14713.00
884.8160, 14626.00
885.9420, 14558.00
887.0690, 14518.00
888.1950, 14466.00
889.3210, 14415.00
890.4470, 14457.00
891.5730, 14288.00
892.6980, 14341.00
893.8240, 14281.00
894.9490, 14433.00
896.0740, 14378.00
897.1990, 14330.15
898.3240, 14330.00
899.4480, 14163.00
900.5730, 14236.00
901.6970, 14146.00
902.8210, 14150.00
903.9450, 14293.00
905.0690, 14052.00
906.1930, 14209.00
907.3160, 14318.00
908.4400, 14285.00
909.5630, 14110.00
910.6860, 14101.00
911.8090, 14217.00
912.9320, 14169.00
914.0550, 14329.00
915.1770, 14206.00
916.2990, 14483.00
917.4210, 14244.00
918.5440, 14345.00
919.6650, 14347.00
920.7870, 14356.00
921.9090, 14603.00
923.0300, 14402.00
924.1510, 14465.00
925.2720, 14568.00
926.3930, 14748.00
927.5140, 14675.00
928.6350, 14746.00
929.7550, 14712.00
930.8760, 14768.00
931.9960, 14788.00
933.1160, 14805.42
934.2360, 14871.00
935.3550, 14873.00
936.4750, 14839.00
937.5940, 14887.00
938.7140, 14953.00
939.8330, 15027.00
940.9520, 14919.00
942.0710, 15079.00
943.1890, 15083.00
944.3080, 14994.00
945.4260, 15178.00
946.5440, 15226.00
947.6620, 15165.00
948.7800, 15434.00
949.8980, 15378.00
951.0160, 15509.00
952.1330, 15905.00
953.2500, 15929.00
954.3680, 16026.00
955.4850, 16159.00
956.6010, 16259.00
957.7180, 16377.00
958.8350, 16407.00
959.9510, 16742.00
961.0670, 16778.00
962.1830, 16983.00
963.2990, 17483.00
964.4150, 17428.37
965.5310, 17675.09
966.6460, 17651.00
967.7620, 17943.00
968.8770, 18215.00
969.9920, 18475.00
971.1070, 18614.00
972.2210, 18963.00
973.3360, 19283.85
974.4500, 19592.00
975.5650, 20027.00
976.6790, 20312.00
977.7930, 20634.00
978.9070, 21012.00
980.0200, 21499.00
981.1340, 21950.00
982.2470, 22370.00
983.3610, 23073.00
984.4740, 23689.00
985.5870, 24389.00
986.6990, 25240.13
987.8120, 25978.00
988.9250, 26955.00
990.0370, 28122.00
991.1490, 28894.00
992.2610, 30120.00
993.3730, 31599.00
994.4850, 32609.00
995.5960, 34071.00
996.7080, 35586.00
997.8190, 36920.00
998.9300, 38401.00
1000.041, 39787.00
1001.152, 40770.00
1002.263, 42256.00
1003.373, 43082.00
1004.484, 43709.00
1005.594, 43990.00
1006.704, 44327.00
1007.814, 43982.00
1008.924, 43245.00
1010.034, 42545.00
1011.143, 40970.00
1012.253, 39593.00
1013.362, 37864.00
1014.471, 36088.00
1015.580, 34234.00
1016.689, 32504.00
1017.797, 30600.00
1018.906, 28985.00
1020.014, 27456.00
1021.122, 26023.00
1022.230, 24940.00
1023.338, 23797.00
1024.446, 22872.00
1025.554, 21865.00
1026.661, 21375.00
1027.768, 20487.00
1028.875, 20020.00
1029.983, 19545.00
1031.089, 19130.00
1032.196, 18690.00
1033.303, 18266.00
1034.409, 17947.51
1035.515, 17618.64
1036.622, 17365.00
1037.728, 17085.00
1038.833, 16857.00
1039.939, 16618.00
1041.045, 16315.00
1042.150, 16190.00
1043.255, 15828.00
1044.360, 15598.00
1045.465, 15418.00
1046.570, 15304.00
1047.675, 14833.00
1048.779, 14808.00
1049.884, 14345.00
1050.988, 14192.00
1052.092, 14069.00
1053.196, 13713.14
1054.300, 13588.00
1055.404, 13292.00
1056.507, 13066.00
1057.610, 13101.00
1058.714, 12867.00
1059.817, 12728.00
1060.920, 12455.00
1062.022, 12343.00
1063.125, 12221.00
1064.228, 12259.00
1065.330, 12071.00
1066.432, 11941.00
1067.534, 11857.83
1068.636, 11770.00
1069.738, 11679.00
1070.840, 11523.00
1071.941, 11578.00
1073.042, 11501.00
1074.144, 11452.00
1075.245, 11277.00
1076.346, 11239.00
1077.446, 11242.00
1078.547, 11106.46
1079.647, 11186.00
1080.748, 10955.00
1081.848, 10895.00
1082.948, 10870.00
1084.048, 10789.38
1085.148, 10774.22
1086.247, 10787.00
1087.347, 10755.00
1088.446, 10804.00
1089.545, 10857.00
1090.644, 10760.00
1091.743, 10697.00
1092.842, 10499.00
1093.940, 10469.00
1095.039, 10590.00
1096.137, 10423.00
1097.235, 10470.00
1098.333, 10367.00
1099.431, 10367.00
1100.529, 10289.00
1101.627, 10224.15
1102.724, 10196.99
1103.822, 10116.00
1104.919, 10098.00
1106.016, 10106.00
1107.113, 10028.00
1108.209, 10063.00
1109.306, 10018.00
1110.402, 9953.000
1111.499, 9959.517
1112.595, 9895.913
1113.691, 9908.000
1114.787, 9828.000
1115.883, 9777.000
1116.978, 9783.808
1118.074, 9694.000
1119.169, 9652.000
1120.264, 9560.000
1121.359, 9490.000
1122.454, 9331.000
1123.549, 9351.000
1124.644, 9140.000
1125.738, 9047.000
1126.832, 8879.000
1127.927, 8751.000
1129.021, 8581.000
1130.115, 8608.000
1131.208, 8383.000
1132.302, 8340.000
1133.396, 8316.000
1134.489, 8048.000
1135.582, 8001.000
1136.675, 7907.000
1137.768, 7840.000
1138.861, 7684.000
1139.954, 7567.000
1141.046, 7457.000
1142.138, 7516.000
1143.231, 7409.000
1144.323, 7423.000
1145.415, 7213.000
1146.507, 7258.000
1147.598, 7207.000
1148.690, 7047.000
1149.781, 7125.000
1150.872, 7048.000
1151.964, 6936.000
1153.054, 6897.000
1154.145, 6886.000
1155.236, 6860.698
1156.327, 6890.000
1157.417, 6848.000
1158.507, 6909.000
1159.597, 6832.000
1160.687, 6814.000
1161.777, 6762.000
1162.867, 6750.000
1163.956, 6843.000
1165.046, 6798.000
1166.135, 6690.000
1167.224, 6695.000
1168.313, 6587.000
1169.402, 6577.000
1170.491, 6651.000
1171.580, 6656.000
1172.668, 6581.000
1173.756, 6610.000
1174.845, 6552.000
1175.933, 6649.000
1177.020, 6536.000
1178.108, 6620.000
1179.196, 6518.000
1180.283, 6558.000
1181.371, 6529.000
1182.458, 6513.000
1183.545, 6550.000
1184.632, 6441.000
1185.719, 6595.000
1186.805, 6509.000
1187.892, 6503.000
1188.978, 6454.000
1190.065, 6510.000
1191.151, 6472.000
1192.237, 6461.000
1193.323, 6494.716
1194.408, 6487.000
1195.494, 6558.000
1196.579, 6434.000
1197.664, 6497.000
1198.750, 6463.000
1199.835, 6350.000
1200.919, 6548.000
1202.004, 6426.000
1203.089, 6418.000
1204.173, 6439.000
1205.258, 6453.000
1206.342, 6420.000
1207.426, 6396.000
1208.510, 6568.000
1209.594, 6492.814
1210.677, 6531.776
1211.761, 6456.000
1212.844, 6497.000
1213.927, 6430.000
1215.010, 6350.000
1216.093, 6469.000
1217.176, 6500.000
1218.259, 6468.000
1219.341, 6432.000
1220.424, 6430.000
1221.506, 6534.000
1222.588, 6417.000
1223.670, 6368.000
1224.752, 6364.000
1225.834, 6486.000
1226.915, 6488.000
1227.997, 6576.000
1229.078, 6417.000
1230.159, 6408.000
1231.240, 6495.000
1232.321, 6484.000
1233.402, 6510.000
1234.483, 6488.000
1235.563, 6405.000
1236.644, 6413.000
1237.724, 6494.000
1238.804, 6432.000
1239.884, 6510.000
1240.964, 6572.000
1242.044, 6430.000
1243.123, 6569.000
1244.203, 6407.000
1245.282, 6550.000
1246.361, 6466.000
1247.440, 6584.000
1248.519, 6519.000
1249.598, 6524.000
1250.676, 6499.000
1251.755, 6491.134
1252.833, 6517.000
1253.911, 6498.000
1254.989, 6496.000
1256.067, 6502.000
1257.145, 6509.000
1258.223, 6508.000
1259.300, 6431.000
1260.378, 6549.000
1261.455, 6553.000
1262.532, 6513.000
1263.609, 6427.000
1264.686, 6501.000
1265.763, 6493.000
1266.840, 6450.000
1267.916, 6597.000
1268.992, 6527.591
1270.069, 6584.000
1271.145, 6504.000
1272.221, 6548.000
1273.296, 6551.000
1274.372, 6496.000
1275.448, 6577.000
1276.523, 6558.000
1277.598, 6423.000
1278.673, 6569.000
1279.749, 6534.000
1280.823, 6499.000
1281.898, 6547.000
1282.973, 6549.000
1284.047, 6452.000
1285.122, 6455.000
1286.196, 6489.000
1287.270, 6471.000
1288.344, 6538.000
1289.418, 6564.000
1290.491, 6610.000
1291.565, 6551.000
1292.638, 6566.000
1293.712, 6485.000
1294.785, 6713.000
1295.858, 6605.000
1296.931, 6516.000
1298.003, 6628.000
1299.076, 6539.000
1300.149, 6721.000
1301.221, 6641.984
1302.293, 6595.000
1303.365, 6589.000
1304.437, 6598.000
1305.509, 6653.000
1306.581, 6661.000
1307.652, 6592.000
1308.724, 6741.000
1309.795, 6595.000
1310.866, 6576.000
1311.937, 6545.000
1313.008, 6569.613
1314.079, 6581.947
1315.150, 6672.000
1316.220, 6656.000
1317.291, 6628.000
1318.361, 6671.000
1319.431, 6620.000
1320.501, 6698.000
1321.571, 6709.000
1322.641, 6638.000
1323.710, 6631.000
1324.780, 6626.000
1325.849, 6639.000
1326.918, 6653.000
1327.987, 6697.000
1329.056, 6767.000
1330.125, 6676.000
1331.194, 6781.000
1332.263, 6794.000
1333.331, 6707.000
1334.399, 6735.000
1335.467, 6653.000
1336.535, 6782.000
1337.603, 6737.000
1338.671, 6760.000
