##NAMES=Diopside
##RRUFFID=R050406
##IDEAL CHEMISTRY=CaMgSi_2_O_6_
##LOCALITY=unknown
##OWNER=RRUFF
##SOURCE=University of Arizona Mineral Museum
##DESCRIPTION=Brownish gray massive
##STATUS=The identification of this mineral has been confirmed by X-ray diffraction and chemical analysis
##URL=rruff.info/R050406
##MEASURED CHEMISTRY=(Ca_0.95_Na_0.05_)(Mg_0.75_Fe^2+^_0.18_Fe^3+^_0.05_Al_0.01_Ti_0.01_Mn^2+^_0.01_)(Si_0.98_Al_0.02_)_2_O_6_
##PIN_ID=M00191
##ORIENTATION=Laser parallel to -b* (0 -1 0). Fiducial mark perpendicular to laser is parallel to c [0 0 1]
116.9030, 10516.00
118.1340, 10553.00
119.3650, 10661.00
120.5960, 10962.00
121.8270, 11530.00
123.0580, 12574.00
124.2880, 13174.00
125.5190, 14101.00
126.7490, 15777.00
127.9790, 18208.00
129.2090, 20049.00
130.4390, 20762.00
131.6680, 20586.00
132.8980, 19953.00
134.1270, 19856.00
135.3560, 19803.00
136.5850, 19828.00
137.8140, 20228.00
139.0430, 20586.00
140.2710, 20393.00
141.5000, 19799.00
142.7280, 18561.00
143.9560, 17133.00
145.1840, 15524.00
146.4120, 14056.00
147.6390, 12828.00
148.8670, 11870.00
150.0940, 11580.00
151.3210, 11279.00
152.5490, 10796.00
153.7750, 10526.00
155.0020, 10229.00
156.2290, 9876.000
157.4550, 9779.000
158.6810, 9754.000
159.9080, 9684.000
161.1340, 9909.000
162.3590, 10009.00
163.5850, 10102.00
164.8110, 10189.00
166.0360, 10003.00
167.2610, 10072.00
168.4860, 10190.00
169.7110, 10352.00
170.9360, 10348.00
172.1610, 10368.49
173.3850, 10118.00
174.6100, 10237.00
175.8340, 10206.00
177.0580, 10049.00
178.2820, 10176.00
179.5050, 10240.00
180.7290, 10191.00
181.9520, 10237.00
183.1760, 10312.00
184.3990, 10352.00
185.6220, 10332.00
186.8450, 10360.09
188.0670, 10305.00
189.2900, 10328.00
190.5120, 10316.00
191.7340, 10262.00
192.9560, 10402.00
194.1780, 10574.00
195.4000, 10414.00
196.6220, 10519.00
197.8430, 10430.00
199.0640, 10496.00
200.2860, 10615.00
201.5070, 10729.00
202.7270, 10429.00
203.9480, 10069.00
205.1690, 9547.000
206.3890, 9495.000
207.6090, 9510.000
208.8290, 9498.000
210.0490, 9598.000
211.2690, 9749.000
212.4890, 9878.000
213.7080, 9686.000
214.9280, 9643.000
216.1470, 9607.000
217.3660, 9775.000
218.5850, 9748.000
219.8030, 9744.000
221.0220, 9893.000
222.2400, 9915.000
223.4590, 9937.000
224.6770, 10016.00
225.8950, 10005.00
227.1120, 9992.000
228.3300, 10075.00
229.5480, 10012.00
230.7650, 10164.00
231.9820, 10142.00
233.1990, 10097.00
234.4160, 10019.00
235.6330, 10171.00
236.8490, 9997.000
238.0660, 10100.00
239.2820, 10011.00
240.4980, 9989.000
241.7140, 10007.00
242.9300, 10078.00
244.1460, 9973.000
245.3610, 10015.00
246.5770, 10206.00
247.7920, 10041.00
249.0070, 10065.00
250.2220, 10232.00
251.4370, 10204.00
252.6510, 10155.00
253.8660, 10209.00
255.0800, 10229.00
256.2940, 10423.00
257.5080, 11423.00
258.7220, 10837.93
259.9360, 11397.00
261.1490, 10269.00
262.3630, 9912.000
263.5760, 9809.000
264.7890, 9911.000
266.0020, 9795.000
267.2150, 9788.000
268.4270, 9830.000
269.6400, 9800.000
270.8520, 9785.000
272.0640, 9685.000
273.2760, 9699.000
274.4880, 9931.000
275.7000, 9979.000
276.9120, 9879.000
278.1230, 10054.00
279.3340, 9944.000
280.5450, 9875.000
281.7560, 10112.00
282.9670, 10019.00
284.1780, 10070.00
285.3880, 10086.00
286.5980, 10218.00
287.8090, 10209.00
289.0190, 10483.00
290.2290, 10579.00
291.4380, 10622.00
292.6480, 10841.00
293.8570, 10873.00
295.0670, 11045.00
296.2760, 11309.00
297.4850, 11331.00
298.6930, 11652.00
299.9020, 11793.00
301.1110, 12122.00
302.3190, 12391.00
303.5270, 12742.00
304.7350, 13020.00
305.9430, 13460.00
307.1510, 13998.00
308.3580, 14627.00
309.5660, 15229.00
310.7730, 15900.00
311.9800, 16445.00
313.1870, 17115.00
314.3940, 17738.00
315.6010, 18115.00
316.8070, 18583.00
318.0130, 18906.00
319.2200, 19039.00
320.4260, 19138.00
321.6310, 19117.00
322.8370, 19199.00
324.0430, 18994.12
325.2480, 18849.00
326.4540, 18414.00
327.6590, 17996.00
328.8640, 17433.00
330.0680, 17145.00
331.2730, 16511.00
332.4780, 15983.00
333.6820, 15629.00
334.8860, 15285.00
336.0900, 15023.00
337.2940, 14937.00
338.4980, 14870.00
339.7010, 14830.00
340.9050, 15057.00
342.1080, 15205.00
343.3110, 15383.00
344.5140, 16038.00
345.7170, 16310.00
346.9200, 16690.00
348.1220, 16967.00
349.3240, 17089.00
350.5270, 17178.00
351.7290, 17497.00
352.9310, 17681.00
354.1320, 17772.00
355.3340, 17766.00
356.5350, 17826.00
357.7370, 17735.00
358.9380, 17720.00
360.1390, 17263.00
361.3400, 16978.00
362.5400, 16685.00
363.7410, 16438.00
364.9410, 16245.00
366.1410, 15941.00
367.3410, 15969.00
368.5410, 15763.00
369.7410, 16054.00
370.9400, 16039.00
372.1400, 16560.00
373.3390, 16944.00
374.5380, 17676.00
375.7370, 18491.00
376.9360, 19333.00
378.1350, 20373.00
379.3330, 21423.00
380.5310, 22475.00
381.7300, 22911.00
382.9280, 23474.00
384.1260, 23692.00
385.3230, 23629.00
386.5210, 23694.00
387.7180, 23745.00
388.9160, 23515.00
390.1130, 23066.00
391.3100, 22002.00
392.5060, 21269.00
393.7030, 20138.00
394.9000, 18778.00
396.0960, 17481.00
397.2920, 16321.00
398.4880, 15336.57
399.6840, 14645.00
400.8800, 13782.00
402.0750, 13201.00
403.2710, 12859.00
404.4660, 12383.00
405.6610, 12007.00
406.8560, 11881.00
408.0510, 11569.00
409.2450, 11478.00
410.4400, 11442.00
411.6340, 11143.00
412.8280, 11308.00
414.0220, 11106.00
415.2160, 11161.00
416.4100, 11110.00
417.6030, 11004.00
418.7970, 11028.00
419.9900, 11056.00
421.1830, 10871.00
422.3760, 10794.00
423.5690, 10609.00
424.7610, 10811.00
425.9540, 10751.00
427.1460, 10681.00
428.3380, 10746.00
429.5300, 10588.00
430.7220, 10506.00
431.9140, 10554.00
433.1050, 10632.00
434.2970, 10524.00
435.4880, 10530.00
436.6790, 10562.00
437.8700, 10550.00
439.0610, 10526.00
440.2510, 10638.00
441.4420, 10628.00
442.6320, 10731.00
443.8220, 10651.00
445.0120, 10631.00
446.2020, 10633.00
447.3910, 10659.50
448.5810, 10937.00
449.7700, 10808.00
450.9600, 10928.00
452.1490, 11066.00
453.3370, 11016.00
454.5260, 11006.00
455.7150, 11131.00
456.9030, 11155.00
458.0910, 11038.00
459.2800, 11187.00
460.4670, 11049.00
461.6550, 11129.00
462.8430, 11101.00
464.0300, 11054.00
465.2180, 11040.00
466.4050, 11027.55
467.5920, 11107.00
468.7790, 11026.00
469.9650, 10973.00
471.1520, 10974.00
472.3380, 10882.00
473.5250, 11006.00
474.7110, 11018.00
475.8970, 10869.00
477.0820, 10970.00
478.2680, 10936.00
479.4540, 10899.00
480.6390, 10903.00
481.8240, 10885.90
483.0090, 11007.00
484.1940, 10889.00
485.3780, 11044.00
486.5630, 11067.00
487.7470, 11078.00
488.9320, 11062.00
490.1160, 11153.92
491.3000, 11180.00
492.4830, 11317.00
493.6670, 11487.00
494.8500, 11547.00
496.0340, 11686.38
497.2170, 11977.00
498.4000, 11858.00
499.5820, 11926.00
500.7650, 11923.00
501.9480, 12151.00
503.1300, 12245.87
504.3120, 12652.00
505.4940, 12517.00
506.6760, 12543.00
507.8580, 12523.00
509.0390, 12347.00
510.2210, 12335.00
511.4020, 12131.00
512.5830, 12141.44
513.7640, 12025.00
514.9450, 12147.00
516.1250, 12191.00
517.3060, 12222.92
518.4860, 12240.03
519.6660, 12247.00
520.8460, 12211.00
522.0260, 12276.00
523.2060, 12278.00
524.3850, 12123.00
525.5650, 12262.00
526.7440, 12373.00
527.9230, 12388.00
529.1020, 12666.00
530.2810, 12595.00
531.4590, 12683.00
532.6380, 12677.00
533.8160, 12663.00
534.9940, 12732.00
536.1720, 12693.00
537.3500, 12757.00
538.5270, 12536.00
539.7050, 12646.00
540.8820, 12526.00
542.0590, 12624.00
543.2360, 12540.00
544.4130, 12746.00
545.5900, 12761.00
546.7660, 12659.00
547.9430, 12915.00
549.1190, 12890.00
550.2950, 12969.00
551.4710, 12857.00
552.6470, 12933.00
553.8220, 12813.00
554.9980, 12988.00
556.1730, 12870.00
557.3480, 12886.00
558.5230, 12886.00
559.6980, 12846.00
560.8730, 12857.00
562.0470, 12700.00
563.2220, 12499.00
564.3960, 12425.00
565.5700, 12310.86
566.7440, 12183.00
567.9170, 12182.00
569.0910, 12144.00
570.2640, 12109.65
571.4380, 11990.00
572.6110, 12003.00
573.7840, 11868.00
574.9570, 11774.00
576.1290, 11738.00
577.3020, 11652.00
578.4740, 11574.00
579.6460, 11512.00
580.8180, 11450.00
581.9900, 11357.74
583.1620, 11349.00
584.3330, 11218.00
585.5040, 11109.00
586.6760, 11127.00
587.8470, 11075.00
589.0180, 11037.00
590.1880, 11092.00
591.3590, 10910.00
592.5290, 10883.00
593.7000, 11085.00
594.8700, 10921.00
596.0400, 10998.00
597.2090, 10983.00
598.3790, 10960.00
599.5490, 10994.00
600.7180, 11077.00
601.8870, 10921.00
603.0560, 11029.00
604.2250, 10879.00
605.3940, 11005.00
606.5620, 11051.00
607.7300, 11071.00
608.8990, 11210.00
610.0670, 11160.00
611.2350, 11185.00
612.4020, 11303.00
613.5700, 11240.00
614.7370, 11246.00
615.9050, 11302.81
617.0720, 11519.00
618.2390, 11383.00
619.4060, 11447.00
620.5720, 11501.85
621.7390, 11813.00
622.9050, 11756.00
624.0710, 11907.00
625.2370, 12163.00
626.4030, 12226.00
627.5690, 12225.00
628.7340, 12451.00
629.9000, 12585.00
631.0650, 12744.00
632.2300, 12875.00
633.3950, 12930.00
634.5600, 13001.00
635.7240, 13329.00
636.8890, 13655.00
638.0530, 13814.00
639.2170, 14167.00
640.3810, 14426.00
641.5450, 14967.00
642.7080, 15498.00
643.8720, 15857.00
645.0350, 16544.00
646.1980, 17301.00
647.3610, 18132.00
648.5240, 19287.00
649.6870, 20769.00
650.8490, 22636.00
652.0120, 24947.00
653.1740, 27690.00
654.3360, 30901.00
655.4980, 34981.00
656.6600, 39119.00
657.8210, 42713.00
658.9830, 46094.00
660.1440, 48458.00
661.3050, 50128.00
662.4660, 51715.00
663.6270, 52089.00
664.7870, 52184.00
665.9480, 51626.00
667.1080, 50290.00
668.2680, 48002.00
669.4280, 44535.00
670.5880, 40737.00
671.7480, 36320.00
672.9070, 32415.00
674.0670, 28919.00
675.2260, 25964.95
676.3850, 23229.00
677.5440, 21439.00
678.7030, 19792.00
679.8610, 18667.00
681.0200, 17812.00
682.1780, 16814.00
683.3360, 15928.00
684.4940, 15363.00
685.6520, 14879.00
686.8090, 14363.00
687.9670, 14146.00
689.1240, 13822.00
690.2810, 13584.00
691.4380, 13474.00
692.5950, 13352.00
693.7520, 13103.00
694.9080, 12972.00
696.0650, 12751.00
697.2210, 12815.00
698.3770, 12665.00
699.5330, 12497.00
700.6880, 12203.00
701.8440, 12259.00
702.9990, 12084.00
704.1550, 12182.00
705.3100, 12093.00
706.4650, 12032.00
707.6190, 11995.00
708.7740, 11876.00
709.9290, 11865.00
711.0830, 11822.00
712.2370, 11738.00
713.3910, 11718.97
714.5450, 11615.00
715.6980, 11664.00
716.8520, 11540.00
718.0050, 11567.00
719.1580, 11669.00
720.3110, 11593.00
721.4640, 11631.00
722.6170, 11548.00
723.7700, 11826.00
724.9220, 11844.00
726.0740, 11474.00
727.2260, 11581.00
728.3780, 11326.00
729.5300, 11510.00
730.6810, 11479.00
731.8330, 11475.00
732.9840, 11546.00
734.1350, 11723.00
735.2860, 11615.00
736.4370, 11575.00
737.5880, 11344.00
738.7380, 11431.00
739.8880, 11506.00
741.0390, 11498.19
742.1890, 11473.74
743.3380, 11652.00
744.4880, 11578.00
745.6380, 11621.00
746.7870, 11674.03
747.9360, 11845.00
749.0850, 11700.00
750.2340, 11689.00
751.3830, 11633.00
752.5310, 11503.00
753.6800, 11559.00
754.8280, 11564.73
755.9760, 11743.00
757.1240, 11714.00
758.2720, 11817.00
759.4190, 11927.00
760.5670, 11853.00
761.7140, 11763.00
762.8610, 12022.00
764.0080, 11900.00
765.1550, 11757.00
766.3020, 11819.00
767.4480, 11790.00
768.5950, 11869.00
769.7410, 11932.00
770.8870, 11904.00
772.0330, 12053.00
773.1780, 12093.00
774.3240, 12129.00
775.4690, 11919.00
776.6140, 12026.00
777.7590, 11900.00
778.9040, 11781.00
780.0490, 12051.00
781.1940, 11912.00
782.3380, 12028.00
783.4820, 12031.00
784.6260, 12174.00
785.7700, 12091.00
786.9140, 12061.00
788.0580, 12141.00
789.2010, 12203.00
790.3450, 12115.00
791.4880, 12171.84
792.6310, 12078.00
793.7730, 12154.00
794.9160, 12129.00
796.0590, 12103.00
797.2010, 12034.00
798.3430, 12167.00
799.4850, 12171.00
800.6270, 12236.00
801.7690, 12134.00
802.9100, 12234.00
804.0520, 12109.00
805.1930, 12174.00
806.3340, 12033.00
807.4750, 12096.00
808.6160, 12315.00
809.7560, 12216.00
810.8970, 12365.00
812.0370, 12492.00
813.1770, 12416.00
814.3170, 12391.00
815.4570, 12445.00
816.5960, 12399.00
817.7360, 12525.00
818.8750, 12478.00
820.0140, 12476.00
821.1530, 12589.00
822.2920, 12679.00
823.4310, 12531.00
824.5690, 12652.00
825.7070, 12702.00
826.8460, 12816.00
827.9840, 12731.00
829.1220, 12740.00
830.2590, 12725.00
831.3970, 12684.00
832.5340, 12811.00
833.6710, 12836.00
834.8080, 12919.71
835.9450, 12977.00
837.0820, 13128.00
838.2190, 13249.00
839.3550, 13388.00
840.4910, 13675.00
841.6270, 13959.00
842.7630, 14234.00
843.8990, 14548.00
845.0350, 15155.00
846.1700, 15775.00
847.3060, 16300.00
848.4410, 17040.00
849.5760, 17621.00
850.7100, 17977.00
851.8450, 18316.00
852.9800, 18542.00
854.1140, 18720.00
855.2480, 18681.00
856.3820, 18646.00
857.5160, 18314.00
858.6500, 17902.00
859.7830, 17425.00
860.9170, 17147.00
862.0500, 16793.00
863.1830, 16384.00
864.3160, 16060.00
865.4480, 15945.00
866.5810, 15583.00
867.7130, 15345.00
868.8460, 15365.00
869.9780, 15083.00
871.1100, 14794.00
872.2410, 14861.00
873.3730, 14866.00
874.5050, 14688.00
875.6360, 14676.00
876.7670, 14786.00
877.8980, 14669.00
879.0290, 14807.00
880.1590, 14729.00
881.2900, 14887.00
882.4200, 14758.00
883.5500, 14696.00
884.6800, 14551.00
885.8100, 14639.00
886.9400, 14802.00
888.0690, 14671.15
889.1990, 14837.00
890.3280, 14639.00
891.4570, 14780.00
892.5860, 14939.00
893.7140, 14879.00
894.8430, 14916.00
895.9710, 14826.00
897.1000, 14730.00
898.2280, 14565.00
899.3560, 14641.00
900.4830, 14638.00
901.6110, 14483.00
902.7380, 14736.00
903.8660, 14675.00
904.9930, 14704.00
906.1200, 14698.00
907.2460, 14562.00
908.3730, 14600.00
909.5000, 14653.00
910.6260, 14453.00
911.7520, 14449.00
912.8780, 14538.00
914.0040, 14395.00
915.1290, 14436.00
916.2550, 14544.00
917.3800, 14515.00
918.5050, 14629.00
919.6300, 14663.00
920.7550, 14661.00
921.8800, 14594.00
923.0040, 14471.00
924.1290, 14447.00
925.2530, 14431.00
926.3770, 14459.00
927.5010, 14397.00
928.6250, 14539.00
929.7480, 14459.00
930.8720, 14525.00
931.9950, 14614.00
933.1180, 14646.00
934.2410, 14584.00
935.3640, 14579.00
936.4860, 14527.63
937.6090, 14392.00
938.7310, 14422.00
939.8530, 14385.00
940.9750, 14366.00
942.0970, 14456.00
943.2180, 14449.00
944.3400, 14493.00
945.4610, 14438.00
946.5820, 14667.00
947.7030, 14763.00
948.8240, 14709.00
949.9450, 14838.00
951.0650, 14752.00
952.1860, 14886.00
953.3060, 15043.00
954.4260, 15236.00
955.5460, 15057.00
956.6650, 15159.00
957.7850, 15454.00
958.9040, 15331.00
960.0230, 15529.00
961.1420, 15596.00
962.2610, 15617.00
963.3800, 15779.00
964.4990, 15699.00
965.6170, 15705.00
966.7350, 15810.00
967.8530, 15816.00
968.9710, 15948.00
970.0890, 16002.00
971.2070, 16250.00
972.3240, 16182.00
973.4410, 16291.00
974.5580, 16416.00
975.6750, 16348.00
976.7920, 16560.00
977.9090, 16500.00
979.0250, 16578.00
980.1410, 16739.00
981.2580, 16770.00
982.3740, 16965.00
983.4890, 17144.00
984.6050, 17312.87
985.7200, 17499.00
986.8360, 17819.00
987.9510, 18045.00
989.0660, 18465.00
990.1810, 18766.00
991.2950, 19088.00
992.4100, 19619.00
993.5240, 20390.00
994.6390, 21043.00
995.7530, 22033.00
996.8660, 22854.00
997.9800, 24543.00
999.0940, 25894.00
1000.207, 28272.00
1001.320, 31135.00
1002.433, 33963.00
1003.546, 37659.00
1004.659, 42330.00
1005.772, 46728.00
1006.884, 51262.00
1007.996, 55096.00
1009.108, 57164.00
1010.220, 58626.00
1011.332, 58782.00
1012.444, 58022.94
1013.555, 56224.21
1014.666, 53590.00
1015.777, 49819.00
1016.888, 45327.00
1017.999, 40345.00
1019.110, 35802.00
1020.220, 32215.00
1021.331, 29333.00
1022.441, 27100.00
1023.551, 25365.00
1024.661, 24185.00
1025.770, 23385.00
1026.880, 22713.00
1027.989, 21941.00
1029.098, 21672.00
1030.207, 21648.00
1031.316, 21339.00
1032.425, 21204.00
1033.533, 21268.00
1034.642, 21308.00
1035.750, 21597.00
1036.858, 21714.00
1037.966, 22117.00
1039.073, 22249.00
1040.181, 22539.00
1041.288, 22584.00
1042.396, 22777.00
1043.503, 22454.00
1044.610, 22022.00
1045.716, 21634.00
1046.823, 21376.00
1047.929, 21043.00
1049.036, 20401.00
1050.142, 19874.00
1051.248, 19567.00
1052.353, 19366.00
1053.459, 18788.00
1054.564, 18419.00
1055.670, 18148.00
1056.775, 17840.00
1057.880, 17581.00
1058.985, 17306.00
1060.089, 17223.00
1061.194, 17072.00
1062.298, 16925.00
1063.402, 16734.00
1064.506, 16789.00
1065.610, 16762.00
1066.713, 16790.00
1067.817, 16717.00
1068.920, 16344.00
1070.023, 16599.00
1071.126, 16100.00
1072.229, 16184.00
1073.332, 16110.00
1074.435, 16080.00
1075.537, 16113.00
1076.639, 16119.00
1077.741, 15996.00
1078.843, 16115.69
1079.945, 16137.00
1081.046, 16233.00
1082.148, 16173.00
1083.249, 16140.00
1084.350, 15901.00
1085.451, 15951.00
1086.551, 16045.00
1087.652, 15890.00
1088.752, 16087.00
1089.853, 15887.00
1090.953, 15985.00
1092.053, 15982.41
1093.152, 16073.00
1094.252, 15959.00
1095.351, 16153.00
1096.451, 16106.00
1097.550, 15801.00
1098.649, 16006.00
1099.748, 15749.00
1100.846, 15783.00
1101.945, 15755.00
1103.043, 15897.00
1104.141, 15977.00
1105.239, 15973.00
1106.337, 15871.00
1107.434, 15890.00
1108.532, 15981.00
1109.629, 16095.00
1110.726, 15729.00
1111.823, 15944.00
1112.920, 15879.00
1114.017, 15923.00
1115.113, 15974.00
1116.210, 16039.00
1117.306, 16207.00
1118.402, 16346.00
1119.498, 16420.00
1120.593, 16340.00
1121.689, 16414.00
1122.784, 16640.00
1123.879, 16511.00
1124.974, 16360.00
1126.069, 16308.00
1127.164, 15998.00
1128.259, 16179.00
1129.353, 16023.00
1130.447, 15881.00
1131.541, 15968.00
1132.635, 15828.00
1133.729, 15935.00
1134.822, 16010.00
1135.916, 15924.00
1137.009, 16150.00
1138.102, 15609.00
1139.195, 15421.00
1140.288, 15698.00
1141.380, 15434.00
1142.473, 15505.00
1143.565, 15456.00
1144.657, 15433.00
1145.749, 15531.00
1146.841, 15443.00
1147.932, 15499.00
1149.024, 15544.00
1150.115, 15201.00
1151.206, 15200.00
1152.297, 15144.00
1153.388, 15089.00
1154.479, 15103.00
1155.569, 15048.00
1156.659, 15112.00
1157.750, 15057.00
1158.839, 15060.00
1159.929, 15241.00
1161.019, 15219.00
1162.108, 15297.00
1163.198, 15213.00
1164.287, 15051.00
1165.376, 15037.00
1166.465, 14897.00
1167.553, 14906.00
1168.642, 14973.00
1169.730, 14967.39
1170.818, 15009.00
1171.906, 15067.00
1172.994, 15173.00
1174.082, 15167.00
1175.170, 15135.00
1176.257, 15097.00
1177.344, 15065.00
1178.431, 15041.00
1179.518, 15094.00
1180.605, 15158.00
1181.691, 15068.00
1182.778, 14994.00
1183.864, 15204.00
1184.950, 15055.00
1186.036, 15207.00
1187.122, 15275.00
1188.207, 15272.00
1189.292, 15123.00
1190.378, 15143.00
1191.463, 15158.00
1192.548, 15155.00
1193.632, 15145.63
1194.717, 15042.00
1195.801, 15108.00
1196.886, 15140.00
1197.970, 15134.00
1199.054, 15231.90
1200.137, 15162.00
1201.221, 15391.00
1202.305, 15342.00
1203.388, 15405.00
1204.471, 15410.00
1205.554, 15348.00
1206.637, 15395.95
1207.719, 15106.00
1208.802, 15418.00
1209.884, 15207.00
1210.966, 15207.00
1212.048, 15329.00
1213.130, 15194.00
1214.212, 15451.00
1215.293, 15534.00
1216.374, 15411.00
1217.456, 15375.00
1218.536, 15575.00
1219.617, 15381.00
1220.698, 15563.00
1221.778, 15204.00
1222.859, 15329.00
1223.939, 15310.00
1225.019, 15440.00
1226.099, 15360.00
1227.178, 15591.00
1228.258, 15439.00
1229.337, 15416.00
1230.417, 15540.00
1231.496, 15691.00
1232.574, 15516.00
1233.653, 15441.00
1234.732, 15478.00
1235.810, 15427.00
1236.888, 15605.00
1237.966, 15529.00
1239.044, 15653.00
1240.122, 15704.00
1241.199, 15847.00
1242.277, 15798.00
1243.354, 15804.00
1244.431, 15827.00
1245.508, 15791.00
1246.585, 15589.00
1247.661, 15645.00
1248.738, 15570.00
1249.814, 15743.00
1250.890, 15786.00
1251.966, 15859.00
1253.042, 15747.00
1254.117, 15707.00
1255.193, 15727.00
1256.268, 15670.00
1257.343, 15792.00
1258.418, 15693.00
1259.493, 15725.00
1260.567, 15735.00
1261.642, 15707.00
1262.716, 15719.00
1263.790, 15840.00
1264.864, 15847.96
1265.938, 15977.00
1267.011, 15964.00
1268.085, 16052.00
1269.158, 16099.00
1270.231, 16049.00
1271.304, 16005.00
1272.377, 16103.00
1273.450, 16021.00
1274.522, 16055.00
1275.594, 15932.00
1276.666, 16082.00
1277.738, 15889.00
1278.810, 16149.00
1279.882, 15988.00
1280.953, 16263.00
1282.025, 16231.00
1283.096, 16235.00
1284.167, 16011.00
1285.238, 16091.00
1286.308, 16100.00
1287.379, 16010.00
1288.449, 16013.00
1289.519, 16096.00
1290.589, 16134.00
1291.659, 16216.00
1292.729, 16106.00
