##NAMES=Diopside
##RRUFFID=R050496
##IDEAL CHEMISTRY=CaMgSi_2_O_6_
##LOCALITY=New City Quarry, Riverside, Riverside County, Calfornia, USA
##OWNER=RRUFF
##SOURCE=California Institute of Technology
##DESCRIPTION=Aggregate of light green irregular grains
##STATUS=The identification of this mineral has been confirmed by X-ray diffraction and chemical analysis
##URL=rruff.info/R050496
##MEASURED CHEMISTRY=Ca(Mg_0.66_Fe_0.33_Mn_0.01_)(Si_0.95_Al_0.05_)_2_O_6_
##PIN_ID=M01175
##ORIENTATION=Laser parallel to c* (0 0 1). Fiducial mark perpendicular to laser is parallel to -a [-1 0 0]
130.3130, 10789.00
131.5450, 10926.00
132.7770, 10954.00
134.0080, 10975.00
135.2390, 11048.00
136.4710, 11054.00
137.7020, 11044.00
138.9320, 11082.00
140.1630, 11222.00
141.3930, 11256.00
142.6240, 11240.16
143.8540, 11230.00
145.0840, 11181.00
146.3140, 11154.92
147.5440, 11051.00
148.7730, 11053.00
150.0020, 11089.00
151.2320, 11000.00
152.4610, 11033.00
153.6900, 11079.00
154.9180, 11018.00
156.1470, 11110.00
157.3750, 10922.00
158.6040, 11164.00
159.8320, 10995.00
161.0600, 11078.00
162.2870, 11262.00
163.5150, 11077.00
164.7420, 11408.00
165.9700, 11407.00
167.1970, 11164.00
168.4240, 11364.00
169.6510, 11219.00
170.8770, 11265.00
172.1040, 11315.00
173.3300, 11376.00
174.5560, 11454.00
175.7820, 11547.00
177.0080, 11550.00
178.2340, 11626.41
179.4590, 11766.00
180.6850, 11742.00
181.9100, 11631.00
183.1350, 11726.00
184.3600, 11727.00
185.5850, 11803.00
186.8090, 11788.68
188.0340, 11670.00
189.2580, 11746.00
190.4820, 11747.00
191.7060, 11721.00
192.9300, 11895.00
194.1530, 11906.00
195.3770, 11796.00
196.6000, 11881.00
197.8230, 11894.00
199.0460, 11794.00
200.2690, 11799.00
201.4910, 11793.00
202.7140, 11883.00
203.9360, 11971.00
205.1580, 11870.00
206.3800, 11765.00
207.6020, 11876.00
208.8240, 11886.00
210.0450, 11920.00
211.2670, 11963.00
212.4880, 12058.00
213.7090, 12082.00
214.9300, 12147.00
216.1510, 12098.00
217.3710, 12251.00
218.5920, 12155.00
219.8120, 12151.00
221.0320, 12281.00
222.2520, 12205.00
223.4720, 12391.00
224.6910, 12494.00
225.9110, 12538.00
227.1300, 12651.16
228.3490, 12683.55
229.5680, 12766.00
230.7870, 12722.00
232.0050, 12738.00
233.2240, 12680.00
234.4420, 12695.00
235.6600, 12697.00
236.8780, 12563.00
238.0960, 12459.00
239.3140, 12420.00
240.5310, 12443.00
241.7490, 12387.00
242.9660, 12388.00
244.1830, 12454.00
245.4000, 12157.00
246.6160, 12400.00
247.8330, 12545.00
249.0490, 12304.00
250.2660, 12357.00
251.4820, 12411.00
252.6980, 12396.00
253.9130, 12311.00
255.1290, 12447.00
256.3440, 12322.00
257.5600, 12517.00
258.7750, 12374.00
259.9900, 12247.00
261.2040, 12319.00
262.4190, 12305.00
263.6330, 12443.00
264.8480, 12243.00
266.0620, 12428.00
267.2760, 12311.00
268.4900, 12396.00
269.7030, 12298.00
270.9170, 12353.00
272.1300, 12373.00
273.3430, 12461.00
274.5560, 12258.00
275.7690, 12555.00
276.9820, 12418.00
278.1940, 12318.00
279.4070, 12486.00
280.6190, 12560.00
281.8310, 12418.00
283.0430, 12574.00
284.2550, 12530.00
285.4660, 12497.00
286.6770, 12792.00
287.8890, 12785.00
289.1000, 12763.00
290.3110, 12847.00
291.5210, 12764.00
292.7320, 12980.00
293.9420, 13068.00
295.1530, 13213.00
296.3630, 13190.00
297.5730, 13289.63
298.7830, 13349.00
299.9920, 13342.00
301.2020, 13617.00
302.4110, 13557.00
303.6200, 13701.00
304.8290, 14050.00
306.0380, 13970.00
307.2470, 14167.00
308.4550, 14291.00
309.6630, 14590.00
310.8720, 14794.00
312.0800, 15331.00
313.2880, 15526.00
314.4950, 16003.00
315.7030, 16550.00
316.9100, 17022.00
318.1170, 17346.00
319.3240, 17723.00
320.5310, 18257.00
321.7380, 18517.00
322.9450, 18665.00
324.1510, 18738.00
325.3570, 18467.00
326.5630, 18057.00
327.7690, 17896.00
328.9750, 17386.00
330.1810, 16943.00
331.3860, 16383.00
332.5910, 16190.00
333.7960, 15722.00
335.0010, 15496.00
336.2060, 15249.00
337.4110, 15188.00
338.6150, 14911.00
339.8200, 14873.00
341.0240, 14668.00
342.2280, 14565.00
343.4320, 14504.72
344.6350, 14561.00
345.8390, 14429.00
347.0420, 14459.00
348.2450, 14523.00
349.4480, 14764.00
350.6510, 14706.00
351.8540, 14782.00
353.0560, 14766.00
354.2590, 14852.00
355.4610, 14870.00
356.6630, 14744.00
357.8650, 14844.00
359.0670, 14694.00
360.2680, 14633.00
361.4700, 14758.00
362.6710, 14651.00
363.8720, 14648.00
365.0730, 14783.00
366.2740, 14598.00
367.4740, 14662.00
368.6750, 14708.00
369.8750, 14849.00
371.0750, 14990.00
372.2750, 15235.00
373.4750, 15313.00
374.6740, 15836.00
375.8740, 16028.00
377.0730, 16270.00
378.2720, 16940.00
379.4710, 17174.00
380.6700, 17924.00
381.8690, 18649.00
383.0670, 19559.00
384.2660, 20417.00
385.4640, 21246.00
386.6620, 21937.00
387.8600, 22650.00
389.0570, 22846.00
390.2550, 22746.00
391.4520, 22140.00
392.6490, 21327.00
393.8460, 20298.00
395.0430, 19383.00
396.2400, 18475.00
397.4370, 17461.00
398.6330, 16547.00
399.8290, 15954.00
401.0250, 15866.00
402.2210, 15320.00
403.4170, 15181.00
404.6130, 14858.00
405.8080, 14624.00
407.0030, 14398.00
408.1980, 14418.00
409.3930, 14278.00
410.5880, 14291.00
411.7830, 14263.00
412.9770, 14279.00
414.1720, 14259.46
415.3660, 14214.91
416.5600, 14220.00
417.7530, 14137.00
418.9470, 14095.00
420.1410, 14107.00
421.3340, 14106.00
422.5270, 14115.00
423.7200, 14149.00
424.9130, 14115.00
426.1060, 14153.00
427.2980, 14194.00
428.4900, 14012.00
429.6830, 13964.00
430.8750, 14108.00
432.0670, 13987.00
433.2580, 14109.00
434.4500, 14111.00
435.6410, 14188.00
436.8320, 14083.00
438.0240, 13962.00
439.2140, 14093.00
440.4050, 14115.00
441.5960, 14160.00
442.7860, 14269.00
443.9760, 14068.00
445.1670, 14237.00
446.3560, 14248.00
447.5460, 14175.00
448.7360, 14275.00
449.9250, 14236.00
451.1150, 14295.00
452.3040, 14240.00
453.4930, 14356.00
454.6810, 14364.00
455.8700, 14307.00
457.0590, 14414.00
458.2470, 14381.00
459.4350, 14289.00
460.6230, 14468.00
461.8110, 14422.00
462.9980, 14459.00
464.1860, 14532.00
465.3730, 14558.00
466.5600, 14520.00
467.7470, 14344.00
468.9340, 14476.00
470.1210, 14489.00
471.3080, 14401.00
472.4940, 14510.00
473.6800, 14564.00
474.8660, 14514.00
476.0520, 14489.00
477.2380, 14447.00
478.4230, 14516.00
479.6090, 14666.00
480.7940, 14635.00
481.9790, 14530.00
483.1640, 14628.00
484.3490, 14569.00
485.5330, 14698.00
486.7180, 14611.00
487.9020, 14835.00
489.0860, 14677.00
490.2700, 14803.00
491.4540, 14807.00
492.6370, 14720.00
493.8210, 14867.00
495.0040, 14768.00
496.1870, 14986.00
497.3700, 14961.00
498.5530, 14816.00
499.7360, 14866.00
500.9180, 14930.00
502.1000, 14888.00
503.2830, 15075.00
504.4650, 15098.00
505.6460, 15014.00
506.8280, 15101.00
508.0100, 15140.00
509.1910, 15229.00
510.3720, 15095.00
511.5530, 15191.00
512.7340, 15287.00
513.9150, 15454.00
515.0950, 15266.00
516.2760, 15387.00
517.4560, 15415.00
518.6360, 15687.00
519.8160, 15640.00
520.9950, 15526.00
522.1750, 15799.00
523.3540, 15743.00
524.5340, 15955.00
525.7130, 15904.00
526.8920, 16100.00
528.0700, 15985.00
529.2490, 16120.00
530.4270, 16133.00
531.6060, 16074.00
532.7840, 16020.00
533.9620, 16036.00
535.1390, 15943.00
536.3170, 15712.00
537.4940, 15888.00
538.6720, 15557.00
539.8490, 15810.00
541.0260, 15781.00
542.2030, 15832.00
543.3790, 15761.00
544.5560, 15774.00
545.7320, 15858.00
546.9080, 15800.00
548.0840, 15691.00
549.2600, 15797.00
550.4360, 15906.00
551.6110, 15799.00
552.7860, 16009.00
553.9620, 16160.00
555.1370, 16024.00
556.3110, 16259.00
557.4860, 16088.00
558.6610, 16140.00
559.8350, 16328.00
561.0090, 16019.00
562.1830, 16066.00
563.3570, 16095.00
564.5310, 16015.00
565.7040, 16037.00
566.8780, 16124.00
568.0510, 15972.00
569.2240, 15978.00
570.3970, 15874.00
571.5700, 15938.00
572.7420, 15995.00
573.9150, 15948.00
575.0870, 15795.00
576.2590, 15899.00
577.4310, 15831.00
578.6030, 15753.00
579.7740, 15776.00
580.9460, 15727.00
582.1170, 15795.00
583.2880, 15814.00
584.4590, 15764.00
585.6300, 15671.00
586.8010, 15479.00
587.9710, 15637.00
589.1410, 15545.00
590.3110, 15597.00
591.4810, 15405.00
592.6510, 15515.00
593.8210, 15548.00
594.9900, 15526.00
596.1600, 15593.00
597.3290, 15584.00
598.4980, 15666.00
599.6670, 15566.00
600.8350, 15715.00
602.0040, 15481.00
603.1720, 15566.00
604.3400, 15600.00
605.5080, 15635.00
606.6760, 15673.59
607.8440, 15703.42
609.0120, 15749.00
610.1790, 15741.00
611.3460, 15841.00
612.5130, 15814.00
613.6800, 15925.00
614.8470, 15944.00
616.0130, 15877.00
617.1800, 15854.00
618.3460, 15927.00
619.5120, 15877.00
620.6780, 15972.00
621.8440, 16083.00
623.0090, 16059.00
624.1750, 15953.00
625.3400, 15965.00
626.5050, 16139.00
627.6700, 16254.00
628.8350, 16164.00
629.9990, 16164.00
631.1640, 16188.14
632.3280, 16310.00
633.4920, 16226.00
634.6560, 16280.00
635.8200, 16369.00
636.9840, 16582.00
638.1470, 16451.00
639.3100, 16557.00
640.4730, 16557.00
641.6360, 16674.00
642.7990, 16739.00
643.9620, 16626.00
645.1240, 16774.00
646.2870, 16821.29
647.4490, 16981.00
648.6110, 17063.00
649.7730, 17198.00
650.9340, 17390.00
652.0960, 17664.00
653.2570, 17922.00
654.4180, 18030.00
655.5790, 18466.00
656.7400, 18682.00
657.9010, 19183.00
659.0620, 19797.00
660.2220, 20273.00
661.3820, 21048.00
662.5420, 21743.00
663.7020, 22188.00
664.8620, 22779.00
666.0210, 23089.00
667.1810, 22895.00
668.3400, 22472.00
669.4990, 21850.00
670.6580, 21357.00
671.8170, 20721.00
672.9750, 20189.00
674.1340, 19510.00
675.2920, 19170.00
676.4500, 18697.00
677.6080, 18463.00
678.7660, 18226.00
679.9230, 18108.00
681.0810, 17948.00
682.2380, 17830.00
683.3950, 17592.00
684.5520, 17685.00
685.7090, 17423.00
686.8660, 17596.00
688.0220, 17525.00
689.1780, 17459.00
690.3340, 17408.00
691.4900, 17489.00
692.6460, 17365.11
693.8020, 17191.00
694.9570, 17265.00
696.1130, 17280.00
697.2680, 17363.00
698.4230, 17169.00
699.5780, 17253.00
700.7320, 17304.00
701.8870, 17100.00
703.0410, 17387.00
704.1950, 17313.00
705.3490, 17293.00
706.5030, 17176.00
707.6570, 17257.00
708.8110, 17264.00
709.9640, 17245.00
711.1170, 17131.00
712.2700, 17107.00
713.4230, 17070.74
714.5760, 17164.00
715.7280, 17079.00
716.8810, 17150.00
718.0330, 17286.00
719.1850, 17265.00
720.3370, 17200.00
721.4890, 17113.00
722.6400, 17232.00
723.7920, 17339.00
724.9430, 17393.00
726.0940, 17276.00
727.2450, 17394.00
728.3960, 17322.00
729.5460, 17365.00
730.6970, 17361.00
731.8470, 17461.00
732.9970, 17377.00
734.1470, 17675.00
735.2970, 17615.00
736.4460, 17508.00
737.5960, 17595.00
738.7450, 17511.00
739.8940, 17488.00
741.0430, 17518.00
742.1920, 17533.77
743.3410, 17620.00
744.4890, 17636.00
745.6370, 17752.00
746.7850, 17767.00
747.9330, 17658.00
749.0810, 17748.00
750.2290, 17684.66
751.3760, 17724.00
752.5240, 17712.00
753.6710, 17789.00
754.8180, 17798.34
755.9650, 17817.00
757.1110, 17834.00
758.2580, 17899.00
759.4040, 17877.00
760.5510, 17895.00
761.6970, 17889.00
762.8420, 18013.00
763.9880, 18112.00
765.1340, 18121.00
766.2790, 18093.00
767.4240, 18195.00
768.5690, 18029.00
769.7140, 18017.00
770.8590, 18218.00
772.0030, 18008.00
773.1480, 18227.00
774.2920, 18207.00
775.4360, 18274.00
776.5800, 18276.00
777.7240, 18428.00
778.8670, 18429.00
780.0110, 18208.00
781.1540, 18415.00
782.2970, 18388.00
783.4400, 18386.00
784.5830, 18502.00
785.7250, 18401.00
786.8680, 18400.00
788.0100, 18437.00
789.1520, 18568.00
790.2940, 18605.00
791.4360, 18607.00
792.5780, 18598.00
793.7190, 18565.00
794.8600, 18744.00
796.0010, 18708.00
797.1420, 18647.00
798.2830, 18543.00
799.4240, 18553.00
800.5640, 18661.00
801.7050, 18618.00
802.8450, 18694.00
803.9850, 18606.00
805.1250, 18541.00
806.2640, 18676.00
807.4040, 18799.00
808.5430, 18556.00
809.6820, 18749.00
810.8210, 18913.00
811.9600, 18769.00
813.0990, 18702.00
814.2370, 18760.00
815.3760, 18781.00
816.5140, 18817.27
817.6520, 18819.00
818.7900, 18900.00
819.9270, 18972.00
821.0650, 18928.00
822.2020, 18947.00
823.3390, 19115.00
824.4760, 19083.00
825.6130, 19165.00
826.7500, 19178.00
827.8870, 19196.00
829.0230, 19243.42
830.1590, 19191.00
831.2950, 19278.00
832.4310, 19266.44
833.5670, 19049.00
834.7030, 19272.00
835.8380, 19194.00
836.9730, 19150.00
838.1080, 19488.00
839.2430, 19358.00
840.3780, 19238.00
841.5130, 19277.00
842.6470, 19269.00
843.7810, 19334.00
844.9150, 19461.00
846.0490, 19291.00
847.1830, 19252.00
848.3170, 19274.00
849.4500, 19457.00
850.5830, 19457.00
851.7160, 19536.00
852.8490, 19697.00
853.9820, 19530.00
855.1150, 19671.00
856.2470, 19556.00
857.3800, 19608.00
858.5120, 19580.00
859.6440, 19589.42
860.7760, 19727.00
861.9070, 19707.00
863.0390, 19777.00
864.1700, 19962.00
865.3010, 19971.00
866.4320, 19791.00
867.5630, 19822.00
868.6940, 19935.00
869.8240, 19821.00
870.9540, 19831.00
872.0850, 19848.00
873.2150, 19896.00
874.3450, 19971.00
875.4740, 19975.76
876.6040, 19993.79
877.7330, 20011.00
878.8620, 19971.00
879.9910, 19975.00
881.1200, 19942.11
882.2490, 19998.45
883.3770, 19984.00
884.5060, 20172.00
885.6340, 20303.00
886.7620, 20493.00
887.8900, 20264.00
889.0180, 20354.00
890.1450, 20328.00
891.2730, 20413.00
892.4000, 20335.00
893.5270, 20265.00
894.6540, 20504.00
895.7810, 20272.00
896.9070, 20296.00
898.0340, 20499.00
899.1600, 20462.00
900.2860, 20514.00
901.4120, 20578.05
902.5380, 20536.00
903.6630, 20652.00
904.7890, 20647.00
905.9140, 20711.80
907.0390, 20684.72
908.1640, 20670.00
909.2890, 20621.00
910.4130, 20603.00
911.5380, 20627.00
912.6620, 20698.00
913.7860, 20834.00
914.9100, 20706.00
916.0340, 20890.00
917.1580, 20657.00
918.2810, 20930.00
919.4040, 20716.00
920.5280, 20898.00
921.6510, 20831.00
922.7730, 21021.00
923.8960, 20831.00
925.0180, 20798.00
926.1410, 20876.00
927.2630, 20936.00
928.3850, 20979.00
929.5070, 20926.00
930.6280, 20910.00
931.7500, 20936.84
932.8710, 21112.00
933.9920, 21003.00
935.1130, 21082.00
936.2340, 21182.00
937.3550, 20985.00
938.4760, 21178.00
939.5960, 21235.00
940.7160, 21217.07
941.8360, 21308.00
942.9560, 21229.00
944.0760, 21295.00
945.1950, 21179.00
946.3150, 21387.00
947.4340, 21185.00
948.5530, 21383.00
949.6720, 21451.00
950.7900, 21423.00
951.9090, 21545.00
953.0270, 21604.00
954.1460, 21479.00
955.2640, 21754.00
956.3820, 21660.00
957.4990, 21563.00
958.6170, 21736.00
959.7340, 21905.00
960.8520, 22002.00
961.9690, 21903.00
963.0860, 21997.00
964.2020, 22062.00
965.3190, 21975.00
966.4350, 22133.00
967.5520, 22338.00
968.6680, 22066.00
969.7840, 22285.00
970.8990, 22383.00
972.0150, 22371.00
973.1310, 22434.00
974.2460, 22375.00
975.3610, 22439.00
976.4760, 22652.00
977.5910, 22588.00
978.7050, 22526.00
979.8200, 22780.00
980.9340, 22809.00
982.0480, 22803.00
983.1620, 22782.00
984.2760, 22806.00
985.3900, 23154.00
986.5030, 23185.00
987.6160, 23112.00
988.7300, 23483.00
989.8430, 23524.00
990.9550, 23650.00
992.0680, 23832.00
993.1810, 24254.00
994.2930, 24355.00
995.4050, 24849.00
996.5170, 25217.00
997.6290, 25586.00
998.7410, 26029.00
999.8520, 26578.00
1000.964, 27153.00
1002.075, 28160.00
1003.186, 29085.00
1004.297, 30121.00
1005.407, 31533.00
1006.518, 32897.00
1007.628, 34819.00
1008.738, 36681.00
1009.848, 38617.00
1010.958, 40583.00
1012.068, 41511.00
1013.178, 41534.00
1014.287, 40318.00
1015.396, 38673.00
1016.505, 36119.00
1017.614, 33712.00
1018.723, 31611.00
1019.831, 29863.00
1020.940, 28283.00
1022.048, 27427.00
1023.156, 26571.00
1024.264, 26006.00
1025.372, 25705.00
1026.479, 25301.00
1027.587, 25162.00
1028.694, 24897.00
1029.801, 24905.00
1030.908, 24758.00
1032.015, 24533.00
1033.121, 24581.00
1034.228, 24737.00
1035.334, 24631.08
1036.440, 24717.46
1037.546, 24591.00
1038.652, 24771.00
1039.758, 24656.00
1040.863, 24715.00
1041.968, 24713.00
1043.074, 24534.00
1044.178, 24747.00
1045.283, 24740.00
1046.388, 24569.00
1047.492, 24284.00
1048.597, 24227.00
1049.701, 24391.00
1050.805, 23871.00
1051.909, 24166.00
1053.012, 23988.00
1054.116, 23893.00
1055.219, 23808.00
1056.322, 23696.00
1057.425, 23797.00
1058.528, 23718.00
1059.631, 23840.00
1060.733, 23768.00
1061.836, 23745.00
1062.938, 23726.00
1064.040, 23809.00
1065.142, 23797.00
1066.243, 23598.00
1067.345, 23837.00
1068.446, 23484.00
1069.547, 23560.00
1070.648, 23700.00
1071.749, 23896.00
1072.850, 23690.00
1073.951, 23584.00
1075.051, 24007.00
1076.151, 23941.00
1077.251, 23743.00
1078.351, 23821.00
1079.451, 23709.00
1080.550, 23890.00
1081.650, 23720.00
1082.749, 23789.00
1083.848, 23930.00
1084.947, 23762.00
1086.046, 23846.00
1087.144, 23836.00
1088.243, 23838.00
1089.341, 23892.00
1090.439, 23929.00
1091.537, 23946.87
1092.635, 23987.00
1093.732, 24053.00
1094.830, 24041.00
1095.927, 24214.00
1097.024, 24017.00
1098.121, 24213.00
1099.218, 24109.00
1100.314, 24217.00
1101.411, 24320.00
1102.507, 24017.00
1103.603, 24156.00
1104.699, 24240.00
1105.795, 24281.00
1106.890, 24379.00
1107.986, 24378.08
1109.081, 24287.00
1110.176, 24386.00
1111.271, 24297.00
1112.366, 24308.00
1113.461, 24292.00
1114.555, 24456.00
1115.649, 24330.00
1116.744, 24507.00
1117.838, 24298.00
1118.931, 24431.00
1120.025, 24583.00
1121.119, 24592.00
1122.212, 24591.00
1123.305, 24682.00
1124.398, 24443.00
1125.491, 24529.00
1126.584, 24572.00
1127.676, 24656.00
1128.768, 24770.00
1129.861, 24614.00
1130.953, 24686.00
1132.044, 24531.00
1133.136, 24667.00
1134.228, 24881.00
1135.319, 24706.00
1136.410, 24682.00
1137.501, 24634.00
1138.592, 24923.00
1139.683, 24936.00
1140.773, 24920.00
1141.864, 24815.00
1142.954, 24739.00
1144.044, 24896.00
1145.134, 24996.00
1146.224, 24704.00
1147.313, 24971.00
1148.402, 24768.00
1149.492, 24866.00
1150.581, 24996.00
1151.670, 24956.00
1152.758, 25042.00
1153.847, 25017.00
1154.935, 25087.00
1156.024, 24950.00
1157.112, 25046.00
1158.200, 24874.00
1159.287, 25065.00
1160.375, 25031.00
1161.462, 25271.00
1162.550, 25273.00
1163.637, 25300.57
1164.724, 25092.00
1165.810, 25278.00
1166.897, 25194.00
1167.983, 25110.00
1169.070, 25090.00
1170.156, 25531.00
1171.242, 25154.00
1172.327, 25394.00
1173.413, 25274.00
1174.499, 25236.00
1175.584, 25501.00
1176.669, 25356.00
1177.754, 25431.00
1178.839, 25599.00
1179.923, 25491.00
1181.008, 25556.00
1182.092, 25539.00
1183.176, 25384.00
1184.260, 25423.00
1185.344, 25363.00
1186.428, 25596.00
1187.511, 25753.00
1188.595, 25799.00
1189.678, 25779.00
1190.761, 25526.00
1191.843, 25495.00
1192.926, 25442.00
1194.009, 25433.96
1195.091, 25549.23
1196.173, 25593.00
1197.255, 25808.00
1198.337, 25981.00
1199.419, 26042.00
1200.500, 25721.00
1201.582, 25694.00
1202.663, 25984.00
1203.744, 26167.00
1204.825, 26098.00
1205.905, 26101.00
1206.986, 25980.00
1208.066, 25934.00
1209.146, 26117.00
1210.226, 26067.00
1211.306, 26206.00
1212.386, 26287.00
1213.466, 26197.00
1214.545, 26265.00
1215.624, 26129.00
1216.703, 26217.00
1217.782, 26293.00
1218.861, 26306.00
1219.939, 26290.00
1221.018, 26550.00
1222.096, 26542.00
1223.174, 26640.00
1224.252, 26504.00
1225.330, 26443.00
1226.407, 26427.00
1227.485, 26487.00
1228.562, 26305.00
1229.639, 26453.00
1230.716, 26709.00
1231.793, 26488.00
1232.869, 26536.00
1233.946, 26558.00
1235.022, 26520.00
1236.098, 26525.00
1237.174, 26590.00
1238.250, 26698.00
1239.325, 26764.00
1240.401, 26606.00
1241.476, 26683.00
1242.551, 26595.00
1243.626, 26906.00
1244.701, 26675.00
1245.776, 26940.00
1246.850, 26812.00
1247.924, 26771.00
1248.999, 27054.00
1250.073, 27019.00
1251.146, 27004.00
1252.220, 27142.00
1253.293, 26906.00
1254.367, 27162.00
1255.440, 27075.00
1256.513, 27168.00
1257.586, 27064.00
1258.658, 27142.00
1259.731, 27244.00
1260.803, 27219.00
1261.875, 27264.00
1262.947, 27334.00
1264.019, 27431.00
1265.091, 27393.00
1266.162, 27433.14
1267.234, 27506.00
1268.305, 27451.00
1269.376, 27414.00
1270.447, 27493.00
1271.517, 27600.00
1272.588, 27542.00
1273.658, 27632.00
1274.729, 27438.00
1275.799, 27313.00
1276.868, 27567.00
1277.938, 27593.00
1279.008, 27454.00
1280.077, 27755.00
1281.146, 27385.00
1282.215, 27517.00
1283.284, 27731.00
1284.353, 27604.00
1285.421, 27745.00
1286.490, 27463.00
1287.558, 27647.00
1288.626, 27790.00
1289.694, 27647.00
1290.762, 27701.00
1291.829, 27736.00
1292.897, 27550.00
1293.964, 27590.00
1295.031, 27807.00
1296.098, 27837.00
1297.165, 27823.00
1298.231, 27772.00
1299.298, 27841.00
1300.364, 27845.00
1301.430, 27963.00
1302.496, 27850.00
