##NAMES=Diopside
##RRUFFID=R060085
##IDEAL CHEMISTRY=CaMgSi_2_O_6_
##LOCALITY=Tyrol, Austria
##OWNER=RRUFF
##SOURCE=University of Arizona Mineral Museum
##DESCRIPTION=Brownish-green massive
##STATUS=The identification of this mineral has been confirmed by X-ray diffraction and chemical analysis
##URL=rruff.info/R060085
##MEASURED CHEMISTRY=(Ca_0.97_Na_0.03_)_Σ=1_(Mg_0.79_Fe^2+^_0.10_Fe^3+^_0.04_Al_0.04_Ti_0.02_Cr_0.01_)_Σ=1_(Si_1.90_Al_0.10_)_Σ=2_O_6_
##PIN_ID=M01542
##ORIENTATION=Laser parallel to c* (0 0 1). Fiducial mark perpendicular to laser is parallel to a [1 0 0]
82.67000, 17593.00
83.91600, 17479.00
85.16300, 17258.00
86.40900, 17307.00
87.65500, 17430.00
88.90100, 17461.00
90.14700, 17466.00
91.39300, 17337.00
92.63800, 17513.00
93.88300, 17570.00
95.12800, 17755.00
96.37300, 17782.00
97.61800, 17455.00
98.86200, 17610.00
100.1070, 17620.00
101.3510, 17828.00
102.5940, 17752.00
103.8380, 17851.00
105.0810, 17820.00
106.3250, 17937.09
107.5680, 18160.00
108.8110, 18182.00
110.0530, 18326.00
111.2960, 18419.00
112.5380, 18507.00
113.7800, 18511.00
115.0220, 18528.17
116.2640, 18579.00
117.5050, 18470.00
118.7460, 18417.00
119.9870, 18366.00
121.2280, 18353.00
122.4690, 18607.00
123.7100, 18860.00
124.9500, 18669.00
126.1900, 18497.00
127.4300, 18739.00
128.6700, 18656.00
129.9090, 18704.00
131.1480, 18677.00
132.3880, 18667.00
133.6270, 18894.00
134.8650, 18811.00
136.1040, 18974.00
137.3420, 18961.00
138.5800, 18903.00
139.8180, 18993.00
141.0560, 19192.00
142.2940, 19125.00
143.5310, 19078.00
144.7680, 18986.00
146.0050, 18919.00
147.2420, 19041.00
148.4790, 18762.00
149.7150, 18858.00
150.9510, 18791.00
152.1870, 18952.00
153.4230, 18934.00
154.6590, 18896.00
155.8940, 19078.00
157.1300, 19062.00
158.3650, 19118.00
159.6000, 19160.21
160.8340, 19023.00
162.0690, 19194.00
163.3030, 19140.00
164.5370, 19180.00
165.7710, 19238.00
167.0050, 19149.00
168.2380, 19374.00
169.4720, 19174.00
170.7050, 19307.00
171.9380, 19374.00
173.1700, 19574.00
174.4030, 19437.00
175.6350, 19588.00
176.8680, 19464.00
178.1000, 19470.00
179.3310, 19456.00
180.5630, 19740.00
181.7940, 19788.00
183.0260, 19823.00
184.2570, 19657.00
185.4870, 19871.00
186.7180, 19756.00
187.9480, 19771.00
189.1790, 19904.00
190.4090, 20086.00
191.6390, 20022.00
192.8680, 20337.00
194.0980, 20355.00
195.3270, 20468.00
196.5560, 20521.00
197.7850, 20663.00
199.0140, 20529.00
200.2420, 20713.00
201.4710, 20472.00
202.6990, 20375.00
203.9270, 20200.00
205.1550, 20098.00
206.3820, 20216.00
207.6090, 20185.00
208.8370, 20226.00
210.0640, 20175.00
211.2900, 20110.00
212.5170, 20288.00
213.7440, 20342.00
214.9700, 20256.00
216.1960, 20308.00
217.4220, 20469.00
218.6470, 20166.00
219.8730, 20275.00
221.0980, 20345.00
222.3230, 20472.00
223.5480, 20532.00
224.7730, 20696.00
225.9970, 20781.00
227.2220, 20623.00
228.4460, 20928.00
229.6700, 20930.00
230.8940, 20972.00
232.1170, 21316.00
233.3400, 20963.00
234.5640, 21059.00
235.7870, 21172.00
237.0100, 21233.00
238.2320, 21127.00
239.4550, 21019.00
240.6770, 21092.00
241.8990, 20840.00
243.1210, 20947.00
244.3420, 21067.00
245.5640, 21172.00
246.7850, 20899.00
248.0060, 21162.00
249.2270, 20920.00
250.4480, 20927.00
251.6690, 21031.00
252.8890, 20974.00
254.1090, 21092.00
255.3290, 21122.00
256.5490, 21344.00
257.7680, 21221.00
258.9880, 21212.00
260.2070, 21202.00
261.4260, 21054.00
262.6450, 21251.00
263.8640, 21040.00
265.0820, 21194.00
266.3000, 21092.00
267.5180, 21268.00
268.7360, 21155.00
269.9540, 21220.00
271.1720, 21199.00
272.3890, 21228.00
273.6060, 21328.00
274.8230, 21117.00
276.0400, 21199.00
277.2560, 21321.00
278.4730, 21115.00
279.6890, 21334.00
280.9050, 21587.00
282.1210, 21354.00
283.3370, 21542.00
284.5520, 21495.00
285.7670, 21638.00
286.9820, 21574.00
288.1970, 21551.00
289.4120, 21581.00
290.6270, 21563.00
291.8410, 21529.00
293.0550, 21725.00
294.2690, 21697.00
295.4830, 21844.00
296.6970, 21836.00
297.9100, 21731.00
299.1230, 22178.00
300.3360, 22060.00
301.5490, 22137.00
302.7620, 22346.00
303.9740, 22343.00
305.1860, 22280.00
306.3990, 22423.00
307.6110, 22426.00
308.8220, 22620.00
310.0340, 22499.00
311.2450, 22552.00
312.4560, 22631.00
313.6670, 22710.00
314.8780, 23135.00
316.0890, 23183.00
317.2990, 23513.00
318.5090, 23425.00
319.7200, 23962.00
320.9290, 24556.00
322.1390, 24740.00
323.3490, 25313.00
324.5580, 25351.00
325.7670, 25518.00
326.9760, 25403.00
328.1850, 25221.00
329.3930, 24934.00
330.6020, 24908.00
331.8100, 24449.00
333.0180, 24440.00
334.2260, 24166.00
335.4340, 23926.00
336.6410, 23748.00
337.8480, 23609.00
339.0550, 23476.51
340.2620, 23432.64
341.4690, 23337.00
342.6760, 23413.00
343.8820, 23451.00
345.0880, 23474.00
346.2940, 23497.71
347.5000, 23464.00
348.7060, 23546.00
349.9110, 23660.00
351.1160, 23781.00
352.3210, 23702.00
353.5260, 23907.00
354.7310, 24030.00
355.9360, 24334.00
357.1400, 24494.00
358.3440, 24337.00
359.5480, 24635.00
360.7520, 24236.00
361.9550, 24362.00
363.1590, 24227.00
364.3620, 23923.00
365.5650, 23816.00
366.7680, 23951.00
367.9710, 23713.00
369.1730, 23759.00
370.3760, 23760.00
371.5780, 23819.00
372.7800, 23718.00
373.9810, 23928.00
375.1830, 23974.00
376.3840, 24132.00
377.5860, 24033.00
378.7870, 24179.00
379.9880, 24186.00
381.1880, 24458.00
382.3890, 24590.00
383.5890, 24939.00
384.7890, 24956.00
385.9890, 25432.00
387.1890, 25754.00
388.3880, 26282.00
389.5880, 26609.00
390.7870, 27113.00
391.9860, 27411.00
393.1850, 27385.00
394.3840, 27304.00
395.5820, 27005.00
396.7800, 26724.00
397.9790, 26251.00
399.1770, 25930.00
400.3740, 25658.00
401.5720, 25296.00
402.7690, 25059.00
403.9670, 24734.00
405.1640, 24702.00
406.3600, 24589.00
407.5570, 24461.00
408.7540, 24463.00
409.9500, 24292.00
411.1460, 24175.00
412.3420, 24222.00
413.5380, 24339.00
414.7330, 24407.00
415.9290, 24193.00
417.1240, 24086.00
418.3190, 24149.00
419.5140, 24068.00
420.7090, 24055.00
421.9030, 24155.80
423.0970, 24370.00
424.2920, 24337.00
425.4860, 24389.00
426.6790, 24431.00
427.8730, 24282.00
429.0660, 24388.00
430.2600, 24316.00
431.4530, 24405.00
432.6460, 24577.00
433.8380, 24498.00
435.0310, 24518.00
436.2230, 24501.00
437.4150, 24483.00
438.6070, 24450.00
439.7990, 24776.00
440.9910, 24476.00
442.1820, 24563.00
443.3730, 24816.00
444.5640, 24706.00
445.7550, 24706.00
446.9460, 24705.00
448.1370, 24896.00
449.3270, 24773.00
450.5170, 24942.00
451.7070, 24817.00
452.8970, 24847.02
454.0870, 25007.00
455.2760, 24864.00
456.4650, 25035.00
457.6550, 25090.00
458.8430, 25189.00
460.0320, 25037.00
461.2210, 25192.00
462.4090, 25179.00
463.5970, 25301.00
464.7850, 25142.00
465.9730, 25494.00
467.1610, 25507.00
468.3480, 25293.00
469.5360, 25447.00
470.7230, 25504.00
471.9100, 25396.00
473.0970, 25455.00
474.2830, 25354.00
475.4700, 25558.00
476.6560, 25414.00
477.8420, 25655.00
479.0280, 25637.00
480.2140, 25541.00
481.3990, 25433.00
482.5850, 25644.00
483.7700, 25497.00
484.9550, 25729.00
486.1400, 25750.00
487.3240, 25725.00
488.5090, 25841.00
489.6930, 25780.00
490.8770, 25715.00
492.0610, 25839.00
493.2450, 25898.00
494.4290, 25750.00
495.6120, 25818.00
496.7950, 25901.00
497.9780, 25878.00
499.1610, 25958.00
500.3440, 25917.00
501.5260, 25840.00
502.7090, 26150.00
503.8910, 26020.00
505.0730, 26005.00
506.2550, 26268.00
507.4360, 26194.00
508.6180, 26340.00
509.7990, 26143.00
510.9800, 26382.00
512.1610, 26303.00
513.3420, 26438.00
514.5230, 26505.00
515.7030, 26570.00
516.8830, 26561.00
518.0630, 26499.00
519.2430, 26446.00
520.4230, 26718.00
521.6020, 26531.00
522.7820, 26981.00
523.9610, 26629.00
525.1400, 27013.00
526.3190, 27147.00
527.4970, 27034.00
528.6760, 27047.00
529.8540, 27123.00
531.0320, 27046.00
532.2100, 27040.00
533.3880, 27276.00
534.5660, 27174.00
535.7430, 27238.00
536.9200, 27251.00
538.0970, 27328.00
539.2740, 27257.00
540.4510, 27390.00
541.6270, 27475.00
542.8040, 27639.00
543.9800, 27487.00
545.1560, 27557.00
546.3320, 27463.00
547.5080, 27603.00
548.6830, 27550.00
549.8580, 27578.00
551.0340, 27669.00
552.2090, 27489.00
553.3830, 27654.00
554.5580, 27661.00
555.7320, 27656.00
556.9070, 28052.00
558.0810, 27861.00
559.2550, 28196.00
560.4280, 28268.00
561.6020, 28009.00
562.7750, 28128.00
563.9490, 28146.00
565.1220, 28016.00
566.2950, 27935.00
567.4670, 27750.00
568.6400, 27829.00
569.8120, 27736.00
570.9840, 27884.00
572.1560, 27962.00
573.3280, 28028.00
574.5000, 28068.19
575.6710, 27693.00
576.8430, 28023.00
578.0140, 27901.00
579.1850, 27738.00
580.3560, 27909.00
581.5260, 27959.00
582.6970, 27821.00
583.8670, 27836.00
585.0370, 27921.00
586.2070, 27846.00
587.3770, 27813.00
588.5460, 27935.00
589.7160, 27940.00
590.8850, 28111.00
592.0540, 28082.00
593.2230, 28065.00
594.3920, 27794.00
595.5600, 28213.00
596.7290, 28134.00
597.8970, 27990.00
599.0650, 28192.00
600.2330, 28172.00
601.4000, 28111.00
602.5680, 28265.00
603.7350, 28195.00
604.9020, 28288.00
606.0690, 28376.00
607.2360, 28260.00
608.4030, 28327.00
609.5690, 28425.00
610.7360, 28420.00
611.9020, 28389.00
613.0680, 28480.00
614.2340, 28604.00
615.3990, 28599.00
616.5650, 28699.00
617.7300, 28704.24
618.8950, 28475.00
620.0600, 28699.00
621.2250, 28644.00
622.3890, 28615.00
623.5540, 28714.00
624.7180, 28750.00
625.8820, 28904.00
627.0460, 28939.00
628.2100, 29015.00
629.3730, 28983.00
630.5370, 29357.00
631.7000, 29083.00
632.8630, 28939.00
634.0260, 29417.00
635.1890, 29434.00
636.3510, 29478.00
637.5140, 29563.00
638.6760, 29537.00
639.8380, 29538.00
641.0000, 29587.00
642.1610, 29843.00
643.3230, 29814.00
644.4840, 29869.00
645.6450, 29974.00
646.8060, 29964.00
647.9670, 30015.00
649.1280, 30192.00
650.2880, 30247.00
651.4490, 30422.00
652.6090, 30614.00
653.7690, 30855.00
654.9290, 31283.00
656.0880, 31423.00
657.2480, 31787.00
658.4070, 32239.00
659.5660, 32444.00
660.7250, 33062.00
661.8840, 33673.00
663.0430, 34516.00
664.2010, 35201.00
665.3600, 35852.00
666.5180, 36709.00
667.6760, 36948.00
668.8330, 36854.00
669.9910, 36378.00
671.1480, 35801.00
672.3060, 35030.00
673.4630, 34118.00
674.6200, 34002.00
675.7770, 33215.00
676.9330, 33150.00
678.0900, 32685.00
679.2460, 32448.00
680.4020, 31958.00
681.5580, 31849.42
682.7140, 31902.00
683.8690, 31705.00
685.0250, 31532.00
686.1800, 31616.00
687.3350, 31408.00
688.4900, 31393.00
689.6450, 31355.00
690.7990, 31290.00
691.9540, 31284.00
693.1080, 31252.00
694.2620, 31173.00
695.4160, 31095.00
696.5700, 31169.00
697.7230, 31026.00
698.8770, 31023.00
700.0300, 30955.00
701.1830, 30822.00
702.3360, 31112.00
703.4890, 31103.00
704.6410, 31080.00
705.7930, 31232.00
706.9460, 31082.00
708.0980, 31158.00
709.2500, 31077.00
710.4010, 31104.86
711.5530, 31162.00
712.7040, 31246.00
713.8560, 31123.00
715.0070, 31315.00
716.1580, 31144.00
717.3080, 31301.00
718.4590, 31515.00
719.6090, 31234.00
720.7590, 31479.00
721.9090, 31439.00
723.0590, 31126.00
724.2090, 31388.00
725.3590, 31686.00
726.5080, 31489.00
727.6570, 31325.00
728.8060, 31649.00
729.9550, 31382.00
731.1040, 31755.00
732.2530, 31762.00
733.4010, 31529.00
734.5490, 31912.00
735.6970, 31757.00
736.8450, 31722.00
737.9930, 31706.00
739.1400, 31818.00
740.2880, 31886.00
741.4350, 31807.00
742.5820, 31743.00
743.7290, 31693.00
744.8760, 32111.00
746.0220, 31784.00
747.1690, 32113.00
748.3150, 32070.00
749.4610, 31983.00
750.6070, 32110.00
751.7530, 32072.00
752.8980, 32137.00
754.0440, 32158.96
755.1890, 32207.00
756.3340, 32196.00
757.4790, 32163.00
758.6240, 32202.70
759.7680, 32420.00
760.9130, 32380.00
762.0570, 32440.00
763.2010, 32484.00
764.3450, 32448.00
765.4890, 32619.00
766.6320, 32727.00
767.7760, 32579.00
768.9190, 32658.00
770.0620, 32677.00
771.2050, 32859.00
772.3480, 32924.00
773.4900, 32787.00
774.6330, 32660.00
775.7750, 32851.00
776.9170, 32902.00
778.0590, 32927.00
779.2010, 32778.00
780.3420, 32803.00
781.4840, 32832.80
782.6250, 32905.00
783.7660, 32980.00
784.9070, 33112.00
786.0480, 33255.00
787.1890, 33134.00
788.3290, 33185.00
789.4690, 33372.00
790.6100, 33246.00
791.7490, 33410.00
792.8890, 33397.00
794.0290, 33135.00
795.1680, 33355.00
796.3080, 33196.00
797.4470, 33624.00
798.5860, 33397.00
799.7250, 33583.00
800.8630, 33626.00
802.0020, 33507.00
803.1400, 33686.00
804.2780, 33497.00
805.4160, 33754.00
806.5540, 33687.00
807.6920, 33779.00
808.8300, 33768.00
809.9670, 33889.00
811.1040, 33819.00
812.2410, 33854.00
813.3780, 34040.00
814.5150, 34034.00
815.6510, 34112.00
816.7880, 34112.00
817.9240, 33952.00
819.0600, 34081.00
820.1960, 34522.00
821.3320, 34299.00
822.4670, 34374.00
823.6030, 34338.00
824.7380, 34274.00
825.8730, 34351.79
827.0080, 34465.00
828.1430, 34482.00
829.2770, 34410.00
830.4120, 34552.00
831.5460, 34409.00
832.6800, 34645.00
833.8140, 34814.00
834.9480, 34838.00
836.0810, 34643.00
837.2150, 34541.00
838.3480, 34822.00
839.4810, 34747.00
840.6140, 34966.00
841.7470, 34825.00
842.8800, 35079.00
844.0120, 34787.00
845.1450, 34943.00
846.2770, 34819.00
847.4090, 35056.00
848.5410, 35140.00
849.6720, 35021.00
850.8040, 35019.00
851.9350, 35233.00
853.0660, 35230.00
854.1970, 35560.00
855.3280, 35658.00
856.4590, 35601.00
857.5900, 35703.00
858.7200, 35586.00
859.8500, 35800.00
860.9800, 35570.00
862.1100, 35782.00
863.2400, 35756.00
864.3700, 36112.00
865.4990, 35966.00
866.6280, 35810.00
867.7570, 36022.00
868.8860, 35916.00
870.0150, 35903.00
871.1440, 35709.00
872.2720, 36039.00
873.4010, 35891.00
874.5290, 35994.00
875.6570, 36136.00
876.7850, 36012.00
877.9120, 36319.00
879.0400, 36203.00
880.1670, 36338.00
881.2940, 36233.00
882.4210, 36178.00
883.5480, 36201.00
884.6750, 36194.00
885.8020, 36224.00
886.9280, 36464.00
888.0540, 36375.00
889.1800, 36643.00
890.3060, 36397.00
891.4320, 36610.00
892.5580, 36691.00
893.6830, 36566.00
894.8080, 36484.00
895.9330, 36596.00
897.0580, 36572.00
898.1830, 36533.00
899.3080, 36422.00
900.4320, 36452.00
901.5570, 36771.00
902.6810, 36737.00
903.8050, 36778.00
904.9290, 36954.00
906.0520, 36823.00
907.1760, 36983.00
908.2990, 37037.00
909.4230, 36895.00
910.5460, 37163.00
911.6690, 37033.00
912.7910, 37156.00
913.9140, 36985.00
915.0360, 37219.00
916.1590, 37275.00
917.2810, 37358.00
918.4030, 37281.00
919.5240, 37297.00
920.6460, 37677.00
921.7680, 37239.00
922.8890, 37604.00
924.0100, 37328.00
925.1310, 37759.00
926.2520, 37264.00
927.3730, 37496.00
928.4930, 37530.00
929.6130, 37623.00
930.7340, 37724.00
931.8540, 37803.00
932.9740, 37862.36
934.0930, 37918.18
935.2130, 37985.00
936.3320, 37967.00
937.4520, 38077.00
938.5710, 38048.00
939.6900, 37888.00
940.8090, 38214.00
941.9270, 37942.00
943.0460, 38353.00
944.1640, 37909.00
945.2820, 38034.00
946.4000, 38536.00
947.5180, 38327.00
948.6360, 38442.00
949.7530, 38725.00
950.8710, 38439.00
951.9880, 38490.00
953.1050, 38349.00
954.2220, 38759.00
955.3390, 38722.00
956.4550, 38882.00
957.5720, 38833.00
958.6880, 38790.00
959.8040, 38853.00
960.9200, 38827.27
962.0360, 39010.00
963.1520, 38852.00
964.2670, 39018.00
965.3820, 39020.00
966.4980, 38972.00
967.6130, 39231.00
968.7280, 39333.00
969.8420, 39393.00
970.9570, 39804.00
972.0710, 39292.00
973.1850, 39559.00
974.3000, 39642.00
975.4140, 40029.00
976.5270, 39907.00
977.6410, 39784.00
978.7540, 39732.00
979.8680, 39877.00
980.9810, 40065.00
982.0940, 40021.00
983.2070, 39961.00
984.3200, 40482.00
985.4320, 40336.00
986.5440, 40636.00
987.6570, 40434.00
988.7690, 40909.00
989.8810, 40818.00
990.9920, 40946.00
992.1040, 41049.00
993.2160, 41273.00
994.3270, 41519.00
995.4380, 41436.00
996.5490, 41895.00
997.6600, 41988.00
998.7710, 42226.00
999.8810, 42836.00
1000.991, 42881.00
1002.102, 43652.00
1003.212, 44036.00
1004.322, 44467.00
1005.431, 45126.00
1006.541, 45843.00
1007.651, 46673.00
1008.760, 47999.00
1009.869, 48918.00
1010.978, 50184.00
1012.087, 51248.00
1013.195, 51542.00
1014.304, 51226.00
1015.412, 50143.00
1016.521, 48669.00
1017.629, 47125.00
1018.737, 45790.00
1019.844, 44950.00
1020.952, 43958.00
1022.059, 43467.00
1023.167, 43306.00
1024.274, 42832.00
1025.381, 42593.00
1026.488, 42415.00
1027.594, 42530.00
1028.701, 42314.00
1029.807, 42181.00
1030.913, 42303.00
1032.019, 42232.00
1033.125, 42052.00
1034.231, 42074.00
1035.337, 42054.28
1036.442, 42028.26
1037.548, 42190.00
1038.653, 42129.00
1039.758, 42312.00
1040.863, 42507.00
1041.967, 42514.00
1043.072, 42584.00
1044.176, 42799.00
1045.280, 42721.00
1046.384, 42878.00
1047.488, 42669.00
1048.592, 42977.00
1049.696, 42739.00
1050.799, 43019.00
1051.903, 42844.00
1053.006, 42742.00
1054.109, 42452.00
1055.212, 42320.00
1056.314, 42701.00
1057.417, 42496.00
1058.519, 42807.00
1059.621, 42683.00
1060.724, 42456.00
1061.826, 42365.00
1062.927, 42669.00
1064.029, 42467.00
1065.130, 42738.00
1066.232, 42574.00
1067.333, 42476.00
1068.434, 42443.00
1069.535, 42663.00
1070.636, 42821.00
1071.736, 42563.00
1072.837, 42989.00
1073.937, 42762.00
1075.037, 42710.00
1076.137, 42854.00
1077.237, 42888.00
1078.337, 42762.00
1079.436, 42738.00
1080.535, 42967.00
1081.635, 43048.00
1082.734, 43100.00
1083.833, 43110.00
1084.931, 42807.00
1086.030, 43090.00
1087.128, 42923.00
1088.227, 43180.00
1089.325, 43463.00
1090.423, 43299.00
1091.521, 43268.00
1092.618, 43348.00
1093.716, 43265.46
1094.813, 43453.00
1095.911, 43292.00
1097.008, 43541.00
1098.105, 43648.00
1099.202, 43493.00
1100.298, 43656.00
1101.395, 43561.00
1102.491, 43527.00
1103.587, 43731.00
1104.683, 43853.00
1105.779, 44006.00
1106.875, 44065.59
1107.971, 43928.00
1109.066, 44096.00
1110.161, 44063.00
1111.256, 43984.00
1112.351, 44053.00
1113.446, 44254.00
1114.541, 44134.00
1115.636, 44371.00
1116.730, 44302.00
1117.824, 44336.00
1118.918, 44287.00
1120.012, 44322.97
1121.106, 44395.00
1122.200, 44436.00
1123.293, 44430.00
1124.387, 44554.00
1125.480, 44623.00
1126.573, 44652.00
1127.666, 44496.00
1128.759, 44635.00
1129.851, 44712.00
1130.944, 45015.00
1132.036, 44834.00
1133.128, 44963.00
1134.220, 44834.00
1135.312, 44905.00
1136.404, 44734.00
1137.495, 44916.00
1138.587, 44931.00
1139.678, 44896.00
1140.769, 45272.00
1141.860, 45020.00
1142.951, 45390.00
1144.041, 45131.00
1145.132, 45129.00
1146.222, 45231.00
1147.313, 45451.00
1148.403, 45383.00
1149.493, 45405.00
1150.582, 45536.00
1151.672, 45743.00
1152.761, 45477.00
1153.851, 45460.00
1154.940, 45532.00
1156.029, 45843.00
1157.118, 45742.00
1158.207, 45796.00
1159.295, 45915.00
1160.384, 45988.00
1161.472, 45907.00
1162.560, 45703.00
1163.648, 45893.00
1164.736, 46009.00
1165.824, 46005.00
1166.911, 46211.00
1167.999, 46183.00
1169.086, 46111.00
1170.173, 46214.00
1171.260, 46204.00
1172.347, 46443.00
1173.434, 46582.00
1174.520, 46621.30
1175.606, 46514.00
1176.693, 46632.00
1177.779, 46655.00
1178.865, 46423.00
1179.951, 46820.00
1181.036, 46466.00
1182.122, 46725.00
1183.207, 46651.00
1184.292, 46755.00
1185.377, 46824.00
1186.462, 46621.00
1187.547, 46707.00
1188.632, 47057.00
1189.716, 46839.00
1190.800, 46883.00
1191.885, 47060.00
1192.969, 47059.00
1194.052, 47057.00
1195.136, 47337.00
1196.220, 47266.00
1197.303, 47225.00
1198.387, 47195.00
1199.470, 47267.00
1200.553, 47488.00
1201.636, 47148.00
1202.718, 47415.00
1203.801, 47602.00
1204.883, 47472.00
1205.966, 47565.00
1207.048, 47640.00
1208.130, 47716.00
1209.211, 48093.00
1210.293, 47614.00
1211.375, 47776.00
1212.456, 47710.00
1213.537, 48053.00
1214.618, 47836.00
1215.699, 48005.00
1216.780, 48074.00
1217.861, 47779.00
1218.941, 48197.00
1220.022, 48085.00
1221.102, 48140.00
1222.182, 48330.00
1223.262, 48145.00
1224.342, 48614.00
1225.422, 48707.00
1226.501, 48361.00
1227.580, 48585.00
1228.660, 48395.00
1229.739, 48709.00
1230.818, 49078.00
1231.896, 48825.00
1232.975, 48682.00
1234.054, 48582.00
1235.132, 48652.00
1236.210, 48643.08
1237.288, 48697.00
1238.366, 48821.00
1239.444, 48985.00
1240.521, 49120.00
1241.599, 48819.00
1242.676, 49628.00
1243.753, 48898.00
1244.830, 49332.00
1245.907, 49422.00
1246.984, 49288.00
1248.061, 49122.00
1249.137, 49308.00
1250.214, 49538.00
1251.290, 49193.00
1252.366, 49136.00
1253.442, 49600.00
1254.517, 49757.00
1255.593, 50010.00
1256.668, 49676.00
1257.744, 49554.00
1258.819, 49775.00
1259.894, 49786.00
1260.969, 49947.00
1262.044, 50045.00
1263.118, 50035.00
