##NAMES=Diopside
##RRUFFID=R060276
##IDEAL CHEMISTRY=CaMgSi_2_O_6_
##LOCALITY=Inagli, Yakutia, Siberia, Russia
##OWNER=RRUFF
##SOURCE=Herb Obodda
##DESCRIPTION=Transparent green cleavage fragment
##STATUS=The identification of this mineral has been confirmed by X-ray diffraction and chemical analysis
##URL=rruff.info/R060276
##MEASURED CHEMISTRY=(Ca_0.97_Na_0.03_)_Σ=1_(Mg_0.96_Fe_0.03_Cr_0.01_)_Σ=1_(Si_1.98_Al_0.02_)_Σ=2_O_6_
##PIN_ID=L01339
##ORIENTATION=Laser parallel to -b* (0 -1 0). Fiducial mark perpendicular to laser is parallel to c [0 0 1]
109.5120, 10066.00
110.7440, 10098.00
111.9760, 10064.00
113.2080, 10142.00
114.4400, 10339.00
115.6710, 10483.00
116.9030, 10500.00
118.1340, 10617.00
119.3650, 10542.00
120.5960, 10606.00
121.8270, 10723.00
123.0580, 10943.00
124.2880, 10987.00
125.5190, 11028.00
126.7490, 11360.00
127.9790, 11565.00
129.2090, 11898.00
130.4390, 12272.00
131.6680, 12633.00
132.8980, 13108.00
134.1270, 13559.00
135.3560, 14337.00
136.5850, 14784.00
137.8140, 15643.00
139.0430, 15652.00
140.2710, 15769.00
141.5000, 15381.00
142.7280, 14920.00
143.9560, 14568.00
145.1840, 13770.00
146.4120, 13209.00
147.6390, 12837.00
148.8670, 12467.00
150.0940, 12337.00
151.3210, 12119.00
152.5490, 12072.00
153.7750, 11985.00
155.0020, 11915.00
156.2290, 11867.00
157.4550, 11928.00
158.6810, 11837.00
159.9080, 11801.00
161.1340, 11884.00
162.3590, 11847.00
163.5850, 12069.00
164.8110, 12009.00
166.0360, 12073.00
167.2610, 12071.00
168.4860, 12255.00
169.7110, 12260.00
170.9360, 12278.00
172.1610, 12312.00
173.3850, 12286.00
174.6100, 12399.00
175.8340, 12321.00
177.0580, 12536.00
178.2820, 12616.00
179.5050, 12798.00
180.7290, 12646.00
181.9520, 12767.00
183.1760, 12750.00
184.3990, 12781.00
185.6220, 12720.00
186.8450, 12708.00
188.0670, 12627.00
189.2900, 12684.00
190.5120, 12769.00
191.7340, 12844.00
192.9560, 12910.00
194.1780, 12990.00
195.4000, 13029.00
196.6220, 12916.00
197.8430, 12997.00
199.0640, 12893.00
200.2860, 12973.00
201.5070, 12851.00
202.7270, 12974.00
203.9480, 12955.00
205.1690, 12921.00
206.3890, 12942.00
207.6090, 12836.00
208.8290, 12885.00
210.0490, 13038.00
211.2690, 12925.00
212.4890, 13056.00
213.7080, 13012.00
214.9280, 12986.00
216.1470, 13096.00
217.3660, 13231.00
218.5850, 13248.00
219.8030, 13419.00
221.0220, 13272.00
222.2400, 13511.00
223.4590, 13457.00
224.6770, 13761.00
225.8950, 13697.00
227.1120, 13946.00
228.3300, 14025.00
229.5480, 14177.00
230.7650, 14177.00
231.9820, 14168.00
233.1990, 14141.00
234.4160, 14221.00
235.6330, 14199.00
236.8490, 14091.00
238.0660, 13890.00
239.2820, 13975.00
240.4980, 13841.00
241.7140, 14044.00
242.9300, 13942.00
244.1460, 14091.00
245.3610, 14206.00
246.5770, 14259.00
247.7920, 14508.00
249.0070, 14468.00
250.2220, 14822.00
251.4370, 14795.00
252.6510, 15231.00
253.8660, 15121.00
255.0800, 15105.00
256.2940, 15006.00
257.5080, 14894.73
258.7220, 14788.40
259.9360, 14648.00
261.1490, 14504.00
262.3630, 14376.00
263.5760, 14223.00
264.7890, 14266.00
266.0020, 14280.00
267.2150, 14437.00
268.4270, 14314.00
269.6400, 14078.00
270.8520, 14256.00
272.0640, 14285.00
273.2760, 14323.00
274.4880, 14513.00
275.7000, 14425.00
276.9120, 14488.00
278.1230, 14477.00
279.3340, 14481.00
280.5450, 14575.00
281.7560, 14569.00
282.9670, 14715.00
284.1780, 14687.00
285.3880, 14780.00
286.5980, 14579.00
287.8090, 14779.00
289.0190, 14844.00
290.2290, 14736.00
291.4380, 14876.00
292.6480, 14874.00
293.8570, 15150.00
295.0670, 15175.00
296.2760, 15121.00
297.4850, 15252.00
298.6930, 15320.00
299.9020, 15424.00
301.1110, 15559.00
302.3190, 15608.00
303.5270, 15607.00
304.7350, 15777.00
305.9430, 15833.00
307.1510, 16051.00
308.3580, 16184.00
309.5660, 16372.00
310.7730, 16620.00
311.9800, 17004.00
313.1870, 17275.00
314.3940, 17669.00
315.6010, 18041.00
316.8070, 18666.00
318.0130, 19346.00
319.2200, 20021.00
320.4260, 20604.00
321.6310, 21292.00
322.8370, 21343.00
324.0430, 21366.00
325.2480, 21255.00
326.4540, 20668.00
327.6590, 19993.00
328.8640, 19510.00
330.0680, 18887.24
331.2730, 18271.00
332.4780, 17854.00
333.6820, 17375.00
334.8860, 17114.00
336.0900, 16885.00
337.2940, 16822.00
338.4980, 16788.00
339.7010, 16852.00
340.9050, 16606.00
342.1080, 16677.00
343.3110, 16792.00
344.5140, 16654.00
345.7170, 16730.00
346.9200, 16649.00
348.1220, 16908.00
349.3240, 16912.00
350.5270, 17154.00
351.7290, 17193.00
352.9310, 17276.00
354.1320, 17373.00
355.3340, 17721.00
356.5350, 17983.00
357.7370, 17916.00
358.9380, 17863.00
360.1390, 17712.00
361.3400, 17828.00
362.5400, 17791.00
363.7410, 17583.00
364.9410, 17452.00
366.1410, 17482.00
367.3410, 17370.00
368.5410, 17358.28
369.7410, 17326.00
370.9400, 17347.00
372.1400, 17373.64
373.3390, 17341.00
374.5380, 17478.00
375.7370, 17522.00
376.9360, 17596.23
378.1350, 17569.00
379.3330, 17819.00
380.5310, 17853.00
381.7300, 18158.00
382.9280, 18446.00
384.1260, 18807.00
385.3230, 19118.00
386.5210, 19569.00
387.7180, 19845.00
388.9160, 20154.00
390.1130, 20066.00
391.3100, 20089.00
392.5060, 20006.00
393.7030, 19697.00
394.9000, 19378.00
396.0960, 18989.00
397.2920, 18717.00
398.4880, 18532.00
399.6840, 18083.00
400.8800, 18105.00
402.0750, 17862.00
403.2710, 17787.00
404.4660, 17704.00
405.6610, 17707.00
406.8560, 17696.00
408.0510, 17688.00
409.2450, 17646.00
410.4400, 17639.00
411.6340, 17605.00
412.8280, 17706.00
414.0220, 17693.00
415.2160, 17796.00
416.4100, 17556.00
417.6030, 17715.00
418.7970, 17737.00
419.9900, 17940.00
421.1830, 17670.00
422.3760, 17932.00
423.5690, 17932.00
424.7610, 17778.00
425.9540, 17927.00
427.1460, 17864.00
428.3380, 17991.00
429.5300, 18118.00
430.7220, 17817.00
431.9140, 18056.00
433.1050, 18025.00
434.2970, 18164.00
435.4880, 18096.00
436.6790, 18159.00
437.8700, 18059.00
439.0610, 18251.00
440.2510, 18230.00
441.4420, 18304.00
442.6320, 18399.60
443.8220, 18281.00
445.0120, 18463.00
446.2020, 18415.00
447.3910, 18253.00
448.5810, 18307.00
449.7700, 18464.00
450.9600, 18626.00
452.1490, 18748.00
453.3370, 18581.00
454.5260, 18766.00
455.7150, 18647.00
456.9030, 18752.00
458.0910, 18706.00
459.2800, 18734.00
460.4670, 18840.00
461.6550, 18815.06
462.8430, 18999.00
464.0300, 18872.00
465.2180, 18887.00
466.4050, 18943.00
467.5920, 19075.00
468.7790, 19208.00
469.9650, 19239.89
471.1520, 19037.00
472.3380, 19314.00
473.5250, 19106.00
474.7110, 19088.00
475.8970, 19075.00
477.0820, 19110.00
478.2680, 19294.00
479.4540, 19237.00
480.6390, 19353.00
481.8240, 19416.00
483.0090, 19269.00
484.1940, 19277.00
485.3780, 19363.00
486.5630, 19510.00
487.7470, 19458.00
488.9320, 19615.00
490.1160, 19622.00
491.3000, 19493.00
492.4830, 19681.00
493.6670, 19735.00
494.8500, 19896.00
496.0340, 19916.00
497.2170, 20163.00
498.4000, 20271.00
499.5820, 20562.00
500.7650, 20586.00
501.9480, 20903.00
503.1300, 21308.00
504.3120, 21579.00
505.4940, 22086.00
506.6760, 22001.00
507.8580, 22134.00
509.0390, 21768.00
510.2210, 21808.00
511.4020, 21599.00
512.5830, 21183.00
513.7640, 21023.00
514.9450, 20779.00
516.1250, 20794.00
517.3060, 20719.00
518.4860, 20496.00
519.6660, 20554.00
520.8460, 20765.00
522.0260, 20589.00
523.2060, 20672.00
524.3850, 20749.00
525.5650, 20832.00
526.7440, 20880.00
527.9230, 20887.86
529.1020, 20794.00
530.2810, 20859.00
531.4590, 20786.36
532.6380, 20759.00
533.8160, 20809.00
534.9940, 20708.00
536.1720, 20821.00
537.3500, 20905.00
538.5270, 20879.00
539.7050, 21064.00
540.8820, 21042.00
542.0590, 21012.00
543.2360, 21084.00
544.4130, 21036.00
545.5900, 21087.00
546.7660, 21193.00
547.9430, 21315.00
549.1190, 21270.00
550.2950, 21327.00
551.4710, 21370.00
552.6470, 21505.00
553.8220, 21554.00
554.9980, 21638.79
556.1730, 21658.00
557.3480, 21770.00
558.5230, 21840.00
559.6980, 21855.00
560.8730, 21715.00
562.0470, 21734.00
563.2220, 21779.00
564.3960, 21891.00
565.5700, 21674.00
566.7440, 21771.00
567.9170, 21539.00
569.0910, 21674.00
570.2640, 21844.00
571.4380, 21843.00
572.6110, 21643.00
573.7840, 21802.00
574.9570, 21616.00
576.1290, 21791.00
577.3020, 21655.00
578.4740, 21814.00
579.6460, 22099.00
580.8180, 21808.00
581.9900, 21957.00
583.1620, 22030.00
584.3330, 22065.00
585.5040, 22041.00
586.6760, 22117.00
587.8470, 22066.00
589.0180, 22113.00
590.1880, 21996.00
591.3590, 22180.00
592.5290, 22182.00
593.7000, 22319.00
594.8700, 22177.00
596.0400, 22334.00
597.2090, 22247.00
598.3790, 22232.00
599.5490, 22356.00
600.7180, 22185.00
601.8870, 22301.00
603.0560, 22425.00
604.2250, 22305.00
605.3940, 22447.00
606.5620, 22656.00
607.7300, 22441.00
608.8990, 22712.00
610.0670, 22628.00
611.2350, 22692.00
612.4020, 22726.00
613.5700, 22776.00
614.7370, 22729.00
615.9050, 22967.00
617.0720, 23039.00
618.2390, 22978.00
619.4060, 22912.00
620.5720, 23177.00
621.7390, 23054.00
622.9050, 23523.00
624.0710, 23477.00
625.2370, 23380.00
626.4030, 23201.00
627.5690, 23352.00
628.7340, 23369.58
629.9000, 23655.00
631.0650, 23627.00
632.2300, 23768.55
633.3950, 23861.00
634.5600, 23922.00
635.7240, 23931.00
636.8890, 24170.00
638.0530, 24231.00
639.2170, 24519.00
640.3810, 24389.00
641.5450, 24527.00
642.7080, 24733.00
643.8720, 24820.00
645.0350, 24963.00
646.1980, 25170.00
647.3610, 26274.00
648.5240, 25669.00
649.6870, 27403.00
650.8490, 26649.00
652.0120, 27036.00
653.1740, 27628.00
654.3360, 28528.00
655.4980, 29628.00
656.6600, 30904.00
657.8210, 32585.00
658.9830, 34646.00
660.1440, 36748.00
661.3050, 38739.00
662.4660, 41525.00
663.6270, 43455.00
664.7870, 44449.00
665.9480, 44910.00
667.1080, 44081.00
668.2680, 42235.00
669.4280, 39740.00
670.5880, 37319.00
671.7480, 35055.00
672.9070, 32999.00
674.0670, 31383.00
675.2260, 30057.00
676.3850, 29137.00
677.5440, 28096.00
678.7030, 27726.00
679.8610, 27123.00
681.0200, 26941.00
682.1780, 26658.00
683.3360, 26143.00
684.4940, 26258.00
685.6520, 26074.00
686.8090, 25932.00
687.9670, 25800.00
689.1240, 25551.00
690.2810, 25757.00
691.4380, 25695.00
692.5950, 25613.00
693.7520, 25504.00
694.9080, 25556.00
696.0650, 25479.00
697.2210, 25504.00
698.3770, 25507.00
699.5330, 25410.00
700.6880, 25457.00
701.8440, 25497.00
702.9990, 25379.00
704.1550, 25593.00
705.3100, 25706.00
706.4650, 25728.00
707.6190, 25636.00
708.7740, 25558.00
709.9290, 25537.00
711.0830, 25726.00
712.2370, 25766.00
713.3910, 25697.00
714.5450, 25605.00
715.6980, 25828.00
716.8520, 25691.00
718.0050, 25780.00
719.1580, 25742.00
720.3110, 25549.00
721.4640, 25694.00
722.6170, 25872.00
723.7700, 25768.00
724.9220, 25858.00
726.0740, 26018.00
727.2260, 25900.00
728.3780, 26143.00
729.5300, 25939.00
730.6810, 26146.00
731.8330, 26065.00
732.9840, 26141.00
734.1350, 26253.00
735.2860, 26197.63
736.4370, 26063.00
737.5880, 26256.00
738.7380, 26211.00
739.8880, 26389.00
741.0390, 26313.00
742.1890, 26287.00
743.3380, 26368.00
744.4880, 26457.00
745.6380, 26339.00
746.7870, 26572.00
747.9360, 26502.00
749.0850, 26427.00
750.2340, 26400.00
751.3830, 26484.00
752.5310, 26715.00
753.6800, 26550.00
754.8280, 26636.00
755.9760, 26633.00
757.1240, 26649.17
758.2720, 26737.00
759.4190, 26769.00
760.5670, 26901.00
761.7140, 26975.00
762.8610, 26874.00
764.0080, 26768.00
765.1550, 27130.00
766.3020, 26889.00
767.4480, 27193.00
768.5950, 27007.00
769.7410, 26895.00
770.8870, 27276.00
772.0330, 27238.00
773.1780, 27146.00
774.3240, 27208.00
775.4690, 27193.00
776.6140, 27382.00
777.7590, 27314.00
778.9040, 27372.00
780.0490, 27329.00
781.1940, 27374.00
782.3380, 27452.00
783.4820, 27448.44
784.6260, 27378.00
785.7700, 27521.00
786.9140, 27550.00
788.0580, 27605.00
789.2010, 27713.00
790.3450, 27592.00
791.4880, 27721.00
792.6310, 27784.00
793.7730, 27819.00
794.9160, 28005.00
796.0590, 27809.00
797.2010, 28010.00
798.3430, 27824.00
799.4850, 27968.00
800.6270, 27833.00
801.7690, 27945.00
802.9100, 28043.00
804.0520, 28058.57
805.1930, 28123.00
806.3340, 28181.00
807.4750, 28268.00
808.6160, 28247.00
809.7560, 28235.00
810.8970, 28392.00
812.0370, 28351.00
813.1770, 28449.00
814.3170, 28435.00
815.4570, 28433.00
816.5960, 28612.00
817.7360, 28567.00
818.8750, 28533.00
820.0140, 28522.00
821.1530, 28658.00
822.2920, 28866.00
823.4310, 28574.00
824.5690, 28797.00
825.7070, 28755.00
826.8460, 28770.00
827.9840, 29123.00
829.1220, 29088.00
830.2590, 28902.00
831.3970, 29115.00
832.5340, 29157.00
833.6710, 28927.00
834.8080, 29059.00
835.9450, 29272.00
837.0820, 29322.00
838.2190, 29274.00
839.3550, 29260.00
840.4910, 29385.00
841.6270, 29600.00
842.7630, 29573.00
843.8990, 29645.00
845.0350, 29905.00
846.1700, 29764.00
847.3060, 29879.00
848.4410, 29860.00
849.5760, 30183.00
850.7100, 30494.00
851.8450, 30366.00
852.9800, 30717.00
854.1140, 30789.00
855.2480, 30928.00
856.3820, 30808.00
857.5160, 30868.00
858.6500, 30631.00
859.7830, 30467.00
860.9170, 30462.00
862.0500, 30549.00
863.1830, 30651.00
864.3160, 30516.00
865.4480, 30557.00
866.5810, 30706.00
867.7130, 30503.00
868.8460, 30374.00
869.9780, 30626.00
871.1100, 30496.00
872.2410, 30737.00
873.3730, 30701.00
874.5050, 30800.00
875.6360, 30734.00
876.7670, 30541.00
877.8980, 30848.00
879.0290, 30899.00
880.1590, 30627.00
881.2900, 30924.00
882.4200, 30780.00
883.5500, 30956.00
884.6800, 30998.00
885.8100, 30961.00
886.9400, 30886.00
888.0690, 31316.00
889.1990, 31190.00
890.3280, 31129.00
891.4570, 30951.00
892.5860, 31273.00
893.7140, 31226.00
894.8430, 31182.00
895.9710, 31469.00
897.1000, 31230.00
898.2280, 31423.00
899.3560, 31143.00
900.4830, 31342.00
901.6110, 31517.00
902.7380, 31595.00
903.8660, 31474.00
904.9930, 31593.12
906.1200, 31582.00
907.2460, 31618.00
908.3730, 31636.00
909.5000, 31623.00
910.6260, 31623.00
911.7520, 32055.00
912.8780, 31780.00
914.0040, 31742.00
915.1290, 32094.00
916.2550, 32016.00
917.3800, 32014.00
918.5050, 32019.00
919.6300, 31958.00
920.7550, 31915.00
921.8800, 32174.00
923.0040, 32075.00
924.1290, 32223.00
925.2530, 32177.00
926.3770, 32250.00
927.5010, 32288.00
928.6250, 32270.09
929.7480, 32309.77
930.8720, 32282.00
931.9950, 32303.00
933.1180, 32348.00
934.2410, 32301.00
935.3640, 32549.00
936.4860, 32519.00
937.6090, 32580.19
938.7310, 32471.00
939.8530, 32623.00
940.9750, 32648.00
942.0970, 32619.00
943.2180, 32623.00
944.3400, 32611.00
945.4610, 32873.00
946.5820, 32780.00
947.7030, 32857.00
948.8240, 32790.00
949.9450, 32867.00
951.0650, 32685.00
952.1860, 32965.00
953.3060, 33335.00
954.4260, 33129.00
955.5460, 33157.00
956.6650, 33348.00
957.7850, 33310.00
958.9040, 33505.00
960.0230, 33169.00
961.1420, 33343.00
962.2610, 33429.00
963.3800, 33521.00
964.4990, 33567.00
965.6170, 33747.00
966.7350, 33741.00
967.8530, 33522.00
968.9710, 33785.00
970.0890, 33657.00
971.2070, 33702.00
972.3240, 34047.00
973.4410, 33970.00
974.5580, 33967.00
975.6750, 34165.00
976.7920, 34218.00
977.9090, 34284.00
979.0250, 34275.00
980.1410, 34400.00
981.2580, 34439.74
982.3740, 34578.00
983.4890, 34562.00
984.6050, 34787.00
985.7200, 34821.00
986.8360, 35101.00
987.9510, 34855.00
989.0660, 35233.00
990.1810, 35326.00
991.2950, 35253.00
992.4100, 35575.00
993.5240, 35546.00
994.6390, 36003.00
995.7530, 36339.00
996.8660, 36622.00
997.9800, 37238.00
999.0940, 37778.00
1000.207, 38633.00
1001.320, 39100.00
1002.433, 40247.00
1003.546, 41743.00
1004.659, 43587.00
1005.772, 45668.00
1006.884, 48420.00
1007.996, 51387.00
1009.108, 54650.00
1010.220, 57535.00
1011.332, 59643.00
1012.444, 60433.00
1013.555, 59051.00
1014.666, 56299.00
1015.777, 53189.00
1016.888, 49500.00
1017.999, 46442.00
1019.110, 43761.00
1020.220, 42064.00
1021.331, 40634.00
1022.441, 39437.00
1023.551, 39067.00
1024.661, 38447.00
1025.770, 38250.00
1026.880, 37964.00
1027.989, 37450.00
1029.098, 37440.00
1030.207, 37210.00
1031.316, 37143.00
1032.425, 37360.00
1033.533, 37497.00
1034.642, 37448.00
1035.750, 37517.00
1036.858, 37539.00
1037.966, 37435.00
1039.073, 37629.00
1040.181, 37879.00
1041.288, 38143.00
1042.396, 38158.00
1043.503, 38375.00
1044.610, 38692.00
1045.716, 38814.00
1046.823, 39160.00
1047.929, 38528.00
1049.036, 38630.00
1050.142, 38060.00
1051.248, 38082.00
1052.353, 37795.00
1053.459, 37915.00
1054.564, 37713.00
1055.670, 37225.00
1056.775, 37537.00
1057.880, 37353.00
1058.985, 37302.00
1060.089, 37319.00
1061.194, 37008.00
1062.298, 37082.00
1063.402, 37304.00
1064.506, 37150.00
1065.610, 37315.00
1066.713, 37118.00
1067.817, 37130.00
1068.920, 37298.00
1070.023, 37262.00
1071.126, 37311.00
1072.229, 37432.00
1073.332, 37126.00
1074.435, 37526.00
1075.537, 37533.00
1076.639, 37282.00
1077.741, 37350.00
1078.843, 37460.00
1079.945, 37510.00
1081.046, 37556.12
1082.148, 37590.00
1083.249, 37591.00
1084.350, 37724.00
1085.451, 37697.00
1086.551, 37870.00
1087.652, 37820.00
1088.752, 37759.00
1089.853, 37797.00
1090.953, 37865.00
1092.053, 37732.00
1093.152, 37852.00
1094.252, 37979.00
1095.351, 37975.00
1096.451, 37871.00
1097.550, 37925.00
1098.649, 37952.00
1099.748, 38197.00
1100.846, 38120.00
1101.945, 38212.00
1103.043, 38203.00
1104.141, 38109.00
1105.239, 38133.00
1106.337, 38182.05
1107.434, 38580.00
1108.532, 38327.00
1109.629, 38486.00
1110.726, 38522.00
1111.823, 38387.00
1112.920, 38406.00
1114.017, 38674.00
1115.113, 38716.00
1116.210, 38474.00
1117.306, 38507.00
1118.402, 38849.00
1119.498, 38555.00
1120.593, 39079.00
1121.689, 39329.00
1122.784, 39035.00
1123.879, 38912.00
1124.974, 39235.00
1126.069, 39109.00
1127.164, 38989.00
1128.259, 38928.00
1129.353, 38934.00
1130.447, 38992.00
1131.541, 39322.00
1132.635, 39266.00
1133.729, 39057.00
1134.822, 39326.00
1135.916, 39183.00
1137.009, 39306.00
1138.102, 39470.00
1139.195, 39092.00
1140.288, 39298.00
1141.380, 39367.00
1142.473, 39606.00
1143.565, 39557.00
1144.657, 39548.00
1145.749, 39811.00
1146.841, 39727.00
1147.932, 39579.00
1149.024, 39694.00
1150.115, 39637.00
1151.206, 39750.00
1152.297, 39712.00
1153.388, 39880.00
1154.479, 39660.00
1155.569, 39982.00
1156.659, 39851.00
1157.750, 39987.00
1158.839, 39906.00
1159.929, 40189.00
1161.019, 40211.00
1162.108, 40152.00
1163.198, 39954.00
1164.287, 40267.00
1165.376, 40272.00
1166.465, 40159.00
1167.553, 40164.00
1168.642, 40144.45
1169.730, 40106.00
1170.818, 40100.00
1171.906, 40321.00
1172.994, 40237.00
1174.082, 40355.16
1175.170, 40209.00
1176.257, 40411.00
1177.344, 40652.00
1178.431, 40523.00
1179.518, 40969.00
1180.605, 40872.00
1181.691, 40579.00
1182.778, 40832.00
1183.864, 40908.00
1184.950, 40972.00
1186.036, 40790.00
1187.122, 40740.00
1188.207, 41069.00
1189.292, 40765.00
1190.378, 41189.00
1191.463, 40956.00
1192.548, 40924.00
1193.632, 41269.00
1194.717, 41078.00
1195.801, 41443.00
1196.886, 41127.00
1197.970, 41363.00
1199.054, 41469.00
1200.137, 41324.00
1201.221, 41784.00
1202.305, 41674.00
1203.388, 41608.00
1204.471, 41184.00
1205.554, 41308.00
1206.637, 41619.00
1207.719, 41783.00
1208.802, 41531.00
1209.884, 41871.00
1210.966, 41642.00
1212.048, 41774.00
1213.130, 41961.00
1214.212, 42229.00
1215.293, 42106.00
1216.374, 41879.00
1217.456, 41995.00
1218.536, 42031.00
1219.617, 41965.00
1220.698, 42252.00
1221.778, 42197.00
1222.859, 42250.00
1223.939, 42066.00
1225.019, 42224.00
1226.099, 42321.00
1227.178, 42332.00
1228.258, 42443.60
1229.337, 42399.00
1230.417, 42509.00
1231.496, 42568.00
1232.574, 42478.00
1233.653, 42580.00
1234.732, 42900.00
1235.810, 42866.00
1236.888, 42835.00
1237.966, 43270.00
1239.044, 42719.00
1240.122, 42853.00
1241.199, 42909.00
1242.277, 43228.00
1243.354, 42932.00
1244.431, 42909.00
1245.508, 43084.00
1246.585, 43426.00
1247.661, 43167.00
1248.738, 43376.00
1249.814, 43492.00
1250.890, 43441.00
1251.966, 43811.00
1253.042, 43403.00
1254.117, 43770.00
1255.193, 43706.00
1256.268, 43558.00
1257.343, 43412.00
1258.418, 43559.00
1259.493, 43778.00
1260.567, 43532.00
1261.642, 43852.00
1262.716, 43742.00
1263.790, 43889.00
1264.864, 43639.00
1265.938, 43984.00
1267.011, 43872.00
1268.085, 43849.00
1269.158, 44061.00
1270.231, 44041.00
1271.304, 44184.00
1272.377, 44063.00
1273.450, 44336.00
1274.522, 44431.00
1275.594, 44398.00
1276.666, 44638.00
1277.738, 44331.00
1278.810, 44553.00
1279.882, 44276.00
1280.953, 44721.00
1282.025, 44558.00
1283.096, 44859.00
1284.167, 44566.00
1285.238, 44455.00
1286.308, 44773.00
1287.379, 44832.00
