##NAMES=Diopside
##RRUFFID=R060171
##IDEAL CHEMISTRY=CaMgSi_2_O_6_
##LOCALITY=Jeffrey mine, Asbestos, Quebec, Canada
##OWNER=RRUFF
##SOURCE=Guy Ouellet
##DESCRIPTION=Yellowish-brown tabular crystals associated with vesuvianite, R060170
##STATUS=The identification of this mineral has been confirmed by X-ray diffraction and chemical analysis
##URL=rruff.info/R060171
##MEASURED CHEMISTRY=Ca_1.00_(Mg_0.98_Mn_0.02_)_Î£=1_Si_2.00_O_6_
##PIN_ID=L01396
##ORIENTATION=Laser parallel to -a* (-1 0 0). Fiducial mark perpendicular to laser is parallel to b [0 1 0]
129.2090, 16817.00
130.4390, 17160.00
131.6680, 17034.00
132.8980, 17023.00
134.1270, 17336.00
135.3560, 17381.00
136.5850, 17533.00
137.8140, 17667.00
139.0430, 17768.66
140.2710, 17887.00
141.5000, 17941.00
142.7280, 17972.00
143.9560, 17887.00
145.1840, 17817.00
146.4120, 17826.00
147.6390, 17965.00
148.8670, 17849.00
150.0940, 18083.00
151.3210, 18027.00
152.5490, 18248.00
153.7750, 18287.00
155.0020, 18090.00
156.2290, 18229.00
157.4550, 18395.00
158.6810, 18319.00
159.9080, 18491.00
161.1340, 18508.00
162.3590, 18581.00
163.5850, 18591.85
164.8110, 18764.00
166.0360, 18615.00
167.2610, 18600.00
168.4860, 18751.00
169.7110, 18739.00
170.9360, 18757.00
172.1610, 18812.00
173.3850, 18874.00
174.6100, 18938.04
175.8340, 19023.25
177.0580, 19135.00
178.2820, 19249.00
179.5050, 19429.00
180.7290, 19642.00
181.9520, 19530.00
183.1760, 19723.00
184.3990, 19340.00
185.6220, 19393.00
186.8450, 19177.00
188.0670, 19139.71
189.2900, 19368.00
190.5120, 19196.00
191.7340, 19309.00
192.9560, 19480.00
194.1780, 19291.00
195.4000, 19461.00
196.6220, 19510.00
197.8430, 19338.00
199.0640, 19333.00
200.2860, 19582.00
201.5070, 19768.00
202.7270, 19544.00
203.9480, 19696.00
205.1690, 19545.00
206.3890, 19466.00
207.6090, 19780.00
208.8290, 19655.00
210.0490, 19660.00
211.2690, 19627.00
212.4890, 19731.00
213.7080, 19810.00
214.9280, 19782.00
216.1470, 19910.00
217.3660, 20015.00
218.5850, 19995.00
219.8030, 19941.00
221.0220, 19985.00
222.2400, 20004.00
223.4590, 20136.00
224.6770, 20132.00
225.8950, 20240.00
227.1120, 20355.00
228.3300, 20559.00
229.5480, 20456.00
230.7650, 20718.00
231.9820, 20589.00
233.1990, 20874.00
234.4160, 20907.00
235.6330, 20674.00
236.8490, 20618.00
238.0660, 20543.00
239.2820, 20496.00
240.4980, 20545.00
241.7140, 20605.00
242.9300, 20262.00
244.1460, 20467.00
245.3610, 20423.00
246.5770, 20817.00
247.7920, 20460.00
249.0070, 20594.00
250.2220, 21006.00
251.4370, 20913.00
252.6510, 20874.00
253.8660, 20793.00
255.0800, 21002.00
256.2940, 21035.00
257.5080, 20913.00
258.7220, 20807.00
259.9360, 20917.00
261.1490, 20773.00
262.3630, 20757.00
263.5760, 20932.00
264.7890, 20970.00
266.0020, 20787.00
267.2150, 20897.00
268.4270, 20841.00
269.6400, 20864.00
270.8520, 20969.00
272.0640, 20903.00
273.2760, 20916.00
274.4880, 20864.00
275.7000, 21225.00
276.9120, 21352.00
278.1230, 21234.00
279.3340, 21350.00
280.5450, 21169.00
281.7560, 21230.00
282.9670, 21321.00
284.1780, 21297.00
285.3880, 21286.00
286.5980, 21247.00
287.8090, 21186.00
289.0190, 21359.00
290.2290, 21383.00
291.4380, 21471.00
292.6480, 21450.00
293.8570, 21473.00
295.0670, 21489.00
296.2760, 21502.00
297.4850, 21784.00
298.6930, 21740.00
299.9020, 21914.00
301.1110, 21837.00
302.3190, 21884.00
303.5270, 22104.00
304.7350, 22235.00
305.9430, 22280.00
307.1510, 22299.00
308.3580, 22573.00
309.5660, 22816.00
310.7730, 23011.00
311.9800, 23475.00
313.1870, 24046.00
314.3940, 24230.00
315.6010, 24863.00
316.8070, 25329.00
318.0130, 26002.00
319.2200, 26926.00
320.4260, 27946.00
321.6310, 28851.00
322.8370, 29239.00
324.0430, 28788.00
325.2480, 27852.00
326.4540, 26543.00
327.6590, 26056.00
328.8640, 24775.00
330.0680, 24210.00
331.2730, 23570.00
332.4780, 23240.00
333.6820, 23243.00
334.8860, 22833.00
336.0900, 22784.00
337.2940, 22727.00
338.4980, 22611.00
339.7010, 22652.00
340.9050, 22574.07
342.1080, 22606.00
343.3110, 22538.00
344.5140, 22584.00
345.7170, 22644.00
346.9200, 22562.00
348.1220, 22749.00
349.3240, 22853.00
350.5270, 22698.00
351.7290, 22854.00
352.9310, 22864.00
354.1320, 22891.00
355.3340, 22907.00
356.5350, 23132.00
357.7370, 23224.00
358.9380, 23123.00
360.1390, 23198.00
361.3400, 23154.00
362.5400, 23265.00
363.7410, 23140.00
364.9410, 23180.00
366.1410, 23229.00
367.3410, 23344.00
368.5410, 23349.00
369.7410, 23405.00
370.9400, 23480.00
372.1400, 23493.00
373.3390, 23720.00
374.5380, 23773.00
375.7370, 23857.00
376.9360, 24069.00
378.1350, 24422.00
379.3330, 24706.00
380.5310, 25210.00
381.7300, 25961.00
382.9280, 26336.00
384.1260, 27179.00
385.3230, 28119.00
386.5210, 29313.00
387.7180, 30203.00
388.9160, 30794.00
390.1130, 30239.00
391.3100, 29176.00
392.5060, 27761.00
393.7030, 26676.00
394.9000, 25786.00
396.0960, 25041.00
397.2920, 24633.00
398.4880, 24469.00
399.6840, 24115.00
400.8800, 24159.00
402.0750, 23773.00
403.2710, 23818.00
404.4660, 23893.00
405.6610, 23885.00
406.8560, 23902.00
408.0510, 23923.00
409.2450, 23970.00
410.4400, 23668.00
411.6340, 23648.00
412.8280, 23672.00
414.0220, 23883.00
415.2160, 23878.00
416.4100, 23867.00
417.6030, 23783.00
418.7970, 23763.00
419.9900, 23947.00
421.1830, 23766.00
422.3760, 23816.00
423.5690, 23902.00
424.7610, 23737.00
425.9540, 23918.00
427.1460, 23831.00
428.3380, 23922.00
429.5300, 24035.00
430.7220, 24195.00
431.9140, 24020.00
433.1050, 24159.00
434.2970, 24119.00
435.4880, 24238.00
436.6790, 23937.00
437.8700, 24221.00
439.0610, 24038.00
440.2510, 24234.00
441.4420, 24032.00
442.6320, 24122.00
443.8220, 24143.00
445.0120, 24264.00
446.2020, 24266.00
447.3910, 24292.00
448.5810, 24351.00
449.7700, 24263.00
450.9600, 24413.00
452.1490, 24553.00
453.3370, 24500.56
454.5260, 24442.00
455.7150, 24503.00
456.9030, 24467.00
458.0910, 24481.00
459.2800, 24698.00
460.4670, 24336.00
461.6550, 24419.00
462.8430, 24751.00
464.0300, 24793.00
465.2180, 24492.00
466.4050, 24706.00
467.5920, 24589.00
468.7790, 24792.00
469.9650, 24783.00
471.1520, 24686.00
472.3380, 24806.00
473.5250, 24675.00
474.7110, 24921.00
475.8970, 24606.00
477.0820, 24821.00
478.2680, 24883.00
479.4540, 24959.00
480.6390, 24962.00
481.8240, 24965.00
483.0090, 24977.00
484.1940, 25113.00
485.3780, 25194.00
486.5630, 24941.00
487.7470, 24659.00
488.9320, 24921.00
490.1160, 24941.00
491.3000, 25219.00
492.4830, 25361.00
493.6670, 24939.00
494.8500, 25214.00
496.0340, 25167.00
497.2170, 25118.00
498.4000, 25139.00
499.5820, 25116.00
500.7650, 25285.00
501.9480, 25274.00
503.1300, 25321.95
504.3120, 25414.00
505.4940, 25423.00
506.6760, 25438.00
507.8580, 25575.00
509.0390, 25498.00
510.2210, 25374.00
511.4020, 25346.00
512.5830, 25388.70
513.7640, 25420.76
514.9450, 25580.00
516.1250, 25640.00
517.3060, 25785.00
518.4860, 25949.00
519.6660, 25841.00
520.8460, 25949.00
522.0260, 26056.00
523.2060, 26081.00
524.3850, 26261.51
525.5650, 26457.00
526.7440, 26581.00
527.9230, 26464.00
529.1020, 26603.00
530.2810, 26507.00
531.4590, 26436.00
532.6380, 26400.00
533.8160, 26294.15
534.9940, 26076.00
536.1720, 26138.00
537.3500, 25971.00
538.5270, 25933.00
539.7050, 26090.00
540.8820, 26225.00
542.0590, 26097.00
543.2360, 26059.00
544.4130, 26126.00
545.5900, 26149.00
546.7660, 26231.00
547.9430, 26236.43
549.1190, 26217.00
550.2950, 26254.00
551.4710, 26277.00
552.6470, 26280.00
553.8220, 26089.00
554.9980, 26235.00
556.1730, 26421.00
557.3480, 26255.00
558.5230, 26610.00
559.6980, 26312.00
560.8730, 26352.00
562.0470, 26392.00
563.2220, 26459.00
564.3960, 26537.00
565.5700, 26186.00
566.7440, 26464.00
567.9170, 26361.00
569.0910, 26431.00
570.2640, 26563.00
571.4380, 26657.00
572.6110, 26543.00
573.7840, 26586.00
574.9570, 26649.00
576.1290, 26687.00
577.3020, 26686.43
578.4740, 26718.11
579.6460, 26645.00
580.8180, 26735.00
581.9900, 26682.00
583.1620, 26686.00
584.3330, 26788.00
585.5040, 26647.00
586.6760, 26899.00
587.8470, 26758.00
589.0180, 26822.00
590.1880, 26712.00
591.3590, 26972.00
592.5290, 26951.00
593.7000, 26880.00
594.8700, 26813.00
596.0400, 26855.86
597.2090, 26873.94
598.3790, 26924.00
599.5490, 27005.00
600.7180, 27008.00
601.8870, 27045.00
603.0560, 26979.00
604.2250, 27281.00
605.3940, 26955.00
606.5620, 27274.00
607.7300, 27202.00
608.8990, 27301.00
610.0670, 27282.00
611.2350, 27280.00
612.4020, 27271.00
613.5700, 27298.00
614.7370, 27413.00
615.9050, 27447.00
617.0720, 27218.00
618.2390, 27596.00
619.4060, 27365.00
620.5720, 27340.00
621.7390, 27605.00
622.9050, 27663.00
624.0710, 27557.00
625.2370, 27632.00
626.4030, 27572.00
627.5690, 27696.00
628.7340, 27766.00
629.9000, 27700.00
631.0650, 27892.00
632.2300, 27850.00
633.3950, 27725.00
634.5600, 27827.00
635.7240, 27749.00
636.8890, 27785.00
638.0530, 27897.00
639.2170, 27984.00
640.3810, 27920.00
641.5450, 28082.00
642.7080, 28127.00
643.8720, 28233.00
645.0350, 28156.00
646.1980, 28336.00
647.3610, 28245.00
648.5240, 28179.00
649.6870, 28482.00
650.8490, 28516.00
652.0120, 28662.00
653.1740, 29123.00
654.3360, 29173.00
655.4980, 29415.00
656.6600, 29613.00
657.8210, 29967.00
658.9830, 30252.00
660.1440, 30914.00
661.3050, 31106.00
662.4660, 31747.00
663.6270, 32182.00
664.7870, 32329.00
665.9480, 32541.00
667.1080, 32216.00
668.2680, 31675.00
669.4280, 31112.00
670.5880, 30498.00
671.7480, 30264.00
672.9070, 29985.00
674.0670, 29580.00
675.2260, 29449.00
676.3850, 29090.00
677.5440, 28993.00
678.7030, 28976.00
679.8610, 29073.00
681.0200, 28792.00
682.1780, 28815.00
683.3360, 28837.00
684.4940, 28962.00
685.6520, 28773.00
686.8090, 28990.00
687.9670, 28759.00
689.1240, 28863.00
690.2810, 29047.00
691.4380, 29069.00
692.5950, 28824.00
693.7520, 28738.00
694.9080, 28781.00
696.0650, 28987.00
697.2210, 28872.00
698.3770, 28897.00
699.5330, 29038.00
700.6880, 29126.00
701.8440, 29070.00
702.9990, 29179.00
704.1550, 29030.00
705.3100, 29242.00
706.4650, 29204.00
707.6190, 29317.00
708.7740, 29175.00
709.9290, 29314.00
711.0830, 29206.00
712.2370, 29251.00
713.3910, 29155.00
714.5450, 29329.00
715.6980, 29363.00
716.8520, 29209.00
718.0050, 29327.00
719.1580, 29345.00
720.3110, 29404.00
721.4640, 29492.00
722.6170, 29458.00
723.7700, 29606.00
724.9220, 29667.00
726.0740, 29348.00
727.2260, 29400.00
728.3780, 29332.00
729.5300, 29515.00
730.6810, 29568.00
731.8330, 29787.00
732.9840, 29566.00
734.1350, 29401.00
735.2860, 29525.00
736.4370, 29720.00
737.5880, 29759.00
738.7380, 29751.00
739.8880, 29947.00
741.0390, 29797.00
742.1890, 29698.00
743.3380, 29859.00
744.4880, 29927.00
745.6380, 29769.00
746.7870, 29608.00
747.9360, 29893.00
749.0850, 30048.00
750.2340, 29775.00
751.3830, 29830.00
752.5310, 29865.00
753.6800, 30144.00
754.8280, 30033.00
755.9760, 30020.00
757.1240, 30267.00
758.2720, 30033.00
759.4190, 30136.00
760.5670, 30089.00
761.7140, 30342.00
762.8610, 30009.00
764.0080, 30242.00
765.1550, 30222.00
766.3020, 30233.00
767.4480, 30175.00
768.5950, 30212.00
769.7410, 30318.00
770.8870, 30630.00
772.0330, 30322.00
773.1780, 30564.00
774.3240, 30591.00
775.4690, 30440.00
776.6140, 30526.00
777.7590, 30505.00
778.9040, 30585.00
780.0490, 30522.00
781.1940, 30513.00
782.3380, 30378.00
783.4820, 30425.00
784.6260, 30469.94
785.7700, 30569.00
786.9140, 30680.00
788.0580, 30640.00
789.2010, 30785.00
790.3450, 30832.00
791.4880, 30656.00
792.6310, 30832.00
793.7730, 31032.00
794.9160, 30908.00
796.0590, 31013.00
797.2010, 30839.00
798.3430, 30791.00
799.4850, 31125.00
800.6270, 30985.00
801.7690, 30986.00
802.9100, 30873.00
804.0520, 30909.17
805.1930, 31185.00
806.3340, 31047.00
807.4750, 31147.00
808.6160, 31321.00
809.7560, 31282.00
810.8970, 31106.00
812.0370, 31258.00
813.1770, 31369.00
814.3170, 31203.00
815.4570, 31245.00
816.5960, 31274.00
817.7360, 31297.26
818.8750, 31350.00
820.0140, 31533.00
821.1530, 31478.00
822.2920, 31723.00
823.4310, 31708.00
824.5690, 31553.00
825.7070, 31790.00
826.8460, 31931.00
827.9840, 31650.00
829.1220, 31746.00
830.2590, 31615.00
831.3970, 31773.00
832.5340, 31764.00
833.6710, 31920.00
834.8080, 31766.00
835.9450, 31877.00
837.0820, 32011.00
838.2190, 31823.00
839.3550, 31993.00
840.4910, 31887.00
841.6270, 31942.00
842.7630, 32163.00
843.8990, 32081.00
845.0350, 32100.00
846.1700, 32009.00
847.3060, 32270.00
848.4410, 32344.00
849.5760, 32218.00
850.7100, 32370.00
851.8450, 32256.00
852.9800, 32251.00
854.1140, 32321.00
855.2480, 32619.00
856.3820, 32487.00
857.5160, 32597.00
858.6500, 32617.00
859.7830, 32475.00
860.9170, 32390.00
862.0500, 32781.00
863.1830, 32694.00
864.3160, 32653.00
865.4480, 32435.00
866.5810, 32584.00
867.7130, 32639.00
868.8460, 32824.00
869.9780, 32750.00
871.1100, 32857.00
872.2410, 32984.00
873.3730, 32781.00
874.5050, 32845.00
875.6360, 32879.00
876.7670, 32875.00
877.8980, 33006.00
879.0290, 33074.00
880.1590, 33056.00
881.2900, 32962.00
882.4200, 32981.00
883.5500, 32950.00
884.6800, 33082.00
885.8100, 33232.00
886.9400, 32968.00
888.0690, 33112.00
889.1990, 33264.00
890.3280, 33153.00
891.4570, 33473.00
892.5860, 33138.00
893.7140, 33202.00
894.8430, 33379.00
895.9710, 33365.00
897.1000, 33445.00
898.2280, 33525.00
899.3560, 33555.00
900.4830, 33665.00
901.6110, 33377.00
902.7380, 33595.00
903.8660, 33498.00
904.9930, 33576.00
906.1200, 33670.00
907.2460, 33607.00
908.3730, 33667.00
909.5000, 33807.00
910.6260, 33814.00
911.7520, 33717.00
912.8780, 33984.00
914.0040, 33939.00
915.1290, 33925.00
916.2550, 34125.00
917.3800, 33978.00
918.5050, 34103.00
919.6300, 33977.00
920.7550, 33946.00
921.8800, 33893.00
923.0040, 34009.00
924.1290, 34001.79
925.2530, 34104.00
926.3770, 34126.00
927.5010, 34219.00
928.6250, 34320.00
929.7480, 34255.00
930.8720, 34243.00
931.9950, 34229.00
933.1180, 34366.00
934.2410, 34346.00
935.3640, 34426.00
936.4860, 34372.00
937.6090, 34436.00
938.7310, 34415.00
939.8530, 34456.98
940.9750, 34617.00
942.0970, 34582.00
943.2180, 34528.00
944.3400, 34648.00
945.4610, 34624.00
946.5820, 34901.00
947.7030, 34680.00
948.8240, 34845.00
949.9450, 34791.00
951.0650, 35105.00
952.1860, 34909.00
953.3060, 34992.00
954.4260, 35028.00
955.5460, 34875.00
956.6650, 35228.00
957.7850, 35118.00
958.9040, 35013.00
960.0230, 35327.00
961.1420, 35465.00
962.2610, 35308.00
963.3800, 35122.00
964.4990, 35478.00
965.6170, 35202.00
966.7350, 35552.00
967.8530, 35472.00
968.9710, 35555.00
970.0890, 35171.00
971.2070, 35520.00
972.3240, 35603.00
973.4410, 35870.00
974.5580, 35539.00
975.6750, 35714.00
976.7920, 35595.00
977.9090, 35903.00
979.0250, 36049.00
980.1410, 35948.00
981.2580, 36017.00
982.3740, 36130.00
983.4890, 36103.00
984.6050, 36100.00
985.7200, 36250.00
986.8360, 36383.00
987.9510, 36407.56
989.0660, 36259.00
990.1810, 36489.00
991.2950, 36621.00
992.4100, 36614.00
993.5240, 36854.00
994.6390, 36684.00
995.7530, 37068.00
996.8660, 36860.00
997.9800, 37410.00
999.0940, 37550.00
1000.207, 37763.00
1001.320, 38289.00
1002.433, 38665.00
1003.546, 39509.00
1004.659, 40514.00
1005.772, 41687.00
1006.884, 43276.00
1007.996, 45556.00
1009.108, 48125.00
1010.220, 50246.00
1011.332, 52111.00
1012.444, 52671.00
1013.555, 51252.00
1014.666, 49142.00
1015.777, 46600.00
1016.888, 44303.00
1017.999, 42493.00
1019.110, 40773.00
1020.220, 39819.00
1021.331, 38961.00
1022.441, 38922.00
1023.551, 38559.00
1024.661, 38405.00
1025.770, 38337.00
1026.880, 38231.00
1027.989, 38057.00
1029.098, 37966.00
1030.207, 38057.00
1031.316, 37848.00
1032.425, 37848.00
1033.533, 38079.00
1034.642, 37803.00
1035.750, 38038.00
1036.858, 38319.00
1037.966, 37997.00
1039.073, 38090.00
1040.181, 38116.00
1041.288, 37998.00
1042.396, 37933.00
1043.503, 38264.00
1044.610, 38235.00
1045.716, 38261.00
1046.823, 38601.00
1047.929, 38439.00
1049.036, 38280.00
1050.142, 38423.00
1051.248, 38228.00
1052.353, 38356.00
1053.459, 38387.00
1054.564, 38430.00
1055.670, 38404.00
1056.775, 38583.00
1057.880, 38586.00
1058.985, 38544.00
1060.089, 38420.00
1061.194, 38449.00
1062.298, 38456.00
1063.402, 38511.59
1064.506, 38528.27
1065.610, 38684.00
1066.713, 38640.00
1067.817, 38647.00
1068.920, 38818.00
1070.023, 39079.00
1071.126, 39095.00
1072.229, 39152.00
1073.332, 39176.65
1074.435, 38947.00
1075.537, 39061.00
1076.639, 39056.00
1077.741, 38928.00
1078.843, 39097.00
1079.945, 39161.00
1081.046, 39307.00
1082.148, 39133.00
1083.249, 39667.00
1084.350, 39327.00
1085.451, 39379.00
1086.551, 39558.00
1087.652, 39260.00
1088.752, 39592.00
1089.853, 39715.00
1090.953, 39783.00
1092.053, 39618.00
1093.152, 39482.00
1094.252, 39573.00
1095.351, 39543.22
1096.451, 39708.00
1097.550, 39732.00
1098.649, 39864.00
1099.748, 40036.00
1100.846, 39874.00
1101.945, 39863.00
1103.043, 39974.00
1104.141, 40056.00
1105.239, 40036.00
1106.337, 40074.00
1107.434, 40061.00
1108.532, 40106.60
1109.629, 40176.47
1110.726, 40260.00
1111.823, 40334.00
1112.920, 40540.00
1114.017, 40602.00
1115.113, 40481.00
1116.210, 40656.00
1117.306, 40389.00
1118.402, 40672.00
1119.498, 41069.00
1120.593, 40655.00
1121.689, 40676.00
1122.784, 40635.00
1123.879, 40988.00
1124.974, 40721.00
1126.069, 40952.00
1127.164, 40791.00
1128.259, 40967.00
1129.353, 41146.00
1130.447, 41178.00
1131.541, 41223.00
1132.635, 41259.00
1133.729, 41326.70
1134.822, 41409.00
1135.916, 41411.00
1137.009, 41482.00
1138.102, 41398.00
1139.195, 41429.00
1140.288, 41653.00
1141.380, 41769.00
1142.473, 41638.00
1143.565, 41650.00
1144.657, 41632.00
1145.749, 41938.00
1146.841, 41907.00
1147.932, 42105.00
1149.024, 42102.00
1150.115, 41908.00
1151.206, 41879.00
1152.297, 41931.00
1153.388, 42110.00
1154.479, 42170.00
1155.569, 42335.00
1156.659, 42415.00
1157.750, 42407.00
1158.839, 42533.91
1159.929, 42117.00
1161.019, 42542.00
1162.108, 42482.00
1163.198, 42184.00
1164.287, 42384.00
1165.376, 42580.00
1166.465, 42641.00
1167.553, 42629.00
1168.642, 42756.00
1169.730, 42405.00
1170.818, 42915.00
1171.906, 42774.00
1172.994, 43082.00
1174.082, 43186.00
1175.170, 42807.00
1176.257, 43009.00
1177.344, 42883.00
1178.431, 43241.00
1179.518, 43086.00
1180.605, 43314.00
1181.691, 43496.00
1182.778, 43220.00
1183.864, 43353.00
1184.950, 43241.00
1186.036, 43347.00
1187.122, 43395.59
1188.207, 43385.00
1189.292, 43556.00
1190.378, 43651.00
1191.463, 43786.00
1192.548, 43691.00
1193.632, 43941.00
1194.717, 43832.00
1195.801, 43958.00
1196.886, 43887.00
1197.970, 43956.00
1199.054, 44243.00
1200.137, 44081.00
1201.221, 44226.00
1202.305, 44288.00
1203.388, 44294.00
1204.471, 44315.00
1205.554, 44250.00
1206.637, 44404.00
1207.719, 44438.00
1208.802, 44409.00
1209.884, 44635.00
1210.966, 44476.00
1212.048, 44802.00
1213.130, 44807.00
1214.212, 44731.00
1215.293, 45016.00
1216.374, 44812.00
1217.456, 44814.00
1218.536, 44926.00
1219.617, 45059.00
1220.698, 45276.00
1221.778, 45258.00
1222.859, 45400.00
1223.939, 45526.73
1225.019, 45205.00
1226.099, 45542.00
1227.178, 45609.00
1228.258, 45105.00
1229.337, 45546.00
1230.417, 45374.00
1231.496, 45711.00
1232.574, 45786.00
1233.653, 45833.00
1234.732, 45793.00
1235.810, 45576.00
1236.888, 45714.00
1237.966, 45803.00
1239.044, 45906.00
1240.122, 46218.00
1241.199, 46172.00
1242.277, 46046.00
1243.354, 46068.00
1244.431, 46313.00
1245.508, 46270.00
1246.585, 46268.00
1247.661, 46256.00
1248.738, 46278.00
1249.814, 46334.44
1250.890, 46407.08
1251.966, 46455.00
1253.042, 46613.00
1254.117, 46620.00
1255.193, 46714.00
1256.268, 46652.00
1257.343, 46873.00
1258.418, 46929.00
1259.493, 47110.00
1260.567, 47265.00
1261.642, 47274.00
1262.716, 47250.00
1263.790, 47233.00
1264.864, 47280.83
1265.938, 47285.02
1267.011, 47401.00
1268.085, 47384.00
1269.158, 47488.00
1270.231, 47613.00
1271.304, 47591.00
1272.377, 47474.00
1273.450, 47513.00
1274.522, 47625.00
1275.594, 47596.75
1276.666, 47788.00
1277.738, 47779.00
1278.810, 47770.00
1279.882, 48066.00
1280.953, 48242.00
1282.025, 47975.00
1283.096, 47976.00
1284.167, 48571.00
1285.238, 48293.00
1286.308, 48429.00
1287.379, 48205.00
1288.449, 48145.00
1289.519, 48307.00
1290.589, 48740.00
1291.659, 48468.00
1292.729, 48637.00
1293.798, 48556.00
1294.868, 48829.00
1295.937, 48599.00
1297.006, 48901.00
1298.075, 49003.00
1299.143, 48920.00
1300.212, 48980.00
1301.280, 48998.00
1302.348, 49143.00
1303.416, 49227.00
1304.484, 49184.00
