##NAMES=Diopside
##RRUFFID=R060085
##IDEAL CHEMISTRY=CaMgSi_2_O_6_
##LOCALITY=Tyrol, Austria
##OWNER=RRUFF
##SOURCE=University of Arizona Mineral Museum
##DESCRIPTION=Brownish-green massive
##STATUS=The identification of this mineral has been confirmed by X-ray diffraction and chemical analysis
##URL=rruff.info/R060085
##MEASURED CHEMISTRY=(Ca_0.97_Na_0.03_)_Σ=1_(Mg_0.79_Fe^2+^_0.10_Fe^3+^_0.04_Al_0.04_Ti_0.02_Cr_0.01_)_Σ=1_(Si_1.90_Al_0.10_)_Σ=2_O_6_
##PIN_ID=M00509
##ORIENTATION=Laser parallel to a* (1 0 0). Fiducial mark perpendicular to laser is parallel to b [0 1 0]
108.0040, 16442.00
109.2410, 16609.00
110.4770, 16519.00
111.7130, 16711.00
112.9490, 16704.00
114.1850, 16828.00
115.4200, 16760.00
116.6560, 16870.00
117.8910, 16855.00
119.1260, 16892.00
120.3610, 16865.00
121.5960, 17003.00
122.8300, 16888.00
124.0640, 17067.00
125.2990, 16835.00
126.5330, 16965.00
127.7670, 17140.00
129.0000, 17081.00
130.2340, 17079.00
131.4670, 17266.00
132.7000, 17498.00
133.9330, 17499.00
135.1660, 17647.00
136.3990, 17643.00
137.6310, 17787.00
138.8640, 17811.00
140.0960, 17761.00
141.3280, 17612.00
142.5600, 17662.00
143.7910, 17543.00
145.0230, 17322.00
146.2540, 17219.00
147.4850, 17190.00
148.7160, 17079.00
149.9470, 17080.00
151.1780, 17071.00
152.4080, 17017.00
153.6380, 17267.00
154.8690, 17134.00
156.0980, 17253.00
157.3280, 17069.00
158.5580, 17163.00
159.7870, 17233.00
161.0170, 16927.00
162.2460, 17112.00
163.4750, 16947.00
164.7030, 17057.00
165.9320, 17231.00
167.1600, 17123.00
168.3890, 17230.00
169.6170, 17177.00
170.8450, 17260.00
172.0730, 17207.00
173.3000, 17509.00
174.5280, 17304.00
175.7550, 17458.00
176.9820, 17482.00
178.2090, 17366.00
179.4350, 17546.00
180.6620, 17572.00
181.8880, 17637.00
183.1150, 17664.00
184.3410, 17615.00
185.5670, 17515.00
186.7920, 17609.00
188.0180, 17734.00
189.2430, 17524.00
190.4690, 17664.00
191.6940, 17730.00
192.9180, 17597.00
194.1430, 17796.00
195.3680, 17910.00
196.5920, 17752.00
197.8160, 17873.00
199.0400, 17783.00
200.2640, 17980.00
201.4880, 17763.00
202.7110, 17886.00
203.9350, 17813.00
205.1580, 17704.00
206.3810, 17909.00
207.6040, 18006.00
208.8270, 17852.00
210.0490, 17796.00
211.2710, 17992.00
212.4940, 17976.00
213.7160, 17981.00
214.9370, 17988.00
216.1590, 17974.00
217.3810, 18107.00
218.6020, 18043.00
219.8230, 18155.00
221.0440, 18187.00
222.2650, 18345.00
223.4860, 18365.00
224.7060, 18388.00
225.9260, 18285.00
227.1470, 18483.00
228.3670, 18425.00
229.5860, 18590.00
230.8060, 18383.00
232.0260, 18464.00
233.2450, 18607.00
234.4640, 18555.00
235.6830, 18374.00
236.9020, 18496.00
238.1200, 18508.00
239.3390, 18625.00
240.5570, 18562.00
241.7750, 18538.00
242.9930, 18621.00
244.2110, 18496.00
245.4290, 18467.00
246.6460, 18550.00
247.8630, 18592.00
249.0810, 18628.00
250.2980, 18701.00
251.5140, 18738.00
252.7310, 18772.00
253.9470, 18827.00
255.1640, 18563.00
256.3800, 18716.00
257.5960, 18666.00
258.8120, 18948.00
260.0270, 18644.00
261.2430, 18850.00
262.4580, 18673.00
263.6730, 18544.00
264.8880, 18628.00
266.1030, 18750.00
267.3170, 18760.00
268.5320, 18873.00
269.7460, 18700.00
270.9600, 18883.00
272.1740, 18916.00
273.3880, 18703.00
274.6010, 18747.00
275.8150, 18779.00
277.0280, 18810.00
278.2410, 18843.00
279.4540, 18980.00
280.6670, 18771.00
281.8790, 19047.00
283.0920, 18991.00
284.3040, 18972.00
285.5160, 19343.00
286.7280, 18933.00
287.9400, 19267.00
289.1510, 19249.00
290.3630, 19311.00
291.5740, 19370.00
292.7850, 19308.00
293.9960, 19360.00
295.2070, 19537.00
296.4170, 19419.00
297.6280, 19491.00
298.8380, 19487.00
300.0480, 19417.00
301.2580, 19590.00
302.4680, 19621.00
303.6770, 19668.00
304.8870, 19769.00
306.0960, 19771.00
307.3050, 19993.00
308.5140, 20022.00
309.7230, 19975.00
310.9310, 19991.00
312.1400, 20258.00
313.3480, 20357.00
314.5560, 20383.00
315.7640, 20664.00
316.9720, 20737.00
318.1790, 21008.00
319.3870, 21474.00
320.5940, 21591.00
321.8010, 21720.00
323.0080, 22073.00
324.2150, 22114.00
325.4210, 22180.00
326.6280, 22117.00
327.8340, 22170.00
329.0400, 21993.00
330.2460, 21977.00
331.4510, 21576.00
332.6570, 21553.00
333.8620, 21418.00
335.0680, 21157.00
336.2730, 21029.00
337.4780, 21141.00
338.6820, 20828.00
339.8870, 20859.00
341.0910, 20727.00
342.2950, 20709.00
343.5000, 20533.00
344.7030, 20833.00
345.9070, 20766.00
347.1110, 20826.00
348.3140, 20640.00
349.5170, 20914.00
350.7200, 20939.00
351.9230, 20791.00
353.1260, 20898.00
354.3290, 20930.00
355.5310, 20928.00
356.7330, 20938.00
357.9350, 21012.00
359.1370, 20959.65
360.3390, 20940.00
361.5400, 20963.00
362.7420, 21034.00
363.9430, 21191.00
365.1440, 20922.00
366.3450, 21151.00
367.5460, 21118.00
368.7460, 21286.00
369.9470, 21195.00
371.1470, 21193.00
372.3470, 21166.00
373.5470, 21186.28
374.7460, 21213.32
375.9460, 21302.00
377.1450, 21319.00
378.3450, 21436.00
379.5440, 21537.00
380.7430, 21576.00
381.9410, 21665.00
383.1400, 21964.00
384.3380, 22233.00
385.5370, 22413.47
386.7350, 22657.21
387.9320, 22807.00
389.1300, 23037.00
390.3280, 23116.00
391.5250, 23262.00
392.7220, 23459.00
393.9190, 23515.00
395.1160, 23453.00
396.3130, 23064.00
397.5100, 22751.00
398.7060, 22615.00
399.9020, 22255.00
401.0980, 22097.00
402.2940, 21823.00
403.4900, 21813.00
404.6860, 21563.00
405.8810, 21594.00
407.0760, 21489.00
408.2710, 21471.00
409.4660, 21383.00
410.6610, 21478.00
411.8550, 21486.00
413.0500, 21352.00
414.2440, 21295.00
415.4380, 21432.00
416.6320, 21344.00
417.8260, 21577.00
419.0190, 21567.00
420.2130, 21291.00
421.4060, 21384.00
422.5990, 21606.00
423.7920, 21667.00
424.9850, 21320.00
426.1770, 21558.00
427.3700, 21485.00
428.5620, 21452.00
429.7540, 21527.00
430.9460, 21673.00
432.1380, 21674.00
433.3290, 21622.00
434.5210, 21614.00
435.7120, 21576.00
436.9030, 21658.00
438.0940, 21659.00
439.2850, 21679.00
440.4750, 21594.00
441.6660, 21726.00
442.8560, 21595.00
444.0460, 21777.00
445.2360, 21797.00
446.4260, 21655.00
447.6160, 21855.00
448.8050, 21874.00
449.9940, 21843.00
451.1830, 21942.00
452.3720, 22021.00
453.5610, 22047.00
454.7500, 22090.19
455.9380, 22084.00
457.1260, 22066.00
458.3150, 22090.00
459.5020, 21974.00
460.6900, 22197.00
461.8780, 22143.00
463.0650, 22217.00
464.2530, 22151.00
465.4400, 22064.00
466.6270, 22143.00
467.8130, 22322.00
469.0000, 22434.00
470.1870, 22321.00
471.3730, 22436.00
472.5590, 22495.00
473.7450, 22477.00
474.9310, 22661.00
476.1160, 22431.00
477.3020, 22482.00
478.4870, 22535.00
479.6720, 22415.00
480.8570, 22479.00
482.0420, 22707.00
483.2270, 22766.00
484.4110, 22725.00
485.5960, 22776.00
486.7800, 22764.00
487.9640, 22757.00
489.1480, 22684.00
490.3310, 22734.00
491.5150, 22713.07
492.6980, 22778.00
493.8810, 22737.00
495.0640, 22902.00
496.2470, 22939.00
497.4300, 22928.00
498.6120, 23103.00
499.7950, 23008.00
500.9770, 23028.00
502.1590, 22958.00
503.3410, 23214.00
504.5220, 23081.00
505.7040, 23019.00
506.8850, 23352.00
508.0660, 23168.00
509.2470, 23122.00
510.4280, 23334.00
511.6090, 23455.00
512.7890, 23447.00
513.9700, 23463.00
515.1500, 23523.00
516.3300, 23554.00
517.5100, 23740.00
518.6900, 23602.00
519.8690, 23711.00
521.0490, 23520.00
522.2280, 23818.00
523.4070, 23823.00
524.5860, 23744.00
525.7640, 23715.00
526.9430, 23752.56
528.1210, 23867.00
529.3000, 23800.00
530.4780, 24069.00
531.6560, 24030.00
532.8330, 23980.00
534.0110, 23885.00
535.1880, 24094.00
536.3650, 24159.00
537.5430, 24049.00
538.7190, 24090.00
539.8960, 23988.00
541.0730, 24033.00
542.2490, 24044.00
543.4250, 24124.00
544.6020, 24176.00
545.7780, 24197.00
546.9530, 24261.00
548.1290, 24102.00
549.3040, 24354.00
550.4800, 23914.00
551.6550, 24150.00
552.8300, 24028.00
554.0040, 24081.00
555.1790, 24112.00
556.3540, 23886.00
557.5280, 24106.00
558.7020, 24123.00
559.8760, 24383.00
561.0500, 24167.00
562.2230, 24290.00
563.3970, 24163.00
564.5700, 24246.00
565.7430, 24222.00
566.9160, 24255.00
568.0890, 24318.10
569.2620, 24308.00
570.4340, 24434.00
571.6070, 24457.00
572.7790, 24505.00
573.9510, 24398.00
575.1230, 24404.64
576.2940, 24437.00
577.4660, 24373.00
578.6370, 24345.00
579.8080, 24467.00
580.9790, 24493.00
582.1500, 24362.00
583.3210, 24333.00
584.4910, 24417.00
585.6620, 24358.00
586.8320, 24654.00
588.0020, 24369.00
589.1720, 24685.00
590.3410, 24500.00
591.5110, 24598.00
592.6800, 24542.00
593.8500, 24809.00
595.0190, 24650.00
596.1880, 24724.00
597.3560, 24543.00
598.5250, 24732.00
599.6930, 24483.00
600.8620, 24692.00
602.0300, 24728.00
603.1970, 24654.00
604.3650, 24850.00
605.5330, 24843.00
606.7000, 24832.00
607.8680, 24756.00
609.0350, 24982.00
610.2020, 24976.00
611.3680, 25071.00
612.5350, 25046.00
613.7010, 25046.00
614.8680, 25044.00
616.0340, 25084.00
617.2000, 25097.30
618.3660, 25120.00
619.5310, 25172.74
620.6970, 25212.00
621.8620, 25283.00
623.0270, 25422.00
624.1920, 25384.00
625.3570, 25462.00
626.5220, 25471.00
627.6860, 25463.00
628.8500, 25471.00
630.0140, 25465.00
631.1780, 25507.00
632.3420, 25410.00
633.5060, 25622.00
634.6700, 25596.00
635.8330, 25372.00
636.9960, 25582.00
638.1590, 25615.65
639.3220, 25782.48
640.4850, 25906.51
641.6470, 25989.96
642.8100, 25911.65
643.9720, 26042.25
645.1340, 26089.10
646.2960, 26132.52
647.4570, 26292.47
648.6190, 26237.64
649.7800, 26395.74
650.9420, 26468.88
652.1030, 26580.87
653.2640, 26705.00
654.4240, 26911.00
655.5850, 27129.00
656.7450, 27293.00
657.9060, 27411.00
659.0660, 27626.00
660.2260, 28244.00
661.3850, 28660.00
662.5450, 29178.00
663.7040, 29656.00
664.8640, 30045.00
666.0230, 30193.00
667.1820, 30864.00
668.3410, 30517.00
669.4990, 30036.00
670.6580, 29650.00
671.8160, 28631.00
672.9740, 28524.00
674.1320, 27982.00
675.2900, 28000.00
676.4480, 27706.00
677.6050, 27658.00
678.7630, 27369.00
679.9200, 27289.00
681.0770, 27383.00
682.2340, 27198.00
683.3900, 27111.00
684.5470, 27172.00
685.7030, 26940.00
686.8590, 26926.00
688.0150, 27000.00
689.1710, 27015.00
690.3270, 26867.00
691.4830, 26841.00
692.6380, 26920.00
693.7930, 26922.00
694.9480, 26946.00
696.1030, 26892.00
697.2580, 26884.00
698.4130, 26863.00
699.5670, 26825.00
700.7210, 26656.00
701.8750, 26934.00
703.0290, 26721.00
704.1830, 27147.00
705.3370, 27029.00
706.4900, 26958.00
707.6430, 26870.00
708.7970, 27013.00
709.9490, 27055.00
711.1020, 26744.00
712.2550, 27004.00
713.4070, 26949.00
714.5600, 26972.00
715.7120, 27156.00
716.8640, 27092.00
718.0160, 27190.00
719.1670, 27044.00
720.3190, 27234.00
721.4700, 27020.00
722.6210, 27040.00
723.7720, 27270.00
724.9230, 27266.00
726.0740, 27225.00
727.2250, 27403.00
728.3750, 27379.00
729.5250, 27400.00
730.6750, 27415.00
731.8250, 27202.00
732.9750, 27379.00
734.1240, 27609.00
735.2740, 27447.00
736.4230, 27495.00
737.5720, 27478.00
738.7210, 27434.00
739.8700, 27384.00
741.0190, 27456.00
742.1670, 27559.00
743.3150, 27862.00
744.4630, 27515.00
745.6110, 27438.00
746.7590, 27768.00
747.9070, 27752.00
749.0540, 27972.00
750.2020, 27713.00
751.3490, 27845.00
752.4960, 27733.00
753.6430, 27622.00
754.7890, 27968.00
755.9360, 28062.00
757.0820, 28013.00
758.2280, 27926.00
759.3740, 27947.00
760.5200, 27844.00
761.6660, 28045.00
762.8120, 27900.00
763.9570, 28035.00
765.1020, 28082.00
766.2470, 27864.00
767.3920, 27904.00
768.5370, 28134.00
769.6810, 28182.00
770.8260, 28333.00
771.9700, 28311.00
773.1140, 28299.00
774.2580, 28293.00
775.4020, 28343.00
776.5460, 28367.00
777.6890, 28313.00
778.8320, 28368.00
779.9750, 28664.00
781.1180, 28428.00
782.2610, 28789.00
783.4040, 28293.00
784.5460, 28554.00
785.6890, 28403.00
786.8310, 28504.00
787.9730, 28579.00
789.1150, 28618.00
790.2560, 28715.00
791.3980, 28536.00
792.5390, 28602.00
793.6810, 28605.00
794.8220, 28599.00
795.9630, 28664.22
797.1030, 28693.93
798.2440, 28767.00
799.3840, 28845.00
800.5240, 28910.00
801.6650, 29063.00
802.8040, 28885.00
803.9440, 28955.00
805.0840, 29040.00
806.2230, 29246.00
807.3630, 29108.00
808.5020, 29022.00
809.6410, 29191.00
810.7790, 29229.00
811.9180, 29297.00
813.0570, 29229.00
814.1950, 29232.00
815.3330, 29263.00
816.4710, 29192.00
817.6090, 29168.00
818.7470, 29244.00
819.8840, 29557.00
821.0220, 29504.00
822.1590, 29477.00
823.2960, 29347.00
824.4330, 29521.00
825.5690, 29618.00
826.7060, 29656.00
827.8420, 29714.00
828.9790, 29608.00
830.1150, 29768.00
831.2510, 29765.00
832.3860, 29664.00
833.5220, 29872.00
834.6570, 29900.00
835.7930, 29895.00
836.9280, 29804.00
838.0630, 29995.00
839.1980, 29989.00
840.3320, 29878.00
841.4670, 29875.00
842.6010, 30017.00
843.7350, 29953.00
844.8690, 29961.00
846.0030, 30108.00
847.1370, 29868.00
848.2700, 30213.00
849.4040, 30192.00
850.5370, 30150.00
851.6700, 30276.00
852.8030, 30386.00
853.9360, 30486.00
855.0680, 30415.00
856.2000, 30593.00
857.3330, 30522.00
858.4650, 30602.00
859.5970, 30481.00
860.7290, 30622.00
861.8600, 30796.00
862.9920, 30566.00
864.1230, 30843.00
865.2540, 30720.00
866.3850, 30739.00
867.5160, 30671.00
868.6460, 30825.00
869.7770, 30764.00
870.9070, 30625.00
872.0370, 30787.00
873.1670, 30939.00
874.2970, 30549.00
875.4270, 30624.00
876.5570, 30757.00
877.6860, 30940.00
878.8150, 30868.00
879.9440, 30814.00
881.0730, 30789.00
882.2020, 30785.20
883.3300, 30842.00
884.4590, 30788.00
885.5870, 31012.00
886.7150, 30954.00
887.8430, 31294.00
888.9710, 31019.00
890.0990, 31250.00
891.2260, 31049.00
892.3530, 31111.00
893.4810, 31146.00
894.6080, 31386.00
895.7340, 31244.00
896.8610, 31117.00
897.9880, 31015.00
899.1140, 31306.00
900.2400, 31214.00
901.3660, 31530.00
902.4920, 31320.00
903.6180, 31334.00
904.7430, 31440.00
905.8690, 31450.00
906.9940, 31284.00
908.1190, 31406.09
909.2440, 31372.35
910.3690, 31464.00
911.4930, 31484.00
912.6180, 31467.59
913.7420, 31626.00
914.8660, 31546.00
915.9900, 31734.00
917.1140, 31738.00
918.2380, 31823.00
919.3610, 31835.00
920.4850, 31879.00
921.6080, 31945.23
922.7310, 31947.32
923.8540, 31992.00
924.9760, 31982.00
926.0990, 31840.00
927.2210, 31851.00
928.3440, 31752.00
929.4660, 31848.00
930.5880, 31853.33
931.7090, 31862.00
932.8310, 31963.00
933.9520, 32026.00
935.0740, 32085.00
936.1950, 32189.00
937.3160, 32228.00
938.4360, 32196.00
939.5570, 32128.00
940.6780, 32310.00
941.7980, 32218.00
942.9180, 32218.00
944.0380, 32359.00
945.1580, 32443.00
946.2780, 32259.00
947.3970, 32296.00
948.5170, 32291.00
949.6360, 32409.00
950.7550, 32698.00
951.8740, 32769.00
952.9930, 32794.00
954.1110, 32743.00
955.2300, 32790.00
956.3480, 32883.00
957.4660, 32584.00
958.5840, 32794.00
959.7020, 32936.00
960.8190, 32917.00
961.9370, 32705.00
963.0540, 33063.00
964.1710, 33223.00
965.2880, 32923.00
966.4050, 33095.00
967.5220, 33282.00
968.6380, 32906.00
969.7550, 33174.00
970.8710, 33290.00
971.9870, 33208.00
973.1030, 33326.00
974.2190, 33323.00
975.3340, 33527.00
976.4500, 33313.00
977.5650, 33467.00
978.6800, 33462.00
979.7950, 33492.00
980.9100, 33635.00
982.0250, 33665.00
983.1390, 33725.00
984.2530, 34107.00
985.3680, 33825.00
986.4820, 34086.00
987.5950, 34083.00
988.7090, 33997.00
989.8230, 34057.00
990.9360, 34234.00
992.0490, 34494.00
993.1620, 34657.00
994.2750, 34635.00
995.3880, 34574.00
996.5010, 34899.00
997.6130, 34952.00
998.7250, 35413.00
999.8370, 35768.00
1000.949, 36188.00
1002.061, 35970.00
1003.173, 36512.00
1004.284, 36570.00
1005.396, 36974.00
1006.507, 37345.00
1007.618, 37504.00
1008.729, 38083.00
1009.839, 38199.00
1010.950, 38619.00
1012.060, 38536.00
1013.171, 38481.00
1014.281, 38254.00
1015.391, 37755.00
1016.500, 37544.00
1017.610, 36976.00
1018.719, 36295.00
1019.829, 35946.00
1020.938, 35743.00
1022.047, 35751.00
1023.156, 35415.00
1024.264, 35405.00
1025.373, 35144.00
1026.481, 35236.00
1027.589, 35235.00
1028.697, 35158.00
1029.805, 34827.00
1030.913, 35071.00
1032.020, 35042.00
1033.128, 35329.00
1034.235, 35207.00
1035.342, 35166.00
1036.449, 35008.00
1037.556, 35430.00
1038.663, 35050.00
1039.769, 35008.00
1040.875, 35370.00
1041.981, 35233.00
1043.087, 35180.00
1044.193, 35177.00
1045.299, 35407.00
1046.404, 35289.52
1047.510, 35361.00
1048.615, 35378.00
1049.720, 35122.00
1050.825, 35461.00
1051.930, 35117.00
1053.034, 35230.00
1054.139, 35317.00
1055.243, 35066.00
1056.347, 35495.00
1057.451, 35276.00
1058.555, 35404.00
1059.658, 35317.00
1060.762, 35619.00
1061.865, 35481.00
1062.968, 35488.00
1064.071, 35246.00
1065.174, 35442.00
1066.277, 35523.00
1067.380, 35543.00
1068.482, 35502.00
1069.584, 35496.00
1070.686, 35648.00
1071.788, 35633.00
1072.890, 35867.00
1073.992, 35913.00
1075.093, 35860.00
1076.194, 35686.00
1077.295, 35704.00
1078.396, 35711.00
1079.497, 36246.00
1080.598, 35931.00
1081.698, 36132.00
1082.799, 36293.00
1083.899, 35885.00
1084.999, 36083.00
1086.099, 35995.00
1087.199, 36334.00
1088.298, 35985.00
1089.398, 36209.00
1090.497, 36035.00
1091.596, 36183.00
1092.695, 36364.00
1093.794, 36382.00
1094.892, 36370.00
1095.991, 36356.00
1097.089, 36375.00
1098.187, 36424.00
1099.285, 36371.00
1100.383, 36537.00
1101.481, 36547.00
1102.579, 36614.00
1103.676, 36342.00
1104.773, 36338.00
1105.870, 36572.00
1106.967, 36752.00
1108.064, 36370.00
1109.161, 36568.00
1110.257, 36724.00
1111.353, 36525.00
1112.449, 36622.00
1113.545, 36858.00
1114.641, 36504.00
1115.737, 36793.00
1116.832, 36771.00
1117.928, 36803.00
1119.023, 36678.00
1120.118, 37100.00
1121.213, 37108.00
1122.308, 37077.00
1123.402, 37132.00
1124.497, 36957.00
1125.591, 37105.00
1126.685, 36859.00
1127.779, 37317.00
1128.873, 37361.00
1129.967, 37266.00
1131.060, 37072.00
1132.153, 37495.00
1133.247, 37400.00
1134.340, 37378.00
1135.433, 37652.00
1136.525, 37463.00
1137.618, 37547.00
1138.710, 37348.00
1139.802, 37397.00
1140.895, 37191.00
1141.987, 37893.00
1143.078, 37514.00
1144.170, 37623.00
1145.261, 37769.00
1146.353, 37626.00
1147.444, 37582.00
1148.535, 37866.00
1149.626, 37398.00
1150.716, 37999.00
1151.807, 37932.00
1152.897, 37846.00
1153.988, 37669.00
1155.078, 37833.00
1156.168, 37624.00
1157.257, 37846.00
1158.347, 37986.00
1159.436, 37968.00
1160.526, 37914.00
1161.615, 38040.00
1162.704, 38064.00
1163.793, 38246.00
1164.881, 38310.00
1165.970, 37924.00
1167.058, 38348.00
1168.147, 38046.00
1169.235, 38167.00
1170.323, 38292.00
1171.410, 38312.00
1172.498, 38433.00
1173.585, 38593.00
1174.673, 38339.00
1175.760, 38205.00
1176.847, 38343.00
1177.934, 38551.00
1179.020, 38555.00
1180.107, 38558.00
1181.193, 38456.00
1182.279, 38867.00
1183.365, 38359.00
1184.451, 38664.00
1185.537, 38930.00
1186.623, 38585.00
1187.708, 38985.00
1188.793, 38896.00
1189.878, 39111.00
1190.963, 39179.00
1192.048, 38700.00
1193.133, 38933.00
1194.217, 38979.00
1195.302, 38903.00
1196.386, 39077.00
1197.470, 39041.64
1198.554, 38926.00
1199.638, 39162.00
1200.721, 39098.00
1201.805, 39316.00
1202.888, 39509.00
1203.971, 39318.00
1205.054, 39324.00
1206.137, 39399.00
1207.219, 39365.00
1208.302, 39346.00
1209.384, 39415.18
1210.466, 39623.00
1211.548, 39436.00
1212.630, 39718.00
1213.712, 39572.00
1214.794, 39420.00
1215.875, 39618.00
1216.956, 39805.00
1218.037, 39719.00
1219.118, 39779.00
1220.199, 39967.00
1221.280, 39671.00
1222.360, 39816.00
1223.441, 39743.00
1224.521, 40013.00
1225.601, 39910.00
1226.681, 40188.00
1227.760, 39978.00
1228.840, 39925.00
1229.919, 40057.00
1230.999, 40140.00
1232.078, 40033.00
1233.157, 40461.00
1234.236, 40306.00
1235.314, 40370.00
1236.393, 40298.00
1237.471, 40282.00
1238.549, 40413.00
1239.627, 40524.00
1240.705, 40371.00
1241.783, 40416.00
1242.860, 40839.00
1243.938, 40262.00
1245.015, 40471.00
1246.092, 40811.00
1247.169, 40562.00
1248.246, 40750.00
1249.323, 40388.00
1250.399, 40734.00
1251.475, 40659.00
1252.552, 40938.00
1253.628, 40692.00
1254.703, 40902.00
1255.779, 40723.00
1256.855, 40815.00
1257.930, 40602.00
1259.005, 40930.00
1260.080, 40834.00
1261.155, 41154.00
1262.230, 41117.00
1263.305, 41351.00
1264.379, 40968.00
1265.454, 41223.00
1266.528, 41211.00
1267.602, 41300.00
1268.676, 41676.00
1269.750, 41569.00
1270.823, 41466.00
1271.897, 41299.00
1272.970, 41588.00
1274.043, 41623.00
1275.116, 41798.00
1276.189, 41576.00
1277.261, 41522.00
1278.334, 41245.00
1279.406, 41743.00
1280.478, 41389.00
1281.550, 41563.00
1282.622, 41723.00
1283.694, 41605.00
1284.766, 41675.00
