##NAMES=Diopside
##RRUFFID=R050406
##IDEAL CHEMISTRY=CaMgSi_2_O_6_
##LOCALITY=unknown
##OWNER=RRUFF
##SOURCE=University of Arizona Mineral Museum
##DESCRIPTION=Brownish gray massive
##STATUS=The identification of this mineral has been confirmed by X-ray diffraction and chemical analysis
##URL=rruff.info/R050406
##MEASURED CHEMISTRY=(Ca_0.95_Na_0.05_)(Mg_0.75_Fe^2+^_0.18_Fe^3+^_0.05_Al_0.01_Ti_0.01_Mn^2+^_0.01_)(Si_0.98_Al_0.02_)_2_O_6_
##PIN_ID=M00407
##ORIENTATION=Laser parallel to a* (1 0 0). Fiducial mark perpendicular to laser is parallel to b [0 1 0]
116.9030, 8615.000
118.1340, 8655.000
119.3650, 8778.749
120.5960, 8937.304
121.8270, 9056.000
123.0580, 9324.000
124.2880, 9454.000
125.5190, 9628.000
126.7490, 10252.00
127.9790, 10889.00
129.2090, 11549.00
130.4390, 12516.00
131.6680, 13526.00
132.8980, 14846.00
134.1270, 16344.00
135.3560, 17674.00
136.5850, 18599.00
137.8140, 18329.00
139.0430, 17058.00
140.2710, 15707.00
141.5000, 14257.00
142.7280, 13078.00
143.9560, 12056.00
145.1840, 11205.00
146.4120, 10724.00
147.6390, 10438.00
148.8670, 10032.00
150.0940, 9848.000
151.3210, 9860.000
152.5490, 9649.000
153.7750, 9560.000
155.0020, 9638.000
156.2290, 9595.000
157.4550, 9682.000
158.6810, 9737.000
159.9080, 9809.000
161.1340, 10040.00
162.3590, 10152.00
163.5850, 10133.00
164.8110, 10214.00
166.0360, 9888.000
167.2610, 10042.00
168.4860, 9910.000
169.7110, 9987.000
170.9360, 10034.00
172.1610, 10080.00
173.3850, 10104.00
174.6100, 10324.00
175.8340, 10462.00
177.0580, 10532.00
178.2820, 10546.54
179.5050, 10525.00
180.7290, 10426.00
181.9520, 10312.00
183.1760, 10218.00
184.3990, 10121.00
185.6220, 10119.00
186.8450, 10114.00
188.0670, 9953.000
189.2900, 10168.00
190.5120, 10208.00
191.7340, 10413.00
192.9560, 10315.00
194.1780, 10422.00
195.4000, 10429.00
196.6220, 10280.00
197.8430, 10385.00
199.0640, 10502.00
200.2860, 10475.24
201.5070, 10443.57
202.7270, 10550.00
203.9480, 10289.00
205.1690, 10265.00
206.3890, 10290.00
207.6090, 10154.00
208.8290, 10203.00
210.0490, 10281.59
211.2690, 10404.00
212.4890, 10506.00
213.7080, 10645.00
214.9280, 10723.00
216.1470, 10792.00
217.3660, 10948.00
218.5850, 10984.00
219.8030, 11113.00
221.0220, 11234.00
222.2400, 11387.00
223.4590, 11369.00
224.6770, 11525.00
225.8950, 11493.00
227.1120, 11516.00
228.3300, 11674.00
229.5480, 11539.00
230.7650, 11258.00
231.9820, 11374.00
233.1990, 11211.00
234.4160, 11258.00
235.6330, 10967.00
236.8490, 10884.00
238.0660, 10766.00
239.2820, 10746.00
240.4980, 10680.83
241.7140, 10667.12
242.9300, 10648.00
244.1460, 10669.00
245.3610, 10732.00
246.5770, 10729.00
247.7920, 10970.00
249.0070, 10771.00
250.2220, 10973.00
251.4370, 10847.00
252.6510, 10620.00
253.8660, 10702.00
255.0800, 10539.00
256.2940, 10650.00
257.5080, 10858.00
258.7220, 10629.43
259.9360, 10765.00
261.1490, 10350.00
262.3630, 10336.00
263.5760, 10227.00
264.7890, 10331.00
266.0020, 10134.00
267.2150, 10151.00
268.4270, 10109.00
269.6400, 10104.00
270.8520, 10111.00
272.0640, 10023.00
273.2760, 10073.63
274.4880, 10204.00
275.7000, 10144.00
276.9120, 10254.00
278.1230, 10340.00
279.3340, 10384.00
280.5450, 10477.77
281.7560, 10538.00
282.9670, 10639.00
284.1780, 10724.00
285.3880, 10846.00
286.5980, 11032.00
287.8090, 11184.00
289.0190, 11427.00
290.2290, 11519.00
291.4380, 11752.00
292.6480, 11834.00
293.8570, 12205.00
295.0670, 12390.00
296.2760, 12668.00
297.4850, 12790.00
298.6930, 13024.00
299.9020, 13358.00
301.1110, 13632.00
302.3190, 13979.00
303.5270, 14401.00
304.7350, 14949.00
305.9430, 15482.00
307.1510, 16249.00
308.3580, 16958.00
309.5660, 18120.00
310.7730, 19106.00
311.9800, 20600.00
313.1870, 22044.00
314.3940, 23539.00
315.6010, 25409.00
316.8070, 27183.00
318.0130, 28394.00
319.2200, 29383.00
320.4260, 29648.00
321.6310, 29520.00
322.8370, 28818.00
324.0430, 27495.00
325.2480, 26297.00
326.4540, 24724.00
327.6590, 23472.00
328.8640, 22219.00
330.0680, 20800.00
331.2730, 19876.00
332.4780, 19036.00
333.6820, 18303.00
334.8860, 17675.00
336.0900, 17164.77
337.2940, 16761.59
338.4980, 16457.00
339.7010, 16301.00
340.9050, 16198.00
342.1080, 16266.00
343.3110, 16177.00
344.5140, 16243.00
345.7170, 16647.00
346.9200, 16985.00
348.1220, 17402.00
349.3240, 17657.00
350.5270, 18103.00
351.7290, 18342.00
352.9310, 18561.00
354.1320, 18386.00
355.3340, 18127.00
356.5350, 18006.00
357.7370, 17668.00
358.9380, 17472.00
360.1390, 17432.00
361.3400, 17235.00
362.5400, 17186.00
363.7410, 17253.00
364.9410, 17113.00
366.1410, 17072.00
367.3410, 16963.00
368.5410, 16984.00
369.7410, 17171.00
370.9400, 17478.00
372.1400, 17884.00
373.3390, 18439.00
374.5380, 19096.00
375.7370, 20116.00
376.9360, 21511.00
378.1350, 23099.00
379.3330, 24848.00
380.5310, 26941.00
381.7300, 28980.00
382.9280, 30830.00
384.1260, 32586.00
385.3230, 34004.00
386.5210, 34181.00
387.7180, 33543.00
388.9160, 31574.00
390.1130, 29405.00
391.3100, 27089.00
392.5060, 24562.00
393.7030, 22270.00
394.9000, 20420.00
396.0960, 18591.00
397.2920, 17414.00
398.4880, 16149.00
399.6840, 15101.00
400.8800, 14405.00
402.0750, 13891.00
403.2710, 13334.00
404.4660, 13025.00
405.6610, 12690.42
406.8560, 12492.00
408.0510, 12282.00
409.2450, 12173.00
410.4400, 12085.00
411.6340, 12001.00
412.8280, 11871.00
414.0220, 11842.00
415.2160, 11728.00
416.4100, 11683.00
417.6030, 11624.43
418.7970, 11492.00
419.9900, 11507.00
421.1830, 11517.00
422.3760, 11445.00
423.5690, 11400.00
424.7610, 11381.00
425.9540, 11311.12
427.1460, 11133.00
428.3380, 11198.00
429.5300, 11153.00
430.7220, 11088.00
431.9140, 11171.00
433.1050, 11166.00
434.2970, 11104.00
435.4880, 10987.00
436.6790, 11104.00
437.8700, 11089.00
439.0610, 11300.00
440.2510, 11109.00
441.4420, 11072.00
442.6320, 10991.00
443.8220, 11076.00
445.0120, 11170.00
446.2020, 11221.00
447.3910, 11255.37
448.5810, 11149.00
449.7700, 11305.00
450.9600, 11218.00
452.1490, 11281.00
453.3370, 11341.00
454.5260, 11304.00
455.7150, 11318.00
456.9030, 11524.00
458.0910, 11474.00
459.2800, 11515.00
460.4670, 11489.00
461.6550, 11570.00
462.8430, 11475.00
464.0300, 11544.00
465.2180, 11387.00
466.4050, 11569.00
467.5920, 11318.00
468.7790, 11372.00
469.9650, 11374.00
471.1520, 11502.00
472.3380, 11272.00
473.5250, 11358.00
474.7110, 11374.00
475.8970, 11370.00
477.0820, 11514.00
478.2680, 11405.00
479.4540, 11384.00
480.6390, 11424.00
481.8240, 11465.00
483.0090, 11484.00
484.1940, 11524.61
485.3780, 11497.00
486.5630, 11558.00
487.7470, 11556.00
488.9320, 11501.00
490.1160, 11584.00
491.3000, 11637.00
492.4830, 11594.00
493.6670, 11694.00
494.8500, 11571.00
496.0340, 11782.00
497.2170, 11776.00
498.4000, 11868.00
499.5820, 11837.00
500.7650, 11967.00
501.9480, 12011.00
503.1300, 12223.00
504.3120, 12255.00
505.4940, 12405.00
506.6760, 12369.00
507.8580, 12646.00
509.0390, 12772.00
510.2210, 12892.00
511.4020, 12883.00
512.5830, 13086.00
513.7640, 12885.00
514.9450, 13065.00
516.1250, 13049.00
517.3060, 13249.00
518.4860, 13273.00
519.6660, 13261.00
520.8460, 13493.00
522.0260, 13657.00
523.2060, 13802.00
524.3850, 13844.00
525.5650, 13930.00
526.7440, 14055.00
527.9230, 13987.00
529.1020, 13958.00
530.2810, 13850.00
531.4590, 13638.00
532.6380, 13474.00
533.8160, 13399.00
534.9940, 13510.00
536.1720, 13245.00
537.3500, 13199.00
538.5270, 13330.00
539.7050, 13108.00
540.8820, 12981.00
542.0590, 13052.00
543.2360, 13051.00
544.4130, 13056.00
545.5900, 13014.00
546.7660, 13016.00
547.9430, 12954.00
549.1190, 13053.00
550.2950, 13026.00
551.4710, 13074.00
552.6470, 13189.00
553.8220, 13076.00
554.9980, 13232.00
556.1730, 13163.00
557.3480, 13053.00
558.5230, 13129.00
559.6980, 12934.00
560.8730, 13080.00
562.0470, 12999.00
563.2220, 12948.00
564.3960, 12873.00
565.5700, 12925.00
566.7440, 12809.00
567.9170, 12769.00
569.0910, 12722.83
570.2640, 12547.00
571.4380, 12641.00
572.6110, 12575.00
573.7840, 12638.00
574.9570, 12539.00
576.1290, 12534.00
577.3020, 12551.00
578.4740, 12452.00
579.6460, 12391.98
580.8180, 12319.00
581.9900, 12259.73
583.1620, 12181.00
584.3330, 12158.00
585.5040, 12112.00
586.6760, 12062.00
587.8470, 12059.00
589.0180, 11919.00
590.1880, 11955.00
591.3590, 11864.00
592.5290, 11852.00
593.7000, 11926.00
594.8700, 11896.00
596.0400, 11872.00
597.2090, 11873.00
598.3790, 11823.00
599.5490, 11907.00
600.7180, 11749.00
601.8870, 11915.00
603.0560, 11933.00
604.2250, 11872.00
605.3940, 11839.00
606.5620, 11966.00
607.7300, 11966.00
608.8990, 11969.00
610.0670, 12194.00
611.2350, 11996.00
612.4020, 12091.00
613.5700, 12190.00
614.7370, 12177.00
615.9050, 12191.00
617.0720, 12224.00
618.2390, 12271.00
619.4060, 12333.00
620.5720, 12210.00
621.7390, 12540.00
622.9050, 12379.00
624.0710, 12500.00
625.2370, 12642.00
626.4030, 12662.00
627.5690, 12657.00
628.7340, 12791.00
629.9000, 12846.81
631.0650, 13096.00
632.2300, 13094.00
633.3950, 13292.00
634.5600, 13496.00
635.7240, 13458.00
636.8890, 13661.00
638.0530, 13779.00
639.2170, 14026.00
640.3810, 14247.00
641.5450, 14443.50
642.7080, 14709.34
643.8720, 14944.00
645.0350, 15276.00
646.1980, 15650.00
647.3610, 16070.00
648.5240, 16693.00
649.6870, 17443.00
650.8490, 18144.00
652.0120, 19261.00
653.1740, 20614.00
654.3360, 22533.00
655.4980, 24609.00
656.6600, 27192.00
657.8210, 30184.00
658.9830, 33231.00
660.1440, 36849.00
661.3050, 40236.00
662.4660, 42755.00
663.6270, 44376.00
664.7870, 43736.00
665.9480, 42347.00
667.1080, 40132.00
668.2680, 36931.00
669.4280, 33151.00
670.5880, 29983.00
671.7480, 27197.00
672.9070, 24756.00
674.0670, 22858.00
675.2260, 21149.00
676.3850, 19722.00
677.5440, 18811.00
678.7030, 17754.00
679.8610, 17098.00
681.0200, 16443.00
682.1780, 15960.00
683.3360, 15825.00
684.4940, 15375.00
685.6520, 15137.00
686.8090, 14989.00
687.9670, 14550.00
689.1240, 14492.00
690.2810, 14523.00
691.4380, 14334.00
692.5950, 14189.00
693.7520, 14087.00
694.9080, 13938.00
696.0650, 13940.00
697.2210, 13971.00
698.3770, 13969.00
699.5330, 13971.00
700.6880, 13964.27
701.8440, 13936.80
702.9990, 13899.00
704.1550, 13897.00
705.3100, 13798.00
706.4650, 13829.00
707.6190, 13781.00
708.7740, 13523.00
709.9290, 13652.00
711.0830, 13541.00
712.2370, 13573.00
713.3910, 13590.00
714.5450, 13676.00
715.6980, 13435.00
716.8520, 13475.00
718.0050, 13380.00
719.1580, 13331.00
720.3110, 13338.00
721.4640, 13305.00
722.6170, 13358.00
723.7700, 13303.00
724.9220, 13254.00
726.0740, 13252.00
727.2260, 13189.00
728.3780, 13139.00
729.5300, 13242.00
730.6810, 13192.00
731.8330, 13164.00
732.9840, 13053.00
734.1350, 13007.00
735.2860, 13260.00
736.4370, 13183.00
737.5880, 13164.00
738.7380, 13295.00
739.8880, 13280.00
741.0390, 13248.00
742.1890, 13204.00
743.3380, 13319.00
744.4880, 13372.00
745.6380, 13322.00
746.7870, 13337.00
747.9360, 13325.00
749.0850, 13384.00
750.2340, 13324.00
751.3830, 13463.00
752.5310, 13514.00
753.6800, 13392.00
754.8280, 13601.00
755.9760, 13458.00
757.1240, 13484.00
758.2720, 13372.00
759.4190, 13633.00
760.5670, 13511.00
761.7140, 13523.00
762.8610, 13495.00
764.0080, 13486.00
765.1550, 13521.00
766.3020, 13731.00
767.4480, 13693.00
768.5950, 13678.00
769.7410, 13698.00
770.8870, 13561.00
772.0330, 13676.00
773.1780, 13744.00
774.3240, 13619.00
775.4690, 13754.00
776.6140, 13769.00
777.7590, 13771.00
778.9040, 13722.00
780.0490, 13654.00
781.1940, 13731.00
782.3380, 13763.00
783.4820, 13821.00
784.6260, 13852.00
785.7700, 13851.00
786.9140, 13874.15
788.0580, 13873.14
789.2010, 13871.00
790.3450, 13860.00
791.4880, 13845.00
792.6310, 13821.00
793.7730, 13893.00
794.9160, 13800.00
796.0590, 13828.12
797.2010, 13932.00
798.3430, 13807.00
799.4850, 13884.00
800.6270, 13863.00
801.7690, 14012.00
802.9100, 14089.00
804.0520, 14044.00
805.1930, 14078.00
806.3340, 14007.00
807.4750, 14087.00
808.6160, 14082.00
809.7560, 14106.00
810.8970, 14173.00
812.0370, 14029.00
813.1770, 14118.00
814.3170, 14128.00
815.4570, 14264.00
816.5960, 14233.00
817.7360, 14155.00
818.8750, 14404.00
820.0140, 14259.00
821.1530, 14380.00
822.2920, 14567.00
823.4310, 14314.00
824.5690, 14536.00
825.7070, 14412.00
826.8460, 14634.00
827.9840, 14597.00
829.1220, 14620.00
830.2590, 14607.00
831.3970, 14638.00
832.5340, 14558.00
833.6710, 14624.76
834.8080, 14590.00
835.9450, 14699.00
837.0820, 14710.00
838.2190, 14711.00
839.3550, 14796.00
840.4910, 14818.00
841.6270, 14998.00
842.7630, 14986.00
843.8990, 14973.00
845.0350, 15469.00
846.1700, 15699.00
847.3060, 15837.00
848.4410, 16146.00
849.5760, 16576.00
850.7100, 16956.00
851.8450, 17170.00
852.9800, 17425.00
854.1140, 17658.00
855.2480, 17538.00
856.3820, 17511.00
857.5160, 17261.00
858.6500, 17267.00
859.7830, 16805.00
860.9170, 16922.00
862.0500, 16692.00
863.1830, 16649.00
864.3160, 16416.00
865.4480, 16409.00
866.5810, 16383.00
867.7130, 16195.00
868.8460, 16194.00
869.9780, 16160.00
871.1100, 16204.00
872.2410, 16279.00
873.3730, 16063.00
874.5050, 16336.00
875.6360, 16253.00
876.7670, 16413.00
877.8980, 16349.00
879.0290, 16403.00
880.1590, 16420.00
881.2900, 16475.00
882.4200, 16543.00
883.5500, 16655.00
884.6800, 16660.78
885.8100, 16624.00
886.9400, 16717.00
888.0690, 16722.00
889.1990, 16790.00
890.3280, 16853.00
891.4570, 16625.00
892.5860, 16713.00
893.7140, 16774.00
894.8430, 16667.00
895.9710, 16808.00
897.1000, 16680.00
898.2280, 16830.00
899.3560, 16665.00
900.4830, 16571.00
901.6110, 16629.00
902.7380, 16577.31
903.8660, 16627.00
904.9930, 16637.00
906.1200, 16661.00
907.2460, 16674.00
908.3730, 16648.00
909.5000, 16612.00
910.6260, 16583.00
911.7520, 16803.00
912.8780, 16786.00
914.0040, 16800.00
915.1290, 16700.00
916.2550, 16910.00
917.3800, 16719.00
918.5050, 16884.00
919.6300, 16650.00
920.7550, 16753.00
921.8800, 16743.00
923.0040, 16708.00
924.1290, 16761.00
925.2530, 16737.20
926.3770, 16753.83
927.5010, 16732.00
928.6250, 16754.00
929.7480, 16734.00
930.8720, 16676.21
931.9950, 16664.65
933.1180, 16585.00
934.2410, 16613.00
935.3640, 16500.00
936.4860, 16522.00
937.6090, 16692.00
938.7310, 16618.00
939.8530, 16604.00
940.9750, 16555.00
942.0970, 16731.00
943.2180, 16616.00
944.3400, 16600.00
945.4610, 16714.00
946.5820, 16509.00
947.7030, 16936.00
948.8240, 16865.00
949.9450, 16934.00
951.0650, 17033.00
952.1860, 17207.00
953.3060, 17212.00
954.4260, 17207.00
955.5460, 17305.00
956.6650, 17317.24
957.7850, 17483.00
958.9040, 17430.00
960.0230, 17514.00
961.1420, 17604.00
962.2610, 17529.00
963.3800, 17815.00
964.4990, 17929.00
965.6170, 17763.00
966.7350, 17950.00
967.8530, 17974.00
968.9710, 18140.00
970.0890, 18194.00
971.2070, 18283.00
972.3240, 18362.00
973.4410, 18494.00
974.5580, 18515.00
975.6750, 18493.00
976.7920, 18687.00
977.9090, 18821.00
979.0250, 18981.00
980.1410, 18931.00
981.2580, 19124.00
982.3740, 19051.00
983.4890, 19247.00
984.6050, 19712.00
985.7200, 19715.00
986.8360, 19925.00
987.9510, 20029.00
989.0660, 20265.00
990.1810, 20520.00
991.2950, 21008.89
992.4100, 21550.00
993.5240, 22225.00
994.6390, 22919.00
995.7530, 23692.00
996.8660, 24557.00
997.9800, 25764.00
999.0940, 27240.00
1000.207, 28831.00
1001.320, 31116.00
1002.433, 33364.00
1003.546, 36728.00
1004.659, 40229.00
1005.772, 45066.00
1006.884, 49654.00
1007.996, 54861.00
1009.108, 60166.00
1010.220, 63726.00
1011.332, 65227.00
1012.444, 64311.00
1013.555, 61118.00
1014.666, 55597.00
1015.777, 50020.00
1016.888, 43984.00
1017.999, 39251.00
1019.110, 34910.00
1020.220, 31677.00
1021.331, 29310.00
1022.441, 27358.00
1023.551, 26061.00
1024.661, 24731.00
1025.770, 23806.00
1026.880, 23223.00
1027.989, 22739.00
1029.098, 22316.00
1030.207, 21896.00
1031.316, 21791.00
1032.425, 21420.00
1033.533, 21505.00
1034.642, 21402.00
1035.750, 21383.00
1036.858, 21251.00
1037.966, 21216.00
1039.073, 21410.00
1040.181, 21242.00
1041.288, 21085.00
1042.396, 21300.00
1043.503, 21146.00
1044.610, 21134.00
1045.716, 20807.00
1046.823, 20695.00
1047.929, 20601.00
1049.036, 20354.00
1050.142, 20257.00
1051.248, 19991.00
1052.353, 20122.00
1053.459, 19949.00
1054.564, 19864.00
1055.670, 19874.00
1056.775, 19560.00
1057.880, 19526.00
1058.985, 19653.00
1060.089, 19404.00
1061.194, 19588.00
1062.298, 19316.00
1063.402, 19461.00
1064.506, 19134.00
1065.610, 19176.00
1066.713, 19014.00
1067.817, 19194.00
1068.920, 19051.00
1070.023, 19075.00
1071.126, 18833.00
1072.229, 18896.00
1073.332, 18745.00
1074.435, 18722.00
1075.537, 18879.00
1076.639, 18836.00
1077.741, 18702.00
1078.843, 18917.00
1079.945, 18673.00
1081.046, 18541.00
1082.148, 18811.00
1083.249, 18763.00
1084.350, 18662.00
1085.451, 18695.00
1086.551, 18768.00
1087.652, 18601.00
1088.752, 18565.00
1089.853, 18707.00
1090.953, 18697.00
1092.053, 18583.00
1093.152, 18714.00
1094.252, 18621.00
1095.351, 18813.00
1096.451, 18601.00
1097.550, 18716.00
1098.649, 18482.00
1099.748, 18578.00
1100.846, 18454.00
1101.945, 18468.00
1103.043, 18370.00
1104.141, 18553.00
1105.239, 18544.00
1106.337, 18624.00
1107.434, 18516.00
1108.532, 18587.00
1109.629, 18478.00
1110.726, 18531.00
1111.823, 18702.00
1112.920, 18660.00
1114.017, 18567.00
1115.113, 18733.00
1116.210, 18712.00
1117.306, 18859.00
1118.402, 18937.00
1119.498, 18784.00
1120.593, 18733.00
1121.689, 18919.00
1122.784, 18888.00
1123.879, 18842.00
1124.974, 18952.00
1126.069, 19095.00
1127.164, 18781.00
1128.259, 18633.00
1129.353, 18695.00
1130.447, 18911.00
1131.541, 18761.00
1132.635, 18740.00
1133.729, 18789.00
1134.822, 18824.00
1135.916, 18738.70
1137.009, 18554.00
1138.102, 18526.00
1139.195, 18566.00
1140.288, 18375.00
1141.380, 18562.00
1142.473, 18512.00
1143.565, 18500.00
1144.657, 18399.00
1145.749, 18514.00
1146.841, 18481.00
1147.932, 18266.00
1149.024, 18354.00
1150.115, 18357.00
1151.206, 18268.00
1152.297, 18235.00
1153.388, 18214.54
1154.479, 18287.00
1155.569, 18157.00
1156.659, 18241.00
1157.750, 18191.00
1158.839, 18188.00
1159.929, 18414.00
1161.019, 18295.00
1162.108, 18417.00
1163.198, 18286.00
1164.287, 18178.00
1165.376, 18415.00
1166.465, 18285.00
1167.553, 18481.00
1168.642, 18391.00
1169.730, 18454.00
1170.818, 18363.00
1171.906, 18382.00
1172.994, 18505.00
1174.082, 18354.00
1175.170, 18324.00
1176.257, 18488.00
1177.344, 18344.00
1178.431, 18408.00
1179.518, 18636.00
1180.605, 18466.00
1181.691, 18432.00
1182.778, 18555.00
1183.864, 18536.00
1184.950, 18599.00
1186.036, 18588.00
1187.122, 18575.00
1188.207, 18540.00
1189.292, 18451.00
1190.378, 18505.00
1191.463, 18621.00
1192.548, 18664.00
1193.632, 18828.79
1194.717, 19061.00
1195.801, 19152.00
1196.886, 19321.00
1197.970, 19470.00
1199.054, 19452.00
1200.137, 19121.00
1201.221, 18702.00
1202.305, 18943.00
1203.388, 18655.00
1204.471, 18846.00
1205.554, 18906.00
1206.637, 19042.00
1207.719, 18820.00
1208.802, 18901.00
1209.884, 18799.00
1210.966, 18968.00
1212.048, 18942.00
1213.130, 19009.00
1214.212, 18995.00
1215.293, 18888.00
1216.374, 19032.00
1217.456, 18940.00
1218.536, 18971.00
1219.617, 19003.00
1220.698, 19013.00
1221.778, 19100.00
1222.859, 19124.00
1223.939, 19027.00
1225.019, 19106.00
1226.099, 19103.00
1227.178, 19079.00
1228.258, 19127.00
1229.337, 19173.00
1230.417, 19078.00
1231.496, 19098.00
1232.574, 19218.00
1233.653, 19013.00
1234.732, 19290.00
1235.810, 19239.00
1236.888, 19270.00
1237.966, 19226.00
1239.044, 19336.00
1240.122, 19137.00
1241.199, 19239.00
1242.277, 19211.00
1243.354, 19334.00
1244.431, 19314.00
1245.508, 19444.00
1246.585, 19452.11
1247.661, 19430.00
1248.738, 19488.00
1249.814, 19476.71
1250.890, 19485.89
1251.966, 19508.00
1253.042, 19491.00
1254.117, 19530.00
1255.193, 19529.00
1256.268, 19573.00
1257.343, 19529.00
1258.418, 19497.00
1259.493, 19548.67
1260.567, 19525.00
1261.642, 19620.00
1262.716, 19590.00
1263.790, 19606.00
1264.864, 19683.00
1265.938, 19694.00
1267.011, 19726.00
1268.085, 19767.00
1269.158, 19690.00
1270.231, 19773.00
1271.304, 19729.00
1272.377, 19683.00
1273.450, 19701.00
1274.522, 19661.00
1275.594, 19807.00
1276.666, 19641.00
1277.738, 19752.00
1278.810, 19889.00
1279.882, 19763.00
1280.953, 19817.00
1282.025, 19745.00
1283.096, 19714.82
1284.167, 19746.63
1285.238, 19713.00
1286.308, 19771.00
1287.379, 19891.00
1288.449, 19885.00
1289.519, 19847.00
1290.589, 20037.00
1291.659, 19961.00
1292.729, 19927.00
1293.798, 20102.00
