##NAMES=Diopside
##RRUFFID=R050666
##IDEAL CHEMISTRY=CaMgSi_2_O_6_
##LOCALITY=Franklin, Sussex County, New Jersey, USA
##OWNER=RRUFF
##SOURCE=University of Arizona Mineral Museum
##DESCRIPTION=Brown cleavage fragment with white hardystonite
##STATUS=The identification of this mineral has been confirmed by X-ray diffraction and chemical analysis
##URL=rruff.info/R050666
##MEASURED CHEMISTRY=Ca(Mg_0.66_Mn_0.33_Fe_0.01_)Si_2_O_6_
##PIN_ID=L01400
##ORIENTATION=Laser parallel to -a* (-1 0 0). Fiducial mark perpendicular to laser is parallel to -b [0 -1 0]
129.2090, 31129.00
130.4390, 31662.00
131.6680, 31870.00
132.8980, 32472.00
134.1270, 32837.00
135.3560, 32571.00
136.5850, 32261.00
137.8140, 31739.00
139.0430, 31598.00
140.2710, 31397.00
141.5000, 31182.00
142.7280, 31144.00
143.9560, 31107.00
145.1840, 30953.00
146.4120, 30981.00
147.6390, 31217.00
148.8670, 31386.00
150.0940, 31203.00
151.3210, 31491.00
152.5490, 31532.00
153.7750, 31291.00
155.0020, 31168.00
156.2290, 31577.00
157.4550, 31500.00
158.6810, 31500.00
159.9080, 31373.00
161.1340, 31416.04
162.3590, 31406.00
163.5850, 31534.00
164.8110, 31654.00
166.0360, 31857.00
167.2610, 31735.00
168.4860, 31743.00
169.7110, 32024.00
170.9360, 32302.00
172.1610, 32142.00
173.3850, 32322.00
174.6100, 32175.00
175.8340, 32447.00
177.0580, 32460.00
178.2820, 32330.00
179.5050, 32249.00
180.7290, 32408.00
181.9520, 32472.00
183.1760, 32495.79
184.3990, 32503.00
185.6220, 32583.00
186.8450, 32674.00
188.0670, 32687.00
189.2900, 32686.00
190.5120, 32862.00
191.7340, 32955.00
192.9560, 32903.00
194.1780, 32917.00
195.4000, 32862.00
196.6220, 33054.00
197.8430, 33272.00
199.0640, 33395.00
200.2860, 33447.00
201.5070, 33416.00
202.7270, 33512.00
203.9480, 33672.00
205.1690, 33306.00
206.3890, 33009.00
207.6090, 33363.00
208.8290, 33376.00
210.0490, 33348.00
211.2690, 33461.00
212.4890, 33434.00
213.7080, 33382.00
214.9280, 33510.00
216.1470, 33348.00
217.3660, 33407.00
218.5850, 33524.00
219.8030, 33606.00
221.0220, 33784.00
222.2400, 33588.00
223.4590, 33648.00
224.6770, 33758.00
225.8950, 33456.00
227.1120, 33809.00
228.3300, 33910.00
229.5480, 34065.00
230.7650, 34004.00
231.9820, 34144.00
233.1990, 34405.00
234.4160, 34471.00
235.6330, 34261.00
236.8490, 34503.00
238.0660, 34237.00
239.2820, 34302.00
240.4980, 34330.00
241.7140, 34351.00
242.9300, 34422.00
244.1460, 34442.00
245.3610, 34477.80
246.5770, 34520.21
247.7920, 34499.00
249.0070, 34610.00
250.2220, 34548.00
251.4370, 34631.00
252.6510, 34376.00
253.8660, 34613.00
255.0800, 34622.00
256.2940, 34705.00
257.5080, 34881.00
258.7220, 34818.66
259.9360, 34808.56
261.1490, 34846.00
262.3630, 34811.03
263.5760, 34811.00
264.7890, 34828.00
266.0020, 34765.00
267.2150, 34818.00
268.4270, 35049.00
269.6400, 35127.00
270.8520, 35107.78
272.0640, 35078.00
273.2760, 35095.00
274.4880, 34982.00
275.7000, 35149.00
276.9120, 35162.00
278.1230, 35425.00
279.3340, 35139.00
280.5450, 35233.00
281.7560, 35311.00
282.9670, 35465.00
284.1780, 35595.00
285.3880, 35534.00
286.5980, 35434.00
287.8090, 35689.00
289.0190, 35653.00
290.2290, 35873.00
291.4380, 35783.00
292.6480, 35784.00
293.8570, 35809.00
295.0670, 35878.70
296.2760, 35973.00
297.4850, 36175.00
298.6930, 36341.00
299.9020, 36624.00
301.1110, 36715.00
302.3190, 36941.00
303.5270, 37250.00
304.7350, 37356.00
305.9430, 37875.00
307.1510, 38270.00
308.3580, 38516.00
309.5660, 38932.00
310.7730, 39125.00
311.9800, 39635.00
313.1870, 39947.00
314.3940, 40210.00
315.6010, 40239.42
316.8070, 40371.00
318.0130, 39928.00
319.2200, 39721.00
320.4260, 39276.00
321.6310, 39079.00
322.8370, 38747.00
324.0430, 38524.00
325.2480, 38241.00
326.4540, 38144.00
327.6590, 38142.00
328.8640, 37921.00
330.0680, 38058.00
331.2730, 37693.00
332.4780, 37871.00
333.6820, 37948.00
334.8860, 37802.00
336.0900, 38033.00
337.2940, 37929.00
338.4980, 38132.00
339.7010, 38265.00
340.9050, 38320.00
342.1080, 38408.00
343.3110, 38750.00
344.5140, 38944.00
345.7170, 39219.00
346.9200, 39325.00
348.1220, 39428.00
349.3240, 39254.00
350.5270, 39194.00
351.7290, 39251.00
352.9310, 39124.00
354.1320, 38984.00
355.3340, 38747.00
356.5350, 38540.00
357.7370, 38731.00
358.9380, 38604.00
360.1390, 38073.00
361.3400, 38269.00
362.5400, 38306.00
363.7410, 38304.00
364.9410, 38411.00
366.1410, 38642.00
367.3410, 38581.00
368.5410, 38991.00
369.7410, 39017.00
370.9400, 39040.00
372.1400, 39364.00
373.3390, 39880.00
374.5380, 40377.00
375.7370, 40889.00
376.9360, 41466.00
378.1350, 41975.00
379.3330, 42798.00
380.5310, 42955.00
381.7300, 43589.00
382.9280, 43818.00
384.1260, 43305.00
385.3230, 43104.00
386.5210, 42471.00
387.7180, 41357.00
388.9160, 40724.00
390.1130, 40054.00
391.3100, 39553.00
392.5060, 39223.00
393.7030, 38748.00
394.9000, 38592.00
396.0960, 38587.00
397.2920, 38538.00
398.4880, 38122.00
399.6840, 38224.00
400.8800, 38034.00
402.0750, 38035.00
403.2710, 38028.00
404.4660, 38126.00
405.6610, 38087.00
406.8560, 38052.00
408.0510, 38066.59
409.2450, 38304.00
410.4400, 38023.00
411.6340, 37911.00
412.8280, 37886.00
414.0220, 38127.00
415.2160, 38155.00
416.4100, 38144.00
417.6030, 37994.00
418.7970, 38090.00
419.9900, 38148.00
421.1830, 38111.00
422.3760, 38068.00
423.5690, 38204.00
424.7610, 37929.00
425.9540, 38186.00
427.1460, 38014.00
428.3380, 38185.00
429.5300, 38145.00
430.7220, 38256.00
431.9140, 38210.00
433.1050, 38196.00
434.2970, 38364.00
435.4880, 38289.00
436.6790, 38102.00
437.8700, 38400.00
439.0610, 38576.00
440.2510, 38416.00
441.4420, 38443.00
442.6320, 38369.00
443.8220, 38474.00
445.0120, 38403.00
446.2020, 38482.00
447.3910, 38587.00
448.5810, 38604.00
449.7700, 38613.00
450.9600, 38566.00
452.1490, 38572.00
453.3370, 38518.00
454.5260, 38511.00
455.7150, 38491.00
456.9030, 38529.75
458.0910, 38725.00
459.2800, 38698.00
460.4670, 38587.00
461.6550, 38780.00
462.8430, 38570.00
464.0300, 38690.00
465.2180, 38516.00
466.4050, 38624.00
467.5920, 38680.00
468.7790, 38833.00
469.9650, 38726.00
471.1520, 38584.00
472.3380, 38517.00
473.5250, 38881.00
474.7110, 38763.00
475.8970, 38968.00
477.0820, 38728.00
478.2680, 38671.00
479.4540, 38743.00
480.6390, 38708.00
481.8240, 38888.00
483.0090, 38936.00
484.1940, 38913.00
485.3780, 38919.00
486.5630, 38765.00
487.7470, 38900.00
488.9320, 38896.00
490.1160, 38924.00
491.3000, 39093.00
492.4830, 38890.00
493.6670, 39099.00
494.8500, 39265.00
496.0340, 39210.00
497.2170, 39267.00
498.4000, 40184.00
499.5820, 40247.00
500.7650, 39430.00
501.9480, 39979.00
503.1300, 39584.00
504.3120, 39802.00
505.4940, 39607.00
506.6760, 39449.00
507.8580, 39435.00
509.0390, 39374.00
510.2210, 39249.00
511.4020, 39286.70
512.5830, 39523.00
513.7640, 39317.00
514.9450, 39440.00
516.1250, 39483.00
517.3060, 39418.00
518.4860, 39534.00
519.6660, 39552.59
520.8460, 39718.00
522.0260, 39734.00
523.2060, 39587.00
524.3850, 39791.00
525.5650, 39698.00
526.7440, 39666.00
527.9230, 39621.00
529.1020, 39756.00
530.2810, 39446.00
531.4590, 39815.00
532.6380, 39426.00
533.8160, 39474.00
534.9940, 39504.00
536.1720, 39610.00
537.3500, 39543.03
538.5270, 39349.00
539.7050, 39422.00
540.8820, 39414.00
542.0590, 39343.00
543.2360, 39342.00
544.4130, 39418.03
545.5900, 39481.95
546.7660, 39630.00
547.9430, 39747.00
549.1190, 39882.00
550.2950, 40052.00
551.4710, 39897.00
552.6470, 40139.00
553.8220, 40516.00
554.9980, 40341.00
556.1730, 40107.00
557.3480, 40276.00
558.5230, 40103.00
559.6980, 40000.00
560.8730, 39831.00
562.0470, 39772.00
563.2220, 39797.00
564.3960, 39581.00
565.5700, 39467.00
566.7440, 39780.00
567.9170, 39595.00
569.0910, 39719.00
570.2640, 39688.02
571.4380, 39461.00
572.6110, 39499.00
573.7840, 39376.00
574.9570, 39142.00
576.1290, 39511.00
577.3020, 39478.00
578.4740, 39249.00
579.6460, 39207.00
580.8180, 39180.00
581.9900, 39394.00
583.1620, 39426.00
584.3330, 39342.00
585.5040, 39422.00
586.6760, 39132.00
587.8470, 39296.00
589.0180, 39049.00
590.1880, 39339.00
591.3590, 39445.00
592.5290, 39204.00
593.7000, 39500.00
594.8700, 39334.00
596.0400, 39282.00
597.2090, 39319.00
598.3790, 39266.99
599.5490, 39283.64
600.7180, 39329.00
601.8870, 39316.00
603.0560, 39396.00
604.2250, 39441.00
605.3940, 39398.00
606.5620, 39563.00
607.7300, 39357.00
608.8990, 39470.00
610.0670, 39438.00
611.2350, 39569.00
612.4020, 39435.00
613.5700, 39567.00
614.7370, 39236.00
615.9050, 39395.00
617.0720, 39467.00
618.2390, 39334.00
619.4060, 39427.00
620.5720, 39351.00
621.7390, 39670.00
622.9050, 39643.00
624.0710, 39327.00
625.2370, 39661.00
626.4030, 39894.00
627.5690, 39625.00
628.7340, 39703.00
629.9000, 39616.00
631.0650, 39703.00
632.2300, 39691.00
633.3950, 39732.00
634.5600, 39895.00
635.7240, 39734.00
636.8890, 39740.00
638.0530, 39883.00
639.2170, 39927.97
640.3810, 40170.00
641.5450, 40242.00
642.7080, 40195.00
643.8720, 40338.00
645.0350, 40677.00
646.1980, 40840.00
647.3610, 41117.00
648.5240, 41664.00
649.6870, 42047.00
650.8490, 42530.00
652.0120, 43364.00
653.1740, 44214.00
654.3360, 44872.00
655.4980, 46022.00
656.6600, 46794.00
657.8210, 47916.00
658.9830, 48592.00
660.1440, 49025.00
661.3050, 49077.00
662.4660, 48330.00
663.6270, 47422.00
664.7870, 46416.00
665.9480, 45435.00
667.1080, 44289.00
668.2680, 43322.00
669.4280, 42454.00
670.5880, 41994.00
671.7480, 41417.00
672.9070, 41373.00
674.0670, 40932.00
675.2260, 40760.00
676.3850, 40369.00
677.5440, 40475.00
678.7030, 40262.00
679.8610, 39820.00
681.0200, 39818.00
682.1780, 39986.00
683.3360, 39799.00
684.4940, 39738.00
685.6520, 39850.00
686.8090, 39647.00
687.9670, 39632.00
689.1240, 39602.00
690.2810, 39282.00
691.4380, 39359.00
692.5950, 39489.00
693.7520, 39340.00
694.9080, 39503.00
696.0650, 39466.00
697.2210, 39327.00
698.3770, 39425.00
699.5330, 39346.00
700.6880, 39378.00
701.8440, 39359.00
702.9990, 39329.00
704.1550, 39351.00
705.3100, 39354.70
706.4650, 39277.00
707.6190, 39317.00
708.7740, 39287.00
709.9290, 39082.00
711.0830, 39070.00
712.2370, 39038.00
713.3910, 38910.00
714.5450, 38884.00
715.6980, 38957.00
716.8520, 38949.00
718.0050, 38900.38
719.1580, 38818.00
720.3110, 38868.00
721.4640, 38871.00
722.6170, 39052.00
723.7700, 39001.00
724.9220, 38956.00
726.0740, 38730.00
727.2260, 38857.00
728.3780, 38677.00
729.5300, 38766.00
730.6810, 38750.00
731.8330, 38693.00
732.9840, 38962.00
734.1350, 38946.00
735.2860, 38816.00
736.4370, 38789.00
737.5880, 38649.00
738.7380, 38621.71
739.8880, 38717.00
741.0390, 38602.00
742.1890, 38663.00
743.3380, 38768.00
744.4880, 38467.00
745.6380, 38831.00
746.7870, 38877.00
747.9360, 38635.00
749.0850, 38853.00
750.2340, 38676.00
751.3830, 38702.00
752.5310, 38580.00
753.6800, 38778.00
754.8280, 38449.00
755.9760, 38498.00
757.1240, 38658.00
758.2720, 38596.00
759.4190, 38841.00
760.5670, 38590.00
761.7140, 38607.00
762.8610, 38843.00
764.0080, 38576.00
765.1550, 38850.00
766.3020, 38428.00
767.4480, 38363.00
768.5950, 38493.00
769.7410, 38400.00
770.8870, 38417.25
772.0330, 38447.05
773.1780, 38363.00
774.3240, 38504.00
775.4690, 38436.00
776.6140, 38529.00
777.7590, 38541.00
778.9040, 38423.00
780.0490, 38518.00
781.1940, 38399.00
782.3380, 38291.00
783.4820, 38307.00
784.6260, 38239.00
785.7700, 38274.54
786.9140, 38283.71
788.0580, 38385.00
789.2010, 38327.00
790.3450, 38403.00
791.4880, 38396.00
792.6310, 38370.00
793.7730, 38313.00
794.9160, 38192.00
796.0590, 38405.00
797.2010, 38203.00
798.3430, 38092.00
799.4850, 38498.00
800.6270, 38137.00
801.7690, 38236.00
802.9100, 38143.00
804.0520, 38261.00
805.1930, 38333.00
806.3340, 37979.00
807.4750, 38215.00
808.6160, 37887.00
809.7560, 38144.00
810.8970, 38321.00
812.0370, 38381.00
813.1770, 38028.00
814.3170, 37923.00
815.4570, 38313.00
816.5960, 38110.00
817.7360, 38283.00
818.8750, 38007.00
820.0140, 38015.00
821.1530, 37968.00
822.2920, 37886.00
823.4310, 37891.00
824.5690, 37750.00
825.7070, 37886.00
826.8460, 37900.23
827.9840, 38076.00
829.1220, 38051.00
830.2590, 38121.00
831.3970, 38142.00
832.5340, 37950.00
833.6710, 38175.00
834.8080, 38212.00
835.9450, 38071.00
837.0820, 38139.00
838.2190, 37995.00
839.3550, 38065.00
840.4910, 37900.00
841.6270, 38156.00
842.7630, 38500.00
843.8990, 38373.00
845.0350, 38680.00
846.1700, 38719.00
847.3060, 38720.00
848.4410, 38739.00
849.5760, 38646.00
850.7100, 38790.00
851.8450, 38389.00
852.9800, 38437.00
854.1140, 38038.00
855.2480, 38192.00
856.3820, 38229.00
857.5160, 38035.00
858.6500, 37917.00
859.7830, 37787.00
860.9170, 37949.00
862.0500, 37840.00
863.1830, 37865.00
864.3160, 37919.00
865.4480, 37816.00
866.5810, 37702.00
867.7130, 37767.00
868.8460, 37495.00
869.9780, 37672.00
871.1100, 37745.00
872.2410, 37623.00
873.3730, 37644.00
874.5050, 37366.00
875.6360, 37454.00
876.7670, 37457.00
877.8980, 37562.00
879.0290, 37422.00
880.1590, 37361.00
881.2900, 37316.00
882.4200, 37344.00
883.5500, 37270.00
884.6800, 37345.00
885.8100, 37415.00
886.9400, 37439.00
888.0690, 37510.00
889.1990, 37613.00
890.3280, 37586.78
891.4570, 37630.43
892.5860, 37443.00
893.7140, 37606.00
894.8430, 37288.00
895.9710, 37201.00
897.1000, 37503.00
898.2280, 37290.00
899.3560, 37400.00
900.4830, 37226.00
901.6110, 37187.00
902.7380, 37030.00
903.8660, 36944.00
904.9930, 37236.00
906.1200, 37090.00
907.2460, 37170.00
908.3730, 36857.00
909.5000, 37182.00
910.6260, 37169.00
911.7520, 37344.00
912.8780, 37405.00
914.0040, 37189.00
915.1290, 37247.00
916.2550, 37032.00
917.3800, 36809.00
918.5050, 36763.00
919.6300, 37108.00
920.7550, 36974.00
921.8800, 37046.00
923.0040, 36684.00
924.1290, 36970.00
925.2530, 36653.00
926.3770, 36923.00
927.5010, 36757.00
928.6250, 36785.00
929.7480, 36954.00
930.8720, 36561.00
931.9950, 36628.00
933.1180, 36936.00
934.2410, 36613.00
935.3640, 36843.00
936.4860, 36505.00
937.6090, 36652.00
938.7310, 36590.00
939.8530, 36623.00
940.9750, 36491.00
942.0970, 36537.00
943.2180, 36379.00
944.3400, 36134.00
945.4610, 36437.00
946.5820, 36762.00
947.7030, 36451.00
948.8240, 36655.00
949.9450, 36261.00
951.0650, 36476.00
952.1860, 36604.00
953.3060, 36338.00
954.4260, 36453.00
955.5460, 36409.00
956.6650, 36479.00
957.7850, 36589.00
958.9040, 36638.00
960.0230, 36569.00
961.1420, 36286.00
962.2610, 36438.00
963.3800, 36315.00
964.4990, 36553.00
965.6170, 36510.00
966.7350, 36294.00
967.8530, 36350.00
968.9710, 36388.00
970.0890, 36253.00
971.2070, 36512.00
972.3240, 36691.00
973.4410, 36443.00
974.5580, 36312.00
975.6750, 36474.00
976.7920, 36280.00
977.9090, 36263.00
979.0250, 36629.00
980.1410, 36269.00
981.2580, 36421.00
982.3740, 36579.00
983.4890, 36398.00
984.6050, 36594.35
985.7200, 36434.00
986.8360, 36675.00
987.9510, 36682.00
989.0660, 36556.00
990.1810, 36798.00
991.2950, 36553.00
992.4100, 36747.00
993.5240, 36980.00
994.6390, 36972.00
995.7530, 37269.00
996.8660, 37213.00
997.9800, 37515.00
999.0940, 37652.00
1000.207, 37969.00
1001.320, 38594.00
1002.433, 38934.00
1003.546, 40100.00
1004.659, 41289.00
1005.772, 42512.00
1006.884, 44288.00
1007.996, 46454.00
1009.108, 49010.00
1010.220, 51232.00
1011.332, 53799.00
1012.444, 55539.00
1013.555, 55535.00
1014.666, 53788.00
1015.777, 51284.00
1016.888, 48037.00
1017.999, 45335.00
1019.110, 42758.00
1020.220, 41153.00
1021.331, 39812.00
1022.441, 38898.00
1023.551, 38084.00
1024.661, 37984.00
1025.770, 37831.00
1026.880, 37126.00
1027.989, 36909.00
1029.098, 36800.00
1030.207, 37034.00
1031.316, 36971.00
1032.425, 36726.00
1033.533, 36968.00
1034.642, 36548.00
1035.750, 37240.00
1036.858, 37139.00
1037.966, 37073.00
1039.073, 37243.00
1040.181, 37049.14
1041.288, 37139.00
1042.396, 36789.00
1043.503, 36674.00
1044.610, 36462.00
1045.716, 36291.00
1046.823, 36231.00
1047.929, 35933.00
1049.036, 35946.05
1050.142, 35818.21
1051.248, 35801.00
1052.353, 35641.00
1053.459, 35370.00
1054.564, 35187.00
1055.670, 35149.00
1056.775, 35133.00
1057.880, 35218.00
1058.985, 34913.00
1060.089, 34959.00
1061.194, 34817.00
1062.298, 34981.00
1063.402, 34935.00
1064.506, 34806.00
1065.610, 35004.00
1066.713, 34894.00
1067.817, 34893.00
1068.920, 34672.00
1070.023, 35128.00
1071.126, 34877.00
1072.229, 34710.00
1073.332, 34665.00
1074.435, 34438.00
1075.537, 34754.00
1076.639, 34476.00
1077.741, 34696.00
1078.843, 34502.00
1079.945, 34490.00
1081.046, 34244.00
1082.148, 34567.00
1083.249, 34740.00
1084.350, 34285.00
1085.451, 34641.00
1086.551, 34464.00
1087.652, 34303.00
1088.752, 34152.00
1089.853, 34128.00
1090.953, 34038.00
1092.053, 34074.00
1093.152, 34152.00
1094.252, 34057.00
1095.351, 33898.00
1096.451, 34018.00
1097.550, 34176.00
1098.649, 33892.00
1099.748, 34037.00
1100.846, 33973.00
1101.945, 33949.00
1103.043, 33857.00
1104.141, 33814.09
1105.239, 33806.00
1106.337, 33778.00
1107.434, 33789.00
1108.532, 33944.00
1109.629, 33740.00
1110.726, 33786.00
1111.823, 33673.00
1112.920, 33593.00
1114.017, 33665.00
1115.113, 34003.00
1116.210, 33878.00
1117.306, 34253.00
1118.402, 34251.00
1119.498, 34196.00
1120.593, 34370.00
1121.689, 34098.00
1122.784, 34141.02
1123.879, 34183.00
1124.974, 34002.00
1126.069, 33959.00
1127.164, 33860.00
1128.259, 33256.00
1129.353, 33229.00
1130.447, 33284.00
1131.541, 33216.00
1132.635, 33287.00
1133.729, 33254.00
1134.822, 33098.00
1135.916, 33051.00
1137.009, 33067.00
1138.102, 33181.00
1139.195, 32918.00
1140.288, 33175.00
1141.380, 33021.00
1142.473, 32994.00
1143.565, 32902.00
1144.657, 32915.00
1145.749, 32933.00
1146.841, 32897.00
1147.932, 33049.00
1149.024, 32786.00
1150.115, 33006.00
1151.206, 32691.00
1152.297, 32578.00
1153.388, 32677.00
1154.479, 32378.00
1155.569, 32645.00
1156.659, 32445.00
1157.750, 32374.00
1158.839, 32521.00
1159.929, 32552.00
1161.019, 32384.00
1162.108, 32244.00
1163.198, 32421.00
1164.287, 32414.00
1165.376, 32413.00
1166.465, 32276.00
1167.553, 31984.00
1168.642, 32242.00
1169.730, 32402.00
1170.818, 32123.00
1171.906, 32236.00
1172.994, 32067.00
1174.082, 32115.00
1175.170, 32019.00
1176.257, 31935.00
1177.344, 31951.00
1178.431, 31943.00
1179.518, 31815.00
1180.605, 31968.00
1181.691, 31960.00
1182.778, 32024.00
1183.864, 31935.00
1184.950, 31861.00
1186.036, 31946.00
1187.122, 31700.00
1188.207, 31979.00
1189.292, 31842.00
1190.378, 31804.00
1191.463, 31523.00
1192.548, 31873.00
1193.632, 31710.00
1194.717, 31727.00
1195.801, 31702.00
1196.886, 31497.00
1197.970, 31560.00
1199.054, 31569.00
1200.137, 31769.00
1201.221, 31446.00
1202.305, 31418.00
1203.388, 31649.00
1204.471, 31418.00
1205.554, 31471.00
1206.637, 31602.00
1207.719, 31376.00
1208.802, 31646.00
1209.884, 31432.00
1210.966, 31345.00
1212.048, 31230.00
1213.130, 31410.00
1214.212, 31514.00
1215.293, 31393.00
1216.374, 31221.00
1217.456, 31076.00
1218.536, 31039.00
1219.617, 31143.00
1220.698, 31082.00
1221.778, 31079.00
1222.859, 30979.00
1223.939, 31154.00
1225.019, 31012.00
1226.099, 30849.00
1227.178, 31075.00
1228.258, 31131.00
1229.337, 30963.00
1230.417, 30909.00
1231.496, 31030.00
1232.574, 30917.00
1233.653, 31002.00
1234.732, 31041.00
1235.810, 31233.00
1236.888, 30688.00
1237.966, 31007.00
1239.044, 30830.00
1240.122, 30701.00
1241.199, 30761.00
1242.277, 30864.00
1243.354, 30628.00
1244.431, 30517.00
1245.508, 30646.00
1246.585, 30821.00
1247.661, 30501.00
1248.738, 30632.00
1249.814, 30579.00
1250.890, 30440.00
1251.966, 30513.00
1253.042, 30414.00
1254.117, 30393.00
1255.193, 30162.00
1256.268, 30249.00
1257.343, 29978.00
1258.418, 30032.00
1259.493, 30056.00
1260.567, 30024.00
1261.642, 30182.00
1262.716, 30169.00
1263.790, 30242.00
1264.864, 30368.00
1265.938, 30440.00
1267.011, 30189.00
1268.085, 30064.00
1269.158, 30037.00
1270.231, 30110.00
1271.304, 30097.00
1272.377, 30152.00
1273.450, 30111.00
1274.522, 30071.90
1275.594, 30064.57
1276.666, 29920.00
1277.738, 29948.00
1278.810, 29828.00
1279.882, 29660.00
1280.953, 29951.00
1282.025, 29720.00
1283.096, 29999.00
1284.167, 29670.00
1285.238, 29744.00
1286.308, 29761.00
1287.379, 29893.00
1288.449, 29772.00
1289.519, 29808.00
1290.589, 29815.00
1291.659, 29735.00
1292.729, 29642.00
1293.798, 29628.00
1294.868, 29604.23
1295.937, 29732.00
1297.006, 29633.00
1298.075, 29636.00
1299.143, 29669.00
1300.212, 29476.00
1301.280, 29505.00
1302.348, 29594.00
1303.416, 29414.00
1304.484, 29422.00
