##NAMES=Diopside
##RRUFFID=R060085
##IDEAL CHEMISTRY=CaMgSi_2_O_6_
##LOCALITY=Tyrol, Austria
##OWNER=RRUFF
##SOURCE=University of Arizona Mineral Museum
##DESCRIPTION=Brownish-green massive
##STATUS=The identification of this mineral has been confirmed by X-ray diffraction and chemical analysis
##URL=rruff.info/R060085
##MEASURED CHEMISTRY=(Ca_0.97_Na_0.03_)_Σ=1_(Mg_0.79_Fe^2+^_0.10_Fe^3+^_0.04_Al_0.04_Ti_0.02_Cr_0.01_)_Σ=1_(Si_1.90_Al_0.10_)_Σ=2_O_6_
##PIN_ID=M01980
##ORIENTATION=Laser parallel to -b* (0 -1 0). Fiducial mark perpendicular to laser is parallel to c [0 0 1]
61.07900, 753.0000
62.32000, 843.0000
63.56100, 921.0000
64.80100, 991.0000
66.04100, 1040.000
67.28100, 1158.000
68.52100, 1307.000
69.76100, 1480.000
71.00100, 1629.000
72.24000, 1910.000
73.47900, 2017.000
74.71800, 2307.000
75.95700, 2489.000
77.19600, 2836.000
78.43500, 3150.000
79.67300, 3419.000
80.91200, 3838.000
82.15000, 4139.000
83.38800, 4403.000
84.62600, 4671.000
85.86300, 4939.000
87.10100, 4997.000
88.33800, 5346.000
89.57500, 5563.000
90.81200, 5716.000
92.04900, 5995.000
93.28600, 6254.000
94.52300, 6481.000
95.75900, 6667.000
96.99500, 6816.000
98.23100, 7009.000
99.46700, 7008.000
100.7030, 7306.000
101.9390, 7438.000
103.1740, 7444.000
104.4090, 7633.000
105.6440, 7801.000
106.8790, 7869.000
108.1140, 7985.322
109.3490, 8132.000
110.5830, 8163.000
111.8180, 8198.000
113.0520, 8383.000
114.2860, 8578.000
115.5200, 8767.000
116.7530, 8909.000
117.9870, 8966.000
119.2200, 8973.000
120.4530, 9085.000
121.6860, 9140.000
122.9190, 9248.820
124.1520, 9406.662
125.3850, 9534.000
126.6170, 9735.000
127.8490, 9971.000
129.0810, 10108.00
130.3130, 10478.00
131.5450, 10823.00
132.7770, 10915.00
134.0080, 11259.00
135.2390, 11495.00
136.4710, 11897.00
137.7020, 12256.00
138.9320, 12281.00
140.1630, 12502.00
141.3930, 12483.00
142.6240, 12204.00
143.8540, 11699.00
145.0840, 11505.00
146.3140, 11001.00
147.5440, 10775.00
148.7730, 10561.00
150.0020, 10324.00
151.2320, 10172.00
152.4610, 9985.000
153.6900, 9768.000
154.9180, 9760.000
156.1470, 9627.000
157.3750, 9693.000
158.6040, 9637.000
159.8320, 9520.000
161.0600, 9571.000
162.2870, 9532.000
163.5150, 9577.000
164.7420, 9577.691
165.9700, 9628.000
167.1970, 9572.000
168.4240, 9569.000
169.6510, 9524.000
170.8770, 9551.000
172.1040, 9508.000
173.3300, 9685.000
174.5560, 9575.000
175.7820, 9698.000
177.0080, 9762.000
178.2340, 9687.000
179.4590, 9869.000
180.6850, 9859.000
181.9100, 9859.000
183.1350, 9971.000
184.3600, 9995.000
185.5850, 9984.000
186.8090, 9973.000
188.0340, 10050.00
189.2580, 10073.00
190.4820, 10090.00
191.7060, 10092.00
192.9300, 10169.00
194.1530, 10292.00
195.3770, 10387.00
196.6000, 10600.00
197.8230, 10928.00
199.0460, 11002.00
200.2690, 11164.00
201.4910, 10665.00
202.7140, 10698.00
203.9360, 10624.00
205.1580, 10391.00
206.3800, 10277.00
207.6020, 10151.00
208.8240, 10054.00
210.0450, 10147.00
211.2670, 10111.00
212.4880, 9975.000
213.7090, 10119.00
214.9300, 10110.00
216.1510, 10102.00
217.3710, 10238.00
218.5920, 10197.00
219.8120, 10203.00
221.0320, 10067.00
222.2520, 10185.00
223.4720, 10085.00
224.6910, 10390.00
225.9110, 10248.00
227.1300, 10434.00
228.3490, 10411.00
229.5680, 10533.00
230.7870, 10587.00
232.0050, 10594.00
233.2240, 10625.00
234.4420, 10648.87
235.6600, 10628.00
236.8780, 10652.00
238.0960, 10696.00
239.3140, 10624.00
240.5310, 10666.00
241.7490, 10667.00
242.9660, 10693.00
244.1830, 10734.00
245.4000, 10667.00
246.6160, 10894.00
247.8330, 10926.00
249.0490, 10768.00
250.2660, 10980.00
251.4820, 11001.00
252.6980, 10956.00
253.9130, 11187.00
255.1290, 11114.00
256.3440, 11148.00
257.5600, 11028.00
258.7750, 10959.82
259.9900, 11003.00
261.2040, 10803.00
262.4190, 10766.00
263.6330, 10796.00
264.8480, 10936.00
266.0620, 10513.00
267.2760, 10678.00
268.4900, 10595.00
269.7030, 10704.00
270.9170, 10643.00
272.1300, 10753.00
273.3430, 10649.00
274.5560, 10721.00
275.7690, 10560.00
276.9820, 10732.00
278.1940, 10821.00
279.4070, 10759.00
280.6190, 10831.00
281.8310, 10845.00
283.0430, 10959.00
284.2550, 10954.00
285.4660, 11004.00
286.6770, 10986.00
287.8890, 11005.00
289.1000, 10954.00
290.3110, 10975.00
291.5210, 11047.00
292.7320, 10978.00
293.9420, 11153.00
295.1530, 11103.00
296.3630, 11165.00
297.5730, 11277.00
298.7830, 11380.00
299.9920, 11369.00
301.2020, 11432.00
302.4110, 11405.00
303.6200, 11488.35
304.8290, 11548.77
306.0380, 11639.00
307.2470, 11741.00
308.4550, 11810.00
309.6630, 11964.00
310.8720, 12086.00
312.0800, 12162.00
313.2880, 12248.00
314.4950, 12425.00
315.7030, 12553.00
316.9100, 12681.00
318.1170, 12818.00
319.3240, 13141.00
320.5310, 13389.00
321.7380, 13601.00
322.9450, 13961.00
324.1510, 14243.00
325.3570, 14363.00
326.5630, 14545.54
327.7690, 14656.00
328.9750, 14616.00
330.1810, 14590.00
331.3860, 14407.00
332.5910, 14204.00
333.7960, 13951.00
335.0010, 13730.00
336.2060, 13544.00
337.4110, 13494.00
338.6150, 13236.00
339.8200, 13087.00
341.0240, 12817.00
342.2280, 12889.00
343.4320, 12712.00
344.6350, 12653.00
345.8390, 12719.00
347.0420, 12564.00
348.2450, 12619.00
349.4480, 12699.00
350.6510, 12658.00
351.8540, 12749.00
353.0560, 12690.00
354.2590, 12997.00
355.4610, 13066.00
356.6630, 13244.00
357.8650, 13107.00
359.0670, 13146.00
360.2680, 13139.00
361.4700, 13074.56
362.6710, 13090.00
363.8720, 13003.00
365.0730, 13007.00
366.2740, 12975.00
367.4740, 12857.00
368.6750, 12849.00
369.8750, 12794.00
371.0750, 12751.02
372.2750, 12830.00
373.4750, 12688.00
374.6740, 12695.00
375.8740, 12652.00
377.0730, 12723.00
378.2720, 12551.00
379.4710, 12603.00
380.6700, 12777.00
381.8690, 12799.00
383.0670, 12966.00
384.2660, 12942.00
385.4640, 13178.00
386.6620, 13365.00
387.8600, 13482.00
389.0570, 13701.00
390.2550, 13872.00
391.4520, 14386.00
392.6490, 14464.00
393.8460, 14458.00
395.0430, 14588.00
396.2400, 14459.00
397.4370, 14259.00
398.6330, 13892.00
399.8290, 13595.00
401.0250, 13414.00
402.2210, 13157.60
403.4170, 12926.00
404.6130, 12788.00
405.8080, 12674.00
407.0030, 12496.00
408.1980, 12493.00
409.3930, 12482.00
410.5880, 12396.00
411.7830, 12297.00
412.9770, 12393.00
414.1720, 12312.00
415.3660, 12175.00
416.5600, 12171.00
417.7530, 12294.00
418.9470, 12235.00
420.1410, 12217.00
421.3340, 12224.00
422.5270, 12213.00
423.7200, 12149.00
424.9130, 12229.00
426.1060, 12121.00
427.2980, 12235.00
428.4900, 12260.00
429.6830, 12174.00
430.8750, 12233.00
432.0670, 12270.00
433.2580, 12223.00
434.4500, 12382.00
435.6410, 12275.00
436.8320, 12176.00
438.0240, 12244.00
439.2140, 12411.00
440.4050, 12308.00
441.5960, 12356.00
442.7860, 12352.00
443.9760, 12338.00
445.1670, 12182.00
446.3560, 12336.00
447.5460, 12366.00
448.7360, 12509.00
449.9250, 12369.00
451.1150, 12581.00
452.3040, 12283.00
453.4930, 12457.00
454.6810, 12546.00
455.8700, 12554.00
457.0590, 12534.00
458.2470, 12549.00
459.4350, 12557.00
460.6230, 12478.00
461.8110, 12586.00
462.9980, 12674.00
464.1860, 12635.00
465.3730, 12618.00
466.5600, 12639.00
467.7470, 12658.43
468.9340, 12751.00
470.1210, 12728.00
471.3080, 12772.00
472.4940, 12761.00
473.6800, 12891.00
474.8660, 12693.00
476.0520, 12922.00
477.2380, 12695.00
478.4230, 12722.00
479.6090, 12696.00
480.7940, 12800.00
481.9790, 12917.00
483.1640, 12837.00
484.3490, 12851.00
485.5330, 12711.00
486.7180, 12912.00
487.9020, 12890.00
489.0860, 12912.00
490.2700, 12861.00
491.4540, 12984.00
492.6370, 12871.00
493.8210, 12863.00
495.0040, 13113.00
496.1870, 12994.00
497.3700, 13154.00
498.5530, 13035.00
499.7360, 13156.00
500.9180, 13136.00
502.1000, 13163.00
503.2830, 13333.00
504.4650, 13376.00
505.6460, 13734.00
506.8280, 13848.00
508.0100, 14143.00
509.1910, 14227.00
510.3720, 14293.00
511.5530, 14299.00
512.7340, 14242.00
513.9150, 14089.00
515.0950, 13795.00
516.2760, 13804.00
517.4560, 13610.00
518.6360, 13693.00
519.8160, 13682.00
520.9950, 13734.00
522.1750, 13584.00
523.3540, 13469.00
524.5340, 13573.00
525.7130, 13699.00
526.8920, 13695.00
528.0700, 13627.00
529.2490, 13877.00
530.4270, 13806.00
531.6060, 13745.00
532.7840, 13879.00
533.9620, 13850.00
535.1390, 13941.00
536.3170, 13890.00
537.4940, 13951.00
538.6720, 14063.00
539.8490, 14109.00
541.0260, 14099.00
542.2030, 14139.00
543.3790, 14125.00
544.5560, 14155.00
545.7320, 14113.00
546.9080, 14182.00
548.0840, 14078.00
549.2600, 14126.00
550.4360, 14183.00
551.6110, 14194.00
552.7860, 14195.14
553.9620, 14000.00
555.1370, 14121.00
556.3110, 14023.00
557.4860, 13906.00
558.6610, 14043.00
559.8350, 14059.00
561.0090, 13830.00
562.1830, 14076.00
563.3570, 14061.00
564.5310, 13959.00
565.7040, 13873.00
566.8780, 13880.00
568.0510, 13848.26
569.2240, 13911.00
570.3970, 13869.00
571.5700, 13990.00
572.7420, 13990.00
573.9150, 14032.00
575.0870, 13972.00
576.2590, 13897.00
577.4310, 13922.00
578.6030, 13943.00
579.7740, 13821.00
580.9460, 13753.00
582.1170, 13867.00
583.2880, 13993.00
584.4590, 13790.00
585.6300, 13800.00
586.8010, 13902.00
587.9710, 13857.00
589.1410, 13909.00
590.3110, 13987.00
591.4810, 13784.00
592.6510, 13884.00
593.8210, 13815.00
594.9900, 13856.00
596.1600, 13781.00
597.3290, 13850.00
598.4980, 13826.00
599.6670, 13731.00
600.8350, 13887.00
602.0040, 13887.00
603.1720, 13871.00
604.3400, 13933.00
605.5080, 13813.00
606.6760, 13833.00
607.8440, 13907.00
609.0120, 14054.00
610.1790, 13962.00
611.3460, 14067.00
612.5130, 14077.00
613.6800, 14058.00
614.8470, 14041.00
616.0130, 14140.00
617.1800, 14224.00
618.3460, 14192.00
619.5120, 14246.00
620.6780, 14140.00
621.8440, 14137.00
623.0090, 14230.00
624.1750, 14266.00
625.3400, 14283.00
626.5050, 14345.00
627.6700, 14438.00
628.8350, 14477.00
629.9990, 14458.00
631.1640, 14673.00
632.3280, 14495.00
633.4920, 14705.00
634.6560, 14747.00
635.8200, 14775.00
636.9840, 14859.00
638.1470, 14931.00
639.3100, 14959.00
640.4730, 15029.00
641.6360, 14974.00
642.7990, 15206.00
643.9620, 15207.00
645.1240, 15625.00
646.2870, 15543.00
647.4490, 15831.00
648.6110, 15928.00
649.7730, 15943.00
650.9340, 16273.00
652.0960, 16604.00
653.2570, 16919.00
654.4180, 17218.00
655.5790, 17825.00
656.7400, 18287.00
657.9010, 18967.00
659.0620, 19944.00
660.2220, 20876.00
661.3820, 21930.00
662.5420, 23423.00
663.7020, 24982.00
664.8620, 26674.00
666.0210, 28093.00
667.1810, 29158.00
668.3400, 29417.00
669.4990, 29193.00
670.6580, 27915.00
671.8170, 26664.00
672.9750, 24952.00
674.1340, 23778.00
675.2920, 22418.00
676.4500, 21398.00
677.6080, 20523.70
678.7660, 19619.00
679.9230, 19142.00
681.0810, 18675.00
682.2380, 18257.00
683.3950, 17772.00
684.5520, 17623.00
685.7090, 17122.00
686.8660, 17092.00
688.0220, 16827.00
689.1780, 16695.00
690.3340, 16286.00
691.4900, 16084.00
692.6460, 16142.00
693.8020, 16184.00
694.9570, 15929.00
696.1130, 15878.00
697.2680, 15556.00
698.4230, 15728.00
699.5780, 15519.00
700.7320, 15750.00
701.8870, 15537.00
703.0410, 15614.00
704.1950, 15535.00
705.3490, 15528.00
706.5030, 15596.00
707.6570, 15562.00
708.8110, 15466.00
709.9640, 15365.00
711.1170, 15518.00
712.2700, 15594.00
713.4230, 15405.00
714.5760, 15429.00
715.7280, 15319.00
716.8810, 15353.00
718.0330, 15426.00
719.1850, 15481.00
720.3370, 15467.00
721.4890, 15531.00
722.6400, 15413.00
723.7920, 15500.00
724.9430, 15382.00
726.0940, 15228.00
727.2450, 15521.00
728.3960, 15467.00
729.5460, 15385.00
730.6970, 15434.00
731.8470, 15450.00
732.9970, 15397.00
734.1470, 15524.00
735.2970, 15325.00
736.4460, 15453.00
737.5960, 15478.00
738.7450, 15466.00
739.8940, 15515.00
741.0430, 15532.06
742.1920, 15473.00
743.3410, 15588.00
744.4890, 15642.00
745.6370, 15659.00
746.7850, 15601.00
747.9330, 15644.70
749.0810, 15551.00
750.2290, 15669.00
751.3760, 15662.00
752.5240, 15695.00
753.6710, 15741.00
754.8180, 15812.00
755.9650, 15707.00
757.1110, 15802.00
758.2580, 15782.00
759.4040, 15684.00
760.5510, 15845.00
761.6970, 15977.00
762.8420, 15752.00
763.9880, 15951.00
765.1340, 16018.00
766.2790, 16037.00
767.4240, 15908.00
768.5690, 15988.00
769.7140, 15954.00
770.8590, 16116.00
772.0030, 16025.00
773.1480, 16086.00
774.2920, 16116.00
775.4360, 16006.00
776.5800, 16107.00
777.7240, 16210.00
778.8670, 16254.00
780.0110, 16246.00
781.1540, 16329.00
782.2970, 16220.00
783.4400, 16188.00
784.5830, 16244.00
785.7250, 16275.00
786.8680, 16302.00
788.0100, 16283.00
789.1520, 16278.00
790.2940, 16228.00
791.4360, 16183.00
792.5780, 16258.00
793.7190, 16347.00
794.8600, 16352.00
796.0010, 16299.00
797.1420, 16386.00
798.2830, 16390.00
799.4240, 16330.00
800.5640, 16500.00
801.7050, 16433.00
802.8450, 16590.00
803.9850, 16495.00
805.1250, 16433.00
806.2640, 16435.00
807.4040, 16527.00
808.5430, 16460.00
809.6820, 16547.00
810.8210, 16522.00
811.9600, 16664.00
813.0990, 16767.00
814.2370, 16819.00
815.3760, 16565.00
816.5140, 16705.00
817.6520, 16794.00
818.7900, 16843.00
819.9270, 16952.00
821.0650, 16953.00
822.2020, 16976.00
823.3390, 16905.00
824.4760, 16844.00
825.6130, 17134.00
826.7500, 17011.00
827.8870, 17135.00
829.0230, 17044.00
830.1590, 17306.00
831.2950, 17171.00
832.4310, 17278.00
833.5670, 17048.00
834.7030, 17179.00
835.8380, 17323.00
836.9730, 17180.00
838.1080, 17308.00
839.2430, 17121.00
840.3780, 17205.00
841.5130, 17280.00
842.6470, 17169.00
843.7810, 17336.00
844.9150, 17209.00
846.0490, 17229.00
847.1830, 17493.00
848.3170, 17249.00
849.4500, 17353.00
850.5830, 17445.00
851.7160, 17488.00
852.8490, 17573.00
853.9820, 17692.27
855.1150, 17947.00
856.2470, 17966.00
857.3800, 17997.00
858.5120, 18163.00
859.6440, 18155.00
860.7760, 18357.00
861.9070, 18292.00
863.0390, 18165.00
864.1700, 18427.00
865.3010, 18367.00
866.4320, 18280.00
867.5630, 18190.00
868.6940, 18197.00
869.8240, 17964.00
870.9540, 18186.00
872.0850, 18171.00
873.2150, 17886.00
874.3450, 17966.00
875.4740, 17788.00
876.6040, 17950.00
877.7330, 17912.00
878.8620, 17861.00
879.9910, 18036.00
881.1200, 17923.00
882.2490, 17894.00
883.3770, 18003.00
884.5060, 17824.00
885.6340, 17831.00
886.7620, 17827.00
887.8900, 18016.00
889.0180, 17804.00
890.1450, 17953.00
891.2730, 18079.00
892.4000, 17935.00
893.5270, 18095.00
894.6540, 17953.00
895.7810, 18123.00
896.9070, 18056.00
898.0340, 17867.00
899.1600, 18140.00
900.2860, 18040.00
901.4120, 17896.00
902.5380, 18214.00
903.6630, 18181.00
904.7890, 18207.00
905.9140, 18145.00
907.0390, 18190.00
908.1640, 18215.00
909.2890, 18263.00
910.4130, 18254.00
911.5380, 18234.00
912.6620, 18291.00
913.7860, 18201.00
914.9100, 18298.00
916.0340, 18319.00
917.1580, 18273.00
918.2810, 18502.00
919.4040, 18333.00
920.5280, 18259.00
921.6510, 18550.00
922.7730, 18427.00
923.8960, 18401.00
925.0180, 18392.00
926.1410, 18581.00
927.2630, 18526.00
928.3850, 18580.00
929.5070, 18457.00
930.6280, 18440.00
931.7500, 18482.00
932.8710, 18726.00
933.9920, 18699.93
935.1130, 18618.00
936.2340, 18829.00
937.3550, 18710.00
938.4760, 18780.00
939.5960, 18719.00
940.7160, 18645.00
941.8360, 18845.00
942.9560, 18940.00
944.0760, 18751.00
945.1950, 18568.00
946.3150, 18936.00
947.4340, 18810.00
948.5530, 18950.00
949.6720, 18887.00
950.7900, 18931.00
951.9090, 18830.00
953.0270, 19010.00
954.1460, 18976.00
955.2640, 19127.00
956.3820, 19130.00
957.4990, 19174.00
958.6170, 19313.00
959.7340, 19209.00
960.8520, 19190.00
961.9690, 19185.00
963.0860, 19215.01
964.2020, 19411.00
965.3190, 19415.00
966.4350, 19359.00
967.5520, 19578.00
968.6680, 19586.00
969.7840, 19517.00
970.8990, 19755.00
972.0150, 19652.00
973.1310, 19679.00
974.2460, 19831.00
975.3610, 19779.00
976.4760, 19777.00
977.5910, 20102.00
978.7050, 20166.00
979.8200, 20058.00
980.9340, 20168.00
982.0480, 20291.00
983.1620, 20228.00
984.2760, 20617.00
985.3900, 20523.00
986.5030, 20695.00
987.6160, 20879.00
988.7300, 20918.00
989.8430, 21096.00
990.9550, 21313.00
992.0680, 21537.00
993.1810, 21661.00
994.2930, 21968.00
995.4050, 22074.00
996.5170, 22516.00
997.6290, 22811.00
998.7410, 23157.00
999.8520, 23652.00
1000.964, 23908.00
1002.075, 24417.00
1003.186, 25229.00
1004.297, 26083.00
1005.407, 26399.00
1006.518, 27404.00
1007.628, 28587.00
1008.738, 29365.00
1009.848, 30591.00
1010.958, 31210.00
1012.068, 31832.00
1013.178, 32240.00
1014.287, 32058.00
1015.396, 31374.00
1016.505, 30194.00
1017.614, 28798.00
1018.723, 27208.00
1019.831, 26200.00
1020.940, 25096.00
1022.048, 24331.00
1023.156, 23685.00
1024.264, 23237.00
1025.372, 23036.00
1026.479, 22579.00
1027.587, 22436.00
1028.694, 22315.00
1029.801, 22114.00
1030.908, 21894.00
1032.015, 21980.00
1033.121, 21797.00
1034.228, 21857.00
1035.334, 21814.00
1036.440, 22054.00
1037.546, 21790.00
1038.652, 21935.00
1039.758, 21997.00
1040.863, 21920.00
1041.968, 22057.00
1043.074, 22052.00
1044.178, 22063.00
1045.283, 21958.00
1046.388, 22121.00
1047.492, 22152.00
1048.597, 22031.00
1049.701, 22152.00
1050.805, 21813.00
1051.909, 21997.00
1053.012, 21742.00
1054.116, 21417.00
1055.219, 21466.00
1056.322, 21548.00
1057.425, 21153.00
1058.528, 21335.00
1059.631, 21294.00
1060.733, 21220.00
1061.836, 21183.00
1062.938, 21069.00
1064.040, 21061.00
1065.142, 21187.00
1066.243, 21233.00
1067.345, 21136.00
1068.446, 21191.64
1069.547, 20946.00
1070.648, 21121.00
1071.749, 21031.00
1072.850, 20936.00
1073.951, 21091.00
1075.051, 20928.00
1076.151, 20930.00
1077.251, 20981.00
1078.351, 21059.00
1079.451, 21085.00
1080.550, 21000.00
1081.650, 20979.00
1082.749, 21111.00
1083.848, 21019.00
1084.947, 21204.00
1086.046, 20967.00
1087.144, 20958.00
1088.243, 21186.00
1089.341, 21121.00
1090.439, 21005.00
1091.537, 21216.00
1092.635, 21290.00
1093.732, 21153.00
1094.830, 21137.00
1095.927, 21020.00
1097.024, 21229.00
1098.121, 21104.00
1099.218, 21094.00
1100.314, 21403.00
1101.411, 21160.00
1102.507, 21256.00
1103.603, 21284.00
1104.699, 21349.00
1105.795, 21146.00
1106.890, 21407.00
1107.986, 21323.00
1109.081, 21364.00
1110.176, 21475.00
1111.271, 21276.00
1112.366, 21118.00
1113.461, 21291.00
1114.555, 21446.00
1115.649, 21306.00
1116.744, 21524.00
1117.838, 21351.00
1118.931, 21263.00
1120.025, 21251.00
1121.119, 21440.00
1122.212, 21462.00
1123.305, 21515.00
1124.398, 21412.00
1125.491, 21358.00
1126.584, 21480.00
1127.676, 21431.00
1128.768, 21450.00
1129.861, 21488.00
1130.953, 21693.00
1132.044, 21813.00
1133.136, 21728.00
1134.228, 21719.00
1135.319, 21697.00
1136.410, 21616.00
1137.501, 21705.00
1138.592, 21769.00
1139.683, 21761.00
1140.773, 21688.00
1141.864, 21660.00
1142.954, 21639.00
1144.044, 21776.00
1145.134, 21744.00
1146.224, 21790.00
1147.313, 21814.00
1148.402, 21679.00
1149.492, 21957.00
1150.581, 21790.00
1151.670, 21902.00
1152.758, 21785.00
1153.847, 22078.00
1154.935, 21966.00
1156.024, 21887.00
1157.112, 21928.00
1158.200, 21873.00
1159.287, 21908.00
1160.375, 21930.00
1161.462, 21985.00
1162.550, 22103.00
1163.637, 22106.00
1164.724, 22195.00
1165.810, 22107.00
1166.897, 22182.00
1167.983, 22061.00
1169.070, 22197.00
1170.156, 22174.00
1171.242, 21895.00
1172.327, 22200.00
1173.413, 22173.00
1174.499, 22371.00
1175.584, 22186.00
1176.669, 22304.00
1177.754, 22454.00
1178.839, 22186.00
1179.923, 22314.00
1181.008, 22554.00
1182.092, 22359.00
1183.176, 22547.00
1184.260, 22320.00
1185.344, 22411.00
1186.428, 22325.00
1187.511, 22268.00
1188.595, 22367.59
1189.678, 22517.00
1190.761, 22477.00
1191.843, 22664.00
1192.926, 22642.00
1194.009, 22606.00
1195.091, 22664.00
1196.173, 22696.00
1197.255, 22529.00
1198.337, 22740.00
1199.419, 22798.00
1200.500, 22655.00
1201.582, 22727.00
1202.663, 22688.00
1203.744, 22689.00
1204.825, 22623.00
1205.905, 22874.00
1206.986, 22769.00
1208.066, 22846.00
1209.146, 22887.00
1210.226, 22827.00
1211.306, 22801.00
1212.386, 23059.00
1213.466, 23046.00
1214.545, 23008.00
1215.624, 23145.00
1216.703, 23043.00
1217.782, 22881.00
1218.861, 23124.00
1219.939, 23046.00
1221.018, 23061.00
1222.096, 23163.00
1223.174, 23062.00
1224.252, 23096.00
1225.330, 23288.00
1226.407, 23038.00
1227.485, 23159.00
1228.562, 23483.00
1229.639, 23229.00
1230.716, 23366.00
1231.793, 23251.00
1232.869, 23481.00
1233.946, 23058.00
1235.022, 23544.00
1236.098, 23251.00
1237.174, 23430.00
1238.250, 23398.00
1239.325, 23400.00
1240.401, 23693.00
1241.476, 23472.00
1242.551, 23332.00
1243.626, 23575.00
