##NAMES=Diopside
##RRUFFID=R050406
##IDEAL CHEMISTRY=CaMgSi_2_O_6_
##LOCALITY=unknown
##OWNER=RRUFF
##SOURCE=University of Arizona Mineral Museum
##DESCRIPTION=Brownish gray massive
##STATUS=The identification of this mineral has been confirmed by X-ray diffraction and chemical analysis
##URL=rruff.info/R050406
##MEASURED CHEMISTRY=(Ca_0.95_Na_0.05_)(Mg_0.75_Fe^2+^_0.18_Fe^3+^_0.05_Al_0.01_Ti_0.01_Mn^2+^_0.01_)(Si_0.98_Al_0.02_)_2_O_6_
##PIN_ID=M00100
##ORIENTATION=Laser parallel to (1 0 1). Fiducial mark perpendicular to laser is parallel to -b [0 -1 0]
94.71400, 6166.000
95.94800, 6294.000
97.18200, 6276.000
98.41600, 6431.000
99.64900, 6593.000
100.8830, 6660.000
102.1160, 6687.000
103.3490, 6925.000
104.5820, 7449.000
105.8150, 7955.000
107.0470, 9173.000
108.2800, 8950.522
109.5120, 10200.00
110.7440, 8822.000
111.9760, 8261.000
113.2080, 8124.000
114.4400, 8070.000
115.6710, 8292.000
116.9030, 8008.000
118.1340, 7827.000
119.3650, 7569.000
120.5960, 7544.000
121.8270, 7563.000
123.0580, 7541.215
124.2880, 7653.886
125.5190, 7775.000
126.7490, 8029.000
127.9790, 8351.000
129.2090, 8827.000
130.4390, 9295.000
131.6680, 9844.000
132.8980, 10350.00
134.1270, 10813.00
135.3560, 11607.00
136.5850, 11887.00
137.8140, 11594.00
139.0430, 10885.00
140.2710, 10063.00
141.5000, 9373.000
142.7280, 9378.000
143.9560, 8708.000
145.1840, 8386.000
146.4120, 8351.000
147.6390, 8107.882
148.8670, 7979.000
150.0940, 8080.000
151.3210, 8091.000
152.5490, 8066.000
153.7750, 8150.000
155.0020, 8328.000
156.2290, 8322.000
157.4550, 8583.000
158.6810, 8812.000
159.9080, 9215.000
161.1340, 9579.000
162.3590, 9706.000
163.5850, 9515.000
164.8110, 9332.000
166.0360, 8986.000
167.2610, 8582.000
168.4860, 8518.000
169.7110, 8474.000
170.9360, 8429.000
172.1610, 8469.000
173.3850, 8423.000
174.6100, 8537.000
175.8340, 8620.000
177.0580, 8778.000
178.2820, 8755.000
179.5050, 8673.000
180.7290, 8494.000
181.9520, 8305.000
183.1760, 8467.000
184.3990, 8446.000
185.6220, 8444.906
186.8450, 8502.000
188.0670, 8481.000
189.2900, 8611.000
190.5120, 8597.000
191.7340, 8387.000
192.9560, 8446.000
194.1780, 8435.000
195.4000, 8272.000
196.6220, 8217.000
197.8430, 8383.000
199.0640, 8336.000
200.2860, 8409.000
201.5070, 8395.000
202.7270, 8461.000
203.9480, 8398.000
205.1690, 8259.000
206.3890, 8296.000
207.6090, 8312.000
208.8290, 8368.865
210.0490, 8622.000
211.2690, 8607.000
212.4890, 8780.000
213.7080, 8942.000
214.9280, 8979.000
216.1470, 9235.000
217.3660, 9367.000
218.5850, 9510.000
219.8030, 9729.000
221.0220, 9937.000
222.2400, 10202.00
223.4590, 10301.00
224.6770, 10469.00
225.8950, 10440.00
227.1120, 10540.00
228.3300, 10560.00
229.5480, 10489.00
230.7650, 10439.00
231.9820, 10345.00
233.1990, 10243.00
234.4160, 10038.00
235.6330, 10060.00
236.8490, 9795.000
238.0660, 9887.000
239.2820, 9886.000
240.4980, 9835.000
241.7140, 9815.000
242.9300, 9724.000
244.1460, 9919.000
245.3610, 9826.000
246.5770, 9830.000
247.7920, 9925.000
249.0070, 9845.000
250.2220, 9732.000
251.4370, 9776.000
252.6510, 9615.000
253.8660, 9578.000
255.0800, 9614.000
256.2940, 9472.000
257.5080, 9601.000
258.7220, 10000.00
259.9360, 10031.00
261.1490, 10361.00
262.3630, 9223.000
263.5760, 9067.000
264.7890, 9012.000
266.0020, 8995.000
267.2150, 8856.000
268.4270, 8916.000
269.6400, 8923.000
270.8520, 8932.000
272.0640, 8869.000
273.2760, 8889.000
274.4880, 9032.000
275.7000, 8975.000
276.9120, 9181.000
278.1230, 9290.000
279.3340, 9304.000
280.5450, 9398.000
281.7560, 9400.000
282.9670, 9560.000
284.1780, 9644.000
285.3880, 9971.000
286.5980, 10019.00
287.8090, 10356.00
289.0190, 10423.00
290.2290, 10770.00
291.4380, 11061.00
292.6480, 11385.00
293.8570, 11888.00
295.0670, 12104.00
296.2760, 12555.00
297.4850, 12831.00
298.6930, 12686.00
299.9020, 12822.00
301.1110, 12931.00
302.3190, 13288.00
303.5270, 13420.00
304.7350, 13882.00
305.9430, 14076.00
307.1510, 14578.00
308.3580, 15117.00
309.5660, 15811.00
310.7730, 16463.00
311.9800, 17514.00
313.1870, 18471.00
314.3940, 19654.26
315.6010, 20988.00
316.8070, 22030.00
318.0130, 23136.00
319.2200, 23835.00
320.4260, 24097.00
321.6310, 23742.00
322.8370, 23250.00
324.0430, 22418.00
325.2480, 21546.00
326.4540, 20449.00
327.6590, 19511.00
328.8640, 18655.00
330.0680, 17914.00
331.2730, 17060.00
332.4780, 16604.00
333.6820, 16195.00
334.8860, 15799.00
336.0900, 15690.00
337.2940, 15580.00
338.4980, 15638.00
339.7010, 15839.00
340.9050, 16063.00
342.1080, 16690.00
343.3110, 17258.00
344.5140, 17968.00
345.7170, 18967.00
346.9200, 20162.00
348.1220, 21247.00
349.3240, 22660.00
350.5270, 24017.00
351.7290, 24552.00
352.9310, 24740.00
354.1320, 24248.00
355.3340, 23313.00
356.5350, 22384.00
357.7370, 20981.00
358.9380, 20197.00
360.1390, 19273.00
361.3400, 18398.00
362.5400, 17703.00
363.7410, 17043.00
364.9410, 16477.00
366.1410, 15910.00
367.3410, 15543.00
368.5410, 15250.00
369.7410, 15100.00
370.9400, 15086.00
372.1400, 15208.00
373.3390, 15640.00
374.5380, 16116.00
375.7370, 16925.00
376.9360, 18040.95
378.1350, 19177.00
379.3330, 20913.00
380.5310, 22540.00
381.7300, 24434.00
382.9280, 26522.00
384.1260, 28333.00
385.3230, 29822.00
386.5210, 30072.00
387.7180, 29496.00
388.9160, 28030.00
390.1130, 25982.00
391.3100, 23481.00
392.5060, 21440.00
393.7030, 19278.00
394.9000, 17416.00
396.0960, 15909.00
397.2920, 14645.00
398.4880, 13434.00
399.6840, 12696.00
400.8800, 11837.00
402.0750, 11564.00
403.2710, 10972.00
404.4660, 10570.00
405.6610, 10418.00
406.8560, 10135.00
408.0510, 9927.000
409.2450, 9921.000
410.4400, 9680.000
411.6340, 9800.000
412.8280, 9572.000
414.0220, 9587.000
415.2160, 9614.000
416.4100, 9522.000
417.6030, 9478.082
418.7970, 9404.059
419.9900, 9319.000
421.1830, 9205.000
422.3760, 9181.000
423.5690, 9062.000
424.7610, 8930.000
425.9540, 8894.000
427.1460, 8948.000
428.3380, 8840.000
429.5300, 8849.000
430.7220, 8906.000
431.9140, 8758.000
433.1050, 8610.000
434.2970, 8692.000
435.4880, 8764.000
436.6790, 8707.000
437.8700, 8760.000
439.0610, 8701.000
440.2510, 8786.000
441.4420, 8787.000
442.6320, 8742.000
443.8220, 8942.000
445.0120, 8948.000
446.2020, 8814.000
447.3910, 8992.000
448.5810, 9061.000
449.7700, 8927.000
450.9600, 9169.000
452.1490, 9193.000
453.3370, 9161.000
454.5260, 9237.000
455.7150, 9266.000
456.9030, 9302.319
458.0910, 9312.440
459.2800, 9388.000
460.4670, 9289.000
461.6550, 9289.000
462.8430, 9249.895
464.0300, 9403.000
465.2180, 9238.000
466.4050, 9266.000
467.5920, 9251.000
468.7790, 9124.000
469.9650, 9194.000
471.1520, 9115.000
472.3380, 9144.000
473.5250, 9185.000
474.7110, 9154.169
475.8970, 9156.000
477.0820, 9144.000
478.2680, 9165.000
479.4540, 9131.000
480.6390, 9142.422
481.8240, 9198.000
483.0090, 9158.000
484.1940, 9189.000
485.3780, 9229.000
486.5630, 9207.000
487.7470, 9229.000
488.9320, 9213.327
490.1160, 9108.000
491.3000, 9172.000
492.4830, 9173.000
493.6670, 9148.000
494.8500, 9205.000
496.0340, 9239.000
497.2170, 9106.000
498.4000, 9176.000
499.5820, 9208.000
500.7650, 9359.000
501.9480, 9386.000
503.1300, 9405.000
504.3120, 9535.000
505.4940, 9523.679
506.6760, 9455.000
507.8580, 9591.000
509.0390, 9576.000
510.2210, 9651.000
511.4020, 9645.000
512.5830, 9771.000
513.7640, 9793.000
514.9450, 9990.000
516.1250, 10060.40
517.3060, 10145.00
518.4860, 10251.00
519.6660, 10348.00
520.8460, 10394.00
522.0260, 10651.00
523.2060, 10679.00
524.3850, 10948.00
525.5650, 11022.00
526.7440, 11130.00
527.9230, 11109.00
529.1020, 11097.00
530.2810, 10976.00
531.4590, 11013.00
532.6380, 10913.00
533.8160, 10851.00
534.9940, 10762.00
536.1720, 10536.00
537.3500, 10691.00
538.5270, 10800.00
539.7050, 10640.00
540.8820, 10610.00
542.0590, 10643.00
543.2360, 10651.00
544.4130, 10874.00
545.5900, 10966.00
546.7660, 11164.00
547.9430, 11474.00
549.1190, 11677.00
550.2950, 11874.00
551.4710, 12399.00
552.6470, 12835.00
553.8220, 13476.00
554.9980, 13638.00
556.1730, 13767.00
557.3480, 13458.00
558.5230, 12972.00
559.6980, 12325.00
560.8730, 11845.00
562.0470, 11347.00
563.2220, 11047.00
564.3960, 10727.00
565.5700, 10520.00
566.7440, 10364.00
567.9170, 10132.00
569.0910, 10064.00
570.2640, 10009.00
571.4380, 9833.000
572.6110, 9816.000
573.7840, 9693.551
574.9570, 9565.591
576.1290, 9492.000
577.3020, 9303.000
578.4740, 9179.000
579.6460, 9034.000
580.8180, 8900.000
581.9900, 8822.000
583.1620, 8796.000
584.3330, 8702.000
585.5040, 8654.000
586.6760, 8512.000
587.8470, 8571.000
589.0180, 8590.000
590.1880, 8452.000
591.3590, 8388.000
592.5290, 8355.000
593.7000, 8487.000
594.8700, 8327.000
596.0400, 8447.000
597.2090, 8389.138
598.3790, 8309.000
599.5490, 8309.000
600.7180, 8355.000
601.8870, 8316.000
603.0560, 8244.000
604.2250, 8309.000
605.3940, 8315.934
606.5620, 8258.000
607.7300, 8424.000
608.8990, 8488.000
610.0670, 8531.554
611.2350, 8483.000
612.4020, 8523.000
613.5700, 8548.000
614.7370, 8465.000
615.9050, 8624.000
617.0720, 8603.000
618.2390, 8503.000
619.4060, 8732.000
620.5720, 8629.000
621.7390, 8745.000
622.9050, 8893.000
624.0710, 8964.000
625.2370, 8935.000
626.4030, 9057.000
627.5690, 9059.000
628.7340, 9159.000
629.9000, 9261.000
631.0650, 9325.000
632.2300, 9373.000
633.3950, 9412.000
634.5600, 9688.000
635.7240, 9735.000
636.8890, 9860.000
638.0530, 9925.000
639.2170, 10099.00
640.3810, 10360.00
641.5450, 10515.00
642.7080, 10728.00
643.8720, 10858.00
645.0350, 11171.00
646.1980, 11691.00
647.3610, 12212.00
648.5240, 12612.00
649.6870, 13260.00
650.8490, 14353.00
652.0120, 15231.00
653.1740, 16945.00
654.3360, 18521.00
655.4980, 20758.00
656.6600, 23567.00
657.8210, 26381.00
658.9830, 29729.00
660.1440, 33353.00
661.3050, 36687.00
662.4660, 39240.00
663.6270, 40521.00
664.7870, 39717.00
665.9480, 38053.00
667.1080, 34721.00
668.2680, 31412.00
669.4280, 28057.00
670.5880, 24672.00
671.7480, 22045.00
672.9070, 19589.00
674.0670, 17861.00
675.2260, 16205.00
676.3850, 14939.00
677.5440, 13941.00
678.7030, 13083.00
679.8610, 12574.00
681.0200, 11858.00
682.1780, 11520.00
683.3360, 11146.00
684.4940, 10774.00
685.6520, 10498.00
686.8090, 10298.00
687.9670, 10061.00
689.1240, 9918.000
690.2810, 9788.000
691.4380, 9677.000
692.5950, 9550.000
693.7520, 9505.000
694.9080, 9552.000
696.0650, 9204.000
697.2210, 9097.000
698.3770, 9201.000
699.5330, 9134.000
700.6880, 9221.000
701.8440, 9175.000
702.9990, 9101.000
704.1550, 8982.000
705.3100, 8908.000
706.4650, 8890.000
707.6190, 8772.000
708.7740, 8860.000
709.9290, 8813.000
711.0830, 8713.000
712.2370, 8695.000
713.3910, 8640.000
714.5450, 8630.000
715.6980, 8599.537
716.8520, 8509.000
718.0050, 8545.000
719.1580, 8503.000
720.3110, 8456.000
721.4640, 8374.000
722.6170, 8456.000
723.7700, 8442.000
724.9220, 8388.000
726.0740, 8419.000
727.2260, 8369.000
728.3780, 8367.000
729.5300, 8474.000
730.6810, 8357.000
731.8330, 8297.000
732.9840, 8302.000
734.1350, 8371.000
735.2860, 8375.000
736.4370, 8392.000
737.5880, 8353.000
738.7380, 8393.000
739.8880, 8311.000
741.0390, 8377.000
742.1890, 8362.000
743.3380, 8335.000
744.4880, 8468.000
745.6380, 8440.000
746.7870, 8396.000
747.9360, 8492.000
749.0850, 8427.000
750.2340, 8515.000
751.3830, 8458.000
752.5310, 8465.000
753.6800, 8453.000
754.8280, 8494.000
755.9760, 8493.000
757.1240, 8505.000
758.2720, 8499.000
759.4190, 8552.000
760.5670, 8549.000
761.7140, 8502.000
762.8610, 8672.000
764.0080, 8550.000
765.1550, 8752.000
766.3020, 8777.000
767.4480, 8545.000
768.5950, 8650.000
769.7410, 8659.000
770.8870, 8728.000
772.0330, 8708.000
773.1780, 8694.000
774.3240, 8784.000
775.4690, 8816.000
776.6140, 8734.000
777.7590, 8695.000
778.9040, 8694.000
780.0490, 8710.000
781.1940, 8718.000
782.3380, 8744.000
783.4820, 8621.000
784.6260, 8754.000
785.7700, 8710.000
786.9140, 8853.000
788.0580, 8741.000
789.2010, 8655.000
790.3450, 8717.000
791.4880, 8682.000
792.6310, 8639.198
793.7730, 8814.000
794.9160, 8612.000
796.0590, 8644.000
797.2010, 8761.000
798.3430, 8747.000
799.4850, 8542.000
800.6270, 8774.000
801.7690, 8668.000
802.9100, 8676.000
804.0520, 8720.000
805.1930, 8665.000
806.3340, 8757.000
807.4750, 8807.000
808.6160, 8780.000
809.7560, 8741.000
810.8970, 8821.000
812.0370, 8797.000
813.1770, 8962.000
814.3170, 9049.000
815.4570, 9074.000
816.5960, 9028.000
817.7360, 9124.000
818.8750, 9026.000
820.0140, 9108.000
821.1530, 9176.000
822.2920, 9114.000
823.4310, 9245.000
824.5690, 9198.000
825.7070, 9230.000
826.8460, 9133.000
827.9840, 9196.000
829.1220, 9247.000
830.2590, 9211.000
831.3970, 9187.000
832.5340, 9250.000
833.6710, 9228.000
834.8080, 9251.000
835.9450, 9224.000
837.0820, 9205.000
838.2190, 9324.000
839.3550, 9456.000
840.4910, 9548.000
841.6270, 9592.000
842.7630, 9706.000
843.8990, 9912.000
845.0350, 10139.00
846.1700, 10478.00
847.3060, 10811.00
848.4410, 11467.00
849.5760, 11880.00
850.7100, 12593.00
851.8450, 13084.00
852.9800, 13283.00
854.1140, 13462.00
855.2480, 13497.00
856.3820, 13294.00
857.5160, 13070.00
858.6500, 12767.00
859.7830, 12436.00
860.9170, 12192.00
862.0500, 11937.00
863.1830, 11896.00
864.3160, 11699.00
865.4480, 11624.00
866.5810, 11540.00
867.7130, 11364.00
868.8460, 11446.00
869.9780, 11385.00
871.1100, 11599.00
872.2410, 11557.00
873.3730, 11620.00
874.5050, 11620.00
875.6360, 11505.00
876.7670, 11693.00
877.8980, 11805.00
879.0290, 11778.00
880.1590, 11748.00
881.2900, 11795.00
882.4200, 11972.00
883.5500, 11920.00
884.6800, 12050.00
885.8100, 12133.00
886.9400, 12156.00
888.0690, 12179.00
889.1990, 12231.00
890.3280, 12197.00
891.4570, 12213.00
892.5860, 12248.00
893.7140, 12180.00
894.8430, 12112.00
895.9710, 12093.00
897.1000, 12053.60
898.2280, 11996.00
899.3560, 12037.00
900.4830, 11987.00
901.6110, 12016.00
902.7380, 11953.00
903.8660, 11873.00
904.9930, 11839.00
906.1200, 11785.00
907.2460, 11727.65
908.3730, 11700.00
909.5000, 11617.00
910.6260, 11541.00
911.7520, 11471.00
912.8780, 11446.00
914.0040, 11373.73
915.1290, 11351.89
916.2550, 11298.00
917.3800, 11270.00
918.5050, 11303.00
919.6300, 11194.00
920.7550, 11275.00
921.8800, 11182.00
923.0040, 11156.00
924.1290, 11229.00
925.2530, 11137.00
926.3770, 11041.00
927.5010, 11047.78
928.6250, 11056.00
929.7480, 10972.00
930.8720, 10945.00
931.9950, 10905.00
933.1180, 10860.00
934.2410, 10793.00
935.3640, 10745.00
936.4860, 10626.00
937.6090, 10641.00
938.7310, 10695.00
939.8530, 10449.00
940.9750, 10542.00
942.0970, 10669.00
943.2180, 10553.00
944.3400, 10426.00
945.4610, 10663.00
946.5820, 10812.00
947.7030, 10832.00
948.8240, 10966.00
949.9450, 11041.00
951.0650, 11110.00
952.1860, 11573.00
953.3060, 11487.00
954.4260, 11657.00
955.5460, 11931.00
956.6650, 11754.00
957.7850, 11849.00
958.9040, 12088.00
960.0230, 12114.00
961.1420, 12270.00
962.2610, 12265.00
963.3800, 12382.00
964.4990, 12716.00
965.6170, 12621.00
966.7350, 12808.00
967.8530, 12721.00
968.9710, 12965.00
970.0890, 12963.00
971.2070, 13212.00
972.3240, 13355.00
973.4410, 13379.00
974.5580, 13439.00
975.6750, 13555.00
976.7920, 13678.00
977.9090, 13774.00
979.0250, 13817.00
980.1410, 13999.00
981.2580, 14042.55
982.3740, 14170.88
983.4890, 14213.00
984.6050, 14376.00
985.7200, 14502.00
986.8360, 14545.00
987.9510, 14708.00
989.0660, 14846.00
990.1810, 15227.00
991.2950, 15456.00
992.4100, 15922.00
993.5240, 16112.00
994.6390, 16856.00
995.7530, 17562.00
996.8660, 18498.00
997.9800, 19671.00
999.0940, 20733.00
1000.207, 22466.00
1001.320, 24503.00
1002.433, 26657.00
1003.546, 30049.00
1004.659, 33607.00
1005.772, 37717.00
1006.884, 43379.00
1007.996, 48875.00
1009.108, 54639.00
1010.220, 59065.00
1011.332, 61517.00
1012.444, 61019.00
1013.555, 57510.00
1014.666, 51389.00
1015.777, 44641.00
1016.888, 38459.00
1017.999, 33208.00
1019.110, 29001.00
1020.220, 25408.00
1021.331, 23174.00
1022.441, 21127.00
1023.551, 19562.00
1024.661, 18383.00
1025.770, 17607.00
1026.880, 16909.00
1027.989, 16434.00
1029.098, 16077.00
1030.207, 15854.00
1031.316, 15630.00
1032.425, 15412.00
1033.533, 15431.00
1034.642, 15367.00
1035.750, 15521.00
1036.858, 15437.00
1037.966, 15605.00
1039.073, 15934.00
1040.181, 16219.00
1041.288, 16219.00
1042.396, 16302.00
1043.503, 16281.00
1044.610, 16051.00
1045.716, 15771.00
1046.823, 15360.00
1047.929, 15003.00
1049.036, 14473.00
1050.142, 14081.00
1051.248, 13739.00
1052.353, 13413.00
1053.459, 13150.49
1054.564, 12933.00
1055.670, 12693.00
1056.775, 12593.00
1057.880, 12380.00
1058.985, 12278.00
1060.089, 12123.59
1061.194, 11952.00
1062.298, 11858.00
1063.402, 11722.00
1064.506, 11636.00
1065.610, 11629.00
1066.713, 11410.00
1067.817, 11560.00
1068.920, 11263.00
1070.023, 11288.00
1071.126, 11199.00
1072.229, 11143.00
1073.332, 11086.00
1074.435, 10971.00
1075.537, 11024.00
1076.639, 10853.00
1077.741, 10808.00
1078.843, 10953.00
1079.945, 10826.00
1081.046, 10762.00
1082.148, 10800.00
1083.249, 10775.00
1084.350, 10803.00
1085.451, 10711.00
1086.551, 10653.00
1087.652, 10644.00
1088.752, 10655.00
1089.853, 10621.00
1090.953, 10586.00
1092.053, 10581.10
1093.152, 10503.00
1094.252, 10557.00
1095.351, 10555.00
1096.451, 10563.62
1097.550, 10315.00
1098.649, 10529.00
1099.748, 10449.00
1100.846, 10353.00
1101.945, 10461.00
1103.043, 10482.00
1104.141, 10425.00
1105.239, 10527.00
1106.337, 10422.00
1107.434, 10345.00
1108.532, 10440.00
1109.629, 10399.00
1110.726, 10437.00
1111.823, 10445.00
1112.920, 10340.00
1114.017, 10485.00
1115.113, 10678.00
1116.210, 10823.00
1117.306, 10801.00
1118.402, 11069.00
1119.498, 11135.00
1120.593, 11209.00
1121.689, 11131.00
1122.784, 11160.00
1123.879, 11066.00
1124.974, 11185.00
1126.069, 11130.00
1127.164, 11009.00
1128.259, 10894.49
1129.353, 10542.00
1130.447, 10493.00
1131.541, 10263.00
1132.635, 10076.00
1133.729, 10096.00
1134.822, 10238.00
1135.916, 10095.00
1137.009, 9951.000
1138.102, 10096.00
1139.195, 9837.000
1140.288, 9940.000
1141.380, 9908.000
1142.473, 9850.000
1143.565, 9820.000
1144.657, 9749.496
1145.749, 9683.000
1146.841, 9623.000
1147.932, 9608.000
1149.024, 9580.000
1150.115, 9578.000
1151.206, 9651.000
1152.297, 9548.000
1153.388, 9347.000
1154.479, 9420.000
1155.569, 9278.000
1156.659, 9352.000
1157.750, 9296.000
1158.839, 9271.000
1159.929, 9254.000
1161.019, 9258.000
1162.108, 9248.000
1163.198, 9348.000
1164.287, 9241.000
1165.376, 9332.000
1166.465, 9337.000
1167.553, 9250.000
1168.642, 9298.000
1169.730, 9278.000
1170.818, 9285.000
1171.906, 9160.000
1172.994, 9232.000
1174.082, 9190.453
1175.170, 9146.000
1176.257, 9163.000
1177.344, 9251.000
1178.431, 9195.000
1179.518, 9268.000
1180.605, 9245.000
1181.691, 9295.000
1182.778, 9271.000
1183.864, 9168.000
1184.950, 9282.000
1186.036, 9206.000
1187.122, 9265.000
1188.207, 9235.000
1189.292, 9116.000
1190.378, 9228.000
1191.463, 9229.000
1192.548, 9145.000
1193.632, 9180.000
1194.717, 9222.000
1195.801, 9191.000
1196.886, 9235.000
1197.970, 9337.000
1199.054, 9215.000
1200.137, 9284.000
1201.221, 9207.000
1202.305, 9242.000
1203.388, 9244.000
1204.471, 9266.000
1205.554, 9241.000
1206.637, 9265.000
1207.719, 9289.000
1208.802, 9256.000
1209.884, 9220.000
1210.966, 9148.000
1212.048, 9181.646
1213.130, 9161.000
1214.212, 9260.000
1215.293, 9212.000
1216.374, 9292.000
1217.456, 9275.000
1218.536, 9280.844
1219.617, 9243.000
1220.698, 9262.000
1221.778, 9320.000
1222.859, 9261.000
1223.939, 9385.000
1225.019, 9304.000
1226.099, 9269.000
1227.178, 9299.000
1228.258, 9299.000
1229.337, 9230.000
1230.417, 9331.000
1231.496, 9231.000
1232.574, 9178.000
1233.653, 9340.000
1234.732, 9320.000
1235.810, 9201.000
1236.888, 9402.000
1237.966, 9288.000
1239.044, 9256.000
1240.122, 9291.000
1241.199, 9293.000
1242.277, 9305.000
1243.354, 9383.000
1244.431, 9389.884
1245.508, 9425.670
1246.585, 9418.000
1247.661, 9456.000
1248.738, 9385.000
1249.814, 9345.000
1250.890, 9309.000
1251.966, 9298.000
1253.042, 9300.000
1254.117, 9334.000
1255.193, 9359.000
1256.268, 9412.000
1257.343, 9386.778
1258.418, 9270.000
1259.493, 9357.000
1260.567, 9304.470
1261.642, 9327.128
1262.716, 9369.000
1263.790, 9297.000
1264.864, 9371.000
1265.938, 9336.000
1267.011, 9389.000
1268.085, 9367.000
1269.158, 9351.000
1270.231, 9395.000
1271.304, 9326.000
1272.377, 9293.000
1273.450, 9290.000
1274.522, 9453.000
