##NAMES=Diopside
##RRUFFID=R060085
##IDEAL CHEMISTRY=CaMgSi_2_O_6_
##LOCALITY=Tyrol, Austria
##OWNER=RRUFF
##SOURCE=University of Arizona Mineral Museum
##DESCRIPTION=Brownish-green massive
##STATUS=The identification of this mineral has been confirmed by X-ray diffraction and chemical analysis
##URL=rruff.info/R060085
##MEASURED CHEMISTRY=(Ca_0.97_Na_0.03_)_Σ=1_(Mg_0.79_Fe^2+^_0.10_Fe^3+^_0.04_Al_0.04_Ti_0.02_Cr_0.01_)_Σ=1_(Si_1.90_Al_0.10_)_Σ=2_O_6_
##PIN_ID=M00537
##ORIENTATION=Laser parallel to (-1 0 -1). Fiducial mark perpendicular to laser is parallel to b [0 1 0]
87.63200, 11524.00
88.87300, 11443.00
90.11400, 11648.00
91.35400, 11762.00
92.59500, 11593.00
93.83500, 11695.00
95.07500, 11608.00
96.31500, 11614.00
97.55400, 11741.00
98.79400, 11858.00
100.0330, 11712.00
101.2720, 11661.00
102.5110, 11868.00
103.7500, 11929.00
104.9890, 11935.00
106.2270, 12175.00
107.4650, 12089.00
108.7040, 12185.00
109.9420, 12128.00
111.1790, 12209.00
112.4170, 12377.00
113.6540, 12490.00
114.8920, 12387.00
116.1290, 12515.00
117.3650, 12388.00
118.6020, 12488.00
119.8390, 12562.00
121.0750, 12362.00
122.3110, 12558.00
123.5470, 12700.00
124.7830, 12545.00
126.0190, 12412.00
127.2540, 12564.00
128.4900, 12636.00
129.7250, 12692.00
130.9600, 12797.69
132.1950, 12856.00
133.4290, 12936.00
134.6640, 13002.00
135.8980, 13035.00
137.1320, 13341.00
138.3660, 13551.00
139.6000, 13354.00
140.8340, 13417.00
142.0670, 13222.00
143.3000, 12961.00
144.5330, 12951.00
145.7660, 12993.00
146.9990, 12891.00
148.2320, 12737.00
149.4640, 12774.00
150.6960, 12941.00
151.9280, 12759.00
153.1600, 13071.00
154.3920, 12930.00
155.6230, 12784.00
156.8550, 12812.00
158.0860, 12880.00
159.3170, 13048.00
160.5480, 13018.00
161.7780, 13034.00
163.0090, 13064.00
164.2390, 13001.00
165.4690, 13164.00
166.6990, 13055.00
167.9290, 13211.00
169.1590, 13195.00
170.3880, 13102.00
171.6180, 13117.00
172.8470, 12971.00
174.0760, 13029.46
175.3040, 13171.00
176.5330, 13114.00
177.7610, 13222.00
178.9900, 13278.00
180.2180, 13381.00
181.4460, 13314.00
182.6730, 13328.00
183.9010, 13391.00
185.1280, 13348.00
186.3560, 13488.00
187.5830, 13454.00
188.8100, 13457.00
190.0360, 13543.00
191.2630, 13622.00
192.4890, 13594.00
193.7150, 13692.00
194.9410, 13738.00
196.1670, 13757.00
197.3930, 13811.00
198.6180, 13736.00
199.8440, 13765.53
201.0690, 13637.00
202.2940, 13753.00
203.5190, 13659.00
204.7430, 13660.00
205.9680, 13451.00
207.1920, 13698.00
208.4160, 13592.00
209.6400, 13690.00
210.8640, 13823.00
212.0880, 14007.00
213.3110, 13814.00
214.5340, 13999.00
215.7570, 13738.00
216.9800, 13896.00
218.2030, 13913.00
219.4260, 13936.00
220.6480, 14047.00
221.8700, 14244.00
223.0920, 14319.00
224.3140, 14362.00
225.5360, 14381.00
226.7580, 14536.00
227.9790, 14586.00
229.2000, 14761.00
230.4210, 14644.00
231.6420, 14778.00
232.8630, 14745.00
234.0830, 14548.00
235.3040, 14688.00
236.5240, 14424.00
237.7440, 14473.00
238.9640, 14355.00
240.1830, 14402.00
241.4030, 14422.00
242.6220, 14389.89
243.8410, 14415.00
245.0600, 14346.00
246.2790, 14353.00
247.4980, 14364.05
248.7160, 14424.00
249.9340, 14432.00
251.1530, 14431.00
252.3710, 14532.00
253.5880, 14348.00
254.8060, 14427.00
256.0230, 14474.00
257.2410, 14376.00
258.4580, 14355.00
259.6750, 14371.25
260.8910, 14341.61
262.1080, 14430.00
263.3240, 14363.00
264.5410, 14465.00
265.7570, 14492.00
266.9730, 14471.00
268.1880, 14584.00
269.4040, 14540.00
270.6190, 14571.92
271.8350, 14465.00
273.0500, 14527.00
274.2650, 14593.00
275.4790, 14444.00
276.6940, 14642.00
277.9080, 14703.00
279.1220, 14621.00
280.3360, 14784.00
281.5500, 14742.00
282.7640, 14641.00
283.9770, 14656.00
285.1910, 14815.00
286.4040, 14826.00
287.6170, 14926.00
288.8300, 14833.00
290.0420, 14977.00
291.2550, 14980.00
292.4670, 15002.00
293.6790, 15091.00
294.8910, 15182.00
296.1030, 15287.00
297.3150, 15236.00
298.5260, 15411.00
299.7380, 15438.00
300.9490, 15519.00
302.1600, 15672.00
303.3710, 15570.00
304.5810, 15697.00
305.7920, 15621.00
307.0020, 15621.00
308.2120, 15770.00
309.4220, 15744.00
310.6320, 15929.00
311.8410, 15928.00
313.0510, 16144.00
314.2600, 16257.00
315.4690, 16429.00
316.6780, 16602.00
317.8870, 16864.00
319.0950, 17392.00
320.3040, 17788.00
321.5120, 18020.00
322.7200, 18245.00
323.9280, 18364.00
325.1360, 18602.00
326.3430, 18161.00
327.5510, 17811.00
328.7580, 17750.00
329.9650, 17557.00
331.1720, 17028.00
332.3790, 16892.00
333.5850, 16741.00
334.7910, 16712.00
335.9980, 16590.00
337.2040, 16396.00
338.4100, 16350.00
339.6150, 16170.00
340.8210, 16360.00
342.0260, 16264.00
343.2310, 16247.00
344.4360, 16355.00
345.6410, 16385.00
346.8460, 16564.00
348.0500, 16475.00
349.2550, 16456.00
350.4590, 16735.00
351.6630, 16904.00
352.8670, 16994.00
354.0700, 17277.00
355.2740, 17342.00
356.4770, 17310.00
357.6800, 17510.00
358.8830, 17200.00
360.0860, 17274.00
361.2890, 17255.00
362.4910, 17193.00
363.6930, 17023.00
364.8960, 17011.00
366.0980, 17106.00
367.2990, 16890.00
368.5010, 17078.00
369.7020, 17103.00
370.9040, 17149.00
372.1050, 17117.00
373.3060, 17102.00
374.5070, 17168.00
375.7070, 17123.00
376.9080, 17103.00
378.1080, 17321.00
379.3080, 17394.00
380.5080, 17446.00
381.7080, 17775.00
382.9070, 17937.00
384.1070, 18187.00
385.3060, 18963.00
386.5050, 19364.00
387.7040, 19574.00
388.9030, 20185.00
390.1010, 20430.00
391.3000, 20532.00
392.4980, 20221.00
393.6960, 19857.00
394.8940, 19450.00
396.0920, 18797.00
397.2890, 18486.00
398.4870, 18252.00
399.6840, 17745.00
400.8810, 17623.00
402.0780, 17504.00
403.2750, 17350.00
404.4710, 17363.00
405.6680, 17060.00
406.8640, 16951.00
408.0600, 16998.00
409.2560, 17001.00
410.4520, 16897.00
411.6470, 16783.00
412.8430, 16916.00
414.0380, 16695.00
415.2330, 16885.00
416.4280, 16770.00
417.6220, 16967.00
418.8170, 16879.00
420.0110, 16969.00
421.2050, 17041.00
422.4000, 17098.00
423.5930, 17128.12
424.7870, 17061.00
425.9810, 17165.00
427.1740, 17029.00
428.3670, 17057.00
429.5600, 17184.00
430.7530, 16935.00
431.9460, 17140.00
433.1380, 17018.00
434.3310, 17092.00
435.5230, 16951.00
436.7150, 17086.00
437.9070, 17081.00
439.0980, 17276.00
440.2900, 17126.00
441.4810, 17381.00
442.6720, 17271.00
443.8630, 17346.00
445.0540, 17312.00
446.2450, 17458.00
447.4350, 17325.00
448.6260, 17259.00
449.8160, 17463.00
451.0060, 17377.00
452.1960, 17550.00
453.3850, 17404.00
454.5750, 17497.00
455.7640, 17448.00
456.9530, 17506.00
458.1420, 17607.00
459.3310, 17670.00
460.5200, 17659.00
461.7080, 17809.00
462.8970, 17773.00
464.0850, 17597.00
465.2730, 17716.00
466.4610, 17706.00
467.6480, 17906.00
468.8360, 17747.00
470.0230, 17923.00
471.2100, 17817.00
472.3970, 18015.00
473.5840, 17857.00
474.7710, 17833.00
475.9570, 17808.00
477.1440, 17801.00
478.3300, 17739.00
479.5160, 17783.00
480.7020, 17804.13
481.8870, 17877.00
483.0730, 17922.00
484.2580, 17900.00
485.4430, 17980.00
486.6280, 18166.00
487.8130, 17999.00
488.9980, 18191.00
490.1820, 17891.00
491.3660, 18100.00
492.5510, 18203.00
493.7350, 18151.00
494.9180, 18116.00
496.1020, 18261.00
497.2860, 18192.00
498.4690, 18159.00
499.6520, 18238.00
500.8350, 18245.00
502.0180, 18156.00
503.2000, 18299.00
504.3830, 18227.00
505.5650, 18423.00
506.7470, 18517.00
507.9290, 18334.00
509.1110, 18306.00
510.2930, 18464.00
511.4740, 18591.00
512.6560, 18360.00
513.8370, 18643.00
515.0180, 18594.00
516.1980, 18631.00
517.3790, 18668.00
518.5600, 18695.00
519.7400, 18745.00
520.9200, 18783.85
522.1000, 18836.64
523.2800, 18874.00
524.4590, 18966.00
525.6390, 19013.00
526.8180, 19111.00
527.9970, 18991.00
529.1760, 19037.00
530.3550, 19204.00
531.5340, 19093.00
532.7120, 19268.00
533.8910, 19191.00
535.0690, 19249.00
536.2470, 19350.00
537.4250, 19246.00
538.6020, 19357.00
539.7800, 19186.00
540.9570, 19156.00
542.1340, 19283.00
543.3110, 19424.00
544.4880, 19328.00
545.6650, 19288.00
546.8410, 19328.00
548.0170, 19304.00
549.1940, 19410.00
550.3690, 19348.00
551.5450, 19481.00
552.7210, 19565.00
553.8960, 19655.00
555.0720, 19615.00
556.2470, 19670.00
557.4220, 19670.01
558.5970, 19753.00
559.7710, 19645.00
560.9460, 19663.00
562.1200, 19612.00
563.2940, 19582.00
564.4680, 19545.78
565.6420, 19522.00
566.8160, 19483.00
567.9890, 19487.00
569.1630, 19538.00
570.3360, 19578.00
571.5090, 19416.00
572.6820, 19676.00
573.8540, 19434.00
575.0270, 19692.00
576.1990, 19538.00
577.3710, 19404.00
578.5430, 19548.00
579.7150, 19711.00
580.8870, 19598.00
582.0580, 19524.00
583.2300, 19552.00
584.4010, 19594.00
585.5720, 19543.00
586.7430, 19771.00
587.9130, 19600.00
589.0840, 19653.00
590.2540, 19541.00
591.4240, 19580.00
592.5940, 19624.00
593.7640, 19776.00
594.9340, 19699.00
596.1030, 19675.00
597.2730, 19844.00
598.4420, 19682.00
599.6110, 19559.00
600.7800, 19857.00
601.9490, 19603.00
603.1170, 19823.00
604.2850, 19875.94
605.4540, 20051.57
606.6220, 20160.85
607.7900, 20207.35
608.9570, 20003.04
610.1250, 20122.60
611.2920, 20112.35
612.4590, 20096.78
613.6260, 20261.90
614.7930, 20094.06
615.9600, 20256.31
617.1270, 20286.80
618.2930, 20377.57
619.4590, 20337.76
620.6250, 20338.28
621.7910, 20469.42
622.9570, 20528.24
624.1220, 20473.37
625.2880, 20567.98
626.4530, 20395.54
627.6180, 20457.42
628.7830, 20460.00
629.9480, 20457.00
631.1120, 20428.00
632.2770, 20540.00
633.4410, 20492.47
634.6050, 20655.59
635.7690, 20760.98
636.9330, 20811.99
638.0960, 20632.58
639.2600, 20760.73
640.4230, 20771.74
641.5860, 20782.13
642.7490, 20966.04
643.9120, 20842.64
645.0740, 21032.56
646.2370, 21103.55
647.3990, 21235.31
648.5610, 21249.19
649.7230, 21305.19
650.8850, 21487.84
652.0460, 21801.00
653.2080, 21821.00
654.3690, 21877.00
655.5300, 22131.00
656.6910, 22470.00
657.8520, 22738.00
659.0130, 23745.00
660.1730, 23837.00
661.3330, 24568.00
662.4930, 25221.00
663.6530, 25773.00
664.8130, 26100.00
665.9730, 26240.35
667.1320, 26241.00
668.2920, 25976.00
669.4510, 25538.00
670.6100, 24928.00
671.7680, 24450.00
672.9270, 23831.00
674.0860, 23539.00
675.2440, 23235.00
676.4020, 22846.00
677.5600, 22750.00
678.7180, 22635.00
679.8760, 22584.00
681.0330, 22529.00
682.1900, 22480.00
683.3480, 22196.00
684.5050, 22198.00
685.6610, 22106.00
686.8180, 22151.00
687.9750, 21982.00
689.1310, 21974.00
690.2870, 21908.00
691.4430, 21953.00
692.5990, 21882.16
693.7550, 22020.00
694.9100, 21845.00
696.0660, 21811.00
697.2210, 21927.00
698.3760, 22002.00
699.5310, 21992.65
700.6860, 21823.00
701.8400, 22018.00
702.9940, 21841.00
704.1490, 21851.00
705.3030, 21792.00
706.4570, 21890.00
707.6100, 21720.00
708.7640, 21904.00
709.9170, 21887.00
711.0710, 22163.00
712.2240, 21925.00
713.3770, 21990.00
714.5290, 22094.00
715.6820, 21878.00
716.8340, 22156.00
717.9870, 21980.00
719.1390, 21776.00
720.2910, 21888.00
721.4430, 22256.00
722.5940, 22084.00
723.7460, 22121.00
724.8970, 21957.00
726.0480, 21945.00
727.1990, 22058.00
728.3500, 21908.00
729.5000, 22218.00
730.6510, 22129.00
731.8010, 22125.00
732.9510, 22273.00
734.1010, 22274.00
735.2510, 22206.00
736.4010, 22319.00
737.5500, 22434.00
738.7000, 22374.00
739.8490, 22451.11
740.9980, 22462.00
742.1470, 22452.00
743.2950, 22400.00
744.4440, 22362.00
745.5920, 22361.00
746.7400, 22577.00
747.8880, 22580.00
749.0360, 22749.00
750.1840, 22333.00
751.3310, 22536.00
752.4790, 22427.00
753.6260, 22697.00
754.7730, 22660.00
755.9200, 22621.00
757.0670, 22626.00
758.2130, 22675.00
759.3600, 22682.00
760.5060, 22703.08
761.6520, 22729.00
762.7980, 22755.00
763.9440, 22763.00
765.0890, 22828.00
766.2350, 22902.00
767.3800, 22924.00
768.5250, 23017.00
769.6700, 22903.00
770.8150, 22883.00
771.9590, 23007.00
773.1040, 22928.00
774.2480, 22930.00
775.3920, 22908.00
776.5360, 22997.00
777.6800, 23090.00
778.8240, 23277.00
779.9670, 23195.00
781.1100, 23191.00
782.2540, 23206.00
783.3970, 23433.00
784.5390, 23253.00
785.6820, 23089.00
786.8240, 23268.00
787.9670, 23095.00
789.1090, 23202.00
790.2510, 23339.00
791.3930, 23242.00
792.5350, 23288.00
793.6760, 23432.00
794.8170, 23360.00
795.9590, 23596.00
797.1000, 23461.00
798.2410, 23402.00
799.3810, 23517.00
800.5220, 23553.00
801.6620, 23564.00
802.8030, 23550.00
803.9430, 23650.00
805.0820, 23558.00
806.2220, 23574.00
807.3620, 23588.00
808.5010, 23520.00
809.6410, 23554.12
810.7800, 23702.00
811.9190, 23612.00
813.0570, 23776.00
814.1960, 23918.00
815.3340, 23843.96
816.4730, 24322.00
817.6110, 23878.00
818.7490, 23930.00
819.8870, 24145.00
821.0240, 24009.00
822.1620, 24021.00
823.2990, 23981.00
824.4360, 24108.00
825.5730, 24168.00
826.7100, 24313.00
827.8470, 24298.95
828.9830, 24352.31
830.1200, 24304.00
831.2560, 24354.00
832.3920, 24434.00
833.5280, 24396.00
834.6630, 24434.07
835.7990, 24288.00
836.9340, 24378.00
838.0700, 24392.00
839.2050, 24249.00
840.3400, 24452.00
841.4740, 24426.00
842.6090, 24453.00
843.7430, 24562.00
844.8780, 24447.00
846.0120, 24610.00
847.1460, 24608.00
848.2790, 24945.00
849.4130, 24900.00
850.5460, 24793.00
851.6800, 25016.00
852.8130, 25007.00
853.9460, 25263.00
855.0790, 25119.00
856.2110, 25282.00
857.3440, 25131.00
858.4760, 25260.00
859.6080, 25121.00
860.7400, 25100.00
861.8720, 25178.00
863.0040, 25154.00
864.1350, 25154.28
865.2670, 25262.00
866.3980, 25124.00
867.5290, 25143.00
868.6600, 25127.00
869.7900, 25454.00
870.9210, 25322.00
872.0510, 25189.00
873.1820, 25349.00
874.3120, 25144.00
875.4420, 25106.00
876.5710, 24961.00
877.7010, 25252.00
878.8300, 25349.00
879.9600, 25291.00
881.0890, 25430.00
882.2180, 25503.00
883.3460, 25411.00
884.4750, 25567.00
885.6040, 25426.00
886.7320, 25490.00
887.8600, 25651.00
888.9880, 25501.00
890.1160, 25705.00
891.2430, 25591.00
892.3710, 25560.00
893.4980, 25532.00
894.6260, 25571.00
895.7530, 25598.00
896.8790, 25491.00
898.0060, 25742.00
899.1330, 25734.00
900.2590, 25592.00
901.3850, 25664.00
902.5110, 25486.00
903.6370, 25819.00
904.7630, 25567.00
905.8890, 25863.00
907.0140, 25778.00
908.1390, 25851.00
909.2640, 25751.00
910.3890, 25770.00
911.5140, 25951.00
912.6390, 25947.00
913.7630, 26139.00
914.8870, 26169.37
916.0120, 26021.00
917.1360, 26224.00
918.2590, 26257.00
919.3830, 26205.00
920.5070, 26271.00
921.6300, 26114.00
922.7530, 26194.00
923.8760, 26192.00
924.9990, 26070.00
926.1220, 26336.00
927.2440, 26362.00
928.3670, 26338.00
929.4890, 26440.00
930.6110, 26389.00
931.7330, 26470.00
932.8540, 26475.00
933.9760, 26535.00
935.0980, 26420.00
936.2190, 26713.00
937.3400, 26750.00
938.4610, 26627.00
939.5820, 26534.00
940.7020, 26647.00
941.8230, 26526.00
942.9430, 26674.00
944.0630, 26713.00
945.1830, 26889.00
946.3030, 26988.00
947.4230, 26741.00
948.5420, 26896.00
949.6610, 26804.00
950.7810, 27034.00
951.9000, 27095.00
953.0190, 27134.00
954.1370, 27061.00
955.2560, 27054.00
956.3740, 27068.00
957.4920, 27123.00
958.6110, 27257.00
959.7280, 27215.00
960.8460, 27298.00
961.9640, 27156.00
963.0810, 27460.00
964.1990, 27264.00
965.3160, 27290.00
966.4330, 27431.00
967.5490, 27407.00
968.6660, 27623.00
969.7830, 27617.00
970.8990, 27629.00
972.0150, 27828.00
973.1310, 27714.00
974.2470, 27688.00
975.3630, 27711.00
976.4780, 27731.00
977.5930, 27974.00
978.7090, 27999.00
979.8240, 28015.00
980.9390, 27948.00
982.0530, 27959.00
983.1680, 28074.00
984.2820, 28101.00
985.3970, 28412.00
986.5110, 28322.00
987.6250, 28478.00
988.7380, 28744.00
989.8520, 28495.00
990.9660, 28630.00
992.0790, 28682.00
993.1920, 28834.00
994.3050, 28906.00
995.4180, 29046.00
996.5300, 29267.00
997.6430, 29321.00
998.7550, 29450.00
999.8680, 29629.00
1000.980, 30225.00
1002.091, 30605.00
1003.203, 30980.00
1004.315, 31294.00
1005.426, 31923.00
1006.537, 32573.00
1007.648, 33309.00
1008.759, 34405.00
1009.870, 35283.00
1010.981, 36132.00
1012.091, 36485.00
1013.201, 35978.00
1014.312, 35395.00
1015.422, 34013.00
1016.531, 33044.00
1017.641, 32211.00
1018.751, 31569.00
1019.860, 30864.00
1020.969, 30439.00
1022.078, 30095.00
1023.187, 29974.00
1024.296, 29622.00
1025.404, 29779.00
1026.513, 29692.00
1027.621, 29715.00
1028.729, 29637.00
1029.837, 29486.00
1030.945, 29420.00
1032.052, 29655.00
1033.160, 29563.00
1034.267, 29556.00
1035.374, 29632.00
1036.481, 29355.00
1037.588, 29662.00
1038.695, 29846.00
1039.801, 29686.00
1040.907, 29761.00
1042.014, 29954.00
1043.120, 30078.00
1044.225, 29995.00
1045.331, 29902.00
1046.437, 30012.00
1047.542, 29844.00
1048.647, 29790.00
1049.752, 29779.00
1050.857, 29846.00
1051.962, 29726.00
1053.067, 29885.00
1054.171, 29838.00
1055.275, 29875.00
1056.380, 29893.68
1057.484, 29869.33
1058.587, 29900.00
1059.691, 29854.00
1060.795, 29913.00
1061.898, 29925.00
1063.001, 29928.00
1064.104, 30046.00
1065.207, 29973.64
1066.310, 29969.00
1067.412, 29883.00
1068.515, 29842.00
1069.617, 29784.00
1070.719, 29874.00
1071.821, 30004.00
1072.923, 29906.00
1074.024, 30071.00
1075.126, 30108.00
1076.227, 30058.00
1077.328, 30238.00
1078.429, 30175.11
1079.530, 30323.00
1080.631, 30225.00
1081.731, 30267.00
1082.831, 30439.00
1083.932, 30292.00
1085.032, 30325.00
1086.132, 30396.00
1087.231, 30284.00
1088.331, 30216.00
1089.430, 30511.00
1090.530, 30394.00
1091.629, 30584.00
1092.728, 30370.00
1093.826, 30520.00
1094.925, 30521.00
1096.023, 30678.00
1097.122, 30513.00
1098.220, 30686.00
1099.318, 30710.00
1100.416, 30616.00
1101.513, 30473.00
1102.611, 30669.00
1103.708, 30709.00
1104.806, 30724.00
1105.903, 30751.00
1107.000, 30882.00
1108.096, 30851.81
1109.193, 31005.00
1110.289, 30883.00
1111.386, 30892.00
1112.482, 30953.00
1113.578, 30940.00
1114.673, 30886.21
1115.769, 31056.89
1116.865, 31165.46
1117.960, 31215.24
1119.055, 31030.22
1120.150, 31148.39
1121.245, 31145.06
1122.340, 31136.75
1123.434, 31297.56
1124.529, 31146.70
1125.623, 31304.83
1126.717, 31339.61
1127.811, 31430.84
1128.905, 31399.82
1129.998, 31406.54
1131.092, 31535.57
1132.185, 31596.87
1133.278, 31551.74
1134.371, 31646.54
1135.464, 31491.35
1136.557, 31555.53
1137.649, 31714.33
1138.742, 31675.35
1139.834, 31772.36
1140.926, 31817.57
1142.018, 31627.38
1143.109, 31846.54
1144.201, 31888.69
1145.292, 31749.02
1146.384, 31954.19
1147.475, 31839.58
1148.566, 31839.11
1149.657, 31924.52
1150.747, 31920.37
1151.838, 32057.41
1152.928, 32058.43
1154.018, 32047.30
1155.108, 32089.20
1156.198, 31980.84
1157.288, 32151.23
1158.377, 32131.19
1159.467, 32205.82
1160.556, 32301.88
1161.645, 32233.67
1162.734, 32339.37
1163.823, 32198.00
1164.911, 32278.00
1166.000, 32387.00
1167.088, 32443.00
1168.176, 32426.00
1169.264, 32485.00
1170.352, 32447.00
1171.440, 32593.00
1172.527, 32609.96
1173.615, 32596.00
1174.702, 32756.00
1175.789, 32636.00
1176.876, 32751.00
1177.963, 32464.00
1179.049, 32912.00
1180.136, 32616.00
1181.222, 32920.00
1182.308, 32843.00
1183.394, 32849.00
1184.480, 33049.00
1185.566, 32946.00
1186.651, 32964.00
1187.736, 33046.00
1188.822, 33022.00
1189.907, 32961.00
1190.992, 32883.00
1192.076, 33132.00
1193.161, 33288.00
1194.245, 32963.00
1195.330, 33251.00
1196.414, 33273.00
1197.498, 33298.00
1198.581, 33284.00
1199.665, 33405.00
1200.749, 33623.00
1201.832, 33314.00
1202.915, 33547.00
1203.998, 33356.00
1205.081, 33360.00
1206.164, 33492.00
1207.246, 33463.00
1208.329, 33505.00
1209.411, 33512.00
1210.493, 33662.00
1211.575, 33675.00
1212.657, 33771.00
1213.738, 33782.00
1214.820, 34014.00
1215.901, 33767.00
1216.982, 33923.00
1218.063, 33547.00
1219.144, 33750.00
1220.225, 33940.00
1221.305, 33884.00
1222.386, 34068.00
1223.466, 33989.00
1224.546, 34075.00
1225.626, 34007.00
1226.706, 34273.00
1227.785, 33999.00
1228.865, 34347.00
1229.944, 34328.00
1231.023, 34313.00
1232.102, 34392.00
1233.181, 34428.00
1234.260, 34321.00
1235.338, 34302.00
1236.417, 34527.00
1237.495, 34559.00
1238.573, 34477.00
1239.651, 34521.00
1240.729, 34547.00
1241.806, 34543.00
1242.884, 34569.00
1243.961, 34460.00
1245.038, 34517.16
1246.115, 34645.00
1247.192, 34575.00
1248.269, 34950.00
1249.345, 35042.00
1250.421, 34991.00
1251.498, 34874.00
1252.574, 34903.00
1253.650, 34993.00
1254.725, 35014.00
1255.801, 35063.25
1256.876, 35107.68
1257.952, 35142.00
1259.027, 35200.00
1260.102, 35242.98
1261.177, 35338.22
1262.251, 35344.00
1263.326, 35392.00
1264.400, 35425.00
1265.474, 35389.00
1266.548, 35364.00
1267.622, 35427.27
