##NAMES=Diopside
##RRUFFID=R050406
##IDEAL CHEMISTRY=CaMgSi_2_O_6_
##LOCALITY=unknown
##OWNER=RRUFF
##SOURCE=University of Arizona Mineral Museum
##DESCRIPTION=Brownish gray massive
##STATUS=The identification of this mineral has been confirmed by X-ray diffraction and chemical analysis
##URL=rruff.info/R050406
##MEASURED CHEMISTRY=(Ca_0.95_Na_0.05_)(Mg_0.75_Fe^2+^_0.18_Fe^3+^_0.05_Al_0.01_Ti_0.01_Mn^2+^_0.01_)(Si_0.98_Al_0.02_)_2_O_6_
##PIN_ID=M00086
##ORIENTATION=Laser parallel to c* (0 0 1). Fiducial mark perpendicular to laser is parallel to a [1 0 0]
116.9030, 8289.000
118.1340, 8318.000
119.3650, 8346.000
120.5960, 8298.000
121.8270, 8522.000
123.0580, 8470.000
124.2880, 8505.000
125.5190, 8358.000
126.7490, 8640.000
127.9790, 8754.000
129.2090, 8852.000
130.4390, 9085.000
131.6680, 9031.000
132.8980, 9086.000
134.1270, 9190.000
135.3560, 9442.000
136.5850, 9591.000
137.8140, 9774.000
139.0430, 9943.000
140.2710, 10223.00
141.5000, 10044.00
142.7280, 9983.000
143.9560, 10159.00
145.1840, 9919.000
146.4120, 10084.00
147.6390, 10147.00
148.8670, 9986.000
150.0940, 10098.00
151.3210, 10155.00
152.5490, 10219.00
153.7750, 10170.00
155.0020, 10203.00
156.2290, 10040.00
157.4550, 10025.00
158.6810, 10140.00
159.9080, 10180.00
161.1340, 10320.00
162.3590, 10480.00
163.5850, 10719.00
164.8110, 10817.00
166.0360, 10901.00
167.2610, 10797.00
168.4860, 10821.00
169.7110, 11207.11
170.9360, 10889.00
172.1610, 10963.63
173.3850, 10480.00
174.6100, 10860.00
175.8340, 10701.00
177.0580, 10871.00
178.2820, 10920.00
179.5050, 11092.00
180.7290, 11170.00
181.9520, 11257.00
183.1760, 11267.00
184.3990, 11345.00
185.6220, 11281.00
186.8450, 11423.00
188.0670, 11385.00
189.2900, 11455.00
190.5120, 11403.00
191.7340, 11706.00
192.9560, 11886.00
194.1780, 11844.00
195.4000, 11916.00
196.6220, 11867.00
197.8430, 11908.00
199.0640, 11908.00
200.2860, 11820.00
201.5070, 11714.00
202.7270, 11614.00
203.9480, 11280.00
205.1690, 11301.00
206.3890, 11102.00
207.6090, 11167.00
208.8290, 11110.00
210.0490, 11249.00
211.2690, 11216.00
212.4890, 11180.00
213.7080, 11317.00
214.9280, 11442.00
216.1470, 11476.00
217.3660, 11411.00
218.5850, 11460.00
219.8030, 11522.00
221.0220, 11529.00
222.2400, 11817.00
223.4590, 11747.00
224.6770, 11960.00
225.8950, 12010.00
227.1120, 12029.00
228.3300, 12154.00
229.5480, 12220.00
230.7650, 12306.00
231.9820, 12405.00
233.1990, 12364.00
234.4160, 12290.00
235.6330, 12365.00
236.8490, 12230.00
238.0660, 12227.00
239.2820, 12150.00
240.4980, 12138.61
241.7140, 12180.00
242.9300, 12176.00
244.1460, 12207.60
245.3610, 12185.00
246.5770, 12267.00
247.7920, 12352.00
249.0070, 12380.00
250.2220, 12291.00
251.4370, 12450.00
252.6510, 12404.00
253.8660, 12498.00
255.0800, 12474.00
256.2940, 12684.00
257.5080, 13080.00
258.7220, 13456.00
259.9360, 13010.00
261.1490, 12576.00
262.3630, 12441.00
263.5760, 12435.00
264.7890, 12391.00
266.0020, 12414.00
267.2150, 12284.00
268.4270, 12235.00
269.6400, 12358.00
270.8520, 12276.00
272.0640, 12305.00
273.2760, 12471.00
274.4880, 12374.00
275.7000, 12408.00
276.9120, 12730.23
278.1230, 13358.00
279.3340, 13063.00
280.5450, 14033.00
281.7560, 13526.00
282.9670, 13029.00
284.1780, 13122.00
285.3880, 13249.00
286.5980, 13469.00
287.8090, 13422.00
289.0190, 13651.00
290.2290, 13006.00
291.4380, 13087.00
292.6480, 13030.00
293.8570, 13202.00
295.0670, 13303.00
296.2760, 13580.00
297.4850, 13639.00
298.6930, 13788.00
299.9020, 13828.00
301.1110, 14053.00
302.3190, 14278.00
303.5270, 14409.00
304.7350, 14521.00
305.9430, 14678.00
307.1510, 14901.00
308.3580, 14982.00
309.5660, 15371.00
310.7730, 15642.00
311.9800, 15846.00
313.1870, 16143.00
314.3940, 16610.00
315.6010, 16959.00
316.8070, 17502.00
318.0130, 18003.00
319.2200, 18610.00
320.4260, 19184.00
321.6310, 19823.00
322.8370, 20593.00
324.0430, 20863.00
325.2480, 20842.00
326.4540, 20815.00
327.6590, 20363.00
328.8640, 19689.00
330.0680, 19198.00
331.2730, 18641.00
332.4780, 18248.00
333.6820, 17577.00
334.8860, 17127.00
336.0900, 16701.00
337.2940, 16543.00
338.4980, 16468.00
339.7010, 16193.00
340.9050, 16166.00
342.1080, 16127.00
343.3110, 16026.00
344.5140, 15983.00
345.7170, 16152.00
346.9200, 16199.00
348.1220, 16375.00
349.3240, 16542.00
350.5270, 16888.00
351.7290, 17144.00
352.9310, 17667.00
354.1320, 18048.00
355.3340, 18438.00
356.5350, 18645.00
357.7370, 18509.00
358.9380, 18401.00
360.1390, 17928.00
361.3400, 17581.00
362.5400, 17386.00
363.7410, 17029.00
364.9410, 16700.00
366.1410, 16652.00
367.3410, 16282.00
368.5410, 16108.00
369.7410, 16160.00
370.9400, 15940.00
372.1400, 16067.00
373.3390, 16008.00
374.5380, 16169.00
375.7370, 16287.00
376.9360, 16602.00
378.1350, 17013.00
379.3330, 17306.00
380.5310, 17732.00
381.7300, 18079.00
382.9280, 18977.00
384.1260, 19763.00
385.3230, 20665.00
386.5210, 21754.00
387.7180, 22852.00
388.9160, 23919.00
390.1130, 24592.00
391.3100, 24517.00
392.5060, 24148.00
393.7030, 23204.00
394.9000, 22378.00
396.0960, 20874.00
397.2920, 19966.00
398.4880, 18737.00
399.6840, 18012.00
400.8800, 17080.00
402.0750, 16715.00
403.2710, 16130.00
404.4660, 15654.00
405.6610, 15430.00
406.8560, 15275.00
408.0510, 14937.00
409.2450, 14977.00
410.4400, 14836.00
411.6340, 14664.00
412.8280, 14687.00
414.0220, 14728.00
415.2160, 14632.00
416.4100, 14530.00
417.6030, 14533.00
418.7970, 14452.00
419.9900, 14511.00
421.1830, 14467.00
422.3760, 14448.00
423.5690, 14432.00
424.7610, 14493.00
425.9540, 14388.00
427.1460, 14384.00
428.3380, 14296.00
429.5300, 14292.00
430.7220, 14297.00
431.9140, 14258.00
433.1050, 14475.00
434.2970, 14295.00
435.4880, 14437.00
436.6790, 14414.00
437.8700, 14338.00
439.0610, 14274.00
440.2510, 14409.00
441.4420, 14462.00
442.6320, 14397.00
443.8220, 14314.00
445.0120, 14519.00
446.2020, 14400.00
447.3910, 14547.00
448.5810, 14527.00
449.7700, 14659.00
450.9600, 14644.00
452.1490, 14838.00
453.3370, 14838.00
454.5260, 14712.00
455.7150, 14778.00
456.9030, 14977.00
458.0910, 15089.00
459.2800, 15097.00
460.4670, 15143.00
461.6550, 15054.00
462.8430, 15069.00
464.0300, 15263.00
465.2180, 15364.00
466.4050, 15276.00
467.5920, 15299.00
468.7790, 15133.00
469.9650, 15138.00
471.1520, 15193.00
472.3380, 15052.00
473.5250, 14985.00
474.7110, 15072.00
475.8970, 15098.00
477.0820, 15151.00
478.2680, 15126.52
479.4540, 15038.00
480.6390, 15078.00
481.8240, 15128.00
483.0090, 15184.00
484.1940, 15063.00
485.3780, 15115.00
486.5630, 15226.00
487.7470, 15147.00
488.9320, 15270.00
490.1160, 15252.00
491.3000, 15349.00
492.4830, 15176.00
493.6670, 15355.00
494.8500, 15432.00
496.0340, 15234.00
497.2170, 15284.00
498.4000, 15278.00
499.5820, 15351.00
500.7650, 15413.00
501.9480, 15341.00
503.1300, 15557.00
504.3120, 15375.00
505.4940, 15471.00
506.6760, 15597.00
507.8580, 15531.00
509.0390, 15694.00
510.2210, 15731.00
511.4020, 15753.00
512.5830, 15791.00
513.7640, 15960.00
514.9450, 15977.00
516.1250, 16012.00
517.3060, 16117.47
518.4860, 16078.00
519.6660, 16247.00
520.8460, 16131.00
522.0260, 16146.00
523.2060, 16296.00
524.3850, 16431.00
525.5650, 16499.67
526.7440, 16529.00
527.9230, 16686.00
529.1020, 16762.00
530.2810, 16833.35
531.4590, 16943.00
532.6380, 16860.00
533.8160, 16749.00
534.9940, 16713.00
536.1720, 16760.00
537.3500, 16607.00
538.5270, 16747.00
539.7050, 16687.00
540.8820, 16618.00
542.0590, 16712.00
543.2360, 16594.00
544.4130, 16702.00
545.5900, 16615.00
546.7660, 16842.00
547.9430, 16788.00
549.1190, 16747.00
550.2950, 17072.00
551.4710, 16844.00
552.6470, 17235.00
553.8220, 17463.00
554.9980, 17853.00
556.1730, 18033.00
557.3480, 18347.00
558.5230, 18584.00
559.6980, 18797.00
560.8730, 18541.00
562.0470, 18242.00
563.2220, 17973.00
564.3960, 17750.00
565.5700, 17407.00
566.7440, 17284.16
567.9170, 16874.00
569.0910, 16959.00
570.2640, 16922.00
571.4380, 16668.00
572.6110, 16790.00
573.7840, 16542.00
574.9570, 16452.00
576.1290, 16510.00
577.3020, 16455.00
578.4740, 16446.00
579.6460, 16607.00
580.8180, 16412.00
581.9900, 16344.00
583.1620, 16733.00
584.3330, 16288.00
585.5040, 16204.00
586.6760, 16354.00
587.8470, 16408.00
589.0180, 16414.15
590.1880, 16254.00
591.3590, 16443.00
592.5290, 16297.00
593.7000, 16228.00
594.8700, 16241.00
596.0400, 16120.00
597.2090, 16264.00
598.3790, 16244.00
599.5490, 16329.00
600.7180, 16364.00
601.8870, 16307.00
603.0560, 16188.00
604.2250, 16253.00
605.3940, 16204.00
606.5620, 16375.00
607.7300, 16273.00
608.8990, 16332.00
610.0670, 16498.00
611.2350, 16477.00
612.4020, 16417.00
613.5700, 16531.00
614.7370, 16690.00
615.9050, 16568.00
617.0720, 16517.00
618.2390, 16690.00
619.4060, 16618.00
620.5720, 16658.00
621.7390, 16856.00
622.9050, 16831.00
624.0710, 16892.00
625.2370, 16800.00
626.4030, 16992.00
627.5690, 17100.00
628.7340, 17067.00
629.9000, 17108.00
631.0650, 17092.00
632.2300, 17115.00
633.3950, 17482.00
634.5600, 17425.00
635.7240, 17583.00
636.8890, 17563.00
638.0530, 17718.00
639.2170, 17608.00
640.3810, 17895.00
641.5450, 18025.00
642.7080, 17967.00
643.8720, 18290.00
645.0350, 18423.00
646.1980, 18510.00
647.3610, 18896.00
648.5240, 19075.00
649.6870, 19308.00
650.8490, 19604.00
652.0120, 20097.00
653.1740, 20504.00
654.3360, 21270.00
655.4980, 21896.00
656.6600, 22844.00
657.8210, 24075.00
658.9830, 25215.00
660.1440, 26739.00
661.3050, 28767.00
662.4660, 31042.00
663.6270, 33623.00
664.7870, 35922.00
665.9480, 37501.00
667.1080, 38828.00
668.2680, 38309.00
669.4280, 37161.00
670.5880, 35021.00
671.7480, 32671.00
672.9070, 30259.00
674.0670, 27975.00
675.2260, 26012.00
676.3850, 24581.00
677.5440, 23422.00
678.7030, 22387.00
679.8610, 21655.00
681.0200, 21119.00
682.1780, 20440.00
683.3360, 20098.00
684.4940, 19782.00
685.6520, 19525.00
686.8090, 19190.00
687.9670, 19056.00
689.1240, 18941.00
690.2810, 18716.00
691.4380, 18597.41
692.5950, 18580.00
693.7520, 18295.00
694.9080, 18322.00
696.0650, 18195.46
697.2210, 18330.00
698.3770, 18203.00
699.5330, 18270.00
700.6880, 18284.00
701.8440, 18126.00
702.9990, 18083.00
704.1550, 18181.00
705.3100, 17967.00
706.4650, 18056.00
707.6190, 18031.00
708.7740, 18155.00
709.9290, 18228.00
711.0830, 18127.00
712.2370, 17954.00
713.3910, 18034.00
714.5450, 18025.00
715.6980, 18160.00
716.8520, 18035.00
718.0050, 18017.00
719.1580, 17965.00
720.3110, 17927.53
721.4640, 18064.00
722.6170, 17913.00
723.7700, 18124.00
724.9220, 18177.00
726.0740, 18111.00
727.2260, 18084.00
728.3780, 18184.00
729.5300, 18109.00
730.6810, 17955.00
731.8330, 18077.00
732.9840, 18018.00
734.1350, 18215.00
735.2860, 18158.00
736.4370, 18105.00
737.5880, 18310.00
738.7380, 18151.00
739.8880, 18241.00
741.0390, 18417.00
742.1890, 18188.00
743.3380, 18331.00
744.4880, 18411.00
745.6380, 18357.00
746.7870, 18432.00
747.9360, 18440.00
749.0850, 18347.00
750.2340, 18442.00
751.3830, 18485.00
752.5310, 18465.00
753.6800, 18396.00
754.8280, 18534.00
755.9760, 18371.00
757.1240, 18457.00
758.2720, 18538.00
759.4190, 18682.00
760.5670, 18541.00
761.7140, 18706.00
762.8610, 18585.00
764.0080, 18701.00
765.1550, 18737.00
766.3020, 18735.00
767.4480, 18650.00
768.5950, 18874.00
769.7410, 18886.00
770.8870, 18979.00
772.0330, 19259.00
773.1780, 18815.00
774.3240, 18975.00
775.4690, 18843.00
776.6140, 19069.00
777.7590, 19036.00
778.9040, 19162.00
780.0490, 19227.00
781.1940, 19083.00
782.3380, 19118.00
783.4820, 19210.00
784.6260, 19666.00
785.7700, 19296.00
786.9140, 19378.00
788.0580, 19317.00
789.2010, 19100.00
790.3450, 19304.00
791.4880, 19262.00
792.6310, 19408.00
793.7730, 19246.00
794.9160, 19374.00
796.0590, 19326.00
797.2010, 19171.00
798.3430, 19311.00
799.4850, 19239.00
800.6270, 19338.00
801.7690, 19426.00
802.9100, 19473.00
804.0520, 19676.00
805.1930, 19456.00
806.3340, 19389.00
807.4750, 19483.00
808.6160, 19456.00
809.7560, 19536.00
810.8970, 19606.00
812.0370, 19650.00
813.1770, 19663.84
814.3170, 19633.00
815.4570, 19696.00
816.5960, 19671.00
817.7360, 19781.00
818.8750, 19793.00
820.0140, 19840.00
821.1530, 19860.00
822.2920, 19823.00
823.4310, 20228.00
824.5690, 19906.00
825.7070, 20070.00
826.8460, 19872.00
827.9840, 20121.00
829.1220, 20022.00
830.2590, 20158.00
831.3970, 20203.00
832.5340, 19998.00
833.6710, 19924.00
834.8080, 20045.00
835.9450, 20051.00
837.0820, 20088.00
838.2190, 20150.00
839.3550, 20146.00
840.4910, 20287.00
841.6270, 20249.00
842.7630, 20206.00
843.8990, 20184.00
845.0350, 20362.00
846.1700, 20372.00
847.3060, 20510.00
848.4410, 20669.00
849.5760, 20653.00
850.7100, 20856.00
851.8450, 21168.00
852.9800, 21214.00
854.1140, 21677.00
855.2480, 22048.00
856.3820, 21937.00
857.5160, 22072.00
858.6500, 22222.00
859.7830, 21980.00
860.9170, 22037.24
862.0500, 21899.00
863.1830, 21833.00
864.3160, 21804.00
865.4480, 21675.00
866.5810, 21795.00
867.7130, 21730.00
868.8460, 21702.00
869.9780, 21701.00
871.1100, 21740.00
872.2410, 21764.00
873.3730, 21785.08
874.5050, 21796.60
875.6360, 21877.00
876.7670, 21775.00
877.8980, 21893.00
879.0290, 21829.00
880.1590, 21742.00
881.2900, 22054.00
882.4200, 21846.00
883.5500, 22212.00
884.6800, 22183.00
885.8100, 22010.00
886.9400, 22213.00
888.0690, 22141.00
889.1990, 22229.00
890.3280, 22282.00
891.4570, 22264.00
892.5860, 22303.00
893.7140, 22494.00
894.8430, 22450.00
895.9710, 22516.00
897.1000, 22456.00
898.2280, 22561.00
899.3560, 22285.00
900.4830, 22617.00
901.6110, 22296.00
902.7380, 22377.00
903.8660, 22660.00
904.9930, 22642.00
906.1200, 22325.00
907.2460, 22468.00
908.3730, 22531.00
909.5000, 22652.00
910.6260, 22638.22
911.7520, 22705.00
912.8780, 22590.00
914.0040, 22579.00
915.1290, 22576.00
916.2550, 22655.00
917.3800, 22583.00
918.5050, 22648.00
919.6300, 22652.00
920.7550, 22544.00
921.8800, 22588.00
923.0040, 22603.00
924.1290, 22599.00
925.2530, 22508.00
926.3770, 22587.00
927.5010, 22508.00
928.6250, 22735.00
929.7480, 22738.00
930.8720, 22643.00
931.9950, 22363.00
933.1180, 22530.00
934.2410, 22645.00
935.3640, 22537.00
936.4860, 22617.00
937.6090, 22665.00
938.7310, 22689.00
939.8530, 22713.07
940.9750, 22715.00
942.0970, 22675.00
943.2180, 22700.00
944.3400, 22595.00
945.4610, 22878.00
946.5820, 22894.00
947.7030, 22814.00
948.8240, 22995.00
949.9450, 23021.00
951.0650, 23147.00
952.1860, 23083.00
953.3060, 23255.00
954.4260, 23279.00
955.5460, 23414.00
956.6650, 23559.00
957.7850, 23785.00
958.9040, 23762.00
960.0230, 23819.00
961.1420, 23959.62
962.2610, 23919.00
963.3800, 24128.00
964.4990, 24159.00
965.6170, 24135.00
966.7350, 23976.00
967.8530, 24264.00
968.9710, 24386.00
970.0890, 24601.00
971.2070, 24604.00
972.3240, 24593.00
973.4410, 24543.00
974.5580, 24702.00
975.6750, 24850.00
976.7920, 24998.00
977.9090, 24934.00
979.0250, 25143.00
980.1410, 25200.00
981.2580, 25378.00
982.3740, 25428.00
983.4890, 25419.00
984.6050, 25914.00
985.7200, 25859.00
986.8360, 25658.00
987.9510, 26085.00
989.0660, 26204.00
990.1810, 26278.00
991.2950, 26494.00
992.4100, 26852.00
993.5240, 26906.00
994.6390, 27217.00
995.7530, 27493.00
996.8660, 28159.00
997.9800, 28601.00
999.0940, 29230.00
1000.207, 30264.00
1001.320, 31054.00
1002.433, 32200.00
1003.546, 33720.00
1004.659, 35463.00
1005.772, 37877.00
1006.884, 40375.00
1007.996, 43603.00
1009.108, 46904.00
1010.220, 50886.00
1011.332, 55027.00
1012.444, 58327.00
1013.555, 60427.00
1014.666, 60431.00
1015.777, 58427.00
1016.888, 54659.00
1017.999, 49674.00
1019.110, 45019.00
1020.220, 41264.00
1021.331, 38038.00
1022.441, 35205.00
1023.551, 33652.00
1024.661, 32172.00
1025.770, 31057.00
1026.880, 30083.00
1027.989, 29534.00
1029.098, 29281.00
1030.207, 28834.00
1031.316, 28710.00
1032.425, 28338.00
1033.533, 28367.00
1034.642, 27967.00
1035.750, 28012.00
1036.858, 28083.48
1037.966, 28090.78
1039.073, 28547.00
1040.181, 28383.00
1041.288, 28926.00
1042.396, 29042.00
1043.503, 29427.00
1044.610, 29445.00
1045.716, 29527.00
1046.823, 29563.00
1047.929, 29333.00
1049.036, 28938.00
1050.142, 28697.00
1051.248, 28131.00
1052.353, 27588.00
1053.459, 27525.00
1054.564, 27174.00
1055.670, 26845.00
1056.775, 26890.00
1057.880, 26551.00
1058.985, 26665.00
1060.089, 26358.00
1061.194, 26253.39
1062.298, 26532.00
1063.402, 25996.00
1064.506, 25751.00
1065.610, 25649.00
1066.713, 25841.00
1067.817, 25593.00
1068.920, 25729.00
1070.023, 25766.00
1071.126, 25436.00
1072.229, 25998.00
1073.332, 25408.00
1074.435, 25518.00
1075.537, 25531.00
1076.639, 25496.00
1077.741, 25585.00
1078.843, 25396.00
1079.945, 25406.00
1081.046, 25462.00
1082.148, 25518.00
1083.249, 25548.00
1084.350, 25608.00
1085.451, 25559.04
1086.551, 25376.00
1087.652, 25498.00
1088.752, 25314.00
1089.853, 25384.00
1090.953, 25733.00
1092.053, 25507.00
1093.152, 25465.00
1094.252, 25565.00
1095.351, 25460.00
1096.451, 25536.00
1097.550, 25529.00
1098.649, 25510.00
1099.748, 25535.00
1100.846, 25568.52
1101.945, 25538.00
1103.043, 25677.00
1104.141, 25719.00
1105.239, 25779.98
1106.337, 25632.00
1107.434, 25743.00
1108.532, 25721.00
1109.629, 25603.00
1110.726, 25814.00
1111.823, 25729.00
1112.920, 25886.00
1114.017, 25717.00
1115.113, 25890.00
1116.210, 25675.00
1117.306, 25935.00
1118.402, 25755.00
1119.498, 25804.00
1120.593, 25999.00
1121.689, 25957.00
1122.784, 25931.00
1123.879, 25870.00
1124.974, 25840.00
1126.069, 26199.00
1127.164, 26040.00
1128.259, 26146.00
1129.353, 26197.00
1130.447, 25941.00
1131.541, 26105.00
1132.635, 26150.00
1133.729, 26306.00
1134.822, 26155.00
1135.916, 26303.00
1137.009, 26062.00
1138.102, 26013.00
1139.195, 26030.00
1140.288, 25977.00
1141.380, 26110.00
1142.473, 25941.00
1143.565, 26220.00
1144.657, 26179.00
1145.749, 25889.00
1146.841, 26182.00
1147.932, 26130.00
1149.024, 25979.00
1150.115, 26147.00
1151.206, 26097.00
1152.297, 26037.00
1153.388, 25851.00
1154.479, 25975.00
1155.569, 25764.00
1156.659, 25938.00
1157.750, 26101.00
1158.839, 26121.00
1159.929, 25967.00
1161.019, 25854.00
1162.108, 25909.00
1163.198, 26037.00
1164.287, 26100.00
1165.376, 26086.00
1166.465, 26058.00
1167.553, 26141.00
1168.642, 26136.00
1169.730, 26274.00
1170.818, 25979.00
1171.906, 26176.00
1172.994, 26111.00
1174.082, 26071.00
1175.170, 26174.00
1176.257, 26267.00
1177.344, 26278.00
1178.431, 26263.00
1179.518, 26035.00
1180.605, 26228.00
1181.691, 26226.00
1182.778, 26414.00
1183.864, 26329.00
1184.950, 26475.00
1186.036, 26462.00
1187.122, 26351.00
1188.207, 26574.00
1189.292, 26421.00
1190.378, 26514.00
1191.463, 26622.00
1192.548, 26654.00
1193.632, 26628.00
1194.717, 26504.00
1195.801, 26626.00
1196.886, 26515.00
1197.970, 26570.00
1199.054, 26533.00
1200.137, 26801.00
1201.221, 26682.00
1202.305, 26732.00
1203.388, 26759.00
1204.471, 26729.00
1205.554, 26815.00
1206.637, 26808.09
1207.719, 26908.00
1208.802, 26894.00
1209.884, 26849.00
1210.966, 26985.00
1212.048, 26885.00
1213.130, 27073.00
1214.212, 27079.00
1215.293, 27102.00
1216.374, 27079.00
1217.456, 27159.00
1218.536, 26959.00
1219.617, 27152.00
1220.698, 27012.00
1221.778, 27063.00
1222.859, 27090.00
1223.939, 27097.00
1225.019, 27064.00
1226.099, 26893.00
1227.178, 27237.00
1228.258, 27467.00
1229.337, 27290.00
1230.417, 27115.00
1231.496, 27638.00
1232.574, 27464.00
1233.653, 27461.00
1234.732, 27353.00
1235.810, 27398.00
1236.888, 27431.00
1237.966, 27421.00
1239.044, 27473.00
1240.122, 27404.00
1241.199, 27534.00
1242.277, 27430.00
1243.354, 27705.00
1244.431, 27561.00
1245.508, 27871.00
1246.585, 27774.00
1247.661, 27582.00
1248.738, 27619.00
1249.814, 27507.00
1250.890, 27642.00
1251.966, 27595.00
1253.042, 27541.00
1254.117, 27787.00
1255.193, 27904.00
1256.268, 27840.00
1257.343, 27936.00
1258.418, 27887.00
1259.493, 27726.00
1260.567, 27809.65
1261.642, 27791.07
1262.716, 27918.00
1263.790, 27840.00
1264.864, 28073.00
1265.938, 27992.00
1267.011, 28041.25
1268.085, 27767.00
1269.158, 28081.00
1270.231, 28020.00
1271.304, 28061.00
1272.377, 28120.00
1273.450, 28247.00
1274.522, 28255.00
1275.594, 28197.00
1276.666, 28406.00
1277.738, 28367.00
1278.810, 28116.00
1279.882, 28178.00
1280.953, 28346.00
1282.025, 28301.00
1283.096, 28348.00
1284.167, 28401.00
1285.238, 28352.00
1286.308, 28456.00
1287.379, 28565.00
1288.449, 28474.00
1289.519, 28518.00
1290.589, 28617.00
1291.659, 28410.00
1292.729, 28548.00
1293.798, 28488.00
