##NAMES=Diopside
##RRUFFID=R060171
##IDEAL CHEMISTRY=CaMgSi_2_O_6_
##LOCALITY=Jeffrey mine, Asbestos, Quebec, Canada
##OWNER=RRUFF
##SOURCE=Guy Ouellet
##DESCRIPTION=Yellowish-brown tabular crystals associated with vesuvianite, R060170
##STATUS=The identification of this mineral has been confirmed by X-ray diffraction and chemical analysis
##URL=rruff.info/R060171
##MEASURED CHEMISTRY=Ca_1.00_(Mg_0.98_Mn_0.02_)_Î£=1_Si_2.00_O_6_
##PIN_ID=L00630
##ORIENTATION=Laser parallel to (-1 0 -1). Fiducial mark perpendicular to laser is parallel to -b [0 -1 0]
109.5120, 15157.00
110.7440, 15146.00
111.9760, 15134.00
113.2080, 15330.00
114.4400, 15475.00
115.6710, 15530.00
116.9030, 15591.00
118.1340, 15812.00
119.3650, 15982.00
120.5960, 15936.00
121.8270, 16038.00
123.0580, 15966.00
124.2880, 16155.00
125.5190, 16155.00
126.7490, 16284.00
127.9790, 16219.00
129.2090, 16402.00
130.4390, 16446.00
131.6680, 16645.00
132.8980, 16677.00
134.1270, 16808.00
135.3560, 17213.00
136.5850, 17173.00
137.8140, 17606.00
139.0430, 17906.00
140.2710, 18627.00
141.5000, 19361.00
142.7280, 20299.00
143.9560, 20260.00
145.1840, 19380.00
146.4120, 18573.00
147.6390, 18150.00
148.8670, 17655.00
150.0940, 17658.00
151.3210, 17601.00
152.5490, 17509.00
153.7750, 17643.00
155.0020, 17658.00
156.2290, 17629.00
157.4550, 17595.00
158.6810, 17763.00
159.9080, 17613.00
161.1340, 17646.00
162.3590, 17921.00
163.5850, 17770.00
164.8110, 18165.00
166.0360, 18041.00
167.2610, 18340.00
168.4860, 18315.00
169.7110, 18109.00
170.9360, 18305.00
172.1610, 18055.00
173.3850, 18091.00
174.6100, 18190.00
175.8340, 18150.00
177.0580, 18322.00
178.2820, 18249.00
179.5050, 18327.00
180.7290, 18609.00
181.9520, 18906.00
183.1760, 19340.00
184.3990, 19560.00
185.6220, 19243.00
186.8450, 18918.00
188.0670, 18644.00
189.2900, 18555.00
190.5120, 18385.00
191.7340, 18519.00
192.9560, 18541.00
194.1780, 18620.00
195.4000, 18549.00
196.6220, 18718.00
197.8430, 18799.00
199.0640, 18871.00
200.2860, 18722.00
201.5070, 18841.00
202.7270, 18822.00
203.9480, 18774.00
205.1690, 19028.00
206.3890, 18893.00
207.6090, 18905.00
208.8290, 18938.00
210.0490, 18829.00
211.2690, 19044.00
212.4890, 18923.00
213.7080, 19026.00
214.9280, 18905.00
216.1470, 19140.00
217.3660, 19188.00
218.5850, 19046.00
219.8030, 19550.00
221.0220, 19491.00
222.2400, 19498.00
223.4590, 19411.00
224.6770, 19423.00
225.8950, 19579.00
227.1120, 19768.00
228.3300, 19990.00
229.5480, 20381.00
230.7650, 20911.00
231.9820, 21216.00
233.1990, 21300.00
234.4160, 21245.00
235.6330, 20947.00
236.8490, 20694.00
238.0660, 20512.00
239.2820, 20250.83
240.4980, 20101.00
241.7140, 19810.00
242.9300, 19841.00
244.1460, 19644.00
245.3610, 19974.00
246.5770, 19644.00
247.7920, 19742.00
249.0070, 19897.00
250.2220, 19854.00
251.4370, 19962.00
252.6510, 20165.00
253.8660, 20127.00
255.0800, 20424.00
256.2940, 20737.00
257.5080, 20777.00
258.7220, 20700.00
259.9360, 20499.00
261.1490, 20250.00
262.3630, 20198.00
263.5760, 19982.00
264.7890, 20073.00
266.0020, 20056.00
267.2150, 20122.00
268.4270, 20043.00
269.6400, 20168.00
270.8520, 20295.00
272.0640, 20213.00
273.2760, 20256.00
274.4880, 20345.00
275.7000, 20229.00
276.9120, 20379.00
278.1230, 20376.00
279.3340, 20389.00
280.5450, 20413.00
281.7560, 20551.00
282.9670, 20327.00
284.1780, 20631.00
285.3880, 20782.00
286.5980, 20454.00
287.8090, 20697.00
289.0190, 20618.00
290.2290, 20675.00
291.4380, 20625.00
292.6480, 20756.00
293.8570, 20819.00
295.0670, 20846.00
296.2760, 21031.00
297.4850, 21115.69
298.6930, 21125.00
299.9020, 21382.00
301.1110, 21575.00
302.3190, 21690.00
303.5270, 22027.00
304.7350, 21992.00
305.9430, 22044.00
307.1510, 21910.00
308.3580, 21867.00
309.5660, 22023.00
310.7730, 22173.00
311.9800, 22298.00
313.1870, 22777.00
314.3940, 23107.00
315.6010, 23365.00
316.8070, 23630.00
318.0130, 24148.00
319.2200, 24855.00
320.4260, 25981.00
321.6310, 27855.00
322.8370, 30199.00
324.0430, 32575.00
325.2480, 34206.00
326.4540, 34203.00
327.6590, 32072.00
328.8640, 29377.00
330.0680, 27147.00
331.2730, 25349.00
332.4780, 24181.00
333.6820, 23698.00
334.8860, 23257.00
336.0900, 22934.00
337.2940, 22696.00
338.4980, 22634.00
339.7010, 22347.00
340.9050, 22326.00
342.1080, 22149.00
343.3110, 22530.00
344.5140, 22314.00
345.7170, 22408.00
346.9200, 22296.00
348.1220, 22354.00
349.3240, 22318.00
350.5270, 22570.00
351.7290, 22517.00
352.9310, 22824.00
354.1320, 22984.00
355.3340, 23484.00
356.5350, 23816.00
357.7370, 24262.00
358.9380, 24411.00
360.1390, 24240.00
361.3400, 23973.00
362.5400, 23599.00
363.7410, 23394.00
364.9410, 23401.00
366.1410, 23400.00
367.3410, 23752.00
368.5410, 23927.00
369.7410, 23907.00
370.9400, 23799.00
372.1400, 23554.00
373.3390, 23423.00
374.5380, 23280.00
375.7370, 23290.01
376.9360, 23489.00
378.1350, 23488.00
379.3330, 23669.00
380.5310, 23939.00
381.7300, 24440.00
382.9280, 24740.00
384.1260, 25268.00
385.3230, 26133.00
386.5210, 27393.00
387.7180, 29199.00
388.9160, 31789.00
390.1130, 34481.00
391.3100, 36018.00
392.5060, 35525.00
393.7030, 33318.00
394.9000, 30327.00
396.0960, 28011.00
397.2920, 26027.00
398.4880, 25214.00
399.6840, 24711.00
400.8800, 24198.00
402.0750, 23903.00
403.2710, 23655.35
404.4660, 23728.00
405.6610, 23420.00
406.8560, 23368.00
408.0510, 23339.00
409.2450, 23177.00
410.4400, 23364.00
411.6340, 23305.00
412.8280, 23506.00
414.0220, 23243.00
415.2160, 23334.00
416.4100, 23384.00
417.6030, 23482.00
418.7970, 23298.00
419.9900, 23314.00
421.1830, 23247.00
422.3760, 23402.00
423.5690, 23372.00
424.7610, 23405.00
425.9540, 23464.00
427.1460, 23441.00
428.3380, 23518.00
429.5300, 23439.00
430.7220, 23325.00
431.9140, 23473.00
433.1050, 23558.00
434.2970, 23440.00
435.4880, 23638.00
436.6790, 23409.00
437.8700, 23466.00
439.0610, 23658.00
440.2510, 23735.00
441.4420, 23618.00
442.6320, 23764.00
443.8220, 23765.00
445.0120, 23848.00
446.2020, 23828.00
447.3910, 23767.00
448.5810, 23792.00
449.7700, 23920.00
450.9600, 23730.00
452.1490, 23983.00
453.3370, 23907.00
454.5260, 23868.00
455.7150, 23939.00
456.9030, 23886.00
458.0910, 23953.89
459.2800, 24033.00
460.4670, 24078.00
461.6550, 24039.00
462.8430, 24109.00
464.0300, 24283.00
465.2180, 24069.00
466.4050, 24215.00
467.5920, 24154.00
468.7790, 24312.00
469.9650, 24097.00
471.1520, 24148.00
472.3380, 24265.00
473.5250, 24229.00
474.7110, 24230.00
475.8970, 24297.00
477.0820, 24393.00
478.2680, 24364.00
479.4540, 24493.00
480.6390, 24603.00
481.8240, 24404.00
483.0090, 24664.00
484.1940, 24514.00
485.3780, 24703.00
486.5630, 24459.00
487.7470, 24554.00
488.9320, 24756.00
490.1160, 24816.00
491.3000, 24523.00
492.4830, 24705.00
493.6670, 24736.00
494.8500, 24798.00
496.0340, 24871.00
497.2170, 24783.00
498.4000, 24999.00
499.5820, 24780.00
500.7650, 25056.00
501.9480, 24643.00
503.1300, 25086.00
504.3120, 24766.00
505.4940, 25024.00
506.6760, 24915.00
507.8580, 25040.00
509.0390, 25182.00
510.2210, 25125.00
511.4020, 25200.00
512.5830, 25128.00
513.7640, 25513.00
514.9450, 25322.00
516.1250, 25456.00
517.3060, 25301.00
518.4860, 25516.00
519.6660, 25690.00
520.8460, 25724.00
522.0260, 25447.00
523.2060, 25473.00
524.3850, 25780.00
525.5650, 25985.00
526.7440, 26050.00
527.9230, 26310.00
529.1020, 26493.00
530.2810, 26461.00
531.4590, 26578.00
532.6380, 26497.86
533.8160, 26571.00
534.9940, 26251.00
536.1720, 26172.00
537.3500, 25962.00
538.5270, 26049.00
539.7050, 25913.00
540.8820, 25920.00
542.0590, 26123.00
543.2360, 25697.00
544.4130, 25893.00
545.5900, 25778.00
546.7660, 25930.00
547.9430, 25893.00
549.1190, 26057.00
550.2950, 26070.00
551.4710, 26081.00
552.6470, 25944.00
553.8220, 26167.00
554.9980, 25934.00
556.1730, 25993.00
557.3480, 26272.00
558.5230, 26488.00
559.6980, 26732.00
560.8730, 26298.00
562.0470, 26355.00
563.2220, 26312.00
564.3960, 26391.00
565.5700, 26366.99
566.7440, 26345.21
567.9170, 26369.00
569.0910, 26345.00
570.2640, 26391.00
571.4380, 26534.00
572.6110, 26424.00
573.7840, 26471.00
574.9570, 26409.00
576.1290, 26410.72
577.3020, 26496.00
578.4740, 26432.00
579.6460, 26524.00
580.8180, 26553.00
581.9900, 26612.00
583.1620, 26550.00
584.3330, 26844.00
585.5040, 26464.00
586.6760, 26664.00
587.8470, 26805.00
589.0180, 26656.00
590.1880, 26816.00
591.3590, 26674.00
592.5290, 26868.00
593.7000, 26828.00
594.8700, 26768.00
596.0400, 26993.00
597.2090, 26812.00
598.3790, 26929.00
599.5490, 26740.00
600.7180, 27059.00
601.8870, 26936.00
603.0560, 26955.00
604.2250, 26889.00
605.3940, 26939.58
606.5620, 27248.00
607.7300, 27077.00
608.8990, 27311.00
610.0670, 27386.00
611.2350, 27269.00
612.4020, 27274.00
613.5700, 27330.00
614.7370, 27411.00
615.9050, 27344.00
617.0720, 27564.00
618.2390, 27385.00
619.4060, 27439.00
620.5720, 27572.00
621.7390, 27534.00
622.9050, 27576.00
624.0710, 27515.00
625.2370, 27549.00
626.4030, 27682.00
627.5690, 27743.00
628.7340, 27668.00
629.9000, 27589.00
631.0650, 27710.00
632.2300, 27625.00
633.3950, 27745.00
634.5600, 27753.00
635.7240, 27801.00
636.8890, 27823.00
638.0530, 27935.72
639.2170, 27960.00
640.3810, 28141.00
641.5450, 28154.00
642.7080, 28153.00
643.8720, 28298.00
645.0350, 28335.00
646.1980, 28566.00
647.3610, 28298.00
648.5240, 28447.00
649.6870, 28530.00
650.8490, 28728.00
652.0120, 29035.00
653.1740, 29187.00
654.3360, 29125.00
655.4980, 29451.00
656.6600, 29619.00
657.8210, 30038.00
658.9830, 30482.00
660.1440, 31157.00
661.3050, 31992.00
662.4660, 32809.00
663.6270, 34238.00
664.7870, 35563.00
665.9480, 36848.00
667.1080, 37576.00
668.2680, 37723.00
669.4280, 36687.00
670.5880, 35896.00
671.7480, 34159.00
672.9070, 32989.00
674.0670, 32076.00
675.2260, 31276.03
676.3850, 31010.00
677.5440, 30471.00
678.7030, 30034.00
679.8610, 29919.00
681.0200, 29678.00
682.1780, 29662.00
683.3360, 29333.00
684.4940, 29497.00
685.6520, 29288.00
686.8090, 29116.00
687.9670, 29371.00
689.1240, 28977.00
690.2810, 29432.00
691.4380, 29254.00
692.5950, 29275.00
693.7520, 29237.00
694.9080, 29172.00
696.0650, 29222.00
697.2210, 29259.00
698.3770, 29320.00
699.5330, 29236.00
700.6880, 29348.00
701.8440, 29250.00
702.9990, 29423.00
704.1550, 29593.00
705.3100, 29475.00
706.4650, 29465.00
707.6190, 29629.00
708.7740, 29664.00
709.9290, 29814.00
711.0830, 29598.00
712.2370, 29628.00
713.3910, 29311.00
714.5450, 29623.00
715.6980, 29469.00
716.8520, 29621.00
718.0050, 29477.00
719.1580, 29693.00
720.3110, 29810.00
721.4640, 29597.00
722.6170, 29616.00
723.7700, 29632.00
724.9220, 29776.00
726.0740, 29858.00
727.2260, 29916.56
728.3780, 30001.50
729.5300, 30031.00
730.6810, 30078.00
731.8330, 30089.51
732.9840, 30048.00
734.1350, 30005.00
735.2860, 29960.00
736.4370, 29995.00
737.5880, 29928.00
738.7380, 30149.00
739.8880, 30112.00
741.0390, 30155.00
742.1890, 30090.00
743.3380, 30403.00
744.4880, 29950.00
745.6380, 30340.00
746.7870, 30220.00
747.9360, 30546.00
749.0850, 30279.00
750.2340, 30482.00
751.3830, 30261.00
752.5310, 30263.00
753.6800, 30353.00
754.8280, 30574.00
755.9760, 30563.00
757.1240, 30452.00
758.2720, 30554.00
759.4190, 30467.00
760.5670, 30588.00
761.7140, 30536.00
762.8610, 30478.00
764.0080, 30852.00
765.1550, 30604.00
766.3020, 30980.00
767.4480, 30735.00
768.5950, 30979.00
769.7410, 30673.00
770.8870, 30728.00
772.0330, 30746.00
773.1780, 30736.00
774.3240, 30935.00
775.4690, 31150.00
776.6140, 30985.00
777.7590, 31016.00
778.9040, 30967.00
780.0490, 31146.00
781.1940, 30951.00
782.3380, 31186.00
783.4820, 31135.00
784.6260, 31395.00
785.7700, 31282.00
786.9140, 31155.00
788.0580, 31332.00
789.2010, 31005.00
790.3450, 31142.00
791.4880, 31571.00
792.6310, 31308.00
793.7730, 31263.00
794.9160, 31166.00
796.0590, 31510.00
797.2010, 31715.00
798.3430, 31550.00
799.4850, 31561.00
800.6270, 31504.00
801.7690, 31501.99
802.9100, 31557.00
804.0520, 31546.00
805.1930, 31773.00
806.3340, 31778.00
807.4750, 31504.00
808.6160, 31722.00
809.7560, 32002.00
810.8970, 31767.00
812.0370, 32080.00
813.1770, 32221.00
814.3170, 31907.00
815.4570, 32043.00
816.5960, 31968.00
817.7360, 31906.00
818.8750, 31973.00
820.0140, 31995.00
821.1530, 32031.80
822.2920, 32116.48
823.4310, 32146.00
824.5690, 32259.00
825.7070, 32311.00
826.8460, 32329.00
827.9840, 32242.00
829.1220, 32311.84
830.2590, 32218.00
831.3970, 32359.00
832.5340, 32418.00
833.6710, 32433.00
834.8080, 32467.00
835.9450, 32602.00
837.0820, 32522.00
838.2190, 32696.00
839.3550, 32469.00
840.4910, 32803.00
841.6270, 32741.00
842.7630, 32746.00
843.8990, 32778.00
845.0350, 32732.22
846.1700, 32871.00
847.3060, 32776.00
848.4410, 32985.00
849.5760, 33205.00
850.7100, 33383.00
851.8450, 33476.00
852.9800, 33811.00
854.1140, 33986.00
855.2480, 34099.00
856.3820, 34030.00
857.5160, 33916.00
858.6500, 33843.00
859.7830, 33718.00
860.9170, 33656.28
862.0500, 33456.00
863.1830, 33547.00
864.3160, 33441.00
865.4480, 33431.00
866.5810, 33615.00
867.7130, 33529.00
868.8460, 33468.00
869.9780, 33418.00
871.1100, 33636.00
872.2410, 33774.00
873.3730, 33511.00
874.5050, 33754.00
875.6360, 33707.00
876.7670, 33747.00
877.8980, 33826.00
879.0290, 33602.00
880.1590, 33953.00
881.2900, 33713.00
882.4200, 33804.00
883.5500, 33897.00
884.6800, 33838.00
885.8100, 33832.00
886.9400, 34026.00
888.0690, 34126.00
889.1990, 34112.00
890.3280, 34083.00
891.4570, 34260.00
892.5860, 34007.00
893.7140, 34175.00
894.8430, 34270.00
895.9710, 34456.00
897.1000, 34232.00
898.2280, 34295.00
899.3560, 34598.00
900.4830, 34546.00
901.6110, 34170.00
902.7380, 34588.00
903.8660, 34306.00
904.9930, 34260.00
906.1200, 34575.00
907.2460, 34662.00
908.3730, 34507.00
909.5000, 34746.00
910.6260, 34590.00
911.7520, 34887.00
912.8780, 35008.00
914.0040, 35263.00
915.1290, 34905.00
916.2550, 34978.00
917.3800, 34985.00
918.5050, 34869.00
919.6300, 35049.00
920.7550, 35063.00
921.8800, 35149.00
923.0040, 35103.00
924.1290, 35210.00
925.2530, 35133.00
926.3770, 35022.00
927.5010, 35197.00
928.6250, 35313.00
929.7480, 35179.00
930.8720, 35408.00
931.9950, 35428.00
933.1180, 35316.00
934.2410, 35605.00
935.3640, 35870.00
936.4860, 35457.00
937.6090, 35367.00
938.7310, 35421.00
939.8530, 35582.00
940.9750, 35654.00
942.0970, 35889.00
943.2180, 35675.00
944.3400, 35837.00
945.4610, 35712.00
946.5820, 36033.00
947.7030, 35855.00
948.8240, 36229.00
949.9450, 35920.00
951.0650, 36049.00
952.1860, 36158.00
953.3060, 35885.00
954.4260, 35787.00
955.5460, 36222.00
956.6650, 35950.00
957.7850, 36085.00
958.9040, 36241.00
960.0230, 36455.00
961.1420, 36354.00
962.2610, 36471.00
963.3800, 36602.00
964.4990, 36413.00
965.6170, 36345.00
966.7350, 36502.00
967.8530, 36548.00
968.9710, 36509.00
970.0890, 36729.00
971.2070, 36870.00
972.3240, 36762.00
973.4410, 37108.00
974.5580, 36897.00
975.6750, 36854.00
976.7920, 37159.00
977.9090, 36804.00
979.0250, 37094.00
980.1410, 37102.00
981.2580, 37520.00
982.3740, 37207.00
983.4890, 37327.00
984.6050, 37313.00
985.7200, 37428.00
986.8360, 37573.00
987.9510, 37388.00
989.0660, 37824.00
990.1810, 37533.00
991.2950, 38051.00
992.4100, 37961.00
993.5240, 38069.00
994.6390, 38166.00
995.7530, 38153.00
996.8660, 38124.00
997.9800, 38653.00
999.0940, 38756.00
1000.207, 38984.00
1001.320, 39378.00
1002.433, 39904.00
1003.546, 40271.00
1004.659, 41125.00
1005.772, 41967.00
1006.884, 43375.00
1007.996, 45076.00
1009.108, 47616.00
1010.220, 51306.00
1011.332, 55908.00
1012.444, 60830.00
1013.555, 64646.00
1014.666, 64849.00
1015.777, 61602.00
1016.888, 56798.00
1017.999, 51899.00
1019.110, 47950.00
1020.220, 45469.00
1021.331, 43514.00
1022.441, 42435.00
1023.551, 41276.00
1024.661, 40928.00
1025.770, 40703.00
1026.880, 40290.00
1027.989, 40138.00
1029.098, 39835.00
1030.207, 40008.00
1031.316, 40006.00
1032.425, 39684.00
1033.533, 39742.00
1034.642, 39552.00
1035.750, 39659.00
1036.858, 39559.00
1037.966, 39715.00
1039.073, 39646.00
1040.181, 39599.00
1041.288, 39984.00
1042.396, 39891.00
1043.503, 39919.00
1044.610, 39866.00
1045.716, 40073.00
1046.823, 40010.00
1047.929, 40120.00
1049.036, 40077.00
1050.142, 40204.00
1051.248, 40039.00
1052.353, 40119.00
1053.459, 39948.00
1054.564, 39846.00
1055.670, 40054.00
1056.775, 40007.00
1057.880, 40148.00
1058.985, 40232.00
1060.089, 39890.00
1061.194, 40027.00
1062.298, 40331.00
1063.402, 39871.00
1064.506, 40127.00
1065.610, 40407.00
1066.713, 40348.00
1067.817, 40128.00
1068.920, 40120.00
1070.023, 40301.00
1071.126, 40524.00
1072.229, 40344.00
1073.332, 40524.00
1074.435, 40403.00
1075.537, 40713.00
1076.639, 40566.00
1077.741, 40829.00
1078.843, 40470.00
1079.945, 40687.00
1081.046, 40893.00
1082.148, 40936.00
1083.249, 41015.00
1084.350, 40683.00
1085.451, 40951.00
1086.551, 40809.00
1087.652, 41187.00
1088.752, 41006.00
1089.853, 40912.00
1090.953, 41261.00
1092.053, 41317.00
1093.152, 41235.00
1094.252, 41334.00
1095.351, 41188.00
1096.451, 41545.00
1097.550, 41188.00
1098.649, 41591.00
1099.748, 41301.00
1100.846, 41504.00
1101.945, 41649.00
1103.043, 41490.00
1104.141, 41570.00
1105.239, 41557.00
1106.337, 41752.00
1107.434, 41784.00
1108.532, 41897.00
1109.629, 41722.00
1110.726, 41609.00
1111.823, 41646.00
1112.920, 41631.00
1114.017, 42228.00
1115.113, 41999.00
1116.210, 42355.00
1117.306, 42179.00
1118.402, 42401.00
1119.498, 42641.00
1120.593, 42500.00
1121.689, 42545.00
1122.784, 42691.00
1123.879, 42714.00
1124.974, 42528.00
1126.069, 42445.00
1127.164, 42501.00
1128.259, 42652.00
1129.353, 42662.00
1130.447, 42881.00
1131.541, 42782.00
1132.635, 42903.00
1133.729, 42821.00
1134.822, 43098.00
1135.916, 43039.00
1137.009, 43038.00
1138.102, 42898.00
1139.195, 42906.00
1140.288, 42888.00
1141.380, 43092.00
1142.473, 42908.00
1143.565, 43258.00
1144.657, 43319.00
1145.749, 43446.00
1146.841, 43538.00
1147.932, 43430.00
1149.024, 43344.00
1150.115, 43687.00
1151.206, 43589.00
1152.297, 43673.00
1153.388, 43731.00
1154.479, 43755.00
1155.569, 43824.18
1156.659, 43831.00
1157.750, 43867.00
1158.839, 43861.00
1159.929, 43758.00
1161.019, 43784.75
1162.108, 43953.00
1163.198, 43862.00
1164.287, 43910.00
1165.376, 44201.00
1166.465, 44542.00
1167.553, 44373.00
1168.642, 44475.00
1169.730, 44309.00
1170.818, 44494.00
1171.906, 44671.00
1172.994, 44407.00
1174.082, 44458.00
1175.170, 44315.00
1176.257, 44537.00
1177.344, 44545.66
1178.431, 44900.00
1179.518, 44726.00
1180.605, 44772.00
1181.691, 44823.00
1182.778, 44686.00
1183.864, 44986.00
1184.950, 44794.00
1186.036, 45044.00
1187.122, 45022.00
1188.207, 45049.00
1189.292, 44985.00
1190.378, 45021.20
1191.463, 45246.00
1192.548, 45112.00
1193.632, 45310.00
1194.717, 45479.00
1195.801, 45353.00
1196.886, 45569.00
1197.970, 45466.00
1199.054, 45674.00
1200.137, 45447.00
1201.221, 45674.00
1202.305, 45745.00
1203.388, 45747.00
1204.471, 45832.09
1205.554, 45955.00
1206.637, 45872.00
1207.719, 45794.00
1208.802, 45851.93
1209.884, 45997.00
1210.966, 46036.00
1212.048, 46354.00
1213.130, 46461.00
1214.212, 46135.00
1215.293, 46466.00
1216.374, 46376.00
1217.456, 46588.00
1218.536, 46423.00
1219.617, 46575.00
1220.698, 46877.00
1221.778, 46702.00
1222.859, 46891.00
1223.939, 46713.00
1225.019, 46998.00
1226.099, 46905.00
1227.178, 46930.00
1228.258, 47021.00
1229.337, 47023.00
1230.417, 47049.00
1231.496, 47164.00
1232.574, 47135.00
1233.653, 47315.00
1234.732, 47500.00
1235.810, 47558.00
1236.888, 47554.00
1237.966, 47524.00
1239.044, 47675.00
1240.122, 47875.00
1241.199, 47793.00
1242.277, 47707.00
1243.354, 48134.00
1244.431, 47705.00
1245.508, 47927.00
1246.585, 48130.00
1247.661, 48021.00
1248.738, 47880.00
1249.814, 48213.00
1250.890, 48027.00
1251.966, 48329.00
1253.042, 48180.00
1254.117, 48584.00
1255.193, 48471.00
1256.268, 48274.00
1257.343, 48567.00
1258.418, 48258.00
1259.493, 48735.00
1260.567, 48587.00
1261.642, 48807.00
1262.716, 48589.00
1263.790, 48907.00
1264.864, 48819.00
1265.938, 48778.00
1267.011, 48881.00
1268.085, 48939.00
1269.158, 48996.91
1270.231, 48635.00
1271.304, 49079.00
1272.377, 49116.00
1273.450, 48971.00
1274.522, 49284.00
1275.594, 49300.00
1276.666, 49216.00
1277.738, 49620.00
1278.810, 49538.00
1279.882, 49603.00
1280.953, 49485.00
1282.025, 49520.00
1283.096, 49484.00
1284.167, 49661.00
1285.238, 49789.00
1286.308, 49875.00
1287.379, 49831.00
