##NAMES=Diopside
##RRUFFID=R050496
##IDEAL CHEMISTRY=CaMgSi_2_O_6_
##LOCALITY=New City Quarry, Riverside, Riverside County, Calfornia, USA
##OWNER=RRUFF
##SOURCE=California Institute of Technology
##DESCRIPTION=Aggregate of light green irregular grains
##STATUS=The identification of this mineral has been confirmed by X-ray diffraction and chemical analysis
##URL=rruff.info/R050496
##MEASURED CHEMISTRY=Ca(Mg_0.66_Fe_0.33_Mn_0.01_)(Si_0.95_Al_0.05_)_2_O_6_
##PIN_ID=M00901
##ORIENTATION=Laser parallel to (-1 0 -1). Fiducial mark perpendicular to laser is parallel to b [0 1 0]
103.1740, 10062.00
104.4090, 10016.00
105.6440, 9947.000
106.8790, 10143.00
108.1140, 10120.82
109.3490, 10433.00
110.5830, 10238.00
111.8180, 10253.00
113.0520, 10240.00
114.2860, 10535.00
115.5200, 10549.00
116.7530, 10593.00
117.9870, 10575.00
119.2200, 10559.00
120.4530, 10689.00
121.6860, 10494.00
122.9190, 10449.00
124.1520, 10517.00
125.3850, 10458.59
126.6170, 10570.00
127.8490, 10525.00
129.0810, 10502.00
130.3130, 10537.00
131.5450, 10560.00
132.7770, 10714.00
134.0080, 10549.00
135.2390, 10739.00
136.4710, 10600.00
137.7020, 10793.00
138.9320, 10824.00
140.1630, 10904.00
141.3930, 10827.00
142.6240, 10699.00
143.8540, 10641.00
145.0840, 10503.00
146.3140, 10533.00
147.5440, 10541.00
148.7730, 10464.00
150.0020, 10595.00
151.2320, 10406.00
152.4610, 10600.00
153.6900, 10477.00
154.9180, 10408.00
156.1470, 10524.00
157.3750, 10563.00
158.6040, 10378.00
159.8320, 10442.00
161.0600, 10524.00
162.2870, 10512.00
163.5150, 10597.00
164.7420, 10732.00
165.9700, 10816.00
167.1970, 10711.00
168.4240, 10706.00
169.6510, 10623.00
170.8770, 10779.00
172.1040, 10701.00
173.3300, 10785.00
174.5560, 10713.00
175.7820, 10782.00
177.0080, 10866.11
178.2340, 11011.00
179.4590, 11055.00
180.6850, 11096.00
181.9100, 11144.00
183.1350, 11146.00
184.3600, 11005.00
185.5850, 10994.00
186.8090, 10990.00
188.0340, 11025.00
189.2580, 11119.00
190.4820, 11126.00
191.7060, 11148.25
192.9300, 11204.00
194.1530, 11164.00
195.3770, 11214.89
196.6000, 11258.00
197.8230, 11180.00
199.0460, 11213.00
200.2690, 11269.00
201.4910, 11375.00
202.7140, 11335.56
203.9360, 11346.83
205.1580, 11266.00
206.3800, 11231.00
207.6020, 11155.00
208.8240, 11171.33
210.0450, 11182.00
211.2670, 11230.00
212.4880, 11233.00
213.7090, 11288.00
214.9300, 11347.00
216.1510, 11378.84
217.3710, 11428.02
218.5920, 11454.00
219.8120, 11524.00
221.0320, 11520.00
222.2520, 11601.87
223.4720, 11542.00
224.6910, 11650.00
225.9110, 11669.00
227.1300, 11642.00
228.3490, 11775.00
229.5680, 11844.00
230.7870, 11989.00
232.0050, 11938.00
233.2240, 11783.00
234.4420, 11813.00
235.6600, 11647.00
236.8780, 11685.00
238.0960, 11587.00
239.3140, 11595.00
240.5310, 11478.00
241.7490, 11449.00
242.9660, 11379.00
244.1830, 11348.00
245.4000, 11334.63
246.6160, 11338.25
247.8330, 11338.00
249.0490, 11342.48
250.2660, 11353.66
251.4820, 11357.00
252.6980, 11373.77
253.9130, 11375.00
255.1290, 11371.00
256.3440, 11359.00
257.5600, 11405.00
258.7750, 11353.00
259.9900, 11285.00
261.2040, 11435.00
262.4190, 11288.00
263.6330, 11513.00
264.8480, 11462.00
266.0620, 11266.00
267.2760, 11227.00
268.4900, 11353.00
269.7030, 11354.00
270.9170, 11345.00
272.1300, 11371.00
273.3430, 11440.00
274.5560, 11430.00
275.7690, 11292.00
276.9820, 11622.00
278.1940, 11344.00
279.4070, 11478.00
280.6190, 11462.00
281.8310, 11510.00
283.0430, 11567.00
284.2550, 11544.00
285.4660, 11696.00
286.6770, 11648.00
287.8890, 11655.00
289.1000, 11819.00
290.3110, 11632.00
291.5210, 11677.00
292.7320, 11752.00
293.9420, 11962.00
295.1530, 11953.00
296.3630, 12000.00
297.5730, 12197.00
298.7830, 12193.00
299.9920, 12202.00
301.2020, 12333.00
302.4110, 12512.00
303.6200, 12579.00
304.8290, 12729.00
306.0380, 12870.52
307.2470, 13100.00
308.4550, 13199.00
309.6630, 13430.00
310.8720, 13686.78
312.0800, 14153.00
313.2880, 14450.00
314.4950, 14894.00
315.7030, 15492.00
316.9100, 15891.00
318.1170, 16308.00
319.3240, 16882.00
320.5310, 17390.00
321.7380, 17619.00
322.9450, 17777.00
324.1510, 17832.00
325.3570, 17587.00
326.5630, 17137.00
327.7690, 16833.00
328.9750, 16440.00
330.1810, 16003.12
331.3860, 15613.00
332.5910, 15158.00
333.7960, 14775.00
335.0010, 14423.00
336.2060, 14158.99
337.4110, 14081.00
338.6150, 13766.00
339.8200, 13692.00
341.0240, 13580.00
342.2280, 13414.00
343.4320, 13521.00
344.6350, 13357.00
345.8390, 13406.00
347.0420, 13311.00
348.2450, 13474.00
349.4480, 13281.00
350.6510, 13177.00
351.8540, 13362.00
353.0560, 13364.00
354.2590, 13421.00
355.4610, 13407.58
356.6630, 13332.00
357.8650, 13288.00
359.0670, 13255.00
360.2680, 13181.00
361.4700, 13114.00
362.6710, 13274.00
363.8720, 13313.00
365.0730, 13244.00
366.2740, 13383.00
367.4740, 13193.00
368.6750, 13363.00
369.8750, 13576.00
371.0750, 13882.00
372.2750, 13845.00
373.4750, 14132.00
374.6740, 14343.00
375.8740, 14657.00
377.0730, 15058.00
378.2720, 15492.00
379.4710, 15958.00
380.6700, 16474.00
381.8690, 17277.00
383.0670, 18215.00
384.2660, 18863.00
385.4640, 19707.00
386.6620, 20609.00
387.8600, 21156.00
389.0570, 21479.00
390.2550, 21104.00
391.4520, 20786.00
392.6490, 19840.00
393.8460, 19053.00
395.0430, 18000.00
396.2400, 17054.00
397.4370, 16193.00
398.6330, 15525.00
399.8290, 14831.00
401.0250, 14311.00
402.2210, 14013.00
403.4170, 13685.00
404.6130, 13417.00
405.8080, 13236.44
407.0030, 13115.00
408.1980, 13028.00
409.3930, 12967.00
410.5880, 12884.72
411.7830, 12778.00
412.9770, 12783.00
414.1720, 12808.00
415.3660, 12806.00
416.5600, 12930.00
417.7530, 12964.00
418.9470, 12840.00
420.1410, 12798.00
421.3340, 12722.00
422.5270, 12715.10
423.7200, 12677.00
424.9130, 12747.00
426.1060, 12752.00
427.2980, 12783.00
428.4900, 12590.00
429.6830, 12718.00
430.8750, 12654.00
432.0670, 12655.00
433.2580, 12757.00
434.4500, 12656.00
435.6410, 12804.00
436.8320, 12710.00
438.0240, 12766.00
439.2140, 12638.00
440.4050, 12731.00
441.5960, 12696.00
442.7860, 12689.65
443.9760, 12716.47
445.1670, 12745.00
446.3560, 12710.00
447.5460, 12821.00
448.7360, 12802.00
449.9250, 12805.00
451.1150, 12871.00
452.3040, 12938.00
453.4930, 12830.00
454.6810, 12827.00
455.8700, 12790.00
457.0590, 12838.00
458.2470, 12840.08
459.4350, 12961.00
460.6230, 12899.00
461.8110, 13041.00
462.9980, 13090.00
464.1860, 13111.00
465.3730, 13073.00
466.5600, 13113.00
467.7470, 13104.00
468.9340, 13089.00
470.1210, 13182.00
471.3080, 13069.00
472.4940, 13113.00
473.6800, 12955.00
474.8660, 13082.00
476.0520, 13104.00
477.2380, 13227.00
478.4230, 13268.00
479.6090, 13188.00
480.7940, 13358.00
481.9790, 13209.00
483.1640, 13304.00
484.3490, 13356.00
485.5330, 13322.00
486.7180, 13295.00
487.9020, 13330.00
489.0860, 13499.00
490.2700, 13411.00
491.4540, 13447.00
492.6370, 13325.00
493.8210, 13429.00
495.0040, 13487.00
496.1870, 13446.00
497.3700, 13542.00
498.5530, 13600.00
499.7360, 13374.00
500.9180, 13647.00
502.1000, 13534.00
503.2830, 13604.00
504.4650, 13675.00
505.6460, 13598.00
506.8280, 13858.00
508.0100, 13819.00
509.1910, 13736.00
510.3720, 13852.00
511.5530, 13939.00
512.7340, 13882.00
513.9150, 13903.00
515.0950, 13843.00
516.2760, 14002.00
517.4560, 14070.00
518.6360, 14176.00
519.8160, 14192.00
520.9950, 14399.00
522.1750, 14327.00
523.3540, 14379.00
524.5340, 14599.00
525.7130, 14599.00
526.8920, 14740.00
528.0700, 14695.00
529.2490, 14737.00
530.4270, 14715.00
531.6060, 14784.00
532.7840, 14557.00
533.9620, 14455.00
535.1390, 14285.00
536.3170, 14434.00
537.4940, 14308.00
538.6720, 14303.00
539.8490, 14435.00
541.0260, 14322.00
542.2030, 14463.00
543.3790, 14484.00
544.5560, 14192.00
545.7320, 14421.00
546.9080, 14353.00
548.0840, 14262.00
549.2600, 14281.00
550.4360, 14273.07
551.6110, 14356.00
552.7860, 14345.00
553.9620, 14471.00
555.1370, 14516.00
556.3110, 14563.00
557.4860, 14525.00
558.6610, 14478.00
559.8350, 14491.96
561.0090, 14528.00
562.1830, 14457.00
563.3570, 14490.00
564.5310, 14366.88
565.7040, 14444.44
566.8780, 14480.02
568.0510, 14475.90
569.2240, 14313.12
570.3970, 14355.22
571.5700, 14315.21
572.7420, 14271.85
573.9150, 14342.79
575.0870, 14203.10
576.2590, 14272.23
577.4310, 14258.01
578.6030, 14281.93
579.7740, 14232.00
580.9460, 14224.00
582.1170, 14213.00
583.2880, 14136.00
584.4590, 13982.00
585.6300, 14018.00
586.8010, 13928.00
587.9710, 13861.00
589.1410, 13901.00
590.3110, 13763.00
591.4810, 13875.00
592.6510, 13906.00
593.8210, 13777.00
594.9900, 13749.00
596.1600, 13744.00
597.3290, 13726.32
598.4980, 13788.00
599.6670, 13762.00
600.8350, 13725.00
602.0040, 13703.43
603.1720, 13907.00
604.3400, 13742.00
605.5080, 13866.00
606.6760, 13951.00
607.8440, 13939.00
609.0120, 13918.00
610.1790, 13917.00
611.3460, 14064.00
612.5130, 13986.00
613.6800, 14075.00
614.8470, 14221.00
616.0130, 14143.07
617.1800, 14194.15
618.3460, 14140.00
619.5120, 14125.00
620.6780, 14213.00
621.8440, 14146.00
623.0090, 14230.00
624.1750, 14243.00
625.3400, 14188.00
626.5050, 14263.00
627.6700, 14313.00
628.8350, 14239.00
629.9990, 14277.00
631.1640, 14338.00
632.3280, 14414.00
633.4920, 14350.00
634.6560, 14415.00
635.8200, 14572.00
636.9840, 14451.00
638.1470, 14692.00
639.3100, 14598.00
640.4730, 14573.00
641.6360, 14718.00
642.7990, 14752.00
643.9620, 14749.00
645.1240, 14867.00
646.2870, 15087.00
647.4490, 15009.00
648.6110, 14997.00
649.7730, 15384.00
650.9340, 15434.00
652.0960, 15649.00
653.2570, 15827.00
654.4180, 16143.00
655.5790, 16483.00
656.7400, 16690.00
657.9010, 17045.00
659.0620, 17695.00
660.2220, 18353.00
661.3820, 19092.00
662.5420, 19822.00
663.7020, 20327.00
664.8620, 20987.00
666.0210, 21057.00
667.1810, 21092.00
668.3400, 20625.00
669.4990, 19991.00
670.6580, 19520.00
671.8170, 18891.00
672.9750, 18204.00
674.1340, 17758.00
675.2920, 17067.00
676.4500, 16786.00
677.6080, 16475.00
678.7660, 16338.00
679.9230, 16170.14
681.0810, 16063.00
682.2380, 15959.00
683.3950, 15678.00
684.5520, 15513.00
685.7090, 15508.00
686.8660, 15384.00
688.0220, 15337.38
689.1780, 15370.00
690.3340, 15291.00
691.4900, 15214.00
692.6460, 15271.00
693.8020, 15179.00
694.9570, 15051.00
696.1130, 15230.00
697.2680, 15035.00
698.4230, 15090.00
699.5780, 15102.00
700.7320, 15079.78
701.8870, 15233.00
703.0410, 15111.00
704.1950, 15162.00
705.3490, 15094.00
706.5030, 15113.00
707.6570, 15091.00
708.8110, 15063.00
709.9640, 15094.00
711.1170, 14929.00
712.2700, 15091.00
713.4230, 15016.00
714.5760, 14956.00
715.7280, 15149.00
716.8810, 14961.00
718.0330, 15165.00
719.1850, 15251.00
720.3370, 15101.00
721.4890, 15066.00
722.6400, 15273.00
723.7920, 15216.00
724.9430, 15212.00
726.0940, 15295.00
727.2450, 15224.00
728.3960, 15161.00
729.5460, 15083.00
730.6970, 15140.00
731.8470, 15255.00
732.9970, 15247.00
734.1470, 15228.00
735.2970, 15459.00
736.4460, 15234.00
737.5960, 15343.00
738.7450, 15260.00
739.8940, 15349.00
741.0430, 15291.00
742.1920, 15382.00
743.3410, 15492.00
744.4890, 15170.00
745.6370, 15410.00
746.7850, 15396.00
747.9330, 15344.00
749.0810, 15406.00
750.2290, 15202.00
751.3760, 15530.00
752.5240, 15388.00
753.6710, 15522.00
754.8180, 15447.00
755.9650, 15681.00
757.1110, 15729.00
758.2580, 15483.00
759.4040, 15664.00
760.5510, 15702.00
761.6970, 15481.00
762.8420, 15657.00
763.9880, 15584.00
765.1340, 15673.00
766.2790, 15717.00
767.4240, 15798.00
768.5690, 15547.00
769.7140, 15865.00
770.8590, 15686.00
772.0030, 15609.00
773.1480, 15746.00
774.2920, 15777.00
775.4360, 15780.00
776.5800, 15761.00
777.7240, 16004.00
778.8670, 15965.00
780.0110, 16035.35
781.1540, 16018.00
782.2970, 16081.00
783.4400, 16104.00
784.5830, 16089.00
785.7250, 16124.37
786.8680, 16021.00
788.0100, 16086.00
789.1520, 16122.00
790.2940, 15982.00
791.4360, 16096.00
792.5780, 16094.00
793.7190, 16003.00
794.8600, 16130.00
796.0010, 15970.00
797.1420, 15850.00
798.2830, 16252.00
799.4240, 16030.00
800.5640, 16237.00
801.7050, 15934.00
802.8450, 16208.00
803.9850, 16062.00
805.1250, 16086.00
806.2640, 15965.00
807.4040, 15983.00
808.5430, 16023.00
809.6820, 16071.00
810.8210, 16114.00
811.9600, 16133.00
813.0990, 16201.86
814.2370, 16201.00
815.3760, 16276.00
816.5140, 16361.00
817.6520, 16295.00
818.7900, 16239.00
819.9270, 16313.00
821.0650, 16379.00
822.2020, 16419.00
823.3390, 16341.00
824.4760, 16395.00
825.6130, 16350.00
826.7500, 16392.00
827.8870, 16405.00
829.0230, 16388.00
830.1590, 16409.48
831.2950, 16411.00
832.4310, 16394.00
833.5670, 16474.00
834.7030, 16432.00
835.8380, 16432.00
836.9730, 16485.00
838.1080, 16385.00
839.2430, 16316.00
840.3780, 16562.00
841.5130, 16707.00
842.6470, 16425.00
843.7810, 16445.00
844.9150, 16896.00
846.0490, 16566.00
847.1830, 16649.00
848.3170, 16552.00
849.4500, 16573.00
850.5830, 16771.00
851.7160, 16770.00
852.8490, 16528.00
853.9820, 16752.00
855.1150, 16749.00
856.2470, 16898.00
857.3800, 16930.00
858.5120, 16994.00
859.6440, 16745.00
860.7760, 16958.00
861.9070, 16830.00
863.0390, 16924.00
864.1700, 16842.00
865.3010, 16967.00
866.4320, 16926.00
867.5630, 16914.00
868.6940, 17143.00
869.8240, 17067.00
870.9540, 17027.00
872.0850, 17073.00
873.2150, 17150.00
874.3450, 17136.00
875.4740, 16964.00
876.6040, 17051.00
877.7330, 17034.00
878.8620, 17161.00
879.9910, 17129.00
881.1200, 17143.00
882.2490, 17226.00
883.3770, 17154.00
884.5060, 17070.00
885.6340, 17269.00
886.7620, 17167.00
887.8900, 17195.00
889.0180, 17138.00
890.1450, 17177.00
891.2730, 17100.00
892.4000, 17309.00
893.5270, 17281.00
894.6540, 17390.00
895.7810, 17233.00
896.9070, 17358.00
898.0340, 17325.00
899.1600, 17253.00
900.2860, 17236.00
901.4120, 17232.00
902.5380, 17260.49
903.6630, 17447.00
904.7890, 17318.00
905.9140, 17505.00
907.0390, 17422.00
908.1640, 17387.00
909.2890, 17405.00
910.4130, 17404.00
911.5380, 17339.00
912.6620, 17420.00
913.7860, 17560.00
914.9100, 17593.00
916.0340, 17472.00
917.1580, 17579.00
918.2810, 17543.00
919.4040, 17705.00
920.5280, 17506.00
921.6510, 17630.00
922.7730, 17608.00
923.8960, 17616.00
925.0180, 17812.00
926.1410, 17872.00
927.2630, 17887.00
928.3850, 17766.00
929.5070, 17644.00
930.6280, 17791.00
931.7500, 17665.00
932.8710, 17778.00
933.9920, 17753.00
935.1130, 17703.00
936.2340, 17719.00
937.3550, 17730.49
938.4760, 17829.00
939.5960, 17813.00
940.7160, 17902.00
941.8360, 17973.00
942.9560, 18027.00
944.0760, 17903.00
945.1950, 17900.00
946.3150, 17888.00
947.4340, 18082.00
948.5530, 18101.00
949.6720, 18078.00
950.7900, 18172.00
951.9090, 18072.00
953.0270, 18095.00
954.1460, 18186.00
955.2640, 18211.00
956.3820, 18195.00
957.4990, 18381.00
958.6170, 18347.00
959.7340, 18504.00
960.8520, 18358.00
961.9690, 18451.00
963.0860, 18509.00
964.2020, 18576.00
965.3190, 18591.64
966.4350, 18629.00
967.5520, 18645.00
968.6680, 18533.00
969.7840, 18656.00
970.8990, 18572.00
972.0150, 18609.00
973.1310, 18667.12
974.2460, 18790.00
975.3610, 18808.00
976.4760, 18826.00
977.5910, 18973.00
978.7050, 19064.00
979.8200, 19112.23
980.9340, 19142.00
982.0480, 19197.00
983.1620, 19167.00
984.2760, 19135.00
985.3900, 19258.00
986.5030, 19467.00
987.6160, 19351.00
988.7300, 19397.00
989.8430, 19754.00
990.9550, 19925.00
992.0680, 20118.00
993.1810, 20361.00
994.2930, 20518.00
995.4050, 20776.00
996.5170, 21258.00
997.6290, 21430.00
998.7410, 22110.00
999.8520, 22481.00
1000.964, 23346.00
1002.075, 23933.00
1003.186, 25016.00
1004.297, 25932.00
1005.407, 27210.00
1006.518, 28519.00
1007.628, 30405.00
1008.738, 32257.00
1009.848, 34150.00
1010.958, 35778.00
1012.068, 36733.00
1013.178, 36989.00
1014.287, 35935.00
1015.396, 34410.00
1016.505, 32134.00
1017.614, 29737.00
1018.723, 27575.00
1019.831, 25922.00
1020.940, 24359.00
1022.048, 23398.00
1023.156, 22601.00
1024.264, 21941.00
1025.372, 21717.00
1026.479, 21298.00
1027.587, 21080.00
1028.694, 20946.00
1029.801, 20735.00
1030.908, 20545.00
1032.015, 20739.00
1033.121, 20463.00
1034.228, 20447.00
1035.334, 20565.00
1036.440, 20460.00
1037.546, 20328.00
1038.652, 20582.00
1039.758, 20704.00
1040.863, 20439.00
1041.968, 20632.00
1043.074, 20513.00
1044.178, 20463.00
1045.283, 20310.00
1046.388, 20260.00
1047.492, 20043.00
1048.597, 19952.14
1049.701, 20299.00
1050.805, 19732.00
1051.909, 19924.00
1053.012, 19898.00
1054.116, 19662.00
1055.219, 19845.00
1056.322, 19775.00
1057.425, 19744.00
1058.528, 19729.00
1059.631, 19640.00
1060.733, 19729.00
1061.836, 19637.00
1062.938, 19562.00
1064.040, 19559.00
1065.142, 19603.00
1066.243, 19449.00
1067.345, 19457.00
1068.446, 19542.00
1069.547, 19492.00
1070.648, 19511.00
1071.749, 19624.00
1072.850, 19411.00
1073.951, 19550.00
1075.051, 19355.00
1076.151, 19604.00
1077.251, 19366.00
1078.351, 19554.00
1079.451, 19492.00
1080.550, 19480.00
1081.650, 19643.00
1082.749, 19529.00
1083.848, 19546.00
1084.947, 19521.00
1086.046, 19475.00
1087.144, 19661.00
1088.243, 19643.00
1089.341, 19536.00
1090.439, 19489.00
1091.537, 19641.00
1092.635, 19666.00
1093.732, 19729.00
1094.830, 19642.00
1095.927, 19549.00
1097.024, 19618.00
1098.121, 19566.15
1099.218, 19567.00
1100.314, 19623.00
1101.411, 19567.00
1102.507, 19663.00
1103.603, 19847.00
1104.699, 19700.00
1105.795, 19712.00
1106.890, 19889.00
1107.986, 19903.00
1109.081, 19672.00
1110.176, 20013.00
1111.271, 19731.00
1112.366, 19963.00
1113.461, 19770.00
1114.555, 19786.00
1115.649, 19734.00
1116.744, 19720.84
1117.838, 19853.00
1118.931, 19791.00
1120.025, 19868.00
1121.119, 19939.00
1122.212, 19954.00
1123.305, 19984.00
1124.398, 19992.00
1125.491, 20016.00
1126.584, 19880.00
1127.676, 19920.00
1128.768, 19756.00
1129.861, 19940.00
1130.953, 20078.00
1132.044, 19930.00
1133.136, 19897.00
1134.228, 20022.00
1135.319, 20047.00
1136.410, 20026.00
1137.501, 19869.00
1138.592, 20124.00
1139.683, 19924.00
1140.773, 19926.00
1141.864, 20147.00
1142.954, 19933.00
1144.044, 20090.00
1145.134, 19959.00
1146.224, 19984.00
1147.313, 19931.00
1148.402, 20066.00
1149.492, 20177.00
1150.581, 19996.00
1151.670, 20173.00
1152.758, 20033.00
1153.847, 20137.00
1154.935, 19997.00
1156.024, 20313.00
1157.112, 20221.00
1158.200, 20281.00
1159.287, 20076.00
1160.375, 20182.00
1161.462, 20046.00
1162.550, 20078.00
1163.637, 20362.00
1164.724, 20238.00
1165.810, 20367.00
1166.897, 20125.00
1167.983, 20236.00
1169.070, 20174.00
1170.156, 20321.00
1171.242, 20196.00
1172.327, 20246.00
1173.413, 20299.00
1174.499, 20216.00
1175.584, 20323.00
1176.669, 20221.00
1177.754, 20229.00
1178.839, 20388.00
1179.923, 20395.00
1181.008, 20439.54
1182.092, 20493.00
1183.176, 20519.00
1184.260, 20395.00
1185.344, 20489.00
1186.428, 20425.00
1187.511, 20408.00
1188.595, 20495.00
1189.678, 20531.00
1190.761, 20517.36
1191.843, 20581.98
1192.926, 20598.45
1194.009, 20642.00
1195.091, 20662.00
1196.173, 20678.67
1197.255, 20705.15
1198.337, 20633.00
1199.419, 20683.00
1200.500, 20662.00
1201.582, 20661.00
1202.663, 20737.00
1203.744, 20669.35
1204.825, 20741.00
1205.905, 20590.00
1206.986, 20624.00
1208.066, 20596.00
1209.146, 20612.94
1210.226, 20787.00
1211.306, 20728.00
1212.386, 20607.00
1213.466, 20667.00
1214.545, 20840.00
1215.624, 20590.00
1216.703, 20827.00
1217.782, 20800.00
1218.861, 20678.00
1219.939, 21034.00
1221.018, 20641.00
1222.096, 20900.00
1223.174, 20852.00
1224.252, 20945.00
1225.330, 21123.00
1226.407, 20838.00
1227.485, 20931.00
1228.562, 21170.00
1229.639, 21113.00
1230.716, 20988.00
1231.793, 20829.00
1232.869, 20896.00
1233.946, 21117.00
1235.022, 21132.00
1236.098, 21100.00
1237.174, 21190.00
1238.250, 21142.00
1239.325, 21148.00
1240.401, 20969.00
1241.476, 21089.00
1242.551, 20948.00
1243.626, 21062.00
1244.701, 21186.00
1245.776, 21243.00
1246.850, 21300.00
1247.924, 21310.15
1248.999, 21301.44
1250.073, 21241.00
1251.146, 21260.00
1252.220, 21158.00
1253.293, 21190.00
1254.367, 21170.00
1255.440, 21140.00
1256.513, 21345.00
1257.586, 21090.00
1258.658, 21300.00
1259.731, 21458.00
1260.803, 21296.00
1261.875, 21392.00
1262.947, 21461.00
1264.019, 21424.00
1265.091, 21465.90
1266.162, 21487.08
1267.234, 21438.00
1268.305, 21523.00
1269.376, 21499.00
1270.447, 21494.00
1271.517, 21567.69
1272.588, 21668.00
1273.658, 21672.00
1274.729, 21700.00
1275.799, 21730.00
1276.868, 21546.00
1277.938, 21541.00
1279.008, 21533.00
1280.077, 21736.00
