##NAMES=Diopside
##RRUFFID=R060171
##IDEAL CHEMISTRY=CaMgSi_2_O_6_
##LOCALITY=Jeffrey mine, Asbestos, Quebec, Canada
##OWNER=RRUFF
##SOURCE=Guy Ouellet
##DESCRIPTION=Yellowish-brown tabular crystals associated with vesuvianite, R060170
##STATUS=The identification of this mineral has been confirmed by X-ray diffraction and chemical analysis
##URL=rruff.info/R060171
##MEASURED CHEMISTRY=Ca_1.00_(Mg_0.98_Mn_0.02_)_Î£=1_Si_2.00_O_6_
##PIN_ID=L01396
##ORIENTATION=Laser parallel to -a* (-1 0 0). Fiducial mark perpendicular to laser is parallel to b [0 1 0]
129.2090, 18765.00
130.4390, 18985.00
131.6680, 19161.00
132.8980, 19102.00
134.1270, 19414.00
135.3560, 19769.00
136.5850, 19838.00
137.8140, 20436.00
139.0430, 20658.00
140.2710, 20974.00
141.5000, 20709.00
142.7280, 20624.00
143.9560, 20278.00
145.1840, 20136.00
146.4120, 20065.00
147.6390, 20012.00
148.8670, 19885.00
150.0940, 20014.00
151.3210, 19822.00
152.5490, 20014.00
153.7750, 20052.00
155.0020, 20115.00
156.2290, 20098.00
157.4550, 20271.00
158.6810, 20389.00
159.9080, 20291.00
161.1340, 20094.00
162.3590, 20432.00
163.5850, 20358.00
164.8110, 20405.00
166.0360, 20456.00
167.2610, 20595.00
168.4860, 20655.00
169.7110, 20636.00
170.9360, 20600.00
172.1610, 20638.00
173.3850, 20614.00
174.6100, 20728.00
175.8340, 20885.00
177.0580, 20997.00
178.2820, 21092.79
179.5050, 21183.61
180.7290, 21259.00
181.9520, 21240.00
183.1760, 21303.00
184.3990, 21164.00
185.6220, 21072.00
186.8450, 21185.00
188.0670, 21155.00
189.2900, 21156.00
190.5120, 21240.00
191.7340, 21299.00
192.9560, 21432.00
194.1780, 21341.00
195.4000, 21545.00
196.6220, 21431.00
197.8430, 21234.00
199.0640, 21450.00
200.2860, 21541.00
201.5070, 21553.00
202.7270, 21660.22
203.9480, 21453.00
205.1690, 21673.00
206.3890, 21660.00
207.6090, 21525.00
208.8290, 21650.00
210.0490, 21800.00
211.2690, 21559.00
212.4890, 21801.00
213.7080, 21795.00
214.9280, 21787.00
216.1470, 21762.00
217.3660, 22130.00
218.5850, 21998.00
219.8030, 22229.00
221.0220, 22077.00
222.2400, 22208.00
223.4590, 22227.00
224.6770, 22235.00
225.8950, 22136.00
227.1120, 22361.00
228.3300, 22347.00
229.5480, 22607.00
230.7650, 22557.00
231.9820, 22557.00
233.1990, 22659.00
234.4160, 22611.00
235.6330, 22579.00
236.8490, 22591.00
238.0660, 22582.00
239.2820, 22562.00
240.4980, 22521.00
241.7140, 22411.00
242.9300, 22410.00
244.1460, 22622.00
245.3610, 22612.00
246.5770, 22362.00
247.7920, 22753.00
249.0070, 22699.00
250.2220, 22961.00
251.4370, 22874.00
252.6510, 22970.00
253.8660, 23016.00
255.0800, 23112.00
256.2940, 23237.00
257.5080, 23067.00
258.7220, 23002.00
259.9360, 23059.00
261.1490, 23065.00
262.3630, 23245.00
263.5760, 22939.00
264.7890, 22980.00
266.0020, 22865.00
267.2150, 23180.00
268.4270, 23089.00
269.6400, 23184.00
270.8520, 23277.00
272.0640, 22909.00
273.2760, 23219.00
274.4880, 23120.00
275.7000, 23362.00
276.9120, 23113.00
278.1230, 23401.00
279.3340, 23379.00
280.5450, 23394.00
281.7560, 23473.00
282.9670, 23513.00
284.1780, 23542.00
285.3880, 23668.00
286.5980, 23630.00
287.8090, 23659.01
289.0190, 23527.00
290.2290, 23643.00
291.4380, 23638.00
292.6480, 23646.00
293.8570, 23700.00
295.0670, 23722.00
296.2760, 23823.00
297.4850, 23858.00
298.6930, 23809.00
299.9020, 24113.00
301.1110, 24085.00
302.3190, 23983.00
303.5270, 24368.00
304.7350, 24321.00
305.9430, 24649.00
307.1510, 24649.07
308.3580, 24438.00
309.5660, 24689.00
310.7730, 24796.00
311.9800, 24907.00
313.1870, 25025.00
314.3940, 25399.00
315.6010, 25536.00
316.8070, 25904.00
318.0130, 26365.00
319.2200, 26996.00
320.4260, 27714.00
321.6310, 28230.00
322.8370, 28520.00
324.0430, 28074.00
325.2480, 27830.00
326.4540, 27154.00
327.6590, 26547.00
328.8640, 26194.00
330.0680, 25862.00
331.2730, 25422.00
332.4780, 25109.00
333.6820, 25057.00
334.8860, 25248.00
336.0900, 24975.00
337.2940, 25083.00
338.4980, 24966.00
339.7010, 24993.00
340.9050, 24951.00
342.1080, 24895.00
343.3110, 24865.00
344.5140, 24867.00
345.7170, 25046.00
346.9200, 24814.00
348.1220, 25060.00
349.3240, 25231.00
350.5270, 25211.00
351.7290, 25179.00
352.9310, 25318.00
354.1320, 25422.00
355.3340, 25093.00
356.5350, 25553.00
357.7370, 25490.00
358.9380, 25344.00
360.1390, 25685.00
361.3400, 25516.00
362.5400, 25626.00
363.7410, 25716.00
364.9410, 25644.00
366.1410, 25870.00
367.3410, 25817.00
368.5410, 25792.00
369.7410, 25677.00
370.9400, 25720.00
372.1400, 25777.00
373.3390, 25911.00
374.5380, 25831.00
375.7370, 25850.00
376.9360, 26050.00
378.1350, 26233.00
379.3330, 26540.00
380.5310, 26591.00
381.7300, 26909.00
382.9280, 27309.00
384.1260, 27819.00
385.3230, 28198.00
386.5210, 29069.00
387.7180, 29302.00
388.9160, 29592.00
390.1130, 29391.00
391.3100, 28765.00
392.5060, 28256.00
393.7030, 27776.00
394.9000, 27400.00
396.0960, 26927.00
397.2920, 26626.00
398.4880, 26415.79
399.6840, 26479.00
400.8800, 26235.00
402.0750, 26112.00
403.2710, 26260.00
404.4660, 26238.00
405.6610, 26234.00
406.8560, 26381.00
408.0510, 26411.00
409.2450, 26369.00
410.4400, 26281.00
411.6340, 26300.91
412.8280, 26243.00
414.0220, 26301.00
415.2160, 26335.00
416.4100, 26396.00
417.6030, 26395.15
418.7970, 26531.00
419.9900, 26476.00
421.1830, 26360.00
422.3760, 26578.00
423.5690, 26403.00
424.7610, 26595.00
425.9540, 26395.00
427.1460, 26567.00
428.3380, 26682.00
429.5300, 26528.00
430.7220, 26441.00
431.9140, 26640.00
433.1050, 26701.00
434.2970, 26774.00
435.4880, 26764.00
436.6790, 26702.00
437.8700, 26588.00
439.0610, 26656.17
440.2510, 26706.00
441.4420, 26787.00
442.6320, 26733.00
443.8220, 26864.00
445.0120, 26866.00
446.2020, 26804.00
447.3910, 26905.00
448.5810, 26953.00
449.7700, 26985.00
450.9600, 26927.00
452.1490, 27096.00
453.3370, 27099.00
454.5260, 27209.00
455.7150, 27010.00
456.9030, 27078.00
458.0910, 27135.00
459.2800, 27278.00
460.4670, 27151.00
461.6550, 27255.00
462.8430, 27079.00
464.0300, 27277.00
465.2180, 27277.00
466.4050, 27398.00
467.5920, 27557.00
468.7790, 27266.00
469.9650, 27355.00
471.1520, 27449.00
472.3380, 27294.00
473.5250, 27555.00
474.7110, 27674.00
475.8970, 27421.00
477.0820, 27428.00
478.2680, 27596.00
479.4540, 27485.00
480.6390, 27504.00
481.8240, 27517.00
483.0090, 27852.00
484.1940, 27703.00
485.3780, 27549.00
486.5630, 27846.00
487.7470, 27762.00
488.9320, 27918.00
490.1160, 27837.00
491.3000, 27960.00
492.4830, 27823.00
493.6670, 27840.00
494.8500, 28018.00
496.0340, 27844.00
497.2170, 27796.00
498.4000, 28075.00
499.5820, 28107.00
500.7650, 28059.00
501.9480, 28095.00
503.1300, 28164.00
504.3120, 28129.00
505.4940, 28134.00
506.6760, 28192.00
507.8580, 28350.00
509.0390, 28270.00
510.2210, 28246.00
511.4020, 28491.00
512.5830, 28556.00
513.7640, 28413.00
514.9450, 28469.00
516.1250, 28424.00
517.3060, 28474.00
518.4860, 28491.00
519.6660, 28422.00
520.8460, 28506.00
522.0260, 28544.00
523.2060, 28674.00
524.3850, 28671.00
525.5650, 28834.00
526.7440, 28775.00
527.9230, 29018.00
529.1020, 28973.00
530.2810, 28925.00
531.4590, 28814.00
532.6380, 28910.00
533.8160, 28956.00
534.9940, 28750.00
536.1720, 28747.00
537.3500, 29029.00
538.5270, 28899.00
539.7050, 28836.00
540.8820, 28731.00
542.0590, 28693.00
543.2360, 28910.00
544.4130, 28721.00
545.5900, 29018.00
546.7660, 28858.00
547.9430, 29012.00
549.1190, 28944.00
550.2950, 29048.00
551.4710, 29150.00
552.6470, 29002.00
553.8220, 29097.00
554.9980, 29102.00
556.1730, 29083.00
557.3480, 29318.00
558.5230, 29207.00
559.6980, 29430.00
560.8730, 29564.00
562.0470, 29113.00
563.2220, 29373.00
564.3960, 29316.00
565.5700, 29317.00
566.7440, 29388.00
567.9170, 29283.00
569.0910, 29395.00
570.2640, 29229.00
571.4380, 29484.00
572.6110, 29626.00
573.7840, 29431.00
574.9570, 29635.00
576.1290, 29510.00
577.3020, 29368.00
578.4740, 29661.00
579.6460, 29643.00
580.8180, 29776.00
581.9900, 29714.00
583.1620, 29663.00
584.3330, 29803.00
585.5040, 29613.00
586.6760, 29769.00
587.8470, 29991.00
589.0180, 29803.00
590.1880, 29713.00
591.3590, 29888.00
592.5290, 29831.00
593.7000, 29874.00
594.8700, 29896.00
596.0400, 29864.00
597.2090, 29882.00
598.3790, 29963.00
599.5490, 29801.00
600.7180, 29879.00
601.8870, 29986.00
603.0560, 30184.00
604.2250, 29890.00
605.3940, 30103.00
606.5620, 30204.00
607.7300, 30084.00
608.8990, 30359.00
610.0670, 30112.00
611.2350, 30357.00
612.4020, 30265.00
613.5700, 30448.00
614.7370, 30368.00
615.9050, 30093.00
617.0720, 30292.00
618.2390, 30406.00
619.4060, 30388.00
620.5720, 30629.00
621.7390, 30547.00
622.9050, 30590.00
624.0710, 30834.00
625.2370, 30688.00
626.4030, 30574.00
627.5690, 30812.00
628.7340, 30767.00
629.9000, 30679.00
631.0650, 30756.00
632.2300, 30740.00
633.3950, 30826.00
634.5600, 30794.65
635.7240, 30780.00
636.8890, 30788.00
638.0530, 30903.00
639.2170, 31011.00
640.3810, 31128.00
641.5450, 31270.00
642.7080, 31102.00
643.8720, 31312.00
645.0350, 31039.00
646.1980, 31302.00
647.3610, 31506.00
648.5240, 31436.00
649.6870, 31618.00
650.8490, 31747.00
652.0120, 31779.00
653.1740, 32054.00
654.3360, 32322.00
655.4980, 32352.00
656.6600, 32793.00
657.8210, 32999.00
658.9830, 33352.00
660.1440, 33931.00
661.3050, 34252.00
662.4660, 34878.00
663.6270, 35324.00
664.7870, 35578.00
665.9480, 35853.00
667.1080, 35629.00
668.2680, 35003.00
669.4280, 34386.00
670.5880, 33852.00
671.7480, 33671.00
672.9070, 33174.00
674.0670, 32848.00
675.2260, 32338.00
676.3850, 32552.00
677.5440, 32223.00
678.7030, 32240.00
679.8610, 32308.00
681.0200, 32145.00
682.1780, 31937.00
683.3360, 32391.00
684.4940, 31913.00
685.6520, 32009.00
686.8090, 31999.00
687.9670, 31913.00
689.1240, 32188.00
690.2810, 31969.00
691.4380, 32037.00
692.5950, 31975.00
693.7520, 32257.00
694.9080, 32174.00
696.0650, 32480.00
697.2210, 32397.41
698.3770, 32293.00
699.5330, 32259.00
700.6880, 32206.00
701.8440, 32099.00
702.9990, 32166.00
704.1550, 32449.00
705.3100, 32325.00
706.4650, 32390.00
707.6190, 32407.00
708.7740, 32449.00
709.9290, 32461.05
711.0830, 32468.00
712.2370, 32503.00
713.3910, 32452.00
714.5450, 32538.00
715.6980, 32533.00
716.8520, 32541.60
718.0050, 32697.00
719.1580, 32571.00
720.3110, 32637.00
721.4640, 32673.00
722.6170, 32490.00
723.7700, 32536.00
724.9220, 32580.15
726.0740, 32644.00
727.2260, 32800.00
728.3780, 32753.00
729.5300, 32960.00
730.6810, 32970.00
731.8330, 32873.00
732.9840, 32782.00
734.1350, 32832.00
735.2860, 32687.00
736.4370, 32725.00
737.5880, 32802.03
738.7380, 32950.00
739.8880, 33047.00
741.0390, 33047.00
742.1890, 33223.00
743.3380, 33119.00
744.4880, 33058.00
745.6380, 33213.00
746.7870, 33005.00
747.9360, 33471.00
749.0850, 33338.00
750.2340, 33338.00
751.3830, 33250.00
752.5310, 33184.38
753.6800, 33388.00
754.8280, 33163.00
755.9760, 33448.00
757.1240, 33687.00
758.2720, 33419.00
759.4190, 33278.00
760.5670, 33591.00
761.7140, 33396.00
762.8610, 33474.00
764.0080, 33581.00
765.1550, 33611.00
766.3020, 33485.00
767.4480, 33704.00
768.5950, 33604.00
769.7410, 33733.00
770.8870, 33774.00
772.0330, 33686.00
773.1780, 33473.00
774.3240, 33845.00
775.4690, 33769.00
776.6140, 34033.00
777.7590, 33851.00
778.9040, 33896.00
780.0490, 33958.00
781.1940, 33934.00
782.3380, 34042.67
783.4820, 34086.50
784.6260, 34205.00
785.7700, 34246.00
786.9140, 34292.00
788.0580, 34399.00
789.2010, 34199.00
790.3450, 34145.00
791.4880, 34278.00
792.6310, 34367.00
793.7730, 34261.00
794.9160, 34426.00
796.0590, 34263.00
797.2010, 34161.00
798.3430, 34368.00
799.4850, 34370.00
800.6270, 34439.00
801.7690, 34349.00
802.9100, 34185.00
804.0520, 34377.00
805.1930, 34245.00
806.3340, 34348.00
807.4750, 34510.00
808.6160, 34515.00
809.7560, 34739.00
810.8970, 34698.00
812.0370, 34812.00
813.1770, 34756.00
814.3170, 34847.00
815.4570, 34939.00
816.5960, 34793.00
817.7360, 34762.00
818.8750, 35311.00
820.0140, 34921.00
821.1530, 35185.00
822.2920, 34928.00
823.4310, 35005.00
824.5690, 35294.00
825.7070, 35210.00
826.8460, 35228.00
827.9840, 35253.00
829.1220, 35258.00
830.2590, 35249.00
831.3970, 35285.21
832.5340, 35378.00
833.6710, 35362.00
834.8080, 35456.00
835.9450, 35543.00
837.0820, 35306.00
838.2190, 35405.00
839.3550, 35693.00
840.4910, 35449.00
841.6270, 35657.00
842.7630, 35634.00
843.8990, 35582.00
845.0350, 35553.00
846.1700, 35782.00
847.3060, 35580.00
848.4410, 36182.00
849.5760, 35756.00
850.7100, 36343.00
851.8450, 36122.00
852.9800, 36324.00
854.1140, 36006.00
855.2480, 36200.00
856.3820, 36206.00
857.5160, 36239.00
858.6500, 36299.00
859.7830, 36167.00
860.9170, 36062.00
862.0500, 36153.00
863.1830, 36259.00
864.3160, 36348.00
865.4480, 36339.00
866.5810, 36375.00
867.7130, 36327.67
868.8460, 36363.00
869.9780, 36227.00
871.1100, 36205.00
872.2410, 36235.00
873.3730, 36286.00
874.5050, 36333.69
875.6360, 36564.00
876.7670, 36403.00
877.8980, 36553.00
879.0290, 36421.00
880.1590, 36331.00
881.2900, 36656.00
882.4200, 36444.00
883.5500, 36950.00
884.6800, 36749.00
885.8100, 36782.00
886.9400, 36924.00
888.0690, 36728.00
889.1990, 36858.00
890.3280, 36839.00
891.4570, 36945.00
892.5860, 36953.00
893.7140, 36871.00
894.8430, 36966.00
895.9710, 36976.00
897.1000, 36929.00
898.2280, 37035.00
899.3560, 37023.00
900.4830, 37177.00
901.6110, 36988.00
902.7380, 37096.00
903.8660, 37174.00
904.9930, 37269.00
906.1200, 37467.00
907.2460, 37400.00
908.3730, 37302.00
909.5000, 37459.00
910.6260, 37455.00
911.7520, 37437.00
912.8780, 37725.00
914.0040, 37559.00
915.1290, 37590.00
916.2550, 37677.00
917.3800, 37619.00
918.5050, 37830.00
919.6300, 37837.00
920.7550, 37899.00
921.8800, 37561.00
923.0040, 37886.00
924.1290, 37685.00
925.2530, 37665.00
926.3770, 37944.00
927.5010, 37795.00
928.6250, 38211.00
929.7480, 38119.00
930.8720, 38181.00
931.9950, 37938.00
933.1180, 38171.00
934.2410, 38334.00
935.3640, 38110.00
936.4860, 38106.00
937.6090, 38218.00
938.7310, 38234.00
939.8530, 38248.00
940.9750, 38431.00
942.0970, 38465.00
943.2180, 38327.00
944.3400, 38469.00
945.4610, 38337.00
946.5820, 38570.00
947.7030, 38420.00
948.8240, 38533.00
949.9450, 38808.00
951.0650, 38553.00
952.1860, 38591.00
953.3060, 38947.00
954.4260, 38557.00
955.5460, 38766.00
956.6650, 38854.00
957.7850, 38756.00
958.9040, 39189.00
960.0230, 39059.00
961.1420, 39231.00
962.2610, 39286.00
963.3800, 39125.00
964.4990, 39157.00
965.6170, 38996.00
966.7350, 39288.00
967.8530, 39305.00
968.9710, 39467.00
970.0890, 39141.00
971.2070, 39359.00
972.3240, 39673.00
973.4410, 39266.00
974.5580, 39565.00
975.6750, 39507.00
976.7920, 39553.00
977.9090, 39352.00
979.0250, 39727.00
980.1410, 39422.00
981.2580, 39831.00
982.3740, 39902.00
983.4890, 39912.00
984.6050, 39959.00
985.7200, 39518.00
986.8360, 39994.00
987.9510, 39853.00
989.0660, 40180.00
990.1810, 40146.00
991.2950, 40097.00
992.4100, 40337.00
993.5240, 40048.00
994.6390, 40259.00
995.7530, 40350.00
996.8660, 40512.00
997.9800, 40909.00
999.0940, 41056.00
1000.207, 41119.00
1001.320, 41490.00
1002.433, 41604.00
1003.546, 41871.00
1004.659, 42300.00
1005.772, 43115.78
1006.884, 44057.00
1007.996, 45254.00
1009.108, 46578.00
1010.220, 47987.00
1011.332, 49288.00
1012.444, 49666.00
1013.555, 48857.00
1014.666, 47731.00
1015.777, 46551.00
1016.888, 44921.00
1017.999, 43949.00
1019.110, 43239.00
1020.220, 42646.00
1021.331, 42172.00
1022.441, 41944.00
1023.551, 42079.00
1024.661, 41874.00
1025.770, 41528.00
1026.880, 41680.00
1027.989, 41564.00
1029.098, 41821.00
1030.207, 41666.00
1031.316, 41804.00
1032.425, 41787.00
1033.533, 41815.00
1034.642, 41720.00
1035.750, 41667.00
1036.858, 41892.00
1037.966, 41991.00
1039.073, 41830.00
1040.181, 41941.00
1041.288, 41973.00
1042.396, 42002.00
1043.503, 41992.00
1044.610, 42154.00
1045.716, 42155.00
1046.823, 42200.26
1047.929, 42367.00
1049.036, 42238.00
1050.142, 42377.00
1051.248, 42365.00
1052.353, 42069.00
1053.459, 42448.00
1054.564, 42612.00
1055.670, 42348.00
1056.775, 42313.00
1057.880, 42516.00
1058.985, 42525.00
1060.089, 42672.00
1061.194, 42198.00
1062.298, 42736.00
1063.402, 42491.00
1064.506, 42449.00
1065.610, 42608.00
1066.713, 42752.00
1067.817, 42789.00
1068.920, 42903.67
1070.023, 42885.00
1071.126, 43021.00
1072.229, 43068.00
1073.332, 43092.00
1074.435, 43253.00
1075.537, 43255.00
1076.639, 43385.00
1077.741, 43234.00
1078.843, 43263.00
1079.945, 42947.00
1081.046, 43310.00
1082.148, 43269.00
1083.249, 43582.00
1084.350, 43472.00
1085.451, 43512.00
1086.551, 43552.00
1087.652, 43505.00
1088.752, 43496.73
1089.853, 43930.00
1090.953, 43504.00
1092.053, 43676.00
1093.152, 43913.00
1094.252, 43567.00
1095.351, 43579.00
1096.451, 43812.00
1097.550, 43978.00
1098.649, 44140.00
1099.748, 43932.00
1100.846, 43850.00
1101.945, 43982.00
1103.043, 44351.00
1104.141, 44344.00
1105.239, 44157.00
1106.337, 44293.00
1107.434, 44043.00
1108.532, 44328.00
1109.629, 44242.00
1110.726, 44470.00
1111.823, 44408.00
1112.920, 44547.00
1114.017, 44697.00
1115.113, 44699.61
1116.210, 44890.00
1117.306, 44811.00
1118.402, 44932.00
1119.498, 44990.00
1120.593, 44886.00
1121.689, 45246.00
1122.784, 45018.00
1123.879, 45181.00
1124.974, 45261.00
1126.069, 45032.00
1127.164, 45143.00
1128.259, 45121.00
1129.353, 45435.00
1130.447, 45448.00
1131.541, 45421.00
1132.635, 45858.00
1133.729, 45791.00
1134.822, 45572.00
1135.916, 45737.00
1137.009, 45677.00
1138.102, 45753.00
1139.195, 45709.00
1140.288, 45544.00
1141.380, 46059.00
1142.473, 45676.00
1143.565, 45796.00
1144.657, 46121.00
1145.749, 45962.00
1146.841, 46175.00
1147.932, 46176.00
1149.024, 46048.00
1150.115, 46115.00
1151.206, 46295.00
1152.297, 46219.00
1153.388, 46573.00
1154.479, 46270.00
1155.569, 46222.00
1156.659, 46208.00
1157.750, 46517.00
1158.839, 46660.00
1159.929, 46520.00
1161.019, 46441.00
1162.108, 46832.00
1163.198, 46764.00
1164.287, 46840.00
1165.376, 46596.00
1166.465, 46996.00
1167.553, 47203.00
1168.642, 47115.00
1169.730, 47193.00
1170.818, 47206.00
1171.906, 47329.00
1172.994, 47099.00
1174.082, 47118.00
1175.170, 47120.00
1176.257, 47522.00
1177.344, 47262.00
1178.431, 47315.00
1179.518, 47623.00
1180.605, 47585.00
1181.691, 47612.00
1182.778, 47665.00
1183.864, 47783.00
1184.950, 47728.00
1186.036, 47897.00
1187.122, 48103.00
1188.207, 47948.00
1189.292, 47997.00
1190.378, 48165.00
1191.463, 47908.00
1192.548, 47737.00
1193.632, 48247.00
1194.717, 48301.00
1195.801, 48297.00
1196.886, 48443.00
1197.970, 48603.00
1199.054, 48520.00
1200.137, 48416.00
1201.221, 48292.00
1202.305, 48620.00
1203.388, 48505.00
1204.471, 48895.00
1205.554, 48580.00
1206.637, 48972.00
1207.719, 48956.00
1208.802, 48731.00
1209.884, 49298.00
1210.966, 49111.00
1212.048, 48999.00
1213.130, 49056.00
1214.212, 49187.00
1215.293, 49061.00
1216.374, 49355.00
1217.456, 49471.00
1218.536, 49153.00
1219.617, 49550.00
1220.698, 49204.00
1221.778, 49426.00
1222.859, 49764.00
1223.939, 49506.00
1225.019, 49802.00
1226.099, 49694.00
1227.178, 49963.00
1228.258, 49873.00
1229.337, 49967.00
1230.417, 50156.00
1231.496, 50025.00
1232.574, 50207.00
1233.653, 50333.00
1234.732, 50175.00
1235.810, 50387.00
1236.888, 50191.00
1237.966, 50196.00
1239.044, 50451.00
1240.122, 50350.00
1241.199, 50616.00
1242.277, 50761.00
1243.354, 51006.00
1244.431, 50638.00
1245.508, 50402.00
1246.585, 50977.00
1247.661, 51223.00
1248.738, 51128.00
1249.814, 51138.00
1250.890, 51166.00
1251.966, 51309.00
1253.042, 51151.00
1254.117, 51060.00
1255.193, 51128.00
1256.268, 51428.00
1257.343, 51376.00
1258.418, 51585.00
1259.493, 51424.00
1260.567, 51671.00
1261.642, 51815.00
1262.716, 51769.00
1263.790, 51941.00
1264.864, 51832.00
1265.938, 51845.00
1267.011, 51909.34
1268.085, 51846.00
1269.158, 51946.00
1270.231, 51960.00
1271.304, 51893.00
1272.377, 52296.00
1273.450, 52251.00
1274.522, 52030.00
1275.594, 52484.00
1276.666, 52275.00
1277.738, 52454.00
1278.810, 52592.00
1279.882, 52284.00
1280.953, 52667.00
1282.025, 52452.00
1283.096, 52580.00
1284.167, 52527.00
1285.238, 52827.00
1286.308, 52729.00
1287.379, 52797.00
1288.449, 52778.00
1289.519, 52909.00
1290.589, 52880.00
1291.659, 52880.00
1292.729, 53117.00
1293.798, 52846.00
1294.868, 53243.00
1295.937, 52929.00
1297.006, 52930.00
1298.075, 53464.00
1299.143, 53227.00
1300.212, 53414.00
1301.280, 53280.00
1302.348, 53379.00
1303.416, 53346.00
1304.484, 53441.00
