##NAMES=Diopside
##RRUFFID=R050666
##IDEAL CHEMISTRY=CaMgSi_2_O_6_
##LOCALITY=Franklin, Sussex County, New Jersey, USA
##OWNER=RRUFF
##SOURCE=University of Arizona Mineral Museum
##DESCRIPTION=Brown cleavage fragment with white hardystonite
##STATUS=The identification of this mineral has been confirmed by X-ray diffraction and chemical analysis
##URL=rruff.info/R050666
##MEASURED CHEMISTRY=Ca(Mg_0.66_Mn_0.33_Fe_0.01_)Si_2_O_6_
##PIN_ID=L00985
##ORIENTATION=Laser parallel to (1 0 1). Fiducial mark perpendicular to laser is parallel to -b [0 -1 0]
129.2090, 34112.00
130.4390, 34212.00
131.6680, 34182.00
132.8980, 34723.00
134.1270, 34797.00
135.3560, 35008.00
136.5850, 35152.00
137.8140, 35072.00
139.0430, 35412.00
140.2710, 35223.00
141.5000, 35580.00
142.7280, 35501.00
143.9560, 35495.00
145.1840, 35791.00
146.4120, 35805.00
147.6390, 35967.00
148.8670, 36048.00
150.0940, 36158.00
151.3210, 36328.00
152.5490, 36449.00
153.7750, 36537.81
155.0020, 36472.00
156.2290, 36627.00
157.4550, 36788.00
158.6810, 36686.00
159.9080, 36879.00
161.1340, 36979.00
162.3590, 36853.00
163.5850, 37217.00
164.8110, 37120.00
166.0360, 37306.00
167.2610, 37171.00
168.4860, 37284.67
169.7110, 37379.22
170.9360, 37486.00
172.1610, 37580.00
173.3850, 37770.00
174.6100, 37842.00
175.8340, 38109.00
177.0580, 38142.00
178.2820, 38200.00
179.5050, 38108.00
180.7290, 38064.00
181.9520, 38150.00
183.1760, 38244.00
184.3990, 38258.07
185.6220, 38437.00
186.8450, 38368.00
188.0670, 38553.00
189.2900, 38635.00
190.5120, 38865.00
191.7340, 38657.00
192.9560, 38874.00
194.1780, 38787.00
195.4000, 39149.00
196.6220, 39176.00
197.8430, 39026.00
199.0640, 39234.00
200.2860, 39393.00
201.5070, 39289.00
202.7270, 39338.00
203.9480, 39482.00
205.1690, 39509.00
206.3890, 39693.00
207.6090, 39516.00
208.8290, 39865.00
210.0490, 39762.00
211.2690, 39745.00
212.4890, 40032.00
213.7080, 39833.00
214.9280, 40139.00
216.1470, 40301.00
217.3660, 40091.00
218.5850, 40026.00
219.8030, 39947.00
221.0220, 40439.00
222.2400, 40214.00
223.4590, 40573.00
224.6770, 40583.00
225.8950, 40661.00
227.1120, 40476.00
228.3300, 40600.00
229.5480, 40880.00
230.7650, 40669.00
231.9820, 40803.00
233.1990, 41050.00
234.4160, 40955.00
235.6330, 41233.00
236.8490, 41108.00
238.0660, 41288.00
239.2820, 41265.00
240.4980, 41345.00
241.7140, 41265.00
242.9300, 41286.00
244.1460, 41345.00
245.3610, 41162.00
246.5770, 41480.00
247.7920, 41507.00
249.0070, 41403.00
250.2220, 41630.00
251.4370, 41518.00
252.6510, 41896.00
253.8660, 41783.00
255.0800, 41929.00
256.2940, 41821.00
257.5080, 41739.00
258.7220, 42268.00
259.9360, 42387.00
261.1490, 42140.00
262.3630, 42055.00
263.5760, 42062.00
264.7890, 42075.83
266.0020, 42253.00
267.2150, 42286.00
268.4270, 42398.00
269.6400, 42463.00
270.8520, 42638.00
272.0640, 42844.00
273.2760, 42902.00
274.4880, 42435.00
275.7000, 42762.00
276.9120, 42596.00
278.1230, 42867.00
279.3340, 42792.00
280.5450, 43139.00
281.7560, 43050.00
282.9670, 43138.00
284.1780, 43309.00
285.3880, 43269.00
286.5980, 43193.00
287.8090, 43418.00
289.0190, 43669.00
290.2290, 43253.00
291.4380, 43917.00
292.6480, 43917.00
293.8570, 44039.00
295.0670, 43767.00
296.2760, 44147.00
297.4850, 44296.00
298.6930, 44521.00
299.9020, 44999.00
301.1110, 44687.00
302.3190, 45205.00
303.5270, 45269.00
304.7350, 45745.00
305.9430, 46052.00
307.1510, 46230.00
308.3580, 46548.00
309.5660, 46734.00
310.7730, 46975.00
311.9800, 47092.00
313.1870, 47041.00
314.3940, 47313.00
315.6010, 47200.00
316.8070, 46965.00
318.0130, 46660.00
319.2200, 46737.00
320.4260, 46414.00
321.6310, 46403.00
322.8370, 46252.00
324.0430, 46220.00
325.2480, 46167.00
326.4540, 45925.00
327.6590, 45907.00
328.8640, 45887.00
330.0680, 46015.00
331.2730, 45809.00
332.4780, 45771.00
333.6820, 45960.00
334.8860, 46060.00
336.0900, 46344.00
337.2940, 46419.61
338.4980, 46373.00
339.7010, 46634.00
340.9050, 46792.00
342.1080, 46887.00
343.3110, 47071.00
344.5140, 47327.00
345.7170, 47661.00
346.9200, 47252.00
348.1220, 47442.00
349.3240, 47387.00
350.5270, 47544.00
351.7290, 47466.00
352.9310, 47437.00
354.1320, 47311.00
355.3340, 47020.00
356.5350, 47047.00
357.7370, 46801.00
358.9380, 47102.00
360.1390, 46878.00
361.3400, 46699.00
362.5400, 46658.00
363.7410, 47041.00
364.9410, 47080.00
366.1410, 47259.00
367.3410, 47477.00
368.5410, 47675.00
369.7410, 48188.00
370.9400, 48666.00
372.1400, 49099.00
373.3390, 49755.00
374.5380, 50014.00
375.7370, 50782.00
376.9360, 51336.00
378.1350, 51454.00
379.3330, 51200.00
380.5310, 51226.00
381.7300, 51265.00
382.9280, 50887.00
384.1260, 50719.00
385.3230, 50244.00
386.5210, 49816.00
387.7180, 49533.00
388.9160, 48639.00
390.1130, 48280.00
391.3100, 47964.00
392.5060, 48166.00
393.7030, 47645.00
394.9000, 47645.00
396.0960, 47376.00
397.2920, 47480.00
398.4880, 47281.00
399.6840, 47257.00
400.8800, 47219.00
402.0750, 47123.00
403.2710, 47394.00
404.4660, 47642.00
405.6610, 47257.00
406.8560, 47429.00
408.0510, 47169.00
409.2450, 47186.00
410.4400, 47476.00
411.6340, 47199.00
412.8280, 47214.00
414.0220, 47241.00
415.2160, 47233.71
416.4100, 47395.00
417.6030, 47468.00
418.7970, 47498.00
419.9900, 47719.00
421.1830, 47258.00
422.3760, 47715.00
423.5690, 47599.00
424.7610, 47469.00
425.9540, 47687.00
427.1460, 47645.00
428.3380, 47838.00
429.5300, 47647.00
430.7220, 48127.00
431.9140, 47960.00
433.1050, 47803.00
434.2970, 47933.00
435.4880, 47736.00
436.6790, 47779.00
437.8700, 47738.00
439.0610, 48005.00
440.2510, 48159.00
441.4420, 48083.00
442.6320, 48164.00
443.8220, 48145.00
445.0120, 48116.00
446.2020, 48506.00
447.3910, 48417.00
448.5810, 48384.00
449.7700, 48236.00
450.9600, 48332.00
452.1490, 48432.00
453.3370, 48281.00
454.5260, 48151.00
455.7150, 48344.00
456.9030, 48566.00
458.0910, 48370.00
459.2800, 48706.00
460.4670, 48437.00
461.6550, 48559.00
462.8430, 48231.00
464.0300, 48539.00
465.2180, 48665.00
466.4050, 48386.00
467.5920, 48736.00
468.7790, 48995.00
469.9650, 48599.00
471.1520, 48660.00
472.3380, 48625.00
473.5250, 48750.00
474.7110, 48572.00
475.8970, 48862.00
477.0820, 48671.00
478.2680, 49092.00
479.4540, 48812.00
480.6390, 49127.00
481.8240, 48792.00
483.0090, 49363.00
484.1940, 49198.22
485.3780, 48675.00
486.5630, 49238.00
487.7470, 49172.00
488.9320, 49379.00
490.1160, 49393.00
491.3000, 49120.00
492.4830, 49324.00
493.6670, 49133.00
494.8500, 49367.00
496.0340, 49630.00
497.2170, 49179.00
498.4000, 49330.00
499.5820, 49409.00
500.7650, 49606.00
501.9480, 49643.36
503.1300, 49458.00
504.3120, 49653.00
505.4940, 49507.00
506.6760, 49294.00
507.8580, 49716.00
509.0390, 49426.00
510.2210, 49677.00
511.4020, 49635.00
512.5830, 49339.00
513.7640, 49755.00
514.9450, 50021.00
516.1250, 49768.00
517.3060, 50029.00
518.4860, 50069.00
519.6660, 49795.00
520.8460, 49954.00
522.0260, 50511.00
523.2060, 50177.00
524.3850, 50367.00
525.5650, 50217.00
526.7440, 50047.00
527.9230, 50253.00
529.1020, 49760.00
530.2810, 49919.00
531.4590, 49814.00
532.6380, 50056.00
533.8160, 49894.00
534.9940, 49947.00
536.1720, 49941.00
537.3500, 49921.00
538.5270, 50234.00
539.7050, 50034.00
540.8820, 50057.00
542.0590, 50290.00
543.2360, 50564.00
544.4130, 50488.00
545.5900, 50743.00
546.7660, 50709.00
547.9430, 50766.00
549.1190, 50603.00
550.2950, 50818.00
551.4710, 51002.00
552.6470, 50893.00
553.8220, 51022.00
554.9980, 51140.00
556.1730, 50595.00
557.3480, 50839.00
558.5230, 51103.00
559.6980, 50562.00
560.8730, 50545.00
562.0470, 50454.00
563.2220, 50470.00
564.3960, 50473.00
565.5700, 50255.00
566.7440, 50303.00
567.9170, 50364.00
569.0910, 50297.00
570.2640, 50515.00
571.4380, 50368.00
572.6110, 50443.37
573.7840, 50331.00
574.9570, 50464.00
576.1290, 50404.00
577.3020, 50378.00
578.4740, 50451.00
579.6460, 50382.00
580.8180, 50393.32
581.9900, 50602.00
583.1620, 50374.00
584.3330, 50328.00
585.5040, 50343.00
586.6760, 50529.00
587.8470, 50483.00
589.0180, 50452.00
590.1880, 50509.00
591.3590, 50327.00
592.5290, 50631.00
593.7000, 50669.00
594.8700, 50469.00
596.0400, 50477.00
597.2090, 50495.00
598.3790, 50443.93
599.5490, 50482.67
600.7180, 50465.00
601.8870, 50556.00
603.0560, 50556.00
604.2250, 50666.00
605.3940, 50742.00
606.5620, 50792.00
607.7300, 50836.91
608.8990, 50879.36
610.0670, 50904.00
611.2350, 50908.00
612.4020, 50998.00
613.5700, 50946.00
614.7370, 50916.00
615.9050, 50900.00
617.0720, 50806.00
618.2390, 51008.00
619.4060, 51002.00
620.5720, 51043.00
621.7390, 50942.00
622.9050, 51149.00
624.0710, 50973.00
625.2370, 50913.00
626.4030, 51111.00
627.5690, 51331.00
628.7340, 51280.00
629.9000, 50906.00
631.0650, 51040.00
632.2300, 51165.00
633.3950, 51068.00
634.5600, 51210.00
635.7240, 51383.00
636.8890, 51137.00
638.0530, 51617.00
639.2170, 51460.00
640.3810, 51844.00
641.5450, 51897.00
642.7080, 51879.00
643.8720, 52248.00
645.0350, 52308.00
646.1980, 52867.00
647.3610, 52871.00
648.5240, 53715.00
649.6870, 54247.00
650.8490, 54693.00
652.0120, 55205.00
653.1740, 56178.00
654.3360, 56540.00
655.4980, 57218.00
656.6600, 57666.00
657.8210, 57533.00
658.9830, 57737.00
660.1440, 57415.00
661.3050, 56810.00
662.4660, 56574.00
663.6270, 56241.00
664.7870, 55493.00
665.9480, 54677.00
667.1080, 54365.00
668.2680, 54016.00
669.4280, 53284.00
670.5880, 52917.00
671.7480, 52522.00
672.9070, 52405.00
674.0670, 52134.00
675.2260, 51914.53
676.3850, 51880.00
677.5440, 51633.00
678.7030, 51496.00
679.8610, 51600.00
681.0200, 51518.00
682.1780, 51578.00
683.3360, 51176.00
684.4940, 51258.00
685.6520, 51215.00
686.8090, 51148.00
687.9670, 51137.00
689.1240, 51110.73
690.2810, 51305.00
691.4380, 51052.00
692.5950, 51284.00
693.7520, 51185.00
694.9080, 51112.00
696.0650, 51162.00
697.2210, 51157.00
698.3770, 51091.00
699.5330, 50966.00
700.6880, 51053.25
701.8440, 51191.00
702.9990, 51162.00
704.1550, 51013.00
705.3100, 51006.00
706.4650, 50907.00
707.6190, 51102.00
708.7740, 51097.00
709.9290, 50878.00
711.0830, 51124.00
712.2370, 50894.00
713.3910, 51238.00
714.5450, 51193.00
715.6980, 50704.00
716.8520, 50995.00
718.0050, 50973.00
719.1580, 50901.00
720.3110, 50945.00
721.4640, 50682.00
722.6170, 50911.00
723.7700, 50990.00
724.9220, 51314.00
726.0740, 50830.00
727.2260, 51261.00
728.3780, 50812.00
729.5300, 50744.00
730.6810, 51295.00
731.8330, 51260.00
732.9840, 50783.00
734.1350, 50933.00
735.2860, 50880.00
736.4370, 51257.00
737.5880, 50996.00
738.7380, 51057.00
739.8880, 51020.00
741.0390, 50754.00
742.1890, 51147.00
743.3380, 50731.00
744.4880, 51218.00
745.6380, 51018.00
746.7870, 51005.00
747.9360, 50976.00
749.0850, 50915.00
750.2340, 51290.00
751.3830, 51167.00
752.5310, 51147.00
753.6800, 51125.00
754.8280, 51075.00
755.9760, 50947.00
757.1240, 50867.13
758.2720, 50795.49
759.4190, 50707.00
760.5670, 50718.00
761.7140, 50828.00
762.8610, 50950.00
764.0080, 50905.52
765.1550, 50705.00
766.3020, 50859.00
767.4480, 50739.00
768.5950, 50722.00
769.7410, 50868.00
770.8870, 50818.00
772.0330, 51062.00
773.1780, 50947.00
774.3240, 50891.00
775.4690, 50763.00
776.6140, 50898.00
777.7590, 50390.00
778.9040, 51118.00
780.0490, 50686.00
781.1940, 50443.00
782.3380, 51012.00
783.4820, 50345.00
784.6260, 50519.00
785.7700, 50887.00
786.9140, 50838.00
788.0580, 50929.00
789.2010, 50709.00
790.3450, 50469.00
791.4880, 50414.00
792.6310, 50677.00
793.7730, 50699.00
794.9160, 50571.00
796.0590, 50680.00
797.2010, 50576.00
798.3430, 50498.00
799.4850, 50608.00
800.6270, 50452.00
801.7690, 50576.00
802.9100, 50444.00
804.0520, 50321.00
805.1930, 50668.00
806.3340, 50719.00
807.4750, 50570.00
808.6160, 50323.00
809.7560, 50561.00
810.8970, 50349.00
812.0370, 50833.00
813.1770, 50552.00
814.3170, 50547.00
815.4570, 50374.00
816.5960, 50540.00
817.7360, 50332.00
818.8750, 50467.00
820.0140, 50297.00
821.1530, 50565.00
822.2920, 50359.00
823.4310, 50698.00
824.5690, 50891.00
825.7070, 50306.00
826.8460, 50565.00
827.9840, 50263.00
829.1220, 50616.00
830.2590, 50353.00
831.3970, 50186.00
832.5340, 50153.00
833.6710, 50521.00
834.8080, 50286.00
835.9450, 50498.00
837.0820, 50509.00
838.2190, 50672.00
839.3550, 50598.00
840.4910, 50575.00
841.6270, 50784.00
842.7630, 50911.00
843.8990, 51018.00
845.0350, 51150.00
846.1700, 50898.00
847.3060, 51053.00
848.4410, 51096.00
849.5760, 50827.00
850.7100, 50781.00
851.8450, 50397.00
852.9800, 50440.00
854.1140, 50621.00
855.2480, 50649.00
856.3820, 50336.00
857.5160, 50210.00
858.6500, 50258.00
859.7830, 50254.00
860.9170, 50183.00
862.0500, 50284.00
863.1830, 50392.00
864.3160, 50012.00
865.4480, 49930.00
866.5810, 50449.00
867.7130, 50011.00
868.8460, 50059.00
869.9780, 50276.00
871.1100, 50011.00
872.2410, 49971.00
873.3730, 49932.00
874.5050, 49945.00
875.6360, 49961.00
876.7670, 50037.00
877.8980, 49941.00
879.0290, 49931.00
880.1590, 49860.00
881.2900, 49704.00
882.4200, 49900.00
883.5500, 49671.00
884.6800, 49802.00
885.8100, 49672.00
886.9400, 49869.00
888.0690, 49788.08
889.1990, 49702.00
890.3280, 49700.00
891.4570, 49691.28
892.5860, 49825.00
893.7140, 49729.00
894.8430, 49795.00
895.9710, 49767.00
897.1000, 49774.00
898.2280, 49554.00
899.3560, 49527.00
900.4830, 49607.00
901.6110, 49671.00
902.7380, 49717.00
903.8660, 49730.00
904.9930, 49736.89
906.1200, 49764.48
907.2460, 49699.00
908.3730, 49724.00
909.5000, 49697.00
910.6260, 49517.00
911.7520, 49597.00
912.8780, 49390.00
914.0040, 49459.00
915.1290, 49574.00
916.2550, 49307.00
917.3800, 49279.00
918.5050, 49306.00
919.6300, 49470.00
920.7550, 49310.00
921.8800, 49273.00
923.0040, 49413.00
924.1290, 49004.00
925.2530, 49280.00
926.3770, 48943.00
927.5010, 49184.00
928.6250, 49259.00
929.7480, 48906.00
930.8720, 49045.00
931.9950, 49089.00
933.1180, 48997.00
934.2410, 48932.00
935.3640, 49109.00
936.4860, 48792.00
937.6090, 49182.00
938.7310, 49147.00
939.8530, 49043.00
940.9750, 49029.00
942.0970, 48801.00
943.2180, 49044.00
944.3400, 48997.00
945.4610, 48882.00
946.5820, 48666.00
947.7030, 48774.00
948.8240, 48817.00
949.9450, 48907.00
951.0650, 48960.45
952.1860, 48858.00
953.3060, 49081.00
954.4260, 49510.00
955.5460, 49644.00
956.6650, 49324.00
957.7850, 48452.00
958.9040, 48713.00
960.0230, 48507.00
961.1420, 48835.00
962.2610, 48756.00
963.3800, 48773.00
964.4990, 48653.00
965.6170, 48711.00
966.7350, 48640.00
967.8530, 48445.00
968.9710, 48730.00
970.0890, 48368.00
971.2070, 48863.00
972.3240, 48721.00
973.4410, 48602.00
974.5580, 48718.00
975.6750, 48497.00
976.7920, 48454.00
977.9090, 48646.00
979.0250, 48445.00
980.1410, 48551.00
981.2580, 48514.00
982.3740, 48468.00
983.4890, 48881.00
984.6050, 48553.00
985.7200, 48580.00
986.8360, 48355.00
987.9510, 48682.00
989.0660, 48524.00
990.1810, 48837.00
991.2950, 48929.00
992.4100, 48928.00
993.5240, 48922.00
994.6390, 48977.00
995.7530, 49106.00
996.8660, 49321.00
997.9800, 49642.40
999.0940, 49890.00
1000.207, 50673.00
1001.320, 51355.00
1002.433, 52378.00
1003.546, 53419.00
1004.659, 55212.00
1005.772, 56927.00
1006.884, 59119.00
1007.996, 61160.00
1009.108, 62950.00
1010.220, 63699.00
1011.332, 64028.00
1012.444, 63073.00
1013.555, 62087.00
1014.666, 60186.00
1015.777, 58170.00
1016.888, 56502.00
1017.999, 54632.00
1019.110, 52794.00
1020.220, 51869.00
1021.331, 50870.00
1022.441, 50206.00
1023.551, 49745.00
1024.661, 49471.00
1025.770, 49008.00
1026.880, 48907.00
1027.989, 48831.00
1029.098, 48590.00
1030.207, 48563.00
1031.316, 48639.00
1032.425, 48704.00
1033.533, 48790.93
1034.642, 48979.00
1035.750, 49016.00
1036.858, 49033.00
1037.966, 49111.00
1039.073, 48752.00
1040.181, 48765.00
1041.288, 48979.00
1042.396, 48650.00
1043.503, 48171.00
1044.610, 48148.00
1045.716, 47852.00
1046.823, 47774.00
1047.929, 47511.00
1049.036, 47336.00
1050.142, 47195.00
1051.248, 47361.00
1052.353, 47165.00
1053.459, 47327.00
1054.564, 47119.00
1055.670, 46939.00
1056.775, 46764.00
1057.880, 46700.00
1058.985, 47010.00
1060.089, 46765.00
1061.194, 46603.00
1062.298, 47056.00
1063.402, 46426.00
1064.506, 46624.00
1065.610, 46720.00
1066.713, 46569.00
1067.817, 46292.00
1068.920, 46448.00
1070.023, 46272.00
1071.126, 46204.39
1072.229, 46339.00
1073.332, 46171.00
1074.435, 46221.00
1075.537, 46462.00
1076.639, 46284.00
1077.741, 46169.00
1078.843, 46580.00
1079.945, 46352.00
1081.046, 46194.00
1082.148, 46061.00
1083.249, 45979.18
1084.350, 45830.00
1085.451, 46009.00
1086.551, 45990.00
1087.652, 46240.00
1088.752, 46097.00
1089.853, 45685.00
1090.953, 45849.00
1092.053, 46081.00
1093.152, 45719.00
1094.252, 45723.00
1095.351, 45886.00
1096.451, 45664.00
1097.550, 45315.00
1098.649, 45865.00
1099.748, 45591.00
1100.846, 45470.00
1101.945, 45810.00
1103.043, 45613.00
1104.141, 45610.00
1105.239, 45692.00
1106.337, 45513.00
1107.434, 45348.00
1108.532, 45586.00
1109.629, 45610.00
1110.726, 45281.00
1111.823, 45324.00
1112.920, 45152.00
1114.017, 45241.00
1115.113, 45360.00
1116.210, 45381.00
1117.306, 45341.00
1118.402, 45549.00
1119.498, 45206.00
1120.593, 45586.00
1121.689, 45122.00
1122.784, 45268.00
1123.879, 45407.00
1124.974, 45065.00
1126.069, 45074.00
1127.164, 44861.00
1128.259, 45242.00
1129.353, 44773.00
1130.447, 44861.00
1131.541, 44976.00
1132.635, 44618.00
1133.729, 44558.00
1134.822, 45017.00
1135.916, 44766.00
1137.009, 44688.00
1138.102, 44462.00
1139.195, 44635.00
1140.288, 44540.00
1141.380, 44616.00
1142.473, 44560.00
1143.565, 44390.00
1144.657, 44492.00
1145.749, 44390.15
1146.841, 44567.00
1147.932, 44291.00
1149.024, 44249.00
1150.115, 44117.00
1151.206, 44013.00
1152.297, 44092.00
1153.388, 44346.00
1154.479, 44061.00
1155.569, 43900.00
1156.659, 44207.00
1157.750, 44068.00
1158.839, 44022.00
1159.929, 43972.00
1161.019, 43843.72
1162.108, 43817.00
1163.198, 43646.00
1164.287, 43795.00
1165.376, 43762.00
1166.465, 43625.00
1167.553, 43765.00
1168.642, 43627.00
1169.730, 43866.00
1170.818, 43778.00
1171.906, 43657.00
1172.994, 43731.00
1174.082, 43524.00
1175.170, 43648.00
1176.257, 43534.00
1177.344, 43268.00
1178.431, 43576.00
1179.518, 43259.00
1180.605, 43359.00
1181.691, 43319.00
1182.778, 43252.00
1183.864, 43322.00
1184.950, 43363.00
1186.036, 43315.44
1187.122, 43152.00
1188.207, 43250.00
1189.292, 43106.00
1190.378, 43041.00
1191.463, 43227.00
1192.548, 43061.00
1193.632, 43045.00
1194.717, 43082.00
1195.801, 42820.00
1196.886, 42995.00
1197.970, 42987.00
1199.054, 42885.00
1200.137, 42930.00
1201.221, 42953.00
1202.305, 42796.00
1203.388, 42689.00
1204.471, 42727.13
1205.554, 42598.00
1206.637, 42733.00
1207.719, 42813.00
1208.802, 42742.00
1209.884, 42502.00
1210.966, 42563.00
1212.048, 42466.00
1213.130, 42492.00
1214.212, 42484.18
1215.293, 42529.00
1216.374, 42509.00
1217.456, 42473.19
1218.536, 42429.00
1219.617, 42371.00
1220.698, 42312.00
1221.778, 42266.19
1222.859, 42280.00
1223.939, 42149.00
1225.019, 42123.00
1226.099, 42191.00
1227.178, 42211.00
1228.258, 42112.30
1229.337, 42092.00
1230.417, 41956.00
1231.496, 41873.00
1232.574, 41917.00
1233.653, 41649.00
1234.732, 41724.00
1235.810, 41816.00
1236.888, 41931.00
1237.966, 41787.00
1239.044, 41784.00
1240.122, 41717.00
1241.199, 41680.56
1242.277, 41739.00
1243.354, 41692.00
1244.431, 41598.00
1245.508, 41696.00
1246.585, 41665.00
1247.661, 41659.00
1248.738, 41449.00
1249.814, 41581.00
1250.890, 41403.00
1251.966, 41459.00
1253.042, 41429.01
1254.117, 41269.00
1255.193, 41354.00
1256.268, 41377.00
1257.343, 41303.00
1258.418, 41293.73
1259.493, 41274.00
1260.567, 41207.00
1261.642, 40992.00
1262.716, 41050.00
1263.790, 41194.00
1264.864, 40917.00
1265.938, 40993.00
1267.011, 41010.00
1268.085, 40914.00
1269.158, 40648.00
1270.231, 40586.00
1271.304, 40472.14
1272.377, 40816.00
1273.450, 40445.00
1274.522, 40408.00
1275.594, 40664.00
1276.666, 40511.00
1277.738, 40753.00
1278.810, 40451.00
1279.882, 40444.00
1280.953, 40669.00
1282.025, 40476.00
1283.096, 40513.00
1284.167, 40340.00
1285.238, 40227.00
1286.308, 40240.00
1287.379, 40164.04
1288.449, 40152.00
1289.519, 40153.00
1290.589, 40223.00
1291.659, 40220.00
1292.729, 39964.00
1293.798, 39803.00
1294.868, 40075.00
1295.937, 40147.00
1297.006, 39788.00
1298.075, 39788.00
1299.143, 39769.00
1300.212, 39932.00
1301.280, 39838.00
1302.348, 39743.00
1303.416, 40021.00
1304.484, 39736.00
