##NAMES=Diopside
##RRUFFID=R050406
##IDEAL CHEMISTRY=CaMgSi_2_O_6_
##LOCALITY=unknown
##OWNER=RRUFF
##SOURCE=University of Arizona Mineral Museum
##DESCRIPTION=Brownish gray massive
##STATUS=The identification of this mineral has been confirmed by X-ray diffraction and chemical analysis
##URL=rruff.info/R050406
##MEASURED CHEMISTRY=(Ca_0.95_Na_0.05_)(Mg_0.75_Fe^2+^_0.18_Fe^3+^_0.05_Al_0.01_Ti_0.01_Mn^2+^_0.01_)(Si_0.98_Al_0.02_)_2_O_6_
##PIN_ID=M00086
##ORIENTATION=Laser parallel to c* (0 0 1). Fiducial mark perpendicular to laser is parallel to a [1 0 0]
116.9030, 8001.000
118.1340, 8005.000
119.3650, 7894.000
120.5960, 8024.000
121.8270, 8049.000
123.0580, 8280.000
124.2880, 8356.000
125.5190, 8149.000
126.7490, 8169.000
127.9790, 8407.000
129.2090, 8511.000
130.4390, 8606.000
131.6680, 8756.000
132.8980, 8846.000
134.1270, 8778.000
135.3560, 9166.000
136.5850, 9133.000
137.8140, 9430.000
139.0430, 9726.000
140.2710, 9748.000
141.5000, 9764.000
142.7280, 9947.000
143.9560, 9903.000
145.1840, 9749.000
146.4120, 9883.000
147.6390, 9673.000
148.8670, 9728.000
150.0940, 9713.000
151.3210, 9801.000
152.5490, 9850.000
153.7750, 9819.000
155.0020, 9727.000
156.2290, 9722.000
157.4550, 9708.000
158.6810, 9884.000
159.9080, 9811.000
161.1340, 9888.000
162.3590, 10218.00
163.5850, 10385.00
164.8110, 10582.00
166.0360, 10682.00
167.2610, 10825.00
168.4860, 10807.00
169.7110, 10647.00
170.9360, 10713.00
172.1610, 10572.00
173.3850, 10668.00
174.6100, 10654.00
175.8340, 10614.00
177.0580, 10734.00
178.2820, 10946.00
179.5050, 10994.00
180.7290, 11226.00
181.9520, 11243.00
183.1760, 11485.00
184.3990, 11400.00
185.6220, 11379.00
186.8450, 11425.00
188.0670, 11323.00
189.2900, 11279.00
190.5120, 11316.00
191.7340, 11626.00
192.9560, 11699.00
194.1780, 11895.00
195.4000, 11881.00
196.6220, 11881.00
197.8430, 11581.00
199.0640, 11706.00
200.2860, 11581.00
201.5070, 11527.00
202.7270, 11469.00
203.9480, 11251.00
205.1690, 11147.00
206.3890, 11028.00
207.6090, 11011.00
208.8290, 10904.00
210.0490, 11044.00
211.2690, 10955.00
212.4890, 11029.00
213.7080, 11165.00
214.9280, 11057.00
216.1470, 11049.00
217.3660, 11163.00
218.5850, 11140.81
219.8030, 11285.00
221.0220, 11309.00
222.2400, 11496.00
223.4590, 11718.00
224.6770, 11816.00
225.8950, 11946.00
227.1120, 12125.00
228.3300, 12274.00
229.5480, 12244.00
230.7650, 12408.00
231.9820, 12651.00
233.1990, 12578.00
234.4160, 12502.00
235.6330, 12276.00
236.8490, 12478.00
238.0660, 12172.00
239.2820, 12153.00
240.4980, 12122.00
241.7140, 11937.00
242.9300, 12044.00
244.1460, 12081.00
245.3610, 12069.00
246.5770, 12020.00
247.7920, 12122.00
249.0070, 12191.00
250.2220, 12344.00
251.4370, 12266.00
252.6510, 12314.00
253.8660, 12429.00
255.0800, 12468.00
256.2940, 12592.00
257.5080, 12844.00
258.7220, 12685.67
259.9360, 13047.00
261.1490, 12504.00
262.3630, 12184.00
263.5760, 12194.00
264.7890, 12185.00
266.0020, 12060.00
267.2150, 12088.00
268.4270, 12004.00
269.6400, 12128.00
270.8520, 12118.00
272.0640, 12093.00
273.2760, 12141.00
274.4880, 12096.00
275.7000, 12118.00
276.9120, 12220.00
278.1230, 11994.00
279.3340, 12151.00
280.5450, 11979.00
281.7560, 12385.00
282.9670, 12277.00
284.1780, 12260.00
285.3880, 12439.00
286.5980, 12435.00
287.8090, 12472.00
289.0190, 12602.00
290.2290, 12676.00
291.4380, 12832.00
292.6480, 12955.00
293.8570, 13066.00
295.0670, 13215.00
296.2760, 13323.00
297.4850, 13484.00
298.6930, 13818.00
299.9020, 14116.00
301.1110, 14304.00
302.3190, 14273.00
303.5270, 14520.00
304.7350, 14738.00
305.9430, 14945.00
307.1510, 15228.60
308.3580, 15450.78
309.5660, 15841.00
310.7730, 15998.00
311.9800, 16414.00
313.1870, 16808.00
314.3940, 17181.00
315.6010, 17775.00
316.8070, 18639.00
318.0130, 19406.00
319.2200, 20246.00
320.4260, 21099.00
321.6310, 22235.00
322.8370, 23081.00
324.0430, 23806.00
325.2480, 24038.00
326.4540, 24016.00
327.6590, 23628.00
328.8640, 22595.00
330.0680, 21992.00
331.2730, 20965.00
332.4780, 20005.00
333.6820, 19286.00
334.8860, 18657.00
336.0900, 18113.00
337.2940, 17726.00
338.4980, 17394.00
339.7010, 16984.00
340.9050, 16664.00
342.1080, 16656.00
343.3110, 16524.00
344.5140, 16537.00
345.7170, 16438.00
346.9200, 16438.00
348.1220, 16666.00
349.3240, 16833.00
350.5270, 17160.00
351.7290, 17698.00
352.9310, 18038.00
354.1320, 18570.00
355.3340, 18683.00
356.5350, 18994.00
357.7370, 19123.00
358.9380, 18886.00
360.1390, 18571.00
361.3400, 18116.00
362.5400, 17790.00
363.7410, 17398.00
364.9410, 17034.00
366.1410, 16841.00
367.3410, 16562.00
368.5410, 16596.00
369.7410, 16435.00
370.9400, 16519.00
372.1400, 16397.00
373.3390, 16425.00
374.5380, 16771.00
375.7370, 16752.00
376.9360, 17393.00
378.1350, 17475.00
379.3330, 18255.00
380.5310, 18959.00
381.7300, 19739.00
382.9280, 20685.00
384.1260, 21681.00
385.3230, 22965.00
386.5210, 24627.00
387.7180, 26048.00
388.9160, 27508.00
390.1130, 28589.00
391.3100, 28915.00
392.5060, 28509.00
393.7030, 27747.00
394.9000, 26335.00
396.0960, 24359.00
397.2920, 22660.00
398.4880, 21068.00
399.6840, 19673.00
400.8800, 18591.00
402.0750, 17476.00
403.2710, 16996.00
404.4660, 16244.00
405.6610, 15747.00
406.8560, 15551.00
408.0510, 15147.00
409.2450, 14754.00
410.4400, 14824.00
411.6340, 14547.00
412.8280, 14505.00
414.0220, 14481.00
415.2160, 14444.00
416.4100, 14415.00
417.6030, 14326.72
418.7970, 14237.91
419.9900, 14232.00
421.1830, 14180.62
422.3760, 14188.00
423.5690, 14170.00
424.7610, 14118.00
425.9540, 14156.00
427.1460, 13978.00
428.3380, 14251.00
429.5300, 13987.00
430.7220, 13979.00
431.9140, 13872.00
433.1050, 14040.00
434.2970, 13846.00
435.4880, 13729.00
436.6790, 13941.00
437.8700, 13926.00
439.0610, 13845.00
440.2510, 14039.00
441.4420, 13952.00
442.6320, 13962.00
443.8220, 13970.00
445.0120, 14153.00
446.2020, 14024.00
447.3910, 14097.00
448.5810, 14097.00
449.7700, 13990.00
450.9600, 14169.00
452.1490, 14246.00
453.3370, 14349.00
454.5260, 14382.61
455.7150, 14487.00
456.9030, 14404.00
458.0910, 14473.00
459.2800, 14519.00
460.4670, 14518.00
461.6550, 14676.00
462.8430, 14817.00
464.0300, 14884.00
465.2180, 14763.00
466.4050, 14807.00
467.5920, 14577.00
468.7790, 14697.00
469.9650, 14610.00
471.1520, 14585.00
472.3380, 14632.00
473.5250, 14512.00
474.7110, 14497.00
475.8970, 14468.00
477.0820, 14662.00
478.2680, 14605.00
479.4540, 14737.00
480.6390, 14497.00
481.8240, 14578.00
483.0090, 14610.00
484.1940, 14608.00
485.3780, 14655.00
486.5630, 14534.00
487.7470, 14725.00
488.9320, 14496.00
490.1160, 14735.00
491.3000, 14682.00
492.4830, 14678.00
493.6670, 14609.00
494.8500, 14758.00
496.0340, 14540.00
497.2170, 14702.00
498.4000, 14797.00
499.5820, 14727.00
500.7650, 14846.00
501.9480, 14710.00
503.1300, 14904.00
504.3120, 14957.00
505.4940, 14914.00
506.6760, 14931.00
507.8580, 15039.00
509.0390, 15053.00
510.2210, 15146.00
511.4020, 15194.00
512.5830, 15224.00
513.7640, 15341.00
514.9450, 15445.00
516.1250, 15416.00
517.3060, 15433.00
518.4860, 15620.00
519.6660, 15580.00
520.8460, 15698.00
522.0260, 15694.00
523.2060, 15868.00
524.3850, 16210.00
525.5650, 16274.00
526.7440, 16392.00
527.9230, 16358.00
529.1020, 16515.00
530.2810, 16471.00
531.4590, 16601.00
532.6380, 16601.00
533.8160, 16537.00
534.9940, 16322.00
536.1720, 16228.00
537.3500, 16192.00
538.5270, 16092.00
539.7050, 16108.00
540.8820, 16038.47
542.0590, 16073.00
543.2360, 16035.00
544.4130, 15960.00
545.5900, 16137.00
546.7660, 16095.00
547.9430, 16287.00
549.1190, 16295.00
550.2950, 16427.00
551.4710, 16504.00
552.6470, 16717.11
553.8220, 16792.00
554.9980, 17252.00
556.1730, 17635.00
557.3480, 18013.00
558.5230, 18310.00
559.6980, 18217.00
560.8730, 18376.00
562.0470, 18174.00
563.2220, 17699.00
564.3960, 17556.00
565.5700, 17045.00
566.7440, 16612.00
567.9170, 16585.00
569.0910, 16310.00
570.2640, 16124.00
571.4380, 15975.00
572.6110, 16159.00
573.7840, 16020.00
574.9570, 16024.00
576.1290, 15867.00
577.3020, 15854.00
578.4740, 15753.00
579.6460, 15873.00
580.8180, 15736.00
581.9900, 15715.00
583.1620, 15537.00
584.3330, 15726.00
585.5040, 15623.00
586.6760, 15593.00
587.8470, 15518.00
589.0180, 15570.00
590.1880, 15498.00
591.3590, 15592.00
592.5290, 15618.00
593.7000, 15515.00
594.8700, 15405.00
596.0400, 15426.00
597.2090, 15585.00
598.3790, 15532.34
599.5490, 15873.00
600.7180, 15493.00
601.8870, 15528.00
603.0560, 15284.00
604.2250, 15538.00
605.3940, 15582.00
606.5620, 15687.00
607.7300, 15529.00
608.8990, 15618.00
610.0670, 15626.00
611.2350, 15579.00
612.4020, 15690.00
613.5700, 15648.00
614.7370, 15640.00
615.9050, 15681.00
617.0720, 15696.64
618.2390, 15722.12
619.4060, 15829.00
620.5720, 15775.00
621.7390, 15910.00
622.9050, 15928.00
624.0710, 15937.00
625.2370, 16122.00
626.4030, 16218.00
627.5690, 16246.07
628.7340, 16255.00
629.9000, 16303.00
631.0650, 16313.00
632.2300, 16316.00
633.3950, 16398.00
634.5600, 16541.00
635.7240, 16418.00
636.8890, 16558.00
638.0530, 16730.00
639.2170, 16710.00
640.3810, 16899.00
641.5450, 16999.00
642.7080, 17039.00
643.8720, 17261.00
645.0350, 17305.00
646.1980, 17562.00
647.3610, 17657.00
648.5240, 17829.00
649.6870, 18155.00
650.8490, 18378.00
652.0120, 18787.00
653.1740, 19189.00
654.3360, 19677.00
655.4980, 20486.00
656.6600, 21116.00
657.8210, 22175.00
658.9830, 23199.00
660.1440, 24822.00
661.3050, 26599.00
662.4660, 28505.00
663.6270, 31074.00
664.7870, 33225.00
665.9480, 35154.00
667.1080, 36411.00
668.2680, 36893.00
669.4280, 35786.00
670.5880, 34368.00
671.7480, 31932.00
672.9070, 29549.00
674.0670, 27286.00
675.2260, 25449.00
676.3850, 23993.00
677.5440, 22466.00
678.7030, 21410.00
679.8610, 20921.00
681.0200, 20174.00
682.1780, 19798.00
683.3360, 19326.42
684.4940, 18900.00
685.6520, 18613.00
686.8090, 18319.00
687.9670, 18093.00
689.1240, 18033.00
690.2810, 17818.00
691.4380, 17612.00
692.5950, 17722.00
693.7520, 17540.00
694.9080, 17462.00
696.0650, 17482.00
697.2210, 17447.00
698.3770, 17368.00
699.5330, 17403.00
700.6880, 17168.00
701.8440, 17207.00
702.9990, 17265.00
704.1550, 17337.00
705.3100, 17156.00
706.4650, 17227.99
707.6190, 17169.25
708.7740, 17203.00
709.9290, 17084.00
711.0830, 17082.00
712.2370, 17005.00
713.3910, 17139.00
714.5450, 17116.00
715.6980, 17161.00
716.8520, 17249.00
718.0050, 17211.81
719.1580, 17209.00
720.3110, 17077.00
721.4640, 17086.55
722.6170, 17053.00
723.7700, 17104.00
724.9220, 17125.00
726.0740, 17283.00
727.2260, 17116.00
728.3780, 17272.00
729.5300, 17255.00
730.6810, 16999.00
731.8330, 17206.00
732.9840, 17284.00
734.1350, 17081.00
735.2860, 17078.00
736.4370, 17380.00
737.5880, 17248.00
738.7380, 17276.00
739.8880, 17441.00
741.0390, 17251.00
742.1890, 17301.00
743.3380, 17251.00
744.4880, 17358.00
745.6380, 17419.00
746.7870, 17427.69
747.9360, 17374.00
749.0850, 17459.00
750.2340, 17508.00
751.3830, 17457.00
752.5310, 17523.00
753.6800, 17267.00
754.8280, 17449.00
755.9760, 17533.00
757.1240, 17672.00
758.2720, 17477.00
759.4190, 17729.00
760.5670, 17652.00
761.7140, 17640.00
762.8610, 17762.00
764.0080, 17779.00
765.1550, 17753.00
766.3020, 17688.00
767.4480, 17735.00
768.5950, 17737.18
769.7410, 17710.83
770.8870, 17852.00
772.0330, 17741.00
773.1780, 17864.00
774.3240, 18019.00
775.4690, 17939.00
776.6140, 18056.00
777.7590, 17837.00
778.9040, 18033.00
780.0490, 18002.00
781.1940, 18078.00
782.3380, 18078.00
783.4820, 18114.00
784.6260, 18152.00
785.7700, 18176.56
786.9140, 18054.00
788.0580, 18242.00
789.2010, 18275.00
790.3450, 18294.00
791.4880, 18149.00
792.6310, 18378.00
793.7730, 18281.00
794.9160, 18224.00
796.0590, 18271.00
797.2010, 18322.00
798.3430, 18384.00
799.4850, 18233.00
800.6270, 18381.00
801.7690, 18364.00
802.9100, 18493.00
804.0520, 18477.00
805.1930, 18508.00
806.3340, 18543.00
807.4750, 18264.00
808.6160, 18500.00
809.7560, 18425.00
810.8970, 18332.00
812.0370, 18554.00
813.1770, 18530.00
814.3170, 18532.00
815.4570, 18565.00
816.5960, 18631.00
817.7360, 18722.00
818.8750, 18723.00
820.0140, 18631.00
821.1530, 18648.00
822.2920, 18784.00
823.4310, 18866.00
824.5690, 18926.64
825.7070, 18852.00
826.8460, 19004.00
827.9840, 18931.00
829.1220, 18820.00
830.2590, 19035.00
831.3970, 19004.00
832.5340, 18951.00
833.6710, 18942.00
834.8080, 18928.00
835.9450, 18947.00
837.0820, 19109.00
838.2190, 19073.00
839.3550, 19239.00
840.4910, 19179.09
841.6270, 19179.00
842.7630, 19064.00
843.8990, 19211.00
845.0350, 19156.00
846.1700, 19485.00
847.3060, 19388.00
848.4410, 19597.00
849.5760, 19564.00
850.7100, 19591.00
851.8450, 19963.00
852.9800, 19988.00
854.1140, 20357.00
855.2480, 20501.00
856.3820, 20819.00
857.5160, 20625.00
858.6500, 20855.00
859.7830, 20862.00
860.9170, 20747.00
862.0500, 20692.00
863.1830, 20461.00
864.3160, 20514.64
865.4480, 20614.00
866.5810, 20500.00
867.7130, 20677.00
868.8460, 20556.00
869.9780, 20521.00
871.1100, 20657.00
872.2410, 20553.00
873.3730, 20604.00
874.5050, 20756.00
875.6360, 20571.00
876.7670, 20692.00
877.8980, 20594.00
879.0290, 20921.00
880.1590, 20921.00
881.2900, 21019.00
882.4200, 20857.00
883.5500, 20905.00
884.6800, 21046.00
885.8100, 21433.00
886.9400, 21236.00
888.0690, 21361.00
889.1990, 21415.00
890.3280, 21339.00
891.4570, 21247.00
892.5860, 21277.00
893.7140, 21288.00
894.8430, 21296.66
895.9710, 21427.00
897.1000, 21399.00
898.2280, 21561.00
899.3560, 21672.00
900.4830, 21864.00
901.6110, 21853.71
902.7380, 21800.55
903.8660, 21826.00
904.9930, 21588.00
906.1200, 21550.00
907.2460, 21562.00
908.3730, 21673.00
909.5000, 21574.00
910.6260, 21538.00
911.7520, 21742.00
912.8780, 21491.00
914.0040, 21555.00
915.1290, 21427.00
916.2550, 21497.00
917.3800, 21474.00
918.5050, 21536.00
919.6300, 21419.00
920.7550, 21428.00
921.8800, 21509.00
923.0040, 21576.00
924.1290, 21394.00
925.2530, 21623.00
926.3770, 21397.00
927.5010, 21535.00
928.6250, 21423.00
929.7480, 21425.00
930.8720, 21660.00
931.9950, 21418.00
933.1180, 21512.00
934.2410, 21356.00
935.3640, 21321.77
936.4860, 21487.00
937.6090, 21335.00
938.7310, 21440.00
939.8530, 21619.00
940.9750, 21611.00
942.0970, 21569.00
943.2180, 21532.00
944.3400, 21559.69
945.4610, 21575.00
946.5820, 21598.00
947.7030, 21656.00
948.8240, 21644.00
949.9450, 21644.00
951.0650, 21778.00
952.1860, 22194.00
953.3060, 22081.47
954.4260, 22239.00
955.5460, 22188.00
956.6650, 22280.00
957.7850, 22546.00
958.9040, 22469.00
960.0230, 22625.00
961.1420, 22681.00
962.2610, 22783.00
963.3800, 22886.00
964.4990, 22973.12
965.6170, 23060.00
966.7350, 23177.00
967.8530, 23290.00
968.9710, 23397.23
970.0890, 23233.00
971.2070, 23507.00
972.3240, 23537.00
973.4410, 23520.00
974.5580, 23794.00
975.6750, 23801.00
976.7920, 24023.00
977.9090, 24071.00
979.0250, 24115.00
980.1410, 24217.00
981.2580, 24356.00
982.3740, 24450.00
983.4890, 24620.00
984.6050, 24883.00
985.7200, 24976.00
986.8360, 24794.00
987.9510, 25173.00
989.0660, 25087.00
990.1810, 25517.00
991.2950, 25522.00
992.4100, 25930.00
993.5240, 25964.00
994.6390, 26475.00
995.7530, 26764.00
996.8660, 27311.00
997.9800, 28021.00
999.0940, 28688.00
1000.207, 29555.00
1001.320, 30835.00
1002.433, 32152.48
1003.546, 33516.00
1004.659, 35728.00
1005.772, 37813.00
1006.884, 40472.00
1007.996, 44116.00
1009.108, 47961.00
1010.220, 52243.00
1011.332, 56886.00
1012.444, 61304.00
1013.555, 63879.00
1014.666, 64388.00
1015.777, 63474.00
1016.888, 59709.00
1017.999, 54244.00
1019.110, 48889.00
1020.220, 43615.00
1021.331, 39567.00
1022.441, 36386.00
1023.551, 34667.00
1024.661, 32446.00
1025.770, 30910.00
1026.880, 30049.00
1027.989, 28864.00
1029.098, 28425.00
1030.207, 28100.00
1031.316, 27909.00
1032.425, 27319.00
1033.533, 27104.00
1034.642, 27226.00
1035.750, 27072.00
1036.858, 27287.00
1037.966, 27248.00
1039.073, 27362.00
1040.181, 27213.00
1041.288, 27703.00
1042.396, 27706.00
1043.503, 27979.00
1044.610, 28160.00
1045.716, 28209.00
1046.823, 28066.00
1047.929, 27923.00
1049.036, 27766.00
1050.142, 27489.00
1051.248, 27109.00
1052.353, 26772.00
1053.459, 26409.00
1054.564, 26048.00
1055.670, 25815.00
1056.775, 25490.00
1057.880, 25494.00
1058.985, 25223.00
1060.089, 25183.00
1061.194, 25048.00
1062.298, 24745.00
1063.402, 24715.00
1064.506, 24744.00
1065.610, 24489.00
1066.713, 24523.00
1067.817, 24631.00
1068.920, 24366.00
1070.023, 24307.00
1071.126, 24146.00
1072.229, 24219.00
1073.332, 24218.00
1074.435, 24027.00
1075.537, 24103.00
1076.639, 24266.00
1077.741, 24042.00
1078.843, 23891.00
1079.945, 23847.00
1081.046, 24135.00
1082.148, 24097.00
1083.249, 24107.00
1084.350, 24032.00
1085.451, 24020.00
1086.551, 24102.00
1087.652, 23894.00
1088.752, 23876.00
1089.853, 23895.00
1090.953, 23995.00
1092.053, 23954.09
1093.152, 23787.00
1094.252, 23993.00
1095.351, 24008.00
1096.451, 24139.00
1097.550, 24006.00
1098.649, 23982.00
1099.748, 23984.00
1100.846, 23697.00
1101.945, 24127.00
1103.043, 23897.00
1104.141, 23984.00
1105.239, 24199.00
1106.337, 24023.00
1107.434, 23955.00
1108.532, 24202.00
1109.629, 24012.00
1110.726, 24083.00
1111.823, 24196.00
1112.920, 24215.00
1114.017, 24160.00
1115.113, 24190.00
1116.210, 24159.00
1117.306, 24115.00
1118.402, 24335.00
1119.498, 24286.00
1120.593, 24431.00
1121.689, 24195.00
1122.784, 24480.00
1123.879, 24196.00
1124.974, 24415.00
1126.069, 24415.00
1127.164, 24370.00
1128.259, 24422.00
1129.353, 24550.00
1130.447, 24497.00
1131.541, 24519.00
1132.635, 24367.00
1133.729, 24313.00
1134.822, 24637.00
1135.916, 24379.00
1137.009, 24488.00
1138.102, 24594.00
1139.195, 24451.00
1140.288, 24426.00
1141.380, 24473.00
1142.473, 24559.00
1143.565, 24354.00
1144.657, 24332.00
1145.749, 24358.00
1146.841, 24167.00
1147.932, 24193.00
1149.024, 24168.00
1150.115, 24258.00
1151.206, 24432.00
1152.297, 24205.00
1153.388, 24188.00
1154.479, 24044.00
1155.569, 24176.00
1156.659, 24277.00
1157.750, 24030.00
1158.839, 24160.00
1159.929, 24113.00
1161.019, 24224.00
1162.108, 24106.00
1163.198, 24142.00
1164.287, 24389.00
1165.376, 24187.00
1166.465, 24189.00
1167.553, 24332.00
1168.642, 24416.00
1169.730, 24369.00
1170.818, 24474.00
1171.906, 24445.68
1172.994, 24334.00
1174.082, 24408.00
1175.170, 24327.00
1176.257, 24279.00
1177.344, 24401.00
1178.431, 24519.00
1179.518, 24553.00
1180.605, 24597.81
1181.691, 24480.00
1182.778, 24564.00
1183.864, 24576.00
1184.950, 24474.00
1186.036, 24524.00
1187.122, 24575.00
1188.207, 24576.00
1189.292, 24625.71
1190.378, 24570.00
1191.463, 24685.00
1192.548, 24608.00
1193.632, 24621.00
1194.717, 24538.00
1195.801, 24657.00
1196.886, 24643.00
1197.970, 24748.00
1199.054, 24769.80
1200.137, 24724.00
1201.221, 24834.00
1202.305, 24907.00
1203.388, 24969.00
1204.471, 24927.67
1205.554, 24829.00
1206.637, 24850.00
1207.719, 24955.00
1208.802, 25074.00
1209.884, 25045.00
1210.966, 25231.00
1212.048, 24933.00
1213.130, 25039.00
1214.212, 24933.00
1215.293, 24926.92
1216.374, 24968.33
1217.456, 25000.00
1218.536, 25024.00
1219.617, 25062.00
1220.698, 25097.00
1221.778, 25112.43
1222.859, 25291.00
1223.939, 25193.00
1225.019, 25154.00
1226.099, 25293.00
1227.178, 25217.00
1228.258, 25371.00
1229.337, 25419.00
1230.417, 25357.00
1231.496, 25428.00
1232.574, 25256.00
1233.653, 25362.00
1234.732, 25162.00
1235.810, 25471.00
1236.888, 25455.00
1237.966, 25466.00
1239.044, 25433.00
1240.122, 25424.00
1241.199, 25594.00
1242.277, 25629.00
1243.354, 25618.00
1244.431, 25481.00
1245.508, 25765.00
1246.585, 25462.00
1247.661, 25405.00
1248.738, 25749.00
1249.814, 25762.00
1250.890, 25742.00
1251.966, 25745.00
1253.042, 25719.33
1254.117, 25726.40
1255.193, 25695.00
1256.268, 25769.00
1257.343, 25837.00
1258.418, 25935.00
1259.493, 25843.00
1260.567, 25746.00
1261.642, 25716.00
1262.716, 25948.00
1263.790, 25786.00
1264.864, 25899.00
1265.938, 25876.00
1267.011, 25793.00
1268.085, 25996.00
1269.158, 26129.00
1270.231, 25916.00
1271.304, 25955.00
1272.377, 26039.00
1273.450, 26176.00
1274.522, 26129.00
1275.594, 26188.00
1276.666, 26068.00
1277.738, 26078.00
1278.810, 26065.00
1279.882, 26186.00
1280.953, 26273.00
1282.025, 26074.00
1283.096, 26205.00
1284.167, 26358.00
1285.238, 26405.00
1286.308, 26253.00
1287.379, 26405.00
1288.449, 26332.00
1289.519, 26355.00
1290.589, 26331.00
1291.659, 26330.00
1292.729, 26546.00
1293.798, 26259.00
