##NAMES=Diopside
##RRUFFID=R060276
##IDEAL CHEMISTRY=CaMgSi_2_O_6_
##LOCALITY=Inagli, Yakutia, Siberia, Russia
##OWNER=RRUFF
##SOURCE=Herb Obodda
##DESCRIPTION=Transparent green cleavage fragment
##STATUS=The identification of this mineral has been confirmed by X-ray diffraction and chemical analysis
##URL=rruff.info/R060276
##MEASURED CHEMISTRY=(Ca_0.97_Na_0.03_)_Σ=1_(Mg_0.96_Fe_0.03_Cr_0.01_)_Σ=1_(Si_1.98_Al_0.02_)_Σ=2_O_6_
##PIN_ID=L01339
##ORIENTATION=Laser parallel to -b* (0 -1 0). Fiducial mark perpendicular to laser is parallel to c [0 0 1]
109.5120, 11315.00
110.7440, 10986.00
111.9760, 11123.00
113.2080, 11206.00
114.4400, 11441.00
115.6710, 11563.00
116.9030, 11661.00
118.1340, 11840.00
119.3650, 11824.00
120.5960, 11977.00
121.8270, 11999.00
123.0580, 12053.00
124.2880, 12284.00
125.5190, 12463.00
126.7490, 12734.00
127.9790, 13026.00
129.2090, 13337.00
130.4390, 13705.00
131.6680, 14169.00
132.8980, 14591.00
134.1270, 14980.00
135.3560, 15927.00
136.5850, 16668.00
137.8140, 17298.00
139.0430, 17680.00
140.2710, 17578.00
141.5000, 17297.00
142.7280, 16936.00
143.9560, 16166.00
145.1840, 15668.00
146.4120, 15122.00
147.6390, 14334.00
148.8670, 13870.00
150.0940, 13833.00
151.3210, 13789.00
152.5490, 13509.00
153.7750, 13510.00
155.0020, 13420.00
156.2290, 13365.00
157.4550, 13388.00
158.6810, 13401.88
159.9080, 13363.00
161.1340, 13520.00
162.3590, 13600.00
163.5850, 13643.00
164.8110, 13531.00
166.0360, 13555.00
167.2610, 13537.00
168.4860, 13470.00
169.7110, 13454.00
170.9360, 13610.00
172.1610, 13622.00
173.3850, 13647.00
174.6100, 13843.00
175.8340, 13742.00
177.0580, 14057.00
178.2820, 14167.00
179.5050, 13973.00
180.7290, 14134.00
181.9520, 14225.00
183.1760, 14179.00
184.3990, 14147.00
185.6220, 14286.00
186.8450, 14227.00
188.0670, 14191.00
189.2900, 14230.00
190.5120, 14223.00
191.7340, 14306.00
192.9560, 14229.00
194.1780, 14342.00
195.4000, 14331.71
196.6220, 14408.00
197.8430, 14371.00
199.0640, 14387.00
200.2860, 14426.00
201.5070, 14446.00
202.7270, 14417.00
203.9480, 14342.00
205.1690, 14475.00
206.3890, 14405.00
207.6090, 14637.00
208.8290, 14560.00
210.0490, 14602.00
211.2690, 14498.00
212.4890, 14648.00
213.7080, 14643.00
214.9280, 14792.00
216.1470, 14787.00
217.3660, 14905.00
218.5850, 15009.00
219.8030, 14988.00
221.0220, 15056.00
222.2400, 15112.00
223.4590, 15322.00
224.6770, 15476.00
225.8950, 15568.00
227.1120, 15662.00
228.3300, 16008.00
229.5480, 15861.00
230.7650, 15932.00
231.9820, 16007.00
233.1990, 15865.00
234.4160, 15919.00
235.6330, 15761.00
236.8490, 15748.00
238.0660, 15804.00
239.2820, 15655.00
240.4980, 15752.00
241.7140, 15718.00
242.9300, 15614.00
244.1460, 15838.00
245.3610, 15842.00
246.5770, 15927.00
247.7920, 16128.00
249.0070, 16357.00
250.2220, 16356.00
251.4370, 16715.00
252.6510, 16725.00
253.8660, 16767.00
255.0800, 16783.00
256.2940, 16599.00
257.5080, 16558.00
258.7220, 16336.00
259.9360, 16315.00
261.1490, 16129.00
262.3630, 16111.00
263.5760, 15974.00
264.7890, 15993.00
266.0020, 15995.00
267.2150, 16076.00
268.4270, 15886.00
269.6400, 15981.00
270.8520, 15958.00
272.0640, 16167.00
273.2760, 16184.00
274.4880, 16252.00
275.7000, 16212.00
276.9120, 16292.00
278.1230, 16533.00
279.3340, 16424.00
280.5450, 16616.00
281.7560, 16404.00
282.9670, 16629.00
284.1780, 16666.00
285.3880, 16660.00
286.5980, 16518.00
287.8090, 16537.00
289.0190, 16755.00
290.2290, 16655.00
291.4380, 16837.00
292.6480, 16855.00
293.8570, 17002.00
295.0670, 16957.00
296.2760, 17244.00
297.4850, 17261.00
298.6930, 17420.00
299.9020, 17547.00
301.1110, 17575.00
302.3190, 17541.00
303.5270, 17821.00
304.7350, 17860.00
305.9430, 18005.00
307.1510, 18325.00
308.3580, 18405.00
309.5660, 18505.00
310.7730, 18783.00
311.9800, 19035.00
313.1870, 19520.00
314.3940, 19980.00
315.6010, 20558.00
316.8070, 21009.00
318.0130, 21959.00
319.2200, 22694.00
320.4260, 23519.00
321.6310, 24070.00
322.8370, 24390.00
324.0430, 24293.00
325.2480, 24078.00
326.4540, 23532.00
327.6590, 22705.00
328.8640, 21939.00
330.0680, 21265.00
331.2730, 20647.00
332.4780, 20164.27
333.6820, 19880.00
334.8860, 19467.00
336.0900, 19334.00
337.2940, 19259.00
338.4980, 19119.00
339.7010, 18809.00
340.9050, 18946.00
342.1080, 18724.00
343.3110, 18914.00
344.5140, 18840.00
345.7170, 19090.00
346.9200, 19265.00
348.1220, 19500.00
349.3240, 19627.00
350.5270, 19792.00
351.7290, 20211.00
352.9310, 20457.00
354.1320, 20774.00
355.3340, 20966.00
356.5350, 21148.00
357.7370, 21290.00
358.9380, 21330.31
360.1390, 21428.00
361.3400, 21240.00
362.5400, 21182.00
363.7410, 20920.00
364.9410, 20895.00
366.1410, 20640.00
367.3410, 20419.00
368.5410, 20375.00
369.7410, 20231.00
370.9400, 20290.00
372.1400, 20078.00
373.3390, 20071.00
374.5380, 20276.00
375.7370, 20207.00
376.9360, 20366.00
378.1350, 20689.00
379.3330, 20897.00
380.5310, 21399.00
381.7300, 21973.00
382.9280, 22487.00
384.1260, 23072.00
385.3230, 23974.00
386.5210, 24675.00
387.7180, 25291.00
388.9160, 25551.94
390.1130, 25657.04
391.3100, 25471.00
392.5060, 25201.00
393.7030, 24498.00
394.9000, 23755.00
396.0960, 22830.00
397.2920, 22261.00
398.4880, 21666.00
399.6840, 21303.00
400.8800, 20827.00
402.0750, 20566.00
403.2710, 20596.00
404.4660, 20204.00
405.6610, 20201.00
406.8560, 19991.00
408.0510, 20047.00
409.2450, 20109.00
410.4400, 20137.00
411.6340, 19959.00
412.8280, 20038.00
414.0220, 19904.00
415.2160, 19932.00
416.4100, 20008.00
417.6030, 20099.00
418.7970, 20042.00
419.9900, 20002.00
421.1830, 20113.00
422.3760, 20187.00
423.5690, 20170.00
424.7610, 20168.00
425.9540, 20233.49
427.1460, 20409.00
428.3380, 20309.00
429.5300, 20380.00
430.7220, 20362.00
431.9140, 20240.00
433.1050, 20374.00
434.2970, 20407.00
435.4880, 20364.00
436.6790, 20370.00
437.8700, 20341.00
439.0610, 20430.00
440.2510, 20514.00
441.4420, 20518.00
442.6320, 20522.00
443.8220, 20693.00
445.0120, 20687.00
446.2020, 20714.00
447.3910, 20890.00
448.5810, 20760.00
449.7700, 20682.00
450.9600, 20885.00
452.1490, 21040.00
453.3370, 20922.00
454.5260, 20928.00
455.7150, 21118.00
456.9030, 21200.00
458.0910, 21260.20
459.2800, 21138.00
460.4670, 21365.00
461.6550, 21338.00
462.8430, 21328.00
464.0300, 21468.00
465.2180, 21408.00
466.4050, 21529.00
467.5920, 21606.00
468.7790, 21567.00
469.9650, 21486.00
471.1520, 21378.00
472.3380, 21423.00
473.5250, 21575.00
474.7110, 21317.00
475.8970, 21615.00
477.0820, 21551.00
478.2680, 21579.00
479.4540, 21556.00
480.6390, 21557.00
481.8240, 21617.00
483.0090, 21694.00
484.1940, 21812.00
485.3780, 21689.00
486.5630, 21863.00
487.7470, 21784.00
488.9320, 21998.00
490.1160, 21892.00
491.3000, 21894.00
492.4830, 22099.00
493.6670, 22040.00
494.8500, 22200.00
496.0340, 22306.00
497.2170, 22231.00
498.4000, 22625.00
499.5820, 22636.00
500.7650, 22777.00
501.9480, 22955.00
503.1300, 23459.00
504.3120, 23697.00
505.4940, 23914.00
506.6760, 24234.00
507.8580, 24179.00
509.0390, 24112.00
510.2210, 23757.00
511.4020, 23468.00
512.5830, 23274.00
513.7640, 23272.00
514.9450, 23132.00
516.1250, 23118.00
517.3060, 22970.00
518.4860, 23025.00
519.6660, 23086.00
520.8460, 23118.00
522.0260, 23121.00
523.2060, 23165.00
524.3850, 23053.00
525.5650, 22940.00
526.7440, 23058.00
527.9230, 23357.00
529.1020, 23557.00
530.2810, 23206.00
531.4590, 23428.00
532.6380, 23316.00
533.8160, 23344.00
534.9940, 23500.00
536.1720, 23479.00
537.3500, 23472.00
538.5270, 23593.00
539.7050, 23576.73
540.8820, 23479.00
542.0590, 23601.00
543.2360, 23672.00
544.4130, 23591.00
545.5900, 23571.00
546.7660, 23770.00
547.9430, 23859.00
549.1190, 23817.00
550.2950, 24030.00
551.4710, 24051.00
552.6470, 23988.00
553.8220, 24118.00
554.9980, 24074.00
556.1730, 24309.00
557.3480, 24620.00
558.5230, 24466.00
559.6980, 24573.00
560.8730, 24494.00
562.0470, 24335.00
563.2220, 24429.00
564.3960, 24194.00
565.5700, 24156.00
566.7440, 24150.00
567.9170, 24222.00
569.0910, 24049.00
570.2640, 24185.00
571.4380, 24253.00
572.6110, 24294.00
573.7840, 24430.00
574.9570, 24287.00
576.1290, 24334.00
577.3020, 24286.00
578.4740, 24319.00
579.6460, 24177.00
580.8180, 24445.00
581.9900, 24346.00
583.1620, 24638.00
584.3330, 24661.33
585.5040, 24494.00
586.6760, 24758.00
587.8470, 24495.00
589.0180, 24461.00
590.1880, 24722.00
591.3590, 24451.00
592.5290, 24604.00
593.7000, 24756.00
594.8700, 24641.00
596.0400, 24570.00
597.2090, 24664.00
598.3790, 24899.00
599.5490, 24659.00
600.7180, 24617.00
601.8870, 24954.00
603.0560, 24968.00
604.2250, 24905.00
605.3940, 25243.00
606.5620, 25129.00
607.7300, 24920.00
608.8990, 25127.00
610.0670, 25236.00
611.2350, 25162.00
612.4020, 25257.00
613.5700, 25394.00
614.7370, 25316.00
615.9050, 25484.00
617.0720, 25397.00
618.2390, 25388.00
619.4060, 25514.00
620.5720, 25682.00
621.7390, 25931.00
622.9050, 25712.00
624.0710, 25647.00
625.2370, 25777.00
626.4030, 25851.00
627.5690, 26015.00
628.7340, 26098.00
629.9000, 25966.00
631.0650, 26446.00
632.2300, 26367.00
633.3950, 26637.00
634.5600, 26598.00
635.7240, 26642.00
636.8890, 26715.00
638.0530, 26990.00
639.2170, 26975.00
640.3810, 27262.00
641.5450, 27292.00
642.7080, 27493.00
643.8720, 27465.00
645.0350, 27884.00
646.1980, 27951.00
647.3610, 28167.00
648.5240, 28754.00
649.6870, 29002.00
650.8490, 29379.00
652.0120, 30271.00
653.1740, 31023.00
654.3360, 32082.00
655.4980, 33480.00
656.6600, 35200.59
657.8210, 37207.00
658.9830, 39558.00
660.1440, 42047.00
661.3050, 44892.00
662.4660, 47794.00
663.6270, 49742.00
664.7870, 51220.00
665.9480, 51461.00
667.1080, 50733.00
668.2680, 48744.00
669.4280, 45749.00
670.5880, 43182.00
671.7480, 40168.00
672.9070, 37481.00
674.0670, 35341.00
675.2260, 33700.00
676.3850, 32563.00
677.5440, 31745.00
678.7030, 30893.00
679.8610, 30149.00
681.0200, 29822.00
682.1780, 29653.00
683.3360, 29119.00
684.4940, 28833.00
685.6520, 28927.00
686.8090, 28518.00
687.9670, 28501.00
689.1240, 28219.00
690.2810, 28282.00
691.4380, 28148.00
692.5950, 28120.00
693.7520, 28053.00
694.9080, 27962.32
696.0650, 27891.00
697.2210, 27839.00
698.3770, 28140.00
699.5330, 28179.00
700.6880, 28093.00
701.8440, 27972.00
702.9990, 28173.00
704.1550, 28193.00
705.3100, 28114.00
706.4650, 28128.00
707.6190, 28210.00
708.7740, 28274.00
709.9290, 28331.71
711.0830, 28355.98
712.2370, 28442.00
713.3910, 28314.00
714.5450, 28286.00
715.6980, 28125.00
716.8520, 28239.00
718.0050, 28426.00
719.1580, 28213.00
720.3110, 28373.00
721.4640, 28280.00
722.6170, 28309.00
723.7700, 28377.00
724.9220, 28293.00
726.0740, 28428.00
727.2260, 28393.00
728.3780, 28475.00
729.5300, 28355.00
730.6810, 28451.00
731.8330, 28429.00
732.9840, 28512.00
734.1350, 28518.23
735.2860, 28653.00
736.4370, 28566.00
737.5880, 28656.00
738.7380, 28749.00
739.8880, 28730.02
741.0390, 28735.00
742.1890, 28776.00
743.3380, 28776.00
744.4880, 28778.00
745.6380, 28910.00
746.7870, 28766.00
747.9360, 28829.00
749.0850, 29097.00
750.2340, 28939.00
751.3830, 28940.00
752.5310, 28901.00
753.6800, 29081.00
754.8280, 29015.23
755.9760, 29095.00
757.1240, 29085.00
758.2720, 29055.00
759.4190, 29243.00
760.5670, 29307.00
761.7140, 29239.00
762.8610, 29386.00
764.0080, 29447.00
765.1550, 29420.09
766.3020, 29344.00
767.4480, 29452.00
768.5950, 29572.00
769.7410, 29706.00
770.8870, 29466.00
772.0330, 29996.00
773.1780, 29585.00
774.3240, 29592.00
775.4690, 29643.00
776.6140, 29666.00
777.7590, 29799.00
778.9040, 29803.59
780.0490, 29832.00
781.1940, 29852.00
782.3380, 29865.00
783.4820, 29847.00
784.6260, 29955.00
785.7700, 30090.00
786.9140, 30025.00
788.0580, 30029.00
789.2010, 29956.00
790.3450, 30072.00
791.4880, 30118.00
792.6310, 30109.00
793.7730, 30202.00
794.9160, 30331.00
796.0590, 30255.00
797.2010, 30535.00
798.3430, 30122.00
799.4850, 30436.00
800.6270, 30198.00
801.7690, 30489.00
802.9100, 30339.00
804.0520, 30558.00
805.1930, 30380.00
806.3340, 30359.00
807.4750, 30571.00
808.6160, 30500.00
809.7560, 30706.00
810.8970, 30697.00
812.0370, 30587.00
813.1770, 30909.00
814.3170, 30811.00
815.4570, 30806.00
816.5960, 30831.00
817.7360, 30666.00
818.8750, 31003.00
820.0140, 30919.00
821.1530, 30955.00
822.2920, 31223.00
823.4310, 31133.00
824.5690, 30963.00
825.7070, 31121.00
826.8460, 31243.00
827.9840, 31273.00
829.1220, 31353.00
830.2590, 31287.00
831.3970, 31421.00
832.5340, 31403.00
833.6710, 31464.00
834.8080, 31411.00
835.9450, 31505.00
837.0820, 31587.00
838.2190, 31674.00
839.3550, 31807.00
840.4910, 31905.00
841.6270, 32005.00
842.7630, 31935.00
843.8990, 32027.00
845.0350, 32461.00
846.1700, 32552.00
847.3060, 32882.00
848.4410, 33053.00
849.5760, 33186.00
850.7100, 33705.00
851.8450, 34098.00
852.9800, 34289.00
854.1140, 34546.00
855.2480, 34164.00
856.3820, 34077.00
857.5160, 34133.00
858.6500, 33899.00
859.7830, 33710.00
860.9170, 33485.00
862.0500, 33368.00
863.1830, 33252.18
864.3160, 33127.22
865.4480, 33119.00
866.5810, 32959.00
867.7130, 32917.00
868.8460, 32860.00
869.9780, 33038.00
871.1100, 33187.00
872.2410, 33008.00
873.3730, 33210.00
874.5050, 32809.00
875.6360, 33072.00
876.7670, 33208.00
877.8980, 33187.00
879.0290, 32875.00
880.1590, 33221.00
881.2900, 33027.00
882.4200, 33357.00
883.5500, 33303.00
884.6800, 32988.00
885.8100, 33201.00
886.9400, 33450.00
888.0690, 33411.00
889.1990, 33293.00
890.3280, 33250.00
891.4570, 33300.75
892.5860, 33405.00
893.7140, 33474.00
894.8430, 33493.00
895.9710, 33631.00
897.1000, 33582.00
898.2280, 33545.00
899.3560, 33626.00
900.4830, 33455.00
901.6110, 33581.00
902.7380, 33752.00
903.8660, 33937.00
904.9930, 33654.00
906.1200, 33994.00
907.2460, 33584.00
908.3730, 33793.00
909.5000, 33855.00
910.6260, 33927.00
911.7520, 33946.00
912.8780, 34087.00
914.0040, 34057.00
915.1290, 34218.00
916.2550, 34080.00
917.3800, 34083.00
918.5050, 34261.00
919.6300, 34173.00
920.7550, 34240.00
921.8800, 34060.00
923.0040, 34246.00
924.1290, 34442.00
925.2530, 34266.00
926.3770, 34081.00
927.5010, 34301.00
928.6250, 34417.00
929.7480, 34489.00
930.8720, 34456.00
931.9950, 34367.00
933.1180, 34455.00
934.2410, 34378.00
935.3640, 34640.00
936.4860, 34535.00
937.6090, 34792.00
938.7310, 34323.00
939.8530, 34639.00
940.9750, 34677.00
942.0970, 34740.00
943.2180, 34906.00
944.3400, 34910.00
945.4610, 34936.55
946.5820, 34725.00
947.7030, 34921.00
948.8240, 34852.00
949.9450, 34878.00
951.0650, 34883.00
952.1860, 35159.00
953.3060, 35128.00
954.4260, 34894.00
955.5460, 35181.00
956.6650, 35611.00
957.7850, 35450.00
958.9040, 35386.00
960.0230, 35629.00
961.1420, 35430.00
962.2610, 35402.00
963.3800, 35620.00
964.4990, 35414.00
965.6170, 35393.00
966.7350, 35838.00
967.8530, 35703.00
968.9710, 35468.00
970.0890, 36094.00
971.2070, 35920.00
972.3240, 35877.00
973.4410, 36228.00
974.5580, 36208.00
975.6750, 35987.00
976.7920, 36086.00
977.9090, 36230.00
979.0250, 36298.00
980.1410, 36223.00
981.2580, 36424.00
982.3740, 36539.00
983.4890, 36623.00
984.6050, 36836.00
985.7200, 36991.00
986.8360, 36752.00
987.9510, 37016.00
989.0660, 37154.00
990.1810, 37140.00
991.2950, 37567.00
992.4100, 37711.00
993.5240, 37844.00
994.6390, 38247.00
995.7530, 38431.00
996.8660, 38947.00
997.9800, 39155.00
999.0940, 39581.00
1000.207, 40503.00
1001.320, 41471.00
1002.433, 42789.00
1003.546, 44290.00
1004.659, 45884.00
1005.772, 48746.00
1006.884, 51126.00
1007.996, 54395.00
1009.108, 57679.00
1010.220, 60519.00
1011.332, 62623.00
1012.444, 63141.00
1013.555, 62318.00
1014.666, 59522.00
1015.777, 56069.00
1016.888, 52583.00
1017.999, 49170.00
1019.110, 46365.00
1020.220, 44530.00
1021.331, 43249.00
1022.441, 41759.00
1023.551, 41271.00
1024.661, 40829.00
1025.770, 40152.00
1026.880, 39607.00
1027.989, 39439.00
1029.098, 39351.00
1030.207, 39236.00
1031.316, 39203.00
1032.425, 39255.00
1033.533, 39211.00
1034.642, 39354.00
1035.750, 39209.00
1036.858, 39164.00
1037.966, 39379.00
1039.073, 39377.00
1040.181, 39797.00
1041.288, 40236.00
1042.396, 39926.00
1043.503, 40537.00
1044.610, 40562.00
1045.716, 40674.00
1046.823, 40706.00
1047.929, 40631.56
1049.036, 40620.00
1050.142, 40388.00
1051.248, 40247.00
1052.353, 40022.43
1053.459, 39583.00
1054.564, 39573.00
1055.670, 39354.00
1056.775, 39039.00
1057.880, 39101.00
1058.985, 39150.00
1060.089, 38845.00
1061.194, 38869.00
1062.298, 39052.00
1063.402, 38652.00
1064.506, 38662.00
1065.610, 38682.00
1066.713, 38633.00
1067.817, 38769.00
1068.920, 38727.57
1070.023, 38787.00
1071.126, 38749.00
1072.229, 38693.00
1073.332, 38723.00
1074.435, 39075.00
1075.537, 38823.00
1076.639, 39064.00
1077.741, 39125.00
1078.843, 39024.00
1079.945, 39201.00
1081.046, 39275.68
1082.148, 39162.00
1083.249, 39564.00
1084.350, 39732.00
1085.451, 39871.00
1086.551, 39424.00
1087.652, 39418.00
1088.752, 39282.00
1089.853, 39250.00
1090.953, 39079.00
1092.053, 39241.00
1093.152, 39091.00
1094.252, 39368.00
1095.351, 39590.00
1096.451, 39120.00
1097.550, 39483.00
1098.649, 39236.00
1099.748, 39398.00
1100.846, 39393.00
1101.945, 39488.00
1103.043, 39731.00
1104.141, 39452.00
1105.239, 39566.00
1106.337, 39420.00
1107.434, 39475.00
1108.532, 39632.00
1109.629, 39642.00
1110.726, 39837.00
1111.823, 39628.00
1112.920, 39708.00
1114.017, 39811.00
1115.113, 39915.00
1116.210, 40132.00
1117.306, 40195.94
1118.402, 40382.00
1119.498, 40410.00
1120.593, 40301.00
1121.689, 40416.00
1122.784, 40179.00
1123.879, 40622.00
1124.974, 40446.00
1126.069, 40367.00
1127.164, 40278.00
1128.259, 40306.00
1129.353, 40246.00
1130.447, 40450.00
1131.541, 40369.00
1132.635, 40436.00
1133.729, 40278.00
1134.822, 40326.00
1135.916, 40416.00
1137.009, 40710.00
1138.102, 40534.00
1139.195, 40651.00
1140.288, 40551.00
1141.380, 40424.00
1142.473, 40793.00
1143.565, 40618.00
1144.657, 40853.00
1145.749, 40932.00
1146.841, 40658.00
1147.932, 40732.00
1149.024, 40784.00
1150.115, 40736.00
1151.206, 40675.00
1152.297, 41018.00
1153.388, 40815.00
1154.479, 41124.00
1155.569, 40950.00
1156.659, 40991.00
1157.750, 41056.00
1158.839, 40842.00
1159.929, 41160.00
1161.019, 40886.00
1162.108, 40974.00
1163.198, 41000.00
1164.287, 40972.00
1165.376, 41055.00
1166.465, 41036.11
1167.553, 41459.00
1168.642, 41042.00
1169.730, 41277.00
1170.818, 41289.00
1171.906, 41139.00
1172.994, 41416.00
1174.082, 41423.00
1175.170, 41439.00
1176.257, 41474.99
1177.344, 41497.00
1178.431, 41517.00
1179.518, 41515.00
1180.605, 41531.63
1181.691, 41572.00
1182.778, 41541.00
1183.864, 41584.00
1184.950, 41580.00
1186.036, 41589.59
1187.122, 41661.21
1188.207, 41661.00
1189.292, 41728.00
1190.378, 41867.00
1191.463, 41747.00
1192.548, 41759.00
1193.632, 41998.00
1194.717, 41946.00
1195.801, 42253.00
1196.886, 42049.00
1197.970, 42019.00
1199.054, 42090.00
1200.137, 42265.00
1201.221, 42222.00
1202.305, 42148.00
1203.388, 42522.00
1204.471, 42189.00
1205.554, 42265.00
1206.637, 42349.00
1207.719, 42205.00
1208.802, 42481.00
1209.884, 42410.00
1210.966, 42269.00
1212.048, 42378.00
1213.130, 42552.00
1214.212, 42808.00
1215.293, 42711.00
1216.374, 42665.00
1217.456, 42943.00
1218.536, 42851.00
1219.617, 42701.00
1220.698, 42920.00
1221.778, 42820.00
1222.859, 42818.00
1223.939, 43021.00
1225.019, 42905.00
1226.099, 43086.00
1227.178, 43098.97
1228.258, 43128.00
1229.337, 43094.00
1230.417, 43115.00
1231.496, 42960.00
1232.574, 43126.00
1233.653, 43260.00
1234.732, 43154.00
1235.810, 43242.00
1236.888, 43238.00
1237.966, 43444.00
1239.044, 43323.00
1240.122, 43683.00
1241.199, 43506.00
1242.277, 43252.00
1243.354, 43421.00
1244.431, 43363.90
1245.508, 43506.00
1246.585, 43502.00
1247.661, 43695.00
1248.738, 43645.00
1249.814, 43707.50
1250.890, 43869.00
1251.966, 43770.00
1253.042, 43804.00
1254.117, 43877.00
1255.193, 43845.00
1256.268, 43900.36
1257.343, 43902.75
1258.418, 43956.00
1259.493, 43982.00
1260.567, 44012.00
1261.642, 44206.00
1262.716, 44082.00
1263.790, 44457.00
1264.864, 44208.00
1265.938, 44363.00
1267.011, 44256.00
1268.085, 44433.00
1269.158, 44313.00
1270.231, 44480.00
1271.304, 44138.00
1272.377, 44249.00
1273.450, 44254.00
1274.522, 44532.00
1275.594, 44775.00
1276.666, 44465.00
1277.738, 44226.00
1278.810, 44696.00
1279.882, 44551.00
1280.953, 44929.00
1282.025, 44698.00
1283.096, 44702.00
1284.167, 44689.00
1285.238, 44680.41
1286.308, 44715.58
1287.379, 44822.00
