##NAMES=Diopside
##RRUFFID=R060861
##IDEAL CHEMISTRY=CaMgSi_2_O_6_
##LOCALITY=Red Mountain Volcano, NW of Flagstaff, Arizona, USA
##OWNER=RRUFF
##SOURCE=Jennifer Sano
##DESCRIPTION=Worn brown fragment
##STATUS=The identification of this mineral has been confirmed by X-ray diffraction and chemical analysis
##URL=rruff.info/R060861
##MEASURED CHEMISTRY=(Ca_0.72_Fe^2+^_0.23_Na_0.05_)_Σ=1_(Mg_0.80_Al_0.15_Ti_0.03_Fe^3+^_0.02_)_Σ=1_(Si_1.82_Al_0.18_)_Σ=2_O_6_
##PIN_ID=M01653
##ORIENTATION=Laser parallel to -c* (0 0 -1). Fiducial mark perpendicular to laser is parallel to a [1 0 0]
174.7000, 10043.00
175.9330, 9996.000
177.1660, 10064.00
178.3990, 10301.00
179.6310, 10225.00
180.8640, 10211.00
182.0960, 10422.00
183.3280, 10393.00
184.5600, 10680.00
185.7910, 10887.00
187.0220, 10993.00
188.2540, 10960.00
189.4840, 11224.00
190.7150, 11217.00
191.9460, 11296.00
193.1760, 11387.00
194.4060, 11451.00
195.6360, 11329.00
196.8660, 11340.00
198.0960, 11237.00
199.3250, 11200.00
200.5540, 11320.00
201.7830, 11366.00
203.0120, 11221.00
204.2400, 11050.00
205.4690, 10693.00
206.6970, 10545.00
207.9250, 10479.00
209.1530, 10587.00
210.3800, 10647.00
211.6080, 10648.25
212.8350, 10721.00
214.0620, 10684.00
215.2880, 10812.00
216.5150, 10795.00
217.7410, 10946.00
218.9680, 11081.00
220.1940, 11050.00
221.4190, 11193.00
222.6450, 11283.00
223.8700, 11244.00
225.0960, 11420.00
226.3210, 11437.00
227.5450, 11378.00
228.7700, 11305.00
229.9940, 11284.66
231.2190, 11250.20
232.4430, 11230.00
233.6660, 11238.00
234.8900, 11295.00
236.1140, 11332.00
237.3370, 11382.00
238.5600, 11358.00
239.7830, 11329.00
241.0050, 11350.00
242.2280, 11380.00
243.4500, 11428.00
244.6720, 11536.00
245.8940, 11497.00
247.1160, 11624.00
248.3370, 11570.00
249.5580, 11652.86
250.7790, 11746.00
252.0000, 11798.00
253.2210, 11813.00
254.4410, 11911.00
255.6620, 11936.00
256.8820, 11887.00
258.1020, 11929.00
259.3210, 11920.53
260.5410, 11864.80
261.7600, 11860.00
262.9790, 11761.00
264.1980, 11568.00
265.4170, 11524.00
266.6360, 11471.00
267.8540, 11497.00
269.0720, 11312.00
270.2900, 11266.00
271.5080, 11333.00
272.7260, 11177.00
273.9430, 11312.00
275.1600, 11324.00
276.3770, 11374.00
277.5940, 11446.00
278.8100, 11504.00
280.0270, 11599.00
281.2430, 11528.00
282.4590, 11765.00
283.6750, 11665.00
284.8910, 11915.00
286.1060, 12170.00
287.3210, 12084.00
288.5360, 12363.00
289.7510, 12510.00
290.9660, 12746.00
292.1800, 12789.00
293.3950, 13040.00
294.6090, 13163.00
295.8230, 13450.00
297.0360, 13588.00
298.2500, 13844.00
299.4630, 14060.00
300.6760, 14231.00
301.8890, 14621.00
303.1020, 14706.00
304.3150, 15022.00
305.5270, 15303.00
306.7390, 15489.60
307.9510, 15980.00
309.1630, 16067.00
310.3750, 16648.00
311.5860, 17199.00
312.7970, 17375.00
314.0080, 18001.00
315.2190, 18292.00
316.4300, 18979.00
317.6400, 19503.00
318.8510, 20019.00
320.0610, 20542.00
321.2710, 21466.00
322.4800, 22033.00
323.6900, 22524.00
324.8990, 22778.00
326.1080, 23588.00
327.3170, 24033.00
328.5260, 24532.00
329.7340, 24601.00
330.9430, 25098.00
332.1510, 25189.00
333.3590, 25252.00
334.5670, 25253.00
335.7740, 25198.35
336.9820, 25297.00
338.1890, 24964.00
339.3960, 25016.00
340.6030, 24846.00
341.8100, 24596.00
343.0160, 24287.00
344.2220, 24249.00
345.4280, 23980.00
346.6340, 23986.00
347.8400, 23701.00
349.0460, 23599.00
350.2510, 23317.00
351.4560, 23430.00
352.6610, 23409.00
353.8660, 23380.00
355.0700, 23451.00
356.2750, 23155.00
357.4790, 23201.00
358.6830, 23262.00
359.8870, 23076.00
361.0910, 22760.00
362.2940, 22690.00
363.4970, 22434.00
364.7000, 22407.00
365.9030, 22058.00
367.1060, 22004.00
368.3080, 21658.00
369.5110, 21452.00
370.7130, 21366.00
371.9150, 21017.00
373.1170, 20953.51
374.3180, 20774.00
375.5200, 20756.00
376.7210, 20573.00
377.9220, 20551.00
379.1230, 20576.00
380.3230, 20587.00
381.5240, 20896.00
382.7240, 20853.00
383.9240, 20973.00
385.1240, 21411.00
386.3240, 21513.00
387.5230, 21888.00
388.7230, 22368.00
389.9220, 22673.00
391.1210, 22916.62
392.3200, 23023.00
393.5180, 23167.00
394.7170, 23013.00
395.9150, 22858.00
397.1130, 22511.00
398.3110, 22253.00
399.5080, 21456.00
400.7060, 20519.00
401.9030, 19864.00
403.1000, 19051.00
404.2970, 18311.00
405.4940, 17186.00
406.6910, 16455.00
407.8870, 15868.00
409.0830, 15142.00
410.2790, 14506.00
411.4750, 14182.00
412.6710, 13711.00
413.8660, 13247.00
415.0610, 12944.00
416.2560, 12565.00
417.4510, 12319.00
418.6460, 12265.00
419.8410, 11985.00
421.0350, 12013.00
422.2290, 11692.00
423.4230, 11662.00
424.6170, 11614.00
425.8100, 11540.00
427.0040, 11469.00
428.1970, 11406.00
429.3900, 11350.40
430.5830, 11284.00
431.7760, 11255.00
432.9680, 11196.00
434.1610, 11156.00
435.3530, 11137.69
436.5450, 11060.00
437.7360, 11101.00
438.9280, 11121.00
440.1190, 11096.19
441.3110, 10982.00
442.5020, 11017.00
443.6930, 10920.00
444.8830, 10890.00
446.0740, 10884.00
447.2640, 10759.00
448.4540, 10889.00
449.6440, 10939.00
450.8340, 10943.00
452.0240, 10884.00
453.2130, 10987.00
454.4020, 11110.00
455.5910, 11128.00
456.7800, 11256.68
457.9690, 11202.00
459.1570, 11381.00
460.3460, 11407.00
461.5340, 11313.00
462.7220, 11740.00
463.9090, 11607.21
465.0970, 11947.00
466.2840, 11626.00
467.4720, 11582.00
468.6590, 11562.00
469.8460, 11649.00
471.0320, 11646.00
472.2190, 11668.00
473.4050, 11620.00
474.5910, 11563.00
475.7770, 11615.00
476.9630, 11516.00
478.1490, 11578.00
479.3340, 11494.00
480.5190, 11649.00
481.7040, 11680.00
482.8890, 11620.00
484.0740, 11654.00
485.2580, 11710.00
486.4430, 11643.00
487.6270, 11706.00
488.8110, 11700.00
489.9950, 11526.00
491.1780, 11588.00
492.3620, 11604.00
493.5450, 11637.00
494.7280, 11680.00
495.9110, 11795.00
497.0940, 11696.00
498.2760, 11589.00
499.4590, 11707.00
500.6410, 11850.00
501.8230, 11692.00
503.0050, 11785.00
504.1860, 11807.00
505.3680, 11873.00
506.5490, 12017.00
507.7300, 11982.92
508.9110, 12047.00
510.0920, 12021.00
511.2730, 12120.00
512.4530, 12243.00
513.6330, 12372.00
514.8130, 12558.00
515.9930, 12551.00
517.1730, 12848.00
518.3520, 12743.00
519.5320, 12955.00
520.7110, 13023.00
521.8900, 13292.00
523.0690, 13259.00
524.2470, 13481.00
525.4260, 13792.00
526.6040, 13854.00
527.7820, 13942.00
528.9600, 14189.00
530.1380, 14274.00
531.3150, 14460.00
532.4930, 14516.00
533.6700, 14610.00
534.8470, 14621.00
536.0240, 14742.00
537.2000, 14745.00
538.3770, 14828.00
539.5530, 14673.00
540.7290, 14582.00
541.9050, 14693.00
543.0810, 14652.00
544.2570, 14433.00
545.4320, 14543.00
546.6080, 14199.00
547.7830, 14088.00
548.9580, 14180.00
550.1320, 13967.00
551.3070, 13874.00
552.4810, 13806.00
553.6550, 13789.00
554.8300, 13675.00
556.0030, 13621.82
557.1770, 13547.00
558.3510, 13462.00
559.5240, 13396.00
560.6970, 13303.00
561.8700, 13223.00
563.0430, 13019.00
564.2160, 12898.00
565.3880, 12762.00
566.5600, 12484.00
567.7320, 12531.00
568.9040, 12200.00
570.0760, 12285.00
571.2480, 12107.00
572.4190, 11960.00
573.5900, 11734.00
574.7610, 11704.00
575.9320, 11504.00
577.1030, 11517.00
578.2740, 11279.00
579.4440, 11168.00
580.6140, 11004.00
581.7840, 10886.00
582.9540, 10708.86
584.1240, 10575.17
585.2930, 10359.00
586.4630, 10246.00
587.6320, 10096.00
588.8010, 9835.000
589.9700, 9871.000
591.1380, 9730.000
592.3070, 9534.000
593.4750, 9512.000
594.6430, 9303.000
595.8110, 9107.000
596.9790, 9148.000
598.1460, 8998.000
599.3140, 8978.000
600.4810, 9049.000
601.6480, 8793.000
602.8150, 8801.000
603.9820, 8740.000
605.1480, 8722.000
606.3150, 8773.000
607.4810, 8863.000
608.6470, 8854.000
609.8130, 8905.000
610.9790, 9051.000
612.1440, 8993.000
613.3100, 9120.000
614.4750, 9159.000
615.6400, 9217.000
616.8050, 9367.000
617.9690, 9423.000
619.1340, 9441.000
620.2980, 9627.000
621.4620, 9662.000
622.6260, 9979.000
623.7900, 10214.00
624.9540, 10235.00
626.1170, 10377.00
627.2810, 10440.00
628.4440, 10707.00
629.6070, 10950.95
630.7690, 11297.00
631.9320, 11624.00
633.0950, 11924.00
634.2570, 12347.00
635.4190, 12694.00
636.5810, 13082.00
637.7430, 13317.00
638.9040, 14008.00
640.0660, 14362.00
641.2270, 14963.00
642.3880, 15694.00
643.5490, 16024.00
644.7100, 16845.00
645.8700, 17862.00
647.0310, 18891.00
648.1910, 20169.00
649.3510, 21242.00
650.5110, 22928.00
651.6710, 24619.00
652.8300, 26669.00
653.9900, 28690.00
655.1490, 31138.00
656.3080, 33718.00
657.4670, 36697.00
658.6250, 40101.00
659.7840, 43447.00
660.9420, 46719.00
662.1010, 49933.00
663.2590, 52769.00
664.4170, 55447.00
665.5740, 57309.00
666.7320, 58087.00
667.8890, 57788.00
669.0460, 56764.00
670.2030, 54368.00
671.3600, 51420.00
672.5170, 48213.00
673.6740, 44733.00
674.8300, 41213.00
675.9860, 37811.00
677.1420, 34868.00
678.2980, 31833.00
679.4540, 29247.00
680.6090, 26855.00
681.7650, 25026.00
682.9200, 22824.00
684.0750, 21577.00
685.2300, 20208.00
686.3840, 18902.00
687.5390, 17848.00
688.6930, 16863.00
689.8470, 16333.00
691.0010, 15501.00
692.1550, 14918.00
693.3090, 14229.00
694.4620, 13791.00
695.6160, 13300.00
696.7690, 13038.00
697.9220, 12673.83
699.0750, 12486.00
700.2280, 12152.00
701.3800, 11951.00
702.5320, 11783.00
703.6850, 11555.00
704.8370, 11377.00
705.9880, 11297.00
707.1400, 10939.00
708.2920, 10964.00
709.4430, 10760.00
710.5940, 10664.00
711.7450, 10425.00
712.8960, 10428.00
714.0470, 10263.00
715.1970, 10087.00
716.3480, 9902.000
717.4980, 9769.328
718.6480, 9791.000
719.7980, 9498.000
720.9470, 9447.000
722.0970, 9312.000
723.2460, 9137.000
724.3960, 9051.000
725.5450, 9013.000
726.6940, 8920.000
727.8420, 8907.000
728.9910, 8739.000
730.1390, 8584.000
731.2870, 8742.000
732.4350, 8582.000
733.5830, 8449.000
734.7310, 8480.000
735.8790, 8371.000
737.0260, 8476.000
738.1730, 8327.000
739.3200, 8417.000
740.4670, 8392.000
741.6140, 8373.000
742.7610, 8414.000
743.9070, 8426.000
745.0530, 8405.000
746.1990, 8521.000
747.3450, 8458.000
748.4910, 8566.968
749.6370, 8564.957
750.7820, 8744.000
751.9270, 8644.000
753.0720, 8721.000
754.2170, 8894.000
755.3620, 8921.000
756.5070, 8910.000
757.6510, 8924.000
758.7950, 9406.000
759.9400, 9230.000
761.0840, 9302.000
762.2270, 9272.000
763.3710, 9170.000
764.5140, 9406.000
765.6580, 9483.000
766.8010, 9574.000
767.9440, 9622.902
769.0870, 9612.000
770.2290, 9653.000
771.3720, 9626.000
772.5140, 9714.000
773.6560, 9714.000
774.7990, 9849.000
775.9400, 9992.000
777.0820, 10023.00
778.2240, 9944.000
779.3650, 10056.00
780.5060, 9999.000
781.6470, 10076.00
782.7880, 9996.000
783.9290, 10060.00
785.0690, 10127.00
786.2100, 10170.00
787.3500, 10204.00
788.4900, 10208.00
789.6300, 10250.39
790.7700, 10268.00
791.9090, 10284.00
793.0490, 10301.00
794.1880, 10263.00
795.3270, 10324.00
796.4660, 10283.00
797.6050, 10363.00
798.7440, 10441.00
799.8820, 10286.00
801.0200, 10373.00
802.1590, 10363.00
803.2970, 10399.00
804.4340, 10509.00
805.5720, 10614.00
806.7100, 10567.00
807.8470, 10546.00
808.9840, 10680.00
810.1210, 10619.00
811.2580, 10659.00
812.3950, 10743.00
813.5310, 10731.00
814.6680, 10643.00
815.8040, 10894.00
816.9400, 10811.00
818.0760, 10984.00
819.2120, 10741.00
820.3470, 10820.00
821.4830, 10794.00
822.6180, 10831.00
823.7530, 10830.00
824.8880, 10797.00
826.0230, 10816.00
827.1580, 10777.00
828.2920, 10824.00
829.4270, 10705.00
830.5610, 10815.00
831.6950, 10591.00
832.8290, 10603.00
833.9620, 10696.00
835.0960, 10714.00
836.2290, 10574.00
837.3620, 10653.00
838.4950, 10477.00
839.6280, 10393.00
840.7610, 10430.00
841.8940, 10482.00
843.0260, 10470.40
844.1580, 10397.00
845.2910, 10534.00
846.4230, 10568.00
847.5540, 10616.00
848.6860, 10734.00
849.8170, 10765.00
850.9490, 10844.00
852.0800, 10999.46
853.2110, 11167.00
854.3420, 11380.00
855.4730, 11528.00
856.6030, 11847.00
857.7340, 11980.00
858.8640, 12361.00
859.9940, 12407.00
861.1240, 12662.00
862.2540, 12890.00
863.3830, 13179.00
864.5130, 13287.00
865.6420, 13460.00
866.7710, 13666.00
867.9000, 13628.00
869.0290, 13824.00
870.1570, 13764.00
871.2860, 13915.00
872.4140, 13727.00
873.5430, 13739.00
874.6710, 13614.00
875.7980, 13666.00
876.9260, 13779.00
878.0540, 13694.00
879.1810, 13606.00
880.3080, 13533.00
881.4360, 13295.00
882.5630, 13280.00
883.6890, 13479.00
884.8160, 13301.00
885.9420, 13249.00
887.0690, 13247.00
888.1950, 13202.00
889.3210, 12925.00
890.4470, 13064.00
891.5730, 12924.00
892.6980, 13139.00
893.8240, 13001.00
894.9490, 12873.00
896.0740, 12970.00
897.1990, 12947.00
898.3240, 12873.00
899.4480, 13069.00
900.5730, 12877.00
901.6970, 12967.00
902.8210, 12946.00
903.9450, 13036.00
905.0690, 13033.71
906.1930, 13032.35
907.3160, 13025.00
908.4400, 12991.00
909.5630, 12947.00
910.6860, 12878.00
911.8090, 13049.00
912.9320, 12986.00
914.0550, 13106.00
915.1770, 13105.00
916.2990, 13043.00
917.4210, 13061.00
918.5440, 13121.00
919.6650, 13182.00
920.7870, 13198.10
921.9090, 13245.65
923.0300, 13265.00
924.1510, 13314.00
925.2720, 13386.00
926.3930, 13443.45
927.5140, 13380.00
928.6350, 13498.00
929.7550, 13545.00
930.8760, 13476.00
931.9960, 13561.00
933.1160, 13359.00
934.2360, 13635.00
935.3550, 13554.00
936.4750, 13531.00
937.5940, 13647.00
938.7140, 13635.00
939.8330, 13669.00
940.9520, 13660.00
942.0710, 13815.00
943.1890, 13884.00
944.3080, 13971.00
945.4260, 13952.00
946.5440, 14042.00
947.6620, 14100.00
948.7800, 14246.00
949.8980, 14435.00
951.0160, 14421.00
952.1330, 14497.00
953.2500, 14688.00
954.3680, 14756.00
955.4850, 14902.00
956.6010, 15045.00
957.7180, 15004.00
958.8350, 15180.00
959.9510, 15343.00
961.0670, 15429.77
962.1830, 15614.00
963.2990, 15748.00
964.4150, 15866.00
965.5310, 16092.00
966.6460, 16203.00
967.7620, 16621.00
968.8770, 16825.00
969.9920, 16919.00
971.1070, 17146.00
972.2210, 17286.00
973.3360, 17682.00
974.4500, 17820.00
975.5650, 18234.00
976.6790, 18670.00
977.7930, 19063.00
978.9070, 19184.00
980.0200, 19726.00
981.1340, 20028.00
982.2470, 20608.00
983.3610, 21095.00
984.4740, 21826.00
985.5870, 22388.00
986.6990, 23078.00
987.8120, 23939.52
988.9250, 24647.00
990.0370, 25766.00
991.1490, 26612.00
992.2610, 27619.00
993.3730, 29152.00
994.4850, 30446.00
995.5960, 31798.00
996.7080, 33358.00
997.8190, 34851.00
998.9300, 36357.00
1000.041, 37663.00
1001.152, 39209.00
1002.263, 40446.00
1003.373, 41493.00
1004.484, 42375.00
1005.594, 43207.00
1006.704, 43774.00
1007.814, 43785.00
1008.924, 43097.00
1010.034, 42356.00
1011.143, 41111.00
1012.253, 39866.00
1013.362, 37950.00
1014.471, 36015.00
1015.580, 34190.00
1016.689, 32232.00
1017.797, 30289.00
1018.906, 28655.00
1020.014, 26909.00
1021.122, 25495.00
1022.230, 24131.00
1023.338, 23021.00
1024.446, 21966.26
1025.554, 20869.00
1026.661, 20222.00
1027.768, 19420.00
1028.875, 18697.00
1029.983, 18418.00
1031.089, 17772.00
1032.196, 17443.00
1033.303, 17023.00
1034.409, 16687.00
1035.515, 16385.00
1036.622, 16009.00
1037.728, 15782.00
1038.833, 15460.00
1039.939, 15365.00
1041.045, 14842.00
1042.150, 14827.00
1043.255, 14359.00
1044.360, 14313.00
1045.465, 13973.00
1046.570, 13816.00
1047.675, 13577.00
1048.779, 13357.00
1049.884, 13261.00
1050.988, 12774.00
1052.092, 12814.00
1053.196, 12609.00
1054.300, 12267.00
1055.404, 12175.00
1056.507, 12037.00
1057.610, 11842.00
1058.714, 11743.51
1059.817, 11651.00
1060.920, 11493.00
1062.022, 11355.00
1063.125, 11249.00
1064.228, 10983.00
1065.330, 11012.00
1066.432, 10898.00
1067.534, 10721.00
1068.636, 10711.00
1069.738, 10585.00
1070.840, 10624.00
1071.941, 10430.00
1073.042, 10444.00
1074.144, 10341.00
1075.245, 10488.00
1076.346, 10289.00
1077.446, 10331.00
1078.547, 10321.00
1079.647, 10188.00
1080.748, 10138.00
1081.848, 10225.00
1082.948, 10253.00
1084.048, 10144.00
1085.148, 10242.00
1086.247, 10051.00
1087.347, 10182.00
1088.446, 9977.000
1089.545, 9988.000
1090.644, 9954.000
1091.743, 9847.000
1092.842, 9975.000
1093.940, 9836.000
1095.039, 9814.000
1096.137, 9796.000
1097.235, 9729.000
1098.333, 9723.000
1099.431, 9704.000
1100.529, 9649.000
1101.627, 9653.000
1102.724, 9618.000
1103.822, 9724.000
1104.919, 9553.000
1106.016, 9586.000
1107.113, 9502.000
1108.209, 9584.000
1109.306, 9470.000
1110.402, 9463.000
1111.499, 9336.000
1112.595, 9330.000
1113.691, 9415.000
1114.787, 9408.000
1115.883, 9406.000
1116.978, 9464.000
1118.074, 9586.000
1119.169, 9649.000
1120.264, 9617.000
1121.359, 9670.000
1122.454, 9528.000
1123.549, 9465.000
1124.644, 9172.000
1125.738, 9054.000
1126.832, 8922.000
1127.927, 8679.000
1129.021, 8520.000
1130.115, 8214.000
1131.208, 8037.000
1132.302, 7961.000
1133.396, 7701.000
1134.489, 7739.000
1135.582, 7646.000
1136.675, 7583.000
1137.768, 7615.000
1138.861, 7491.508
1139.954, 7386.000
1141.046, 7319.000
1142.138, 7202.000
1143.231, 7112.000
1144.323, 7087.000
1145.415, 7092.000
1146.507, 7024.000
1147.598, 6885.000
1148.690, 6760.000
1149.781, 6754.000
1150.872, 6650.000
1151.964, 6593.000
1153.054, 6576.000
1154.145, 6530.787
1155.236, 6574.000
1156.327, 6509.000
1157.417, 6529.000
1158.507, 6531.000
1159.597, 6530.000
1160.687, 6511.564
1161.777, 6500.934
1162.867, 6450.000
1163.956, 6471.000
1165.046, 6433.000
1166.135, 6435.000
1167.224, 6344.000
1168.313, 6360.000
1169.402, 6352.000
1170.491, 6377.000
1171.580, 6274.000
1172.668, 6368.000
1173.756, 6389.000
1174.845, 6281.000
1175.933, 6331.000
1177.020, 6339.000
1178.108, 6368.000
1179.196, 6249.000
1180.283, 6253.000
1181.371, 6210.000
1182.458, 6323.000
1183.545, 6199.000
1184.632, 6333.000
1185.719, 6240.000
1186.805, 6231.000
1187.892, 6249.000
1188.978, 6205.000
1190.065, 6249.000
1191.151, 6238.000
1192.237, 6268.000
1193.323, 6171.000
1194.408, 6121.000
1195.494, 6153.000
1196.579, 6154.189
1197.664, 6258.000
1198.750, 6224.000
1199.835, 6256.312
1200.919, 6209.000
1202.004, 6246.000
1203.089, 6233.000
1204.173, 6327.000
1205.258, 6140.000
1206.342, 6260.000
1207.426, 6166.000
1208.510, 6203.000
1209.594, 6329.000
1210.677, 6206.000
1211.761, 6248.000
1212.844, 6244.000
1213.927, 6221.000
1215.010, 6213.000
1216.093, 6212.743
1217.176, 6206.940
1218.259, 6219.000
1219.341, 6237.000
1220.424, 6247.000
1221.506, 6317.000
1222.588, 6239.000
1223.670, 6332.000
1224.752, 6280.000
1225.834, 6231.000
1226.915, 6316.000
1227.997, 6282.000
1229.078, 6244.000
1230.159, 6387.000
1231.240, 6204.000
1232.321, 6271.000
1233.402, 6281.000
1234.483, 6292.000
1235.563, 6215.000
1236.644, 6286.000
1237.724, 6273.000
1238.804, 6274.000
1239.884, 6303.000
1240.964, 6245.000
1242.044, 6254.000
1243.123, 6186.000
1244.203, 6280.000
1245.282, 6231.000
1246.361, 6206.000
1247.440, 6291.000
1248.519, 6248.000
1249.598, 6239.000
1250.676, 6286.000
1251.755, 6205.000
1252.833, 6224.000
1253.911, 6321.000
1254.989, 6300.000
1256.067, 6259.000
1257.145, 6175.000
1258.223, 6269.000
1259.300, 6295.000
1260.378, 6163.000
1261.455, 6326.000
1262.532, 6249.000
1263.609, 6271.000
1264.686, 6362.000
1265.763, 6292.000
1266.840, 6310.000
1267.916, 6312.000
1268.992, 6291.000
1270.069, 6297.000
1271.145, 6306.000
1272.221, 6216.000
1273.296, 6318.000
1274.372, 6278.000
1275.448, 6384.000
1276.523, 6319.000
1277.598, 6318.000
1278.673, 6283.000
1279.749, 6278.353
1280.823, 6328.000
1281.898, 6311.000
1282.973, 6331.000
1284.047, 6403.000
1285.122, 6314.000
1286.196, 6384.000
1287.270, 6328.000
1288.344, 6419.000
1289.418, 6315.000
1290.491, 6380.000
1291.565, 6368.000
1292.638, 6424.000
1293.712, 6367.000
1294.785, 6409.000
1295.858, 6397.000
1296.931, 6390.000
1298.003, 6448.000
1299.076, 6330.000
1300.149, 6433.000
1301.221, 6444.000
1302.293, 6362.000
1303.365, 6422.000
1304.437, 6390.000
1305.509, 6425.000
1306.581, 6391.000
1307.652, 6369.534
1308.724, 6372.000
1309.795, 6321.000
1310.866, 6348.000
1311.937, 6361.000
1313.008, 6545.000
1314.079, 6452.000
1315.150, 6543.000
1316.220, 6500.783
1317.291, 6493.000
1318.361, 6387.000
1319.431, 6510.000
1320.501, 6482.000
1321.571, 6529.000
1322.641, 6538.000
1323.710, 6450.000
1324.780, 6472.000
1325.849, 6527.000
1326.918, 6416.000
1327.987, 6498.000
1329.056, 6526.000
1330.125, 6462.000
1331.194, 6646.000
1332.263, 6546.915
1333.331, 6530.000
1334.399, 6508.000
1335.467, 6396.000
1336.535, 6469.000
1337.603, 6493.000
1338.671, 6477.000
1339.739, 6469.000
1340.806, 6502.000
1341.874, 6549.000
