##NAMES=Diopside
##RRUFFID=R050496
##IDEAL CHEMISTRY=CaMgSi_2_O_6_
##LOCALITY=New City Quarry, Riverside, Riverside County, Calfornia, USA
##OWNER=RRUFF
##SOURCE=California Institute of Technology
##DESCRIPTION=Aggregate of light green irregular grains
##STATUS=The identification of this mineral has been confirmed by X-ray diffraction and chemical analysis
##URL=rruff.info/R050496
##MEASURED CHEMISTRY=Ca(Mg_0.66_Fe_0.33_Mn_0.01_)(Si_0.95_Al_0.05_)_2_O_6_
##PIN_ID=M01175
##ORIENTATION=Laser parallel to c* (0 0 1). Fiducial mark perpendicular to laser is parallel to -a [-1 0 0]
121.6860, 10101.76
122.9190, 10080.00
124.1520, 10030.65
125.3850, 10036.36
126.6170, 10037.00
127.8490, 10119.00
129.0810, 10177.00
130.3130, 10185.64
131.5450, 10344.00
132.7770, 10252.00
134.0080, 10330.00
135.2390, 10435.00
136.4710, 10581.00
137.7020, 10483.00
138.9320, 10478.00
140.1630, 10552.00
141.3930, 10608.00
142.6240, 10743.00
143.8540, 10541.00
145.0840, 10533.00
146.3140, 10764.00
147.5440, 10546.00
148.7730, 10585.00
150.0020, 10720.00
151.2320, 10619.00
152.4610, 10767.00
153.6900, 10613.00
154.9180, 10712.00
156.1470, 10689.00
157.3750, 10859.00
158.6040, 10750.00
159.8320, 10928.00
161.0600, 10960.00
162.2870, 10811.00
163.5150, 10961.00
164.7420, 11059.00
165.9700, 10947.00
167.1970, 10976.00
168.4240, 11085.00
169.6510, 10996.00
170.8770, 10959.00
172.1040, 11134.00
173.3300, 11140.00
174.5560, 10993.00
175.7820, 10978.00
177.0080, 11038.00
178.2340, 11170.00
179.4590, 11145.00
180.6850, 11056.00
181.9100, 11200.00
183.1350, 11145.00
184.3600, 11189.00
185.5850, 11178.00
186.8090, 11175.60
188.0340, 11198.38
189.2580, 11205.00
190.4820, 11246.00
191.7060, 11308.00
192.9300, 11387.00
194.1530, 11388.48
195.3770, 11456.00
196.6000, 11397.00
197.8230, 11522.00
199.0460, 11524.00
200.2690, 11328.00
201.4910, 11537.00
202.7140, 11322.00
203.9360, 11561.00
205.1580, 11467.00
206.3800, 11345.00
207.6020, 11467.00
208.8240, 11362.00
210.0450, 11518.00
211.2670, 11419.00
212.4880, 11582.00
213.7090, 11719.00
214.9300, 11549.00
216.1510, 11610.00
217.3710, 11794.00
218.5920, 11666.00
219.8120, 11778.00
221.0320, 11744.00
222.2520, 11700.00
223.4720, 11706.00
224.6910, 11875.00
225.9110, 11828.00
227.1300, 12019.00
228.3490, 11844.00
229.5680, 11939.00
230.7870, 11990.00
232.0050, 11995.00
233.2240, 12055.68
234.4420, 12089.00
235.6600, 12083.00
236.8780, 12105.00
238.0960, 12119.91
239.3140, 12079.00
240.5310, 12134.00
241.7490, 12116.00
242.9660, 12087.00
244.1830, 12107.48
245.4000, 12096.10
246.6160, 12134.00
247.8330, 12106.00
249.0490, 12187.00
250.2660, 12196.00
251.4820, 12244.00
252.6980, 12344.00
253.9130, 12389.00
255.1290, 12428.36
256.3440, 12441.00
257.5600, 12447.00
258.7750, 12411.00
259.9900, 12332.00
261.2040, 12543.00
262.4190, 12561.00
263.6330, 12459.00
264.8480, 12622.00
266.0620, 12550.00
267.2760, 12422.00
268.4900, 12686.00
269.7030, 12523.00
270.9170, 12402.00
272.1300, 12587.00
273.3430, 12671.00
274.5560, 12669.00
275.7690, 12549.00
276.9820, 12575.00
278.1940, 12645.00
279.4070, 12618.00
280.6190, 12602.00
281.8310, 12597.00
283.0430, 12647.50
284.2550, 12683.98
285.4660, 12773.00
286.6770, 12840.00
287.8890, 12886.00
289.1000, 12931.56
290.3110, 12969.00
291.5210, 12972.00
292.7320, 13047.00
293.9420, 13039.00
295.1530, 13217.00
296.3630, 13325.00
297.5730, 13331.00
298.7830, 13458.00
299.9920, 13358.00
301.2020, 13702.00
302.4110, 13623.00
303.6200, 13782.00
304.8290, 13790.00
306.0380, 14042.00
307.2470, 14099.00
308.4550, 14266.00
309.6630, 14428.00
310.8720, 14633.00
312.0800, 14833.00
313.2880, 15024.00
314.4950, 15200.00
315.7030, 15294.00
316.9100, 15496.00
318.1170, 15749.00
319.3240, 16231.00
320.5310, 16321.00
321.7380, 16380.00
322.9450, 16572.00
324.1510, 16432.00
325.3570, 16371.00
326.5630, 16382.00
327.7690, 16191.00
328.9750, 15978.00
330.1810, 15918.00
331.3860, 15675.00
332.5910, 15610.00
333.7960, 15654.00
335.0010, 15440.00
336.2060, 15375.00
337.4110, 15279.00
338.6150, 15170.00
339.8200, 15124.00
341.0240, 15215.00
342.2280, 15096.00
343.4320, 15174.00
344.6350, 15174.00
345.8390, 15396.00
347.0420, 15204.00
348.2450, 15619.00
349.4480, 15619.00
350.6510, 15804.00
351.8540, 15983.00
353.0560, 15896.00
354.2590, 16013.00
355.4610, 15858.00
356.6630, 15785.00
357.8650, 15620.00
359.0670, 15653.00
360.2680, 15280.00
361.4700, 15403.00
362.6710, 15309.00
363.8720, 14923.00
365.0730, 14889.00
366.2740, 14888.00
367.4740, 14800.00
368.6750, 14796.00
369.8750, 14742.00
371.0750, 14699.00
372.2750, 14855.00
373.4750, 14737.00
374.6740, 14910.00
375.8740, 14884.00
377.0730, 15051.00
378.2720, 15103.00
379.4710, 15561.00
380.6700, 15615.00
381.8690, 15792.00
383.0670, 15882.00
384.2660, 16413.00
385.4640, 16627.00
386.6620, 16792.00
387.8600, 16981.00
389.0570, 17096.00
390.2550, 16916.00
391.4520, 16678.00
392.6490, 16325.00
393.8460, 15922.00
395.0430, 15701.00
396.2400, 15546.00
397.4370, 15106.00
398.6330, 15083.00
399.8290, 14880.00
401.0250, 14637.00
402.2210, 14646.00
403.4170, 14397.00
404.6130, 14414.00
405.8080, 14276.00
407.0030, 14348.00
408.1980, 14346.00
409.3930, 14405.00
410.5880, 14303.00
411.7830, 14228.00
412.9770, 14426.00
414.1720, 14347.00
415.3660, 14364.00
416.5600, 14538.00
417.7530, 14323.00
418.9470, 14415.00
420.1410, 14374.00
421.3340, 14202.00
422.5270, 14387.00
423.7200, 14260.00
424.9130, 14509.00
426.1060, 14293.00
427.2980, 14376.00
428.4900, 14398.00
429.6830, 14328.00
430.8750, 14384.00
432.0670, 14242.00
433.2580, 14222.00
434.4500, 14265.34
435.6410, 14484.00
436.8320, 14385.00
438.0240, 14487.00
439.2140, 14611.00
440.4050, 14370.00
441.5960, 14610.00
442.7860, 14531.00
443.9760, 14521.00
445.1670, 14765.00
446.3560, 14693.50
447.5460, 14704.90
448.7360, 14698.00
449.9250, 14720.00
451.1150, 14569.00
452.3040, 14815.00
453.4930, 14704.00
454.6810, 14867.00
455.8700, 14819.00
457.0590, 14959.00
458.2470, 15042.00
459.4350, 14778.00
460.6230, 15001.00
461.8110, 15079.00
462.9980, 14818.00
464.1860, 14895.00
465.3730, 14895.00
466.5600, 15041.00
467.7470, 14833.00
468.9340, 15074.00
470.1210, 14943.00
471.3080, 14732.00
472.4940, 14892.00
473.6800, 15064.00
474.8660, 15114.00
476.0520, 15034.00
477.2380, 15074.00
478.4230, 15072.00
479.6090, 15103.00
480.7940, 14909.00
481.9790, 14931.00
483.1640, 15032.00
484.3490, 15022.00
485.5330, 15200.00
486.7180, 15042.00
487.9020, 15229.00
489.0860, 15288.00
490.2700, 15222.00
491.4540, 15172.00
492.6370, 15535.00
493.8210, 15202.00
495.0040, 15085.00
496.1870, 15371.00
497.3700, 15197.00
498.5530, 15157.00
499.7360, 15339.00
500.9180, 15409.00
502.1000, 15319.00
503.2830, 15453.00
504.4650, 15417.00
505.6460, 15499.00
506.8280, 15702.00
508.0100, 15706.00
509.1910, 15747.55
510.3720, 15735.00
511.5530, 15703.00
512.7340, 15803.00
513.9150, 15747.00
515.0950, 15689.00
516.2760, 15854.00
517.4560, 15966.00
518.6360, 15894.00
519.8160, 16001.55
520.9950, 15828.00
522.1750, 16041.00
523.3540, 16012.00
524.5340, 16021.00
525.7130, 16149.00
526.8920, 16273.00
528.0700, 16316.00
529.2490, 16260.00
530.4270, 16258.00
531.6060, 16358.00
532.7840, 16399.00
533.9620, 16203.00
535.1390, 16168.00
536.3170, 16243.00
537.4940, 16253.00
538.6720, 16116.00
539.8490, 16106.00
541.0260, 16235.00
542.2030, 16133.00
543.3790, 16276.00
544.5560, 16134.00
545.7320, 16103.00
546.9080, 15976.00
548.0840, 16122.00
549.2600, 16280.00
550.4360, 16449.00
551.6110, 16342.00
552.7860, 16432.00
553.9620, 16485.00
555.1370, 16362.00
556.3110, 16514.00
557.4860, 16618.00
558.6610, 16483.00
559.8350, 16527.00
561.0090, 16599.00
562.1830, 16250.00
563.3570, 16481.00
564.5310, 16385.00
565.7040, 16412.00
566.8780, 16252.00
568.0510, 16205.00
569.2240, 16201.00
570.3970, 16181.00
571.5700, 16285.00
572.7420, 16255.00
573.9150, 16391.00
575.0870, 16240.00
576.2590, 16171.00
577.4310, 16107.00
578.6030, 16203.00
579.7740, 16048.00
580.9460, 16143.00
582.1170, 16303.00
583.2880, 16087.00
584.4590, 16217.00
585.6300, 16198.00
586.8010, 16120.00
587.9710, 16130.00
589.1410, 16141.00
590.3110, 16073.32
591.4810, 16108.00
592.6510, 16018.00
593.8210, 16070.00
594.9900, 16137.00
596.1600, 16194.00
597.3290, 16237.00
598.4980, 16271.00
599.6670, 16284.21
600.8350, 16296.00
602.0040, 16279.00
603.1720, 16245.00
604.3400, 16222.00
605.5080, 16282.00
606.6760, 16439.00
607.8440, 16498.00
609.0120, 16412.00
610.1790, 16551.00
611.3460, 16462.00
612.5130, 16537.00
613.6800, 16553.00
614.8470, 16623.00
616.0130, 16630.00
617.1800, 16779.00
618.3460, 16828.00
619.5120, 16744.00
620.6780, 16698.00
621.8440, 16864.00
623.0090, 16932.00
624.1750, 17014.00
625.3400, 17012.00
626.5050, 17129.00
627.6700, 16923.00
628.8350, 17348.00
629.9990, 16979.00
631.1640, 17258.00
632.3280, 17387.00
633.4920, 17464.00
634.6560, 17593.00
635.8200, 17669.00
636.9840, 17786.00
638.1470, 17854.00
639.3100, 17954.60
640.4730, 18049.45
641.6360, 18159.00
642.7990, 18312.00
643.9620, 18454.00
645.1240, 18749.00
646.2870, 18916.00
647.4490, 19191.00
648.6110, 19635.00
649.7730, 19806.00
650.9340, 20254.00
652.0960, 20859.00
653.2570, 21359.00
654.4180, 21812.00
655.5790, 23060.00
656.7400, 23887.00
657.9010, 25308.00
659.0620, 26822.00
660.2220, 28494.00
661.3820, 30123.00
662.5420, 31718.00
663.7020, 33057.00
664.8620, 33671.00
666.0210, 33763.00
667.1810, 32813.00
668.3400, 31292.00
669.4990, 29556.00
670.6580, 27873.00
671.8170, 26119.00
672.9750, 24506.00
674.1340, 23453.00
675.2920, 22333.00
676.4500, 21545.00
677.6080, 20859.00
678.7660, 20284.00
679.9230, 20178.00
681.0810, 19641.00
682.2380, 19311.00
683.3950, 19153.00
684.5520, 18706.00
685.7090, 18789.00
686.8660, 18469.00
688.0220, 18415.00
689.1780, 18339.00
690.3340, 18173.00
691.4900, 18177.00
692.6460, 18230.00
693.8020, 18213.00
694.9570, 18056.00
696.1130, 17791.00
697.2680, 18066.00
698.4230, 17800.00
699.5780, 17843.00
700.7320, 17803.00
701.8870, 17835.00
703.0410, 17929.00
704.1950, 17709.00
705.3490, 17736.00
706.5030, 17804.00
707.6570, 17865.00
708.8110, 17790.00
709.9640, 17900.00
711.1170, 17633.00
712.2700, 17710.00
713.4230, 17922.00
714.5760, 17693.00
715.7280, 17836.00
716.8810, 17830.00
718.0330, 17903.00
719.1850, 17774.00
720.3370, 17801.00
721.4890, 17967.00
722.6400, 17645.00
723.7920, 17899.00
724.9430, 17941.00
726.0940, 17791.00
727.2450, 17921.00
728.3960, 17791.00
729.5460, 17686.00
730.6970, 17859.00
731.8470, 17839.00
732.9970, 17993.00
734.1470, 18009.00
735.2970, 17985.00
736.4460, 17967.00
737.5960, 17982.00
738.7450, 17917.00
739.8940, 18203.00
741.0430, 18231.00
742.1920, 18172.00
743.3410, 17993.00
744.4890, 18305.00
745.6370, 18028.00
746.7850, 18198.00
747.9330, 18185.00
749.0810, 18104.00
750.2290, 18357.00
751.3760, 18183.00
752.5240, 18236.00
753.6710, 18358.00
754.8180, 18257.00
755.9650, 18489.00
757.1110, 18519.00
758.2580, 18487.00
759.4040, 18668.00
760.5510, 18497.00
761.6970, 18581.00
762.8420, 18751.00
763.9880, 18720.00
765.1340, 18670.00
766.2790, 18707.00
767.4240, 18693.86
768.5690, 18775.00
769.7140, 18734.00
770.8590, 18840.00
772.0030, 18879.00
773.1480, 18994.00
774.2920, 18818.00
775.4360, 18846.00
776.5800, 18886.00
777.7240, 18857.00
778.8670, 19020.00
780.0110, 18950.00
781.1540, 19084.00
782.2970, 19073.00
783.4400, 18924.00
784.5830, 19236.00
785.7250, 19158.00
786.8680, 19408.00
788.0100, 19099.00
789.1520, 19318.00
790.2940, 19210.00
791.4360, 19161.00
792.5780, 19301.00
793.7190, 19220.00
794.8600, 19283.00
796.0010, 19324.00
797.1420, 19178.00
798.2830, 19297.00
799.4240, 19246.00
800.5640, 19326.00
801.7050, 19243.00
802.8450, 19330.00
803.9850, 19280.00
805.1250, 19155.00
806.2640, 19228.00
807.4040, 19299.00
808.5430, 19310.00
809.6820, 19317.00
810.8210, 19364.00
811.9600, 19469.00
813.0990, 19471.00
814.2370, 19352.00
815.3760, 19530.00
816.5140, 19448.00
817.6520, 19479.00
818.7900, 19537.00
819.9270, 19642.00
821.0650, 19689.00
822.2020, 19678.00
823.3390, 19729.00
824.4760, 19501.00
825.6130, 19622.00
826.7500, 19696.00
827.8870, 19617.00
829.0230, 19889.00
830.1590, 19566.00
831.2950, 19760.00
832.4310, 19561.00
833.5670, 19573.00
834.7030, 19936.00
835.8380, 19741.00
836.9730, 19620.00
838.1080, 19741.00
839.2430, 19733.00
840.3780, 19768.00
841.5130, 19761.00
842.6470, 19929.00
843.7810, 20004.00
844.9150, 20111.00
846.0490, 20146.00
847.1830, 20340.00
848.3170, 20430.00
849.4500, 20556.00
850.5830, 20746.00
851.7160, 21083.00
852.8490, 21120.00
853.9820, 21471.00
855.1150, 21653.00
856.2470, 21764.00
857.3800, 21723.00
858.5120, 21381.00
859.6440, 21508.00
860.7760, 21405.00
861.9070, 21133.00
863.0390, 21068.00
864.1700, 21060.00
865.3010, 20956.00
866.4320, 20917.00
867.5630, 20766.00
868.6940, 20719.00
869.8240, 20747.00
870.9540, 20680.00
872.0850, 20853.00
873.2150, 20579.00
874.3450, 20562.00
875.4740, 20899.00
876.6040, 20744.00
877.7330, 20680.00
878.8620, 20647.00
879.9910, 20771.00
881.1200, 20830.00
882.2490, 20773.00
883.3770, 20651.00
884.5060, 20718.00
885.6340, 20806.00
886.7620, 20715.00
887.8900, 20747.00
889.0180, 20806.00
890.1450, 20843.00
891.2730, 20929.00
892.4000, 20820.00
893.5270, 21116.00
894.6540, 20939.00
895.7810, 20978.00
896.9070, 21009.00
898.0340, 20888.00
899.1600, 20945.00
900.2860, 20900.32
901.4120, 20954.00
902.5380, 20959.00
903.6630, 20929.00
904.7890, 20998.15
905.9140, 20910.00
907.0390, 21059.00
908.1640, 21110.00
909.2890, 21065.00
910.4130, 20998.00
911.5380, 21015.00
912.6620, 21051.00
913.7860, 21193.00
914.9100, 21415.00
916.0340, 21180.00
917.1580, 21385.00
918.2810, 21327.00
919.4040, 21503.00
920.5280, 21360.00
921.6510, 21325.00
922.7730, 21330.00
923.8960, 21454.00
925.0180, 21500.00
926.1410, 21436.00
927.2630, 21509.00
928.3850, 21502.18
929.5070, 21439.00
930.6280, 21489.00
931.7500, 21619.00
932.8710, 21532.00
933.9920, 21533.00
935.1130, 21696.00
936.2340, 21686.00
937.3550, 21770.00
938.4760, 21731.00
939.5960, 21782.00
940.7160, 21770.00
941.8360, 21798.00
942.9560, 21848.00
944.0760, 21730.00
945.1950, 21762.00
946.3150, 21988.00
947.4340, 21785.00
948.5530, 22065.00
949.6720, 22024.00
950.7900, 22054.00
951.9090, 22134.00
953.0270, 22109.00
954.1460, 22108.00
955.2640, 22466.00
956.3820, 22221.00
957.4990, 22566.00
958.6170, 22491.00
959.7340, 22467.00
960.8520, 22540.00
961.9690, 22470.00
963.0860, 22823.00
964.2020, 22782.00
965.3190, 22921.00
966.4350, 22764.00
967.5520, 23070.00
968.6680, 22853.00
969.7840, 22763.00
970.8990, 22904.00
972.0150, 22926.00
973.1310, 23011.00
974.2460, 23095.00
975.3610, 23130.00
976.4760, 23127.00
977.5910, 23151.00
978.7050, 23084.00
979.8200, 23049.00
980.9340, 23410.00
982.0480, 23104.00
983.1620, 23594.00
984.2760, 23483.00
985.3900, 23312.00
986.5030, 23863.00
987.6160, 23932.00
988.7300, 24143.00
989.8430, 24279.00
990.9550, 24244.00
992.0680, 24668.00
993.1810, 24732.00
994.2930, 25245.00
995.4050, 25733.00
996.5170, 26207.00
997.6290, 26413.00
998.7410, 27009.00
999.8520, 27651.00
1000.964, 28435.00
1002.075, 29546.00
1003.186, 30382.00
1004.297, 31727.00
1005.407, 33133.00
1006.518, 34533.00
1007.628, 36862.00
1008.738, 38766.00
1009.848, 40711.00
1010.958, 42150.00
1012.068, 43350.00
1013.178, 42677.00
1014.287, 41251.00
1015.396, 39023.00
1016.505, 36559.00
1017.614, 34082.00
1018.723, 32084.00
1019.831, 30295.00
1020.940, 29222.00
1022.048, 28398.00
1023.156, 27845.00
1024.264, 26877.00
1025.372, 26546.00
1026.479, 26522.00
1027.587, 25888.00
1028.694, 25830.00
1029.801, 25877.00
1030.908, 25556.00
1032.015, 25370.00
1033.121, 25469.00
1034.228, 25513.00
1035.334, 25571.00
1036.440, 25689.00
1037.546, 25718.00
1038.652, 25818.00
1039.758, 25995.00
1040.863, 26115.00
1041.968, 26119.00
1043.074, 26228.00
1044.178, 26205.00
1045.283, 26205.00
1046.388, 26121.00
1047.492, 25791.00
1048.597, 25756.00
1049.701, 25628.00
1050.805, 25181.00
1051.909, 25182.00
1053.012, 25103.00
1054.116, 24624.00
1055.219, 24564.00
1056.322, 24617.00
1057.425, 24525.00
1058.528, 24558.00
1059.631, 24547.51
1060.733, 24483.00
1061.836, 24474.00
1062.938, 24360.00
1064.040, 24166.00
1065.142, 24203.00
1066.243, 24335.00
1067.345, 24150.00
1068.446, 24342.00
1069.547, 24311.00
1070.648, 24149.00
1071.749, 24107.00
1072.850, 24297.00
1073.951, 24222.00
1075.051, 24239.00
1076.151, 24322.00
1077.251, 24384.00
1078.351, 24380.00
1079.451, 24336.00
1080.550, 24387.00
1081.650, 24418.00
1082.749, 24278.00
1083.848, 24240.00
1084.947, 24156.00
1086.046, 24306.00
1087.144, 24556.00
1088.243, 24568.00
1089.341, 24566.00
1090.439, 24401.00
1091.537, 24590.00
1092.635, 24543.00
1093.732, 24571.00
1094.830, 24552.00
1095.927, 24600.61
1097.024, 24643.00
1098.121, 24715.00
1099.218, 24713.00
1100.314, 24758.00
1101.411, 24594.00
1102.507, 24911.00
1103.603, 24740.00
1104.699, 24937.00
1105.795, 24791.00
1106.890, 24700.00
1107.986, 24562.00
1109.081, 24803.00
1110.176, 24857.00
1111.271, 25010.00
1112.366, 25015.85
1113.461, 25025.00
1114.555, 24955.00
1115.649, 24925.00
1116.744, 24770.31
1117.838, 24906.22
1118.931, 24991.72
1120.025, 25029.53
1121.119, 24876.81
1122.212, 24970.11
1123.305, 24964.81
1124.398, 24955.47
1125.491, 25083.40
1126.584, 24958.37
1127.676, 25084.11
1128.768, 25109.73
1129.861, 25181.20
1130.953, 25153.43
1132.044, 25156.29
1133.136, 25258.40
1134.228, 25305.57
1135.319, 25266.37
1136.410, 25340.71
1137.501, 25212.17
1138.592, 25261.66
1139.683, 25387.96
1140.773, 25148.00
1141.864, 25203.00
1142.954, 25058.00
1144.044, 25315.00
1145.134, 25194.00
1146.224, 25273.00
1147.313, 25247.00
1148.402, 25340.00
1149.492, 25343.00
1150.581, 25126.00
1151.670, 25396.00
1152.758, 25504.00
1153.847, 25243.00
1154.935, 25227.00
1156.024, 25349.00
1157.112, 25366.00
1158.200, 25256.00
1159.287, 25488.00
1160.375, 25403.00
1161.462, 25567.00
1162.550, 25419.00
1163.637, 25409.00
1164.724, 25454.00
1165.810, 25356.00
1166.897, 25654.00
1167.983, 25487.00
1169.070, 25529.00
1170.156, 25567.00
1171.242, 25469.00
1172.327, 25719.00
1173.413, 25587.00
1174.499, 25832.00
1175.584, 25731.00
1176.669, 25667.00
1177.754, 25986.00
1178.839, 25481.00
1179.923, 25766.00
1181.008, 25635.00
1182.092, 25776.00
1183.176, 25563.00
1184.260, 25893.00
1185.344, 25706.00
1186.428, 25974.00
1187.511, 26017.00
1188.595, 25896.00
1189.678, 26078.00
1190.761, 25949.00
1191.843, 25994.00
1192.926, 26114.00
1194.009, 26133.00
1195.091, 26012.00
1196.173, 26081.00
1197.255, 25994.00
1198.337, 26109.00
1199.419, 26136.00
1200.500, 26197.00
1201.582, 26255.00
1202.663, 26346.00
1203.744, 26396.00
1204.825, 26300.00
1205.905, 26254.00
1206.986, 26361.00
1208.066, 26193.00
1209.146, 26526.00
1210.226, 26569.00
1211.306, 26318.00
1212.386, 26664.00
1213.466, 26446.00
1214.545, 26319.00
1215.624, 26244.00
1216.703, 26656.00
1217.782, 26453.00
1218.861, 26508.00
1219.939, 26682.00
1221.018, 26563.00
1222.096, 26794.00
1223.174, 26621.00
1224.252, 26750.00
1225.330, 26849.00
1226.407, 26586.00
1227.485, 26651.00
1228.562, 26933.00
1229.639, 26897.00
1230.716, 26764.00
1231.793, 26921.00
1232.869, 26870.00
1233.946, 26876.00
1235.022, 26921.00
1236.098, 26747.00
1237.174, 26779.00
1238.250, 27009.00
1239.325, 27025.00
1240.401, 26885.00
1241.476, 27208.00
1242.551, 27052.00
1243.626, 27056.00
1244.701, 26955.00
1245.776, 27178.00
1246.850, 27278.00
1247.924, 27168.00
1248.999, 27064.00
1250.073, 27089.00
1251.146, 27259.00
1252.220, 27124.00
1253.293, 27429.00
1254.367, 27212.00
1255.440, 27332.00
1256.513, 27521.00
1257.586, 27535.00
1258.658, 27315.00
1259.731, 27261.00
1260.803, 27451.00
1261.875, 27392.00
1262.947, 27512.00
1264.019, 27483.00
1265.091, 27546.00
1266.162, 27444.00
1267.234, 27675.00
1268.305, 27548.00
1269.376, 27854.00
1270.447, 27673.00
1271.517, 27654.00
1272.588, 27777.00
1273.658, 27768.00
1274.729, 27725.00
1275.799, 27571.00
1276.868, 27787.00
1277.938, 27675.00
1279.008, 27594.00
1280.077, 27773.00
1281.146, 27858.00
1282.215, 27989.00
1283.284, 27881.00
1284.353, 27885.00
1285.421, 27627.00
1286.490, 27772.00
1287.558, 27777.00
1288.626, 27740.00
1289.694, 27789.00
1290.762, 27697.00
1291.829, 27854.00
1292.897, 27925.00
1293.964, 28100.00
1295.031, 27686.00
