##NAMES=Diopside
##RRUFFID=R060085
##IDEAL CHEMISTRY=CaMgSi_2_O_6_
##LOCALITY=Tyrol, Austria
##OWNER=RRUFF
##SOURCE=University of Arizona Mineral Museum
##DESCRIPTION=Brownish-green massive
##STATUS=The identification of this mineral has been confirmed by X-ray diffraction and chemical analysis
##URL=rruff.info/R060085
##MEASURED CHEMISTRY=(Ca_0.97_Na_0.03_)_Σ=1_(Mg_0.79_Fe^2+^_0.10_Fe^3+^_0.04_Al_0.04_Ti_0.02_Cr_0.01_)_Σ=1_(Si_1.90_Al_0.10_)_Σ=2_O_6_
##PIN_ID=M01542
##ORIENTATION=Laser parallel to c* (0 0 1). Fiducial mark perpendicular to laser is parallel to a [1 0 0]
87.65500, 7166.000
88.90100, 7254.000
90.14700, 7236.000
91.39300, 7276.000
92.63800, 7290.000
93.88300, 7324.669
95.12800, 7357.917
96.37300, 7420.000
97.61800, 7418.000
98.86200, 7478.744
100.1070, 7491.163
101.3510, 7482.000
102.5940, 7582.000
103.8380, 7584.000
105.0810, 7627.000
106.3250, 7616.000
107.5680, 7678.000
108.8110, 7803.000
110.0530, 7808.000
111.2960, 7855.000
112.5380, 7848.000
113.7800, 8045.000
115.0220, 8091.000
116.2640, 8158.000
117.5050, 8094.000
118.7460, 8044.000
119.9870, 7962.000
121.2280, 8022.000
122.4690, 8084.000
123.7100, 8100.000
124.9500, 8122.257
126.1900, 8057.000
127.4300, 8090.000
128.6700, 8114.000
129.9090, 8027.000
131.1480, 8144.000
132.3880, 8174.000
133.6270, 8152.000
134.8650, 8191.000
136.1040, 8351.000
137.3420, 8113.000
138.5800, 8345.000
139.8180, 8233.000
141.0560, 8303.000
142.2940, 8292.000
143.5310, 8257.000
144.7680, 8319.000
146.0050, 8293.477
147.2420, 8355.000
148.4790, 8299.000
149.7150, 8240.000
150.9510, 8234.000
152.1870, 8313.000
153.4230, 8170.000
154.6590, 8322.000
155.8940, 8346.000
157.1300, 8304.000
158.3650, 8429.000
159.6000, 8381.708
160.8340, 8288.000
162.0690, 8369.000
163.3030, 8463.000
164.5370, 8473.000
165.7710, 8501.000
167.0050, 8411.000
168.2380, 8645.000
169.4720, 8426.000
170.7050, 8539.000
171.9380, 8581.000
173.1700, 8440.000
174.4030, 8462.000
175.6350, 8471.000
176.8680, 8631.000
178.1000, 8508.000
179.3310, 8630.000
180.5630, 8523.000
181.7940, 8709.000
183.0260, 8762.000
184.2570, 8775.000
185.4870, 8665.000
186.7180, 8702.000
187.9480, 8757.000
189.1790, 8898.000
190.4090, 8901.000
191.6390, 9003.000
192.8680, 9030.000
194.0980, 9194.000
195.3270, 9219.000
196.5560, 9320.000
197.7850, 9192.000
199.0140, 9302.000
200.2420, 9029.000
201.4710, 9049.000
202.6990, 9018.000
203.9270, 8911.000
205.1550, 8906.000
206.3820, 8872.679
207.6090, 8938.000
208.8370, 8893.000
210.0640, 8819.000
211.2900, 8917.000
212.5170, 8908.000
213.7440, 8957.000
214.9700, 9014.359
216.1960, 8950.000
217.4220, 9111.000
218.6470, 9088.778
219.8730, 9117.000
221.0980, 9190.000
222.3230, 9150.000
223.5480, 9195.000
224.7730, 9380.000
225.9970, 9202.000
227.2220, 9398.000
228.4460, 9552.000
229.6700, 9635.000
230.8940, 9587.000
232.1170, 9668.000
233.3400, 9511.000
234.5640, 9640.000
235.7870, 9648.000
237.0100, 9552.000
238.2320, 9565.000
239.4550, 9474.000
240.6770, 9457.772
241.8990, 9343.000
243.1210, 9383.000
244.3420, 9396.000
245.5640, 9296.000
246.7850, 9525.000
248.0060, 9335.000
249.2270, 9510.000
250.4480, 9513.000
251.6690, 9519.000
252.8890, 9480.000
254.1090, 9411.000
255.3290, 9381.000
256.5490, 9588.000
257.7680, 9495.000
258.9880, 9584.000
260.2070, 9415.000
261.4260, 9520.000
262.6450, 9493.000
263.8640, 9420.000
265.0820, 9472.000
266.3000, 9467.000
267.5180, 9482.000
268.7360, 9423.000
269.9540, 9520.000
271.1720, 9494.000
272.3890, 9429.000
273.6060, 9525.000
274.8230, 9500.000
276.0400, 9570.000
277.2560, 9414.000
278.4730, 9575.000
279.6890, 9562.000
280.9050, 9681.000
282.1210, 9598.000
283.3370, 9653.000
284.5520, 9521.000
285.7670, 9810.000
286.9820, 9762.000
288.1970, 9869.000
289.4120, 9796.000
290.6270, 9789.000
291.8410, 9746.000
293.0550, 9815.000
294.2690, 9841.000
295.4830, 9881.891
296.6970, 9853.000
297.9100, 10010.00
299.1230, 10060.00
300.3360, 10146.00
301.5490, 10112.00
302.7620, 10206.00
303.9740, 10224.00
305.1860, 10398.00
306.3990, 10304.00
307.6110, 10378.00
308.8220, 10345.00
310.0340, 10358.00
311.2450, 10410.00
312.4560, 10443.80
313.6670, 10567.00
314.8780, 10645.00
316.0890, 10712.00
317.2990, 10960.00
318.5090, 11071.00
319.7200, 11276.00
320.9290, 11470.00
322.1390, 11772.00
323.3490, 11976.00
324.5580, 12310.00
325.7670, 12252.00
326.9760, 12325.00
328.1850, 12140.00
329.3930, 11961.00
330.6020, 11839.00
331.8100, 11751.00
333.0180, 11476.00
334.2260, 11580.00
335.4340, 11494.00
336.6410, 11166.00
337.8480, 11101.00
339.0550, 11070.00
340.2620, 10905.00
341.4690, 10895.00
342.6760, 10965.00
343.8820, 10862.00
345.0880, 10856.00
346.2940, 10820.00
347.5000, 10920.00
348.7060, 10927.07
349.9110, 11047.00
351.1160, 11048.00
352.3210, 11136.00
353.5260, 11232.00
354.7310, 11340.00
355.9360, 11640.00
357.1400, 11587.00
358.3440, 11539.16
359.5480, 11613.12
360.7520, 11634.92
361.9550, 11607.40
363.1590, 11382.63
364.3620, 11412.55
365.5650, 11436.00
366.7680, 11351.00
367.9710, 11318.00
369.1730, 11246.00
370.3760, 11210.00
371.5780, 11111.00
372.7800, 11341.00
373.9810, 11212.00
375.1830, 11290.00
376.3840, 11218.00
377.5860, 11314.00
378.7870, 11489.00
379.9880, 11435.00
381.1880, 11622.00
382.3890, 11730.00
383.5890, 11752.00
384.7890, 11793.00
385.9890, 12179.00
387.1890, 12390.00
388.3880, 12696.00
389.5880, 13007.00
390.7870, 13199.00
391.9860, 13489.00
393.1850, 13573.00
394.3840, 13498.00
395.5820, 13413.00
396.7800, 13220.00
397.9790, 12982.00
399.1770, 12663.00
400.3740, 12555.00
401.5720, 12207.00
402.7690, 12039.49
403.9670, 11781.00
405.1640, 11662.00
406.3600, 11543.00
407.5570, 11381.00
408.7540, 11330.00
409.9500, 11362.00
411.1460, 11358.00
412.3420, 11276.00
413.5380, 11240.00
414.7330, 11105.00
415.9290, 11124.00
417.1240, 11110.00
418.3190, 11083.00
419.5140, 11223.00
420.7090, 11115.00
421.9030, 11233.00
423.0970, 11151.00
424.2920, 11226.00
425.4860, 11218.00
426.6790, 11265.00
427.8730, 11284.09
429.0660, 11209.00
430.2600, 11296.00
431.4530, 11248.00
432.6460, 11209.00
433.8380, 11249.00
435.0310, 11172.00
436.2230, 11262.00
437.4150, 11255.00
438.6070, 11354.00
439.7990, 11255.00
440.9910, 11205.00
442.1820, 11397.00
443.3730, 11365.00
444.5640, 11390.00
445.7550, 11377.00
446.9460, 11366.00
448.1370, 11310.00
449.3270, 11263.00
450.5170, 11445.00
451.7070, 11518.00
452.8970, 11502.00
454.0870, 11384.00
455.2760, 11465.00
456.4650, 11560.00
457.6550, 11530.00
458.8430, 11660.00
460.0320, 11558.00
461.2210, 11737.00
462.4090, 11568.00
463.5970, 11752.00
464.7850, 11769.00
465.9730, 11662.00
467.1610, 11704.00
468.3480, 11837.00
469.5360, 11718.00
470.7230, 11715.00
471.9100, 11772.00
473.0970, 11757.00
474.2830, 11869.00
475.4700, 11694.00
476.6560, 11835.00
477.8420, 11768.00
479.0280, 11781.00
480.2140, 11777.00
481.3990, 11790.00
482.5850, 11824.00
483.7700, 11823.00
484.9550, 11756.00
486.1400, 11807.00
487.3240, 11935.00
488.5090, 11897.00
489.6930, 11837.00
490.8770, 11818.00
492.0610, 11963.00
493.2450, 11907.00
494.4290, 11954.00
495.6120, 11998.00
496.7950, 11881.00
497.9780, 12031.00
499.1610, 11975.00
500.3440, 11925.00
501.5260, 12019.00
502.7090, 11967.00
503.8910, 12075.00
505.0730, 12053.00
506.2550, 12242.00
507.4360, 12143.00
508.6180, 12222.00
509.7990, 12175.00
510.9800, 12159.00
512.1610, 12225.00
513.3420, 12280.00
514.5230, 12349.00
515.7030, 12221.00
516.8830, 12257.00
518.0630, 12347.00
519.2430, 12452.00
520.4230, 12372.00
521.6020, 12399.00
522.7820, 12461.00
523.9610, 12321.00
525.1400, 12567.00
526.3190, 12550.00
527.4970, 12536.00
528.6760, 12546.00
529.8540, 12558.00
531.0320, 12551.00
532.2100, 12575.64
533.3880, 12641.00
534.5660, 12624.00
535.7430, 12696.00
536.9200, 12743.00
538.0970, 12851.00
539.2740, 12784.00
540.4510, 12683.00
541.6270, 12950.00
542.8040, 12763.00
543.9800, 12836.00
545.1560, 12665.00
546.3320, 12816.00
547.5080, 12952.00
548.6830, 12940.00
549.8580, 12929.00
551.0340, 13004.31
552.2090, 12885.00
553.3830, 13092.00
554.5580, 13148.00
555.7320, 13221.00
556.9070, 13187.00
558.0810, 13422.00
559.2550, 13510.00
560.4280, 13521.00
561.6020, 13312.14
562.7750, 13308.33
563.9490, 13287.15
565.1220, 13249.58
566.2950, 13146.45
567.4670, 13128.02
568.6400, 13075.62
569.8120, 13122.00
570.9840, 12979.00
572.1560, 13006.00
573.3280, 12914.00
574.5000, 12897.85
575.6710, 12908.00
576.8430, 12892.00
578.0140, 12895.00
579.1850, 12919.00
580.3560, 12907.00
581.5260, 12888.00
582.6970, 12940.00
583.8670, 12836.00
585.0370, 12941.00
586.2070, 12824.00
587.3770, 12888.00
588.5460, 12882.00
589.7160, 12909.00
590.8850, 12890.00
592.0540, 12824.00
593.2230, 13043.00
594.3920, 12922.00
595.5600, 12969.00
596.7290, 12801.00
597.8970, 12932.00
599.0650, 12902.00
600.2330, 12869.00
601.4000, 12964.00
602.5680, 13048.00
603.7350, 12910.00
604.9020, 13066.00
606.0690, 12967.00
607.2360, 13007.00
608.4030, 12884.00
609.5690, 12980.00
610.7360, 13111.00
611.9020, 13087.00
613.0680, 13074.00
614.2340, 13149.00
615.3990, 13137.05
616.5650, 13319.00
617.7300, 13200.00
618.8950, 13157.00
620.0600, 13213.00
621.2250, 13356.00
622.3890, 13206.00
623.5540, 13384.00
624.7180, 13353.00
625.8820, 13383.00
627.0460, 13348.00
628.2100, 13447.00
629.3730, 13559.00
630.5370, 13455.00
631.7000, 13392.00
632.8630, 13417.00
634.0260, 13491.00
635.1890, 13697.00
636.3510, 13646.00
637.5140, 13598.00
638.6760, 13543.00
639.8380, 13804.00
641.0000, 13639.00
642.1610, 13817.00
643.3230, 13702.00
644.4840, 13810.00
645.6450, 13816.00
646.8060, 13887.00
647.9670, 14029.00
649.1280, 14057.00
650.2880, 14205.36
651.4490, 14394.00
652.6090, 14444.00
653.7690, 14494.00
654.9290, 14558.00
656.0880, 14595.00
657.2480, 14989.00
658.4070, 15286.00
659.5660, 15772.00
660.7250, 15925.00
661.8840, 16319.00
663.0430, 16910.00
664.2010, 17573.00
665.3600, 18134.00
666.5180, 18462.00
667.6760, 18601.96
668.8330, 18650.00
669.9910, 18338.00
671.1480, 17955.00
672.3060, 17372.00
673.4630, 16953.00
674.6200, 16470.00
675.7770, 16147.00
676.9330, 15865.00
678.0900, 15533.00
679.2460, 15262.00
680.4020, 15139.00
681.5580, 15083.00
682.7140, 15015.00
683.8690, 15003.00
685.0250, 14818.00
686.1800, 14863.00
687.3350, 14639.00
688.4900, 14575.00
689.6450, 14595.00
690.7990, 14545.00
691.9540, 14606.00
693.1080, 14502.00
694.2620, 14364.00
695.4160, 14403.00
696.5700, 14400.00
697.7230, 14471.00
698.8770, 14429.00
700.0300, 14458.20
701.1830, 14453.00
702.3360, 14445.00
703.4890, 14474.00
704.6410, 14412.00
705.7930, 14430.00
706.9460, 14407.00
708.0980, 14417.00
709.2500, 14444.00
710.4010, 14403.00
711.5530, 14306.00
712.7040, 14321.00
713.8560, 14490.00
715.0070, 14418.00
716.1580, 14504.00
717.3080, 14476.00
718.4590, 14497.00
719.6090, 14672.00
720.7590, 14557.00
721.9090, 14612.38
723.0590, 14626.00
724.2090, 14560.00
725.3590, 14603.00
726.5080, 14537.00
727.6570, 14450.00
728.8060, 14451.00
729.9550, 14559.00
731.1040, 14471.00
732.2530, 14612.00
733.4010, 14492.00
734.5490, 14689.00
735.6970, 14682.00
736.8450, 14659.00
737.9930, 14615.00
739.1400, 14628.00
740.2880, 14628.04
741.4350, 14658.00
742.5820, 14709.00
743.7290, 14795.00
744.8760, 14790.34
746.0220, 14821.44
747.1690, 14806.00
748.3150, 14791.00
749.4610, 14795.00
750.6070, 14705.00
751.7530, 14706.00
752.8980, 14965.00
754.0440, 14892.00
755.1890, 14867.00
756.3340, 14862.00
757.4790, 14830.00
758.6240, 14878.00
759.7680, 14920.00
760.9130, 15088.00
762.0570, 14918.00
763.2010, 15261.00
764.3450, 14960.00
765.4890, 15074.00
766.6320, 15060.00
767.7760, 15016.00
768.9190, 15056.25
770.0620, 15055.00
771.2050, 15073.00
772.3480, 15058.00
773.4900, 15130.00
774.6330, 15000.00
775.7750, 15100.79
776.9170, 15264.00
778.0590, 15211.00
779.2010, 15166.00
780.3420, 15197.00
781.4840, 15286.00
782.6250, 15270.00
783.7660, 15400.00
784.9070, 15348.00
786.0480, 15339.00
787.1890, 15359.00
788.3290, 15474.00
789.4690, 15343.00
790.6100, 15438.00
791.7490, 15354.00
792.8890, 15419.00
794.0290, 15643.00
795.1680, 15523.00
796.3080, 15575.00
797.4470, 15559.00
798.5860, 15512.21
799.7250, 15480.00
800.8630, 15490.00
802.0020, 15576.00
803.1400, 15643.00
804.2780, 15536.00
805.4160, 15604.00
806.5540, 15472.00
807.6920, 15500.00
808.8300, 15763.00
809.9670, 15641.00
811.1040, 15660.00
812.2410, 15807.00
813.3780, 15778.00
814.5150, 15805.00
815.6510, 15715.00
816.7880, 15861.00
817.9240, 15826.00
819.0600, 15872.00
820.1960, 15880.00
821.3320, 15886.19
822.4670, 16029.00
823.6030, 15892.00
824.7380, 15942.00
825.8730, 15900.00
827.0080, 16138.00
828.1430, 16061.00
829.2770, 16167.00
830.4120, 16089.00
831.5460, 16143.00
832.6800, 16150.00
833.8140, 16220.00
834.9480, 15972.00
836.0810, 16233.00
837.2150, 16225.00
838.3480, 16118.00
839.4810, 16297.00
840.6140, 16299.00
841.7470, 16289.00
842.8800, 16336.00
844.0120, 16247.00
845.1450, 16149.00
846.2770, 16215.00
847.4090, 16371.00
848.5410, 16237.00
849.6720, 16489.00
850.8040, 16433.00
851.9350, 16468.00
853.0660, 16514.00
854.1970, 16584.00
855.3280, 16542.00
856.4590, 16542.00
857.5900, 16645.00
858.7200, 16673.00
859.8500, 16639.00
860.9800, 16683.00
862.1100, 16658.00
863.2400, 16739.00
864.3700, 16753.00
865.4990, 16685.00
866.6280, 16618.00
867.7570, 16807.00
868.8860, 16855.00
870.0150, 16775.00
871.1440, 16822.00
872.2720, 16801.00
873.4010, 16685.00
874.5290, 16682.00
875.6570, 16736.00
876.7850, 16763.00
877.9120, 16800.05
879.0400, 16853.16
880.1670, 16877.00
881.2940, 16955.00
882.4210, 16973.00
883.5480, 17020.19
884.6750, 16826.00
885.8020, 16959.00
886.9280, 17066.00
888.0540, 16945.00
889.1800, 17169.00
890.3060, 17076.00
891.4320, 17066.00
892.5580, 17195.00
893.6830, 16883.00
894.8080, 17078.00
895.9330, 17030.00
897.0580, 17088.00
898.1830, 17026.00
899.3080, 17150.00
900.4320, 17320.00
901.5570, 17143.00
902.6810, 17132.00
903.8050, 17149.00
904.9290, 17296.00
906.0520, 17194.00
907.1760, 17327.00
908.2990, 17292.00
909.4230, 17265.00
910.5460, 17221.00
911.6690, 17431.00
912.7910, 17469.00
913.9140, 17403.00
915.0360, 17485.00
916.1590, 17376.00
917.2810, 17423.00
918.4030, 17457.00
919.5240, 17387.00
920.6460, 17368.00
921.7680, 17560.00
922.8890, 17380.00
924.0100, 17541.00
925.1310, 17432.00
926.2520, 17580.00
927.3730, 17579.00
928.4930, 17473.00
929.6130, 17550.00
930.7340, 17670.00
931.8540, 17623.00
932.9740, 17783.00
934.0930, 17682.00
935.2130, 17639.00
936.3320, 17807.00
937.4520, 17650.00
938.5710, 17657.00
939.6900, 17727.00
940.8090, 17822.00
941.9270, 17883.00
943.0460, 17904.57
944.1640, 17819.00
945.2820, 17950.00
946.4000, 17892.00
947.5180, 17972.00
948.6360, 18013.65
949.7530, 17973.00
950.8710, 18101.00
951.9880, 18124.00
953.1050, 18171.74
954.2220, 18154.00
955.3390, 18153.00
956.4550, 18185.00
957.5720, 18167.00
958.6880, 18286.00
959.8040, 18252.00
960.9200, 18306.00
962.0360, 18381.00
963.1520, 18303.00
964.2670, 18494.00
965.3820, 18427.00
966.4980, 18538.00
967.6130, 18534.00
968.7280, 18579.00
969.8420, 18582.00
970.9570, 18573.00
972.0710, 18516.00
973.1850, 18662.00
974.3000, 18668.00
975.4140, 18854.00
976.5270, 18679.00
977.6410, 18945.00
978.7540, 18950.00
979.8680, 18807.00
980.9810, 18994.00
982.0940, 18933.00
983.2070, 18923.00
984.3200, 19005.00
985.4320, 19158.00
986.5440, 19171.00
987.6570, 19221.00
988.7690, 19317.00
989.8810, 19345.00
990.9920, 19542.00
992.1040, 19711.00
993.2160, 19677.00
994.3270, 19749.00
995.4380, 19913.00
996.5490, 20220.00
997.6600, 20337.00
998.7710, 20408.00
999.8810, 20718.00
1000.991, 20844.00
1002.102, 21228.00
1003.212, 21585.00
1004.322, 21993.00
1005.431, 22412.00
1006.541, 23105.00
1007.651, 23739.00
1008.760, 24514.00
1009.869, 25306.00
1010.978, 25793.00
1012.087, 26709.00
1013.195, 27112.00
1014.304, 26890.00
1015.412, 26372.00
1016.521, 24928.00
1017.629, 23978.00
1018.737, 22936.00
1019.844, 22133.00
1020.952, 21751.00
1022.059, 21296.00
1023.167, 20885.00
1024.274, 20569.00
1025.381, 20462.00
1026.488, 20355.00
1027.594, 20149.00
1028.701, 20245.00
1029.807, 19985.00
1030.913, 19998.00
1032.019, 20041.00
1033.125, 20134.00
1034.231, 20024.00
1035.337, 19845.00
1036.442, 20182.00
1037.548, 19951.00
1038.653, 20190.00
1039.758, 20117.00
1040.863, 20231.00
1041.967, 20255.00
1043.072, 20162.00
1044.176, 20176.00
1045.280, 20257.00
1046.384, 20426.00
1047.488, 20478.00
1048.592, 20605.00
1049.696, 20508.00
1050.799, 20475.00
1051.903, 20479.00
1053.006, 20360.26
1054.109, 20319.00
1055.212, 20201.00
1056.314, 20020.00
1057.417, 19997.00
1058.519, 19957.62
1059.621, 19986.00
1060.724, 19985.00
1061.826, 20087.00
1062.927, 20098.00
1064.029, 20206.00
1065.130, 19978.00
1066.232, 19966.00
1067.333, 20071.00
1068.434, 20007.00
1069.535, 20230.00
1070.636, 20152.00
1071.736, 20065.00
1072.837, 20099.00
1073.937, 19923.00
1075.037, 20201.00
1076.137, 20184.00
1077.237, 20101.00
1078.337, 20113.00
1079.436, 20020.00
1080.535, 19992.00
1081.635, 20040.59
1082.734, 20149.00
1083.833, 20151.00
1084.931, 20223.00
1086.030, 20278.00
1087.128, 20543.00
1088.227, 20318.00
1089.325, 20216.00
1090.423, 20408.00
1091.521, 20247.00
1092.618, 20320.00
1093.716, 20577.00
1094.813, 20384.00
1095.911, 20628.00
1097.008, 20550.00
1098.105, 20586.00
1099.202, 20478.00
1100.298, 20603.00
1101.395, 20592.00
1102.491, 20508.00
1103.587, 20631.00
1104.683, 20588.00
1105.779, 20729.00
1106.875, 20754.72
1107.971, 20565.00
1109.066, 20772.00
1110.161, 20777.00
1111.256, 20617.00
1112.351, 20645.00
1113.446, 20785.00
1114.541, 20753.00
1115.636, 20931.00
1116.730, 21010.00
1117.824, 20840.00
1118.918, 20941.00
1120.012, 21093.00
1121.106, 20814.00
1122.200, 20938.00
1123.293, 20846.00
1124.387, 20857.00
1125.480, 20919.00
1126.573, 20996.00
1127.666, 21004.00
1128.759, 21088.00
1129.851, 21020.00
1130.944, 21054.00
1132.036, 21343.00
1133.128, 21213.00
1134.220, 20854.00
1135.312, 21153.00
1136.404, 21139.00
1137.495, 21047.00
1138.587, 21272.00
1139.678, 21290.00
1140.769, 21180.00
1141.860, 21342.00
1142.951, 21360.00
1144.041, 21218.00
1145.132, 21265.00
1146.222, 21391.00
1147.313, 21373.00
1148.403, 21562.00
1149.493, 21463.00
1150.582, 21296.00
1151.672, 21559.00
1152.761, 21431.00
1153.851, 21385.00
1154.940, 21326.00
1156.029, 21425.00
1157.118, 21725.00
1158.207, 21644.00
1159.295, 21614.00
1160.384, 21658.00
1161.472, 21593.00
1162.560, 21673.00
1163.648, 21585.00
1164.736, 21862.00
1165.824, 21670.00
1166.911, 21474.00
1167.999, 21653.00
1169.086, 21883.00
1170.173, 21784.00
1171.260, 21938.00
1172.347, 21980.00
1173.434, 21844.00
1174.520, 21883.00
1175.606, 21904.00
1176.693, 21841.00
1177.779, 22033.00
1178.865, 21860.00
1179.951, 21946.00
1181.036, 22055.00
1182.122, 22337.00
1183.207, 21971.00
1184.292, 22161.00
1185.377, 22193.00
1186.462, 21985.00
1187.547, 22041.00
1188.632, 22048.00
1189.716, 22239.00
1190.800, 22349.00
1191.885, 22236.00
1192.969, 22172.00
1194.052, 22198.00
1195.136, 22157.83
1196.220, 22180.21
1197.303, 22181.00
1198.387, 22209.00
1199.470, 22218.00
1200.553, 22174.96
1201.636, 22247.00
1202.718, 22297.00
1203.801, 22444.00
1204.883, 22597.00
1205.966, 22450.00
1207.048, 22465.00
1208.130, 22497.00
1209.211, 22629.00
1210.293, 22544.00
1211.375, 22687.00
1212.456, 22802.00
1213.537, 22801.00
1214.618, 22726.00
1215.699, 22964.00
1216.780, 22764.00
1217.861, 22722.00
1218.941, 22678.00
1220.022, 22828.00
1221.102, 22607.00
1222.182, 22850.00
1223.262, 22985.00
1224.342, 23072.00
1225.422, 22938.00
1226.501, 22999.00
1227.580, 22873.00
1228.660, 22886.02
1229.739, 23165.00
1230.818, 23004.00
1231.896, 22973.00
1232.975, 23270.00
1234.054, 23229.00
1235.132, 23209.00
1236.210, 23085.00
1237.288, 23161.00
1238.366, 23150.00
1239.444, 23197.00
1240.521, 23156.00
1241.599, 23198.00
1242.676, 23223.00
1243.753, 23236.15
1244.830, 23292.00
1245.907, 23341.00
1246.984, 23222.00
1248.061, 23354.00
1249.137, 23633.00
1250.214, 23262.00
1251.290, 23651.00
1252.366, 23504.00
1253.442, 23327.00
1254.517, 23674.00
1255.593, 23713.00
1256.668, 23449.00
1257.744, 23600.00
1258.819, 23705.00
1259.894, 23633.00
1260.969, 23573.00
1262.044, 23713.00
1263.118, 23544.00
1264.193, 24004.00
1265.267, 23850.00
1266.341, 23766.00
1267.415, 23851.00
