##NAMES=Diopside
##RRUFFID=R060085
##IDEAL CHEMISTRY=CaMgSi_2_O_6_
##LOCALITY=Tyrol, Austria
##OWNER=RRUFF
##SOURCE=University of Arizona Mineral Museum
##DESCRIPTION=Brownish-green massive
##STATUS=The identification of this mineral has been confirmed by X-ray diffraction and chemical analysis
##URL=rruff.info/R060085
##MEASURED CHEMISTRY=(Ca_0.97_Na_0.03_)_Σ=1_(Mg_0.79_Fe^2+^_0.10_Fe^3+^_0.04_Al_0.04_Ti_0.02_Cr_0.01_)_Σ=1_(Si_1.90_Al_0.10_)_Σ=2_O_6_
##PIN_ID=M00537
##ORIENTATION=Laser parallel to (-1 0 -1). Fiducial mark perpendicular to laser is parallel to b [0 1 0]
72.72800, 7967.000
73.97100, 8227.000
75.21400, 8430.000
76.45600, 8494.000
77.69900, 8691.000
78.94100, 9162.000
80.18300, 9108.000
81.42500, 9004.000
82.66700, 8771.000
83.90800, 8605.000
85.15000, 8427.000
86.39100, 8519.000
87.63200, 8358.000
88.87300, 8444.000
90.11400, 8597.000
91.35400, 8655.000
92.59500, 8508.000
93.83500, 8622.000
95.07500, 8767.000
96.31500, 8499.000
97.55400, 8681.000
98.79400, 8612.000
100.0330, 8658.000
101.2720, 8703.000
102.5110, 8755.000
103.7500, 8838.000
104.9890, 9013.000
106.2270, 8919.000
107.4650, 8992.000
108.7040, 8847.000
109.9420, 8931.000
111.1790, 9016.000
112.4170, 9111.000
113.6540, 9163.000
114.8920, 9150.000
116.1290, 9202.000
117.3650, 9287.000
118.6020, 9200.000
119.8390, 9083.000
121.0750, 9162.000
122.3110, 9176.000
123.5470, 9132.000
124.7830, 9106.000
126.0190, 9215.000
127.2540, 9151.000
128.4900, 9296.000
129.7250, 9171.000
130.9600, 9252.000
132.1950, 9224.000
133.4290, 9347.000
134.6640, 9330.000
135.8980, 9504.000
137.1320, 9417.000
138.3660, 9858.000
139.6000, 9742.000
140.8340, 9659.000
142.0670, 9580.000
143.3000, 9458.000
144.5330, 9258.000
145.7660, 9404.000
146.9990, 9222.000
148.2320, 9102.000
149.4640, 9404.000
150.6960, 9184.000
151.9280, 9172.000
153.1600, 9220.000
154.3920, 9258.000
155.6230, 9210.000
156.8550, 9246.000
158.0860, 9299.000
159.3170, 9233.000
160.5480, 9303.000
161.7780, 9485.000
163.0090, 9403.000
164.2390, 9433.000
165.4690, 9545.000
166.6990, 9424.000
167.9290, 9402.000
169.1590, 9477.000
170.3880, 9311.000
171.6180, 9410.000
172.8470, 9407.000
174.0760, 9499.000
175.3040, 9490.000
176.5330, 9501.000
177.7610, 9573.000
178.9900, 9468.000
180.2180, 9388.000
181.4460, 9552.000
182.6730, 9490.000
183.9010, 9448.000
185.1280, 9532.000
186.3560, 9496.000
187.5830, 9686.000
188.8100, 9571.000
190.0360, 9607.576
191.2630, 9721.427
192.4890, 9599.000
193.7150, 9868.000
194.9410, 9957.000
196.1670, 9927.000
197.3930, 9953.000
198.6180, 9965.000
199.8440, 9838.000
201.0690, 9861.000
202.2940, 9737.000
203.5190, 9654.000
204.7430, 9780.000
205.9680, 9774.000
207.1920, 9754.000
208.4160, 9797.000
209.6400, 9795.971
210.8640, 9809.726
212.0880, 9804.000
213.3110, 9866.000
214.5340, 9805.000
215.7570, 9884.000
216.9800, 9927.000
218.2030, 10010.00
219.4260, 9986.000
220.6480, 10099.00
221.8700, 10114.00
223.0920, 10349.00
224.3140, 10414.00
225.5360, 10497.00
226.7580, 10562.00
227.9790, 10725.00
229.2000, 10818.00
230.4210, 10737.00
231.6420, 10903.00
232.8630, 10589.00
234.0830, 10568.00
235.3040, 10504.00
236.5240, 10352.00
237.7440, 10268.00
238.9640, 10359.00
240.1830, 10332.00
241.4030, 10219.00
242.6220, 10223.87
243.8410, 10197.13
245.0600, 10122.00
246.2790, 10172.00
247.4980, 10179.00
248.7160, 10117.00
249.9340, 10279.00
251.1530, 10098.00
252.3710, 10369.00
253.5880, 10279.00
254.8060, 10287.00
256.0230, 10271.00
257.2410, 10272.00
258.4580, 10110.00
259.6750, 10063.00
260.8910, 10169.00
262.1080, 10164.00
263.3240, 10214.00
264.5410, 10128.00
265.7570, 10152.00
266.9730, 10318.00
268.1880, 10221.00
269.4040, 10107.00
270.6190, 10275.00
271.8350, 10154.00
273.0500, 10114.00
274.2650, 10283.00
275.4790, 10265.00
276.6940, 10222.00
277.9080, 10243.00
279.1220, 10269.50
280.3360, 10296.00
281.5500, 10377.00
282.7640, 10427.00
283.9770, 10494.00
285.1910, 10437.00
286.4040, 10408.00
287.6170, 10484.00
288.8300, 10479.00
290.0420, 10458.00
291.2550, 10567.00
292.4670, 10674.00
293.6790, 10698.00
294.8910, 10849.00
296.1030, 10862.00
297.3150, 10820.00
298.5260, 10972.00
299.7380, 11139.00
300.9490, 11139.00
302.1600, 11263.00
303.3710, 11194.00
304.5810, 11151.00
305.7920, 11143.00
307.0020, 11162.00
308.2120, 11113.00
309.4220, 11159.00
310.6320, 11139.00
311.8410, 11390.00
313.0510, 11371.00
314.2600, 11523.00
315.4690, 11677.00
316.6780, 11780.14
317.8870, 11990.00
319.0950, 12151.00
320.3040, 12400.00
321.5120, 12725.00
322.7200, 12907.00
323.9280, 13004.00
325.1360, 13014.00
326.3430, 12985.00
327.5510, 12973.00
328.7580, 12674.00
329.9650, 12429.00
331.1720, 12205.00
332.3790, 12039.00
333.5850, 12077.00
334.7910, 11753.00
335.9980, 11801.00
337.2040, 11897.00
338.4100, 11630.00
339.6150, 11838.00
340.8210, 11749.00
342.0260, 11671.00
343.2310, 11697.00
344.4360, 11694.36
345.6410, 11739.00
346.8460, 11821.00
348.0500, 11889.00
349.2550, 12015.00
350.4590, 12228.00
351.6630, 12268.00
352.8670, 12606.00
354.0700, 12760.00
355.2740, 13023.00
356.4770, 13159.00
357.6800, 13102.00
358.8830, 13044.00
360.0860, 12841.00
361.2890, 12694.00
362.4910, 12502.00
363.6930, 12373.00
364.8960, 12443.00
366.0980, 12353.00
367.2990, 12409.00
368.5010, 12410.00
369.7020, 12238.00
370.9040, 12184.00
372.1050, 12214.00
373.3060, 12159.00
374.5070, 12026.00
375.7070, 12196.00
376.9080, 12177.00
378.1080, 12081.00
379.3080, 12235.00
380.5080, 12280.00
381.7080, 12485.00
382.9070, 12610.00
384.1070, 12848.00
385.3060, 13156.00
386.5050, 13578.00
387.7040, 13767.00
388.9030, 14246.00
390.1010, 14499.00
391.3000, 14459.00
392.4980, 14452.00
393.6960, 14294.00
394.8940, 14133.00
396.0920, 13725.00
397.2890, 13315.00
398.4870, 12928.00
399.6840, 12789.00
400.8810, 12375.00
402.0780, 12407.00
403.2750, 12131.00
404.4710, 12171.00
405.6680, 12102.00
406.8640, 11924.00
408.0600, 11885.00
409.2560, 11915.00
410.4520, 11744.00
411.6470, 11734.00
412.8430, 11775.00
414.0380, 11865.00
415.2330, 11747.00
416.4280, 11753.00
417.6220, 11750.00
418.8170, 11747.00
420.0110, 11825.00
421.2050, 11808.00
422.4000, 11832.00
423.5930, 11796.00
424.7870, 11784.00
425.9810, 11885.00
427.1740, 11846.00
428.3670, 11799.00
429.5600, 11902.00
430.7530, 11822.00
431.9460, 11729.00
433.1380, 12041.00
434.3310, 11868.00
435.5230, 11852.00
436.7150, 11860.00
437.9070, 12021.00
439.0980, 12002.00
440.2900, 12068.00
441.4810, 11900.00
442.6720, 11969.00
443.8630, 12010.00
445.0540, 12068.00
446.2450, 12045.00
447.4350, 11862.00
448.6260, 11959.00
449.8160, 12034.00
451.0060, 12039.00
452.1960, 12207.00
453.3850, 12220.00
454.5750, 12149.00
455.7640, 12206.00
456.9530, 12145.00
458.1420, 12137.00
459.3310, 12249.00
460.5200, 12413.00
461.7080, 12342.00
462.8970, 12274.00
464.0850, 12372.00
465.2730, 12298.00
466.4610, 12365.00
467.6480, 12311.00
468.8360, 12341.00
470.0230, 12368.00
471.2100, 12341.00
472.3970, 12421.00
473.5840, 12193.00
474.7710, 12415.00
475.9570, 12428.00
477.1440, 12326.00
478.3300, 12471.00
479.5160, 12473.00
480.7020, 12427.00
481.8870, 12428.00
483.0730, 12521.00
484.2580, 12576.00
485.4430, 12493.00
486.6280, 12549.21
487.8130, 12492.00
488.9980, 12519.00
490.1820, 12538.00
491.3660, 12492.00
492.5510, 12544.00
493.7350, 12579.00
494.9180, 12581.00
496.1020, 12588.00
497.2860, 12661.00
498.4690, 12696.00
499.6520, 12615.00
500.8350, 12730.00
502.0180, 12640.00
503.2000, 12764.00
504.3830, 12783.00
505.5650, 12695.00
506.7470, 12764.00
507.9290, 12802.00
509.1110, 12886.00
510.2930, 12916.00
511.4740, 12886.00
512.6560, 12860.00
513.8370, 12941.00
515.0180, 12940.00
516.1980, 12991.00
517.3790, 13047.00
518.5600, 13070.00
519.7400, 13054.00
520.9200, 13086.00
522.1000, 13078.00
523.2800, 13211.00
524.4590, 13196.00
525.6390, 13261.00
526.8180, 13164.00
527.9970, 13251.00
529.1760, 13335.00
530.3550, 13289.00
531.5340, 13355.00
532.7120, 13331.00
533.8910, 13450.00
535.0690, 13516.00
536.2470, 13377.00
537.4250, 13349.00
538.6020, 13323.00
539.7800, 13400.00
540.9570, 13396.95
542.1340, 13444.00
543.3110, 13475.00
544.4880, 13577.00
545.6650, 13623.00
546.8410, 13653.00
548.0170, 13469.00
549.1940, 13480.00
550.3690, 13549.00
551.5450, 13611.00
552.7210, 13723.00
553.8960, 13816.36
555.0720, 13839.00
556.2470, 14038.00
557.4220, 14041.00
558.5970, 14131.00
559.7710, 14078.00
560.9460, 14038.00
562.1200, 13931.00
563.2940, 13889.70
564.4680, 13858.00
565.6420, 13754.00
566.8160, 13707.00
567.9890, 13615.00
569.1630, 13703.00
570.3360, 13445.00
571.5090, 13623.00
572.6820, 13709.00
573.8540, 13449.00
575.0270, 13574.00
576.1990, 13600.00
577.3710, 13581.00
578.5430, 13521.00
579.7150, 13634.00
580.8870, 13492.00
582.0580, 13521.00
583.2300, 13494.00
584.4010, 13679.00
585.5720, 13492.00
586.7430, 13575.00
587.9130, 13555.00
589.0840, 13771.00
590.2540, 13710.00
591.4240, 13562.00
592.5940, 13524.00
593.7640, 13495.55
594.9340, 13519.00
596.1030, 13501.00
597.2730, 13638.00
598.4420, 13671.00
599.6110, 13571.00
600.7800, 13694.00
601.9490, 13610.00
603.1170, 13567.00
604.2850, 13649.00
605.4540, 13677.00
606.6220, 13820.00
607.7900, 13746.00
608.9570, 13832.00
610.1250, 13763.00
611.2920, 13722.00
612.4590, 13829.00
613.6260, 13851.00
614.7930, 13865.00
615.9600, 13918.00
617.1270, 13903.66
618.2930, 13913.43
619.4590, 13910.00
620.6250, 13938.00
621.7910, 13984.00
622.9570, 13990.57
624.1220, 14034.44
625.2880, 14054.00
626.4530, 14080.00
627.6180, 14158.00
628.7830, 14132.00
629.9480, 14166.00
631.1120, 14290.00
632.2770, 14252.00
633.4410, 14324.00
634.6050, 14381.00
635.7690, 14308.00
636.9330, 14338.00
638.0960, 14270.00
639.2600, 14366.00
640.4230, 14475.00
641.5860, 14406.00
642.7490, 14544.00
643.9120, 14568.00
645.0740, 14640.00
646.2370, 14720.00
647.3990, 14756.00
648.5610, 14925.00
649.7230, 14904.00
650.8850, 15049.00
652.0460, 15041.00
653.2080, 15202.00
654.3690, 15538.00
655.5300, 15601.00
656.6910, 15857.00
657.8520, 16178.00
659.0130, 16594.00
660.1730, 16920.00
661.3330, 17332.00
662.4930, 17975.00
663.6530, 18325.00
664.8130, 18757.00
665.9730, 19011.00
667.1320, 18987.00
668.2920, 18543.00
669.4510, 18217.00
670.6100, 17840.00
671.7680, 17403.00
672.9270, 17004.00
674.0860, 16683.00
675.2440, 16212.00
676.4020, 16244.00
677.5600, 16414.00
678.7180, 15999.26
679.8760, 16009.00
681.0330, 15594.00
682.1900, 15648.00
683.3480, 15685.00
684.5050, 15344.00
685.6610, 15465.00
686.8180, 15344.00
687.9750, 15617.00
689.1310, 15350.00
690.2870, 15332.00
691.4430, 15394.00
692.5990, 15301.00
693.7550, 15084.00
694.9100, 15196.00
696.0660, 15487.00
697.2210, 15141.00
698.3760, 15456.00
699.5310, 15258.00
700.6860, 15177.00
701.8400, 15228.00
702.9940, 15201.00
704.1490, 15150.00
705.3030, 15368.00
706.4570, 15206.00
707.6100, 15337.00
708.7640, 15504.00
709.9170, 15173.00
711.0710, 15410.00
712.2240, 15277.00
713.3770, 15219.00
714.5290, 15346.00
715.6820, 15282.00
716.8340, 15294.00
717.9870, 15442.00
719.1390, 15343.00
720.2910, 15353.00
721.4430, 15169.00
722.5940, 15465.00
723.7460, 15242.00
724.8970, 15383.00
726.0480, 15305.00
727.1990, 15436.00
728.3500, 15423.00
729.5000, 15353.00
730.6510, 15406.00
731.8010, 15492.00
732.9510, 15464.00
734.1010, 15505.25
735.2510, 15471.00
736.4010, 15540.00
737.5500, 15557.00
738.7000, 15631.00
739.8490, 15634.00
740.9980, 15621.00
742.1470, 15674.00
743.2950, 15539.00
744.4440, 15679.00
745.5920, 15513.00
746.7400, 15648.00
747.8880, 15721.00
749.0360, 15650.00
750.1840, 15736.00
751.3310, 15858.00
752.4790, 15645.00
753.6260, 15619.00
754.7730, 15784.00
755.9200, 15756.00
757.0670, 15719.00
758.2130, 15758.00
759.3600, 16008.00
760.5060, 15816.00
761.6520, 15930.00
762.7980, 15774.00
763.9440, 15841.00
765.0890, 15912.00
766.2350, 15863.00
767.3800, 15927.00
768.5250, 15880.00
769.6700, 15925.00
770.8150, 15932.09
771.9590, 15978.00
773.1040, 15993.00
774.2480, 16018.00
775.3920, 16133.00
776.5360, 16104.00
777.6800, 16021.00
778.8240, 16109.00
779.9670, 16207.00
781.1100, 16238.00
782.2540, 16141.00
783.3970, 16165.00
784.5390, 16132.00
785.6820, 16239.00
786.8240, 16327.00
787.9670, 16037.00
789.1090, 16285.00
790.2510, 16280.00
791.3930, 16269.00
792.5350, 16433.00
793.6760, 16399.87
794.8170, 16406.00
795.9590, 16435.00
797.1000, 16475.00
798.2410, 16454.00
799.3810, 16302.00
800.5220, 16400.00
801.6620, 16390.00
802.8030, 16341.00
803.9430, 16473.00
805.0820, 16550.00
806.2220, 16626.00
807.3620, 16482.00
808.5010, 16679.00
809.6410, 16761.00
810.7800, 16595.00
811.9190, 16689.00
813.0570, 16607.00
814.1960, 16717.00
815.3340, 16782.00
816.4730, 16708.00
817.6110, 16942.00
818.7490, 16845.00
819.8870, 16750.00
821.0240, 16802.00
822.1620, 16897.00
823.2990, 16887.53
824.4360, 16844.00
825.5730, 17004.00
826.7100, 17070.00
827.8470, 17175.00
828.9830, 17115.00
830.1200, 17026.00
831.2560, 16911.00
832.3920, 17120.00
833.5280, 17079.00
834.6630, 17057.00
835.7990, 17093.00
836.9340, 17143.00
838.0700, 17240.00
839.2050, 17203.00
840.3400, 17130.00
841.4740, 17201.00
842.6090, 17060.00
843.7430, 17213.00
844.8780, 17142.00
846.0120, 17351.00
847.1460, 17367.00
848.2790, 17269.00
849.4130, 17566.00
850.5460, 17445.00
851.6800, 17647.00
852.8130, 17593.00
853.9460, 17743.00
855.0790, 17800.00
856.2110, 17880.00
857.3440, 17771.00
858.4760, 17904.00
859.6080, 17787.00
860.7400, 17714.00
861.8720, 17824.00
863.0040, 17819.00
864.1350, 17798.00
865.2670, 17874.00
866.3980, 17784.00
867.5290, 17875.00
868.6600, 17807.00
869.7900, 17908.00
870.9210, 17766.00
872.0510, 17979.00
873.1820, 17884.00
874.3120, 17902.00
875.4420, 17741.00
876.5710, 17705.00
877.7010, 17987.00
878.8300, 17917.00
879.9600, 17957.00
881.0890, 17746.00
882.2180, 17863.00
883.3460, 17936.00
884.4750, 18024.00
885.6040, 18013.00
886.7320, 17974.00
887.8600, 17973.00
888.9880, 17944.00
890.1160, 18047.00
891.2430, 18127.00
892.3710, 18146.00
893.4980, 18177.11
894.6260, 18156.00
895.7530, 18186.00
896.8790, 18127.00
898.0060, 18168.72
899.1330, 18124.14
900.2590, 18246.00
901.3850, 18063.00
902.5110, 18348.00
903.6370, 18364.00
904.7630, 18163.00
905.8890, 18280.00
907.0140, 18375.00
908.1390, 18271.00
909.2640, 18391.00
910.3890, 18504.00
911.5140, 18477.00
912.6390, 18511.00
913.7630, 18360.00
914.8870, 18424.00
916.0120, 18500.00
917.1360, 18470.00
918.2590, 18656.00
919.3830, 18665.00
920.5070, 18610.00
921.6300, 18601.00
922.7530, 18544.00
923.8760, 18595.00
924.9990, 18689.00
926.1220, 18784.00
927.2440, 18924.00
928.3670, 18899.59
929.4890, 18742.00
930.6110, 18856.00
931.7330, 18758.00
932.8540, 18733.00
933.9760, 18806.00
935.0980, 18753.00
936.2190, 18849.00
937.3400, 18667.00
938.4610, 18904.00
939.5820, 18875.00
940.7020, 18928.00
941.8230, 18757.00
942.9430, 19163.00
944.0630, 18923.00
945.1830, 19030.00
946.3030, 19131.00
947.4230, 18957.00
948.5420, 19145.00
949.6610, 19022.00
950.7810, 19234.00
951.9000, 19217.00
953.0190, 19168.00
954.1370, 19141.00
955.2560, 19191.00
956.3740, 19389.00
957.4920, 19362.00
958.6110, 19344.00
959.7280, 19407.00
960.8460, 19350.00
961.9640, 19703.00
963.0810, 19470.00
964.1990, 19582.00
965.3160, 19492.00
966.4330, 19464.00
967.5490, 19600.00
968.6660, 19560.00
969.7830, 19789.00
970.8990, 19699.00
972.0150, 19891.00
973.1310, 19653.00
974.2470, 19737.00
975.3630, 19961.00
976.4780, 19931.00
977.5930, 19782.00
978.7090, 20039.00
979.8240, 19973.00
980.9390, 19991.00
982.0530, 20220.00
983.1680, 20069.00
984.2820, 20166.00
985.3970, 20351.00
986.5110, 20285.00
987.6250, 20420.00
988.7380, 20429.00
989.8520, 20630.00
990.9660, 20524.00
992.0790, 20803.00
993.1920, 20738.00
994.3050, 20805.00
995.4180, 21000.00
996.5300, 21141.00
997.6430, 21288.22
998.7550, 21551.00
999.8680, 21639.00
1000.980, 21853.00
1002.091, 22082.00
1003.203, 22430.91
1004.315, 22837.16
1005.426, 23323.00
1006.537, 23852.00
1007.648, 24447.00
1008.759, 25090.00
1009.870, 25673.00
1010.981, 26250.00
1012.091, 26508.00
1013.201, 26333.00
1014.312, 25794.00
1015.422, 24876.00
1016.531, 24211.00
1017.641, 23357.00
1018.751, 22823.00
1019.860, 22508.00
1020.969, 21906.00
1022.078, 21706.00
1023.187, 21515.00
1024.296, 21466.00
1025.404, 21270.00
1026.513, 21198.22
1027.621, 21170.47
1028.729, 21055.00
1029.837, 21179.00
1030.945, 21168.00
1032.052, 21231.00
1033.160, 21253.85
1034.267, 21116.00
1035.374, 21247.00
1036.481, 21208.00
1037.588, 21145.00
1038.695, 21185.00
1039.801, 21220.00
1040.907, 21292.00
1042.014, 21467.00
1043.120, 21394.00
1044.225, 21406.00
1045.331, 21566.00
1046.437, 21725.00
1047.542, 21695.24
1048.647, 21512.00
1049.752, 21598.00
1050.857, 21596.00
1051.962, 21360.00
1053.067, 21320.00
1054.171, 21422.00
1055.275, 21479.00
1056.380, 21320.00
1057.484, 21278.00
1058.587, 21421.00
1059.691, 21335.00
1060.795, 21485.00
1061.898, 21351.00
1063.001, 21486.00
1064.104, 21466.00
1065.207, 21463.00
1066.310, 21362.00
1067.412, 21440.00
1068.515, 21406.00
1069.617, 21512.00
1070.719, 21457.00
1071.821, 21351.00
1072.923, 21526.00
1074.024, 21542.00
1075.126, 21494.00
1076.227, 21618.00
1077.328, 21573.00
1078.429, 21580.00
1079.530, 21566.00
1080.631, 21629.00
1081.731, 21701.00
1082.831, 21700.00
1083.932, 21709.22
1085.032, 21721.00
1086.132, 21665.00
1087.231, 21778.00
1088.331, 21770.00
1089.430, 21796.00
1090.530, 21742.00
1091.629, 21931.00
1092.728, 21884.54
1093.826, 21950.10
1094.925, 21913.00
1096.023, 21977.00
1097.122, 21980.00
1098.220, 21860.00
1099.318, 22103.00
1100.416, 22106.00
1101.513, 21970.00
1102.611, 22228.00
1103.708, 21957.00
1104.806, 22061.00
1105.903, 22102.00
1107.000, 22113.00
1108.096, 22162.00
1109.193, 22170.71
1110.289, 22253.00
1111.386, 22153.00
1112.482, 22157.00
1113.578, 22056.00
1114.673, 22315.00
1115.769, 22222.00
1116.865, 22253.00
1117.960, 22322.00
1119.055, 22225.00
1120.150, 22370.00
1121.245, 22300.00
1122.340, 22331.93
1123.434, 22359.00
1124.529, 22426.00
1125.623, 22466.00
1126.717, 22636.00
1127.811, 22637.00
1128.905, 22671.00
1129.998, 22787.00
1131.092, 22580.00
1132.185, 22635.00
1133.278, 22632.00
1134.371, 22602.53
1135.464, 22711.00
1136.557, 22687.00
1137.649, 22701.00
1138.742, 22813.00
1139.834, 22816.00
1140.926, 22857.95
1142.018, 22900.00
1143.109, 22951.00
1144.201, 22812.00
1145.292, 22935.00
1146.384, 22884.00
1147.475, 23082.00
1148.566, 23177.00
1149.657, 23022.00
1150.747, 22872.00
1151.838, 22981.00
1152.928, 22901.00
1154.018, 22977.00
1155.108, 22909.00
1156.198, 23048.00
1157.288, 23133.00
1158.377, 23276.00
1159.467, 23378.00
1160.556, 23416.64
1161.645, 23254.00
1162.734, 23391.00
1163.823, 23379.00
1164.911, 23181.00
1166.000, 23525.00
1167.088, 23388.00
1168.176, 23236.00
1169.264, 23152.00
1170.352, 23186.40
1171.440, 23461.00
1172.527, 23374.00
1173.615, 23574.00
1174.702, 23745.00
1175.789, 23451.00
1176.876, 23581.00
1177.963, 23572.00
1179.049, 23846.00
1180.136, 23512.00
1181.222, 23695.00
1182.308, 23604.00
1183.394, 23654.00
1184.480, 23688.00
1185.566, 23746.00
1186.651, 23696.00
1187.736, 23789.00
1188.822, 23939.00
1189.907, 23724.00
1190.992, 23814.00
1192.076, 24009.00
1193.161, 23949.00
1194.245, 23973.00
1195.330, 24131.00
1196.414, 24071.00
1197.498, 23964.00
1198.581, 24093.00
1199.665, 24169.00
1200.749, 24181.00
1201.832, 24044.00
1202.915, 24269.00
1203.998, 24149.00
1205.081, 24318.00
1206.164, 24141.00
1207.246, 24385.00
1208.329, 24296.00
1209.411, 24163.00
1210.493, 24441.00
1211.575, 24445.00
1212.657, 24330.00
1213.738, 24265.00
1214.820, 24537.00
1215.901, 24515.00
1216.982, 24660.00
1218.063, 24604.00
1219.144, 24537.00
1220.225, 24560.00
1221.305, 24555.00
1222.386, 24808.00
1223.466, 24672.00
1224.546, 24669.00
1225.626, 24561.00
1226.706, 24858.00
1227.785, 24771.00
1228.865, 24864.00
1229.944, 24896.00
1231.023, 24746.00
1232.102, 24998.00
1233.181, 24865.00
1234.260, 25042.00
1235.338, 25016.00
1236.417, 25028.00
1237.495, 24925.00
1238.573, 25006.00
1239.651, 25107.00
1240.729, 25052.00
1241.806, 25138.00
1242.884, 25228.00
1243.961, 25037.00
1245.038, 25414.00
1246.115, 24979.00
1247.192, 25231.00
1248.269, 25427.00
1249.345, 25235.00
1250.421, 25428.00
1251.498, 25366.00
1252.574, 25376.00
1253.650, 25420.00
1254.725, 25557.00
