##NAMES=Diopside
##RRUFFID=R060276
##IDEAL CHEMISTRY=CaMgSi_2_O_6_
##LOCALITY=Inagli, Yakutia, Siberia, Russia
##OWNER=RRUFF
##SOURCE=Herb Obodda
##DESCRIPTION=Transparent green cleavage fragment
##STATUS=The identification of this mineral has been confirmed by X-ray diffraction and chemical analysis
##URL=rruff.info/R060276
##MEASURED CHEMISTRY=(Ca_0.97_Na_0.03_)_Σ=1_(Mg_0.96_Fe_0.03_Cr_0.01_)_Σ=1_(Si_1.98_Al_0.02_)_Σ=2_O_6_
##PIN_ID=L01339
##ORIENTATION=Laser parallel to -b* (0 -1 0). Fiducial mark perpendicular to laser is parallel to c [0 0 1]
109.5120, 9946.000
110.7440, 9888.000
111.9760, 9912.000
113.2080, 10086.00
114.4400, 10154.00
115.6710, 10489.00
116.9030, 10554.00
118.1340, 10713.00
119.3650, 10589.00
120.5960, 10849.00
121.8270, 10978.00
123.0580, 11192.00
124.2880, 11492.00
125.5190, 11878.58
126.7490, 12398.76
127.9790, 12870.00
129.2090, 13648.00
130.4390, 14286.00
131.6680, 14981.00
132.8980, 15943.00
134.1270, 16802.00
135.3560, 18003.00
136.5850, 19092.00
137.8140, 19981.00
139.0430, 20270.00
140.2710, 20213.00
141.5000, 19902.00
142.7280, 19462.00
143.9560, 18493.00
145.1840, 17412.00
146.4120, 16128.00
147.6390, 14984.00
148.8670, 14203.00
150.0940, 13399.00
151.3210, 13244.00
152.5490, 12881.00
153.7750, 12544.00
155.0020, 12485.00
156.2290, 12385.00
157.4550, 12387.00
158.6810, 12269.00
159.9080, 12195.00
161.1340, 12245.00
162.3590, 12215.81
163.5850, 12355.00
164.8110, 12294.00
166.0360, 12368.00
167.2610, 12419.00
168.4860, 12310.00
169.7110, 12319.00
170.9360, 12299.00
172.1610, 12290.00
173.3850, 12433.00
174.6100, 12306.00
175.8340, 12377.00
177.0580, 12288.00
178.2820, 12411.00
179.5050, 12436.00
180.7290, 12541.00
181.9520, 12553.00
183.1760, 12673.00
184.3990, 12769.00
185.6220, 12630.00
186.8450, 12716.00
188.0670, 12817.00
189.2900, 12756.00
190.5120, 12976.00
191.7340, 12950.00
192.9560, 13036.00
194.1780, 13033.00
195.4000, 13021.00
196.6220, 13144.00
197.8430, 13034.00
199.0640, 12972.00
200.2860, 12909.00
201.5070, 12980.00
202.7270, 12835.00
203.9480, 12810.00
205.1690, 12907.00
206.3890, 12866.00
207.6090, 12866.00
208.8290, 12786.00
210.0490, 12712.00
211.2690, 12996.00
212.4890, 12965.00
213.7080, 12922.00
214.9280, 13248.00
216.1470, 13165.00
217.3660, 13333.32
218.5850, 13392.00
219.8030, 13549.00
221.0220, 13720.00
222.2400, 13780.00
223.4590, 13870.00
224.6770, 14172.00
225.8950, 14173.00
227.1120, 14450.00
228.3300, 14568.00
229.5480, 14467.00
230.7650, 14552.00
231.9820, 14600.00
233.1990, 14369.00
234.4160, 14295.00
235.6330, 14084.00
236.8490, 13995.00
238.0660, 13951.00
239.2820, 13976.00
240.4980, 13765.00
241.7140, 13833.00
242.9300, 13836.00
244.1460, 13876.00
245.3610, 13944.00
246.5770, 13939.00
247.7920, 14202.00
249.0070, 14120.00
250.2220, 14499.00
251.4370, 14505.00
252.6510, 14485.00
253.8660, 14647.00
255.0800, 14540.00
256.2940, 14683.00
257.5080, 14380.00
258.7220, 14453.00
259.9360, 14245.00
261.1490, 14264.00
262.3630, 14105.00
263.5760, 14087.00
264.7890, 14078.00
266.0020, 14036.00
267.2150, 14056.00
268.4270, 14182.00
269.6400, 14254.00
270.8520, 14157.00
272.0640, 14293.00
273.2760, 14226.00
274.4880, 14217.00
275.7000, 14243.00
276.9120, 14290.00
278.1230, 14315.00
279.3340, 14378.00
280.5450, 14426.32
281.7560, 14532.00
282.9670, 14581.00
284.1780, 14602.00
285.3880, 14759.00
286.5980, 14756.00
287.8090, 14813.31
289.0190, 14745.00
290.2290, 14876.00
291.4380, 14888.00
292.6480, 14920.00
293.8570, 15189.00
295.0670, 15294.00
296.2760, 15386.00
297.4850, 15531.00
298.6930, 15646.00
299.9020, 15807.00
301.1110, 15953.00
302.3190, 15998.00
303.5270, 16079.00
304.7350, 16210.00
305.9430, 16343.00
307.1510, 16405.00
308.3580, 16456.00
309.5660, 16759.00
310.7730, 17117.00
311.9800, 17392.00
313.1870, 17854.00
314.3940, 18356.00
315.6010, 18909.00
316.8070, 19835.00
318.0130, 20425.00
319.2200, 21131.00
320.4260, 22043.00
321.6310, 22632.00
322.8370, 22646.00
324.0430, 22668.00
325.2480, 22317.00
326.4540, 21635.00
327.6590, 21056.00
328.8640, 20277.00
330.0680, 19465.00
331.2730, 18806.00
332.4780, 18234.00
333.6820, 17743.00
334.8860, 17456.00
336.0900, 17364.00
337.2940, 17239.00
338.4980, 17105.00
339.7010, 17052.00
340.9050, 17030.00
342.1080, 17035.00
343.3110, 17214.00
344.5140, 17324.00
345.7170, 17569.00
346.9200, 17723.00
348.1220, 17870.00
349.3240, 18321.00
350.5270, 18864.00
351.7290, 19224.00
352.9310, 19909.00
354.1320, 20388.00
355.3340, 20532.00
356.5350, 20801.00
357.7370, 21061.00
358.9380, 20970.00
360.1390, 20868.00
361.3400, 20544.00
362.5400, 20219.00
363.7410, 20191.00
364.9410, 19734.00
366.1410, 19519.00
367.3410, 19379.00
368.5410, 19162.00
369.7410, 18764.00
370.9400, 18718.00
372.1400, 18636.00
373.3390, 18635.00
374.5380, 18829.00
375.7370, 18910.00
376.9360, 19304.00
378.1350, 19759.00
379.3330, 20392.00
380.5310, 21084.00
381.7300, 22161.00
382.9280, 23166.00
384.1260, 24086.00
385.3230, 25341.00
386.5210, 26541.00
387.7180, 27247.00
388.9160, 27777.00
390.1130, 27805.00
391.3100, 27219.00
392.5060, 26451.00
393.7030, 25188.00
394.9000, 23940.00
396.0960, 22643.00
397.2920, 21479.00
398.4880, 20406.00
399.6840, 19850.00
400.8800, 19168.00
402.0750, 18845.00
403.2710, 18275.00
404.4660, 18262.00
405.6610, 17917.00
406.8560, 17877.00
408.0510, 17674.00
409.2450, 17619.00
410.4400, 17642.00
411.6340, 17520.00
412.8280, 17492.00
414.0220, 17617.00
415.2160, 17429.00
416.4100, 17585.00
417.6030, 17548.00
418.7970, 17531.00
419.9900, 17419.00
421.1830, 17527.00
422.3760, 17465.00
423.5690, 17443.00
424.7610, 17539.00
425.9540, 17595.00
427.1460, 17509.00
428.3380, 17557.00
429.5300, 17511.00
430.7220, 17662.00
431.9140, 17680.00
433.1050, 17767.00
434.2970, 17777.00
435.4880, 17786.07
436.6790, 17746.00
437.8700, 17818.00
439.0610, 17785.00
440.2510, 17894.00
441.4420, 17761.00
442.6320, 17716.00
443.8220, 17818.00
445.0120, 17747.00
446.2020, 17823.00
447.3910, 17974.00
448.5810, 18072.00
449.7700, 18139.06
450.9600, 18191.73
452.1490, 18229.00
453.3370, 18223.00
454.5260, 18190.00
455.7150, 18192.00
456.9030, 18240.00
458.0910, 18234.00
459.2800, 18396.00
460.4670, 18520.00
461.6550, 18661.00
462.8430, 18458.00
464.0300, 18546.00
465.2180, 18596.00
466.4050, 18630.00
467.5920, 18665.00
468.7790, 18640.00
469.9650, 18700.00
471.1520, 18610.00
472.3380, 18741.00
473.5250, 18700.16
474.7110, 18602.00
475.8970, 18609.00
477.0820, 18650.00
478.2680, 18425.00
479.4540, 18692.00
480.6390, 18613.00
481.8240, 18947.00
483.0090, 18861.00
484.1940, 18746.00
485.3780, 18712.00
486.5630, 18617.00
487.7470, 18896.00
488.9320, 18818.00
490.1160, 18842.00
491.3000, 19008.00
492.4830, 18833.00
493.6670, 19085.00
494.8500, 19068.00
496.0340, 19187.00
497.2170, 19240.00
498.4000, 19382.00
499.5820, 19539.00
500.7650, 19638.00
501.9480, 19710.00
503.1300, 20026.00
504.3120, 20109.00
505.4940, 20183.00
506.6760, 20421.00
507.8580, 20442.00
509.0390, 20415.00
510.2210, 20486.00
511.4020, 20312.00
512.5830, 20242.00
513.7640, 20103.00
514.9450, 20055.00
516.1250, 20032.00
517.3060, 19889.00
518.4860, 19876.00
519.6660, 19827.00
520.8460, 20024.00
522.0260, 19806.00
523.2060, 20280.00
524.3850, 20085.00
525.5650, 19975.00
526.7440, 20192.00
527.9230, 20149.00
529.1020, 19981.00
530.2810, 20254.00
531.4590, 20293.00
532.6380, 20132.00
533.8160, 20165.00
534.9940, 20357.00
536.1720, 20320.00
537.3500, 20269.00
538.5270, 20444.00
539.7050, 20323.00
540.8820, 20287.00
542.0590, 20287.00
543.2360, 20377.00
544.4130, 20417.00
545.5900, 20427.00
546.7660, 20514.00
547.9430, 20572.00
549.1190, 20728.00
550.2950, 20847.00
551.4710, 20967.00
552.6470, 21158.00
553.8220, 21285.00
554.9980, 21409.00
556.1730, 21545.00
557.3480, 21844.00
558.5230, 21553.00
559.6980, 21742.00
560.8730, 21701.00
562.0470, 21400.00
563.2220, 21234.00
564.3960, 21407.00
565.5700, 21103.00
566.7440, 20944.00
567.9170, 20858.00
569.0910, 21024.00
570.2640, 20899.00
571.4380, 20940.00
572.6110, 21000.00
573.7840, 21034.00
574.9570, 20959.00
576.1290, 20826.00
577.3020, 20935.00
578.4740, 20933.00
579.6460, 20707.00
580.8180, 20942.00
581.9900, 20892.00
583.1620, 20948.00
584.3330, 21019.00
585.5040, 20855.00
586.6760, 21122.00
587.8470, 21085.00
589.0180, 21203.00
590.1880, 21000.00
591.3590, 20990.00
592.5290, 21142.00
593.7000, 21083.00
594.8700, 21042.00
596.0400, 21088.00
597.2090, 21050.87
598.3790, 21244.00
599.5490, 21091.00
600.7180, 21196.00
601.8870, 21304.00
603.0560, 21270.00
604.2250, 21217.00
605.3940, 21242.00
606.5620, 21333.00
607.7300, 21356.00
608.8990, 21440.00
610.0670, 21416.00
611.2350, 21772.00
612.4020, 21646.00
613.5700, 21610.00
614.7370, 21811.00
615.9050, 21711.00
617.0720, 21972.00
618.2390, 21807.00
619.4060, 21942.00
620.5720, 21956.00
621.7390, 22021.00
622.9050, 22239.00
624.0710, 22100.00
625.2370, 22428.00
626.4030, 22551.00
627.5690, 22531.00
628.7340, 22485.00
629.9000, 22605.00
631.0650, 22830.00
632.2300, 22880.00
633.3950, 23033.32
634.5600, 23104.00
635.7240, 23185.00
636.8890, 23249.00
638.0530, 23413.20
639.2170, 23582.00
640.3810, 23738.00
641.5450, 23818.00
642.7080, 23932.00
643.8720, 24089.00
645.0350, 24343.46
646.1980, 24645.00
647.3610, 25076.00
648.5240, 25455.00
649.6870, 26114.00
650.8490, 26713.00
652.0120, 27395.00
653.1740, 28486.00
654.3360, 29699.00
655.4980, 31560.00
656.6600, 33637.00
657.8210, 35916.00
658.9830, 38914.00
660.1440, 41924.00
661.3050, 45034.00
662.4660, 47756.00
663.6270, 49797.00
664.7870, 50982.00
665.9480, 51150.00
667.1080, 49852.00
668.2680, 47730.00
669.4280, 44739.00
670.5880, 41423.00
671.7480, 38556.00
672.9070, 35403.00
674.0670, 33097.00
675.2260, 31091.00
676.3850, 29729.00
677.5440, 28542.00
678.7030, 27649.00
679.8610, 27013.00
681.0200, 26442.00
682.1780, 26011.00
683.3360, 25434.00
684.4940, 25299.00
685.6520, 25021.00
686.8090, 24981.00
687.9670, 24718.00
689.1240, 24663.00
690.2810, 24458.00
691.4380, 24377.00
692.5950, 24406.00
693.7520, 24270.00
694.9080, 24292.00
696.0650, 24230.00
697.2210, 24190.00
698.3770, 24172.00
699.5330, 24268.00
700.6880, 24246.00
701.8440, 24088.00
702.9990, 23851.00
704.1550, 24079.00
705.3100, 24113.00
706.4650, 24221.00
707.6190, 24084.00
708.7740, 24081.00
709.9290, 24070.00
711.0830, 24071.15
712.2370, 24095.02
713.3910, 24145.00
714.5450, 24162.00
715.6980, 24169.00
716.8520, 24215.00
718.0050, 24142.00
719.1580, 24145.00
720.3110, 24166.00
721.4640, 24185.00
722.6170, 24192.59
723.7700, 24298.00
724.9220, 24159.00
726.0740, 24200.00
727.2260, 24066.00
728.3780, 24366.00
729.5300, 24387.00
730.6810, 24369.00
731.8330, 24369.00
732.9840, 24402.00
734.1350, 24329.00
735.2860, 24415.00
736.4370, 24307.00
737.5880, 24544.00
738.7380, 24513.00
739.8880, 24512.00
741.0390, 24736.00
742.1890, 24638.00
743.3380, 24610.00
744.4880, 24738.00
745.6380, 24783.00
746.7870, 24751.00
747.9360, 24865.00
749.0850, 24553.00
750.2340, 24842.00
751.3830, 24883.00
752.5310, 24713.00
753.6800, 24939.00
754.8280, 25027.00
755.9760, 24977.00
757.1240, 24872.00
758.2720, 25030.00
759.4190, 24900.00
760.5670, 24882.00
761.7140, 25138.00
762.8610, 25060.00
764.0080, 25153.00
765.1550, 25026.00
766.3020, 25154.00
767.4480, 25289.00
768.5950, 25147.00
769.7410, 25319.00
770.8870, 25303.00
772.0330, 25531.00
773.1780, 25328.00
774.3240, 25466.00
775.4690, 25410.00
776.6140, 25648.00
777.7590, 25661.00
778.9040, 25463.00
780.0490, 25540.00
781.1940, 25613.00
782.3380, 25706.00
783.4820, 25714.00
784.6260, 25792.76
785.7700, 25731.00
786.9140, 25907.00
788.0580, 25778.00
789.2010, 25841.00
790.3450, 25674.00
791.4880, 26017.00
792.6310, 25950.00
793.7730, 25862.00
794.9160, 26065.00
796.0590, 26013.00
797.2010, 26028.00
798.3430, 26004.00
799.4850, 26164.00
800.6270, 26062.00
801.7690, 26117.00
802.9100, 26356.00
804.0520, 26182.00
805.1930, 26345.00
806.3340, 26238.00
807.4750, 26046.00
808.6160, 26379.00
809.7560, 26491.00
810.8970, 26315.00
812.0370, 26524.00
813.1770, 26204.00
814.3170, 26460.00
815.4570, 26724.00
816.5960, 26622.00
817.7360, 26745.00
818.8750, 26560.00
820.0140, 26721.00
821.1530, 26674.00
822.2920, 26753.00
823.4310, 26894.00
824.5690, 26878.00
825.7070, 26894.00
826.8460, 27021.00
827.9840, 26902.00
829.1220, 27099.00
830.2590, 27039.00
831.3970, 27361.00
832.5340, 27035.00
833.6710, 27083.00
834.8080, 27320.00
835.9450, 27152.00
837.0820, 27342.00
838.2190, 27366.00
839.3550, 27848.00
840.4910, 27531.00
841.6270, 27888.00
842.7630, 28120.00
843.8990, 27935.00
845.0350, 28560.00
846.1700, 28932.00
847.3060, 29201.00
848.4410, 29537.00
849.5760, 30100.00
850.7100, 30670.00
851.8450, 31253.00
852.9800, 31203.00
854.1140, 31376.00
855.2480, 31322.00
856.3820, 31156.00
857.5160, 31042.00
858.6500, 30527.00
859.7830, 30349.00
860.9170, 29980.00
862.0500, 29566.00
863.1830, 29176.00
864.3160, 29095.00
865.4480, 29086.00
866.5810, 29090.00
867.7130, 28947.00
868.8460, 28828.00
869.9780, 28997.00
871.1100, 28935.00
872.2410, 28778.00
873.3730, 29040.00
874.5050, 28979.00
875.6360, 28932.00
876.7670, 28816.00
877.8980, 28846.00
879.0290, 28835.05
880.1590, 28812.00
881.2900, 28888.00
882.4200, 28947.00
883.5500, 28946.00
884.6800, 29121.00
885.8100, 29168.00
886.9400, 29169.00
888.0690, 29186.00
889.1990, 29039.00
890.3280, 29074.00
891.4570, 29170.00
892.5860, 29284.00
893.7140, 29373.00
894.8430, 29400.87
895.9710, 29417.06
897.1000, 29405.00
898.2280, 29370.00
899.3560, 29318.00
900.4830, 29294.00
901.6110, 29441.00
902.7380, 29481.00
903.8660, 29571.00
904.9930, 29456.00
906.1200, 29636.00
907.2460, 29638.00
908.3730, 29495.00
909.5000, 29775.00
910.6260, 29790.00
911.7520, 29724.00
912.8780, 29847.00
914.0040, 29593.00
915.1290, 29522.00
916.2550, 29697.00
917.3800, 29733.00
918.5050, 29798.00
919.6300, 29688.00
920.7550, 29701.00
921.8800, 29787.00
923.0040, 29742.00
924.1290, 29902.00
925.2530, 29966.00
926.3770, 30001.25
927.5010, 30004.00
928.6250, 30047.00
929.7480, 30100.00
930.8720, 29997.00
931.9950, 30281.00
933.1180, 30222.00
934.2410, 30169.00
935.3640, 30125.00
936.4860, 30088.93
937.6090, 30119.00
938.7310, 30104.00
939.8530, 30239.00
940.9750, 30415.00
942.0970, 30417.00
943.2180, 30481.00
944.3400, 30468.00
945.4610, 30177.00
946.5820, 30517.00
947.7030, 30469.00
948.8240, 30852.00
949.9450, 30596.00
951.0650, 30753.00
952.1860, 30820.00
953.3060, 30907.00
954.4260, 30979.00
955.5460, 31018.00
956.6650, 31001.00
957.7850, 31099.00
958.9040, 31427.00
960.0230, 30940.00
961.1420, 31410.00
962.2610, 31395.00
963.3800, 31120.00
964.4990, 31207.00
965.6170, 31195.00
966.7350, 31496.00
967.8530, 31535.00
968.9710, 31534.00
970.0890, 31631.00
971.2070, 31609.00
972.3240, 31988.00
973.4410, 31840.00
974.5580, 31610.00
975.6750, 32012.00
976.7920, 31988.00
977.9090, 31970.00
979.0250, 32244.00
980.1410, 32273.00
981.2580, 32377.00
982.3740, 32364.00
983.4890, 32639.00
984.6050, 32620.00
985.7200, 32898.00
986.8360, 32950.00
987.9510, 33072.00
989.0660, 33292.00
990.1810, 33428.00
991.2950, 33612.00
992.4100, 33675.00
993.5240, 34229.00
994.6390, 34497.00
995.7530, 34912.00
996.8660, 35032.00
997.9800, 35730.00
999.0940, 36457.00
1000.207, 37259.00
1001.320, 38629.00
1002.433, 40112.00
1003.546, 42119.00
1004.659, 44225.00
1005.772, 47872.00
1006.884, 51425.00
1007.996, 55075.00
1009.108, 58991.00
1010.220, 62578.00
1011.332, 63832.00
1012.444, 64286.00
1013.555, 62826.00
1014.666, 59527.00
1015.777, 55886.00
1016.888, 51524.00
1017.999, 47619.00
1019.110, 44448.00
1020.220, 41820.00
1021.331, 39950.00
1022.441, 38675.00
1023.551, 37749.00
1024.661, 36954.00
1025.770, 36518.00
1026.880, 36170.00
1027.989, 36042.00
1029.098, 35622.00
1030.207, 35592.00
1031.316, 35656.00
1032.425, 35521.00
1033.533, 35648.00
1034.642, 35711.00
1035.750, 35590.00
1036.858, 35958.00
1037.966, 35813.00
1039.073, 36487.00
1040.181, 36637.00
1041.288, 37036.00
1042.396, 37160.00
1043.503, 37854.00
1044.610, 38194.00
1045.716, 38344.00
1046.823, 38434.00
1047.929, 37964.00
1049.036, 37729.00
1050.142, 37242.00
1051.248, 37082.00
1052.353, 36238.00
1053.459, 36253.00
1054.564, 35735.00
1055.670, 35410.00
1056.775, 35069.00
1057.880, 35372.00
1058.985, 34987.00
1060.089, 35138.00
1061.194, 35063.11
1062.298, 34963.94
1063.402, 34928.00
1064.506, 34904.00
1065.610, 34836.00
1066.713, 34828.00
1067.817, 34862.00
1068.920, 34808.00
1070.023, 34797.00
1071.126, 34887.00
1072.229, 34650.00
1073.332, 34709.00
1074.435, 34665.00
1075.537, 34890.00
1076.639, 34580.00
1077.741, 34797.00
1078.843, 34802.00
1079.945, 34978.00
1081.046, 34576.00
1082.148, 35104.00
1083.249, 34905.00
1084.350, 34882.00
1085.451, 35188.00
1086.551, 35661.00
1087.652, 35419.00
1088.752, 35561.00
1089.853, 35382.00
1090.953, 35221.00
1092.053, 35127.00
1093.152, 35098.00
1094.252, 35296.00
1095.351, 35190.00
1096.451, 35367.00
1097.550, 35280.00
1098.649, 35125.00
1099.748, 35493.00
1100.846, 35170.00
1101.945, 35567.00
1103.043, 35462.00
1104.141, 35166.00
1105.239, 35299.00
1106.337, 35354.00
1107.434, 35673.00
1108.532, 35800.00
1109.629, 35641.00
1110.726, 35513.00
1111.823, 35614.00
1112.920, 35686.00
1114.017, 35761.00
1115.113, 35798.00
1116.210, 35768.00
1117.306, 35987.00
1118.402, 36015.05
1119.498, 36340.00
1120.593, 36137.00
1121.689, 36225.00
1122.784, 36095.00
1123.879, 36238.00
1124.974, 36456.00
1126.069, 36270.00
1127.164, 36256.00
1128.259, 36364.00
1129.353, 36306.00
1130.447, 36397.29
1131.541, 36257.00
1132.635, 36541.00
1133.729, 36425.00
1134.822, 36496.00
1135.916, 36410.00
1137.009, 36590.00
1138.102, 36597.00
1139.195, 36532.00
1140.288, 36529.00
1141.380, 36681.00
1142.473, 36597.00
1143.565, 36594.00
1144.657, 36513.00
1145.749, 36587.00
1146.841, 36634.00
1147.932, 36751.00
1149.024, 36734.00
1150.115, 36774.00
1151.206, 36803.14
1152.297, 37023.00
1153.388, 36872.00
1154.479, 36955.00
1155.569, 37094.00
1156.659, 36984.00
1157.750, 36846.00
1158.839, 36989.00
1159.929, 36967.00
1161.019, 37082.00
1162.108, 37097.00
1163.198, 36900.00
1164.287, 37054.00
1165.376, 37106.00
1166.465, 37298.00
1167.553, 37132.00
1168.642, 37186.00
1169.730, 37219.00
1170.818, 37515.00
1171.906, 37541.00
1172.994, 37526.00
1174.082, 37447.00
1175.170, 37519.76
1176.257, 37579.00
1177.344, 37633.00
1178.431, 37681.14
1179.518, 37602.00
1180.605, 37698.00
1181.691, 37752.00
1182.778, 37625.00
1183.864, 37673.00
1184.950, 37972.00
1186.036, 37694.00
1187.122, 37771.00
1188.207, 38032.00
1189.292, 37799.00
1190.378, 37930.00
1191.463, 38052.00
1192.548, 37983.00
1193.632, 38193.00
1194.717, 38109.00
1195.801, 38121.00
1196.886, 38189.00
1197.970, 38274.00
1199.054, 38004.00
1200.137, 38618.00
1201.221, 38225.00
1202.305, 38629.00
1203.388, 38447.00
1204.471, 38647.00
1205.554, 38847.00
1206.637, 38721.00
1207.719, 38759.00
1208.802, 38591.00
1209.884, 38802.00
1210.966, 38811.00
1212.048, 38662.00
1213.130, 38896.00
1214.212, 38947.00
1215.293, 38717.00
1216.374, 39212.00
1217.456, 38881.00
1218.536, 38975.00
1219.617, 39068.00
1220.698, 39181.00
1221.778, 39091.00
1222.859, 39024.00
1223.939, 38992.00
1225.019, 39170.00
1226.099, 39358.00
1227.178, 38997.00
1228.258, 39389.00
1229.337, 39258.00
1230.417, 39416.00
1231.496, 39267.00
1232.574, 39766.00
1233.653, 39602.00
1234.732, 39574.00
1235.810, 39697.00
1236.888, 39640.00
1237.966, 39820.00
1239.044, 39799.00
1240.122, 39787.00
1241.199, 40074.00
1242.277, 39868.00
1243.354, 40045.00
1244.431, 39651.00
1245.508, 39987.00
1246.585, 39981.00
1247.661, 40077.00
1248.738, 40226.00
1249.814, 40276.00
1250.890, 40114.00
1251.966, 40305.00
1253.042, 40456.00
1254.117, 40241.00
1255.193, 40352.00
1256.268, 40218.00
1257.343, 40339.00
1258.418, 40495.00
1259.493, 40492.00
1260.567, 40538.00
1261.642, 40842.00
1262.716, 40399.00
1263.790, 40563.00
1264.864, 40803.00
1265.938, 40787.00
1267.011, 40857.00
1268.085, 40694.00
1269.158, 40809.00
1270.231, 40899.00
1271.304, 40941.00
1272.377, 41007.18
1273.450, 41097.58
1274.522, 41093.00
1275.594, 41274.00
1276.666, 41354.00
1277.738, 41436.00
1278.810, 41252.00
1279.882, 41246.00
1280.953, 41235.00
1282.025, 41564.00
1283.096, 41356.00
1284.167, 41355.00
1285.238, 41417.00
1286.308, 41195.00
1287.379, 41402.00
