##NAMES=Diopside
##RRUFFID=R040097
##IDEAL CHEMISTRY=CaMgSi_2_O_6_
##LOCALITY=Fassathal, Tyrol
##OWNER=RRUFF
##SOURCE=University of Arizona Mineral Museum
##DESCRIPTION=Green prismatic crystals
##STATUS=The identification of this mineral has been confirmed by X-ray diffraction and chemical analysis
##URL=rruff.info/R040097
##MEASURED CHEMISTRY=Ca_1.00_(Mg_0.83_Al_0.10_Fe_0.09_Ca_0.02_Ti_0.02_)(Si_0.88_Al_0.12_)_2_O_6_
##PIN_ID=L00346
##ORIENTATION=Laser parallel to a [1 0 0]. Fiducial mark perpendicular to laser is parallel to b* (0 1 0)
65.21800, 8745.000
66.45100, 9810.000
67.68400, 11523.00
68.91600, 13754.00
70.14900, 16120.00
71.38100, 19411.00
72.61300, 22835.00
73.84500, 27813.00
75.07600, 33180.00
76.30800, 38681.00
77.54000, 45733.00
78.77100, 53457.00
80.00200, 60914.00
81.23300, 69198.00
82.46400, 78030.00
83.69500, 87922.00
84.92600, 97305.00
86.15700, 106555.0
87.38700, 115685.0
88.61700, 123613.0
89.84800, 132054.0
91.07800, 139217.0
92.30800, 147322.0
93.53700, 154017.0
94.76700, 160243.0
95.99600, 165877.0
97.22600, 170392.0
98.45500, 175044.0
99.68400, 178592.0
100.9130, 182371.9
102.1420, 186073.0
103.3710, 188757.0
104.5990, 191746.0
105.8280, 194423.0
107.0560, 197665.0
108.2840, 199723.0
109.5120, 201284.0
110.7400, 202849.0
111.9680, 203693.0
113.1950, 205957.0
114.4230, 206226.0
115.6500, 208476.0
116.8780, 210391.0
118.1050, 211776.0
119.3320, 213704.0
120.5580, 214507.0
121.7850, 215893.6
123.0120, 216980.0
124.2380, 217936.0
125.4640, 218423.0
126.6900, 219130.0
127.9160, 220820.0
129.1420, 222291.0
130.3680, 223812.0
131.5940, 226220.0
132.8190, 228395.0
134.0440, 231353.0
135.2700, 234186.0
136.4950, 238909.0
137.7200, 243273.0
138.9440, 249246.0
140.1690, 253896.0
141.3930, 258736.0
142.6180, 263091.0
143.8420, 264617.0
145.0660, 265520.0
146.2900, 264381.0
147.5140, 262646.0
148.7380, 256800.0
149.9610, 252510.0
151.1850, 248151.0
152.4080, 244937.0
153.6310, 241693.0
154.8540, 239889.0
156.0770, 237201.0
157.3000, 237384.0
158.5220, 235173.0
159.7450, 235373.0
160.9670, 234326.0
162.1890, 233173.0
163.4110, 233910.0
164.6330, 233510.0
165.8550, 234267.0
167.0760, 233808.0
168.2980, 234311.0
169.5190, 235182.0
170.7410, 234461.0
171.9620, 236045.0
173.1830, 236417.0
174.4030, 236008.0
175.6240, 238242.0
176.8450, 238449.0
178.0650, 240293.0
179.2850, 240616.0
180.5050, 242349.0
181.7250, 243613.0
182.9450, 245800.0
184.1650, 247817.0
185.3840, 250341.0
186.6040, 252635.0
187.8230, 253923.0
189.0420, 253958.0
190.2610, 252066.0
191.4800, 251233.0
192.6990, 249263.0
193.9180, 248511.0
195.1360, 247522.0
196.3540, 247660.0
197.5730, 246876.0
198.7910, 247072.0
200.0080, 247639.0
201.2260, 248033.0
202.4440, 248327.6
203.6610, 248720.0
204.8790, 248963.0
206.0960, 249466.0
207.3130, 249790.0
208.5300, 249981.0
209.7470, 251370.0
210.9630, 251429.0
212.1800, 252701.0
213.3960, 251950.0
214.6130, 253291.0
215.8290, 253803.0
217.0450, 254618.0
218.2600, 255473.0
219.4760, 256404.0
220.6920, 257438.0
221.9070, 258627.0
223.1220, 259998.0
224.3370, 260803.0
225.5520, 263660.0
226.7670, 264050.0
227.9820, 266742.0
229.1970, 267934.0
230.4110, 269698.0
231.6250, 270641.0
232.8390, 272028.0
234.0530, 271036.0
235.2670, 270956.0
236.4810, 269888.0
237.6950, 269747.0
238.9080, 269392.0
240.1210, 269114.0
241.3350, 269796.0
242.5480, 269053.0
243.7600, 271293.0
244.9730, 270544.0
246.1860, 271549.0
247.3980, 270945.0
248.6110, 273079.0
249.8230, 272959.0
251.0350, 274922.0
252.2470, 276044.0
253.4580, 277682.0
254.6700, 278224.0
255.8820, 279745.0
257.0930, 279825.0
258.3040, 280255.0
259.5150, 279667.0
260.7260, 278879.0
261.9370, 277715.0
263.1480, 277040.0
264.3580, 276621.0
265.5680, 274875.0
266.7790, 275331.0
267.9890, 273924.0
269.1990, 274484.0
270.4080, 273473.0
271.6180, 274575.0
272.8280, 274554.0
274.0370, 274462.0
275.2460, 274441.0
276.4550, 275469.0
277.6640, 275175.0
278.8730, 276121.0
280.0820, 276296.0
281.2900, 277001.0
282.4990, 278369.0
283.7070, 277947.0
284.9150, 278505.0
286.1230, 280020.0
287.3310, 280487.0
288.5380, 280747.0
289.7460, 281158.0
290.9530, 282401.0
292.1600, 282614.0
293.3680, 284002.0
294.5740, 283827.0
295.7810, 285026.0
296.9880, 285471.0
298.1940, 287026.0
299.4010, 287921.0
300.6070, 288884.6
301.8130, 289405.0
303.0190, 291067.0
304.2250, 291986.0
305.4310, 293397.0
306.6360, 294242.0
307.8420, 295983.0
309.0470, 297623.0
310.2520, 299628.7
311.4570, 301774.0
312.6620, 304275.0
313.8660, 307224.0
315.0710, 309699.0
316.2750, 313319.0
317.4800, 316497.0
318.6840, 321403.0
319.8880, 326835.0
321.0910, 330173.0
322.2950, 334330.0
323.4990, 339841.0
324.7020, 342744.0
325.9050, 345982.0
327.1080, 349280.0
328.3110, 348216.0
329.5140, 347769.0
330.7170, 345211.0
331.9190, 343639.0
333.1220, 339960.0
334.3240, 338000.0
335.5260, 334594.0
336.7280, 331769.0
337.9300, 328811.0
339.1320, 326530.0
340.3330, 325183.0
341.5340, 323205.0
342.7360, 322684.0
343.9370, 321326.0
345.1380, 321305.0
346.3390, 320757.4
347.5390, 320365.0
348.7400, 320211.0
349.9400, 319789.0
351.1400, 319311.0
352.3400, 319702.0
353.5400, 318851.0
354.7400, 319332.0
355.9400, 319045.0
357.1390, 319402.0
358.3390, 318916.0
359.5380, 318800.0
360.7370, 318885.0
361.9360, 317625.0
363.1350, 318033.0
364.3330, 317624.0
365.5320, 317158.0
366.7300, 317416.0
367.9280, 316473.0
369.1260, 317138.0
370.3240, 316853.0
371.5220, 316844.0
372.7200, 317506.0
373.9170, 318116.0
375.1140, 317726.0
376.3120, 318962.0
377.5090, 318431.0
378.7060, 320091.0
379.9020, 319936.0
381.0990, 320576.0
382.2950, 322231.0
383.4920, 323736.0
384.6880, 325145.4
385.8840, 326556.0
387.0800, 328844.0
388.2760, 330734.0
389.4710, 333408.0
390.6670, 333912.0
391.8620, 335400.0
393.0570, 336339.0
394.2520, 336937.0
395.4470, 336101.0
396.6420, 334288.0
397.8360, 333259.0
399.0310, 331405.0
400.2250, 329007.0
401.4190, 327166.0
402.6130, 325480.0
403.8070, 323872.4
405.0000, 322697.0
406.1940, 321563.0
407.3870, 320999.0
408.5810, 320681.0
409.7740, 320025.0
410.9670, 319631.0
412.1600, 319104.0
413.3520, 319791.0
414.5450, 319382.0
415.7370, 320016.0
416.9290, 320874.0
418.1210, 320258.0
419.3130, 320750.0
420.5050, 320672.0
421.6970, 320999.0
422.8880, 321420.0
424.0800, 323828.0
425.2710, 324851.0
426.4620, 323127.0
427.6530, 324647.0
428.8440, 323783.0
430.0340, 324229.0
431.2250, 324516.0
432.4150, 324681.0
433.6050, 325176.0
434.7950, 325944.0
435.9850, 325309.0
437.1750, 326511.0
438.3640, 326875.0
439.5540, 327268.0
440.7430, 326285.0
441.9320, 327955.0
443.1210, 327607.0
444.3100, 328212.0
445.4990, 328549.0
446.6870, 329033.0
447.8760, 329441.0
449.0640, 329743.0
450.2520, 330623.0
451.4400, 330432.0
452.6280, 330854.0
453.8150, 332511.0
455.0030, 332314.0
456.1900, 331681.0
457.3780, 333178.0
458.5650, 333374.0
459.7520, 334621.0
460.9380, 333527.0
462.1250, 334819.0
463.3110, 335585.0
464.4980, 335497.0
465.6840, 336165.0
466.8700, 336699.0
468.0560, 337500.0
469.2420, 337300.0
470.4270, 337206.0
471.6130, 338009.0
472.7980, 338079.0
473.9830, 338542.0
475.1680, 338767.0
476.3530, 340449.0
477.5380, 338950.0
478.7220, 340532.0
479.9070, 340214.0
481.0910, 341057.0
482.2750, 341818.0
483.4590, 342362.0
484.6430, 342654.0
485.8260, 343683.0
487.0100, 343813.0
488.1930, 344266.0
489.3760, 345234.0
490.5590, 345307.0
491.7420, 346827.0
492.9250, 347304.0
494.1080, 348383.0
495.2900, 348946.0
496.4730, 349789.0
497.6550, 351034.0
498.8370, 352747.0
500.0190, 354266.0
501.2000, 356583.0
502.3820, 359573.0
503.5630, 361271.0
504.7450, 364885.0
505.9260, 367454.0
507.1070, 371625.0
508.2870, 374744.0
509.4680, 375859.0
510.6490, 377196.0
511.8290, 376836.0
513.0090, 376091.0
514.1890, 373363.0
515.3690, 372891.0
516.5490, 369500.0
517.7290, 368795.0
518.9080, 367021.0
520.0870, 366879.0
521.2670, 365512.0
522.4460, 365145.0
523.6240, 364741.0
524.8030, 365195.0
525.9820, 364867.0
527.1600, 365065.0
528.3380, 366294.0
529.5170, 366133.0
530.6950, 366790.0
531.8720, 366469.0
533.0500, 367660.0
534.2280, 367916.0
535.4050, 368556.0
536.5820, 369205.0
537.7590, 368448.0
538.9360, 369858.0
540.1130, 370027.0
541.2890, 370679.0
542.4660, 369410.0
543.6420, 369353.0
544.8180, 370890.0
545.9940, 370130.0
547.1700, 370704.0
548.3460, 370820.0
549.5220, 371034.0
550.6970, 371073.0
551.8720, 372025.0
553.0470, 372389.0
554.2220, 373913.0
555.3970, 374348.0
556.5720, 374098.0
557.7460, 374609.0
558.9200, 374268.0
560.0950, 375845.0
561.2690, 375088.0
562.4430, 376576.0
563.6160, 375893.0
564.7900, 376782.0
565.9630, 377018.0
567.1370, 378956.0
568.3100, 377414.0
569.4830, 378149.0
570.6560, 378718.0
571.8280, 378335.0
573.0010, 378270.0
574.1730, 378142.0
575.3450, 379405.0
576.5170, 380091.0
577.6890, 378889.0
578.8610, 381149.0
580.0330, 380746.0
581.2040, 380375.0
582.3760, 379865.0
583.5470, 380823.0
584.7180, 380429.0
585.8890, 381685.0
587.0590, 380841.0
588.2300, 381950.0
589.4000, 382317.0
590.5700, 381471.0
591.7410, 382482.0
592.9100, 381329.0
594.0800, 382722.0
595.2500, 382701.0
596.4190, 383923.0
597.5890, 383267.0
598.7580, 383525.0
599.9270, 384248.0
601.0960, 384507.0
602.2640, 384575.0
603.4330, 384748.0
604.6010, 385264.0
605.7700, 385898.0
606.9380, 386005.0
608.1060, 387385.0
609.2740, 387166.0
610.4410, 387618.0
611.6090, 388405.0
612.7760, 389577.0
613.9430, 389209.0
615.1100, 390352.0
616.2770, 390777.0
617.4440, 390800.0
618.6100, 391987.0
619.7770, 392441.0
620.9430, 393762.0
622.1090, 394336.0
623.2750, 395053.0
624.4410, 394701.0
625.6070, 395455.0
626.7720, 396002.0
627.9370, 398525.0
629.1030, 398871.0
630.2680, 399009.0
631.4330, 400430.0
632.5970, 400710.0
633.7620, 402260.0
634.9260, 403169.0
636.0910, 404531.7
637.2550, 405813.0
638.4190, 407463.0
639.5820, 408800.0
640.7460, 409994.0
641.9100, 412382.0
643.0730, 413637.0
644.2360, 415863.0
645.3990, 416742.0
646.5620, 419426.2
647.7250, 422654.0
648.8870, 425157.0
650.0500, 428731.0
651.2120, 432957.0
652.3740, 438236.0
653.5360, 441676.0
654.6980, 448984.0
655.8600, 455277.0
657.0210, 463356.0
658.1820, 473727.0
659.3440, 484307.0
660.5050, 496708.0
661.6650, 509486.0
662.8260, 526338.0
663.9870, 540746.0
665.1470, 557872.0
666.3070, 571030.0
667.4670, 578156.0
668.6270, 580645.0
669.7870, 577383.0
670.9470, 567492.0
672.1060, 553901.0
673.2660, 538608.0
674.4250, 521062.0
675.5840, 506361.0
676.7430, 493217.0
677.9010, 482657.0
679.0600, 471581.0
680.2180, 464185.0
681.3770, 459593.0
682.5350, 451520.0
683.6930, 449678.0
684.8500, 442798.0
686.0080, 441307.0
687.1650, 438052.0
688.3230, 436442.0
689.4800, 434897.0
690.6370, 431944.0
691.7940, 432045.0
692.9500, 430644.0
694.1070, 430368.0
695.2630, 429358.0
696.4200, 428233.0
697.5760, 428362.0
698.7310, 428713.0
699.8870, 427643.0
701.0430, 427545.0
702.1980, 427216.0
703.3540, 426889.0
704.5090, 427588.0
705.6640, 427592.0
706.8180, 428447.0
707.9730, 427982.0
709.1280, 428304.0
710.2820, 429002.0
711.4360, 428267.0
712.5900, 427645.0
713.7440, 428807.0
714.8980, 427776.0
716.0510, 428360.0
717.2050, 429208.0
718.3580, 428673.0
719.5110, 428705.0
720.6640, 428915.0
721.8170, 429211.0
722.9690, 430395.0
724.1220, 429845.0
725.2740, 431224.0
726.4260, 430933.0
727.5780, 431309.0
728.7300, 431431.0
729.8820, 431906.0
731.0330, 432616.0
732.1850, 433101.0
733.3360, 432789.0
734.4870, 433740.0
735.6380, 433254.0
736.7890, 435241.0
737.9390, 433975.0
739.0900, 436088.0
740.2400, 434878.0
741.3900, 437903.0
742.5400, 437226.0
743.6900, 437864.0
744.8390, 436938.0
745.9890, 438985.0
747.1380, 439167.0
748.2870, 439674.0
749.4360, 441131.0
750.5850, 440332.0
751.7340, 441882.0
752.8830, 442325.0
754.0310, 442503.0
755.1790, 443617.0
756.3270, 444117.7
757.4750, 444696.8
758.6230, 445631.0
759.7700, 445834.0
760.9180, 446356.0
762.0650, 446798.0
763.2120, 447451.2
764.3590, 448664.0
765.5060, 448967.0
766.6530, 449954.0
767.7990, 450780.0
768.9460, 449952.0
770.0920, 451508.0
771.2380, 453057.0
772.3840, 452441.0
773.5290, 453473.0
774.6750, 452442.0
775.8200, 454738.0
776.9650, 453746.0
778.1100, 453880.0
779.2550, 454247.0
780.4000, 455507.0
781.5450, 456772.0
782.6890, 456425.0
783.8330, 456306.0
784.9780, 457683.0
786.1220, 459549.0
787.2650, 459083.0
788.4090, 459557.0
789.5520, 459693.0
790.6960, 459535.0
791.8390, 460413.0
792.9820, 460730.0
794.1250, 461322.4
795.2670, 461442.0
796.4100, 462810.0
797.5520, 463451.0
798.6950, 464403.0
799.8370, 464267.0
800.9790, 465372.0
802.1200, 464484.0
803.2620, 465215.0
804.4030, 466595.0
805.5450, 466897.0
806.6860, 467716.0
807.8270, 468235.0
808.9670, 468630.0
810.1080, 469820.0
811.2480, 469398.0
812.3890, 472282.0
813.5290, 471819.0
814.6690, 472367.0
815.8090, 474902.0
816.9480, 474504.0
818.0880, 475595.0
819.2270, 475721.0
820.3660, 479226.0
821.5050, 478991.0
822.6440, 480064.0
823.7830, 481692.0
824.9220, 482370.0
826.0600, 482577.0
827.1980, 481590.0
828.3360, 482380.0
829.4740, 481974.0
830.6120, 482502.7
831.7490, 482911.1
832.8870, 483372.0
834.0240, 483756.0
835.1610, 483265.0
836.2980, 483451.0
837.4350, 483163.0
838.5720, 483768.0
839.7080, 483250.6
840.8440, 483629.0
841.9810, 483204.0
843.1170, 483198.0
844.2520, 484707.0
845.3880, 483592.0
846.5240, 484785.0
847.6590, 484537.0
848.7940, 485222.0
849.9290, 486155.0
851.0640, 486593.0
852.1990, 487966.0
853.3330, 489546.0
854.4680, 491278.0
855.6020, 491993.0
856.7360, 493489.0
857.8700, 494474.0
859.0040, 496337.0
860.1370, 497192.0
861.2710, 497537.0
862.4040, 499539.0
863.5370, 498531.0
864.6700, 499312.0
865.8030, 498844.0
866.9350, 500461.0
868.0680, 499346.0
869.2000, 499765.0
870.3320, 499511.0
871.4640, 499550.0
872.5960, 500375.0
873.7280, 499641.0
874.8590, 498636.0
875.9910, 499918.0
877.1220, 498395.0
878.2530, 499759.0
879.3840, 499258.0
880.5140, 500658.0
881.6450, 500078.0
882.7750, 501335.0
883.9050, 500580.0
885.0350, 501243.0
886.1650, 502924.0
887.2950, 500612.0
888.4250, 503254.0
889.5540, 503608.0
890.6830, 504597.0
891.8120, 504485.0
892.9410, 505081.0
894.0700, 505225.0
895.1990, 504596.0
896.3270, 506410.0
897.4550, 506788.0
898.5830, 508536.0
899.7110, 508416.0
900.8390, 508253.0
901.9670, 509640.0
903.0940, 509311.0
904.2210, 510149.0
905.3490, 511719.0
906.4760, 511017.0
907.6020, 512362.0
908.7290, 511546.0
909.8550, 513836.0
910.9820, 512477.0
912.1080, 513857.0
913.2340, 514816.0
914.3600, 515160.0
915.4850, 515885.0
916.6110, 515334.0
917.7360, 517328.0
918.8620, 516711.0
919.9870, 518243.0
921.1110, 518449.0
922.2360, 519573.0
923.3610, 520593.0
924.4850, 520643.0
925.6090, 522109.0
926.7330, 522492.0
927.8570, 523969.0
928.9810, 522344.0
930.1040, 525162.0
931.2280, 524942.0
932.3510, 524746.0
933.4740, 525888.0
934.5970, 526816.0
935.7200, 526615.0
936.8420, 525398.0
937.9650, 527542.0
939.0870, 527973.0
940.2090, 527598.0
941.3310, 528900.0
942.4530, 529570.0
943.5750, 530359.0
944.6960, 530980.0
945.8170, 530363.0
946.9380, 531772.0
948.0590, 532091.0
949.1800, 533292.0
950.3010, 531902.0
951.4210, 534301.0
952.5420, 533638.0
953.6620, 534986.0
954.7820, 535872.0
955.9020, 535801.0
957.0210, 537661.0
958.1410, 536928.0
959.2600, 540557.0
960.3790, 539323.0
961.4980, 540103.0
962.6170, 541732.0
963.7360, 542557.0
964.8540, 543992.0
965.9730, 542159.0
967.0910, 543304.0
968.2090, 543971.0
969.3270, 544461.0
970.4440, 544706.0
971.5620, 544989.0
972.6790, 546353.0
973.7960, 546586.0
974.9130, 547628.0
976.0300, 548441.0
977.1470, 547412.0
978.2640, 549346.0
979.3800, 548878.0
980.4960, 549113.0
981.6120, 550628.0
982.7280, 551660.0
983.8440, 551578.0
984.9590, 552124.0
986.0750, 553801.0
987.1900, 554745.0
988.3050, 556162.0
989.4200, 556372.0
990.5350, 557544.0
991.6490, 558458.0
992.7640, 560175.7
993.8780, 562466.0
994.9920, 564610.0
996.1060, 566907.0
997.2200, 570026.0
998.3330, 573419.0
999.4470, 579791.0
1000.560, 582188.0
1001.673, 589870.0
1002.786, 595054.0
1003.899, 601689.0
1005.011, 610307.0
1006.124, 618053.0
1007.236, 626531.0
1008.348, 632761.0
1009.460, 639436.0
1010.572, 645250.0
1011.684, 647641.0
1012.795, 645961.0
1013.906, 641268.0
1015.017, 634897.0
1016.128, 625010.0
1017.239, 615686.0
1018.350, 605780.0
1019.460, 596600.0
1020.571, 590761.0
1021.681, 586416.0
1022.791, 584809.0
1023.900, 582034.0
1025.010, 581401.0
1026.120, 579696.0
1027.229, 579900.0
1028.338, 580647.0
1029.447, 579347.0
1030.556, 580668.0
1031.664, 579969.0
1032.773, 582190.0
1033.881, 583091.0
1034.989, 582940.0
1036.097, 584472.0
1037.205, 584151.0
1038.313, 586269.0
1039.420, 586214.0
1040.528, 587632.0
1041.635, 587747.0
1042.742, 588330.0
1043.849, 589923.0
1044.955, 590067.0
1046.062, 590289.0
1047.168, 590507.0
1048.274, 589924.0
1049.380, 590165.0
1050.486, 589110.0
1051.592, 589169.0
1052.697, 587614.0
1053.803, 587731.0
1054.908, 588046.0
1056.013, 586521.0
1057.117, 586739.0
1058.222, 584934.0
1059.327, 585875.0
1060.431, 584684.0
1061.535, 586555.0
1062.639, 585135.0
1063.743, 585640.0
1064.847, 586607.0
1065.950, 584900.0
1067.054, 587622.0
1068.157, 587204.0
1069.260, 587943.0
1070.363, 587521.0
1071.465, 587395.0
1072.568, 589643.0
1073.670, 588240.0
1074.772, 589832.0
1075.874, 590150.0
1076.976, 591071.0
1078.078, 591550.0
1079.179, 592219.2
1080.281, 591979.0
1081.382, 593236.0
1082.483, 593652.0
1083.584, 593425.0
1084.684, 594184.0
1085.785, 595622.0
1086.885, 596193.0
1087.985, 597126.0
1089.085, 597829.0
1090.185, 598096.0
1091.285, 599183.0
1092.384, 599183.0
1093.484, 601102.0
1094.583, 600873.0
1095.682, 602025.0
1096.781, 601830.0
1097.879, 602153.0
1098.978, 603407.0
1100.076, 603068.0
1101.174, 604835.0
1102.272, 604109.0
1103.370, 604952.0
1104.468, 606061.0
1105.565, 606130.0
1106.663, 607287.0
1107.760, 606545.0
1108.857, 607934.0
1109.954, 607518.0
1111.050, 609739.0
1112.147, 611154.0
1113.243, 610018.0
1114.339, 610978.0
1115.435, 611030.0
1116.531, 611936.0
1117.627, 612120.3
1118.722, 611938.0
1119.818, 612917.0
1120.913, 613100.0
1122.008, 614283.0
1123.103, 614959.0
1124.197, 616523.0
1125.292, 616473.0
1126.386, 615927.0
1127.480, 617373.0
1128.574, 616559.0
1129.668, 618485.0
1130.762, 618156.0
1131.855, 618747.0
1132.949, 620740.0
1134.042, 619427.0
1135.135, 621747.0
1136.228, 620753.0
1137.320, 621775.0
1138.413, 622992.0
1139.505, 622753.0
1140.597, 623004.0
1141.689, 624489.0
1142.781, 623187.0
1143.873, 626027.0
1144.964, 625263.0
1146.055, 628201.0
1147.146, 626906.0
1148.237, 627228.0
1149.328, 627060.0
1150.419, 628140.0
1151.509, 630088.0
1152.600, 629529.0
1153.690, 631664.0
1154.780, 630283.0
1155.869, 632077.0
1156.959, 631477.0
1158.049, 631842.0
1159.138, 634145.0
1160.227, 633119.0
1161.316, 634889.0
1162.405, 634536.0
1163.493, 634642.0
1164.582, 635851.1
1165.670, 636026.8
1166.758, 637635.0
1167.846, 637724.0
1168.934, 638647.0
1170.021, 639949.0
1171.109, 639354.0
1172.196, 641081.0
1173.283, 640715.0
1174.370, 641398.0
1175.457, 642922.0
1176.543, 643138.0
1177.630, 644116.5
1178.716, 644131.0
1179.802, 645583.0
1180.888, 646417.0
1181.974, 647278.0
1183.059, 648191.0
1184.145, 647260.0
1185.230, 652881.0
1186.315, 649665.0
1187.400, 650099.0
1188.485, 653581.0
1189.569, 649891.0
1190.653, 652406.0
1191.738, 651739.0
1192.822, 652429.0
1193.906, 653055.0
1194.989, 653098.0
1196.073, 653775.5
1197.156, 653473.0
1198.239, 654491.0
1199.322, 655618.0
1200.405, 655650.0
1201.488, 658065.0
1202.570, 657362.0
1203.653, 658324.0
1204.735, 657385.0
1205.817, 659583.0
1206.899, 660466.0
1207.980, 660127.0
1209.062, 661777.0
1210.143, 660303.0
1211.224, 661945.0
1212.305, 663086.0
1213.386, 662010.0
1214.467, 663761.0
1215.547, 664545.0
1216.628, 665858.0
1217.708, 664826.0
1218.788, 666420.0
1219.868, 667575.0
1220.947, 667261.0
1222.027, 669371.0
1223.106, 669141.0
1224.185, 670817.0
1225.264, 672894.0
1226.343, 670249.0
1227.421, 673627.0
1228.500, 672758.0
1229.578, 674166.0
1230.656, 673912.0
1231.734, 674043.0
1232.812, 675459.0
1233.890, 674258.0
1234.967, 676641.0
1236.044, 676536.0
1237.121, 677568.0
1238.198, 678513.0
1239.275, 679294.0
1240.352, 679847.0
1241.428, 679222.0
1242.504, 681772.0
1243.580, 681461.0
1244.656, 682338.0
1245.732, 684349.0
1246.807, 682571.0
1247.883, 686128.0
1248.958, 685128.0
