##NAMES=Diopside
##RRUFFID=R060085
##IDEAL CHEMISTRY=CaMgSi_2_O_6_
##LOCALITY=Tyrol, Austria
##OWNER=RRUFF
##SOURCE=University of Arizona Mineral Museum
##DESCRIPTION=Brownish-green massive
##STATUS=The identification of this mineral has been confirmed by X-ray diffraction and chemical analysis
##URL=rruff.info/R060085
##MEASURED CHEMISTRY=(Ca_0.97_Na_0.03_)_Σ=1_(Mg_0.79_Fe^2+^_0.10_Fe^3+^_0.04_Al_0.04_Ti_0.02_Cr_0.01_)_Σ=1_(Si_1.90_Al_0.10_)_Σ=2_O_6_
##PIN_ID=M01542
##ORIENTATION=Laser parallel to c* (0 0 1). Fiducial mark perpendicular to laser is parallel to a [1 0 0]
87.65500, 14523.00
88.90100, 14392.00
90.14700, 14489.00
91.39300, 14911.00
92.63800, 14817.00
93.88300, 14879.00
95.12800, 15115.00
96.37300, 15027.00
97.61800, 15275.00
98.86200, 14926.00
100.1070, 14924.00
101.3510, 15021.00
102.5940, 15064.00
103.8380, 15187.00
105.0810, 15062.00
106.3250, 15485.00
107.5680, 15681.00
108.8110, 15552.00
110.0530, 15862.00
111.2960, 15815.00
112.5380, 16093.00
113.7800, 15940.00
115.0220, 15889.00
116.2640, 15737.00
117.5050, 15564.00
118.7460, 15445.00
119.9870, 15472.00
121.2280, 15562.00
122.4690, 15808.00
123.7100, 15984.00
124.9500, 16131.00
126.1900, 16136.82
127.4300, 16011.00
128.6700, 15976.00
129.9090, 15969.00
131.1480, 15761.00
132.3880, 15714.00
133.6270, 15684.00
134.8650, 15977.00
136.1040, 16041.00
137.3420, 16146.00
138.5800, 16183.00
139.8180, 16196.00
141.0560, 16148.00
142.2940, 16189.00
143.5310, 16072.00
144.7680, 16246.00
146.0050, 16301.00
147.2420, 15953.00
148.4790, 15918.00
149.7150, 16125.00
150.9510, 16211.00
152.1870, 16130.00
153.4230, 16286.00
154.6590, 16157.00
155.8940, 16124.00
157.1300, 16136.00
158.3650, 16363.00
159.6000, 16235.00
160.8340, 16344.00
162.0690, 16448.00
163.3030, 16229.00
164.5370, 16299.00
165.7710, 16277.00
167.0050, 16471.00
168.2380, 16548.00
169.4720, 16568.60
170.7050, 16507.00
171.9380, 16596.00
173.1700, 16550.00
174.4030, 16499.00
175.6350, 16583.05
176.8680, 16780.00
178.1000, 16745.00
179.3310, 16859.00
180.5630, 17062.00
181.7940, 16818.00
183.0260, 16902.00
184.2570, 16865.00
185.4870, 16904.00
186.7180, 16975.00
187.9480, 16882.00
189.1790, 16815.00
190.4090, 16911.00
191.6390, 16899.20
192.8680, 17025.00
194.0980, 17025.00
195.3270, 17297.00
196.5560, 17372.00
197.7850, 17384.00
199.0140, 17312.00
200.2420, 17205.00
201.4710, 17279.00
202.6990, 17322.00
203.9270, 17329.00
205.1550, 17054.00
206.3820, 17217.00
207.6090, 17047.00
208.8370, 16972.00
210.0640, 17146.00
211.2900, 17206.00
212.5170, 17320.00
213.7440, 17268.00
214.9700, 17360.04
216.1960, 17386.24
217.4220, 17418.00
218.6470, 17407.00
219.8730, 17359.00
221.0980, 17405.36
222.3230, 17355.00
223.5480, 17456.00
224.7730, 17449.00
225.9970, 17470.00
227.2220, 17543.00
228.4460, 17690.00
229.6700, 17674.00
230.8940, 17929.00
232.1170, 17976.00
233.3400, 17997.00
234.5640, 18064.00
235.7870, 18051.33
237.0100, 18097.00
238.2320, 18015.00
239.4550, 17927.00
240.6770, 17861.00
241.8990, 17926.00
243.1210, 17831.00
244.3420, 17797.00
245.5640, 17892.00
246.7850, 17841.00
248.0060, 17743.00
249.2270, 17735.00
250.4480, 17668.00
251.6690, 17952.00
252.8890, 18018.00
254.1090, 18050.00
255.3290, 18094.00
256.5490, 18109.00
257.7680, 18304.00
258.9880, 18038.00
260.2070, 18197.00
261.4260, 18029.00
262.6450, 17861.00
263.8640, 18051.00
265.0820, 17918.00
266.3000, 17906.00
267.5180, 18017.00
268.7360, 18110.00
269.9540, 18031.00
271.1720, 18088.14
272.3890, 18110.00
273.6060, 18042.00
274.8230, 18012.00
276.0400, 17962.00
277.2560, 18094.00
278.4730, 18039.00
279.6890, 18334.00
280.9050, 18398.00
282.1210, 18269.00
283.3370, 18145.00
284.5520, 18215.00
285.7670, 18205.00
286.9820, 18328.00
288.1970, 18331.00
289.4120, 18242.00
290.6270, 18291.00
291.8410, 18483.00
293.0550, 18324.00
294.2690, 18472.00
295.4830, 18716.00
296.6970, 18660.00
297.9100, 18598.00
299.1230, 18731.00
300.3360, 18695.00
301.5490, 18686.00
302.7620, 18723.00
303.9740, 18721.00
305.1860, 18961.00
306.3990, 18997.00
307.6110, 19098.00
308.8220, 19249.00
310.0340, 19236.00
311.2450, 19304.00
312.4560, 19420.00
313.6670, 19437.00
314.8780, 19691.00
316.0890, 20030.00
317.2990, 20026.00
318.5090, 20304.00
319.7200, 20718.00
320.9290, 21328.00
322.1390, 21852.00
323.3490, 22725.00
324.5580, 22958.00
325.7670, 23013.00
326.9760, 22869.00
328.1850, 22558.00
329.3930, 22089.00
330.6020, 21568.00
331.8100, 21034.00
333.0180, 20862.00
334.2260, 20581.00
335.4340, 20524.00
336.6410, 20310.00
337.8480, 20091.00
339.0550, 19990.00
340.2620, 19919.72
341.4690, 19854.00
342.6760, 19952.00
343.8820, 19851.00
345.0880, 19969.00
346.2940, 19922.00
347.5000, 19722.00
348.7060, 19847.00
349.9110, 19871.00
351.1160, 20067.00
352.3210, 20083.00
353.5260, 20106.00
354.7310, 20191.00
355.9360, 20169.00
357.1400, 20256.00
358.3440, 20345.00
359.5480, 20302.00
360.7520, 20193.00
361.9550, 20330.00
363.1590, 20136.00
364.3620, 20190.00
365.5650, 20256.00
366.7680, 20222.00
367.9710, 20140.00
369.1730, 20245.00
370.3760, 20331.00
371.5780, 20510.00
372.7800, 20493.00
373.9810, 20429.00
375.1830, 20673.00
376.3840, 20883.00
377.5860, 20690.00
378.7870, 20870.00
379.9880, 20921.00
381.1880, 21157.00
382.3890, 21295.00
383.5890, 21477.00
384.7890, 21665.00
385.9890, 22170.00
387.1890, 22832.00
388.3880, 23335.00
389.5880, 24038.00
390.7870, 24655.00
391.9860, 24714.00
393.1850, 24657.00
394.3840, 24176.00
395.5820, 23750.00
396.7800, 23016.00
397.9790, 22468.00
399.1770, 22218.00
400.3740, 21841.00
401.5720, 21599.00
402.7690, 21312.00
403.9670, 21250.00
405.1640, 21049.00
406.3600, 21165.00
407.5570, 20830.00
408.7540, 20847.00
409.9500, 20776.00
411.1460, 20492.00
412.3420, 20653.00
413.5380, 20764.00
414.7330, 20729.00
415.9290, 20704.00
417.1240, 20694.00
418.3190, 20682.00
419.5140, 20657.00
420.7090, 20693.00
421.9030, 20718.00
423.0970, 20872.00
424.2920, 20788.00
425.4860, 20841.14
426.6790, 20981.00
427.8730, 20825.00
429.0660, 20768.00
430.2600, 20741.00
431.4530, 21166.00
432.6460, 20900.00
433.8380, 20982.00
435.0310, 20925.00
436.2230, 20747.00
437.4150, 20955.00
438.6070, 21073.00
439.7990, 20890.00
440.9910, 21201.00
442.1820, 21045.00
443.3730, 20981.00
444.5640, 21051.00
445.7550, 21077.00
446.9460, 21036.00
448.1370, 21214.00
449.3270, 21069.00
450.5170, 21099.00
451.7070, 21226.00
452.8970, 21102.00
454.0870, 21348.00
455.2760, 21443.00
456.4650, 21449.00
457.6550, 21319.00
458.8430, 21403.00
460.0320, 21645.00
461.2210, 21473.00
462.4090, 21664.00
463.5970, 21742.00
464.7850, 21674.00
465.9730, 21550.00
467.1610, 21486.00
468.3480, 21581.00
469.5360, 21675.00
470.7230, 21723.39
471.9100, 21677.00
473.0970, 21719.34
474.2830, 21730.00
475.4700, 21690.00
476.6560, 21708.00
477.8420, 21670.00
479.0280, 21732.00
480.2140, 21728.81
481.3990, 21724.24
482.5850, 21770.00
483.7700, 21754.00
484.9550, 21776.00
486.1400, 21873.00
487.3240, 21903.00
488.5090, 21891.00
489.6930, 22036.00
490.8770, 22002.00
492.0610, 22206.00
493.2450, 22109.00
494.4290, 21958.00
495.6120, 22161.00
496.7950, 22142.00
497.9780, 22178.00
499.1610, 22092.00
500.3440, 22147.00
501.5260, 22332.00
502.7090, 22135.00
503.8910, 22227.00
505.0730, 22500.00
506.2550, 22275.00
507.4360, 22432.00
508.6180, 22427.00
509.7990, 22500.00
510.9800, 22625.00
512.1610, 22509.00
513.3420, 22527.00
514.5230, 22626.00
515.7030, 22801.00
516.8830, 22752.00
518.0630, 22699.00
519.2430, 23098.00
520.4230, 22720.00
521.6020, 22933.00
522.7820, 22801.00
523.9610, 22944.00
525.1400, 23167.00
526.3190, 23387.00
527.4970, 23143.00
528.6760, 23267.00
529.8540, 23425.00
531.0320, 23571.00
532.2100, 23453.00
533.3880, 23470.00
534.5660, 23525.00
535.7430, 23465.08
536.9200, 23515.00
538.0970, 23502.00
539.2740, 23493.00
540.4510, 23636.00
541.6270, 23513.00
542.8040, 23456.00
543.9800, 23562.00
545.1560, 23561.00
546.3320, 23656.00
547.5080, 23449.00
548.6830, 23415.00
549.8580, 23508.00
551.0340, 23432.00
552.2090, 23537.00
553.3830, 23781.00
554.5580, 23526.00
555.7320, 23835.00
556.9070, 23519.00
558.0810, 23704.00
559.2550, 23675.00
560.4280, 23927.00
561.6020, 23804.00
562.7750, 23837.00
563.9490, 23714.00
565.1220, 23832.00
566.2950, 23623.00
567.4670, 23449.00
568.6400, 23762.00
569.8120, 23651.00
570.9840, 23454.00
572.1560, 23688.00
573.3280, 23380.00
574.5000, 23603.00
575.6710, 23658.00
576.8430, 23712.00
578.0140, 23535.00
579.1850, 23790.00
580.3560, 23778.00
581.5260, 23598.00
582.6970, 23786.00
583.8670, 23706.00
585.0370, 23673.00
586.2070, 23675.00
587.3770, 23644.58
588.5460, 23711.00
589.7160, 23703.00
590.8850, 23659.00
592.0540, 23816.00
593.2230, 23893.00
594.3920, 23677.00
595.5600, 23809.00
596.7290, 23805.00
597.8970, 23812.00
599.0650, 23925.00
600.2330, 23935.00
601.4000, 23873.00
602.5680, 24084.00
603.7350, 23854.00
604.9020, 23867.00
606.0690, 24109.00
607.2360, 24080.00
608.4030, 24172.00
609.5690, 24218.12
610.7360, 24015.00
611.9020, 24228.00
613.0680, 24239.00
614.2340, 24222.00
615.3990, 24401.00
616.5650, 24113.00
617.7300, 24381.00
618.8950, 24373.00
620.0600, 24303.00
621.2250, 24415.00
622.3890, 24488.00
623.5540, 24487.00
624.7180, 24497.00
625.8820, 24352.00
627.0460, 24444.00
628.2100, 24682.00
629.3730, 24411.00
630.5370, 24651.00
631.7000, 24679.00
632.8630, 24533.00
634.0260, 24531.00
635.1890, 24743.00
636.3510, 24661.00
637.5140, 24870.00
638.6760, 24962.00
639.8380, 24846.00
641.0000, 25011.00
642.1610, 25053.00
643.3230, 25167.00
644.4840, 25222.00
645.6450, 25311.00
646.8060, 25371.00
647.9670, 25466.30
649.1280, 25350.00
650.2880, 25570.00
651.4490, 25658.00
652.6090, 25517.00
653.7690, 25819.00
654.9290, 25926.00
656.0880, 25685.00
657.2480, 26085.00
658.4070, 26386.00
659.5660, 26483.00
660.7250, 26664.00
661.8840, 27167.00
663.0430, 27571.00
664.2010, 27952.00
665.3600, 28259.00
666.5180, 28521.00
667.6760, 28755.00
668.8330, 28747.00
669.9910, 28481.00
671.1480, 28277.00
672.3060, 27836.00
673.4630, 27923.00
674.6200, 27330.00
675.7770, 27210.00
676.9330, 27107.00
678.0900, 26762.00
679.2460, 26947.00
680.4020, 26855.00
681.5580, 26927.00
682.7140, 26639.00
683.8690, 26782.00
685.0250, 26666.00
686.1800, 26680.00
687.3350, 26649.00
688.4900, 26678.00
689.6450, 26587.00
690.7990, 26584.00
691.9540, 26730.00
693.1080, 26570.00
694.2620, 26625.00
695.4160, 26624.00
696.5700, 26547.00
697.7230, 26568.00
698.8770, 26341.00
700.0300, 26547.00
701.1830, 26386.00
702.3360, 26536.00
703.4890, 26517.00
704.6410, 26301.00
705.7930, 26349.00
706.9460, 26354.00
708.0980, 26258.00
709.2500, 26327.00
710.4010, 26456.00
711.5530, 26492.00
712.7040, 26625.00
713.8560, 26513.00
715.0070, 26546.00
716.1580, 26400.00
717.3080, 26602.00
718.4590, 26527.00
719.6090, 26528.00
720.7590, 26683.00
721.9090, 26510.00
723.0590, 26675.00
724.2090, 26493.00
725.3590, 26540.00
726.5080, 26728.00
727.6570, 26949.00
728.8060, 26799.00
729.9550, 26451.00
731.1040, 26572.00
732.2530, 26628.00
733.4010, 26629.00
734.5490, 26666.00
735.6970, 26674.92
736.8450, 26692.00
737.9930, 26696.00
739.1400, 26812.00
740.2880, 26856.00
741.4350, 26914.00
742.5820, 26941.00
743.7290, 27107.00
744.8760, 26964.00
746.0220, 27038.00
747.1690, 26838.00
748.3150, 27091.00
749.4610, 27073.00
750.6070, 27134.00
751.7530, 27050.00
752.8980, 27058.00
754.0440, 27082.00
755.1890, 27409.00
756.3340, 27213.00
757.4790, 27360.00
758.6240, 27368.00
759.7680, 27274.00
760.9130, 27208.00
762.0570, 27265.00
763.2010, 27361.00
764.3450, 27211.00
765.4890, 27375.00
766.6320, 27297.00
767.7760, 27376.00
768.9190, 27426.00
770.0620, 27510.00
771.2050, 27489.00
772.3480, 27467.00
773.4900, 27758.00
774.6330, 27722.00
775.7750, 27913.00
776.9170, 27854.00
778.0590, 27594.00
779.2010, 27783.00
780.3420, 27655.00
781.4840, 27689.00
782.6250, 27867.00
783.7660, 27800.00
784.9070, 27794.00
786.0480, 27687.00
787.1890, 27847.00
788.3290, 27800.00
789.4690, 27822.00
790.6100, 27846.00
791.7490, 28033.00
792.8890, 27965.00
794.0290, 27886.00
795.1680, 28155.00
796.3080, 28124.00
797.4470, 28229.00
798.5860, 27894.00
799.7250, 28223.00
800.8630, 28087.00
802.0020, 28300.00
803.1400, 28185.00
804.2780, 28197.00
805.4160, 28390.00
806.5540, 28337.00
807.6920, 28453.00
808.8300, 28401.00
809.9670, 28478.00
811.1040, 28430.00
812.2410, 28550.00
813.3780, 28528.00
814.5150, 28630.00
815.6510, 28583.00
816.7880, 28644.00
817.9240, 28589.00
819.0600, 28715.00
820.1960, 28612.00
821.3320, 28800.00
822.4670, 28802.00
823.6030, 29001.00
824.7380, 28768.00
825.8730, 28938.00
827.0080, 28726.00
828.1430, 28755.00
829.2770, 29088.00
830.4120, 28888.00
831.5460, 28928.00
832.6800, 29097.00
833.8140, 29185.00
834.9480, 29129.00
836.0810, 29041.00
837.2150, 29236.00
838.3480, 29063.00
839.4810, 29228.00
840.6140, 29152.00
841.7470, 29240.00
842.8800, 29201.00
844.0120, 29391.00
845.1450, 29109.00
846.2770, 29529.00
847.4090, 29316.00
848.5410, 29510.00
849.6720, 29409.00
850.8040, 29534.00
851.9350, 29422.00
853.0660, 29587.00
854.1970, 29562.00
855.3280, 29671.00
856.4590, 29572.00
857.5900, 29682.00
858.7200, 29673.00
859.8500, 29795.00
860.9800, 29819.00
862.1100, 29924.00
863.2400, 29923.00
864.3700, 29903.00
865.4990, 29910.35
866.6280, 29952.00
867.7570, 29815.00
868.8860, 30059.00
870.0150, 29976.00
871.1440, 29913.00
872.2720, 30184.00
873.4010, 30164.00
874.5290, 30207.00
875.6570, 30141.00
876.7850, 30226.00
877.9120, 30308.00
879.0400, 30238.00
880.1670, 30189.00
881.2940, 30207.00
882.4210, 30116.00
883.5480, 30370.00
884.6750, 30043.00
885.8020, 30283.00
886.9280, 30278.00
888.0540, 30174.00
889.1800, 30500.00
890.3060, 30423.00
891.4320, 30289.00
892.5580, 30376.00
893.6830, 30688.00
894.8080, 30535.00
895.9330, 30784.00
897.0580, 30702.00
898.1830, 30749.00
899.3080, 30746.00
900.4320, 30700.00
901.5570, 30833.00
902.6810, 30721.00
903.8050, 30754.00
904.9290, 30943.00
906.0520, 30750.00
907.1760, 30819.00
908.2990, 30850.00
909.4230, 30704.00
910.5460, 30862.00
911.6690, 31136.00
912.7910, 31233.00
913.9140, 31297.13
915.0360, 31286.00
916.1590, 31288.00
917.2810, 31206.00
918.4030, 31128.00
919.5240, 31272.00
920.6460, 31145.00
921.7680, 31047.00
922.8890, 31062.00
924.0100, 31338.00
925.1310, 31530.00
926.2520, 31210.00
927.3730, 31505.00
928.4930, 31311.00
929.6130, 31498.00
930.7340, 31630.00
931.8540, 31586.00
932.9740, 31458.00
934.0930, 31527.00
935.2130, 31614.00
936.3320, 31667.00
937.4520, 31663.00
938.5710, 31953.00
939.6900, 32027.00
940.8090, 31869.00
941.9270, 31743.00
943.0460, 31754.00
944.1640, 31716.00
945.2820, 31924.00
946.4000, 31827.00
947.5180, 31920.00
948.6360, 32051.00
949.7530, 32108.00
950.8710, 32101.00
951.9880, 32213.00
953.1050, 32186.00
954.2220, 32069.00
955.3390, 32457.00
956.4550, 32236.00
957.5720, 32345.00
958.6880, 32446.00
959.8040, 32333.00
960.9200, 32458.00
962.0360, 32669.00
963.1520, 32575.00
964.2670, 32396.00
965.3820, 32723.00
966.4980, 32928.00
967.6130, 32659.00
968.7280, 32628.00
969.8420, 32966.00
970.9570, 32861.00
972.0710, 32778.00
973.1850, 32906.00
974.3000, 32892.00
975.4140, 32643.00
976.5270, 33114.00
977.6410, 32947.00
978.7540, 33330.00
979.8680, 33282.00
980.9810, 33156.00
982.0940, 33085.00
983.2070, 33191.00
984.3200, 33195.34
985.4320, 33291.52
986.5440, 33410.00
987.6570, 33526.00
988.7690, 33676.00
989.8810, 33800.00
990.9920, 34093.00
992.1040, 34116.00
993.2160, 33923.00
994.3270, 34201.00
995.4380, 34281.00
996.5490, 34433.00
997.6600, 34581.00
998.7710, 34757.00
999.8810, 34895.00
1000.991, 35108.00
1002.102, 35528.00
1003.212, 35752.00
1004.322, 36232.00
1005.431, 36452.00
1006.541, 37188.00
1007.651, 37646.00
1008.760, 38631.00
1009.869, 39859.00
1010.978, 41167.00
1012.087, 42141.00
1013.195, 42976.00
1014.304, 42589.00
1015.412, 41544.00
1016.521, 40023.00
1017.629, 38657.00
1018.737, 37926.00
1019.844, 36895.00
1020.952, 36177.00
1022.059, 35924.00
1023.167, 35548.00
1024.274, 35460.00
1025.381, 35138.00
1026.488, 34924.00
1027.594, 35306.00
1028.701, 34857.00
1029.807, 34638.00
1030.913, 34898.00
1032.019, 34696.00
1033.125, 34728.00
1034.231, 34948.00
1035.337, 34939.00
1036.442, 34836.00
1037.548, 34819.00
1038.653, 34757.00
1039.758, 34736.00
1040.863, 35015.00
1041.967, 34966.00
1043.072, 35059.00
1044.176, 35167.00
1045.280, 35160.00
1046.384, 35294.00
1047.488, 35227.00
1048.592, 35121.00
1049.696, 35167.07
1050.799, 35112.20
1051.903, 35151.00
1053.006, 35111.00
1054.109, 35157.00
1055.212, 35180.00
1056.314, 35171.00
1057.417, 35232.00
1058.519, 35227.00
1059.621, 35305.00
1060.724, 35395.00
1061.826, 35234.00
1062.927, 35283.00
1064.029, 35416.00
1065.130, 35188.00
1066.232, 35384.00
1067.333, 35360.00
1068.434, 35345.00
1069.535, 35459.00
1070.636, 35445.00
1071.736, 35595.00
1072.837, 35418.00
1073.937, 35870.00
1075.037, 35501.00
1076.137, 35481.00
1077.237, 35708.00
1078.337, 35633.00
1079.436, 35644.00
1080.535, 35571.00
1081.635, 35971.00
1082.734, 35793.00
1083.833, 35979.00
1084.931, 35917.00
1086.030, 35797.00
1087.128, 36137.00
1088.227, 35989.00
1089.325, 36295.00
1090.423, 36221.00
1091.521, 35956.00
1092.618, 36189.00
1093.716, 36069.00
1094.813, 36348.00
1095.911, 36384.00
1097.008, 36132.00
1098.105, 36215.00
1099.202, 36383.00
1100.298, 36500.00
1101.395, 36217.00
1102.491, 36240.00
1103.587, 36231.00
1104.683, 36608.00
1105.779, 36297.00
1106.875, 36511.00
1107.971, 36358.00
1109.066, 36600.00
1110.161, 36262.00
1111.256, 36791.00
1112.351, 36619.00
1113.446, 36629.00
1114.541, 36633.00
1115.636, 36644.00
1116.730, 36714.00
1117.824, 36919.00
1118.918, 36728.00
1120.012, 36979.00
1121.106, 36856.00
1122.200, 37179.00
1123.293, 36945.00
1124.387, 36693.00
1125.480, 36777.00
1126.573, 36879.00
1127.666, 37064.00
1128.759, 37156.00
1129.851, 37061.00
1130.944, 37198.00
1132.036, 37028.00
1133.128, 37330.00
1134.220, 37147.00
1135.312, 37451.00
1136.404, 37138.00
1137.495, 37351.00
1138.587, 37530.00
1139.678, 37334.00
1140.769, 37499.00
1141.860, 37660.00
1142.951, 37798.00
1144.041, 37283.00
1145.132, 37618.00
1146.222, 37631.00
1147.313, 37440.00
1148.403, 37729.00
1149.493, 37922.00
1150.582, 37750.00
1151.672, 37913.00
1152.761, 37682.00
1153.851, 37942.00
1154.940, 37714.00
1156.029, 37799.00
1157.118, 37907.00
1158.207, 37904.00
1159.295, 37838.00
1160.384, 38043.00
1161.472, 38079.00
1162.560, 38202.00
1163.648, 37914.00
1164.736, 38007.00
1165.824, 38285.00
1166.911, 38043.00
1167.999, 38463.00
1169.086, 38400.00
1170.173, 38450.00
1171.260, 38604.00
1172.347, 38595.00
1173.434, 38560.00
1174.520, 38758.00
1175.606, 38461.00
1176.693, 38623.00
1177.779, 38992.00
1178.865, 38712.00
1179.951, 38577.00
1181.036, 38633.00
1182.122, 38810.00
1183.207, 38744.00
1184.292, 38674.00
1185.377, 39071.00
1186.462, 38844.00
1187.547, 38969.00
1188.632, 39075.00
1189.716, 39052.00
1190.800, 39086.00
1191.885, 38980.00
1192.969, 39126.00
1194.052, 38987.00
1195.136, 39101.00
1196.220, 39377.00
1197.303, 39113.00
1198.387, 39265.00
1199.470, 39237.00
1200.553, 39390.00
1201.636, 39408.00
1202.718, 39281.00
1203.801, 39497.00
1204.883, 39281.00
1205.966, 39443.00
1207.048, 39586.00
1208.130, 39612.00
1209.211, 39589.00
1210.293, 39533.00
1211.375, 39618.00
1212.456, 39794.00
1213.537, 39739.00
1214.618, 40017.00
1215.699, 39914.00
1216.780, 40065.00
1217.861, 40050.00
1218.941, 40106.00
1220.022, 40094.00
1221.102, 40115.60
1222.182, 40262.00
1223.262, 40131.00
1224.342, 40323.00
1225.422, 40311.00
1226.501, 40153.00
1227.580, 40481.00
1228.660, 40322.00
1229.739, 40439.00
1230.818, 40334.00
1231.896, 40430.00
1232.975, 40740.00
1234.054, 40561.00
1235.132, 40502.00
1236.210, 40130.00
1237.288, 40543.00
1238.366, 40645.00
1239.444, 40581.00
1240.521, 40783.00
1241.599, 40681.00
1242.676, 40878.00
1243.753, 40691.00
1244.830, 40475.00
1245.907, 40646.12
1246.984, 40868.00
1248.061, 40752.00
1249.137, 40892.00
1250.214, 40844.00
1251.290, 41065.00
1252.366, 41155.00
1253.442, 41091.00
1254.517, 41511.00
1255.593, 41276.00
1256.668, 41521.00
1257.744, 41201.00
1258.819, 41405.00
1259.894, 41250.00
1260.969, 41414.00
1262.044, 41940.00
1263.118, 41663.00
1264.193, 41268.00
1265.267, 41466.00
1266.341, 41811.00
1267.415, 41750.00
