##NAMES=Diopside
##RRUFFID=R050666
##IDEAL CHEMISTRY=CaMgSi_2_O_6_
##LOCALITY=Franklin, Sussex County, New Jersey, USA
##OWNER=RRUFF
##SOURCE=University of Arizona Mineral Museum
##DESCRIPTION=Brown cleavage fragment with white hardystonite
##STATUS=The identification of this mineral has been confirmed by X-ray diffraction and chemical analysis
##URL=rruff.info/R050666
##MEASURED CHEMISTRY=Ca(Mg_0.66_Mn_0.33_Fe_0.01_)Si_2_O_6_
##PIN_ID=L01400
##ORIENTATION=Laser parallel to -a* (-1 0 0). Fiducial mark perpendicular to laser is parallel to -b [0 -1 0]
129.2090, 30590.00
130.4390, 30959.00
131.6680, 31379.00
132.8980, 31646.00
134.1270, 31451.00
135.3560, 31584.00
136.5850, 31491.00
137.8140, 31497.00
139.0430, 31362.00
140.2710, 31318.00
141.5000, 31737.00
142.7280, 31419.00
143.9560, 31750.00
145.1840, 31344.00
146.4120, 31496.00
147.6390, 31431.00
148.8670, 31514.00
150.0940, 31548.00
151.3210, 31621.00
152.5490, 31668.00
153.7750, 31896.00
155.0020, 31897.00
156.2290, 31694.00
157.4550, 31730.00
158.6810, 31920.00
159.9080, 31744.00
161.1340, 32139.00
162.3590, 31803.00
163.5850, 31840.00
164.8110, 32218.00
166.0360, 32129.00
167.2610, 31944.00
168.4860, 32364.00
169.7110, 32139.00
170.9360, 32387.00
172.1610, 32574.00
173.3850, 32780.00
174.6100, 32758.00
175.8340, 32989.00
177.0580, 32969.00
178.2820, 32734.00
179.5050, 32714.00
180.7290, 32765.00
181.9520, 32771.00
183.1760, 32781.00
184.3990, 32833.00
185.6220, 32899.00
186.8450, 33009.00
188.0670, 32854.00
189.2900, 33125.00
190.5120, 33212.00
191.7340, 33112.00
192.9560, 33271.00
194.1780, 33290.00
195.4000, 33330.00
196.6220, 33495.00
197.8430, 33315.00
199.0640, 33210.00
200.2860, 33747.00
201.5070, 33656.00
202.7270, 33617.00
203.9480, 33607.00
205.1690, 33597.21
206.3890, 33609.68
207.6090, 33637.00
208.8290, 33624.00
210.0490, 33632.00
211.2690, 33561.00
212.4890, 33633.90
213.7080, 33557.00
214.9280, 33747.00
216.1470, 33871.00
217.3660, 33923.00
218.5850, 33692.00
219.8030, 33974.00
221.0220, 33813.00
222.2400, 34072.00
223.4590, 33995.00
224.6770, 34226.00
225.8950, 34013.00
227.1120, 34296.00
228.3300, 34365.00
229.5480, 34499.00
230.7650, 34531.57
231.9820, 34571.90
233.1990, 34506.00
234.4160, 34521.00
235.6330, 34539.00
236.8490, 34351.00
238.0660, 34570.00
239.2820, 34581.00
240.4980, 34291.00
241.7140, 34803.00
242.9300, 34574.00
244.1460, 34395.00
245.3610, 34490.00
246.5770, 34523.00
247.7920, 34494.21
249.0070, 34434.00
250.2220, 34596.00
251.4370, 34711.00
252.6510, 34885.00
253.8660, 34906.52
255.0800, 34784.00
256.2940, 34972.00
257.5080, 34953.00
258.7220, 35055.05
259.9360, 35038.25
261.1490, 35057.00
262.3630, 34978.00
263.5760, 34923.00
264.7890, 34937.00
266.0020, 35078.00
267.2150, 35304.00
268.4270, 35195.00
269.6400, 34999.00
270.8520, 34918.00
272.0640, 35454.00
273.2760, 34977.00
274.4880, 35307.00
275.7000, 35288.00
276.9120, 35344.00
278.1230, 35620.00
279.3340, 35476.00
280.5450, 35729.00
281.7560, 35331.00
282.9670, 35413.00
284.1780, 35839.00
285.3880, 35512.00
286.5980, 35772.00
287.8090, 35822.00
289.0190, 35753.00
290.2290, 35761.00
291.4380, 35951.00
292.6480, 35960.00
293.8570, 36234.00
295.0670, 36068.00
296.2760, 36296.00
297.4850, 36326.00
298.6930, 36676.00
299.9020, 36603.00
301.1110, 36915.00
302.3190, 36830.00
303.5270, 37087.00
304.7350, 37305.00
305.9430, 37639.00
307.1510, 37906.00
308.3580, 38343.00
309.5660, 38557.00
310.7730, 39071.00
311.9800, 39561.00
313.1870, 40075.00
314.3940, 40275.00
315.6010, 40394.00
316.8070, 40427.00
318.0130, 39967.00
319.2200, 39819.00
320.4260, 39713.00
321.6310, 39005.00
322.8370, 38834.00
324.0430, 38936.00
325.2480, 38272.00
326.4540, 38406.00
327.6590, 37768.00
328.8640, 37849.00
330.0680, 38020.00
331.2730, 37885.00
332.4780, 37798.00
333.6820, 37986.00
334.8860, 37952.00
336.0900, 38102.00
337.2940, 37862.00
338.4980, 38007.00
339.7010, 38007.00
340.9050, 38119.00
342.1080, 38103.00
343.3110, 38285.00
344.5140, 38808.00
345.7170, 38999.00
346.9200, 39150.00
348.1220, 39373.00
349.3240, 39221.00
350.5270, 39057.00
351.7290, 38771.00
352.9310, 38689.00
354.1320, 38664.00
355.3340, 38823.00
356.5350, 38582.00
357.7370, 38189.00
358.9380, 38516.00
360.1390, 38112.00
361.3400, 38293.00
362.5400, 38415.00
363.7410, 38272.00
364.9410, 38352.00
366.1410, 38367.00
367.3410, 38429.00
368.5410, 38657.00
369.7410, 38814.00
370.9400, 39133.00
372.1400, 39614.00
373.3390, 40012.10
374.5380, 40464.00
375.7370, 41062.00
376.9360, 41806.00
378.1350, 42362.00
379.3330, 43657.00
380.5310, 44383.00
381.7300, 45055.00
382.9280, 44790.00
384.1260, 44587.00
385.3230, 43859.00
386.5210, 42629.00
387.7180, 41713.00
388.9160, 40972.00
390.1130, 40305.00
391.3100, 39850.00
392.5060, 39054.00
393.7030, 39114.00
394.9000, 38524.00
396.0960, 38692.00
397.2920, 38341.00
398.4880, 38346.00
399.6840, 38255.00
400.8800, 38178.00
402.0750, 38091.00
403.2710, 38130.00
404.4660, 38254.00
405.6610, 38202.00
406.8560, 38245.48
408.0510, 37965.00
409.2450, 38134.00
410.4400, 38314.00
411.6340, 38050.00
412.8280, 38077.00
414.0220, 37941.00
415.2160, 37923.54
416.4100, 38027.00
417.6030, 37982.00
418.7970, 38006.00
419.9900, 38103.00
421.1830, 38273.00
422.3760, 38016.00
423.5690, 38369.00
424.7610, 38289.00
425.9540, 38024.00
427.1460, 38419.00
428.3380, 37920.00
429.5300, 37941.00
430.7220, 38164.00
431.9140, 38042.00
433.1050, 38084.00
434.2970, 38225.00
435.4880, 37893.00
436.6790, 38368.00
437.8700, 38232.00
439.0610, 38062.00
440.2510, 38344.00
441.4420, 38382.00
442.6320, 38591.00
443.8220, 38505.00
445.0120, 38420.00
446.2020, 38539.00
447.3910, 38442.00
448.5810, 38443.00
449.7700, 38621.00
450.9600, 38544.00
452.1490, 38605.00
453.3370, 38660.00
454.5260, 38373.00
455.7150, 38731.00
456.9030, 38786.00
458.0910, 38597.00
459.2800, 38590.00
460.4670, 38410.00
461.6550, 38400.00
462.8430, 38660.00
464.0300, 38650.00
465.2180, 38597.00
466.4050, 38614.00
467.5920, 38604.00
468.7790, 38869.00
469.9650, 38637.00
471.1520, 38651.00
472.3380, 38296.00
473.5250, 38710.00
474.7110, 38410.00
475.8970, 38689.00
477.0820, 38665.00
478.2680, 38407.00
479.4540, 38719.00
480.6390, 38822.00
481.8240, 38847.00
483.0090, 38572.00
484.1940, 38714.00
485.3780, 38668.00
486.5630, 38780.00
487.7470, 38685.00
488.9320, 38827.00
490.1160, 38726.00
491.3000, 39071.00
492.4830, 39131.00
493.6670, 39119.00
494.8500, 38964.00
496.0340, 39321.00
497.2170, 39150.00
498.4000, 39140.00
499.5820, 39352.00
500.7650, 39408.00
501.9480, 39599.00
503.1300, 39379.00
504.3120, 39402.00
505.4940, 39581.00
506.6760, 39255.00
507.8580, 39400.00
509.0390, 39655.00
510.2210, 39348.63
511.4020, 39337.00
512.5830, 39171.00
513.7640, 39067.00
514.9450, 39313.00
516.1250, 39487.00
517.3060, 39478.00
518.4860, 39380.00
519.6660, 39646.00
520.8460, 39438.00
522.0260, 39539.00
523.2060, 39695.00
524.3850, 39803.00
525.5650, 39866.00
526.7440, 39850.00
527.9230, 39916.00
529.1020, 39841.71
530.2810, 39588.00
531.4590, 39617.00
532.6380, 39504.00
533.8160, 39240.00
534.9940, 39557.00
536.1720, 39490.00
537.3500, 39320.00
538.5270, 39332.00
539.7050, 39284.00
540.8820, 39586.00
542.0590, 39424.00
543.2360, 39532.00
544.4130, 39693.00
545.5900, 39532.00
546.7660, 39857.00
547.9430, 39754.00
549.1190, 39935.00
550.2950, 40162.00
551.4710, 40282.00
552.6470, 40332.00
553.8220, 40620.00
554.9980, 40744.00
556.1730, 40634.00
557.3480, 40286.00
558.5230, 40273.00
559.6980, 39888.00
560.8730, 40071.00
562.0470, 39778.00
563.2220, 39730.00
564.3960, 39613.00
565.5700, 39740.00
566.7440, 39602.00
567.9170, 39611.00
569.0910, 39517.00
570.2640, 39600.00
571.4380, 39697.00
572.6110, 39616.00
573.7840, 39317.00
574.9570, 39388.00
576.1290, 39480.00
577.3020, 39766.00
578.4740, 39311.00
579.6460, 39477.00
580.8180, 39515.00
581.9900, 39560.00
583.1620, 39561.00
584.3330, 39539.80
585.5040, 39392.00
586.6760, 39466.00
587.8470, 39406.00
589.0180, 39396.00
590.1880, 39372.00
591.3590, 39408.00
592.5290, 39510.00
593.7000, 39503.00
594.8700, 39088.00
596.0400, 39487.00
597.2090, 39304.00
598.3790, 39462.00
599.5490, 39558.00
600.7180, 39538.00
601.8870, 39367.00
603.0560, 39445.00
604.2250, 39583.00
605.3940, 39401.00
606.5620, 39497.00
607.7300, 39506.00
608.8990, 39302.00
610.0670, 39693.00
611.2350, 39505.00
612.4020, 39441.00
613.5700, 39651.00
614.7370, 39567.00
615.9050, 39630.00
617.0720, 39602.00
618.2390, 39544.00
619.4060, 39588.00
620.5720, 39522.00
621.7390, 39518.63
622.9050, 39642.00
624.0710, 39507.00
625.2370, 39609.00
626.4030, 39657.00
627.5690, 39908.00
628.7340, 40054.00
629.9000, 40172.00
631.0650, 39803.00
632.2300, 39823.00
633.3950, 40041.00
634.5600, 39790.00
635.7240, 39935.00
636.8890, 40195.00
638.0530, 39940.00
639.2170, 40060.00
640.3810, 40115.00
641.5450, 40228.00
642.7080, 40128.00
643.8720, 40336.00
645.0350, 40592.00
646.1980, 40572.00
647.3610, 41086.00
648.5240, 41119.00
649.6870, 41472.00
650.8490, 41863.00
652.0120, 42417.00
653.1740, 43136.00
654.3360, 43830.00
655.4980, 44773.00
656.6600, 45076.00
657.8210, 46045.00
658.9830, 46785.00
660.1440, 46743.00
661.3050, 47111.00
662.4660, 46457.00
663.6270, 45754.00
664.7870, 44853.00
665.9480, 44043.00
667.1080, 43350.00
668.2680, 42667.30
669.4280, 42102.00
670.5880, 41700.00
671.7480, 41245.00
672.9070, 41241.00
674.0670, 40551.00
675.2260, 40935.00
676.3850, 40466.00
677.5440, 40401.00
678.7030, 40440.00
679.8610, 39888.00
681.0200, 40135.00
682.1780, 39837.00
683.3360, 40008.00
684.4940, 39989.00
685.6520, 39927.00
686.8090, 39756.00
687.9670, 39782.00
689.1240, 39804.00
690.2810, 39797.00
691.4380, 39749.00
692.5950, 39862.00
693.7520, 39584.00
694.9080, 39783.00
696.0650, 39718.00
697.2210, 39688.00
698.3770, 39774.00
699.5330, 39542.00
700.6880, 39726.00
701.8440, 39780.00
702.9990, 39528.00
704.1550, 39787.00
705.3100, 39857.00
706.4650, 39495.00
707.6190, 39837.00
708.7740, 39611.00
709.9290, 39592.00
711.0830, 39763.00
712.2370, 39662.00
713.3910, 39720.02
714.5450, 39546.00
715.6980, 39657.00
716.8520, 39604.00
718.0050, 39405.00
719.1580, 39465.00
720.3110, 39495.00
721.4640, 39592.00
722.6170, 39344.00
723.7700, 39493.00
724.9220, 39492.00
726.0740, 39328.00
727.2260, 39499.00
728.3780, 39473.00
729.5300, 39333.00
730.6810, 39464.00
731.8330, 39480.00
732.9840, 39314.00
734.1350, 39613.00
735.2860, 39501.00
736.4370, 39181.00
737.5880, 39324.00
738.7380, 39320.00
739.8880, 39522.00
741.0390, 39327.00
742.1890, 39062.00
743.3380, 39352.00
744.4880, 39331.00
745.6380, 39045.00
746.7870, 39288.00
747.9360, 39388.00
749.0850, 39159.00
750.2340, 39391.00
751.3830, 39246.00
752.5310, 39215.00
753.6800, 39436.00
754.8280, 39499.00
755.9760, 39271.00
757.1240, 39268.00
758.2720, 39169.00
759.4190, 39269.00
760.5670, 39515.00
761.7140, 39336.00
762.8610, 39351.00
764.0080, 39074.00
765.1550, 39252.00
766.3020, 39426.00
767.4480, 39328.00
768.5950, 39371.00
769.7410, 39298.00
770.8870, 39208.00
772.0330, 39054.00
773.1780, 39296.00
774.3240, 39274.00
775.4690, 39131.00
776.6140, 39100.00
777.7590, 38776.00
778.9040, 39122.00
780.0490, 39127.00
781.1940, 38941.00
782.3380, 39221.00
783.4820, 38901.00
784.6260, 39008.00
785.7700, 39125.00
786.9140, 39106.00
788.0580, 39179.00
789.2010, 39183.00
790.3450, 39037.00
791.4880, 39042.00
792.6310, 39009.00
793.7730, 38795.00
794.9160, 39210.00
796.0590, 39103.00
797.2010, 38973.00
798.3430, 39136.00
799.4850, 38964.00
800.6270, 38725.00
801.7690, 39015.00
802.9100, 39035.00
804.0520, 38943.00
805.1930, 39022.07
806.3340, 38929.00
807.4750, 38971.00
808.6160, 38922.00
809.7560, 38979.00
810.8970, 38888.00
812.0370, 38828.00
813.1770, 38888.00
814.3170, 38811.00
815.4570, 38954.00
816.5960, 38961.00
817.7360, 39053.00
818.8750, 38643.00
820.0140, 38625.00
821.1530, 38831.00
822.2920, 38643.00
823.4310, 38811.00
824.5690, 39035.00
825.7070, 38983.00
826.8460, 38687.00
827.9840, 38740.00
829.1220, 38923.00
830.2590, 38968.00
831.3970, 38961.00
832.5340, 38823.00
833.6710, 38648.00
834.8080, 39030.00
835.9450, 38699.00
837.0820, 38828.00
838.2190, 38956.00
839.3550, 38818.00
840.4910, 38956.00
841.6270, 38934.00
842.7630, 39000.00
843.8990, 39073.00
845.0350, 39042.00
846.1700, 39301.00
847.3060, 39263.00
848.4410, 39477.00
849.5760, 39256.00
850.7100, 39192.00
851.8450, 39150.00
852.9800, 38907.00
854.1140, 38879.00
855.2480, 38717.00
856.3820, 38804.00
857.5160, 38807.00
858.6500, 38656.00
859.7830, 38896.00
860.9170, 38962.00
862.0500, 38837.00
863.1830, 38642.00
864.3160, 38754.00
865.4480, 38425.00
866.5810, 38379.00
867.7130, 38608.00
868.8460, 38619.00
869.9780, 38622.00
871.1100, 38682.00
872.2410, 38452.00
873.3730, 38532.00
874.5050, 38639.00
875.6360, 38767.00
876.7670, 38594.00
877.8980, 38683.00
879.0290, 38445.00
880.1590, 38469.00
881.2900, 38730.00
882.4200, 38621.00
883.5500, 38611.00
884.6800, 38540.00
885.8100, 38602.00
886.9400, 38514.00
888.0690, 38585.00
889.1990, 38494.00
890.3280, 38472.00
891.4570, 38564.00
892.5860, 38359.00
893.7140, 38453.00
894.8430, 38498.00
895.9710, 38224.00
897.1000, 38339.00
898.2280, 38349.00
899.3560, 38220.00
900.4830, 38569.00
901.6110, 38413.00
902.7380, 38418.00
903.8660, 38499.00
904.9930, 38424.00
906.1200, 38487.00
907.2460, 38475.58
908.3730, 38435.00
909.5000, 38453.00
910.6260, 38392.87
911.7520, 38367.16
912.8780, 38284.00
914.0040, 38290.00
915.1290, 38224.00
916.2550, 38192.00
917.3800, 38117.00
918.5050, 38130.45
919.6300, 38402.00
920.7550, 38192.00
921.8800, 38220.00
923.0040, 38321.00
924.1290, 38078.00
925.2530, 38258.00
926.3770, 38021.00
927.5010, 38193.00
928.6250, 38061.00
929.7480, 38246.00
930.8720, 37981.00
931.9950, 38286.00
933.1180, 38073.00
934.2410, 38149.00
935.3640, 37967.00
936.4860, 38044.00
937.6090, 37939.00
938.7310, 37958.00
939.8530, 38070.00
940.9750, 37726.00
942.0970, 37974.00
943.2180, 37707.00
944.3400, 37793.00
945.4610, 38013.00
946.5820, 38009.00
947.7030, 37801.00
948.8240, 38033.00
949.9450, 37917.00
951.0650, 37615.00
952.1860, 37848.00
953.3060, 37871.00
954.4260, 37848.00
955.5460, 37742.00
956.6650, 37832.00
957.7850, 38035.00
958.9040, 38038.00
960.0230, 38085.43
961.1420, 38049.73
962.2610, 38026.00
963.3800, 37889.00
964.4990, 37758.00
965.6170, 37719.00
966.7350, 37947.00
967.8530, 37790.00
968.9710, 37908.00
970.0890, 37602.00
971.2070, 37820.00
972.3240, 37704.00
973.4410, 37598.00
974.5580, 37670.00
975.6750, 37849.00
976.7920, 37570.00
977.9090, 37963.00
979.0250, 38101.00
980.1410, 37868.00
981.2580, 37896.00
982.3740, 37864.00
983.4890, 38014.00
984.6050, 38051.00
985.7200, 37859.00
986.8360, 37785.00
987.9510, 37886.00
989.0660, 37854.02
990.1810, 38309.00
991.2950, 38115.00
992.4100, 38220.00
993.5240, 38580.00
994.6390, 38350.00
995.7530, 38459.00
996.8660, 38645.00
997.9800, 38904.00
999.0940, 39306.00
1000.207, 39355.00
1001.320, 39990.00
1002.433, 40493.00
1003.546, 41406.00
1004.659, 42327.00
1005.772, 43993.96
1006.884, 45769.00
1007.996, 48218.00
1009.108, 50673.00
1010.220, 53731.00
1011.332, 56380.00
1012.444, 58148.00
1013.555, 58323.00
1014.666, 56613.00
1015.777, 53739.00
1016.888, 50544.00
1017.999, 47563.00
1019.110, 45380.43
1020.220, 43277.77
1021.331, 41722.00
1022.441, 40478.00
1023.551, 39803.00
1024.661, 39446.00
1025.770, 39020.00
1026.880, 39050.00
1027.989, 39029.00
1029.098, 38636.00
1030.207, 38621.48
1031.316, 38561.00
1032.425, 38278.00
1033.533, 38694.00
1034.642, 38557.00
1035.750, 38628.00
1036.858, 38908.00
1037.966, 38990.00
1039.073, 38839.00
1040.181, 38771.00
1041.288, 38652.00
1042.396, 38563.00
1043.503, 38475.00
1044.610, 38197.00
1045.716, 37895.00
1046.823, 37737.00
1047.929, 37378.00
1049.036, 37297.00
1050.142, 37302.00
1051.248, 37197.00
1052.353, 37040.00
1053.459, 37058.00
1054.564, 36839.00
1055.670, 37056.00
1056.775, 36857.00
1057.880, 37003.00
1058.985, 36847.00
1060.089, 36738.00
1061.194, 37026.00
1062.298, 36794.00
1063.402, 36743.00
1064.506, 36522.00
1065.610, 36671.00
1066.713, 36936.00
1067.817, 36593.00
1068.920, 36335.00
1070.023, 36486.00
1071.126, 36290.00
1072.229, 36259.73
1073.332, 36449.00
1074.435, 36180.00
1075.537, 36487.00
1076.639, 36500.00
1077.741, 36212.00
1078.843, 36603.00
1079.945, 36261.00
1081.046, 36305.00
1082.148, 36468.00
1083.249, 36321.00
1084.350, 36317.00
1085.451, 36237.00
1086.551, 36099.00
1087.652, 36244.00
1088.752, 36092.00
1089.853, 36030.00
1090.953, 35939.00
1092.053, 35997.00
1093.152, 35922.00
1094.252, 36066.00
1095.351, 36191.00
1096.451, 35995.00
1097.550, 36063.00
1098.649, 35987.00
1099.748, 36221.00
1100.846, 35931.00
1101.945, 36137.00
1103.043, 35965.00
1104.141, 35783.00
1105.239, 35897.00
1106.337, 35785.00
1107.434, 35495.00
1108.532, 35710.00
1109.629, 35797.00
1110.726, 35501.00
1111.823, 35666.00
1112.920, 35774.00
1114.017, 35801.00
1115.113, 35803.00
1116.210, 35853.00
1117.306, 36000.00
1118.402, 36249.00
1119.498, 36456.00
1120.593, 36411.00
1121.689, 36656.00
1122.784, 36274.00
1123.879, 36216.00
1124.974, 35959.00
1126.069, 36053.00
1127.164, 35701.00
1128.259, 35451.00
1129.353, 35487.00
1130.447, 35420.00
1131.541, 35363.00
1132.635, 35405.00
1133.729, 35172.00
1134.822, 35311.00
1135.916, 35317.00
1137.009, 35217.00
1138.102, 35080.00
1139.195, 35021.00
1140.288, 35186.00
1141.380, 35073.00
1142.473, 35458.00
1143.565, 34968.00
1144.657, 35187.00
1145.749, 34824.00
1146.841, 35061.00
1147.932, 34989.00
1149.024, 34971.00
1150.115, 34761.00
1151.206, 34903.00
1152.297, 34844.00
1153.388, 34803.00
1154.479, 34851.39
1155.569, 34706.00
1156.659, 34821.00
1157.750, 35037.00
1158.839, 34967.75
1159.929, 34481.00
1161.019, 34771.00
1162.108, 34665.00
1163.198, 34504.00
1164.287, 34567.00
1165.376, 34692.00
1166.465, 34455.00
1167.553, 34596.00
1168.642, 34583.00
1169.730, 34595.00
1170.818, 34509.00
1171.906, 34294.00
1172.994, 34266.00
1174.082, 34284.14
1175.170, 34429.00
1176.257, 34394.00
1177.344, 34316.00
1178.431, 34277.00
1179.518, 34333.00
1180.605, 34353.00
1181.691, 34140.00
1182.778, 34532.00
1183.864, 34208.00
1184.950, 34347.00
1186.036, 34201.00
1187.122, 34525.00
1188.207, 34272.00
1189.292, 34171.00
1190.378, 34434.00
1191.463, 34101.00
1192.548, 34306.00
1193.632, 34184.00
1194.717, 34244.00
1195.801, 34081.00
1196.886, 34042.00
1197.970, 33807.00
1199.054, 33866.00
1200.137, 34069.00
1201.221, 33934.00
1202.305, 34068.00
1203.388, 34005.00
1204.471, 33779.00
1205.554, 34041.00
1206.637, 34062.00
1207.719, 33931.00
1208.802, 33969.00
1209.884, 33871.00
1210.966, 33754.00
1212.048, 33462.00
1213.130, 33938.00
1214.212, 33748.00
1215.293, 34145.00
1216.374, 33741.00
1217.456, 33643.00
1218.536, 33722.00
1219.617, 33733.00
1220.698, 33730.00
1221.778, 33642.00
1222.859, 33553.00
1223.939, 33535.00
1225.019, 33671.00
1226.099, 33787.00
1227.178, 33842.00
1228.258, 33575.00
1229.337, 33678.00
1230.417, 33577.00
1231.496, 33473.00
1232.574, 33489.00
1233.653, 33361.00
1234.732, 33447.00
1235.810, 33494.00
1236.888, 33541.00
1237.966, 33451.00
1239.044, 33381.00
1240.122, 33147.00
1241.199, 33494.00
1242.277, 33483.00
1243.354, 33433.00
1244.431, 33143.00
1245.508, 33291.00
1246.585, 33310.00
1247.661, 32913.00
1248.738, 33284.00
1249.814, 33133.00
1250.890, 33209.00
1251.966, 33199.00
1253.042, 33142.00
1254.117, 33283.00
1255.193, 33117.00
1256.268, 33123.00
1257.343, 32871.00
1258.418, 32885.00
1259.493, 32919.00
1260.567, 32953.00
1261.642, 32728.00
1262.716, 32885.00
1263.790, 32803.00
1264.864, 32808.00
1265.938, 32996.00
1267.011, 32910.00
1268.085, 32997.00
1269.158, 33250.00
1270.231, 32789.00
1271.304, 32471.00
1272.377, 32457.00
1273.450, 32557.00
1274.522, 32744.00
1275.594, 32408.00
1276.666, 32359.00
1277.738, 32579.00
1278.810, 32440.00
1279.882, 32361.00
1280.953, 32646.00
1282.025, 32411.00
1283.096, 32517.00
1284.167, 32712.00
1285.238, 32326.00
1286.308, 32497.00
1287.379, 32409.00
1288.449, 32304.00
1289.519, 32537.00
1290.589, 32453.00
1291.659, 32454.00
1292.729, 32281.00
1293.798, 32526.00
1294.868, 32572.00
1295.937, 32446.00
1297.006, 32327.00
1298.075, 32388.00
1299.143, 32416.00
1300.212, 32224.00
1301.280, 32401.00
1302.348, 32231.00
1303.416, 32337.00
1304.484, 32214.00
