##NAMES=Diopside
##RRUFFID=R060085
##IDEAL CHEMISTRY=CaMgSi_2_O_6_
##LOCALITY=Tyrol, Austria
##OWNER=RRUFF
##SOURCE=University of Arizona Mineral Museum
##DESCRIPTION=Brownish-green massive
##STATUS=The identification of this mineral has been confirmed by X-ray diffraction and chemical analysis
##URL=rruff.info/R060085
##MEASURED CHEMISTRY=(Ca_0.97_Na_0.03_)_Σ=1_(Mg_0.79_Fe^2+^_0.10_Fe^3+^_0.04_Al_0.04_Ti_0.02_Cr_0.01_)_Σ=1_(Si_1.90_Al_0.10_)_Σ=2_O_6_
##PIN_ID=M00509
##ORIENTATION=Laser parallel to a* (1 0 0). Fiducial mark perpendicular to laser is parallel to b [0 1 0]
99.34500, 10895.00
100.5820, 11010.00
101.8200, 10954.00
103.0570, 10897.00
104.2940, 11050.00
105.5310, 10983.00
106.7680, 11207.00
108.0040, 10939.00
109.2410, 11045.00
110.4770, 11163.00
111.7130, 11125.00
112.9490, 11174.00
114.1850, 11277.00
115.4200, 11328.00
116.6560, 11371.00
117.8910, 11373.00
119.1260, 11590.00
120.3610, 11609.00
121.5960, 11524.00
122.8300, 11311.00
124.0640, 11227.00
125.2990, 11353.00
126.5330, 11212.00
127.7670, 11363.00
129.0000, 11262.00
130.2340, 11267.00
131.4670, 11297.53
132.7000, 11221.00
133.9330, 11306.00
135.1660, 11272.00
136.3990, 11281.00
137.6310, 11208.00
138.8640, 11464.00
140.0960, 11235.00
141.3280, 11312.00
142.5600, 11193.00
143.7910, 11164.00
145.0230, 11198.00
146.2540, 11205.00
147.4850, 11284.00
148.7160, 11272.46
149.9470, 11222.00
151.1780, 11285.00
152.4080, 11182.00
153.6380, 11190.00
154.8690, 11259.00
156.0980, 11375.00
157.3280, 11325.00
158.5580, 11383.00
159.7870, 11262.00
161.0170, 11354.00
162.2460, 11186.00
163.4750, 11268.00
164.7030, 11329.00
165.9320, 11378.00
167.1600, 11374.00
168.3890, 11428.00
169.6170, 11360.00
170.8450, 11332.00
172.0730, 11435.00
173.3000, 11472.00
174.5280, 11358.00
175.7550, 11396.00
176.9820, 11465.00
178.2090, 11649.00
179.4350, 11576.00
180.6620, 11706.00
181.8880, 11618.00
183.1150, 11776.00
184.3410, 11708.00
185.5670, 11685.00
186.7920, 11676.00
188.0180, 11708.00
189.2430, 11543.00
190.4690, 11666.00
191.6940, 11587.00
192.9180, 11695.00
194.1430, 11583.00
195.3680, 11730.00
196.5920, 11629.00
197.8160, 11736.00
199.0400, 11810.00
200.2640, 11729.00
201.4880, 11712.00
202.7110, 11782.00
203.9350, 11679.00
205.1580, 11691.00
206.3810, 11752.00
207.6040, 11849.00
208.8270, 11662.00
210.0490, 11597.00
211.2710, 11982.00
212.4940, 11748.00
213.7160, 11727.00
214.9370, 11958.00
216.1590, 11937.00
217.3810, 11922.00
218.6020, 11948.00
219.8230, 11928.00
221.0440, 11938.00
222.2650, 12046.00
223.4860, 12110.00
224.7060, 12154.00
225.9260, 12081.00
227.1470, 12183.00
228.3670, 12195.00
229.5860, 12308.00
230.8060, 12422.00
232.0260, 12479.00
233.2450, 12464.06
234.4640, 12395.00
235.6830, 12385.00
236.9020, 12405.00
238.1200, 12425.00
239.3390, 12454.00
240.5570, 12241.00
241.7750, 12416.00
242.9930, 12408.00
244.2110, 12235.00
245.4290, 12440.00
246.6460, 12330.00
247.8630, 12354.00
249.0810, 12307.00
250.2980, 12362.00
251.5140, 12439.00
252.7310, 12604.00
253.9470, 12486.00
255.1640, 12433.00
256.3800, 12416.00
257.5960, 12552.00
258.8120, 12384.00
260.0270, 12394.00
261.2430, 12383.00
262.4580, 12320.00
263.6730, 12393.00
264.8880, 12338.00
266.1030, 12433.00
267.3170, 12311.00
268.5320, 12478.00
269.7460, 12317.00
270.9600, 12296.00
272.1740, 12525.00
273.3880, 12269.00
274.6010, 12365.00
275.8150, 12426.00
277.0280, 12301.00
278.2410, 12429.00
279.4540, 12457.00
280.6670, 12493.00
281.8790, 12559.71
283.0920, 12567.00
284.3040, 12630.00
285.5160, 12576.00
286.7280, 12577.00
287.9400, 12563.00
289.1510, 12663.00
290.3630, 12868.00
291.5740, 12804.00
292.7850, 12714.00
293.9960, 12711.00
295.2070, 13088.00
296.4170, 12701.00
297.6280, 13059.00
298.8380, 12902.00
300.0480, 13027.00
301.2580, 13152.00
302.4680, 12909.00
303.6770, 13154.00
304.8870, 13356.00
306.0960, 13507.00
307.3050, 13553.00
308.5140, 13611.00
309.7230, 13747.00
310.9310, 13930.00
312.1400, 13961.00
313.3480, 14346.00
314.5560, 14386.00
315.7640, 14710.00
316.9720, 14973.00
318.1790, 15355.00
319.3870, 15591.00
320.5940, 16019.00
321.8010, 16518.00
323.0080, 16903.00
324.2150, 17003.00
325.4210, 17301.00
326.6280, 17276.00
327.8340, 17307.00
329.0400, 16840.00
330.2460, 16520.00
331.4510, 16265.00
332.6570, 15750.00
333.8620, 15661.00
335.0680, 15241.00
336.2730, 15098.00
337.4780, 14832.00
338.6820, 14704.00
339.8870, 14471.00
341.0910, 14264.00
342.2950, 14336.00
343.5000, 14128.00
344.7030, 13960.00
345.9070, 14001.00
347.1110, 13937.00
348.3140, 13851.00
349.5170, 13996.00
350.7200, 14110.00
351.9230, 14044.00
353.1260, 14062.00
354.3290, 13980.00
355.5310, 14102.00
356.7330, 14172.00
357.9350, 14173.00
359.1370, 14088.00
360.3390, 14082.00
361.5400, 14060.00
362.7420, 14167.00
363.9430, 13955.00
365.1440, 14059.00
366.3450, 13926.00
367.5460, 14096.00
368.7460, 14086.00
369.9470, 14080.00
371.1470, 14169.00
372.3470, 14307.00
373.5470, 14260.00
374.7460, 14280.00
375.9460, 14550.00
377.1450, 14538.00
378.3450, 14652.00
379.5440, 14740.00
380.7430, 15037.00
381.9410, 15238.00
383.1400, 15566.00
384.3380, 15981.00
385.5370, 16356.00
386.7350, 16959.00
387.9320, 17499.00
389.1300, 18085.00
390.3280, 18636.00
391.5250, 18840.00
392.7220, 18971.00
393.9190, 18855.00
395.1160, 18396.00
396.3130, 17948.00
397.5100, 17545.00
398.7060, 16762.00
399.9020, 16222.00
401.0980, 15872.00
402.2940, 15453.00
403.4900, 15155.00
404.6860, 14818.00
405.8810, 14552.00
407.0760, 14429.00
408.2710, 14318.00
409.4660, 14481.00
410.6610, 14270.00
411.8550, 14234.00
413.0500, 14286.00
414.2440, 14114.00
415.4380, 13978.00
416.6320, 14118.00
417.8260, 13969.00
419.0190, 14159.00
420.2130, 14088.00
421.4060, 14016.00
422.5990, 13904.00
423.7920, 13959.56
424.9850, 14038.36
426.1770, 14084.64
427.3700, 14100.13
428.5620, 13992.67
429.7540, 14043.98
430.9460, 14031.66
432.1380, 14016.73
433.3290, 14090.39
434.5210, 14000.81
435.7120, 14073.06
436.9030, 14080.70
438.0940, 14117.92
439.2850, 14091.11
440.4750, 14084.07
441.6660, 14141.08
442.8560, 14162.63
444.0460, 14152.00
445.2360, 14179.05
446.4260, 14141.00
447.6160, 14201.00
448.8050, 14258.00
449.9940, 14213.00
451.1830, 14170.00
452.3720, 14232.00
453.5610, 14355.00
454.7500, 14155.00
455.9380, 14350.00
457.1260, 14260.00
458.3150, 14242.00
459.5020, 14364.00
460.6900, 14466.00
461.8780, 14434.00
463.0650, 14469.00
464.2530, 14386.00
465.4400, 14382.00
466.6270, 14460.00
467.8130, 14490.00
469.0000, 14568.00
470.1870, 14400.00
471.3730, 14400.00
472.5590, 14464.00
473.7450, 14645.00
474.9310, 14523.00
476.1160, 14593.00
477.3020, 14595.00
478.4870, 14625.00
479.6720, 14617.00
480.8570, 14668.00
482.0420, 14506.00
483.2270, 14795.00
484.4110, 14620.00
485.5960, 14828.00
486.7800, 14746.00
487.9640, 14862.00
489.1480, 14731.00
490.3310, 14648.00
491.5150, 14778.00
492.6980, 14672.00
493.8810, 14707.00
495.0640, 14776.00
496.2470, 14696.00
497.4300, 14799.00
498.6120, 14934.00
499.7950, 14790.00
500.9770, 14684.00
502.1590, 14886.00
503.3410, 14895.00
504.5220, 14949.00
505.7040, 15016.00
506.8850, 15045.50
508.0660, 15011.00
509.2470, 15119.00
510.4280, 15032.00
511.6090, 15017.00
512.7890, 15227.00
513.9700, 15216.00
515.1500, 15136.00
516.3300, 15165.00
517.5100, 15333.00
518.6900, 15341.00
519.8690, 15202.00
521.0490, 15409.00
522.2280, 15572.00
523.4070, 15668.00
524.5860, 15505.00
525.7640, 15584.00
526.9430, 15672.00
528.1210, 15918.00
529.3000, 15976.00
530.4780, 15932.00
531.6560, 15821.00
532.8330, 16042.00
534.0110, 15927.00
535.1880, 15884.00
536.3650, 15986.00
537.5430, 15886.00
538.7190, 15780.00
539.8960, 15900.00
541.0730, 16007.00
542.2490, 15761.00
543.4250, 15877.00
544.6020, 16025.00
545.7780, 15891.00
546.9530, 15897.00
548.1290, 15844.00
549.3040, 15845.00
550.4800, 15835.24
551.6550, 15838.50
552.8300, 15817.00
554.0040, 15847.00
555.1790, 15818.70
556.3540, 15762.00
557.5280, 15783.00
558.7020, 15755.00
559.8760, 15757.00
561.0500, 15813.00
562.2230, 15728.00
563.3970, 15855.00
564.5700, 15660.00
565.7430, 15732.00
566.9160, 15750.00
568.0890, 15657.00
569.2620, 15878.00
570.4340, 15867.00
571.6070, 15789.00
572.7790, 15779.00
573.9510, 15746.00
575.1230, 15767.00
576.2940, 15822.00
577.4660, 15642.00
578.6370, 15802.00
579.8080, 15859.00
580.9790, 15696.00
582.1500, 15695.00
583.3210, 15797.00
584.4910, 15647.00
585.6620, 15821.00
586.8320, 15569.00
588.0020, 15734.00
589.1720, 15938.00
590.3410, 15710.00
591.5110, 15817.00
592.6800, 15795.00
593.8500, 15871.00
595.0190, 15884.00
596.1880, 15755.00
597.3560, 15762.00
598.5250, 15715.41
599.6930, 15704.00
600.8620, 15678.00
602.0300, 15808.00
603.1970, 15865.00
604.3650, 16006.00
605.5330, 15831.00
606.7000, 15776.00
607.8680, 15877.00
609.0350, 15809.00
610.2020, 15735.00
611.3680, 15863.00
612.5350, 16003.00
613.7010, 15967.00
614.8680, 15925.00
616.0340, 16086.00
617.2000, 16116.00
618.3660, 16147.00
619.5310, 16242.00
620.6970, 16222.00
621.8620, 16297.00
623.0270, 16283.00
624.1920, 16264.00
625.3570, 16394.00
626.5220, 16322.00
627.6860, 16386.00
628.8500, 16588.00
630.0140, 16486.00
631.1780, 16511.00
632.3420, 16346.00
633.5060, 16441.00
634.6700, 16544.00
635.8330, 16470.00
636.9960, 16507.00
638.1590, 16384.00
639.3220, 16679.00
640.4850, 16704.00
641.6470, 16669.00
642.8100, 16773.00
643.9720, 16773.00
645.1340, 16821.00
646.2960, 17062.00
647.4570, 16934.00
648.6190, 17128.00
649.7800, 17154.00
650.9420, 17188.00
652.1030, 17279.00
653.2640, 17394.32
654.4240, 17527.94
655.5850, 17750.00
656.7450, 17879.00
657.9060, 18177.00
659.0660, 18400.00
660.2260, 18810.00
661.3850, 19188.00
662.5450, 19625.00
663.7040, 20205.00
664.8640, 20462.00
666.0230, 20829.00
667.1820, 20725.00
668.3410, 20441.00
669.4990, 20404.00
670.6580, 19848.00
671.8160, 19405.00
672.9740, 18961.00
674.1320, 18744.00
675.2900, 18549.00
676.4480, 18446.00
677.6050, 18246.24
678.7630, 18036.00
679.9200, 17977.00
681.0770, 17798.00
682.2340, 17766.00
683.3900, 17731.00
684.5470, 17655.00
685.7030, 17537.00
686.8590, 17537.00
688.0150, 17446.00
689.1710, 17621.00
690.3270, 17504.00
691.4830, 17483.00
692.6380, 17235.00
693.7930, 17408.00
694.9480, 17305.00
696.1030, 17378.00
697.2580, 17300.00
698.4130, 17241.00
699.5670, 17224.00
700.7210, 17331.00
701.8750, 17294.00
703.0290, 17453.00
704.1830, 17314.00
705.3370, 17349.00
706.4900, 17459.00
707.6430, 17273.00
708.7970, 17320.00
709.9490, 17273.00
711.1020, 17333.00
712.2550, 17398.00
713.4070, 17381.00
714.5600, 17351.00
715.7120, 17333.00
716.8640, 17384.00
718.0160, 17358.00
719.1670, 17246.00
720.3190, 17503.00
721.4700, 17354.00
722.6210, 17310.00
723.7720, 17467.00
724.9230, 17211.00
726.0740, 17454.00
727.2250, 17501.00
728.3750, 17593.00
729.5250, 17392.00
730.6750, 17383.00
731.8250, 17409.00
732.9750, 17491.00
734.1240, 17427.00
735.2740, 17336.00
736.4230, 17705.00
737.5720, 17432.00
738.7210, 17517.00
739.8700, 17615.00
741.0190, 17485.00
742.1670, 17545.00
743.3150, 17703.00
744.4630, 17697.00
745.6110, 17728.00
746.7590, 17736.00
747.9070, 17666.00
749.0540, 17838.00
750.2020, 17776.36
751.3490, 17571.00
752.4960, 17751.00
753.6430, 17703.00
754.7890, 17619.00
755.9360, 17676.00
757.0820, 17790.00
758.2280, 17717.00
759.3740, 17891.00
760.5200, 17815.00
761.6660, 17975.00
762.8120, 17829.00
763.9570, 17853.00
765.1020, 17894.00
766.2470, 17768.00
767.3920, 17839.00
768.5370, 17858.00
769.6810, 18003.00
770.8260, 17942.00
771.9700, 18119.00
773.1140, 18051.00
774.2580, 17921.00
775.4020, 18024.00
776.5460, 17975.00
777.6890, 18074.00
778.8320, 18044.00
779.9750, 18239.00
781.1180, 18166.00
782.2610, 18376.00
783.4040, 18118.00
784.5460, 18170.00
785.6890, 18338.00
786.8310, 18223.00
787.9730, 18088.00
789.1150, 18269.00
790.2560, 18279.00
791.3980, 18225.00
792.5390, 18316.00
793.6810, 18337.04
794.8220, 18202.00
795.9630, 18460.00
797.1030, 18481.00
798.2440, 18533.00
799.3840, 18373.00
800.5240, 18533.00
801.6650, 18595.00
802.8040, 18420.00
803.9440, 18525.00
805.0840, 18599.00
806.2230, 18346.00
807.3630, 18570.00
808.5020, 18593.00
809.6410, 18548.00
810.7790, 18564.00
811.9180, 18622.00
813.0570, 18721.00
814.1950, 18659.00
815.3330, 18636.00
816.4710, 18725.00
817.6090, 18730.00
818.7470, 18841.00
819.8840, 18712.00
821.0220, 18759.35
822.1590, 19003.00
823.2960, 18818.00
824.4330, 18915.00
825.5690, 19140.00
826.7060, 19072.00
827.8420, 19139.00
828.9790, 19101.00
830.1150, 19217.00
831.2510, 19127.00
832.3860, 19286.00
833.5220, 19072.00
834.6570, 19211.00
835.7930, 19169.00
836.9280, 19126.00
838.0630, 19268.00
839.1980, 19210.00
840.3320, 19224.00
841.4670, 19273.00
842.6010, 19363.00
843.7350, 19328.00
844.8690, 19236.00
846.0030, 19371.00
847.1370, 19398.00
848.2700, 19292.00
849.4040, 19431.00
850.5370, 19474.00
851.6700, 19432.00
852.8030, 19485.00
853.9360, 19547.00
855.0680, 19593.00
856.2000, 19672.00
857.3330, 19713.00
858.4650, 19661.00
859.5970, 19846.00
860.7290, 19660.00
861.8600, 19764.00
862.9920, 19809.00
864.1230, 19837.00
865.2540, 19847.00
866.3850, 19750.00
867.5160, 19906.00
868.6460, 19787.00
869.7770, 19651.00
870.9070, 19876.00
872.0370, 19730.00
873.1670, 19603.00
874.2970, 19892.00
875.4270, 19663.00
876.5570, 19960.00
877.6860, 19787.00
878.8150, 19868.00
879.9440, 19680.00
881.0730, 19916.00
882.2020, 19889.00
883.3300, 19858.00
884.4590, 19851.00
885.5870, 19765.00
886.7150, 19812.00
887.8430, 19759.00
888.9710, 20011.00
890.0990, 19829.00
891.2260, 19961.00
892.3530, 20056.00
893.4810, 19871.00
894.6080, 20039.00
895.7340, 19884.00
896.8610, 19993.00
897.9880, 19975.00
899.1140, 19996.00
900.2400, 19884.00
901.3660, 20161.00
902.4920, 20138.00
903.6180, 20231.00
904.7430, 20100.00
905.8690, 20015.00
906.9940, 20100.00
908.1190, 20148.00
909.2440, 20144.00
910.3690, 20216.00
911.4930, 20250.00
912.6180, 20164.00
913.7420, 20096.00
914.8660, 20167.00
915.9900, 20146.00
917.1140, 19998.00
918.2380, 20262.00
919.3610, 20310.00
920.4850, 20248.00
921.6080, 20424.00
922.7310, 20161.00
923.8540, 20436.00
924.9760, 20241.00
926.0990, 20347.00
927.2210, 20301.00
928.3440, 20410.00
929.4660, 20480.00
930.5880, 20473.00
931.7090, 20535.00
932.8310, 20450.00
933.9520, 20600.00
935.0740, 20400.00
936.1950, 20459.00
937.3160, 20597.00
938.4360, 20728.00
939.5570, 20585.00
940.6780, 20698.00
941.7980, 20601.00
942.9180, 20679.00
944.0380, 20622.00
945.1580, 20557.00
946.2780, 20628.57
947.3970, 20708.00
948.5170, 20716.00
949.6360, 20826.00
950.7550, 20892.00
951.8740, 20996.00
952.9930, 20979.00
954.1110, 21021.00
955.2300, 21135.00
956.3480, 20958.00
957.4660, 21080.00
958.5840, 21171.00
959.7020, 21130.00
960.8190, 21085.00
961.9370, 21108.00
963.0540, 21255.00
964.1710, 20985.00
965.2880, 21299.00
966.4050, 21449.00
967.5220, 21264.00
968.6380, 21253.00
969.7550, 21362.00
970.8710, 21515.00
971.9870, 21570.00
973.1030, 21344.00
974.2190, 21606.00
975.3340, 21697.00
976.4500, 21592.00
977.5650, 21787.00
978.6800, 21846.00
979.7950, 21802.00
980.9100, 21918.98
982.0250, 22027.68
983.1390, 22117.49
984.2530, 22190.20
985.3680, 22153.69
986.4820, 22289.56
987.5950, 22375.38
988.7090, 22472.35
989.8230, 22671.57
990.9360, 22721.09
992.0490, 22946.10
993.1620, 23120.14
994.2750, 23337.40
995.3880, 23615.00
996.5010, 24005.00
997.6130, 24165.00
998.7250, 24580.00
999.8370, 25142.00
1000.949, 25546.00
1002.061, 26017.00
1003.173, 26676.00
1004.284, 27195.60
1005.396, 27721.00
1006.507, 28474.00
1007.618, 29039.00
1008.729, 29766.00
1009.839, 30396.00
1010.950, 30721.00
1012.060, 30879.00
1013.171, 30733.00
1014.281, 29777.00
1015.391, 28819.00
1016.500, 27769.00
1017.610, 26743.00
1018.719, 25999.00
1019.829, 25279.00
1020.938, 24638.00
1022.047, 24328.00
1023.156, 23771.00
1024.264, 23549.00
1025.373, 23481.00
1026.481, 23297.00
1027.589, 23173.00
1028.697, 23133.89
1029.805, 22909.00
1030.913, 23025.00
1032.020, 22978.00
1033.128, 22849.00
1034.235, 22887.00
1035.342, 22818.00
1036.449, 22761.00
1037.556, 22949.00
1038.663, 22865.12
1039.769, 22940.18
1040.875, 22982.72
1041.981, 22994.48
1043.087, 22883.28
1044.193, 22930.86
1045.299, 22914.80
1046.404, 22896.13
1047.510, 22966.06
1048.615, 22963.00
1049.720, 22845.00
1050.825, 22822.81
1051.930, 22784.00
1053.034, 22793.00
1054.139, 22734.00
1055.243, 22887.00
1056.347, 22768.00
1057.451, 22658.00
1058.555, 22865.00
1059.658, 22707.00
1060.762, 22730.00
1061.865, 22878.00
1062.968, 22724.00
1064.071, 22732.42
1065.174, 22851.65
1066.277, 22925.22
1067.380, 22955.61
1068.482, 22813.42
1069.584, 22894.06
1070.686, 22885.40
1071.788, 22873.08
1072.890, 22985.08
1073.992, 22867.99
1075.093, 22978.01
1076.194, 22997.36
1077.295, 23058.21
1078.396, 23029.20
1079.497, 23027.95
1080.598, 22925.00
1081.698, 22982.64
1082.799, 23084.00
1083.899, 23043.00
1084.999, 23180.00
1086.099, 23214.00
1087.199, 23077.00
1088.298, 23049.00
1089.398, 23199.00
1090.497, 23275.00
1091.596, 23094.00
1092.695, 23021.00
1093.794, 23070.00
1094.892, 23186.00
1095.991, 23210.00
1097.089, 23251.00
1098.187, 23236.00
1099.285, 23147.00
1100.383, 23084.00
1101.481, 23119.00
1102.579, 23262.00
1103.676, 23283.00
1104.773, 23480.00
1105.870, 23491.00
1106.967, 23311.00
1108.064, 23393.00
1109.161, 23278.00
1110.257, 23372.00
1111.353, 23517.00
1112.449, 23610.00
1113.545, 23404.00
1114.641, 23402.00
1115.737, 23510.00
1116.832, 23412.00
1117.928, 23405.00
1119.023, 23563.00
1120.118, 23578.00
1121.213, 23655.00
1122.308, 23624.00
1123.402, 23701.00
1124.497, 23634.00
1125.591, 23562.00
1126.685, 23461.00
1127.779, 23694.00
1128.873, 23806.00
1129.967, 23751.00
1131.060, 23817.00
1132.153, 23645.00
1133.247, 23707.00
1134.340, 23701.00
1135.433, 23790.00
1136.525, 23911.00
1137.618, 23866.00
1138.710, 23883.00
1139.802, 23839.00
1140.895, 23837.00
1141.987, 23912.00
1143.078, 23889.00
1144.170, 23938.00
1145.261, 23938.80
1146.353, 23918.00
1147.444, 23967.00
1148.535, 23859.00
1149.626, 23934.00
1150.716, 23843.00
1151.807, 23966.00
1152.897, 24046.00
1153.988, 24044.00
1155.078, 24005.00
1156.168, 24081.00
1157.257, 24039.00
1158.347, 24244.00
1159.436, 24277.00
1160.526, 23989.00
1161.615, 24181.00
1162.704, 23943.00
1163.793, 24293.00
1164.881, 24200.00
1165.970, 24277.00
1167.058, 23982.00
1168.147, 24231.00
1169.235, 24309.00
1170.323, 24263.00
1171.410, 24315.00
1172.498, 24334.22
1173.585, 24391.00
1174.673, 24380.00
1175.760, 24428.10
1176.847, 24328.17
1177.934, 24497.00
1179.020, 24455.00
1180.107, 24483.00
1181.193, 24643.00
1182.279, 24514.00
1183.365, 24491.00
1184.451, 24465.00
1185.537, 24469.00
1186.623, 24669.00
1187.708, 24467.00
1188.793, 24571.00
1189.878, 24795.00
1190.963, 24668.00
1192.048, 24591.00
1193.133, 24651.00
1194.217, 24700.00
1195.302, 24711.00
1196.386, 24815.00
1197.470, 24607.00
1198.554, 24986.00
1199.638, 24894.00
1200.721, 24869.00
1201.805, 25051.00
1202.888, 24881.00
1203.971, 24944.00
1205.054, 24784.00
1206.137, 24945.00
1207.219, 24686.00
1208.302, 24800.00
1209.384, 25038.00
1210.466, 25038.00
1211.548, 25003.00
1212.630, 25139.00
1213.712, 24964.00
1214.794, 25118.00
1215.875, 25189.00
1216.956, 25279.00
1218.037, 25316.00
1219.118, 25321.39
1220.199, 25314.48
1221.280, 25350.00
1222.360, 25258.00
1223.441, 25407.00
1224.521, 25453.00
1225.601, 25311.00
1226.681, 25540.00
1227.760, 25433.00
1228.840, 25387.00
1229.919, 25249.00
1230.999, 25629.00
1232.078, 25425.00
1233.157, 25572.00
1234.236, 25624.00
1235.314, 25554.00
1236.393, 25614.00
1237.471, 25650.00
1238.549, 25549.00
1239.627, 25664.00
1240.705, 25445.00
1241.783, 25756.00
1242.860, 25526.00
1243.938, 25672.00
1245.015, 25655.00
1246.092, 25844.00
1247.169, 25744.00
1248.246, 25861.00
1249.323, 25664.00
1250.399, 25967.00
1251.475, 25690.00
1252.552, 25687.00
1253.628, 25667.00
1254.703, 25707.00
1255.779, 25901.00
1256.855, 26041.00
1257.930, 25979.00
1259.005, 25927.00
1260.080, 25906.00
1261.155, 26155.00
1262.230, 26008.00
1263.305, 26064.00
1264.379, 26288.00
1265.454, 26268.00
1266.528, 26168.00
1267.602, 26250.00
1268.676, 26235.00
1269.750, 26515.00
1270.823, 26351.00
1271.897, 26282.00
1272.970, 26332.00
1274.043, 26188.00
1275.116, 26441.00
1276.189, 26457.00
1277.261, 26408.00
