##NAMES=Diopside
##RRUFFID=R060171
##IDEAL CHEMISTRY=CaMgSi_2_O_6_
##LOCALITY=Jeffrey mine, Asbestos, Quebec, Canada
##OWNER=RRUFF
##SOURCE=Guy Ouellet
##DESCRIPTION=Yellowish-brown tabular crystals associated with vesuvianite, R060170
##STATUS=The identification of this mineral has been confirmed by X-ray diffraction and chemical analysis
##URL=rruff.info/R060171
##MEASURED CHEMISTRY=Ca_1.00_(Mg_0.98_Mn_0.02_)_Î£=1_Si_2.00_O_6_
##PIN_ID=L00630
##ORIENTATION=Laser parallel to (-1 0 -1). Fiducial mark perpendicular to laser is parallel to -b [0 -1 0]
109.5120, 11563.00
110.7440, 11102.00
111.9760, 11273.00
113.2080, 11384.00
114.4400, 11569.00
115.6710, 11823.00
116.9030, 11983.00
118.1340, 11945.00
119.3650, 12071.00
120.5960, 12079.00
121.8270, 12236.00
123.0580, 12301.00
124.2880, 12470.00
125.5190, 12627.00
126.7490, 12781.00
127.9790, 12914.00
129.2090, 12965.00
130.4390, 13310.00
131.6680, 13707.00
132.8980, 13725.00
134.1270, 14276.00
135.3560, 14807.00
136.5850, 16082.00
137.8140, 17438.00
139.0430, 20441.00
140.2710, 25396.00
141.5000, 31788.00
142.7280, 35807.00
143.9560, 32923.00
145.1840, 26583.00
146.4120, 21333.00
147.6390, 17809.00
148.8670, 16108.00
150.0940, 15042.00
151.3210, 14694.00
152.5490, 14279.00
153.7750, 14195.00
155.0020, 13971.00
156.2290, 13987.00
157.4550, 13918.00
158.6810, 13878.00
159.9080, 13905.00
161.1340, 14005.00
162.3590, 13987.00
163.5850, 14163.00
164.8110, 14273.00
166.0360, 14654.00
167.2610, 14580.21
168.4860, 14668.00
169.7110, 14468.00
170.9360, 14355.00
172.1610, 14131.00
173.3850, 14053.00
174.6100, 13915.00
175.8340, 14105.00
177.0580, 13912.00
178.2820, 14160.00
179.5050, 14126.00
180.7290, 14278.00
181.9520, 14438.00
183.1760, 14860.00
184.3990, 14958.00
185.6220, 14806.00
186.8450, 14486.00
188.0670, 14502.00
189.2900, 14508.00
190.5120, 14371.00
191.7340, 14594.00
192.9560, 14278.00
194.1780, 14461.00
195.4000, 14415.00
196.6220, 14531.00
197.8430, 14539.00
199.0640, 14452.00
200.2860, 14548.00
201.5070, 14517.00
202.7270, 14696.00
203.9480, 14681.00
205.1690, 14534.00
206.3890, 14505.00
207.6090, 14616.00
208.8290, 14429.00
210.0490, 14545.00
211.2690, 14675.00
212.4890, 14479.00
213.7080, 14704.00
214.9280, 14717.00
216.1470, 14660.00
217.3660, 14755.00
218.5850, 14768.04
219.8030, 14827.00
221.0220, 14913.00
222.2400, 15002.00
223.4590, 15153.00
224.6770, 15203.00
225.8950, 15662.00
227.1120, 15893.00
228.3300, 16425.00
229.5480, 17272.00
230.7650, 18274.00
231.9820, 18983.00
233.1990, 19078.00
234.4160, 18397.00
235.6330, 17351.00
236.8490, 16591.00
238.0660, 16066.00
239.2820, 15802.00
240.4980, 15432.00
241.7140, 15318.00
242.9300, 15285.00
244.1460, 15256.00
245.3610, 15302.00
246.5770, 15313.00
247.7920, 15296.00
249.0070, 15409.00
250.2220, 15434.00
251.4370, 15287.00
252.6510, 15653.00
253.8660, 15558.00
255.0800, 16014.00
256.2940, 16054.00
257.5080, 16196.00
258.7220, 16118.00
259.9360, 15895.00
261.1490, 15563.00
262.3630, 15525.00
263.5760, 15491.00
264.7890, 15523.00
266.0020, 15465.00
267.2150, 15397.00
268.4270, 15492.00
269.6400, 15608.00
270.8520, 15383.00
272.0640, 15383.00
273.2760, 15561.00
274.4880, 15599.00
275.7000, 15627.00
276.9120, 15534.00
278.1230, 15768.00
279.3340, 15555.00
280.5450, 15633.00
281.7560, 15718.00
282.9670, 15822.00
284.1780, 15829.41
285.3880, 15721.00
286.5980, 15826.00
287.8090, 15748.00
289.0190, 15702.00
290.2290, 15990.00
291.4380, 16015.00
292.6480, 15953.00
293.8570, 15884.00
295.0670, 15954.00
296.2760, 16076.00
297.4850, 16195.00
298.6930, 16469.00
299.9020, 16592.00
301.1110, 16944.00
302.3190, 17377.00
303.5270, 18104.00
304.7350, 18583.00
305.9430, 18394.00
307.1510, 17768.00
308.3580, 17367.00
309.5660, 17305.00
310.7730, 17195.00
311.9800, 17369.00
313.1870, 17559.00
314.3940, 17879.00
315.6010, 18137.00
316.8070, 18515.00
318.0130, 18966.00
319.2200, 19774.00
320.4260, 21443.00
321.6310, 23145.00
322.8370, 25875.00
324.0430, 28975.00
325.2480, 30980.00
326.4540, 30813.00
327.6590, 28688.00
328.8640, 25445.00
330.0680, 22679.00
331.2730, 20830.00
332.4780, 19585.00
333.6820, 18740.00
334.8860, 18452.00
336.0900, 18007.00
337.2940, 17833.00
338.4980, 17533.00
339.7010, 17609.00
340.9050, 17327.00
342.1080, 17371.00
343.3110, 17307.00
344.5140, 17282.00
345.7170, 17486.00
346.9200, 17478.00
348.1220, 17617.00
349.3240, 17826.00
350.5270, 17887.00
351.7290, 18416.00
352.9310, 18907.00
354.1320, 19853.00
355.3340, 21006.00
356.5350, 22740.00
357.7370, 24255.00
358.9380, 25121.00
360.1390, 25376.00
361.3400, 24917.00
362.5400, 23884.00
363.7410, 23141.00
364.9410, 22178.00
366.1410, 21485.00
367.3410, 21424.00
368.5410, 21418.00
369.7410, 21493.00
370.9400, 21074.00
372.1400, 20166.00
373.3390, 19613.00
374.5380, 19247.00
375.7370, 19012.00
376.9360, 19070.00
378.1350, 19184.00
379.3330, 19391.00
380.5310, 19585.00
381.7300, 20090.00
382.9280, 20874.00
384.1260, 21674.00
385.3230, 23160.00
386.5210, 25128.00
387.7180, 28217.00
388.9160, 32524.00
390.1130, 37111.00
391.3100, 39675.00
392.5060, 38478.00
393.7030, 34104.00
394.9000, 29478.00
396.0960, 25582.00
397.2920, 23142.00
398.4880, 21677.00
399.6840, 20270.00
400.8800, 19554.00
402.0750, 19434.00
403.2710, 19013.00
404.4660, 18622.00
405.6610, 18565.00
406.8560, 18384.00
408.0510, 18373.00
409.2450, 18142.00
410.4400, 18036.00
411.6340, 18179.00
412.8280, 17947.00
414.0220, 18026.00
415.2160, 18008.00
416.4100, 17939.00
417.6030, 17875.00
418.7970, 18027.00
419.9900, 18021.00
421.1830, 18155.00
422.3760, 17870.00
423.5690, 17926.00
424.7610, 17965.00
425.9540, 18048.00
427.1460, 18125.00
428.3380, 17867.00
429.5300, 18155.00
430.7220, 17865.00
431.9140, 18114.00
433.1050, 18113.00
434.2970, 17945.00
435.4880, 18060.00
436.6790, 18117.00
437.8700, 18085.00
439.0610, 18065.00
440.2510, 18222.00
441.4420, 18048.00
442.6320, 18001.00
443.8220, 18039.00
445.0120, 18292.00
446.2020, 18078.00
447.3910, 18282.00
448.5810, 18160.00
449.7700, 18263.00
450.9600, 18362.00
452.1490, 18015.00
453.3370, 18219.00
454.5260, 18193.00
455.7150, 18297.00
456.9030, 18286.00
458.0910, 18234.00
459.2800, 18451.00
460.4670, 18408.00
461.6550, 18418.00
462.8430, 18428.00
464.0300, 18556.00
465.2180, 18427.00
466.4050, 18510.00
467.5920, 18650.00
468.7790, 18507.00
469.9650, 18473.00
471.1520, 18516.00
472.3380, 18438.00
473.5250, 18543.00
474.7110, 18448.00
475.8970, 18650.00
477.0820, 18561.00
478.2680, 18528.00
479.4540, 18530.00
480.6390, 18551.80
481.8240, 18592.46
483.0090, 18664.00
484.1940, 18726.00
485.3780, 18764.00
486.5630, 18838.00
487.7470, 18797.00
488.9320, 18765.00
490.1160, 18975.00
491.3000, 18851.00
492.4830, 18813.00
493.6670, 18971.00
494.8500, 18691.00
496.0340, 18847.00
497.2170, 18780.00
498.4000, 18870.00
499.5820, 18963.00
500.7650, 19113.00
501.9480, 19000.00
503.1300, 18902.00
504.3120, 19156.00
505.4940, 19146.00
506.6760, 19252.00
507.8580, 19263.00
509.0390, 19279.00
510.2210, 19382.00
511.4020, 19505.00
512.5830, 19456.00
513.7640, 19471.00
514.9450, 19442.00
516.1250, 19407.00
517.3060, 19539.00
518.4860, 19570.00
519.6660, 19609.00
520.8460, 19514.00
522.0260, 19502.00
523.2060, 19495.00
524.3850, 19538.00
525.5650, 19579.30
526.7440, 19646.00
527.9230, 19718.00
529.1020, 19846.00
530.2810, 19928.00
531.4590, 20076.00
532.6380, 20084.00
533.8160, 19830.00
534.9940, 20008.00
536.1720, 19821.00
537.3500, 19870.00
538.5270, 19674.00
539.7050, 19747.00
540.8820, 19720.00
542.0590, 19642.00
543.2360, 19715.00
544.4130, 19839.00
545.5900, 19889.00
546.7660, 19845.00
547.9430, 19810.00
549.1190, 20036.00
550.2950, 19846.00
551.4710, 20156.00
552.6470, 19874.00
553.8220, 19969.00
554.9980, 20254.00
556.1730, 20390.00
557.3480, 20536.00
558.5230, 21018.00
559.6980, 21121.00
560.8730, 21578.00
562.0470, 21227.00
563.2220, 20750.00
564.3960, 20632.00
565.5700, 20513.00
566.7440, 20144.00
567.9170, 20252.00
569.0910, 20365.00
570.2640, 20285.00
571.4380, 20187.00
572.6110, 20247.00
573.7840, 20238.00
574.9570, 20145.00
576.1290, 20017.00
577.3020, 20185.00
578.4740, 20310.00
579.6460, 20262.00
580.8180, 20355.00
581.9900, 20242.00
583.1620, 20272.00
584.3330, 20457.00
585.5040, 20300.00
586.6760, 20346.00
587.8470, 20353.00
589.0180, 20522.00
590.1880, 20434.00
591.3590, 20482.00
592.5290, 20526.00
593.7000, 20281.00
594.8700, 20755.00
596.0400, 20491.00
597.2090, 20525.00
598.3790, 20373.00
599.5490, 20639.00
600.7180, 20593.00
601.8870, 20588.00
603.0560, 20632.00
604.2250, 20663.00
605.3940, 20687.23
606.5620, 20770.00
607.7300, 20749.00
608.8990, 20845.00
610.0670, 20871.00
611.2350, 20903.00
612.4020, 20842.00
613.5700, 20878.00
614.7370, 20963.00
615.9050, 20952.00
617.0720, 21036.00
618.2390, 20907.00
619.4060, 21126.00
620.5720, 21002.00
621.7390, 21091.00
622.9050, 21428.00
624.0710, 21329.00
625.2370, 21170.00
626.4030, 21299.00
627.5690, 21315.00
628.7340, 21425.00
629.9000, 21503.00
631.0650, 21576.00
632.2300, 21692.00
633.3950, 21609.00
634.5600, 21596.00
635.7240, 21689.00
636.8890, 21844.00
638.0530, 21891.00
639.2170, 21870.00
640.3810, 21846.00
641.5450, 22051.00
642.7080, 22180.00
643.8720, 22397.00
645.0350, 22359.00
646.1980, 22675.00
647.3610, 22689.00
648.5240, 22909.00
649.6870, 23175.00
650.8490, 23564.00
652.0120, 23894.00
653.1740, 24431.00
654.3360, 24958.00
655.4980, 25500.00
656.6600, 26494.00
657.8210, 27722.00
658.9830, 29078.00
660.1440, 31041.00
661.3050, 33548.00
662.4660, 36972.00
663.6270, 41016.00
664.7870, 45573.00
665.9480, 49445.00
667.1080, 51854.00
668.2680, 51293.00
669.4280, 48604.00
670.5880, 44474.00
671.7480, 39903.00
672.9070, 36062.00
674.0670, 33017.00
675.2260, 30540.00
676.3850, 28783.00
677.5440, 27305.00
678.7030, 26430.00
679.8610, 25749.00
681.0200, 25177.00
682.1780, 24611.00
683.3360, 24349.00
684.4940, 23816.00
685.6520, 23709.00
686.8090, 23622.00
687.9670, 23283.00
689.1240, 23220.00
690.2810, 23178.00
691.4380, 23193.00
692.5950, 22918.00
693.7520, 22818.00
694.9080, 22801.00
696.0650, 22913.00
697.2210, 22875.00
698.3770, 22696.00
699.5330, 22552.00
700.6880, 22511.00
701.8440, 22645.00
702.9990, 22617.00
704.1550, 22795.00
705.3100, 22829.00
706.4650, 22878.00
707.6190, 22878.00
708.7740, 22861.63
709.9290, 22853.00
711.0830, 22844.00
712.2370, 22781.00
713.3910, 22894.00
714.5450, 22625.00
715.6980, 22729.00
716.8520, 22728.00
718.0050, 22815.00
719.1580, 22772.81
720.3110, 22449.00
721.4640, 22633.00
722.6170, 22582.00
723.7700, 22426.00
724.9220, 22660.00
726.0740, 22629.00
727.2260, 22748.00
728.3780, 22832.00
729.5300, 22846.00
730.6810, 22657.00
731.8330, 22705.00
732.9840, 22710.00
734.1350, 22960.00
735.2860, 22790.00
736.4370, 22904.00
737.5880, 23029.00
738.7380, 22976.00
739.8880, 22892.00
741.0390, 22829.00
742.1890, 22841.00
743.3380, 22927.00
744.4880, 22895.00
745.6380, 22957.00
746.7870, 22989.00
747.9360, 22975.00
749.0850, 22932.00
750.2340, 23038.00
751.3830, 22866.00
752.5310, 22937.00
753.6800, 23188.00
754.8280, 22918.00
755.9760, 23115.00
757.1240, 23227.00
758.2720, 23310.00
759.4190, 23031.00
760.5670, 23305.00
761.7140, 23092.00
762.8610, 23262.00
764.0080, 23313.00
765.1550, 23181.00
766.3020, 23272.00
767.4480, 23368.00
768.5950, 23370.00
769.7410, 23262.00
770.8870, 23418.00
772.0330, 23460.00
773.1780, 23281.00
774.3240, 23453.00
775.4690, 23396.00
776.6140, 23506.00
777.7590, 23486.00
778.9040, 23435.00
780.0490, 23665.00
781.1940, 23722.00
782.3380, 23532.00
783.4820, 23519.00
784.6260, 23421.00
785.7700, 23622.00
786.9140, 23841.00
788.0580, 23553.00
789.2010, 23805.00
790.3450, 23700.00
791.4880, 23712.00
792.6310, 23838.00
793.7730, 23860.00
794.9160, 23845.00
796.0590, 23874.61
797.2010, 23901.00
798.3430, 23838.00
799.4850, 23863.00
800.6270, 23846.00
801.7690, 23830.00
802.9100, 23873.00
804.0520, 24044.00
805.1930, 23841.00
806.3340, 23969.00
807.4750, 24039.00
808.6160, 23846.00
809.7560, 23997.00
810.8970, 24080.00
812.0370, 24103.00
813.1770, 24197.00
814.3170, 24226.00
815.4570, 24315.00
816.5960, 24377.00
817.7360, 24345.00
818.8750, 24475.00
820.0140, 24288.00
821.1530, 24482.00
822.2920, 24510.00
823.4310, 24276.00
824.5690, 24554.00
825.7070, 24541.00
826.8460, 24450.00
827.9840, 24765.00
829.1220, 24627.00
830.2590, 24624.16
831.3970, 24759.00
832.5340, 24510.00
833.6710, 24693.00
834.8080, 24736.00
835.9450, 24655.00
837.0820, 24885.00
838.2190, 25059.00
839.3550, 24912.00
840.4910, 24971.00
841.6270, 25070.00
842.7630, 25325.00
843.8990, 25408.00
845.0350, 25512.00
846.1700, 25563.00
847.3060, 26133.00
848.4410, 26489.00
849.5760, 26983.00
850.7100, 27522.00
851.8450, 28554.00
852.9800, 30145.00
854.1140, 31160.00
855.2480, 31842.00
856.3820, 31353.00
857.5160, 30181.00
858.6500, 29020.00
859.7830, 27884.00
860.9170, 27143.00
862.0500, 26689.00
863.1830, 26189.00
864.3160, 26256.00
865.4480, 26011.00
866.5810, 25857.00
867.7130, 25853.00
868.8460, 25807.00
869.9780, 25599.00
871.1100, 25682.00
872.2410, 25749.00
873.3730, 25804.00
874.5050, 25651.00
875.6360, 25716.00
876.7670, 25722.00
877.8980, 25573.00
879.0290, 25841.00
880.1590, 25675.00
881.2900, 25716.00
882.4200, 25798.00
883.5500, 25738.00
884.6800, 25659.00
885.8100, 25665.00
886.9400, 25647.85
888.0690, 25648.49
889.1990, 25722.00
890.3280, 25795.00
891.4570, 25806.89
892.5860, 25848.62
893.7140, 25874.00
894.8430, 25897.00
895.9710, 25953.00
897.1000, 26020.00
898.2280, 26170.00
899.3560, 26132.00
900.4830, 26252.00
901.6110, 26061.00
902.7380, 26139.00
903.8660, 26050.00
904.9930, 26021.00
906.1200, 26343.00
907.2460, 26316.00
908.3730, 26575.00
909.5000, 26246.00
910.6260, 26276.00
911.7520, 26526.00
912.8780, 26597.00
914.0040, 26482.00
915.1290, 26584.00
916.2550, 26628.00
917.3800, 26727.00
918.5050, 26819.00
919.6300, 26771.00
920.7550, 26624.00
921.8800, 26632.00
923.0040, 26558.00
924.1290, 26867.00
925.2530, 26496.00
926.3770, 26611.00
927.5010, 26828.00
928.6250, 26627.00
929.7480, 26734.00
930.8720, 26749.00
931.9950, 26793.00
933.1180, 26801.00
934.2410, 26701.00
935.3640, 26730.93
936.4860, 26835.00
937.6090, 26730.00
938.7310, 26794.00
939.8530, 26881.00
940.9750, 26969.00
942.0970, 27001.00
943.2180, 27177.00
944.3400, 27095.00
945.4610, 27401.00
946.5820, 27110.00
947.7030, 27115.00
948.8240, 27190.00
949.9450, 27556.00
951.0650, 27547.00
952.1860, 27311.00
953.3060, 27476.00
954.4260, 27212.00
955.5460, 27260.00
956.6650, 27196.00
957.7850, 27341.00
958.9040, 27319.00
960.0230, 27342.00
961.1420, 27623.00
962.2610, 27500.00
963.3800, 27624.00
964.4990, 27932.00
965.6170, 27559.00
966.7350, 27601.00
967.8530, 27827.00
968.9710, 27767.00
970.0890, 27903.00
971.2070, 27853.00
972.3240, 28061.00
973.4410, 28063.07
974.5580, 27861.00
975.6750, 28150.00
976.7920, 28049.00
977.9090, 28086.00
979.0250, 28095.00
980.1410, 28054.00
981.2580, 28233.00
982.3740, 28182.00
983.4890, 28380.00
984.6050, 28591.00
985.7200, 28637.00
986.8360, 28598.00
987.9510, 28597.00
989.0660, 28656.00
990.1810, 28594.00
991.2950, 28784.00
992.4100, 28878.00
993.5240, 29059.00
994.6390, 29303.00
995.7530, 29139.00
996.8660, 29344.00
997.9800, 29526.00
999.0940, 29444.00
1000.207, 29849.00
1001.320, 30354.00
1002.433, 30745.00
1003.546, 31286.00
1004.659, 32127.00
1005.772, 32903.00
1006.884, 34445.00
1007.996, 36694.00
1009.108, 39473.00
1010.220, 43733.00
1011.332, 49493.00
1012.444, 55553.00
1013.555, 59900.00
1014.666, 60480.00
1015.777, 56831.00
1016.888, 50529.00
1017.999, 44802.00
1019.110, 40353.00
1020.220, 37241.00
1021.331, 35167.00
1022.441, 33679.00
1023.551, 32787.00
1024.661, 32080.00
1025.770, 31574.00
1026.880, 31102.60
1027.989, 30890.00
1029.098, 30577.00
1030.207, 30649.00
1031.316, 30601.00
1032.425, 30470.00
1033.533, 30483.00
1034.642, 30334.00
1035.750, 30194.00
1036.858, 30232.00
1037.966, 30334.00
1039.073, 30184.00
1040.181, 30351.00
1041.288, 30197.00
1042.396, 30202.00
1043.503, 30478.00
1044.610, 30399.00
1045.716, 30571.00
1046.823, 30489.00
1047.929, 30688.00
1049.036, 30840.00
1050.142, 30737.00
1051.248, 30898.00
1052.353, 30746.00
1053.459, 30911.00
1054.564, 30443.00
1055.670, 30453.00
1056.775, 30429.00
1057.880, 30483.00
1058.985, 30469.00
1060.089, 30498.00
1061.194, 30244.00
1062.298, 30579.00
1063.402, 30591.00
1064.506, 30288.00
1065.610, 30490.00
1066.713, 30534.00
1067.817, 30474.00
1068.920, 30684.00
1070.023, 30562.00
1071.126, 30620.00
1072.229, 30653.00
1073.332, 30692.00
1074.435, 30640.00
1075.537, 30406.00
1076.639, 30665.00
1077.741, 30612.00
1078.843, 30878.00
1079.945, 30771.00
1081.046, 30847.00
1082.148, 30990.00
1083.249, 30835.00
1084.350, 31059.00
1085.451, 30952.00
1086.551, 30975.00
1087.652, 30901.00
1088.752, 30914.00
1089.853, 30988.00
1090.953, 30902.00
1092.053, 31119.00
1093.152, 30883.00
1094.252, 31187.00
1095.351, 31061.00
1096.451, 31364.00
1097.550, 31179.00
1098.649, 31475.00
1099.748, 31121.00
1100.846, 31183.00
1101.945, 31381.00
1103.043, 31411.00
1104.141, 31455.00
1105.239, 31537.21
1106.337, 31529.32
1107.434, 31581.00
1108.532, 31573.00
1109.629, 31522.00
1110.726, 31614.00
1111.823, 31682.00
1112.920, 31688.00
1114.017, 31610.00
1115.113, 31934.00
1116.210, 31922.00
1117.306, 32184.00
1118.402, 32039.00
1119.498, 31878.00
1120.593, 32341.00
1121.689, 32219.00
1122.784, 32362.00
1123.879, 32509.00
1124.974, 32101.00
1126.069, 32298.00
1127.164, 32193.00
1128.259, 32190.00
1129.353, 32239.00
1130.447, 32102.00
1131.541, 31913.00
1132.635, 32130.00
1133.729, 32461.00
1134.822, 32298.00
1135.916, 32360.00
1137.009, 32412.00
1138.102, 32388.00
1139.195, 32499.00
1140.288, 32271.00
1141.380, 32461.00
1142.473, 32407.00
1143.565, 32494.00
1144.657, 32887.00
1145.749, 32699.00
1146.841, 32726.00
1147.932, 32517.00
1149.024, 32819.00
1150.115, 32812.00
1151.206, 32897.00
1152.297, 33018.00
1153.388, 32951.00
1154.479, 32819.00
1155.569, 32659.00
1156.659, 32797.00
1157.750, 32974.00
1158.839, 32813.00
1159.929, 33032.00
1161.019, 32925.00
1162.108, 33307.00
1163.198, 33191.00
1164.287, 33314.00
1165.376, 33127.00
1166.465, 33297.00
1167.553, 33374.00
1168.642, 33433.00
1169.730, 33370.00
1170.818, 33461.00
1171.906, 33443.00
1172.994, 33501.00
1174.082, 33511.00
1175.170, 33400.00
1176.257, 33464.00
1177.344, 33317.00
1178.431, 33509.00
1179.518, 33772.00
1180.605, 33511.00
1181.691, 33361.00
1182.778, 33412.00
1183.864, 33822.00
1184.950, 33789.00
1186.036, 33980.00
1187.122, 33858.00
1188.207, 34012.00
1189.292, 33997.00
1190.378, 34109.00
1191.463, 34077.00
1192.548, 33960.00
1193.632, 34181.00
1194.717, 34153.00
1195.801, 34215.00
1196.886, 34043.00
1197.970, 34360.00
1199.054, 34409.00
1200.137, 34265.00
1201.221, 34358.00
1202.305, 34258.00
1203.388, 34473.00
1204.471, 34425.00
1205.554, 34481.00
1206.637, 34641.00
1207.719, 34711.00
1208.802, 34840.00
1209.884, 34430.00
1210.966, 34606.00
1212.048, 34551.00
1213.130, 34821.00
1214.212, 34707.00
1215.293, 35033.00
1216.374, 34803.00
1217.456, 34994.00
1218.536, 34920.00
1219.617, 34695.00
1220.698, 35217.00
1221.778, 35093.00
1222.859, 35158.00
1223.939, 35040.00
1225.019, 35011.00
1226.099, 35349.00
1227.178, 35524.00
1228.258, 35321.00
1229.337, 35347.00
1230.417, 35650.00
1231.496, 35409.00
1232.574, 35606.00
1233.653, 35401.00
1234.732, 35442.00
1235.810, 35496.00
1236.888, 35635.00
1237.966, 35464.00
1239.044, 35728.00
1240.122, 35939.00
1241.199, 36020.00
1242.277, 35733.00
1243.354, 35879.00
1244.431, 35742.00
1245.508, 35960.00
1246.585, 36019.00
1247.661, 35815.00
1248.738, 36068.00
1249.814, 36056.00
1250.890, 36090.00
1251.966, 36121.00
1253.042, 36098.00
1254.117, 36152.01
1255.193, 36239.00
1256.268, 36169.00
1257.343, 36301.00
1258.418, 36200.00
1259.493, 36238.00
1260.567, 36537.00
1261.642, 36616.00
1262.716, 36546.00
1263.790, 36504.00
1264.864, 36706.00
1265.938, 36691.00
1267.011, 36617.00
1268.085, 36676.00
1269.158, 36846.00
1270.231, 36945.00
1271.304, 36981.00
1272.377, 36923.00
1273.450, 37018.00
1274.522, 37118.00
1275.594, 37021.00
1276.666, 37128.00
1277.738, 37202.00
1278.810, 37202.00
1279.882, 37060.00
1280.953, 37094.00
1282.025, 37131.00
1283.096, 37075.00
1284.167, 37096.47
1285.238, 37368.00
1286.308, 37213.00
1287.379, 37231.00
