##NAMES=Diopside
##RRUFFID=R060171
##IDEAL CHEMISTRY=CaMgSi_2_O_6_
##LOCALITY=Jeffrey mine, Asbestos, Quebec, Canada
##OWNER=RRUFF
##SOURCE=Guy Ouellet
##DESCRIPTION=Yellowish-brown tabular crystals associated with vesuvianite, R060170
##STATUS=The identification of this mineral has been confirmed by X-ray diffraction and chemical analysis
##URL=rruff.info/R060171
##MEASURED CHEMISTRY=Ca_1.00_(Mg_0.98_Mn_0.02_)_Î£=1_Si_2.00_O_6_
##PIN_ID=L00630
##ORIENTATION=Laser parallel to (-1 0 -1). Fiducial mark perpendicular to laser is parallel to -b [0 -1 0]
109.5120, 11423.00
110.7440, 11342.00
111.9760, 11211.00
113.2080, 11319.00
114.4400, 11527.00
115.6710, 11833.00
116.9030, 11742.00
118.1340, 11818.00
119.3650, 11896.00
120.5960, 11872.00
121.8270, 12109.00
123.0580, 12149.00
124.2880, 12228.00
125.5190, 12269.00
126.7490, 12460.00
127.9790, 12534.00
129.2090, 12706.00
130.4390, 12809.00
131.6680, 12993.00
132.8980, 13099.00
134.1270, 13279.00
135.3560, 13690.00
136.5850, 14228.00
137.8140, 15150.00
139.0430, 16832.00
140.2710, 19396.00
141.5000, 22643.00
142.7280, 24524.00
143.9560, 22900.00
145.1840, 19701.00
146.4120, 16887.00
147.6390, 15337.00
148.8670, 14418.00
150.0940, 13925.00
151.3210, 13760.00
152.5490, 13596.00
153.7750, 13629.00
155.0020, 13356.00
156.2290, 13552.00
157.4550, 13304.00
158.6810, 13296.00
159.9080, 13469.00
161.1340, 13451.00
162.3590, 13658.00
163.5850, 13829.00
164.8110, 14018.00
166.0360, 14330.00
167.2610, 14620.00
168.4860, 14375.00
169.7110, 14098.00
170.9360, 13861.00
172.1610, 13817.00
173.3850, 13803.00
174.6100, 13639.00
175.8340, 13744.00
177.0580, 13794.00
178.2820, 13732.00
179.5050, 13954.00
180.7290, 14016.00
181.9520, 14201.00
183.1760, 14467.00
184.3990, 14734.00
185.6220, 14605.00
186.8450, 14353.00
188.0670, 14052.00
189.2900, 13997.00
190.5120, 14184.00
191.7340, 14164.00
192.9560, 14099.00
194.1780, 14272.00
195.4000, 14169.00
196.6220, 14252.00
197.8430, 14290.00
199.0640, 14086.00
200.2860, 14305.00
201.5070, 14156.00
202.7270, 14334.00
203.9480, 14257.00
205.1690, 14322.00
206.3890, 14290.00
207.6090, 14262.00
208.8290, 14411.00
210.0490, 14353.00
211.2690, 14423.00
212.4890, 14368.00
213.7080, 14337.00
214.9280, 14509.00
216.1470, 14438.00
217.3660, 14528.00
218.5850, 14457.00
219.8030, 14649.00
221.0220, 14584.00
222.2400, 14709.00
223.4590, 14862.00
224.6770, 14959.00
225.8950, 15269.00
227.1120, 15613.08
228.3300, 15924.00
229.5480, 16615.00
230.7650, 17403.00
231.9820, 18214.00
233.1990, 18356.00
234.4160, 17793.00
235.6330, 17088.00
236.8490, 16094.00
238.0660, 15649.00
239.2820, 15415.00
240.4980, 15141.00
241.7140, 15062.00
242.9300, 15069.00
244.1460, 14980.11
245.3610, 15070.00
246.5770, 14988.00
247.7920, 15040.00
249.0070, 15036.00
250.2220, 15071.00
251.4370, 15219.00
252.6510, 15246.00
253.8660, 15412.00
255.0800, 15622.00
256.2940, 15594.00
257.5080, 15717.00
258.7220, 15793.00
259.9360, 15589.00
261.1490, 15492.00
262.3630, 15337.00
263.5760, 15287.00
264.7890, 15147.00
266.0020, 15208.00
267.2150, 15127.00
268.4270, 15199.00
269.6400, 15323.00
270.8520, 15323.00
272.0640, 15249.00
273.2760, 15307.00
274.4880, 15462.00
275.7000, 15328.00
276.9120, 15308.00
278.1230, 15392.00
279.3340, 15319.00
280.5450, 15395.00
281.7560, 15487.00
282.9670, 15565.00
284.1780, 15550.44
285.3880, 15382.00
286.5980, 15580.00
287.8090, 15392.00
289.0190, 15576.00
290.2290, 15571.00
291.4380, 15740.00
292.6480, 15789.00
293.8570, 15729.00
295.0670, 15772.00
296.2760, 15891.00
297.4850, 15881.00
298.6930, 16182.00
299.9020, 16381.00
301.1110, 16538.00
302.3190, 17094.00
303.5270, 17775.00
304.7350, 18023.00
305.9430, 17774.00
307.1510, 17304.00
308.3580, 17033.00
309.5660, 16955.00
310.7730, 16883.00
311.9800, 16951.00
313.1870, 16919.00
314.3940, 17382.00
315.6010, 17456.00
316.8070, 17852.00
318.0130, 18413.00
319.2200, 19258.00
320.4260, 20403.00
321.6310, 22123.00
322.8370, 24625.00
324.0430, 27423.00
325.2480, 29270.00
326.4540, 29557.00
327.6590, 27488.00
328.8640, 24452.00
330.0680, 22316.00
331.2730, 20393.00
332.4780, 19149.00
333.6820, 18427.00
334.8860, 17938.00
336.0900, 17529.00
337.2940, 17411.00
338.4980, 17230.00
339.7010, 17072.00
340.9050, 17101.00
342.1080, 16945.00
343.3110, 16975.00
344.5140, 17041.00
345.7170, 17002.00
346.9200, 17144.00
348.1220, 17240.00
349.3240, 17467.00
350.5270, 17530.00
351.7290, 17817.00
352.9310, 18162.00
354.1320, 18780.00
355.3340, 19934.00
356.5350, 21143.00
357.7370, 22385.00
358.9380, 22794.00
360.1390, 22518.00
361.3400, 21942.00
362.5400, 21312.00
363.7410, 20882.00
364.9410, 20523.12
366.1410, 19920.00
367.3410, 20137.00
368.5410, 20387.00
369.7410, 20561.00
370.9400, 19964.00
372.1400, 19328.00
373.3390, 18826.00
374.5380, 18407.00
375.7370, 18495.00
376.9360, 18298.00
378.1350, 18491.00
379.3330, 18551.00
380.5310, 18923.00
381.7300, 19320.00
382.9280, 19709.00
384.1260, 20455.00
385.3230, 21467.00
386.5210, 23344.00
387.7180, 25684.00
388.9160, 29293.00
390.1130, 32846.00
391.3100, 35063.00
392.5060, 34399.00
393.7030, 31353.00
394.9000, 27266.00
396.0960, 24080.00
397.2920, 21764.00
398.4880, 20400.00
399.6840, 19526.00
400.8800, 19043.00
402.0750, 18658.00
403.2710, 18315.00
404.4660, 18147.00
405.6610, 18242.00
406.8560, 17846.00
408.0510, 17872.00
409.2450, 17858.00
410.4400, 17560.00
411.6340, 17840.00
412.8280, 17698.00
414.0220, 17625.00
415.2160, 17591.00
416.4100, 17662.00
417.6030, 17501.00
418.7970, 17699.00
419.9900, 17710.00
421.1830, 17572.00
422.3760, 17551.00
423.5690, 17593.00
424.7610, 17685.00
425.9540, 17759.00
427.1460, 17430.00
428.3380, 17698.00
429.5300, 17599.00
430.7220, 17741.00
431.9140, 17810.00
433.1050, 17591.00
434.2970, 17855.00
435.4880, 17676.00
436.6790, 17614.00
437.8700, 17700.00
439.0610, 17747.00
440.2510, 17609.00
441.4420, 17747.00
442.6320, 17885.00
443.8220, 17673.00
445.0120, 17904.00
446.2020, 17686.00
447.3910, 17906.00
448.5810, 17799.00
449.7700, 17745.00
450.9600, 18119.00
452.1490, 17849.00
453.3370, 17951.00
454.5260, 18050.00
455.7150, 17992.00
456.9030, 17945.00
458.0910, 18137.00
459.2800, 17951.00
460.4670, 18066.00
461.6550, 17882.00
462.8430, 18163.00
464.0300, 18252.00
465.2180, 18156.00
466.4050, 18281.00
467.5920, 18289.00
468.7790, 18223.00
469.9650, 18104.00
471.1520, 18094.00
472.3380, 18150.00
473.5250, 18343.00
474.7110, 18295.00
475.8970, 18361.00
477.0820, 18284.00
478.2680, 18392.00
479.4540, 18393.00
480.6390, 18444.00
481.8240, 18312.00
483.0090, 18508.00
484.1940, 18251.00
485.3780, 18528.00
486.5630, 18399.00
487.7470, 18468.00
488.9320, 18290.00
490.1160, 18371.00
491.3000, 18515.00
492.4830, 18556.00
493.6670, 18510.00
494.8500, 18505.00
496.0340, 18559.00
497.2170, 18548.71
498.4000, 18602.00
499.5820, 18659.00
500.7650, 18752.00
501.9480, 18770.70
503.1300, 18781.91
504.3120, 18800.00
505.4940, 18785.00
506.6760, 18737.00
507.8580, 18805.00
509.0390, 18853.58
510.2210, 18903.00
511.4020, 19031.00
512.5830, 19047.00
513.7640, 19112.00
514.9450, 19072.00
516.1250, 19210.00
517.3060, 19291.00
518.4860, 19233.00
519.6660, 19271.78
520.8460, 18925.00
522.0260, 19170.00
523.2060, 19150.00
524.3850, 19041.00
525.5650, 19319.00
526.7440, 19370.00
527.9230, 19354.00
529.1020, 19495.00
530.2810, 19491.29
531.4590, 19581.00
532.6380, 19543.00
533.8160, 19629.00
534.9940, 19626.00
536.1720, 19608.00
537.3500, 19438.00
538.5270, 19405.00
539.7050, 19478.00
540.8820, 19341.00
542.0590, 19341.00
543.2360, 19482.00
544.4130, 19462.00
545.5900, 19475.00
546.7660, 19466.00
547.9430, 19511.87
549.1190, 19536.45
550.2950, 19639.00
551.4710, 19594.00
552.6470, 19695.00
553.8220, 19673.00
554.9980, 19785.00
556.1730, 20077.00
557.3480, 20053.00
558.5230, 20260.00
559.6980, 20717.00
560.8730, 20521.00
562.0470, 20492.00
563.2220, 20326.00
564.3960, 20143.00
565.5700, 20186.00
566.7440, 19959.00
567.9170, 19811.00
569.0910, 19843.00
570.2640, 19959.00
571.4380, 19839.00
572.6110, 19927.00
573.7840, 19820.00
574.9570, 19777.00
576.1290, 19860.00
577.3020, 19799.00
578.4740, 19970.00
579.6460, 19841.00
580.8180, 20037.00
581.9900, 20007.00
583.1620, 20100.00
584.3330, 19937.00
585.5040, 20099.00
586.6760, 20206.00
587.8470, 20085.00
589.0180, 20108.00
590.1880, 19935.00
591.3590, 19948.00
592.5290, 20069.00
593.7000, 20168.00
594.8700, 20246.00
596.0400, 20100.00
597.2090, 20254.00
598.3790, 20100.00
599.5490, 20202.00
600.7180, 20193.00
601.8870, 20225.00
603.0560, 20320.00
604.2250, 20348.00
605.3940, 20382.00
606.5620, 20451.00
607.7300, 20497.00
608.8990, 20409.00
610.0670, 20414.00
611.2350, 20357.00
612.4020, 20355.00
613.5700, 20358.00
614.7370, 20361.74
615.9050, 20349.00
617.0720, 20453.00
618.2390, 20401.00
619.4060, 20530.00
620.5720, 20734.00
621.7390, 20582.00
622.9050, 20605.00
624.0710, 20751.00
625.2370, 20886.00
626.4030, 20868.00
627.5690, 20680.00
628.7340, 21088.00
629.9000, 20808.00
631.0650, 20999.00
632.2300, 21006.00
633.3950, 21020.00
634.5600, 21031.00
635.7240, 21147.00
636.8890, 21157.00
638.0530, 21104.00
639.2170, 21162.00
640.3810, 21294.00
641.5450, 21585.00
642.7080, 21397.00
643.8720, 21612.00
645.0350, 21492.00
646.1980, 22009.00
647.3610, 22010.00
648.5240, 22109.00
649.6870, 22129.00
650.8490, 22553.00
652.0120, 22654.00
653.1740, 22766.00
654.3360, 23460.00
655.4980, 23788.00
656.6600, 24532.00
657.8210, 25411.00
658.9830, 26539.00
660.1440, 27814.00
661.3050, 29573.00
662.4660, 31937.00
663.6270, 34906.00
664.7870, 37992.00
665.9480, 40605.00
667.1080, 42643.00
668.2680, 42330.00
669.4280, 40477.00
670.5880, 37509.00
671.7480, 34275.00
672.9070, 31667.00
674.0670, 29158.00
675.2260, 27696.00
676.3850, 26412.00
677.5440, 25534.00
678.7030, 24665.00
679.8610, 24089.54
681.0200, 23617.01
682.1780, 23385.00
683.3360, 23049.00
684.4940, 22900.00
685.6520, 22744.00
686.8090, 22589.57
687.9670, 22542.00
689.1240, 22432.00
690.2810, 22358.00
691.4380, 22352.00
692.5950, 22147.00
693.7520, 22138.00
694.9080, 22197.00
696.0650, 22012.00
697.2210, 22309.00
698.3770, 22181.00
699.5330, 22050.00
700.6880, 22363.00
701.8440, 22174.00
702.9990, 22206.00
704.1550, 22193.00
705.3100, 22070.00
706.4650, 22444.00
707.6190, 22584.00
708.7740, 22436.00
709.9290, 22493.00
711.0830, 22519.00
712.2370, 22423.00
713.3910, 22020.00
714.5450, 22202.00
715.6980, 22128.00
716.8520, 22111.00
718.0050, 22273.00
719.1580, 22012.00
720.3110, 22196.00
721.4640, 22257.00
722.6170, 22009.00
723.7700, 22320.00
724.9220, 22145.00
726.0740, 22159.00
727.2260, 22190.00
728.3780, 22383.00
729.5300, 22377.00
730.6810, 22408.00
731.8330, 22329.00
732.9840, 22242.00
734.1350, 22325.00
735.2860, 22424.00
736.4370, 22279.00
737.5880, 22392.34
738.7380, 22309.00
739.8880, 22434.00
741.0390, 22527.00
742.1890, 22513.00
743.3380, 22743.00
744.4880, 22512.00
745.6380, 22558.00
746.7870, 22669.00
747.9360, 22692.00
749.0850, 22688.80
750.2340, 22684.47
751.3830, 22635.00
752.5310, 22593.00
753.6800, 22572.00
754.8280, 22533.00
755.9760, 22557.51
757.1240, 22564.21
758.2720, 22620.00
759.4190, 22640.00
760.5670, 22673.00
761.7140, 22745.00
762.8610, 22719.00
764.0080, 22856.00
765.1550, 22746.00
766.3020, 22828.00
767.4480, 22828.00
768.5950, 23093.00
769.7410, 22950.00
770.8870, 23023.00
772.0330, 22946.00
773.1780, 22873.00
774.3240, 23077.00
775.4690, 23080.00
776.6140, 23118.00
777.7590, 23130.00
778.9040, 23114.00
780.0490, 23062.00
781.1940, 23201.00
782.3380, 23165.00
783.4820, 23327.00
784.6260, 23165.00
785.7700, 23138.00
786.9140, 23126.00
788.0580, 22949.00
789.2010, 23187.00
790.3450, 23138.00
791.4880, 23233.00
792.6310, 23392.00
793.7730, 23159.00
794.9160, 23305.00
796.0590, 23535.00
797.2010, 23489.00
798.3430, 23480.00
799.4850, 23404.00
800.6270, 23565.00
801.7690, 23383.00
802.9100, 23615.00
804.0520, 23652.00
805.1930, 23657.00
806.3340, 23545.00
807.4750, 23569.00
808.6160, 23537.98
809.7560, 23582.00
810.8970, 23553.00
812.0370, 23649.00
813.1770, 23738.00
814.3170, 23791.00
815.4570, 23783.00
816.5960, 23793.00
817.7360, 23801.00
818.8750, 23994.00
820.0140, 23839.00
821.1530, 24002.00
822.2920, 24016.00
823.4310, 23900.00
824.5690, 24038.00
825.7070, 24150.00
826.8460, 24071.00
827.9840, 24060.00
829.1220, 23935.00
830.2590, 24137.00
831.3970, 24117.00
832.5340, 24250.00
833.6710, 24312.00
834.8080, 24104.00
835.9450, 24230.00
837.0820, 24455.00
838.2190, 24260.00
839.3550, 24452.00
840.4910, 24573.00
841.6270, 24439.00
842.7630, 24692.00
843.8990, 24681.00
845.0350, 24674.00
846.1700, 24963.00
847.3060, 25038.00
848.4410, 25252.00
849.5760, 25593.00
850.7100, 26272.00
851.8450, 26693.00
852.9800, 27542.00
854.1140, 28351.00
855.2480, 28626.00
856.3820, 28224.00
857.5160, 27821.00
858.6500, 26862.00
859.7830, 26261.00
860.9170, 25956.00
862.0500, 25553.00
863.1830, 25421.00
864.3160, 25189.00
865.4480, 25218.00
866.5810, 25236.00
867.7130, 24927.00
868.8460, 24950.00
869.9780, 25159.00
871.1100, 25142.00
872.2410, 25128.00
873.3730, 25220.77
874.5050, 25205.08
875.6360, 25262.00
876.7670, 25248.00
877.8980, 25214.00
879.0290, 25217.00
880.1590, 25293.00
881.2900, 25404.00
882.4200, 25184.00
883.5500, 25270.00
884.6800, 25179.00
885.8100, 25257.00
886.9400, 25186.00
888.0690, 25233.12
889.1990, 25306.00
890.3280, 25314.00
891.4570, 25223.00
892.5860, 25235.00
893.7140, 25435.00
894.8430, 25341.00
895.9710, 25448.00
897.1000, 25621.00
898.2280, 25633.00
899.3560, 25610.00
900.4830, 25583.00
901.6110, 25600.00
902.7380, 25673.00
903.8660, 25591.00
904.9930, 25680.00
906.1200, 25831.00
907.2460, 25818.00
908.3730, 25811.00
909.5000, 25795.00
910.6260, 25791.00
911.7520, 26057.00
912.8780, 26167.00
914.0040, 26006.00
915.1290, 26170.00
916.2550, 26072.00
917.3800, 26096.00
918.5050, 26290.00
919.6300, 26062.00
920.7550, 25976.00
921.8800, 25954.00
923.0040, 26080.00
924.1290, 26121.00
925.2530, 26232.00
926.3770, 26141.00
927.5010, 26224.00
928.6250, 26146.35
929.7480, 26220.00
930.8720, 26086.00
931.9950, 26073.00
933.1180, 26257.00
934.2410, 26129.00
935.3640, 26483.00
936.4860, 26374.00
937.6090, 26383.00
938.7310, 26543.00
939.8530, 26290.00
940.9750, 26441.00
942.0970, 26345.00
943.2180, 26586.00
944.3400, 26710.00
945.4610, 26540.00
946.5820, 26587.00
947.7030, 26711.00
948.8240, 26582.00
949.9450, 26890.00
951.0650, 26783.00
952.1860, 26753.00
953.3060, 26842.00
954.4260, 26950.00
955.5460, 26830.00
956.6650, 26895.00
957.7850, 27013.00
958.9040, 26877.00
960.0230, 27036.00
961.1420, 27021.00
962.2610, 26942.00
963.3800, 27221.00
964.4990, 27018.00
965.6170, 27392.00
966.7350, 27162.00
967.8530, 27160.00
968.9710, 27316.00
970.0890, 26981.00
971.2070, 27269.00
972.3240, 27403.00
973.4410, 27618.00
974.5580, 27445.00
975.6750, 27453.00
976.7920, 27563.00
977.9090, 27466.00
979.0250, 27513.00
980.1410, 27616.00
981.2580, 27645.00
982.3740, 27663.00
983.4890, 27753.00
984.6050, 27941.00
985.7200, 27919.00
986.8360, 27802.00
987.9510, 28015.00
989.0660, 27984.00
990.1810, 28216.00
991.2950, 28157.00
992.4100, 28268.00
993.5240, 28265.00
994.6390, 28279.00
995.7530, 28655.00
996.8660, 28561.00
997.9800, 28737.00
999.0940, 29008.00
1000.207, 29042.00
1001.320, 29553.00
1002.433, 29979.00
1003.546, 30257.00
1004.659, 30796.00
1005.772, 31695.00
1006.884, 32944.00
1007.996, 34240.00
1009.108, 37048.00
1010.220, 40342.00
1011.332, 44723.00
1012.444, 50285.00
1013.555, 53943.00
1014.666, 54897.00
1015.777, 51759.00
1016.888, 46622.00
1017.999, 41803.00
1019.110, 38133.00
1020.220, 35326.00
1021.331, 33444.00
1022.441, 32330.00
1023.551, 31625.00
1024.661, 30869.00
1025.770, 30607.00
1026.880, 30446.00
1027.989, 30230.00
1029.098, 29973.00
1030.207, 29799.00
1031.316, 29533.00
1032.425, 29640.00
1033.533, 29531.00
1034.642, 29514.00
1035.750, 29413.00
1036.858, 29433.67
1037.966, 29408.00
1039.073, 29493.00
1040.181, 29500.00
1041.288, 29548.00
1042.396, 29646.00
1043.503, 29609.00
1044.610, 29606.00
1045.716, 29637.00
1046.823, 29701.83
1047.929, 29755.00
1049.036, 29924.00
1050.142, 30034.00
1051.248, 30205.00
1052.353, 29883.00
1053.459, 29787.00
1054.564, 29624.00
1055.670, 29840.00
1056.775, 29727.00
1057.880, 29671.00
1058.985, 29617.00
1060.089, 29635.00
1061.194, 29647.00
1062.298, 29748.00
1063.402, 29941.00
1064.506, 29850.00
1065.610, 30035.00
1066.713, 29873.00
1067.817, 29864.00
1068.920, 30061.00
1070.023, 30143.00
1071.126, 29946.00
1072.229, 29944.00
1073.332, 29856.00
1074.435, 30043.00
1075.537, 30097.00
1076.639, 30279.00
1077.741, 29990.00
1078.843, 30241.00
1079.945, 30098.00
1081.046, 30054.00
1082.148, 30337.00
1083.249, 30071.00
1084.350, 30297.00
1085.451, 30254.00
1086.551, 30507.00
1087.652, 30339.00
1088.752, 30476.00
1089.853, 30293.00
1090.953, 30339.00
1092.053, 30525.00
1093.152, 30364.00
1094.252, 30453.00
1095.351, 30665.00
1096.451, 30581.00
1097.550, 30456.00
1098.649, 30593.00
1099.748, 30529.01
1100.846, 30712.00
1101.945, 30640.00
1103.043, 30710.00
1104.141, 30891.00
1105.239, 30865.00
1106.337, 30870.00
1107.434, 30838.00
1108.532, 30998.00
1109.629, 30841.00
1110.726, 30984.00
1111.823, 30900.00
1112.920, 30931.00
1114.017, 31042.23
1115.113, 31070.00
1116.210, 31196.00
1117.306, 31409.00
1118.402, 31384.00
1119.498, 31643.00
1120.593, 31616.00
1121.689, 31563.00
1122.784, 31655.00
1123.879, 31431.00
1124.974, 31800.00
1126.069, 31832.00
1127.164, 31567.00
1128.259, 31449.00
1129.353, 31508.00
1130.447, 31750.00
1131.541, 31466.00
1132.635, 31658.00
1133.729, 31630.00
1134.822, 31782.00
1135.916, 31705.00
1137.009, 32045.00
1138.102, 32053.00
1139.195, 31984.00
1140.288, 32004.00
1141.380, 32006.25
1142.473, 32017.00
1143.565, 31991.00
1144.657, 32030.00
1145.749, 31912.00
1146.841, 32079.00
1147.932, 32116.00
1149.024, 31943.00
1150.115, 32271.00
1151.206, 32421.00
1152.297, 32118.00
1153.388, 32264.00
1154.479, 32467.00
1155.569, 32391.00
1156.659, 32280.00
1157.750, 32304.00
1158.839, 32170.00
1159.929, 32282.00
1161.019, 32486.00
1162.108, 32399.00
1163.198, 32433.00
1164.287, 32497.00
1165.376, 32495.00
1166.465, 32479.00
1167.553, 32939.00
1168.642, 32800.00
1169.730, 32852.00
1170.818, 32777.00
1171.906, 32774.00
1172.994, 32843.00
1174.082, 32959.00
1175.170, 32990.27
1176.257, 33143.00
1177.344, 33126.00
1178.431, 33210.00
1179.518, 33279.11
1180.605, 33221.00
1181.691, 33302.00
1182.778, 33147.00
1183.864, 33229.00
1184.950, 33163.00
1186.036, 33349.00
1187.122, 33378.00
1188.207, 33262.00
1189.292, 33279.00
1190.378, 33388.00
1191.463, 33459.00
1192.548, 33473.00
1193.632, 33717.00
1194.717, 33363.00
1195.801, 33520.00
1196.886, 33815.00
1197.970, 33532.00
1199.054, 33505.00
1200.137, 33839.00
1201.221, 33854.00
1202.305, 33755.00
1203.388, 33915.00
1204.471, 33777.00
1205.554, 33737.00
1206.637, 33955.00
1207.719, 33944.00
1208.802, 34141.00
1209.884, 34017.00
1210.966, 34199.00
1212.048, 34253.00
1213.130, 33968.00
1214.212, 34273.00
1215.293, 34271.00
1216.374, 34328.00
1217.456, 34289.00
1218.536, 34315.00
1219.617, 34373.00
1220.698, 34363.32
1221.778, 34376.00
1222.859, 34460.00
1223.939, 34472.00
1225.019, 34644.00
1226.099, 34648.00
1227.178, 34601.00
1228.258, 34857.00
1229.337, 34701.00
1230.417, 34795.36
1231.496, 34886.00
1232.574, 34888.00
1233.653, 34892.00
1234.732, 35039.00
1235.810, 35062.00
1236.888, 35010.00
1237.966, 35153.00
1239.044, 35223.00
1240.122, 35147.00
1241.199, 35413.00
1242.277, 35237.00
1243.354, 35331.00
1244.431, 35182.00
1245.508, 35473.00
1246.585, 35277.00
1247.661, 35381.00
1248.738, 35363.00
1249.814, 35457.00
1250.890, 35640.00
1251.966, 35536.00
1253.042, 35556.00
1254.117, 35767.00
1255.193, 35728.00
1256.268, 35772.00
1257.343, 35623.00
1258.418, 35717.00
1259.493, 35937.00
1260.567, 35830.00
1261.642, 35965.00
1262.716, 36151.00
1263.790, 35925.00
1264.864, 36106.00
1265.938, 35942.00
1267.011, 36267.00
1268.085, 36079.00
1269.158, 36261.00
1270.231, 36050.00
1271.304, 36095.00
1272.377, 36325.00
1273.450, 36423.00
1274.522, 36372.00
1275.594, 36469.00
1276.666, 36429.00
1277.738, 36587.00
1278.810, 36441.00
1279.882, 36639.00
1280.953, 36574.00
1282.025, 36571.00
1283.096, 36689.00
1284.167, 36732.00
1285.238, 36699.00
1286.308, 36831.00
1287.379, 36822.00
