##NAMES=Diopside
##RRUFFID=R060861
##IDEAL CHEMISTRY=CaMgSi_2_O_6_
##LOCALITY=Red Mountain Volcano, NW of Flagstaff, Arizona, USA
##OWNER=RRUFF
##SOURCE=Jennifer Sano
##DESCRIPTION=Worn brown fragment
##STATUS=The identification of this mineral has been confirmed by X-ray diffraction and chemical analysis
##URL=rruff.info/R060861
##MEASURED CHEMISTRY=(Ca_0.72_Fe^2+^_0.23_Na_0.05_)_Σ=1_(Mg_0.80_Al_0.15_Ti_0.03_Fe^3+^_0.02_)_Σ=1_(Si_1.82_Al_0.18_)_Σ=2_O_6_
##PIN_ID=M01674
##ORIENTATION=Laser parallel to b* (0 1 0). Fiducial mark perpendicular to laser is parallel to c [0 0 1]
174.7000, 8958.000
175.9330, 8978.000
177.1660, 8999.000
178.3990, 8931.000
179.6310, 9018.000
180.8640, 8924.000
182.0960, 8823.000
183.3280, 8885.000
184.5600, 9064.000
185.7910, 9080.000
187.0220, 9075.000
188.2540, 9281.000
189.4840, 9250.000
190.7150, 9238.000
191.9460, 9412.000
193.1760, 9516.000
194.4060, 9570.000
195.6360, 9532.000
196.8660, 9430.000
198.0960, 9470.000
199.3250, 9543.000
200.5540, 9627.000
201.7830, 9781.000
203.0120, 9664.000
204.2400, 9400.000
205.4690, 9047.000
206.6970, 8907.000
207.9250, 8864.000
209.1530, 8885.000
210.3800, 8874.000
211.6080, 8965.000
212.8350, 8960.000
214.0620, 9013.000
215.2880, 9086.000
216.5150, 9029.000
217.7410, 8983.000
218.9680, 9100.000
220.1940, 9139.000
221.4190, 9245.000
222.6450, 9292.000
223.8700, 9294.000
225.0960, 9287.000
226.3210, 9393.000
227.5450, 9585.000
228.7700, 10153.00
229.9940, 10044.00
231.2190, 10194.00
232.4430, 10047.00
233.6660, 10470.00
234.8900, 10214.00
236.1140, 10347.00
237.3370, 9753.000
238.5600, 9308.000
239.7830, 9327.000
241.0050, 9501.000
242.2280, 9525.000
243.4500, 9439.000
244.6720, 9686.000
245.8940, 9625.000
247.1160, 9781.000
248.3370, 9753.000
249.5580, 9863.000
250.7790, 9821.000
252.0000, 9810.000
253.2210, 9977.000
254.4410, 9942.000
255.6620, 10009.00
256.8820, 9919.000
258.1020, 10048.00
259.3210, 9946.043
260.5410, 9830.746
261.7600, 9833.000
262.9790, 9538.000
264.1980, 9541.000
265.4170, 9461.000
266.6360, 9454.000
267.8540, 9458.000
269.0720, 9392.000
270.2900, 9411.000
271.5080, 9396.000
272.7260, 9398.000
273.9430, 9356.000
275.1600, 9505.000
276.3770, 9393.000
277.5940, 9551.000
278.8100, 9737.000
280.0270, 9744.000
281.2430, 9730.000
282.4590, 9858.000
283.6750, 10033.00
284.8910, 10162.00
286.1060, 10198.00
287.3210, 10274.00
288.5360, 10569.00
289.7510, 10527.00
290.9660, 10977.00
292.1800, 11090.00
293.3950, 11126.00
294.6090, 11515.00
295.8230, 11501.00
297.0360, 11883.00
298.2500, 12006.00
299.4630, 12217.00
300.6760, 12486.00
301.8890, 12822.00
303.1020, 13046.00
304.3150, 13279.00
305.5270, 13756.00
306.7390, 14097.00
307.9510, 14448.00
309.1630, 14773.00
310.3750, 15349.00
311.5860, 15860.00
312.7970, 16367.00
314.0080, 16700.00
315.2190, 17547.00
316.4300, 18058.00
317.6400, 18817.00
318.8510, 19497.00
320.0610, 20221.00
321.2710, 21017.00
322.4800, 21612.00
323.6900, 22443.00
324.8990, 22928.00
326.1080, 23557.00
327.3170, 24233.00
328.5260, 24924.00
329.7340, 25148.00
330.9430, 25665.00
332.1510, 25702.00
333.3590, 25852.00
334.5670, 25805.00
335.7740, 25726.00
336.9820, 25661.00
338.1890, 25478.00
339.3960, 25125.00
340.6030, 24956.00
341.8100, 24687.00
343.0160, 24472.00
344.2220, 24064.00
345.4280, 24040.00
346.6340, 23847.00
347.8400, 23851.00
349.0460, 23684.00
350.2510, 23736.00
351.4560, 23482.00
352.6610, 23371.00
353.8660, 23548.00
355.0700, 23679.00
356.2750, 23472.00
357.4790, 23511.00
358.6830, 23358.00
359.8870, 23450.00
361.0910, 23449.00
362.2940, 23502.00
363.4970, 23471.50
364.7000, 23493.00
365.9030, 23345.00
367.1060, 23299.00
368.3080, 23158.58
369.5110, 23221.00
370.7130, 22971.00
371.9150, 22938.00
373.1170, 22881.00
374.3180, 23133.00
375.5200, 23043.00
376.7210, 23420.00
377.9220, 23321.00
379.1230, 23647.00
380.3230, 23834.00
381.5240, 24138.00
382.7240, 24937.00
383.9240, 25272.00
385.1240, 25890.00
386.3240, 26589.19
387.5230, 27142.91
388.7230, 27970.00
389.9220, 28426.00
391.1210, 29075.00
392.3200, 29593.00
393.5180, 29676.00
394.7170, 29807.00
395.9150, 29612.00
397.1130, 28991.00
398.3110, 28367.00
399.5080, 27181.00
400.7060, 25900.00
401.9030, 24628.00
403.1000, 23348.00
404.2970, 21840.00
405.4940, 20515.00
406.6910, 19252.00
407.8870, 17992.00
409.0830, 16966.00
410.2790, 16096.00
411.4750, 15388.00
412.6710, 14546.00
413.8660, 13918.00
415.0610, 13503.00
416.2560, 13008.00
417.4510, 12597.00
418.6460, 12275.00
419.8410, 12025.00
421.0350, 11736.69
422.2290, 11529.00
423.4230, 11328.00
424.6170, 11174.00
425.8100, 11076.00
427.0040, 10984.00
428.1970, 10819.00
429.3900, 10651.00
430.5830, 10598.00
431.7760, 10525.00
432.9680, 10390.00
434.1610, 10462.00
435.3530, 10389.00
436.5450, 10268.00
437.7360, 10223.00
438.9280, 10161.08
440.1190, 10077.16
441.3110, 10107.00
442.5020, 9942.000
443.6930, 9970.000
444.8830, 9920.000
446.0740, 10012.00
447.2640, 9944.000
448.4540, 10024.00
449.6440, 9860.000
450.8340, 9994.000
452.0240, 10060.00
453.2130, 9951.000
454.4020, 10139.00
455.5910, 10149.00
456.7800, 10135.00
457.9690, 10316.00
459.1570, 10318.00
460.3460, 10468.00
461.5340, 10515.00
462.7220, 10470.00
463.9090, 10615.00
465.0970, 10512.00
466.2840, 10602.00
467.4720, 10601.00
468.6590, 10685.00
469.8460, 10651.00
471.0320, 10716.00
472.2190, 10715.00
473.4050, 10674.00
474.5910, 10748.00
475.7770, 10712.25
476.9630, 10791.00
478.1490, 10682.00
479.3340, 10733.00
480.5190, 10683.00
481.7040, 10709.00
482.8890, 10619.00
484.0740, 10766.00
485.2580, 10563.00
486.4430, 10726.00
487.6270, 10687.00
488.8110, 10627.00
489.9950, 10709.00
491.1780, 10615.00
492.3620, 10694.00
493.5450, 10744.00
494.7280, 10682.00
495.9110, 10703.00
497.0940, 10628.00
498.2760, 10615.00
499.4590, 10675.00
500.6410, 10677.16
501.8230, 10677.00
503.0050, 10756.00
504.1860, 10754.00
505.3680, 10736.00
506.5490, 10959.00
507.7300, 10869.00
508.9110, 11072.00
510.0920, 11092.00
511.2730, 11179.00
512.4530, 11264.00
513.6330, 11398.00
514.8130, 11584.00
515.9930, 11770.00
517.1730, 11911.00
518.3520, 11962.00
519.5320, 12330.00
520.7110, 12442.00
521.8900, 12954.00
523.0690, 13030.00
524.2470, 13202.00
525.4260, 13562.00
526.6040, 13674.00
527.7820, 13946.00
528.9600, 14243.00
530.1380, 14411.00
531.3150, 14690.00
532.4930, 14730.00
533.6700, 14858.00
534.8470, 14985.00
536.0240, 15123.00
537.2000, 15208.00
538.3770, 15217.00
539.5530, 15020.00
540.7290, 14900.00
541.9050, 14961.00
543.0810, 14847.00
544.2570, 14723.00
545.4320, 14439.00
546.6080, 14555.00
547.7830, 14308.94
548.9580, 14119.04
550.1320, 13995.00
551.3070, 13701.00
552.4810, 13487.00
553.6550, 13366.00
554.8300, 13254.00
556.0030, 13043.00
557.1770, 12990.00
558.3510, 12841.00
559.5240, 12680.00
560.6970, 12605.00
561.8700, 12421.00
563.0430, 12368.00
564.2160, 12160.00
565.3880, 12063.00
566.5600, 12003.00
567.7320, 11966.00
568.9040, 11659.00
570.0760, 11577.00
571.2480, 11461.00
572.4190, 11341.00
573.5900, 11107.00
574.7610, 11093.00
575.9320, 10930.00
577.1030, 10679.00
578.2740, 10704.00
579.4440, 10374.00
580.6140, 10195.41
581.7840, 9938.000
582.9540, 9716.000
584.1240, 9478.000
585.2930, 9256.000
586.4630, 9090.000
587.6320, 8806.000
588.8010, 8700.000
589.9700, 8422.000
591.1380, 8309.000
592.3070, 7973.000
593.4750, 7790.000
594.6430, 7674.000
595.8110, 7469.000
596.9790, 7430.000
598.1460, 7318.000
599.3140, 7166.000
600.4810, 7046.000
601.6480, 6827.000
602.8150, 6983.000
603.9820, 6744.000
605.1480, 6768.000
606.3150, 6714.000
607.4810, 6756.000
608.6470, 6721.000
609.8130, 6799.000
610.9790, 6831.000
612.1440, 6886.000
613.3100, 6898.000
614.4750, 6972.518
615.6400, 7014.000
616.8050, 7110.000
617.9690, 7111.000
619.1340, 7174.000
620.2980, 7309.000
621.4620, 7373.000
622.6260, 7597.000
623.7900, 7655.000
624.9540, 7836.000
626.1170, 7987.000
627.2810, 8131.000
628.4440, 8341.000
629.6070, 8636.000
630.7690, 8775.000
631.9320, 9183.000
633.0950, 9448.000
634.2570, 9697.000
635.4190, 10199.00
636.5810, 10564.00
637.7430, 10970.00
638.9040, 11471.00
640.0660, 12003.15
641.2270, 12621.00
642.3880, 13306.00
643.5490, 14155.00
644.7100, 15061.00
645.8700, 15958.00
647.0310, 17098.00
648.1910, 18393.00
649.3510, 19838.00
650.5110, 21515.70
651.6710, 23255.00
652.8300, 25412.00
653.9900, 27756.00
655.1490, 30239.00
656.3080, 33457.00
657.4670, 36396.00
658.6250, 39952.00
659.7840, 43339.00
660.9420, 46859.00
662.1010, 50368.00
663.2590, 53423.00
664.4170, 55902.00
665.5740, 58135.00
666.7320, 58655.00
667.8890, 58526.00
669.0460, 56768.00
670.2030, 54384.00
671.3600, 51166.00
672.5170, 47644.00
673.6740, 43947.00
674.8300, 40448.00
675.9860, 36711.00
677.1420, 33469.00
678.2980, 30356.00
679.4540, 27675.00
680.6090, 25054.00
681.7650, 23068.00
682.9200, 21306.00
684.0750, 19594.00
685.2300, 18136.00
686.3840, 16863.00
687.5390, 15871.00
688.6930, 14958.00
689.8470, 14203.00
691.0010, 13405.00
692.1550, 12586.00
693.3090, 12046.00
694.4620, 11355.00
695.6160, 11098.00
696.7690, 10609.00
697.9220, 10320.00
699.0750, 10022.00
700.2280, 9859.000
701.3800, 9488.000
702.5320, 9285.000
703.6850, 8956.000
704.8370, 8884.000
705.9880, 8716.000
707.1400, 8523.000
708.2920, 8140.000
709.4430, 8005.000
710.5940, 7883.000
711.7450, 7707.000
712.8960, 7668.000
714.0470, 7570.000
715.1970, 7320.000
716.3480, 7122.000
717.4980, 7158.000
718.6480, 6889.000
719.7980, 6742.000
720.9470, 6649.000
722.0970, 6580.000
723.2460, 6502.000
724.3960, 6352.000
725.5450, 6238.000
726.6940, 6161.000
727.8420, 6068.000
728.9910, 6021.000
730.1390, 5966.000
731.2870, 5916.000
732.4350, 5883.000
733.5830, 5802.000
734.7310, 5820.000
735.8790, 5820.000
737.0260, 5726.000
738.1730, 5743.000
739.3200, 5740.000
740.4670, 5670.000
741.6140, 5689.000
742.7610, 5706.000
743.9070, 5719.000
745.0530, 5752.484
746.1990, 5783.209
747.3450, 5826.000
748.4910, 5871.000
749.6370, 5923.000
750.7820, 5988.000
751.9270, 5964.000
753.0720, 6097.000
754.2170, 6098.000
755.3620, 6085.000
756.5070, 6235.000
757.6510, 6299.000
758.7950, 6252.000
759.9400, 6290.000
761.0840, 6427.000
762.2270, 6594.000
763.3710, 6551.000
764.5140, 6774.000
765.6580, 6617.000
766.8010, 6687.000
767.9440, 6784.000
769.0870, 6814.000
770.2290, 6825.000
771.3720, 7020.000
772.5140, 6971.000
773.6560, 7087.000
774.7990, 7078.000
775.9400, 7125.583
777.0820, 7202.397
778.2240, 7253.000
779.3650, 7296.000
780.5060, 7356.548
781.6470, 7394.000
782.7880, 7436.000
783.9290, 7479.000
785.0690, 7473.000
786.2100, 7562.000
787.3500, 7585.928
788.4900, 7694.000
789.6300, 7670.000
790.7700, 7684.000
791.9090, 7704.000
793.0490, 7802.000
794.1880, 7810.000
795.3270, 7828.000
796.4660, 7978.000
797.6050, 7894.000
798.7440, 7908.000
799.8820, 7847.000
801.0200, 7926.000
802.1590, 8076.000
803.2970, 8007.000
804.4340, 8139.000
805.5720, 8175.000
806.7100, 8305.000
807.8470, 8267.000
808.9840, 8312.000
810.1210, 8363.000
811.2580, 8216.000
812.3950, 8308.000
813.5310, 8206.000
814.6680, 8408.000
815.8040, 8482.000
816.9400, 8563.000
818.0760, 8457.000
819.2120, 8505.000
820.3470, 8446.000
821.4830, 8540.000
822.6180, 8479.000
823.7530, 8567.000
824.8880, 8640.000
826.0230, 8517.000
827.1580, 8556.000
828.2920, 8357.000
829.4270, 8578.000
830.5610, 8478.133
831.6950, 8362.000
832.8290, 8399.000
833.9620, 8458.000
835.0960, 8303.000
836.2290, 8365.000
837.3620, 8336.000
838.4950, 8208.000
839.6280, 8321.000
840.7610, 8414.000
841.8940, 8339.000
843.0260, 8374.000
844.1580, 8352.000
845.2910, 8505.000
846.4230, 8555.000
847.5540, 8596.000
848.6860, 8777.000
849.8170, 8852.000
850.9490, 9143.000
852.0800, 9213.000
853.2110, 9497.000
854.3420, 9728.057
855.4730, 10064.00
856.6030, 10268.00
857.7340, 10695.00
858.8640, 11035.00
859.9940, 11442.00
861.1240, 11722.00
862.2540, 12013.00
863.3830, 12271.00
864.5130, 12254.00
865.6420, 12546.00
866.7710, 12783.00
867.9000, 12647.00
869.0290, 12898.00
870.1570, 13045.00
871.2860, 12933.00
872.4140, 12897.00
873.5430, 12881.00
874.6710, 12796.00
875.7980, 12739.00
876.9260, 12654.00
878.0540, 12524.00
879.1810, 12287.00
880.3080, 12239.00
881.4360, 12088.00
882.5630, 12155.00
883.6890, 11880.00
884.8160, 11816.00
885.9420, 11799.00
887.0690, 11479.00
888.1950, 11574.00
889.3210, 11476.00
890.4470, 11403.00
891.5730, 11226.00
892.6980, 11358.00
893.8240, 11204.00
894.9490, 11170.00
896.0740, 11029.00
897.1990, 11035.00
898.3240, 11077.00
899.4480, 11034.00
900.5730, 11045.00
901.6970, 10987.77
902.8210, 10911.57
903.9450, 10868.00
905.0690, 10739.00
906.1930, 10706.00
907.3160, 10660.00
908.4400, 10680.98
909.5630, 10626.00
910.6860, 10777.00
911.8090, 10772.00
912.9320, 10785.00
914.0550, 10771.00
915.1770, 10799.00
916.2990, 10734.00
917.4210, 10701.00
918.5440, 10661.00
919.6650, 10685.00
920.7870, 10688.96
921.9090, 10753.00
923.0300, 10738.00
924.1510, 10813.00
925.2720, 10814.00
926.3930, 10751.00
927.5140, 10764.00
928.6350, 10743.00
929.7550, 10788.00
930.8760, 10763.00
931.9960, 10754.00
933.1160, 10640.00
934.2360, 10605.00
935.3550, 10706.00
936.4750, 10694.00
937.5940, 10766.00
938.7140, 10808.00
939.8330, 10788.00
940.9520, 10755.00
942.0710, 10735.00
943.1890, 10831.00
944.3080, 10929.00
945.4260, 10914.00
946.5440, 11053.00
947.6620, 11151.00
948.7800, 11147.00
949.8980, 11181.00
951.0160, 11242.00
952.1330, 11424.00
953.2500, 11582.00
954.3680, 11641.00
955.4850, 11616.00
956.6010, 11755.00
957.7180, 11793.00
958.8350, 12000.00
959.9510, 12007.00
961.0670, 12059.00
962.1830, 12103.00
963.2990, 12411.00
964.4150, 12455.00
965.5310, 12533.00
966.6460, 12863.00
967.7620, 12644.00
968.8770, 12882.00
969.9920, 12904.00
971.1070, 13260.00
972.2210, 13481.00
973.3360, 13535.00
974.4500, 13531.00
975.5650, 13961.00
976.6790, 14151.00
977.7930, 14360.00
978.9070, 14588.00
980.0200, 14945.00
981.1340, 15166.00
982.2470, 15559.00
983.3610, 15852.00
984.4740, 16189.00
985.5870, 16468.00
986.6990, 17032.00
987.8120, 17699.00
988.9250, 18220.00
990.0370, 18999.00
991.1490, 19471.00
992.2610, 20151.00
993.3730, 20729.00
994.4850, 21658.00
995.5960, 22647.00
996.7080, 23524.00
997.8190, 24508.00
998.9300, 25431.00
1000.041, 26515.00
1001.152, 27341.00
1002.263, 28027.00
1003.373, 28919.00
1004.484, 29254.00
1005.594, 29616.00
1006.704, 29571.00
1007.814, 29396.00
1008.924, 29122.00
1010.034, 28479.00
1011.143, 27617.00
1012.253, 26576.00
1013.362, 25463.00
1014.471, 24940.00
1015.580, 23258.00
1016.689, 21827.00
1017.797, 20216.00
1018.906, 19362.00
1020.014, 18377.00
1021.122, 17428.00
1022.230, 16580.00
1023.338, 15957.00
1024.446, 15172.00
1025.554, 14649.00
1026.661, 14169.00
1027.768, 13664.00
1028.875, 13387.00
1029.983, 12978.00
1031.089, 12698.00
1032.196, 12401.00
1033.303, 12082.00
1034.409, 11996.00
1035.515, 11670.00
1036.622, 11573.00
1037.728, 11266.00
1038.833, 11207.00
1039.939, 11052.00
1041.045, 10813.00
1042.150, 10606.00
1043.255, 10502.00
1044.360, 10518.00
1045.465, 10222.00
1046.570, 10109.00
1047.675, 10086.00
1048.779, 9809.000
1049.884, 9631.000
1050.988, 9494.000
1052.092, 9357.549
1053.196, 9238.000
1054.300, 9197.000
1055.404, 9144.000
1056.507, 9078.000
1057.610, 9060.000
1058.714, 8960.000
1059.817, 8703.000
1060.920, 8663.000
1062.022, 8502.000
1063.125, 8473.000
1064.228, 8395.000
1065.330, 8330.000
1066.432, 8353.000
1067.534, 8187.000
1068.636, 8115.000
1069.738, 8154.000
1070.840, 8121.000
1071.941, 7986.000
1073.042, 8031.000
1074.144, 8049.000
1075.245, 7948.000
1076.346, 7899.000
1077.446, 7779.000
1078.547, 7885.000
1079.647, 7812.000
1080.748, 7828.000
1081.848, 7686.000
1082.948, 7667.000
1084.048, 7721.000
1085.148, 7679.000
1086.247, 7592.000
1087.347, 7558.000
1088.446, 7525.002
1089.545, 7630.000
1090.644, 7500.000
1091.743, 7523.000
1092.842, 7553.000
1093.940, 7448.000
1095.039, 7456.000
1096.137, 7449.000
1097.235, 7423.000
1098.333, 7406.981
1099.431, 7307.000
1100.529, 7322.000
1101.627, 7322.000
1102.724, 7225.000
1103.822, 7297.000
1104.919, 7206.000
1106.016, 7216.000
1107.113, 7077.000
1108.209, 7080.000
1109.306, 7019.000
1110.402, 7055.000
1111.499, 7015.000
1112.595, 7006.000
1113.691, 7012.000
1114.787, 7151.000
1115.883, 7114.000
1116.978, 7248.000
1118.074, 7469.000
1119.169, 7542.000
1120.264, 7578.000
1121.359, 7646.000
1122.454, 7538.000
1123.549, 7498.000
1124.644, 7207.000
1125.738, 6915.000
1126.832, 6807.000
1127.927, 6404.000
1129.021, 6299.000
1130.115, 6041.000
1131.208, 5812.000
1132.302, 5657.000
1133.396, 5540.000
1134.489, 5446.000
1135.582, 5521.000
1136.675, 5387.000
1137.768, 5456.000
1138.861, 5291.589
1139.954, 5184.000
1141.046, 5069.000
1142.138, 4867.000
1143.231, 4973.000
1144.323, 4883.000
1145.415, 5084.000
1146.507, 4920.000
1147.598, 4800.000
1148.690, 4693.000
1149.781, 4674.000
1150.872, 4653.000
1151.964, 4632.000
1153.054, 4596.000
1154.145, 4570.000
1155.236, 4555.000
1156.327, 4489.000
1157.417, 4437.000
1158.507, 4420.000
1159.597, 4424.000
1160.687, 4449.000
1161.777, 4392.000
1162.867, 4471.000
1163.956, 4435.000
1165.046, 4437.000
1166.135, 4373.000
1167.224, 4368.000
1168.313, 4294.000
1169.402, 4344.000
1170.491, 4303.000
1171.580, 4365.000
1172.668, 4276.000
1173.756, 4269.000
1174.845, 4230.000
1175.933, 4278.000
1177.020, 4313.000
1178.108, 4255.000
1179.196, 4267.000
1180.283, 4240.000
1181.371, 4223.000
1182.458, 4227.000
1183.545, 4217.718
1184.632, 4166.000
1185.719, 4241.000
1186.805, 4226.000
1187.892, 4274.000
1188.978, 4160.000
1190.065, 4193.000
1191.151, 4177.000
1192.237, 4131.000
1193.323, 4143.000
1194.408, 4142.000
1195.494, 4122.000
1196.579, 4120.000
1197.664, 4182.000
1198.750, 4137.000
1199.835, 4166.000
1200.919, 4100.000
1202.004, 4229.000
1203.089, 4129.000
1204.173, 4193.000
1205.258, 4093.000
1206.342, 4207.000
1207.426, 4148.000
1208.510, 4150.000
1209.594, 4115.000
1210.677, 4106.000
1211.761, 4058.000
1212.844, 4140.000
1213.927, 4209.000
1215.010, 4142.000
1216.093, 4133.000
1217.176, 4162.000
1218.259, 4177.000
1219.341, 4224.000
1220.424, 4184.000
1221.506, 4140.000
1222.588, 4177.000
1223.670, 4222.000
1224.752, 4117.000
1225.834, 4250.000
1226.915, 4168.000
1227.997, 4210.000
1229.078, 4088.000
1230.159, 4167.000
1231.240, 4230.000
1232.321, 4119.000
1233.402, 4182.000
1234.483, 4199.000
1235.563, 4108.000
1236.644, 4241.000
1237.724, 4191.000
1238.804, 4204.000
1239.884, 4183.000
1240.964, 4183.000
1242.044, 4175.165
1243.123, 4166.813
1244.203, 4173.000
1245.282, 4152.000
1246.361, 4187.000
1247.440, 4174.000
1248.519, 4148.000
1249.598, 4109.000
1250.676, 4120.000
1251.755, 4094.193
1252.833, 4102.489
1253.911, 4083.000
1254.989, 4119.000
1256.067, 4136.000
1257.145, 4133.000
1258.223, 4093.000
1259.300, 4113.000
1260.378, 4110.000
1261.455, 4161.000
1262.532, 4138.000
1263.609, 4200.000
1264.686, 4119.000
1265.763, 4124.000
1266.840, 4088.000
1267.916, 4178.000
1268.992, 4176.000
1270.069, 4119.000
1271.145, 4171.000
1272.221, 4088.000
1273.296, 4083.000
1274.372, 4189.000
1275.448, 4071.000
1276.523, 4194.000
1277.598, 4163.000
1278.673, 4146.000
1279.749, 4193.000
1280.823, 4103.000
1281.898, 4086.000
1282.973, 4143.000
1284.047, 4102.000
1285.122, 4115.000
1286.196, 4172.000
1287.270, 4121.000
1288.344, 4141.000
1289.418, 4095.000
1290.491, 4163.000
1291.565, 4136.000
1292.638, 4117.000
1293.712, 4208.000
1294.785, 4201.000
1295.858, 4154.000
1296.931, 4228.000
1298.003, 4216.000
1299.076, 4276.000
1300.149, 4273.000
1301.221, 4269.777
1302.293, 4235.000
1303.365, 4224.000
1304.437, 4211.000
1305.509, 4135.000
1306.581, 4217.000
1307.652, 4230.000
1308.724, 4151.000
1309.795, 4312.000
1310.866, 4197.000
1311.937, 4249.000
1313.008, 4139.000
1314.079, 4215.000
1315.150, 4267.000
1316.220, 4239.000
1317.291, 4254.338
1318.361, 4302.000
1319.431, 4190.000
1320.501, 4219.000
1321.571, 4169.000
1322.641, 4197.000
1323.710, 4193.000
1324.780, 4259.000
1325.849, 4194.000
1326.918, 4286.000
1327.987, 4173.000
1329.056, 4193.000
1330.125, 4172.000
1331.194, 4278.000
1332.263, 4290.000
1333.331, 4262.000
1334.399, 4235.000
1335.467, 4277.000
1336.535, 4268.095
1337.603, 4322.000
1338.671, 4315.000
1339.739, 4341.000
1340.806, 4383.000
1341.874, 4323.000
1342.941, 4280.000
