##NAMES=Diopside
##RRUFFID=R060861
##IDEAL CHEMISTRY=CaMgSi_2_O_6_
##LOCALITY=Red Mountain Volcano, NW of Flagstaff, Arizona, USA
##OWNER=RRUFF
##SOURCE=Jennifer Sano
##DESCRIPTION=Worn brown fragment
##STATUS=The identification of this mineral has been confirmed by X-ray diffraction and chemical analysis
##URL=rruff.info/R060861
##MEASURED CHEMISTRY=(Ca_0.72_Fe^2+^_0.23_Na_0.05_)_Σ=1_(Mg_0.80_Al_0.15_Ti_0.03_Fe^3+^_0.02_)_Σ=1_(Si_1.82_Al_0.18_)_Σ=2_O_6_
##PIN_ID=M00947
##ORIENTATION=Laser parallel to a* (1 0 0). Fiducial mark perpendicular to laser is parallel to b [0 1 0]
148.7570, 14261.00
149.9950, 14285.00
151.2320, 14227.23
152.4690, 14231.87
153.7060, 14213.49
154.9420, 14169.69
156.1790, 14078.00
157.4150, 13998.00
158.6510, 14012.00
159.8870, 13937.00
161.1220, 13913.00
162.3570, 14234.00
163.5930, 14423.00
164.8280, 14723.00
166.0620, 14649.00
167.2970, 14576.00
168.5310, 14800.00
169.7650, 14900.00
170.9990, 15156.00
172.2330, 15134.00
173.4670, 15240.00
174.7000, 15430.00
175.9330, 15299.00
177.1660, 15726.00
178.3990, 15632.00
179.6310, 15881.00
180.8640, 15800.00
182.0960, 15942.00
183.3280, 15926.00
184.5600, 15924.00
185.7910, 16082.00
187.0220, 16039.00
188.2540, 16034.00
189.4840, 15879.00
190.7150, 15968.00
191.9460, 16015.00
193.1760, 16030.00
194.4060, 16174.00
195.6360, 16199.00
196.8660, 16356.00
198.0960, 16193.00
199.3250, 16599.00
200.5540, 16752.00
201.7830, 17099.00
203.0120, 17084.00
204.2400, 16956.00
205.4690, 16538.00
206.6970, 16497.00
207.9250, 16459.00
209.1530, 16524.00
210.3800, 16834.00
211.6080, 16959.00
212.8350, 17130.00
214.0620, 17452.00
215.2880, 17549.00
216.5150, 17836.00
217.7410, 17858.00
218.9680, 18069.00
220.1940, 18328.00
221.4190, 18468.00
222.6450, 18608.84
223.8700, 18614.00
225.0960, 18751.00
226.3210, 18702.00
227.5450, 18646.00
228.7700, 18757.00
229.9940, 18552.00
231.2190, 18596.00
232.4430, 18372.00
233.6660, 18148.00
234.8900, 17973.00
236.1140, 17874.00
237.3370, 17753.00
238.5600, 17515.00
239.7830, 17313.00
241.0050, 17325.00
242.2280, 17332.00
243.4500, 17051.00
244.6720, 16978.00
245.8940, 17116.00
247.1160, 17067.00
248.3370, 16880.00
249.5580, 17029.00
250.7790, 16890.00
252.0000, 16991.00
253.2210, 16855.00
254.4410, 16749.00
255.6620, 16723.00
256.8820, 16537.00
258.1020, 16858.00
259.3210, 16521.66
260.5410, 16409.20
261.7600, 16128.00
262.9790, 15883.00
264.1980, 15788.00
265.4170, 15445.00
266.6360, 15427.00
267.8540, 15237.00
269.0720, 15355.00
270.2900, 15217.00
271.5080, 15157.00
272.7260, 15056.00
273.9430, 15134.00
275.1600, 15137.00
276.3770, 15272.00
277.5940, 15327.00
278.8100, 15384.00
280.0270, 15327.00
281.2430, 15499.00
282.4590, 15584.00
283.6750, 15859.00
284.8910, 15892.00
286.1060, 16138.00
287.3210, 16341.00
288.5360, 16614.00
289.7510, 16674.00
290.9660, 17112.00
292.1800, 17543.00
293.3950, 17769.00
294.6090, 17921.00
295.8230, 18493.00
297.0360, 18842.00
298.2500, 19434.00
299.4630, 19756.00
300.6760, 20187.00
301.8890, 20898.00
303.1020, 21567.00
304.3150, 22013.00
305.5270, 22858.00
306.7390, 23738.00
307.9510, 24494.21
309.1630, 25182.00
310.3750, 26303.00
311.5860, 27217.00
312.7970, 28181.00
314.0080, 29375.00
315.2190, 30354.00
316.4300, 31760.00
317.6400, 33073.00
318.8510, 34190.00
320.0610, 35390.96
321.2710, 36449.77
322.4800, 37433.00
323.6900, 38559.00
324.8990, 39317.00
326.1080, 40510.00
327.3170, 41446.00
328.5260, 41846.00
329.7340, 42190.00
330.9430, 42631.00
332.1510, 42451.00
333.3590, 42186.00
334.5670, 42318.00
335.7740, 41366.00
336.9820, 40885.00
338.1890, 40030.00
339.3960, 39351.00
340.6030, 38353.00
341.8100, 37468.00
343.0160, 36389.00
344.2220, 35479.00
345.4280, 34427.00
346.6340, 33767.00
347.8400, 32918.83
349.0460, 32129.00
350.2510, 31464.00
351.4560, 30696.00
352.6610, 29953.00
353.8660, 29539.00
355.0700, 28718.00
356.2750, 28408.00
357.4790, 28044.00
358.6830, 27759.00
359.8870, 27108.00
361.0910, 27034.00
362.2940, 26792.00
363.4970, 26780.00
364.7000, 26536.00
365.9030, 26527.00
367.1060, 26346.00
368.3080, 26419.00
369.5110, 26988.00
370.7130, 27174.00
371.9150, 27391.00
373.1170, 27600.00
374.3180, 27833.00
375.5200, 28767.00
376.7210, 29382.00
377.9220, 30087.00
379.1230, 31140.00
380.3230, 31973.00
381.5240, 33063.00
382.7240, 34254.00
383.9240, 35693.00
385.1240, 37183.00
386.3240, 38731.00
387.5230, 40157.00
388.7230, 42181.00
389.9220, 43922.00
391.1210, 45432.00
392.3200, 46928.00
393.5180, 47798.00
394.7170, 48353.00
395.9150, 48446.00
397.1130, 48013.00
398.3110, 47023.00
399.5080, 45468.00
400.7060, 43238.00
401.9030, 41035.00
403.1000, 39048.00
404.2970, 36315.00
405.4940, 33766.00
406.6910, 31551.00
407.8870, 29220.00
409.0830, 27174.00
410.2790, 25559.00
411.4750, 23851.00
412.6710, 22626.00
413.8660, 21366.00
415.0610, 20365.00
416.2560, 19470.00
417.4510, 18828.00
418.6460, 18139.00
419.8410, 17487.00
421.0350, 17119.00
422.2290, 16699.00
423.4230, 16338.00
424.6170, 16019.00
425.8100, 15645.00
427.0040, 15426.00
428.1970, 15139.00
429.3900, 14852.00
430.5830, 14894.00
431.7760, 14501.00
432.9680, 14373.00
434.1610, 14310.00
435.3530, 14112.00
436.5450, 13999.00
437.7360, 13875.95
438.9280, 13753.00
440.1190, 13601.00
441.3110, 13520.00
442.5020, 13342.00
443.6930, 13173.00
444.8830, 13181.00
446.0740, 13118.00
447.2640, 13021.00
448.4540, 13104.00
449.6440, 13083.00
450.8340, 12922.00
452.0240, 12932.00
453.2130, 12904.00
454.4020, 12887.00
455.5910, 12884.00
456.7800, 12915.00
457.9690, 12845.00
459.1570, 12968.00
460.3460, 13033.00
461.5340, 12969.00
462.7220, 13015.00
463.9090, 13098.00
465.0970, 13063.00
466.2840, 13096.00
467.4720, 13011.00
468.6590, 12991.00
469.8460, 13013.00
471.0320, 13021.00
472.2190, 12908.00
473.4050, 12944.00
474.5910, 12718.00
475.7770, 12824.00
476.9630, 12778.00
478.1490, 12877.00
479.3340, 12854.00
480.5190, 12932.00
481.7040, 12956.37
482.8890, 12933.21
484.0740, 12982.00
485.2580, 12906.00
486.4430, 12849.00
487.6270, 12869.00
488.8110, 12868.00
489.9950, 12880.00
491.1780, 12907.00
492.3620, 12825.00
493.5450, 12884.00
494.7280, 12981.00
495.9110, 12825.00
497.0940, 12811.00
498.2760, 12981.00
499.4590, 12857.00
500.6410, 12896.00
501.8230, 12904.00
503.0050, 13016.00
504.1860, 13023.00
505.3680, 13304.00
506.5490, 13349.00
507.7300, 13316.00
508.9110, 13388.00
510.0920, 13680.00
511.2730, 13894.00
512.4530, 14136.00
513.6330, 14114.00
514.8130, 14274.00
515.9930, 14466.00
517.1730, 14734.00
518.3520, 14804.00
519.5320, 15113.00
520.7110, 15302.00
521.8900, 15416.00
523.0690, 15722.00
524.2470, 15741.00
525.4260, 16024.00
526.6040, 16320.00
527.7820, 16330.00
528.9600, 16617.00
530.1380, 16442.00
531.3150, 16711.00
532.4930, 16585.00
533.6700, 16569.00
534.8470, 16758.00
536.0240, 16697.00
537.2000, 16598.00
538.3770, 16462.00
539.5530, 16338.31
540.7290, 16189.00
541.9050, 15991.00
543.0810, 15819.00
544.2570, 15556.00
545.4320, 15414.00
546.6080, 15285.00
547.7830, 15844.00
548.9580, 15270.50
550.1320, 15206.85
551.3070, 14696.00
552.4810, 14625.00
553.6550, 14721.00
554.8300, 14643.00
556.0030, 14948.00
557.1770, 14326.00
558.3510, 14036.00
559.5240, 14139.00
560.6970, 14410.00
561.8700, 14153.27
563.0430, 14159.73
564.2160, 14040.00
565.3880, 13801.00
566.5600, 13958.00
567.7320, 13750.00
568.9040, 13487.00
570.0760, 13554.00
571.2480, 13397.00
572.4190, 13353.00
573.5900, 12922.00
574.7610, 13139.00
575.9320, 12840.00
577.1030, 12794.00
578.2740, 12673.00
579.4440, 12411.00
580.6140, 12447.00
581.7840, 11999.00
582.9540, 11846.00
584.1240, 11644.00
585.2930, 11363.00
586.4630, 11202.00
587.6320, 10978.35
588.8010, 10861.00
589.9700, 10601.00
591.1380, 10443.00
592.3070, 10299.00
593.4750, 10036.00
594.6430, 9816.000
595.8110, 9774.000
596.9790, 9627.000
598.1460, 9326.000
599.3140, 9338.000
600.4810, 9087.000
601.6480, 8926.000
602.8150, 8986.000
603.9820, 8873.000
605.1480, 8843.000
606.3150, 8771.000
607.4810, 8728.000
608.6470, 8723.000
609.8130, 8659.000
610.9790, 8827.000
612.1440, 8606.000
613.3100, 8757.000
614.4750, 8792.000
615.6400, 8744.000
616.8050, 8693.000
617.9690, 8815.000
619.1340, 8922.000
620.2980, 8875.000
621.4620, 8889.000
622.6260, 8992.000
623.7900, 9250.000
624.9540, 9232.000
626.1170, 9218.000
627.2810, 9482.000
628.4440, 9451.000
629.6070, 9642.000
630.7690, 9718.000
631.9320, 9871.000
633.0950, 10051.00
634.2570, 10177.00
635.4190, 10441.00
636.5810, 10725.00
637.7430, 10856.00
638.9040, 11146.00
640.0660, 11399.00
641.2270, 11737.00
642.3880, 12192.00
643.5490, 12662.00
644.7100, 13092.00
645.8700, 13726.00
647.0310, 14298.00
648.1910, 15081.00
649.3510, 15583.00
650.5110, 16560.00
651.6710, 17621.00
652.8300, 18759.00
653.9900, 20075.00
655.1490, 21438.00
656.3080, 23143.00
657.4670, 24998.00
658.6250, 27151.00
659.7840, 29414.00
660.9420, 31413.00
662.1010, 33748.00
663.2590, 35795.00
664.4170, 37895.00
665.5740, 39285.00
666.7320, 39866.00
667.8890, 40270.00
669.0460, 39552.00
670.2030, 38118.00
671.3600, 36273.00
672.5170, 34070.00
673.6740, 31770.00
674.8300, 29935.00
675.9860, 27574.00
677.1420, 25922.00
678.2980, 24018.00
679.4540, 22428.00
680.6090, 20949.00
681.7650, 19806.00
682.9200, 18540.00
684.0750, 17621.00
685.2300, 16835.00
686.3840, 15885.00
687.5390, 15384.00
688.6930, 14759.00
689.8470, 14143.00
691.0010, 13720.00
692.1550, 13163.00
693.3090, 12846.00
694.4620, 12538.00
695.6160, 12395.00
696.7690, 12227.00
697.9220, 11901.00
699.0750, 11629.00
700.2280, 11539.00
701.3800, 11785.00
702.5320, 11241.00
703.6850, 11200.00
704.8370, 11000.00
705.9880, 10717.00
707.1400, 10731.00
708.2920, 10712.00
709.4430, 10391.00
710.5940, 10513.00
711.7450, 10350.65
712.8960, 10299.00
714.0470, 10132.00
715.1970, 10020.00
716.3480, 9778.000
717.4980, 9828.000
718.6480, 9765.000
719.7980, 9885.000
720.9470, 9658.000
722.0970, 9730.000
723.2460, 9561.000
724.3960, 9504.000
725.5450, 9581.000
726.6940, 9435.000
727.8420, 9382.000
728.9910, 9522.000
730.1390, 9228.000
731.2870, 9358.000
732.4350, 9339.000
733.5830, 9342.328
734.7310, 9382.441
735.8790, 9424.000
737.0260, 9415.000
738.1730, 9309.000
739.3200, 9359.000
740.4670, 9364.000
741.6140, 9459.000
742.7610, 9603.000
743.9070, 9496.000
745.0530, 9629.000
746.1990, 9736.000
747.3450, 9725.000
748.4910, 9809.000
749.6370, 9732.000
750.7820, 9896.000
751.9270, 9858.000
753.0720, 10028.00
754.2170, 10095.00
755.3620, 10151.00
756.5070, 10396.00
757.6510, 10238.00
758.7950, 10428.00
759.9400, 10580.00
761.0840, 10667.00
762.2270, 10510.00
763.3710, 10859.00
764.5140, 10753.00
765.6580, 10880.00
766.8010, 11008.00
767.9440, 11016.00
769.0870, 11104.00
770.2290, 11233.00
771.3720, 11142.00
772.5140, 11327.00
773.6560, 11271.00
774.7990, 11448.00
775.9400, 11459.00
777.0820, 11443.00
778.2240, 11642.00
779.3650, 11524.00
780.5060, 11661.00
781.6470, 11715.00
782.7880, 11678.00
783.9290, 11801.00
785.0690, 11868.00
786.2100, 11873.00
787.3500, 11820.00
788.4900, 11914.68
789.6300, 11925.58
790.7700, 12024.00
791.9090, 12040.00
793.0490, 12051.00
794.1880, 12117.00
795.3270, 12224.00
796.4660, 12099.00
797.6050, 12312.00
798.7440, 12258.00
799.8820, 12361.00
801.0200, 12473.00
802.1590, 12448.46
803.2970, 12566.33
804.4340, 12465.00
805.5720, 12687.00
806.7100, 12684.00
807.8470, 12692.00
808.9840, 13031.00
810.1210, 13018.00
811.2580, 13272.00
812.3950, 13227.00
813.5310, 13204.00
814.6680, 13293.00
815.8040, 13260.00
816.9400, 13334.75
818.0760, 13501.00
819.2120, 13461.00
820.3470, 13485.00
821.4830, 13536.00
822.6180, 13552.00
823.7530, 13593.00
824.8880, 13663.00
826.0230, 13657.00
827.1580, 13677.78
828.2920, 13747.00
829.4270, 13681.00
830.5610, 13651.00
831.6950, 13674.00
832.8290, 13617.00
833.9620, 13553.00
835.0960, 13504.00
836.2290, 13513.00
837.3620, 13638.00
838.4950, 13659.00
839.6280, 13554.00
840.7610, 13596.00
841.8940, 13505.00
843.0260, 13545.09
844.1580, 13638.00
845.2910, 13590.00
846.4230, 13643.00
847.5540, 13593.00
848.6860, 13652.00
849.8170, 13809.00
850.9490, 13869.00
852.0800, 13828.00
853.2110, 13869.00
854.3420, 14049.00
855.4730, 14134.00
856.6030, 14202.16
857.7340, 14270.50
858.8640, 14316.00
859.9940, 14304.00
861.1240, 14319.00
862.2540, 14285.00
863.3830, 14318.00
864.5130, 14428.00
865.6420, 14466.00
866.7710, 14390.00
867.9000, 14623.00
869.0290, 14379.00
870.1570, 14389.00
871.2860, 14516.00
872.4140, 14355.00
873.5430, 14396.00
874.6710, 14302.00
875.7980, 14380.00
876.9260, 14423.00
878.0540, 14380.00
879.1810, 14536.00
880.3080, 14399.00
881.4360, 14439.00
882.5630, 14288.00
883.6890, 14371.00
884.8160, 14442.00
885.9420, 14464.00
887.0690, 14443.00
888.1950, 14505.00
889.3210, 14630.00
890.4470, 14541.16
891.5730, 14453.00
892.6980, 14518.00
893.8240, 14417.00
894.9490, 14596.00
896.0740, 14470.00
897.1990, 14377.00
898.3240, 14494.00
899.4480, 14510.00
900.5730, 14406.00
901.6970, 14383.00
902.8210, 14437.00
903.9450, 14517.00
905.0690, 14498.00
906.1930, 14654.00
907.3160, 14438.00
908.4400, 14655.00
909.5630, 14484.00
910.6860, 14379.00
911.8090, 14416.00
912.9320, 14741.00
914.0550, 14694.00
915.1770, 14675.00
916.2990, 14873.00
917.4210, 14702.00
918.5440, 14818.00
919.6650, 14942.00
920.7870, 14972.00
921.9090, 15059.00
923.0300, 15086.00
924.1510, 15243.00
925.2720, 15299.00
926.3930, 15204.00
927.5140, 15373.00
928.6350, 15614.00
929.7550, 15592.00
930.8760, 15538.00
931.9960, 15606.00
933.1160, 15582.00
934.2360, 15673.00
935.3550, 15793.00
936.4750, 15780.00
937.5940, 15785.00
938.7140, 16001.00
939.8330, 15791.00
940.9520, 16041.00
942.0710, 16119.00
943.1890, 16180.00
944.3080, 16381.00
945.4260, 16521.00
946.5440, 16503.00
947.6620, 16751.00
948.7800, 16678.00
949.8980, 17066.00
951.0160, 17254.00
952.1330, 17374.00
953.2500, 17663.00
954.3680, 17862.00
955.4850, 18011.00
956.6010, 18133.00
957.7180, 18397.00
958.8350, 18574.00
959.9510, 18865.00
961.0670, 19101.37
962.1830, 19448.00
963.2990, 19675.00
964.4150, 20013.00
965.5310, 20434.00
966.6460, 20737.59
967.7620, 21159.00
968.8770, 21517.00
969.9920, 22072.00
971.1070, 22575.00
972.2210, 23145.59
973.3360, 23463.00
974.4500, 24345.00
975.5650, 25046.00
976.6790, 25570.00
977.7930, 26023.00
978.9070, 27007.00
980.0200, 27716.00
981.1340, 28674.00
982.2470, 29583.00
983.3610, 30526.00
984.4740, 31648.00
985.5870, 32905.00
986.6990, 34015.00
987.8120, 35722.00
988.9250, 37121.14
990.0370, 38760.00
991.1490, 40307.00
992.2610, 42149.13
993.3730, 44231.00
994.4850, 46088.00
995.5960, 48077.00
996.7080, 50291.00
997.8190, 53061.00
998.9300, 55095.00
1000.041, 56798.00
1001.152, 58631.00
1002.263, 60236.00
1003.373, 61547.00
1004.484, 62429.00
1005.594, 62819.00
1006.704, 62975.00
1007.814, 62483.00
1008.924, 61182.00
1010.034, 59985.00
1011.143, 57743.00
1012.253, 55373.00
1013.362, 52948.00
1014.471, 49884.00
1015.580, 47413.00
1016.689, 44499.00
1017.797, 41764.00
1018.906, 38892.00
1020.014, 36951.00
1021.122, 34834.00
1022.230, 33360.00
1023.338, 31688.00
1024.446, 30396.00
1025.554, 29079.00
1026.661, 28342.00
1027.768, 27193.00
1028.875, 26592.00
1029.983, 25917.00
1031.089, 25179.00
1032.196, 24634.00
1033.303, 24297.00
1034.409, 23970.00
1035.515, 23619.00
1036.622, 23149.00
1037.728, 22851.00
1038.833, 22358.00
1039.939, 22133.00
1041.045, 21740.00
1042.150, 21383.00
1043.255, 20902.00
1044.360, 20551.00
1045.465, 20318.00
1046.570, 19846.00
1047.675, 19493.00
1048.779, 19204.00
1049.884, 18793.00
1050.988, 18385.00
1052.092, 18066.80
1053.196, 17897.00
1054.300, 17378.00
1055.404, 17258.45
1056.507, 16940.00
1057.610, 16523.00
1058.714, 16404.00
1059.817, 16030.00
1060.920, 16006.00
1062.022, 15549.00
1063.125, 15235.00
1064.228, 15317.00
1065.330, 14998.00
1066.432, 14748.00
1067.534, 14349.00
1068.636, 14500.00
1069.738, 14199.00
1070.840, 13993.00
1071.941, 13929.00
1073.042, 13669.00
1074.144, 13772.00
1075.245, 13622.00
1076.346, 13476.00
1077.446, 13324.00
1078.547, 13108.00
1079.647, 13252.00
1080.748, 12974.00
1081.848, 12945.00
1082.948, 12923.00
1084.048, 12669.00
1085.148, 12726.00
1086.247, 12520.00
1087.347, 12558.00
1088.446, 12400.00
1089.545, 12323.00
1090.644, 12382.00
1091.743, 12330.00
1092.842, 12167.00
1093.940, 12096.00
1095.039, 11996.00
1096.137, 12010.00
1097.235, 11976.00
1098.333, 11955.00
1099.431, 11934.00
1100.529, 11851.00
1101.627, 11781.00
1102.724, 11756.00
1103.822, 11704.00
1104.919, 11638.00
1106.016, 11670.00
1107.113, 11639.00
1108.209, 11558.00
1109.306, 11332.00
1110.402, 11396.00
1111.499, 11354.00
1112.595, 11410.00
1113.691, 11396.38
1114.787, 11373.00
1115.883, 11358.00
1116.978, 11283.00
1118.074, 11215.00
1119.169, 11256.00
1120.264, 11140.00
1121.359, 11011.00
1122.454, 10918.00
1123.549, 10978.00
1124.644, 10757.00
1125.738, 10657.00
1126.832, 10555.98
1127.927, 10322.00
1129.021, 10253.00
1130.115, 10015.00
1131.208, 9783.000
1132.302, 9651.000
1133.396, 9614.000
1134.489, 9512.000
1135.582, 9295.000
1136.675, 9154.054
1137.768, 9165.858
1138.861, 9134.613
1139.954, 9062.639
1141.046, 8828.026
1142.138, 8803.536
1143.231, 8694.756
1144.323, 8622.000
1145.415, 8618.000
1146.507, 8464.000
1147.598, 8497.000
1148.690, 8298.000
1149.781, 8351.000
1150.872, 8105.000
1151.964, 8215.000
1153.054, 8158.000
1154.145, 8274.000
1155.236, 8063.000
1156.327, 8083.000
1157.417, 8025.000
1158.507, 7965.000
1159.597, 7899.000
1160.687, 8013.000
1161.777, 7955.000
1162.867, 7991.000
1163.956, 7891.000
1165.046, 7998.000
1166.135, 7806.000
1167.224, 7948.000
1168.313, 7855.000
1169.402, 7807.000
1170.491, 7813.000
1171.580, 7936.000
1172.668, 7887.319
1173.756, 7911.000
1174.845, 7863.000
1175.933, 7817.000
1177.020, 7724.000
1178.108, 7839.000
1179.196, 7798.000
1180.283, 7751.000
1181.371, 7803.000
1182.458, 7793.000
1183.545, 7808.000
1184.632, 7682.000
1185.719, 7691.000
1186.805, 7631.000
1187.892, 7668.000
1188.978, 7697.000
1190.065, 7672.000
1191.151, 7755.000
1192.237, 7749.000
1193.323, 7729.000
1194.408, 7830.000
1195.494, 7759.846
1196.579, 7785.391
1197.664, 7665.000
1198.750, 7767.000
1199.835, 7684.000
1200.919, 7659.000
1202.004, 7655.000
1203.089, 7715.000
1204.173, 7632.000
1205.258, 7729.000
1206.342, 7704.000
1207.426, 7697.000
1208.510, 7676.000
1209.594, 7674.000
1210.677, 7645.576
1211.761, 7604.000
1212.844, 7610.000
1213.927, 7599.000
1215.010, 7622.000
1216.093, 7691.000
1217.176, 7705.000
1218.259, 7703.000
1219.341, 7561.000
1220.424, 7574.000
1221.506, 7600.000
1222.588, 7663.000
1223.670, 7708.000
1224.752, 7649.000
1225.834, 7645.000
1226.915, 7697.000
1227.997, 7592.000
1229.078, 7631.000
1230.159, 7639.000
1231.240, 7624.000
1232.321, 7648.000
1233.402, 7643.085
1234.483, 7634.000
1235.563, 7665.000
1236.644, 7698.000
1237.724, 7745.000
1238.804, 7630.000
1239.884, 7649.000
1240.964, 7620.000
1242.044, 7705.000
1243.123, 7637.000
1244.203, 7642.000
1245.282, 7557.000
1246.361, 7616.000
1247.440, 7694.000
1248.519, 7584.000
1249.598, 7662.000
1250.676, 7711.000
1251.755, 7594.000
1252.833, 7745.000
1253.911, 7731.000
1254.989, 7576.000
1256.067, 7614.000
1257.145, 7607.000
1258.223, 7596.000
1259.300, 7579.000
1260.378, 7595.582
1261.455, 7629.000
1262.532, 7633.000
1263.609, 7625.000
1264.686, 7651.000
1265.763, 7562.000
1266.840, 7591.000
1267.916, 7582.827
1268.992, 7737.000
1270.069, 7563.000
1271.145, 7713.000
1272.221, 7641.000
1273.296, 7584.000
1274.372, 7640.000
1275.448, 7526.000
1276.523, 7548.000
1277.598, 7667.000
1278.673, 7699.000
1279.749, 7601.000
1280.823, 7603.000
1281.898, 7518.000
1282.973, 7444.000
1284.047, 7568.000
1285.122, 7618.000
1286.196, 7623.000
1287.270, 7626.000
1288.344, 7577.000
1289.418, 7674.000
1290.491, 7708.000
1291.565, 7639.000
1292.638, 7614.000
1293.712, 7639.000
1294.785, 7686.000
1295.858, 7654.000
1296.931, 7662.000
1298.003, 7696.000
1299.076, 7678.808
1300.149, 7598.000
1301.221, 7708.000
1302.293, 7615.000
1303.365, 7673.000
1304.437, 7697.000
1305.509, 7529.000
1306.581, 7692.000
1307.652, 7670.000
1308.724, 7630.000
1309.795, 7640.000
1310.866, 7650.000
1311.937, 7672.000
1313.008, 7728.000
1314.079, 7750.000
1315.150, 7839.000
1316.220, 7708.000
1317.291, 7661.000
1318.361, 7723.000
1319.431, 7694.000
1320.501, 7750.000
