##NAMES=Diopside
##RRUFFID=R060085
##IDEAL CHEMISTRY=CaMgSi_2_O_6_
##LOCALITY=Tyrol, Austria
##OWNER=RRUFF
##SOURCE=University of Arizona Mineral Museum
##DESCRIPTION=Brownish-green massive
##STATUS=The identification of this mineral has been confirmed by X-ray diffraction and chemical analysis
##URL=rruff.info/R060085
##MEASURED CHEMISTRY=(Ca_0.97_Na_0.03_)_Σ=1_(Mg_0.79_Fe^2+^_0.10_Fe^3+^_0.04_Al_0.04_Ti_0.02_Cr_0.01_)_Σ=1_(Si_1.90_Al_0.10_)_Σ=2_O_6_
##PIN_ID=M01980
##ORIENTATION=Laser parallel to -b* (0 -1 0). Fiducial mark perpendicular to laser is parallel to c [0 0 1]
130.3130, 19076.00
131.5450, 19126.00
132.7770, 19110.00
134.0080, 19387.00
135.2390, 19029.00
136.4710, 19565.00
137.7020, 19361.00
138.9320, 19482.00
140.1630, 19607.00
141.3930, 19656.00
142.6240, 19645.00
143.8540, 19714.45
145.0840, 19736.00
146.3140, 19777.00
147.5440, 19716.00
148.7730, 19769.00
150.0020, 19661.00
151.2320, 19748.00
152.4610, 19802.00
153.6900, 19644.00
154.9180, 19510.00
156.1470, 19843.00
157.3750, 19734.00
158.6040, 19867.00
159.8320, 19803.00
161.0600, 19846.00
162.2870, 20078.00
163.5150, 20007.00
164.7420, 20054.00
165.9700, 19885.00
167.1970, 20066.00
168.4240, 20052.00
169.6510, 20099.00
170.8770, 20241.00
172.1040, 20202.00
173.3300, 20401.00
174.5560, 20334.00
175.7820, 20444.00
177.0080, 20394.00
178.2340, 20494.00
179.4590, 20457.00
180.6850, 20645.00
181.9100, 20511.00
183.1350, 20560.04
184.3600, 20701.00
185.5850, 20601.00
186.8090, 20570.00
188.0340, 20731.00
189.2580, 20797.00
190.4820, 20907.00
191.7060, 21026.72
192.9300, 21020.12
194.1530, 21264.00
195.3770, 21058.00
196.6000, 21182.00
197.8230, 21306.00
199.0460, 20990.00
200.2690, 21163.00
201.4910, 21259.00
202.7140, 21260.00
203.9360, 21175.00
205.1580, 21241.00
206.3800, 21233.00
207.6020, 21128.00
208.8240, 21101.00
210.0450, 21157.00
211.2670, 21361.00
212.4880, 21379.00
213.7090, 21244.00
214.9300, 21434.00
216.1510, 21392.00
217.3710, 21432.00
218.5920, 21424.00
219.8120, 21305.00
221.0320, 21481.00
222.2520, 21418.00
223.4720, 21532.00
224.6910, 21677.00
225.9110, 21675.00
227.1300, 21797.00
228.3490, 21760.00
229.5680, 21889.00
230.7870, 22001.00
232.0050, 21968.00
233.2240, 21970.00
234.4420, 22006.00
235.6600, 22124.00
236.8780, 22192.00
238.0960, 22188.00
239.3140, 22077.00
240.5310, 22359.00
241.7490, 22293.00
242.9660, 22255.00
244.1830, 22362.00
245.4000, 22458.00
246.6160, 22372.00
247.8330, 22406.00
249.0490, 22642.00
250.2660, 22546.00
251.4820, 22781.00
252.6980, 22712.00
253.9130, 23010.00
255.1290, 22966.00
256.3440, 22847.00
257.5600, 23006.00
258.7750, 22940.00
259.9900, 22916.00
261.2040, 22835.00
262.4190, 22630.00
263.6330, 22539.00
264.8480, 22561.00
266.0620, 22661.00
267.2760, 22599.00
268.4900, 22715.00
269.7030, 22515.00
270.9170, 22667.00
272.1300, 22581.00
273.3430, 22541.00
274.5560, 22483.00
275.7690, 22569.00
276.9820, 22624.00
278.1940, 22819.00
279.4070, 22803.00
280.6190, 22872.00
281.8310, 22889.00
283.0430, 22737.00
284.2550, 22969.00
285.4660, 22875.00
286.6770, 23124.00
287.8890, 22987.00
289.1000, 23055.00
290.3110, 23083.00
291.5210, 23052.00
292.7320, 23219.00
293.9420, 23396.00
295.1530, 23400.00
296.3630, 23509.54
297.5730, 23379.00
298.7830, 23512.00
299.9920, 23543.00
301.2020, 23376.00
302.4110, 23547.00
303.6200, 23763.00
304.8290, 23734.00
306.0380, 23915.71
307.2470, 23849.00
308.4550, 24050.00
309.6630, 23985.00
310.8720, 23890.00
312.0800, 23941.00
313.2880, 24062.32
314.4950, 24189.17
315.7030, 24482.00
316.9100, 24567.00
318.1170, 24841.00
319.3240, 24940.00
320.5310, 25046.00
321.7380, 25264.00
322.9450, 25689.00
324.1510, 26113.00
325.3570, 26288.00
326.5630, 26356.00
327.7690, 26272.00
328.9750, 26242.00
330.1810, 26085.00
331.3860, 26064.00
332.5910, 25715.00
333.7960, 25629.00
335.0010, 25515.00
336.2060, 25488.00
337.4110, 25319.75
338.6150, 25206.96
339.8200, 25129.00
341.0240, 25059.91
342.2280, 25084.00
343.4320, 25030.00
344.6350, 25035.00
345.8390, 25097.00
347.0420, 25082.80
348.2450, 25021.00
349.4480, 25104.00
350.6510, 25168.00
351.8540, 25124.00
353.0560, 25195.00
354.2590, 25186.00
355.4610, 25148.00
356.6630, 25152.00
357.8650, 25177.00
359.0670, 25302.00
360.2680, 25263.00
361.4700, 25314.25
362.6710, 25376.00
363.8720, 25265.00
365.0730, 25179.00
366.2740, 25082.00
367.4740, 25200.00
368.6750, 25073.00
369.8750, 25227.00
371.0750, 24934.00
372.2750, 25406.00
373.4750, 25039.00
374.6740, 25070.00
375.8740, 25199.00
377.0730, 25343.00
378.2720, 25228.00
379.4710, 25148.00
380.6700, 25256.00
381.8690, 25263.00
383.0670, 25280.00
384.2660, 25303.00
385.4640, 25446.00
386.6620, 25306.00
387.8600, 25231.00
389.0570, 25420.00
390.2550, 25465.00
391.4520, 25291.00
392.6490, 25646.00
393.8460, 25391.00
395.0430, 25633.00
396.2400, 25614.00
397.4370, 25539.00
398.6330, 25375.00
399.8290, 25424.00
401.0250, 25380.96
402.2210, 25571.00
403.4170, 25515.00
404.6130, 25534.00
405.8080, 25796.00
407.0030, 25681.00
408.1980, 25655.00
409.3930, 25620.00
410.5880, 25630.00
411.7830, 25866.00
412.9770, 25870.00
414.1720, 25961.00
415.3660, 26038.00
416.5600, 25934.00
417.7530, 25748.00
418.9470, 25951.00
420.1410, 25827.00
421.3340, 25816.00
422.5270, 25883.00
423.7200, 26087.00
424.9130, 26066.00
426.1060, 25998.00
427.2980, 25928.00
428.4900, 25910.00
429.6830, 25978.00
430.8750, 26098.00
432.0670, 26094.00
433.2580, 26166.00
434.4500, 26164.00
435.6410, 26310.00
436.8320, 26048.00
438.0240, 26393.00
439.2140, 26106.00
440.4050, 26143.00
441.5960, 26362.00
442.7860, 26197.00
443.9760, 26334.00
445.1670, 26311.00
446.3560, 26504.00
447.5460, 26646.00
448.7360, 26448.00
449.9250, 26588.00
451.1150, 26493.00
452.3040, 26697.00
453.4930, 26723.00
454.6810, 26600.00
455.8700, 26708.00
457.0590, 26657.00
458.2470, 26776.00
459.4350, 26835.00
460.6230, 26677.00
461.8110, 26859.00
462.9980, 26785.00
464.1860, 26965.00
465.3730, 26848.00
466.5600, 27009.00
467.7470, 26819.00
468.9340, 26876.00
470.1210, 27112.00
471.3080, 27046.00
472.4940, 26970.00
473.6800, 27018.00
474.8660, 27173.00
476.0520, 27126.00
477.2380, 27231.00
478.4230, 27060.00
479.6090, 27051.00
480.7940, 27156.00
481.9790, 27247.00
483.1640, 27227.00
484.3490, 27460.00
485.5330, 27404.00
486.7180, 27480.00
487.9020, 27341.00
489.0860, 27549.00
490.2700, 27577.00
491.4540, 27609.00
492.6370, 27680.00
493.8210, 27604.00
495.0040, 27616.00
496.1870, 27703.00
497.3700, 27717.00
498.5530, 27800.00
499.7360, 27929.00
500.9180, 27945.00
502.1000, 28070.00
503.2830, 28334.00
504.4650, 28481.00
505.6460, 28654.68
506.8280, 28796.00
508.0100, 28998.00
509.1910, 29212.00
510.3720, 29178.67
511.5530, 29332.00
512.7340, 29020.00
513.9150, 28904.00
515.0950, 28643.00
516.2760, 28600.78
517.4560, 28678.00
518.6360, 28601.00
519.8160, 28445.00
520.9950, 28525.00
522.1750, 28314.00
523.3540, 28516.00
524.5340, 28500.00
525.7130, 28490.00
526.8920, 28727.00
528.0700, 28711.00
529.2490, 28559.00
530.4270, 28641.00
531.6060, 28787.00
532.7840, 28766.00
533.9620, 28810.43
535.1390, 28849.00
536.3170, 28805.00
537.4940, 28777.00
538.6720, 28799.06
539.8490, 28803.00
541.0260, 28956.00
542.2030, 29038.00
543.3790, 29174.00
544.5560, 29217.00
545.7320, 29224.66
546.9080, 29238.00
548.0840, 29161.00
549.2600, 29102.00
550.4360, 29038.00
551.6110, 29040.74
552.7860, 29071.08
553.9620, 29136.00
555.1370, 29156.00
556.3110, 29345.00
557.4860, 29300.00
558.6610, 29282.00
559.8350, 29057.00
561.0090, 29402.00
562.1830, 29404.00
563.3570, 29242.00
564.5310, 29386.00
565.7040, 29013.00
566.8780, 29326.00
568.0510, 29351.00
569.2240, 29272.00
570.3970, 29550.00
571.5700, 29504.00
572.7420, 29227.00
573.9150, 29470.00
575.0870, 29583.00
576.2590, 29424.00
577.4310, 29394.00
578.6030, 29594.00
579.7740, 29697.00
580.9460, 29371.00
582.1170, 29557.00
583.2880, 29646.00
584.4590, 29570.00
585.6300, 29675.00
586.8010, 29760.00
587.9710, 29762.00
589.1410, 29558.00
590.3110, 29895.00
591.4810, 29656.00
592.6510, 29825.00
593.8210, 29591.00
594.9900, 29941.00
596.1600, 29711.00
597.3290, 29718.00
598.4980, 29997.00
599.6670, 29942.00
600.8350, 30001.00
602.0040, 30121.00
603.1720, 30009.00
604.3400, 29896.00
605.5080, 29925.00
606.6760, 30161.00
607.8440, 30360.00
609.0120, 30283.00
610.1790, 29907.00
611.3460, 30139.00
612.5130, 30115.00
613.6800, 30403.00
614.8470, 30226.00
616.0130, 30460.00
617.1800, 30503.00
618.3460, 30171.00
619.5120, 30603.00
620.6780, 30349.00
621.8440, 30805.00
623.0090, 30481.00
624.1750, 30580.00
625.3400, 30628.00
626.5050, 30754.00
627.6700, 30737.29
628.8350, 30620.00
629.9990, 30733.00
631.1640, 30843.00
632.3280, 30897.86
633.4920, 30996.86
634.6560, 31067.28
635.8200, 31165.00
636.9840, 31197.00
638.1470, 31311.00
639.3100, 31356.00
640.4730, 31559.00
641.6360, 31339.00
642.7990, 31525.00
643.9620, 31567.00
645.1240, 31786.00
646.2870, 31700.00
647.4490, 31826.00
648.6110, 31837.00
649.7730, 31903.00
650.9340, 32116.91
652.0960, 32295.00
653.2570, 32652.00
654.4180, 32800.00
655.5790, 33258.00
656.7400, 33259.00
657.9010, 34027.00
659.0620, 34353.00
660.2220, 35213.00
661.3820, 35487.00
662.5420, 36844.00
663.7020, 37612.00
664.8620, 38392.00
666.0210, 39271.00
667.1810, 39946.00
668.3400, 40219.00
669.4990, 39965.00
670.6580, 39427.00
671.8170, 38468.00
672.9750, 37566.00
674.1340, 36784.00
675.2920, 36090.21
676.4500, 35526.36
677.6080, 35003.00
678.7660, 34623.00
679.9230, 34357.00
681.0810, 33973.00
682.2380, 33807.00
683.3950, 33557.00
684.5520, 33413.00
685.7090, 33209.00
686.8660, 33120.54
688.0220, 33204.00
689.1780, 33014.00
690.3340, 33016.00
691.4900, 33033.00
692.6460, 32908.00
693.8020, 32648.00
694.9570, 32856.00
696.1130, 32654.00
697.2680, 32777.00
698.4230, 32913.00
699.5780, 32814.00
700.7320, 32724.00
701.8870, 32728.00
703.0410, 32497.00
704.1950, 32771.00
705.3490, 32873.00
706.5030, 32596.00
707.6570, 32683.00
708.8110, 32878.00
709.9640, 32859.00
711.1170, 32811.00
712.2700, 32743.00
713.4230, 32956.00
714.5760, 32619.00
715.7280, 32800.76
716.8810, 33120.00
718.0330, 32902.00
719.1850, 32729.00
720.3370, 32685.00
721.4890, 33070.00
722.6400, 32840.00
723.7920, 33116.00
724.9430, 32892.00
726.0940, 33093.00
727.2450, 32977.00
728.3960, 32857.00
729.5460, 33165.00
730.6970, 33188.00
731.8470, 33039.00
732.9970, 33348.00
734.1470, 33138.00
735.2970, 33095.00
736.4460, 33152.00
737.5960, 33235.00
738.7450, 33284.00
739.8940, 33207.00
741.0430, 33388.00
742.1920, 33379.00
743.3410, 33387.00
744.4890, 33517.00
745.6370, 33619.00
746.7850, 33606.00
747.9330, 33758.00
749.0810, 33521.00
750.2290, 33560.00
751.3760, 33533.00
752.5240, 33759.00
753.6710, 33721.00
754.8180, 33762.00
755.9650, 33934.00
757.1110, 33854.00
758.2580, 33900.00
759.4040, 34047.00
760.5510, 33910.00
761.6970, 34059.00
762.8420, 33860.00
763.9880, 33962.00
765.1340, 34036.00
766.2790, 34100.00
767.4240, 34069.00
768.5690, 34138.00
769.7140, 34269.00
770.8590, 34311.00
772.0030, 33991.00
773.1480, 34163.00
774.2920, 34169.00
775.4360, 34416.00
776.5800, 34423.00
777.7240, 34217.00
778.8670, 34311.00
780.0110, 34377.00
781.1540, 34203.00
782.2970, 34481.00
783.4400, 34483.00
784.5830, 34652.00
785.7250, 34603.00
786.8680, 34671.53
788.0100, 34567.00
789.1520, 34724.00
790.2940, 34760.00
791.4360, 34767.00
792.5780, 34871.00
793.7190, 34875.00
794.8600, 35004.00
796.0010, 34855.00
797.1420, 35030.00
798.2830, 35058.00
799.4240, 34718.00
800.5640, 34916.00
801.7050, 34918.00
802.8450, 35057.00
803.9850, 35056.00
805.1250, 35225.00
806.2640, 34934.00
807.4040, 35223.00
808.5430, 35042.00
809.6820, 34947.00
810.8210, 35156.00
811.9600, 35246.00
813.0990, 35577.00
814.2370, 35511.75
815.3760, 35518.00
816.5140, 35521.00
817.6520, 35368.00
818.7900, 35534.00
819.9270, 35606.00
821.0650, 35816.00
822.2020, 35729.00
823.3390, 35774.00
824.4760, 35815.00
825.6130, 35628.00
826.7500, 35849.00
827.8870, 35993.00
829.0230, 35803.00
830.1590, 35699.00
831.2950, 35941.00
832.4310, 36151.00
833.5670, 36064.00
834.7030, 36130.00
835.8380, 35965.00
836.9730, 36182.00
838.1080, 35982.00
839.2430, 35977.00
840.3780, 35817.00
841.5130, 36341.00
842.6470, 36036.00
843.7810, 36315.00
844.9150, 36063.00
846.0490, 36449.00
847.1830, 36307.00
848.3170, 36115.00
849.4500, 36204.00
850.5830, 36112.00
851.7160, 36243.00
852.8490, 36485.00
853.9820, 36346.00
855.1150, 36511.00
856.2470, 36452.00
857.3800, 36663.00
858.5120, 36687.70
859.6440, 36693.00
860.7760, 36803.00
861.9070, 36790.00
863.0390, 36829.00
864.1700, 36772.00
865.3010, 36758.00
866.4320, 36961.00
867.5630, 36800.00
868.6940, 37104.00
869.8240, 36836.00
870.9540, 36949.00
872.0850, 36986.00
873.2150, 37104.00
874.3450, 37130.00
875.4740, 37225.02
876.6040, 37246.79
877.7330, 37275.44
878.8620, 37273.00
879.9910, 37335.00
881.1200, 37339.00
882.2490, 37426.00
883.3770, 37464.37
884.5060, 37435.00
885.6340, 37513.00
886.7620, 37393.00
887.8900, 37275.00
889.0180, 37625.00
890.1450, 37491.00
891.2730, 37388.00
892.4000, 37276.00
893.5270, 37585.00
894.6540, 37426.00
895.7810, 37321.00
896.9070, 37671.00
898.0340, 37658.00
899.1600, 37538.00
900.2860, 37850.00
901.4120, 37757.00
902.5380, 37797.00
903.6630, 37865.00
904.7890, 37892.00
905.9140, 37933.50
907.0390, 37893.00
908.1640, 37958.00
909.2890, 38094.00
910.4130, 38029.00
911.5380, 37839.00
912.6620, 37993.00
913.7860, 37755.00
914.9100, 38493.00
916.0340, 38105.00
917.1580, 38376.00
918.2810, 38376.00
919.4040, 38300.00
920.5280, 38678.00
921.6510, 38453.00
922.7730, 38523.00
923.8960, 38375.00
925.0180, 38732.00
926.1410, 38667.00
927.2630, 38573.00
928.3850, 38920.00
929.5070, 38490.00
930.6280, 38649.00
931.7500, 38686.00
932.8710, 38709.00
933.9920, 38889.00
935.1130, 38664.00
936.2340, 38930.00
937.3550, 38704.00
938.4760, 38998.00
939.5960, 39020.00
940.7160, 39153.00
941.8360, 39157.00
942.9560, 39036.00
944.0760, 39196.00
945.1950, 39082.00
946.3150, 39332.00
947.4340, 39066.00
948.5530, 39155.00
949.6720, 39144.00
950.7900, 39136.02
951.9090, 39197.00
953.0270, 39285.00
954.1460, 39407.00
955.2640, 39544.00
956.3820, 39711.00
957.4990, 39761.46
958.6170, 39628.00
959.7340, 39785.00
960.8520, 39889.00
961.9690, 39717.00
963.0860, 40082.00
964.2020, 39777.00
965.3190, 40043.00
966.4350, 40328.00
967.5520, 40098.00
968.6680, 40283.00
969.7840, 40163.00
970.8990, 40184.00
972.0150, 40254.00
973.1310, 40288.00
974.2460, 40280.00
975.3610, 40310.00
976.4760, 40375.00
977.5910, 40377.00
978.7050, 40572.00
979.8200, 40521.00
980.9340, 40662.00
982.0480, 40888.00
983.1620, 40839.00
984.2760, 41203.00
985.3900, 40974.00
986.5030, 41250.00
987.6160, 41046.00
988.7300, 41323.00
989.8430, 41280.00
990.9550, 41608.00
992.0680, 41660.00
993.1810, 41660.00
994.2930, 41801.00
995.4050, 41865.00
996.5170, 42287.00
997.6290, 42374.00
998.7410, 42583.00
999.8520, 43254.00
1000.964, 43054.00
1002.075, 43684.00
1003.186, 44051.00
1004.297, 44314.00
1005.407, 44818.00
1006.518, 45184.00
1007.628, 45609.00
1008.738, 46198.00
1009.848, 47088.00
1010.958, 47471.00
1012.068, 47988.00
1013.178, 48181.00
1014.287, 48306.00
1015.396, 47747.00
1016.505, 47151.00
1017.614, 45960.00
1018.723, 45736.00
1019.831, 44937.00
1020.940, 44127.00
1022.048, 43781.00
1023.156, 43268.00
1024.264, 42949.00
1025.372, 42928.00
1026.479, 42636.00
1027.587, 42661.00
1028.694, 42559.00
1029.801, 42634.00
1030.908, 42644.00
1032.015, 42344.00
1033.121, 42506.00
1034.228, 42734.00
1035.334, 42534.00
1036.440, 42647.00
1037.546, 42589.00
1038.652, 42450.00
1039.758, 42546.00
1040.863, 42573.00
1041.968, 42874.00
1043.074, 42538.00
1044.178, 42841.00
1045.283, 42652.00
1046.388, 42660.00
1047.492, 42650.00
1048.597, 42558.00
1049.701, 42665.24
1050.805, 42820.00
1051.909, 42819.00
1053.012, 42752.00
1054.116, 42778.00
1055.219, 42938.00
1056.322, 42590.00
1057.425, 42978.00
1058.528, 42889.00
1059.631, 42867.00
1060.733, 43070.00
1061.836, 42833.00
1062.938, 43101.00
1064.040, 43160.00
1065.142, 42979.00
1066.243, 43000.00
1067.345, 42828.00
1068.446, 42932.00
1069.547, 43199.00
1070.648, 43142.00
1071.749, 43163.00
1072.850, 43121.00
1073.951, 43281.00
1075.051, 43064.00
1076.151, 43353.00
1077.251, 42948.00
1078.351, 43513.00
1079.451, 43363.00
1080.550, 43589.00
1081.650, 43255.00
1082.749, 43163.00
1083.848, 43511.00
1084.947, 43578.00
1086.046, 43398.00
1087.144, 43487.00
1088.243, 43658.00
1089.341, 43773.00
1090.439, 43596.00
1091.537, 43508.00
1092.635, 43789.00
1093.732, 43920.00
1094.830, 43896.00
1095.927, 44012.22
1097.024, 43729.00
1098.121, 43988.00
1099.218, 43983.00
1100.314, 43888.00
1101.411, 44157.00
1102.507, 43914.00
1103.603, 43785.00
1104.699, 43949.00
1105.795, 44072.00
1106.890, 44173.00
1107.986, 44093.00
1109.081, 44478.00
1110.176, 44113.00
1111.271, 44315.00
1112.366, 44289.00
1113.461, 44176.00
1114.555, 44616.00
1115.649, 44145.00
1116.744, 44300.00
1117.838, 44427.00
1118.931, 44524.00
1120.025, 44644.00
1121.119, 44610.00
1122.212, 44578.00
1123.305, 44672.00
1124.398, 44682.00
1125.491, 44829.00
1126.584, 44697.00
1127.676, 45064.00
1128.768, 44907.00
1129.861, 44879.00
1130.953, 45005.00
1132.044, 44918.00
1133.136, 45059.00
1134.228, 44937.00
1135.319, 45248.00
1136.410, 45186.00
1137.501, 44937.00
1138.592, 45228.00
1139.683, 45315.00
1140.773, 44984.00
1141.864, 45305.00
1142.954, 45497.00
1144.044, 45441.00
1145.134, 45191.00
1146.224, 45785.00
1147.313, 45280.00
1148.402, 45365.00
1149.492, 45477.00
1150.581, 45698.00
1151.670, 45591.00
1152.758, 45711.84
1153.847, 45669.00
1154.935, 45694.00
1156.024, 45791.00
1157.112, 45651.00
1158.200, 45783.00
1159.287, 46061.00
1160.375, 45955.00
1161.462, 46088.00
1162.550, 45906.00
1163.637, 46029.00
1164.724, 46021.00
1165.810, 45957.00
1166.897, 45836.00
1167.983, 46047.00
1169.070, 46026.00
1170.156, 46199.00
1171.242, 46239.00
1172.327, 46179.00
1173.413, 46327.00
1174.499, 46299.00
1175.584, 46442.00
1176.669, 46340.00
1177.754, 46563.00
1178.839, 46633.00
1179.923, 46824.00
1181.008, 46558.00
1182.092, 46682.00
1183.176, 46686.00
1184.260, 46658.00
1185.344, 46696.69
1186.428, 46600.00
1187.511, 46724.00
1188.595, 46732.00
1189.678, 46843.00
1190.761, 46931.00
1191.843, 47112.00
1192.926, 47073.11
1194.009, 47159.86
1195.091, 47060.00
1196.173, 47185.00
1197.255, 47284.00
1198.337, 47252.00
1199.419, 47266.00
1200.500, 47311.00
1201.582, 47388.00
1202.663, 47283.00
1203.744, 47268.00
1204.825, 47275.00
1205.905, 47329.00
1206.986, 47401.00
1208.066, 47428.00
1209.146, 47492.00
1210.226, 47595.00
1211.306, 47558.00
1212.386, 48048.00
1213.466, 47496.00
1214.545, 47949.00
1215.624, 47863.00
1216.703, 47776.00
1217.782, 47881.00
1218.861, 48137.00
1219.939, 48020.00
1221.018, 48019.00
1222.096, 48079.00
1223.174, 47801.00
1224.252, 48325.00
1225.330, 48315.00
1226.407, 48057.00
1227.485, 48024.00
1228.562, 47968.61
1229.639, 48490.00
1230.716, 48126.00
1231.793, 48150.00
1232.869, 48695.00
1233.946, 48499.00
1235.022, 48506.00
1236.098, 48574.00
1237.174, 48284.00
1238.250, 48425.00
1239.325, 48413.00
1240.401, 48856.00
1241.476, 48774.00
1242.551, 48855.00
1243.626, 49013.00
1244.701, 48727.00
1245.776, 48962.00
1246.850, 48834.00
1247.924, 48847.00
1248.999, 49254.00
1250.073, 49133.00
1251.146, 49041.00
1252.220, 49016.00
1253.293, 48968.00
1254.367, 48916.00
1255.440, 48838.00
1256.513, 49175.00
1257.586, 49391.00
1258.658, 49435.00
1259.731, 49268.00
1260.803, 49565.00
1261.875, 49731.00
1262.947, 49374.00
1264.019, 49708.00
1265.091, 49574.00
1266.162, 49526.00
1267.234, 49891.00
1268.305, 49780.00
1269.376, 50007.00
1270.447, 49753.00
1271.517, 49915.57
1272.588, 50052.00
1273.658, 50080.00
1274.729, 50197.00
1275.799, 50252.00
1276.868, 49996.00
1277.938, 49976.00
1279.008, 49855.00
1280.077, 50256.00
1281.146, 49969.00
1282.215, 50118.00
1283.284, 50148.00
1284.353, 50080.90
1285.421, 49997.00
1286.490, 50077.00
1287.558, 50140.00
1288.626, 50105.00
1289.694, 50220.00
1290.762, 50008.00
1291.829, 49995.00
1292.897, 50302.00
1293.964, 50435.00
1295.031, 50320.00
1296.098, 50148.00
1297.165, 50366.00
1298.231, 50654.00
1299.298, 50467.00
1300.364, 50275.00
1301.430, 50520.00
1302.496, 50379.00
1303.562, 50694.00
