##NAMES=Diopside
##RRUFFID=R050406
##IDEAL CHEMISTRY=CaMgSi_2_O_6_
##LOCALITY=unknown
##OWNER=RRUFF
##SOURCE=University of Arizona Mineral Museum
##DESCRIPTION=Brownish gray massive
##STATUS=The identification of this mineral has been confirmed by X-ray diffraction and chemical analysis
##URL=rruff.info/R050406
##MEASURED CHEMISTRY=(Ca_0.95_Na_0.05_)(Mg_0.75_Fe^2+^_0.18_Fe^3+^_0.05_Al_0.01_Ti_0.01_Mn^2+^_0.01_)(Si_0.98_Al_0.02_)_2_O_6_
##PIN_ID=M00086
##ORIENTATION=Laser parallel to c* (0 0 1). Fiducial mark perpendicular to laser is parallel to a [1 0 0]
151.3210, 17129.00
152.5490, 16956.00
153.7750, 17407.40
155.0020, 17667.07
156.2290, 17745.31
157.4550, 17098.70
158.6810, 17401.00
159.9080, 17625.00
161.1340, 17770.00
162.3590, 17818.00
163.5850, 17975.00
164.8110, 18080.00
166.0360, 18180.00
167.2610, 18170.00
168.4860, 18152.00
169.7110, 18363.00
170.9360, 18500.00
172.1610, 18622.00
173.3850, 18541.00
174.6100, 18557.00
175.8340, 18589.00
177.0580, 18774.00
178.2820, 18683.00
179.5050, 18829.00
180.7290, 19129.00
181.9520, 18906.00
183.1760, 19126.00
184.3990, 19241.00
185.6220, 19080.00
186.8450, 19209.00
188.0670, 19459.00
189.2900, 19393.00
190.5120, 19445.00
191.7340, 19614.00
192.9560, 19552.00
194.1780, 19780.00
195.4000, 19831.00
196.6220, 19860.00
197.8430, 19936.00
199.0640, 19938.74
200.2860, 19770.00
201.5070, 19924.00
202.7270, 19786.00
203.9480, 19694.00
205.1690, 19752.00
206.3890, 19672.00
207.6090, 19741.00
208.8290, 19812.00
210.0490, 19920.00
211.2690, 19908.00
212.4890, 20071.00
213.7080, 19938.00
214.9280, 20033.00
216.1470, 20139.00
217.3660, 19979.00
218.5850, 20246.00
219.8030, 20254.00
221.0220, 20299.00
222.2400, 20343.00
223.4590, 20357.00
224.6770, 20613.00
225.8950, 20642.00
227.1120, 20773.00
228.3300, 20711.00
229.5480, 20798.00
230.7650, 20916.00
231.9820, 21081.00
233.1990, 20896.00
234.4160, 21056.00
235.6330, 21105.00
236.8490, 20840.00
238.0660, 21061.00
239.2820, 21087.00
240.4980, 21090.00
241.7140, 21209.00
242.9300, 21304.00
244.1460, 21269.00
245.3610, 21166.00
246.5770, 21320.00
247.7920, 21386.00
249.0070, 21358.00
250.2220, 21601.00
251.4370, 21548.00
252.6510, 21511.00
253.8660, 21852.00
255.0800, 21552.00
256.2940, 21842.00
257.5080, 21738.00
258.7220, 22092.00
259.9360, 22117.00
261.1490, 21751.00
262.3630, 21778.00
263.5760, 21812.00
264.7890, 21835.00
266.0020, 21682.00
267.2150, 21887.00
268.4270, 21825.00
269.6400, 21979.00
270.8520, 22039.00
272.0640, 21903.00
273.2760, 22149.00
274.4880, 21843.00
275.7000, 22168.00
276.9120, 22295.00
278.1230, 22167.00
279.3340, 22260.00
280.5450, 22172.00
281.7560, 22337.00
282.9670, 22208.00
284.1780, 22436.00
285.3880, 22341.00
286.5980, 22492.00
287.8090, 22620.00
289.0190, 22604.00
290.2290, 22739.00
291.4380, 22678.00
292.6480, 22866.00
293.8570, 22825.00
295.0670, 22920.00
296.2760, 23214.00
297.4850, 23318.00
298.6930, 23363.00
299.9020, 23415.00
301.1110, 23467.00
302.3190, 23761.00
303.5270, 23720.00
304.7350, 23867.00
305.9430, 23957.00
307.1510, 24014.00
308.3580, 24113.00
309.5660, 24183.00
310.7730, 24418.00
311.9800, 24773.00
313.1870, 24922.00
314.3940, 25229.00
315.6010, 25422.00
316.8070, 25803.00
318.0130, 26033.00
319.2200, 26272.00
320.4260, 26518.00
321.6310, 26898.00
322.8370, 27294.00
324.0430, 27579.00
325.2480, 27589.00
326.4540, 27531.00
327.6590, 27519.00
328.8640, 27165.00
330.0680, 26780.00
331.2730, 26630.00
332.4780, 26261.00
333.6820, 26229.00
334.8860, 25959.33
336.0900, 25868.00
337.2940, 25565.00
338.4980, 25454.00
339.7010, 25300.00
340.9050, 25391.00
342.1080, 25251.00
343.3110, 25512.00
344.5140, 25404.00
345.7170, 25586.00
346.9200, 25853.00
348.1220, 25754.00
349.3240, 25958.00
350.5270, 26012.00
351.7290, 26336.00
352.9310, 26536.00
354.1320, 26585.00
355.3340, 26709.00
356.5350, 26828.00
357.7370, 26751.00
358.9380, 26797.00
360.1390, 26642.00
361.3400, 26608.00
362.5400, 26430.00
363.7410, 26230.00
364.9410, 26010.00
366.1410, 26088.00
367.3410, 26076.00
368.5410, 25883.00
369.7410, 26130.00
370.9400, 26149.00
372.1400, 26006.00
373.3390, 26132.00
374.5380, 25987.00
375.7370, 26165.66
376.9360, 26637.00
378.1350, 26599.00
379.3330, 26995.00
380.5310, 27410.00
381.7300, 27504.00
382.9280, 28240.00
384.1260, 28714.00
385.3230, 29100.00
386.5210, 29630.00
387.7180, 30077.00
388.9160, 30499.00
390.1130, 30745.00
391.3100, 30738.38
392.5060, 30815.00
393.7030, 30227.00
394.9000, 29873.00
396.0960, 29079.00
397.2920, 28744.00
398.4880, 28113.00
399.6840, 27766.00
400.8800, 27409.00
402.0750, 27105.00
403.2710, 26924.00
404.4660, 26725.00
405.6610, 26480.00
406.8560, 26536.00
408.0510, 26551.00
409.2450, 26339.00
410.4400, 26262.00
411.6340, 26327.00
412.8280, 26139.00
414.0220, 26361.00
415.2160, 26514.00
416.4100, 26406.00
417.6030, 26289.00
418.7970, 26348.00
419.9900, 26187.00
421.1830, 26353.00
422.3760, 26331.00
423.5690, 26538.00
424.7610, 26372.00
425.9540, 26498.00
427.1460, 26506.00
428.3380, 26371.00
429.5300, 26573.00
430.7220, 26295.00
431.9140, 26474.00
433.1050, 26612.00
434.2970, 26735.00
435.4880, 26607.00
436.6790, 26646.00
437.8700, 26609.00
439.0610, 26771.00
440.2510, 26712.00
441.4420, 26912.00
442.6320, 26732.00
443.8220, 27063.00
445.0120, 26725.00
446.2020, 26973.00
447.3910, 27032.00
448.5810, 26939.00
449.7700, 27050.00
450.9600, 27175.00
452.1490, 27283.00
453.3370, 27306.38
454.5260, 27141.00
455.7150, 27310.00
456.9030, 27338.00
458.0910, 27311.00
459.2800, 27457.00
460.4670, 27459.00
461.6550, 27728.00
462.8430, 27639.00
464.0300, 27691.00
465.2180, 27913.00
466.4050, 27824.00
467.5920, 27778.00
468.7790, 27759.00
469.9650, 27931.00
471.1520, 27610.00
472.3380, 27886.00
473.5250, 27793.00
474.7110, 27946.00
475.8970, 27945.00
477.0820, 27949.37
478.2680, 28094.00
479.4540, 27998.00
480.6390, 28066.00
481.8240, 28154.00
483.0090, 28114.00
484.1940, 28088.00
485.3780, 28042.00
486.5630, 28088.83
487.7470, 28186.00
488.9320, 28210.00
490.1160, 28184.00
491.3000, 28269.00
492.4830, 28307.12
493.6670, 28314.00
494.8500, 28446.00
496.0340, 28395.00
497.2170, 28449.00
498.4000, 28552.99
499.5820, 28379.00
500.7650, 28713.00
501.9480, 28589.00
503.1300, 28558.00
504.3120, 28797.00
505.4940, 28630.00
506.6760, 28745.00
507.8580, 28879.00
509.0390, 28848.00
510.2210, 28944.00
511.4020, 29097.00
512.5830, 28965.00
513.7640, 29128.00
514.9450, 29122.00
516.1250, 29075.00
517.3060, 29355.00
518.4860, 29429.00
519.6660, 29373.00
520.8460, 29697.00
522.0260, 29375.00
523.2060, 29534.00
524.3850, 29660.00
525.5650, 29881.00
526.7440, 29867.00
527.9230, 29953.86
529.1020, 30032.00
530.2810, 29980.00
531.4590, 30036.00
532.6380, 30046.00
533.8160, 29952.00
534.9940, 30031.04
536.1720, 30104.00
537.3500, 30042.00
538.5270, 30083.00
539.7050, 29967.00
540.8820, 30161.00
542.0590, 30082.00
543.2360, 30192.00
544.4130, 30208.00
545.5900, 30203.11
546.7660, 30269.00
547.9430, 30221.00
549.1190, 30424.00
550.2950, 30450.00
551.4710, 30669.00
552.6470, 30772.00
553.8220, 30971.00
554.9980, 31116.38
556.1730, 31170.00
557.3480, 31364.00
558.5230, 31466.00
559.6980, 31484.00
560.8730, 31585.00
562.0470, 31409.00
563.2220, 31485.00
564.3960, 31047.00
565.5700, 31010.00
566.7440, 30795.00
567.9170, 30861.00
569.0910, 30667.00
570.2640, 31002.00
571.4380, 30656.00
572.6110, 30810.00
573.7840, 30830.00
574.9570, 30846.00
576.1290, 30878.00
577.3020, 30874.98
578.4740, 30955.00
579.6460, 30819.00
580.8180, 30858.00
581.9900, 30717.00
583.1620, 31016.00
584.3330, 31038.00
585.5040, 31157.00
586.6760, 30857.00
587.8470, 30962.00
589.0180, 30981.00
590.1880, 31013.00
591.3590, 31068.00
592.5290, 31116.00
593.7000, 31223.00
594.8700, 31277.00
596.0400, 31297.02
597.2090, 31366.00
598.3790, 31306.00
599.5490, 31388.00
600.7180, 31379.00
601.8870, 31086.00
603.0560, 31378.00
604.2250, 31369.00
605.3940, 31165.00
606.5620, 31549.00
607.7300, 31598.00
608.8990, 31704.00
610.0670, 31733.00
611.2350, 31819.00
612.4020, 31657.00
613.5700, 31868.00
614.7370, 31873.00
615.9050, 31766.00
617.0720, 31961.00
618.2390, 31888.00
619.4060, 32092.00
620.5720, 31924.00
621.7390, 32011.00
622.9050, 32157.00
624.0710, 32295.00
625.2370, 32145.00
626.4030, 32200.00
627.5690, 32260.00
628.7340, 32463.00
629.9000, 32249.00
631.0650, 32469.00
632.2300, 32612.00
633.3950, 32484.00
634.5600, 32547.00
635.7240, 32691.00
636.8890, 32906.00
638.0530, 33021.00
639.2170, 33218.00
640.3810, 32922.00
641.5450, 33408.00
642.7080, 33264.00
643.8720, 33305.00
645.0350, 33488.00
646.1980, 33675.00
647.3610, 33812.00
648.5240, 33743.00
649.6870, 34169.00
650.8490, 34364.00
652.0120, 34501.00
653.1740, 34875.00
654.3360, 35240.00
655.4980, 35507.00
656.6600, 36121.00
657.8210, 36875.00
658.9830, 37469.00
660.1440, 38424.00
661.3050, 39435.00
662.4660, 40430.00
663.6270, 41761.00
664.7870, 42585.00
665.9480, 43516.00
667.1080, 43889.00
668.2680, 43682.00
669.4280, 43226.00
670.5880, 42161.00
671.7480, 41198.00
672.9070, 39813.00
674.0670, 38925.00
675.2260, 38145.00
676.3850, 37506.00
677.5440, 36719.00
678.7030, 36116.00
679.8610, 35567.00
681.0200, 35456.00
682.1780, 35306.00
683.3360, 35118.00
684.4940, 34944.00
685.6520, 34994.00
686.8090, 34519.00
687.9670, 35022.00
689.1240, 34792.00
690.2810, 34637.00
691.4380, 34895.00
692.5950, 34597.00
693.7520, 34707.00
694.9080, 34678.00
696.0650, 34545.00
697.2210, 34488.00
698.3770, 34563.00
699.5330, 34621.00
700.6880, 34649.76
701.8440, 34692.00
702.9990, 34748.00
704.1550, 34740.00
705.3100, 34734.00
706.4650, 34967.00
707.6190, 34859.00
708.7740, 35032.00
709.9290, 34970.70
711.0830, 34687.00
712.2370, 34859.00
713.3910, 34799.00
714.5450, 34783.00
715.6980, 34862.00
716.8520, 35156.00
718.0050, 34882.00
719.1580, 35203.00
720.3110, 35069.00
721.4640, 35206.00
722.6170, 35089.00
723.7700, 34930.00
724.9220, 35188.00
726.0740, 35125.00
727.2260, 35164.00
728.3780, 35442.00
729.5300, 35231.00
730.6810, 35557.00
731.8330, 35497.00
732.9840, 35494.00
734.1350, 35644.00
735.2860, 35369.00
736.4370, 35398.00
737.5880, 35498.00
738.7380, 35381.00
739.8880, 35602.00
741.0390, 35777.00
742.1890, 35793.00
743.3380, 35883.13
744.4880, 35736.00
745.6380, 35921.00
746.7870, 36002.00
747.9360, 36086.00
749.0850, 35804.00
750.2340, 35738.00
751.3830, 35945.00
752.5310, 35979.00
753.6800, 36128.00
754.8280, 36144.00
755.9760, 36245.00
757.1240, 36253.00
758.2720, 36209.00
759.4190, 36429.00
760.5670, 36039.00
761.7140, 36216.00
762.8610, 36351.00
764.0080, 36524.00
765.1550, 36559.00
766.3020, 36631.00
767.4480, 36491.00
768.5950, 36654.00
769.7410, 36522.00
770.8870, 36618.00
772.0330, 36778.00
773.1780, 36754.00
774.3240, 36756.00
775.4690, 36770.00
776.6140, 36745.25
777.7590, 36873.00
778.9040, 36778.00
780.0490, 36801.00
781.1940, 36955.00
782.3380, 37172.00
783.4820, 37188.00
784.6260, 36993.00
785.7700, 37225.00
786.9140, 37145.00
788.0580, 37404.00
789.2010, 37199.00
790.3450, 37311.00
791.4880, 37110.00
792.6310, 37222.86
793.7730, 37475.00
794.9160, 37484.00
796.0590, 37594.00
797.2010, 37844.00
798.3430, 37702.00
799.4850, 37499.00
800.6270, 37607.00
801.7690, 37797.00
802.9100, 37601.00
804.0520, 37567.00
805.1930, 38074.00
806.3340, 37955.00
807.4750, 37761.00
808.6160, 38046.00
809.7560, 37973.00
810.8970, 37765.00
812.0370, 37940.00
813.1770, 38163.00
814.3170, 37815.00
815.4570, 38274.00
816.5960, 38139.00
817.7360, 38493.00
818.8750, 38383.00
820.0140, 38471.00
821.1530, 38245.00
822.2920, 38375.00
823.4310, 38432.00
824.5690, 38381.00
825.7070, 38588.00
826.8460, 38525.00
827.9840, 38901.00
829.1220, 38548.00
830.2590, 38670.00
831.3970, 38908.00
832.5340, 38866.00
833.6710, 39095.00
834.8080, 39116.01
835.9450, 39122.78
837.0820, 39191.00
838.2190, 39107.00
839.3550, 39141.00
840.4910, 39137.00
841.6270, 39085.00
842.7630, 39004.00
843.8990, 39132.00
845.0350, 39165.00
846.1700, 39285.00
847.3060, 39207.00
848.4410, 39409.00
849.5760, 39667.00
850.7100, 39907.00
851.8450, 39720.00
852.9800, 40216.00
854.1140, 39983.00
855.2480, 40302.00
856.3820, 40255.00
857.5160, 40158.00
858.6500, 40374.00
859.7830, 40439.00
860.9170, 40806.00
862.0500, 40546.00
863.1830, 40099.00
864.3160, 40234.00
865.4480, 40423.00
866.5810, 40491.00
867.7130, 40509.00
868.8460, 40379.00
869.9780, 40391.00
871.1100, 40611.00
872.2410, 40479.00
873.3730, 40703.00
874.5050, 40601.00
875.6360, 40837.00
876.7670, 40677.00
877.8980, 40996.00
879.0290, 41003.00
880.1590, 40883.00
881.2900, 40963.00
882.4200, 40956.00
883.5500, 41007.53
884.6800, 40919.00
885.8100, 41168.00
886.9400, 41145.00
888.0690, 41207.00
889.1990, 41505.00
890.3280, 40981.00
891.4570, 41615.00
892.5860, 41223.00
893.7140, 41383.00
894.8430, 41467.00
895.9710, 41799.00
897.1000, 41790.00
898.2280, 41451.00
899.3560, 41555.00
900.4830, 41980.00
901.6110, 41652.00
902.7380, 41948.00
903.8660, 41826.00
904.9930, 42043.00
906.1200, 41628.00
907.2460, 41895.00
908.3730, 41890.00
909.5000, 42068.00
910.6260, 42026.00
911.7520, 41931.00
912.8780, 42328.00
914.0040, 42051.00
915.1290, 42116.00
916.2550, 42324.00
917.3800, 42237.00
918.5050, 42243.00
919.6300, 42171.00
920.7550, 42198.62
921.8800, 42415.00
923.0040, 42303.00
924.1290, 42413.00
925.2530, 42556.00
926.3770, 42468.00
927.5010, 42611.00
928.6250, 42485.00
929.7480, 42707.00
930.8720, 42747.00
931.9950, 42574.00
933.1180, 42759.00
934.2410, 42673.00
935.3640, 42623.00
936.4860, 42733.96
937.6090, 42714.17
938.7310, 42853.00
939.8530, 42815.00
940.9750, 42869.00
942.0970, 42897.00
943.2180, 43091.00
944.3400, 42991.00
945.4610, 43338.00
946.5820, 43270.00
947.7030, 43311.00
948.8240, 43075.00
949.9450, 43205.00
951.0650, 43511.00
952.1860, 43584.00
953.3060, 43524.00
954.4260, 43433.00
955.5460, 43539.34
956.6650, 43548.64
957.7850, 43665.00
958.9040, 43793.00
960.0230, 43823.00
961.1420, 44101.00
962.2610, 44361.00
963.3800, 44111.00
964.4990, 43949.00
965.6170, 44115.00
966.7350, 44348.00
967.8530, 44667.00
968.9710, 44663.00
970.0890, 44639.00
971.2070, 44598.00
972.3240, 44838.00
973.4410, 44771.00
974.5580, 44933.00
975.6750, 45164.00
976.7920, 45157.00
977.9090, 45017.00
979.0250, 45564.00
980.1410, 45358.00
981.2580, 45716.00
982.3740, 45604.00
983.4890, 45738.00
984.6050, 45808.00
985.7200, 46324.00
986.8360, 45665.00
987.9510, 45751.00
989.0660, 46241.00
990.1810, 46083.00
991.2950, 46538.00
992.4100, 46324.00
993.5240, 46435.00
994.6390, 46760.00
995.7530, 47030.00
996.8660, 47284.00
997.9800, 47878.00
999.0940, 48039.00
1000.207, 48413.00
1001.320, 48912.00
1002.433, 49841.00
1003.546, 50350.00
1004.659, 51788.00
1005.772, 52484.00
1006.884, 53994.00
1007.996, 55436.00
1009.108, 57333.00
1010.220, 58914.00
1011.332, 60734.00
1012.444, 62610.00
1013.555, 63204.00
1014.666, 63293.00
1015.777, 62213.00
1016.888, 60136.00
1017.999, 58307.00
1019.110, 56256.00
1020.220, 54276.00
1021.331, 52637.00
1022.441, 51360.00
1023.551, 50480.00
1024.661, 49761.00
1025.770, 49090.00
1026.880, 49043.00
1027.989, 48490.00
1029.098, 48568.00
1030.207, 48537.00
1031.316, 48427.00
1032.425, 48260.00
1033.533, 48285.00
1034.642, 48233.95
1035.750, 48287.37
1036.858, 48273.00
1037.966, 48467.00
1039.073, 48518.00
1040.181, 48591.00
1041.288, 48800.00
1042.396, 48802.00
1043.503, 48926.00
1044.610, 49021.00
1045.716, 48857.00
1046.823, 48957.00
1047.929, 48973.00
1049.036, 48952.00
1050.142, 48741.00
1051.248, 48866.00
1052.353, 48415.00
1053.459, 48514.00
1054.564, 48362.00
1055.670, 48179.00
1056.775, 48245.00
1057.880, 48212.00
1058.985, 48194.00
1060.089, 47872.00
1061.194, 47934.00
1062.298, 47805.00
1063.402, 48154.00
1064.506, 47739.00
1065.610, 47935.00
1066.713, 48198.00
1067.817, 48224.00
1068.920, 47889.00
1070.023, 48103.00
1071.126, 47958.00
1072.229, 48163.00
1073.332, 48177.00
1074.435, 48076.00
1075.537, 48271.00
1076.639, 48412.00
1077.741, 48258.00
1078.843, 48130.00
1079.945, 47975.00
1081.046, 48259.00
1082.148, 48262.00
1083.249, 48268.00
1084.350, 48386.00
1085.451, 48224.00
1086.551, 48557.00
1087.652, 48278.00
1088.752, 48890.00
1089.853, 48577.00
1090.953, 48446.00
1092.053, 48935.00
1093.152, 48577.00
1094.252, 48719.00
1095.351, 48628.00
1096.451, 48584.40
1097.550, 48740.00
1098.649, 48664.00
1099.748, 48749.00
1100.846, 48908.00
1101.945, 48970.00
1103.043, 49131.00
1104.141, 49008.00
1105.239, 49148.00
1106.337, 49107.00
1107.434, 49408.00
1108.532, 49363.79
1109.629, 49358.00
1110.726, 49360.00
1111.823, 49354.00
1112.920, 49249.00
1114.017, 49445.00
1115.113, 49436.00
1116.210, 49667.00
1117.306, 49792.00
1118.402, 49591.00
1119.498, 49998.00
1120.593, 49850.00
1121.689, 50108.00
1122.784, 49842.00
1123.879, 50059.00
1124.974, 50192.00
1126.069, 50246.00
1127.164, 50303.21
1128.259, 50179.00
1129.353, 50270.00
1130.447, 50264.36
1131.541, 50218.00
1132.635, 50233.00
1133.729, 50191.00
1134.822, 50109.00
1135.916, 50269.00
1137.009, 50298.00
1138.102, 50373.00
1139.195, 50305.00
1140.288, 50318.00
1141.380, 50320.00
1142.473, 50288.00
1143.565, 50357.00
1144.657, 50345.00
1145.749, 50533.00
1146.841, 50352.00
1147.932, 50507.00
1149.024, 50645.00
1150.115, 50463.00
1151.206, 50674.00
1152.297, 50321.00
1153.388, 50526.00
1154.479, 50789.00
1155.569, 50445.00
1156.659, 50894.00
1157.750, 50620.00
1158.839, 50809.00
1159.929, 50687.00
1161.019, 50789.00
1162.108, 50791.00
1163.198, 50921.00
1164.287, 50771.00
1165.376, 50886.00
1166.465, 50840.00
1167.553, 51163.00
1168.642, 51137.00
1169.730, 51216.00
1170.818, 51482.00
1171.906, 51274.00
1172.994, 50813.00
1174.082, 51180.00
1175.170, 51342.00
1176.257, 51004.00
1177.344, 51279.00
1178.431, 51446.00
1179.518, 51209.00
1180.605, 51628.00
1181.691, 51506.00
1182.778, 51451.00
1183.864, 51835.00
1184.950, 51679.00
1186.036, 51660.00
1187.122, 51827.00
1188.207, 51806.00
1189.292, 51762.00
1190.378, 51915.00
1191.463, 51977.00
1192.548, 52588.00
1193.632, 52498.00
1194.717, 52271.00
1195.801, 52034.00
1196.886, 52521.00
1197.970, 52092.00
1199.054, 52345.00
1200.137, 52384.00
1201.221, 52428.00
1202.305, 52659.00
1203.388, 52414.00
1204.471, 52564.00
1205.554, 52502.00
1206.637, 52389.00
1207.719, 52670.00
1208.802, 52745.00
1209.884, 52705.00
1210.966, 52860.40
1212.048, 52780.00
1213.130, 52909.00
1214.212, 52958.00
1215.293, 52853.00
1216.374, 52885.00
1217.456, 53080.00
1218.536, 53229.00
1219.617, 53278.00
1220.698, 52990.00
1221.778, 53227.00
1222.859, 53172.00
1223.939, 53257.00
1225.019, 53268.00
1226.099, 53271.00
1227.178, 53337.00
1228.258, 53061.00
1229.337, 53617.00
1230.417, 53107.00
1231.496, 53298.00
1232.574, 53666.00
1233.653, 53917.00
1234.732, 53422.00
1235.810, 53781.00
1236.888, 53642.00
1237.966, 53775.00
1239.044, 53806.00
1240.122, 53817.00
1241.199, 53847.00
1242.277, 54088.00
1243.354, 53883.00
1244.431, 54110.00
1245.508, 53732.00
1246.585, 54188.00
1247.661, 54080.00
1248.738, 54271.00
1249.814, 54219.00
1250.890, 54338.00
1251.966, 54330.00
1253.042, 54382.75
1254.117, 54393.02
1255.193, 54471.00
1256.268, 54429.00
1257.343, 54421.00
1258.418, 54547.00
1259.493, 54380.00
1260.567, 54477.00
1261.642, 54574.00
1262.716, 54539.00
1263.790, 54631.22
1264.864, 54669.70
1265.938, 54680.00
1267.011, 54811.00
1268.085, 54764.00
1269.158, 54911.00
1270.231, 54544.00
1271.304, 54675.00
1272.377, 55065.00
1273.450, 54938.00
1274.522, 55245.00
1275.594, 55231.00
1276.666, 55411.00
1277.738, 55248.00
1278.810, 55346.00
1279.882, 55268.00
1280.953, 55530.00
1282.025, 55480.00
1283.096, 55489.00
1284.167, 55711.00
1285.238, 55459.00
1286.308, 55476.00
1287.379, 55775.00
1288.449, 55540.00
1289.519, 55541.00
1290.589, 55444.00
1291.659, 55473.50
1292.729, 55930.00
1293.798, 55680.00
1294.868, 55744.00
1295.937, 55965.00
1297.006, 55778.00
1298.075, 55911.00
1299.143, 55932.00
1300.212, 55532.00
1301.280, 55851.00
1302.348, 55906.00
1303.416, 56210.00
1304.484, 55684.00
1305.552, 55636.46
1306.620, 56124.22
1307.687, 56420.20
1308.754, 56534.75
1309.821, 55924.46
1310.888, 56250.15
1311.955, 56200.75
1313.021, 56135.91
1314.088, 56593.34
1315.154, 56088.44
1316.220, 56537.53
1317.286, 56605.81
1318.352, 56848.39
1319.417, 56713.49
1320.483, 56695.22
1321.548, 57054.44
1322.613, 56701.00
1323.678, 57209.00
