##NAMES=Dolomite
##RRUFFID=R050370
##IDEAL CHEMISTRY=CaMg(CO_3_)_2_
##LOCALITY=Morro Velho mine, Nova Lima, Minas Gerais, Brazil
##OWNER=RRUFF
##SOURCE=Eugene Schlepp
##DESCRIPTION=Colorless bladed crystals associated with pyrrhotite and albite
##STATUS=The identification of this mineral has been confirmed by X-ray diffraction and chemical analysis
##URL=rruff.info/R050370
##MEASURED CHEMISTRY=(Ca_0.84_Fe_0.16_)_Σ=1_(Mg_0.98_Mn_0.02_)_Σ=1_(CO_3_)_2_ ; CO_2_ estimated by difference
##PIN_ID=L01076
##ORIENTATION=Laser parallel to a* (1 0 0). Fiducial mark perpendicular to laser is parallel to c [0 0 1]
118.1340, 6010.000
119.3650, 6046.000
120.5960, 6122.000
121.8270, 6139.000
123.0580, 6153.000
124.2880, 6222.000
125.5190, 6232.000
126.7490, 6305.000
127.9790, 6362.057
129.2090, 6319.000
130.4390, 6479.000
131.6680, 6541.000
132.8980, 6564.000
134.1270, 6484.000
135.3560, 6538.000
136.5850, 6653.000
137.8140, 6733.000
139.0430, 6780.000
140.2710, 6778.000
141.5000, 6805.000
142.7280, 6918.000
143.9560, 6820.000
145.1840, 6865.000
146.4120, 6983.000
147.6390, 7095.000
148.8670, 7052.000
150.0940, 7092.000
151.3210, 7223.000
152.5490, 7225.000
153.7750, 7271.000
155.0020, 7459.000
156.2290, 7398.000
157.4550, 7559.000
158.6810, 7802.000
159.9080, 7941.000
161.1340, 8183.981
162.3590, 8281.000
163.5850, 8629.000
164.8110, 8842.000
166.0360, 9023.000
167.2610, 9158.000
168.4860, 9339.000
169.7110, 9632.000
170.9360, 9977.000
172.1610, 10064.00
173.3850, 10131.00
174.6100, 10132.00
175.8340, 9994.000
177.0580, 9672.000
178.2820, 9290.000
179.5050, 8954.000
180.7290, 8646.000
181.9520, 8375.000
183.1760, 8152.000
184.3990, 8050.000
185.6220, 8062.000
186.8450, 7967.000
188.0670, 7949.000
189.2900, 7875.000
190.5120, 7827.000
191.7340, 7828.395
192.9560, 7794.679
194.1780, 7822.000
195.4000, 7824.000
196.6220, 7799.000
197.8430, 7806.595
199.0640, 7765.000
200.2860, 7787.000
201.5070, 7829.000
202.7270, 7825.000
203.9480, 7785.000
205.1690, 7714.000
206.3890, 7795.000
207.6090, 7760.000
208.8290, 7806.000
210.0490, 7850.684
211.2690, 7925.000
212.4890, 7957.000
213.7080, 7962.000
214.9280, 8042.000
216.1470, 8106.000
217.3660, 8112.000
218.5850, 8180.000
219.8030, 8216.000
221.0220, 8208.000
222.2400, 8400.000
223.4590, 8507.000
224.6770, 8579.000
225.8950, 8567.000
227.1120, 8548.000
228.3300, 8408.000
229.5480, 8344.000
230.7650, 8436.000
231.9820, 8269.000
233.1990, 8313.000
234.4160, 8250.000
235.6330, 8196.000
236.8490, 8261.000
238.0660, 8082.000
239.2820, 8093.000
240.4980, 8340.000
241.7140, 8160.000
242.9300, 8217.000
244.1460, 8191.000
245.3610, 8269.000
246.5770, 8223.000
247.7920, 8273.000
249.0070, 8236.000
250.2220, 8346.000
251.4370, 8377.000
252.6510, 8431.000
253.8660, 8416.000
255.0800, 8524.000
256.2940, 8544.000
257.5080, 8651.000
258.7220, 8820.000
259.9360, 8963.000
261.1490, 8860.000
262.3630, 8828.000
263.5760, 8891.000
264.7890, 8976.000
266.0020, 8990.000
267.2150, 9110.000
268.4270, 9297.000
269.6400, 9441.000
270.8520, 9611.000
272.0640, 9865.000
273.2760, 10047.00
274.4880, 10213.00
275.7000, 10630.00
276.9120, 10713.00
278.1230, 11235.00
279.3340, 11432.00
280.5450, 11886.00
281.7560, 12256.00
282.9670, 12672.00
284.1780, 13053.20
285.3880, 13361.00
286.5980, 13767.00
287.8090, 14118.00
289.0190, 14410.00
290.2290, 14612.00
291.4380, 14701.00
292.6480, 14696.00
293.8570, 14664.00
295.0670, 14440.00
296.2760, 14409.00
297.4850, 14018.00
298.6930, 13634.00
299.9020, 13039.00
301.1110, 12545.00
302.3190, 11978.00
303.5270, 11450.00
304.7350, 11057.00
305.9430, 10649.00
307.1510, 10486.00
308.3580, 10118.00
309.5660, 9918.000
310.7730, 9827.000
311.9800, 9598.000
313.1870, 9517.000
314.3940, 9435.000
315.6010, 9257.000
316.8070, 9273.000
318.0130, 9246.000
319.2200, 9226.000
320.4260, 9247.000
321.6310, 9214.207
322.8370, 9101.000
324.0430, 9161.000
325.2480, 9134.000
326.4540, 9065.000
327.6590, 9116.000
328.8640, 9101.000
330.0680, 9178.000
331.2730, 9139.000
332.4780, 9096.000
333.6820, 9169.000
334.8860, 9094.000
336.0900, 9132.000
337.2940, 9293.000
338.4980, 9293.000
339.7010, 9325.000
340.9050, 9379.000
342.1080, 9423.000
343.3110, 9352.000
344.5140, 9319.000
345.7170, 9291.000
346.9200, 9285.295
348.1220, 9335.000
349.3240, 9277.000
350.5270, 9354.000
351.7290, 9285.000
352.9310, 9298.000
354.1320, 9262.000
355.3340, 9162.000
356.5350, 9126.000
357.7370, 9267.000
358.9380, 9190.000
360.1390, 9166.000
361.3400, 9127.000
362.5400, 9093.000
363.7410, 9118.000
364.9410, 9154.000
366.1410, 9191.000
367.3410, 9189.000
368.5410, 9210.892
369.7410, 9222.000
370.9400, 9199.000
372.1400, 9224.000
373.3390, 9169.000
374.5380, 9176.000
375.7370, 9119.000
376.9360, 9249.000
378.1350, 9264.000
379.3330, 9247.147
380.5310, 9256.000
381.7300, 9228.000
382.9280, 9254.000
384.1260, 9274.000
385.3230, 9213.000
386.5210, 9275.000
387.7180, 9252.000
388.9160, 9252.000
390.1130, 9351.000
391.3100, 9343.000
392.5060, 9357.000
393.7030, 9308.000
394.9000, 9266.000
396.0960, 9297.000
397.2920, 9277.290
398.4880, 9329.000
399.6840, 9317.000
400.8800, 9276.000
402.0750, 9323.000
403.2710, 9366.000
404.4660, 9339.000
405.6610, 9378.000
406.8560, 9418.000
408.0510, 9326.000
409.2450, 9355.000
410.4400, 9364.839
411.6340, 9360.133
412.8280, 9411.000
414.0220, 9396.000
415.2160, 9414.000
416.4100, 9404.251
417.6030, 9443.000
418.7970, 9483.000
419.9900, 9479.000
421.1830, 9574.000
422.3760, 9497.000
423.5690, 9526.000
424.7610, 9646.000
425.9540, 9495.000
427.1460, 9539.000
428.3380, 9585.000
429.5300, 9714.000
430.7220, 9652.000
431.9140, 9552.000
433.1050, 9526.000
434.2970, 9593.000
435.4880, 9571.000
436.6790, 9595.849
437.8700, 9639.000
439.0610, 9627.000
440.2510, 9716.000
441.4420, 9729.000
442.6320, 9710.000
443.8220, 9657.000
445.0120, 9692.000
446.2020, 9727.000
447.3910, 9713.000
448.5810, 9832.000
449.7700, 9712.000
450.9600, 9804.000
452.1490, 9740.000
453.3370, 9769.000
454.5260, 9702.000
455.7150, 9829.000
456.9030, 9774.000
458.0910, 9832.000
459.2800, 9719.000
460.4670, 9972.000
461.6550, 9973.000
462.8430, 9884.000
464.0300, 9774.000
465.2180, 9877.000
466.4050, 9828.910
467.5920, 9860.000
468.7790, 9897.000
469.9650, 9921.000
471.1520, 9965.000
472.3380, 9927.000
473.5250, 10032.00
474.7110, 9938.000
475.8970, 9980.000
477.0820, 9911.000
478.2680, 10106.00
479.4540, 9999.000
480.6390, 10028.00
481.8240, 10065.00
483.0090, 10003.00
484.1940, 9908.000
485.3780, 10132.00
486.5630, 10055.00
487.7470, 10156.00
488.9320, 10156.00
490.1160, 10050.00
491.3000, 9999.000
492.4830, 10068.00
493.6670, 10026.00
494.8500, 10113.00
496.0340, 10207.00
497.2170, 10126.00
498.4000, 10145.00
499.5820, 10266.00
500.7650, 10140.00
501.9480, 10181.00
503.1300, 10149.00
504.3120, 10279.00
505.4940, 10255.00
506.6760, 10217.00
507.8580, 10121.00
509.0390, 10299.00
510.2210, 10351.00
511.4020, 10175.00
512.5830, 10164.00
513.7640, 10330.00
514.9450, 10249.00
516.1250, 10401.00
517.3060, 10365.00
518.4860, 10272.00
519.6660, 10291.00
520.8460, 10232.00
522.0260, 10273.00
523.2060, 10318.00
524.3850, 10358.00
525.5650, 10354.00
526.7440, 10358.00
527.9230, 10367.32
529.1020, 10367.44
530.2810, 10381.00
531.4590, 10391.00
532.6380, 10431.00
533.8160, 10478.00
534.9940, 10517.00
536.1720, 10435.00
537.3500, 10481.00
538.5270, 10491.00
539.7050, 10427.00
540.8820, 10524.00
542.0590, 10374.00
543.2360, 10590.00
544.4130, 10487.00
545.5900, 10518.00
546.7660, 10558.00
547.9430, 10458.00
549.1190, 10517.00
550.2950, 10512.00
551.4710, 10475.00
552.6470, 10612.00
553.8220, 10602.00
554.9980, 10649.00
556.1730, 10648.00
557.3480, 10644.00
558.5230, 10647.00
559.6980, 10622.00
560.8730, 10638.12
562.0470, 10609.00
563.2220, 10679.00
564.3960, 10615.00
565.5700, 10675.00
566.7440, 10852.00
567.9170, 10577.00
569.0910, 10591.00
570.2640, 10630.00
571.4380, 10758.00
572.6110, 10639.00
573.7840, 10852.00
574.9570, 10755.00
576.1290, 10754.00
577.3020, 10827.00
578.4740, 10820.00
579.6460, 10686.00
580.8180, 10673.00
581.9900, 10625.00
583.1620, 10655.12
584.3330, 10820.00
585.5040, 10784.00
586.6760, 10814.00
587.8470, 10882.00
589.0180, 10893.00
590.1880, 10785.00
591.3590, 10836.00
592.5290, 10779.00
593.7000, 10877.00
594.8700, 10877.00
596.0400, 10854.00
597.2090, 10820.00
598.3790, 10994.00
599.5490, 10781.00
600.7180, 10966.00
601.8870, 10918.00
603.0560, 10885.00
604.2250, 10964.00
605.3940, 10807.00
606.5620, 10841.08
607.7300, 10830.00
608.8990, 10829.00
610.0670, 10895.00
611.2350, 10963.00
612.4020, 10920.00
613.5700, 10815.00
614.7370, 10891.00
615.9050, 10896.00
617.0720, 10896.00
618.2390, 11027.00
619.4060, 11087.00
620.5720, 10969.00
621.7390, 11073.00
622.9050, 10967.00
624.0710, 11154.00
625.2370, 11135.00
626.4030, 11123.00
627.5690, 11210.00
628.7340, 11274.00
629.9000, 11179.00
631.0650, 11182.00
632.2300, 11190.00
633.3950, 11211.00
634.5600, 11114.00
635.7240, 11113.00
636.8890, 11131.00
638.0530, 11181.00
639.2170, 11172.44
640.3810, 11130.00
641.5450, 11177.00
642.7080, 11180.00
643.8720, 11165.00
645.0350, 11178.00
646.1980, 11184.00
647.3610, 11200.00
648.5240, 11305.00
649.6870, 11195.00
650.8490, 11365.00
652.0120, 11339.00
653.1740, 11252.00
654.3360, 11330.00
655.4980, 11307.00
656.6600, 11294.00
657.8210, 11163.00
658.9830, 11409.00
660.1440, 11361.00
661.3050, 11233.00
662.4660, 11382.00
663.6270, 11313.00
664.7870, 11260.00
665.9480, 11346.00
667.1080, 11316.00
668.2680, 11467.00
669.4280, 11362.00
670.5880, 11453.00
671.7480, 11398.00
672.9070, 11405.00
674.0670, 11337.00
675.2260, 11642.00
676.3850, 11517.00
677.5440, 11483.00
678.7030, 11502.00
679.8610, 11322.00
681.0200, 11383.00
682.1780, 11343.00
683.3360, 11478.00
684.4940, 11511.00
685.6520, 11540.00
686.8090, 11528.00
687.9670, 11454.00
689.1240, 11553.00
690.2810, 11617.00
691.4380, 11475.00
692.5950, 11641.00
693.7520, 11535.00
694.9080, 11665.00
696.0650, 11550.00
697.2210, 11497.00
698.3770, 11472.00
699.5330, 11547.00
700.6880, 11549.05
701.8440, 11699.00
702.9990, 11649.00
704.1550, 11735.00
705.3100, 11780.00
706.4650, 11706.00
707.6190, 11856.00
708.7740, 11778.00
709.9290, 11775.00
711.0830, 11801.00
712.2370, 11809.00
713.3910, 11841.26
714.5450, 11966.00
715.6980, 11949.00
716.8520, 12043.00
718.0050, 12178.00
719.1580, 12233.00
720.3110, 12117.00
721.4640, 12270.00
722.6170, 12054.00
723.7700, 12126.00
724.9220, 12223.00
726.0740, 12151.00
727.2260, 12199.00
728.3780, 12088.00
729.5300, 12119.00
730.6810, 12112.00
731.8330, 12047.00
732.9840, 12043.00
734.1350, 12019.00
735.2860, 11975.45
736.4370, 11995.00
737.5880, 11953.00
738.7380, 11974.00
739.8880, 11951.67
741.0390, 12034.00
742.1890, 11920.00
743.3380, 11970.00
744.4880, 11965.00
745.6380, 12065.00
746.7870, 12018.00
747.9360, 11966.00
749.0850, 11967.00
750.2340, 11963.65
751.3830, 12121.00
752.5310, 12029.00
753.6800, 12041.00
754.8280, 12124.00
755.9760, 12038.00
757.1240, 11996.00
758.2720, 12099.00
759.4190, 11928.00
760.5670, 11910.00
761.7140, 12047.00
762.8610, 12079.00
764.0080, 12073.00
765.1550, 12210.00
766.3020, 12198.00
767.4480, 12110.00
768.5950, 12044.00
769.7410, 12172.00
770.8870, 12163.00
772.0330, 12099.00
773.1780, 12163.00
774.3240, 12127.00
775.4690, 12299.00
776.6140, 12160.00
777.7590, 12089.00
778.9040, 12220.00
780.0490, 12121.00
781.1940, 12187.00
782.3380, 12231.00
783.4820, 12153.00
784.6260, 12151.00
785.7700, 12212.00
786.9140, 12175.00
788.0580, 12174.00
789.2010, 12231.00
790.3450, 12155.00
791.4880, 12308.00
792.6310, 12215.00
793.7730, 12196.00
794.9160, 12303.00
796.0590, 12270.00
797.2010, 12241.00
798.3430, 12200.00
799.4850, 12163.00
800.6270, 12272.00
801.7690, 12274.00
802.9100, 12268.00
804.0520, 12343.00
805.1930, 12298.00
806.3340, 12277.00
807.4750, 12316.00
808.6160, 12382.00
809.7560, 12306.00
810.8970, 12257.00
812.0370, 12399.00
813.1770, 12418.00
814.3170, 12546.00
815.4570, 12337.00
816.5960, 12393.00
817.7360, 12570.00
818.8750, 12399.00
820.0140, 12523.00
821.1530, 12373.00
822.2920, 12471.00
823.4310, 12472.00
824.5690, 12378.00
825.7070, 12493.00
826.8460, 12488.00
827.9840, 12513.00
829.1220, 12424.00
830.2590, 12482.00
831.3970, 12503.00
832.5340, 12571.00
833.6710, 12608.00
834.8080, 12489.00
835.9450, 12598.00
837.0820, 12478.00
838.2190, 12618.00
839.3550, 12548.00
840.4910, 12637.00
841.6270, 12690.00
842.7630, 12650.00
843.8990, 12773.00
845.0350, 12695.00
846.1700, 12773.00
847.3060, 12631.00
848.4410, 12468.00
849.5760, 12585.00
850.7100, 12662.00
851.8450, 12689.00
852.9800, 12490.00
854.1140, 12748.00
855.2480, 12735.00
856.3820, 12617.00
857.5160, 12825.00
858.6500, 12744.00
859.7830, 12764.00
860.9170, 12843.00
862.0500, 12819.00
863.1830, 12839.00
864.3160, 12871.00
865.4480, 12719.00
866.5810, 12745.00
867.7130, 12801.00
868.8460, 12884.00
869.9780, 12865.00
871.1100, 12990.00
872.2410, 13007.00
873.3730, 12961.00
874.5050, 12826.00
875.6360, 12942.00
876.7670, 12954.00
877.8980, 12900.00
879.0290, 13103.00
880.1590, 13129.00
881.2900, 12956.00
882.4200, 13098.00
883.5500, 13075.00
884.6800, 13119.00
885.8100, 12965.00
886.9400, 13067.00
888.0690, 12874.00
889.1990, 13055.00
890.3280, 13034.00
891.4570, 12971.00
892.5860, 12922.00
893.7140, 12954.00
894.8430, 12913.00
895.9710, 12879.00
897.1000, 12799.00
898.2280, 12826.68
899.3560, 13002.00
900.4830, 12887.00
901.6110, 13012.00
902.7380, 13091.00
903.8660, 13038.00
904.9930, 13048.00
906.1200, 13018.00
907.2460, 12984.00
908.3730, 13029.00
909.5000, 13005.00
910.6260, 13053.00
911.7520, 13168.00
912.8780, 13251.00
914.0040, 13092.00
915.1290, 12891.00
916.2550, 13139.00
917.3800, 13229.00
918.5050, 13130.00
919.6300, 13191.00
920.7550, 13062.00
921.8800, 13126.00
923.0040, 13186.00
924.1290, 13186.00
925.2530, 13254.00
926.3770, 13243.00
927.5010, 13162.00
928.6250, 13222.00
929.7480, 13216.00
930.8720, 13193.00
931.9950, 13193.00
933.1180, 13233.00
934.2410, 13227.00
935.3640, 13242.00
936.4860, 13308.00
937.6090, 13373.00
938.7310, 13409.00
939.8530, 13334.00
940.9750, 13332.00
942.0970, 13378.00
943.2180, 13330.00
944.3400, 13393.00
945.4610, 13333.00
946.5820, 13416.00
947.7030, 13304.00
948.8240, 13272.00
949.9450, 13399.00
951.0650, 13444.00
952.1860, 13411.00
953.3060, 13327.00
954.4260, 13350.00
955.5460, 13327.00
956.6650, 13338.00
957.7850, 13390.00
958.9040, 13292.00
960.0230, 13433.00
961.1420, 13464.00
962.2610, 13581.00
963.3800, 13422.00
964.4990, 13570.00
965.6170, 13321.00
966.7350, 13526.00
967.8530, 13426.00
968.9710, 13559.00
970.0890, 13506.00
971.2070, 13477.00
972.3240, 13618.00
973.4410, 13560.00
974.5580, 13621.00
975.6750, 13545.00
976.7920, 13524.00
977.9090, 13547.25
979.0250, 13546.58
980.1410, 13581.00
981.2580, 13637.00
982.3740, 13685.00
983.4890, 13768.00
984.6050, 13700.00
985.7200, 13635.00
986.8360, 13723.00
987.9510, 13716.00
989.0660, 13641.00
990.1810, 13752.00
991.2950, 13641.00
992.4100, 13814.00
993.5240, 13789.00
994.6390, 13711.00
995.7530, 13707.00
996.8660, 13683.00
997.9800, 13733.00
999.0940, 13711.75
1000.207, 13823.00
1001.320, 13737.00
1002.433, 13767.00
1003.546, 13837.00
1004.659, 13912.00
1005.772, 14013.00
1006.884, 13829.00
1007.996, 13908.00
1009.108, 13818.00
1010.220, 13839.00
1011.332, 13914.00
1012.444, 14007.00
1013.555, 13985.00
1014.666, 14051.04
1015.777, 13911.00
1016.888, 14076.00
1017.999, 14016.00
1019.110, 13963.00
1020.220, 14035.00
1021.331, 14101.00
1022.441, 14038.00
1023.551, 14100.00
1024.661, 14157.00
1025.770, 14036.00
1026.880, 14245.00
1027.989, 14208.00
1029.098, 14121.00
1030.207, 14209.00
1031.316, 14140.00
1032.425, 14108.00
1033.533, 14282.00
1034.642, 14198.00
1035.750, 14170.00
1036.858, 14124.00
1037.966, 14460.00
1039.073, 14128.00
1040.181, 14307.00
1041.288, 14333.00
1042.396, 14226.00
1043.503, 14242.00
1044.610, 14308.00
1045.716, 14442.00
1046.823, 14510.00
1047.929, 14512.00
1049.036, 14433.00
1050.142, 14496.00
1051.248, 14489.00
1052.353, 14638.00
1053.459, 14659.00
1054.564, 14551.00
1055.670, 14647.00
1056.775, 14633.00
1057.880, 14608.00
1058.985, 14777.00
1060.089, 14783.00
1061.194, 14881.00
1062.298, 15003.00
1063.402, 15096.00
1064.506, 15155.00
1065.610, 15258.13
1066.713, 15221.00
1067.817, 15435.00
1068.920, 15467.00
1070.023, 15578.00
1071.126, 15980.00
1072.229, 15907.00
1073.332, 16118.00
1074.435, 16456.00
1075.537, 16379.00
1076.639, 16544.00
1077.741, 16625.00
1078.843, 17073.00
1079.945, 17245.00
1081.046, 17883.00
1082.148, 18587.00
1083.249, 19541.00
1084.350, 21026.00
1085.451, 22839.00
1086.551, 25307.00
1087.652, 29206.00
1088.752, 33732.00
1089.853, 38667.00
1090.953, 43775.00
1092.053, 49444.00
1093.152, 54009.00
1094.252, 57514.00
1095.351, 58683.00
1096.451, 56745.00
1097.550, 51554.00
1098.649, 44757.00
1099.748, 37279.00
1100.846, 30762.00
1101.945, 25656.00
1103.043, 22172.00
1104.141, 19793.00
1105.239, 18475.00
1106.337, 17479.00
1107.434, 16803.00
1108.532, 16399.00
1109.629, 16073.00
1110.726, 15699.00
1111.823, 15584.00
1112.920, 15421.00
1114.017, 15400.00
1115.113, 15345.00
1116.210, 15187.00
1117.306, 15243.00
1118.402, 15127.00
1119.498, 15259.00
1120.593, 15130.00
1121.689, 15054.00
1122.784, 15072.00
1123.879, 15007.00
1124.974, 15035.00
1126.069, 15032.00
1127.164, 15024.00
1128.259, 14995.00
1129.353, 14894.00
1130.447, 14832.00
1131.541, 14682.00
1132.635, 14810.00
1133.729, 14684.00
1134.822, 14859.00
1135.916, 14595.00
1137.009, 14783.00
1138.102, 14743.00
1139.195, 14607.00
1140.288, 14657.00
1141.380, 14871.00
1142.473, 14644.00
1143.565, 14819.00
1144.657, 14799.00
1145.749, 14729.00
1146.841, 14746.00
1147.932, 14972.00
1149.024, 14752.00
1150.115, 14888.00
1151.206, 14816.00
1152.297, 14661.00
1153.388, 14779.00
1154.479, 14749.00
1155.569, 14763.00
1156.659, 14873.00
1157.750, 14837.00
1158.839, 14903.00
1159.929, 14784.00
1161.019, 14862.00
1162.108, 14783.00
1163.198, 14842.00
1164.287, 14714.00
1165.376, 14796.00
1166.465, 14849.00
1167.553, 14865.00
1168.642, 14918.00
1169.730, 14871.00
1170.818, 14859.00
1171.906, 14834.00
1172.994, 14916.00
1174.082, 14909.00
1175.170, 14842.00
1176.257, 14821.00
1177.344, 14931.00
1178.431, 14820.00
1179.518, 15004.00
1180.605, 15243.00
1181.691, 15082.44
1182.778, 14966.00
1183.864, 14902.00
1184.950, 15012.00
1186.036, 14918.00
1187.122, 14931.00
1188.207, 14809.00
1189.292, 15049.00
1190.378, 14852.00
1191.463, 15062.00
1192.548, 14955.00
1193.632, 15057.00
1194.717, 15120.00
1195.801, 15011.00
1196.886, 15076.00
1197.970, 15063.00
1199.054, 14914.00
1200.137, 15088.00
1201.221, 15168.00
1202.305, 14992.00
1203.388, 15103.00
1204.471, 15034.00
1205.554, 15060.00
1206.637, 14950.00
1207.719, 15066.00
1208.802, 15172.00
1209.884, 15030.00
1210.966, 15092.00
1212.048, 15092.00
1213.130, 15039.00
1214.212, 15104.00
1215.293, 15206.00
1216.374, 15186.00
1217.456, 15181.00
1218.536, 15289.00
1219.617, 15151.00
1220.698, 15206.00
1221.778, 15143.00
1222.859, 15168.00
1223.939, 15185.00
1225.019, 15085.00
1226.099, 15143.00
1227.178, 15085.00
1228.258, 15175.00
1229.337, 15179.00
1230.417, 15233.00
1231.496, 15362.00
1232.574, 15071.00
1233.653, 15250.00
1234.732, 15232.00
1235.810, 15434.00
1236.888, 15370.00
1237.966, 15233.00
1239.044, 15268.00
1240.122, 15382.00
1241.199, 15342.00
1242.277, 15350.00
1243.354, 15256.00
1244.431, 15314.00
1245.508, 15394.00
1246.585, 15333.00
1247.661, 15418.00
1248.738, 15396.00
1249.814, 15391.00
1250.890, 15497.00
1251.966, 15265.00
1253.042, 15486.00
1254.117, 15486.00
1255.193, 15298.00
1256.268, 15605.00
1257.343, 15465.00
1258.418, 15393.00
1259.493, 15404.00
1260.567, 15313.00
1261.642, 15435.00
1262.716, 15576.00
1263.790, 15530.00
1264.864, 15513.00
1265.938, 15441.00
1267.011, 15443.00
1268.085, 15414.11
1269.158, 15556.00
1270.231, 15473.00
1271.304, 15481.00
1272.377, 15700.00
1273.450, 15623.00
1274.522, 15437.00
1275.594, 15703.00
1276.666, 15663.00
1277.738, 15545.00
1278.810, 15765.00
1279.882, 15718.00
1280.953, 15559.00
1282.025, 15533.00
1283.096, 15584.00
1284.167, 15642.00
1285.238, 15572.00
1286.308, 15567.00
1287.379, 15702.00
1288.449, 15697.00
1289.519, 15709.00
1290.589, 15608.00
1291.659, 15647.00
