##NAMES=Dravite
##RRUFFID=R040088
##IDEAL CHEMISTRY=NaMg_3_Al_6_(Si_6_O_18_)(BO_3_)_3_(OH)_3_OH
##LOCALITY=Yinnietharra Station, Pilbara, Western Australia, Australia
##OWNER=RRUFF
##SOURCE=University of Arizona Mineral Museum
##DESCRIPTION=Brown short prismatic crystal
##STATUS=The identification of this mineral has been confirmed by X-ray diffraction and chemical analysis
##URL=rruff.info/R040088
##MEASURED CHEMISTRY=(Na_0.88_Ca_0.06_[box]_0.06_)(Mg_0.88_Al_0.10_Ti_0.04_Fe_0.02_)_3_Al_6.00_(B_1_O_3_)_3_Si_6.00_O_18_((OH)_0.98_F_0.02_)_4_
##PIN_ID=L00133
##ORIENTATION=Laser parallel to a [1 0 0]. Fiducial mark perpendicular to laser is parallel to c* (0 0 1)
169.1510, 10860.00
170.5400, 10820.00
171.9280, 10770.00
173.3160, 10870.00
174.7040, 10683.21
176.0910, 10852.30
177.4790, 10980.95
178.8660, 11071.23
180.2530, 11170.00
181.6390, 11170.00
183.0260, 11450.00
184.4120, 11510.00
185.7980, 11670.00
187.1840, 11900.00
188.5690, 12090.00
189.9540, 12370.00
191.3390, 12500.00
192.7240, 12930.00
194.1080, 13120.00
195.4930, 13490.00
196.8770, 13790.00
198.2610, 14420.00
199.6440, 15150.00
201.0270, 15840.00
202.4100, 17120.00
203.7930, 18590.00
205.1760, 20690.00
206.5580, 22340.00
207.9400, 24660.00
209.3220, 27110.00
210.7040, 28620.00
212.0850, 30230.00
213.4660, 30410.00
214.8470, 30030.00
216.2280, 28890.00
217.6080, 27250.00
218.9890, 25950.00
220.3680, 24300.00
221.7480, 23320.00
223.1280, 22190.00
224.5070, 21820.00
225.8860, 21290.00
227.2650, 21210.00
228.6430, 21540.00
230.0220, 21680.00
231.4000, 21870.00
232.7770, 22510.00
234.1550, 23450.00
235.5320, 23960.00
236.9100, 24690.00
238.2860, 25920.00
239.6630, 26240.00
241.0390, 27150.00
242.4160, 26850.00
243.7920, 26630.00
245.1670, 25820.00
246.5430, 24650.00
247.9180, 23660.00
249.2930, 22060.00
250.6680, 21150.00
252.0420, 19960.00
253.4160, 18860.00
254.7900, 17900.00
256.1640, 16780.00
257.5380, 16490.00
258.9110, 15630.00
260.2840, 15450.00
261.6570, 15060.00
263.0300, 15100.00
264.4020, 14940.00
265.7740, 14720.00
267.1460, 14930.00
268.5180, 14690.00
269.8890, 14700.00
271.2610, 14800.00
272.6320, 14450.00
274.0020, 14530.00
275.3730, 14320.00
276.7430, 14060.00
278.1130, 13830.00
279.4830, 13700.00
280.8520, 13440.00
282.2220, 13330.00
283.5910, 13470.00
284.9600, 13200.00
286.3280, 13180.00
287.6970, 13130.00
289.0650, 13060.00
290.4330, 13110.00
291.8010, 12920.00
293.1680, 13120.00
294.5350, 13030.00
295.9020, 13180.00
297.2690, 13100.00
298.6350, 13100.00
300.0020, 13210.00
301.3680, 13160.00
302.7340, 13400.00
304.0990, 13550.00
305.4650, 13720.00
306.8300, 14060.00
308.1950, 14290.00
309.5590, 14800.00
310.9240, 15080.00
312.2880, 15250.00
313.6520, 15110.00
315.0150, 14630.00
316.3790, 14500.00
317.7420, 13960.00
319.1050, 14020.00
320.4680, 13770.00
321.8300, 13730.00
323.1930, 13990.00
324.5550, 13800.00
325.9170, 14210.00
327.2780, 14140.00
328.6400, 14320.00
330.0010, 14590.00
331.3620, 14630.00
332.7220, 15020.00
334.0830, 14980.00
335.4430, 15250.00
336.8030, 15500.00
338.1630, 15860.00
339.5220, 16130.00
340.8820, 16200.00
342.2410, 16700.00
343.5990, 16720.00
344.9580, 17060.00
346.3160, 17100.00
347.6740, 17490.00
349.0320, 18030.00
350.3900, 18330.00
351.7470, 19090.00
353.1050, 19710.00
354.4620, 20740.00
355.8180, 21710.00
357.1750, 22940.00
358.5310, 25300.00
359.8870, 27300.00
361.2430, 30340.00
362.5980, 33430.00
363.9540, 36470.00
365.3090, 40190.00
366.6640, 41640.00
368.0180, 42890.00
369.3730, 41760.00
370.7270, 40110.00
372.0810, 37630.00
373.4350, 33810.00
374.7880, 31460.00
376.1410, 28340.00
377.4940, 26460.00
378.8470, 24680.00
380.2000, 23280.00
381.5520, 22100.00
382.9040, 21160.00
384.2560, 20670.00
385.6080, 19810.00
386.9590, 19440.00
388.3100, 19200.00
389.6610, 18720.00
391.0120, 18690.00
392.3630, 18260.00
393.7130, 18120.00
395.0630, 17860.00
396.4130, 17580.00
397.7620, 17810.00
399.1120, 17510.00
400.4610, 17740.00
401.8100, 17360.00
403.1580, 17320.00
404.5070, 17210.00
405.8550, 16830.00
407.2030, 17050.00
408.5500, 16810.00
409.8980, 16300.00
411.2450, 16220.00
412.5920, 15920.00
413.9390, 15780.00
415.2860, 15510.00
416.6320, 15430.00
417.9780, 15360.00
419.3240, 15060.00
420.6700, 15110.00
422.0150, 14730.00
423.3600, 14800.00
424.7050, 14770.00
426.0500, 14800.00
427.3950, 14710.00
428.7390, 14760.00
430.0830, 14650.00
431.4270, 14570.00
432.7700, 14740.00
434.1140, 14650.00
435.4570, 14470.00
436.8000, 14710.00
438.1430, 14510.00
439.4850, 14660.00
440.8270, 14530.00
442.1690, 14540.00
443.5110, 14570.00
444.8530, 14440.00
446.1940, 14630.00
447.5350, 14530.00
448.8760, 14700.00
450.2170, 14480.00
451.5570, 14440.00
452.8970, 14700.00
454.2370, 14540.00
455.5770, 14780.00
456.9160, 14640.00
458.2560, 14540.00
459.5950, 14710.00
460.9330, 14680.00
462.2720, 14730.00
463.6100, 14940.00
464.9490, 14920.00
466.2860, 15020.00
467.6240, 14870.00
468.9620, 15090.00
470.2990, 15110.00
471.6360, 15330.00
472.9730, 15500.00
474.3090, 15500.00
475.6460, 15770.00
476.9820, 15860.00
478.3170, 15940.00
479.6530, 15950.00
480.9890, 16040.00
482.3240, 16310.00
483.6590, 16340.00
484.9930, 16790.00
486.3280, 16860.00
487.6620, 16830.00
488.9960, 17300.00
490.3300, 17160.00
491.6640, 17600.00
492.9970, 17420.00
494.3300, 17280.00
495.6630, 17550.00
496.9960, 17410.00
498.3280, 17630.00
499.6610, 17320.00
500.9930, 17430.00
502.3240, 17260.00
503.6560, 16990.00
504.9870, 16940.00
506.3180, 16700.00
507.6490, 16520.00
508.9800, 16510.00
510.3100, 16340.00
511.6410, 16330.00
512.9710, 15900.00
514.3000, 16070.00
515.6300, 15980.00
516.9590, 15700.00
518.2880, 15950.00
519.6170, 15440.00
520.9460, 15770.00
522.2740, 15640.00
523.6030, 15520.00
524.9310, 15840.00
526.2580, 15640.00
527.5860, 15830.00
528.9130, 16030.00
530.2400, 16010.00
531.5670, 16010.00
532.8940, 16020.00
534.2200, 16350.00
535.5460, 15990.00
536.8720, 16120.00
538.1980, 16220.00
539.5230, 15900.00
540.8490, 16170.00
542.1740, 15760.00
543.4990, 16030.00
544.8230, 15830.00
546.1480, 15510.00
547.4720, 15640.00
548.7960, 15300.00
550.1190, 15530.00
551.4430, 15320.00
552.7660, 15260.00
554.0890, 15430.00
555.4120, 15010.00
556.7350, 15240.00
558.0570, 15380.00
559.3790, 15160.00
560.7010, 15300.00
562.0230, 14990.00
563.3440, 15210.00
564.6650, 15020.00
565.9860, 15170.00
567.3070, 15240.00
568.6280, 15060.00
569.9480, 15150.00
571.2680, 15220.00
572.5880, 15190.00
573.9080, 15150.00
575.2270, 15100.00
576.5470, 15390.00
577.8660, 15060.00
579.1850, 15330.00
580.5030, 15120.00
581.8220, 15100.00
583.1400, 15410.00
584.4580, 15130.00
585.7750, 15520.00
587.0930, 15400.00
588.4100, 15250.00
589.7270, 15650.00
591.0440, 15470.00
592.3600, 15440.00
593.6770, 15550.00
594.9930, 15550.00
596.3090, 15740.00
597.6250, 15600.00
598.9400, 16010.00
600.2550, 15820.00
601.5700, 15960.00
602.8850, 16030.00
604.2000, 15920.00
605.5140, 16060.00
606.8280, 16050.00
608.1420, 16130.00
609.4560, 16450.00
610.7690, 16300.00
612.0830, 16480.00
613.3960, 16500.00
614.7080, 16680.00
616.0210, 16770.00
617.3330, 16790.00
618.6460, 17060.00
619.9570, 17140.00
621.2690, 17240.00
622.5810, 17750.00
623.8920, 17700.00
625.2030, 18340.00
626.5140, 18430.00
627.8240, 18790.00
629.1350, 19280.00
630.4450, 19620.00
631.7550, 19980.00
633.0650, 20160.00
634.3740, 20180.00
635.6840, 19930.00
636.9930, 19280.00
638.3010, 19640.00
639.6100, 19130.00
640.9180, 19110.00
642.2270, 19140.00
643.5350, 19210.00
644.8420, 19790.00
646.1500, 19530.00
647.4570, 19970.00
648.7640, 20420.00
650.0710, 20550.00
651.3780, 20970.00
652.6840, 20990.00
653.9910, 21010.00
655.2970, 21380.00
656.6020, 21120.00
657.9080, 21240.00
659.2130, 21120.00
660.5180, 21630.00
661.8230, 21710.00
663.1280, 21900.00
664.4320, 22710.00
665.7370, 22640.00
667.0410, 23460.00
668.3440, 24360.00
669.6480, 24510.00
670.9510, 25810.00
672.2550, 25720.00
673.5570, 26020.00
674.8600, 26160.00
676.1630, 25550.00
677.4650, 25570.00
678.7670, 24880.00
680.0690, 24310.00
681.3700, 24340.00
682.6720, 23480.00
683.9730, 23620.00
685.2740, 22890.00
686.5750, 23000.00
687.8750, 22980.00
689.1760, 22800.00
690.4760, 23420.00
691.7760, 23550.00
693.0750, 24080.00
694.3750, 24690.00
695.6740, 25150.00
696.9730, 26290.00
698.2720, 26500.00
699.5700, 27340.00
700.8690, 27610.00
702.1670, 27040.00
703.4650, 27220.00
704.7620, 26100.00
706.0600, 25160.00
707.3570, 24420.00
708.6540, 22810.00
709.9510, 22060.00
711.2480, 21110.00
712.5440, 20460.00
713.8400, 19940.00
715.1360, 19150.00
716.4320, 19010.00
717.7270, 18570.00
719.0230, 18350.00
720.3180, 18520.00
721.6130, 17790.00
722.9070, 18200.00
724.2020, 17880.00
725.4960, 17630.00
726.7900, 17830.00
728.0840, 17650.00
729.3770, 17950.00
730.6710, 17480.00
731.9640, 17750.00
733.2570, 17840.00
734.5500, 17520.00
735.8420, 17830.00
737.1340, 17580.00
738.4260, 17920.00
739.7180, 18020.00
741.0100, 18160.00
742.3010, 18410.00
743.5930, 18270.00
744.8840, 18470.00
746.1740, 18730.00
747.4650, 18840.00
748.7550, 19470.00
750.0450, 19480.00
751.3350, 19940.00
752.6250, 20360.00
753.9150, 20570.00
755.2040, 21160.00
756.4930, 21020.00
757.7820, 21130.00
759.0700, 21110.00
760.3590, 20700.00
761.6470, 20480.00
762.9350, 20260.00
764.2230, 19920.00
765.5100, 20020.00
766.7980, 19350.00
768.0850, 19670.00
769.3720, 19550.00
770.6580, 19360.00
771.9450, 19780.00
773.2310, 19540.00
774.5170, 19790.00
775.8030, 19940.00
777.0880, 19930.00
778.3740, 20540.00
779.6590, 20520.00
780.9440, 21050.00
782.2290, 21070.00
783.5130, 21430.00
784.7980, 21710.00
786.0820, 21700.00
787.3660, 22130.00
788.6490, 22080.00
789.9330, 21780.00
791.2160, 22300.00
792.4990, 21700.00
793.7820, 21710.00
795.0650, 21590.00
796.3470, 20970.00
797.6290, 21370.00
798.9110, 20810.00
800.1930, 20910.00
801.4750, 21010.00
802.7560, 20780.00
804.0370, 21210.00
805.3180, 21320.00
806.5990, 21780.00
807.8790, 22350.00
809.1590, 22510.00
810.4390, 23090.00
811.7190, 23370.00
812.9990, 23620.00
814.2780, 23800.00
815.5580, 23480.00
816.8370, 23660.00
818.1150, 23290.00
819.3940, 22710.00
820.6720, 22640.00
821.9500, 21610.00
823.2280, 21740.00
824.5060, 20930.00
825.7840, 20420.00
827.0610, 20330.00
828.3380, 19890.00
829.6150, 19760.00
830.8910, 19670.00
832.1680, 19320.00
833.4440, 19380.00
834.7200, 18980.00
835.9960, 19290.00
837.2720, 19200.00
838.5470, 18880.00
839.8220, 18790.00
841.0970, 18750.00
842.3720, 18530.00
843.6460, 18510.00
844.9210, 17970.00
846.1950, 18220.00
847.4690, 17970.00
848.7420, 17630.00
850.0160, 17860.00
851.2890, 17290.00
852.5620, 17630.00
853.8350, 17550.00
855.1080, 17440.00
856.3800, 17820.00
857.6520, 17500.00
858.9240, 17690.00
860.1960, 17630.00
861.4680, 17540.00
862.7390, 17690.00
864.0100, 17460.00
865.2810, 17470.00
866.5520, 17600.00
867.8230, 17300.00
869.0930, 17460.00
870.3630, 17170.00
871.6330, 17460.00
872.9030, 17280.00
874.1720, 17200.00
875.4410, 17590.00
876.7100, 17370.00
877.9790, 17300.00
879.2480, 17640.00
880.5160, 17410.00
881.7840, 17550.00
883.0520, 17440.00
884.3200, 17480.00
885.5880, 17670.00
886.8550, 17580.00
888.1220, 17650.00
889.3890, 17620.00
890.6560, 17670.00
891.9230, 17900.00
893.1890, 17730.00
894.4550, 17680.00
895.7210, 17990.00
896.9870, 17850.00
898.2520, 18070.00
899.5170, 17870.00
900.7830, 17920.00
902.0470, 18170.00
903.3120, 18010.00
904.5760, 18220.00
905.8410, 18260.00
907.1050, 18080.00
908.3690, 18450.00
909.6320, 18250.00
910.8960, 18320.00
912.1590, 18490.00
913.4220, 18110.00
914.6840, 18340.00
915.9470, 18350.00
917.2090, 18390.00
918.4720, 18520.00
919.7330, 18360.00
920.9950, 18530.00
922.2570, 18580.00
923.5180, 18490.00
924.7790, 18960.00
926.0400, 18570.00
927.3010, 18980.00
928.5610, 19000.00
929.8210, 18750.00
931.0810, 19000.00
932.3410, 18800.00
933.6010, 19190.00
934.8600, 19140.00
936.1200, 19280.00
937.3790, 19480.00
938.6370, 19070.00
939.8960, 19310.00
941.1540, 19450.00
942.4130, 19470.00
943.6710, 19610.00
944.9280, 19650.00
946.1860, 19680.00
947.4430, 19990.00
948.7000, 19720.00
949.9570, 20120.00
951.2140, 20260.00
952.4710, 19930.00
953.7270, 20280.00
954.9830, 20410.00
956.2390, 20590.00
957.4950, 20740.00
958.7500, 20670.00
960.0050, 20890.00
961.2610, 20660.00
962.5150, 20790.00
963.7700, 21070.00
965.0250, 20580.00
966.2790, 20876.91
967.5330, 21103.65
968.7870, 21237.43
970.0400, 21283.23
971.2940, 20977.64
972.5470, 21125.81
973.8000, 21092.13
975.0530, 20810.00
976.3050, 21310.00
977.5580, 21250.00
978.8100, 20900.00
980.0620, 21450.00
981.3140, 20930.00
982.5650, 21330.00
983.8170, 21230.00
985.0680, 21020.00
986.3190, 21470.00
987.5690, 20950.00
988.8200, 21260.00
990.0700, 21250.00
991.3200, 21130.00
992.5700, 21470.00
993.8200, 21160.00
995.0700, 21110.00
996.3190, 21570.00
997.5680, 21240.00
998.8170, 22030.00
1000.066, 22100.00
1001.314, 22180.00
1002.562, 22250.00
1003.810, 21930.00
1005.058, 22120.00
1006.306, 22140.00
1007.553, 22080.00
1008.801, 22470.00
1010.048, 22430.00
1011.294, 22780.00
1012.541, 23060.00
1013.787, 23090.00
1015.034, 23460.00
1016.280, 23720.00
1017.526, 23890.00
1018.771, 24670.00
1020.017, 24160.00
1021.262, 25030.00
1022.507, 25140.00
1023.752, 25380.00
1024.996, 25890.00
1026.241, 25840.00
1027.485, 26060.00
1028.729, 26600.00
1029.972, 26100.00
1031.216, 26520.00
1032.459, 26510.00
1033.703, 26470.00
1034.945, 26750.00
1036.188, 26360.00
1037.431, 26520.00
1038.673, 26280.00
1039.915, 26160.00
1041.157, 26380.00
1042.399, 26240.00
1043.640, 25990.00
1044.882, 26090.00
1046.123, 25960.00
1047.364, 26300.00
1048.604, 25840.00
1049.845, 25720.00
1051.085, 25790.00
1052.325, 25450.00
1053.565, 25390.00
1054.805, 25510.00
1056.044, 25080.00
1057.284, 25080.00
1058.523, 24990.00
1059.762, 24980.00
1061.000, 25250.00
1062.239, 24690.00
1063.477, 24930.00
1064.715, 25000.00
1065.953, 24810.00
1067.191, 25160.00
1068.428, 24540.00
1069.665, 24760.00
1070.902, 24900.00
1072.139, 24310.00
1073.376, 24150.00
1074.612, 24090.00
1075.849, 23670.00
1077.085, 23690.00
1078.321, 23370.00
1079.556, 23200.00
1080.792, 23320.00
1082.027, 22680.00
1083.262, 22740.00
1084.497, 22650.00
1085.731, 22230.00
1086.966, 22270.00
1088.200, 21950.00
1089.434, 21920.00
1090.668, 21830.00
1091.901, 21530.00
1093.135, 22100.00
1094.368, 21460.00
1095.601, 21640.00
1096.834, 21720.00
1098.066, 21250.00
1099.299, 21630.00
1100.531, 21490.00
1101.763, 21150.00
1102.995, 21520.00
1104.226, 21430.00
1105.458, 21340.00
1106.689, 21410.00
1107.920, 20970.00
1109.151, 21820.00
1110.381, 21410.00
1111.612, 21030.00
1112.842, 21490.00
1114.072, 21130.00
1115.302, 21190.00
1116.531, 21350.00
1117.761, 21000.00
1118.990, 21200.00
1120.219, 21340.00
1121.448, 21000.00
1122.676, 21240.00
1123.905, 20980.00
1125.133, 21030.00
1126.361, 21150.00
1127.589, 20680.00
1128.816, 21280.00
1130.044, 21020.00
1131.271, 20890.00
1132.498, 21170.00
1133.725, 21010.00
1134.951, 20970.00
1136.178, 21180.00
1137.404, 20650.00
1138.630, 21140.00
1139.855, 20730.00
1141.081, 20920.00
1142.306, 20940.00
1143.532, 20630.00
1144.757, 21030.00
1145.981, 20940.00
1147.206, 20780.00
1148.430, 21210.00
1149.655, 20940.00
1150.879, 21020.00
1152.102, 21050.00
1153.326, 20970.00
1154.549, 21000.00
1155.772, 21120.00
1156.995, 20830.00
1158.218, 21310.00
1159.441, 20970.00
1160.663, 21100.00
1161.885, 21390.00
1163.107, 20900.00
1164.329, 21340.00
1165.551, 21080.00
1166.772, 21080.00
1167.993, 21550.00
1169.214, 21210.00
1170.435, 21100.00
1171.656, 21440.00
1172.876, 21270.00
1174.096, 21690.00
1175.316, 21550.00
1176.536, 21280.00
1177.756, 21700.00
1178.975, 21160.00
1180.194, 21340.00
1181.413, 21720.00
1182.632, 21190.00
1183.851, 21490.00
1185.069, 21620.00
1186.287, 21420.00
1187.505, 21670.00
1188.723, 21410.00
1189.941, 21360.00
1191.158, 21550.00
1192.375, 21210.00
1193.593, 21700.00
1194.809, 21640.00
1196.026, 21220.00
1197.242, 22020.00
1198.459, 21680.00
1199.675, 22340.00
1200.891, 21960.00
1202.106, 21330.00
1203.322, 21890.00
1204.537, 21550.00
1205.752, 21660.00
1206.967, 21940.00
1208.181, 21730.00
1209.396, 21760.00
1210.610, 22080.00
1211.824, 21840.00
1213.038, 21920.00
1214.252, 22070.00
1215.465, 21950.00
1216.678, 22250.00
1217.892, 22150.00
1219.104, 22100.00
1220.317, 22320.00
1221.530, 22260.00
1222.742, 22550.00
1223.954, 22240.00
1225.166, 22350.00
1226.378, 22440.00
1227.589, 22660.00
1228.800, 22410.00
1230.011, 22750.00
1231.222, 22460.00
1232.433, 22640.00
1233.644, 22670.00
1234.854, 22510.00
1236.064, 23000.00
1237.274, 22580.00
1238.484, 22650.00
1239.693, 23030.00
1240.903, 22530.00
1242.112, 22840.00
1243.321, 23010.00
1244.529, 22660.00
1245.738, 23210.00
1246.946, 22740.00
1248.155, 22800.00
1249.363, 23240.00
1250.570, 22940.00
1251.778, 22950.00
1252.985, 23110.00
1254.192, 22750.00
1255.399, 23410.00
1256.606, 23150.00
1257.813, 22810.00
1259.019, 23170.00
1260.225, 23080.00
1261.432, 23200.00
1262.637, 23270.00
1263.843, 23050.00
1265.048, 23310.00
1266.254, 23270.00
1267.459, 23080.00
1268.663, 23410.00
1269.868, 22980.00
1271.073, 23590.00
1272.277, 23420.00
1273.481, 22900.00
1274.685, 23770.00
1275.888, 23410.00
1277.092, 23080.00
1278.295, 23500.00
1279.498, 23200.00
1280.701, 23000.00
1281.904, 23640.00
1283.106, 22610.00
1284.309, 23400.00
1285.511, 23500.00
1286.713, 23120.00
1287.915, 23410.00
1289.116, 23010.00
1290.317, 23440.00
1291.519, 23650.00
1292.719, 23180.00
1293.920, 23320.00
1295.121, 23390.00
1296.321, 22940.00
1297.521, 23520.00
1298.721, 23160.00
1299.921, 22920.00
1301.121, 23720.00
1302.320, 23200.00
1303.519, 23170.00
1304.718, 23670.00
1305.917, 23070.00
1307.116, 23860.00
1308.314, 23480.00
1309.512, 23240.00
1310.711, 23730.00
1311.908, 23760.00
1313.106, 23580.00
1314.303, 23980.00
1315.501, 23600.00
1316.698, 23840.00
1317.895, 24150.00
1319.091, 23390.00
1320.288, 24020.00
1321.484, 23890.00
1322.680, 23730.00
1323.876, 24160.00
1325.072, 23850.00
1326.268, 23730.00
1327.463, 23980.00
1328.658, 23690.00
1329.853, 24060.00
1331.048, 24000.00
1332.242, 23700.00
1333.437, 24080.00
1334.631, 23850.00
1335.825, 23830.00
1337.019, 24280.00
1338.212, 23790.00
1339.406, 23900.00
1340.599, 24560.00
1341.792, 24010.00
1342.985, 24250.00
1344.177, 24080.00
1345.370, 24150.00
1346.562, 24500.00
1347.754, 24140.00
1348.946, 24100.00
1350.138, 24370.00
1351.329, 24030.00
1352.521, 24340.00
1353.712, 24590.00
1354.903, 24090.00
1356.093, 24750.00
1357.284, 24460.00
1358.474, 24430.00
1359.664, 24680.00
1360.854, 24550.00
1362.044, 24730.00
1363.234, 24400.00
1364.423, 24500.00
1365.612, 24580.00
1366.801, 24710.00
1367.990, 24220.00
1369.179, 24700.00
1370.367, 24470.00
1371.555, 24680.00
1372.743, 25080.00
1373.931, 24590.00
1375.119, 25000.00
1376.306, 25170.00
1377.494, 25130.00
1378.681, 25370.00
1379.868, 25270.00
1381.054, 24810.00
1382.241, 25370.00
1383.427, 25040.00
1384.613, 25150.00
1385.799, 25710.00
1386.985, 25040.00
1388.171, 25580.00
1389.356, 25610.00
1390.541, 24950.00
1391.726, 25790.00
1392.911, 25510.00
1394.096, 25330.00
1395.280, 25830.00
1396.464, 25120.00
1397.648, 25390.00
1398.832, 25810.00
1400.016, 25480.00
1401.199, 25610.00
1402.383, 25980.00
1403.566, 25380.00
1404.749, 25860.00
1405.931, 25820.00
1407.114, 25490.00
1408.296, 26230.00
1409.478, 25570.00
1410.660, 26000.00
1411.842, 25840.00
1413.024, 25500.00
1414.205, 25950.00
1415.386, 25860.00
1416.567, 25670.00
1417.748, 26260.00
1418.929, 25960.00
1420.109, 25840.00
1421.289, 26390.00
1422.469, 25640.00
1423.649, 26160.00
1424.829, 26230.00
1426.008, 25810.00
1427.188, 26340.00
1428.367, 26150.00
1429.546, 25880.00
1430.725, 26650.00
1431.903, 26260.00
1433.081, 25940.00
1434.260, 26830.00
1435.438, 26400.00
1436.615, 26520.00
1437.793, 27250.00
1438.970, 26470.00
1440.148, 27190.00
1441.325, 27080.00
1442.501, 26900.00
1443.678, 27280.00
1444.855, 27360.00
1446.031, 26760.00
1447.207, 27760.00
1448.383, 27130.00
1449.559, 27530.00
1450.734, 27760.00
1451.910, 27330.00
1453.085, 27640.00
1454.260, 27720.00
1455.434, 27130.00
1456.609, 27870.00
1457.783, 27520.00
1458.958, 27520.00
1460.132, 27840.00
1461.305, 27450.00
1462.479, 27450.00
1463.653, 27800.00
1464.826, 27150.00
1465.999, 27670.00
