##NAMES=Dravite
##RRUFFID=R060280
##IDEAL CHEMISTRY=NaMg_3_Al_6_(Si_6_O_18_)(BO_3_)_3_(OH)_3_OH
##LOCALITY=near Merelani, Tanzania
##OWNER=RRUFF
##SOURCE=Herb Obodda
##DESCRIPTION=Green fragment
##STATUS=The identification of this mineral has been confirmed by X-ray diffraction and chemical analysis
##URL=rruff.info/R060280
##MEASURED CHEMISTRY=(Na_0.45_Ca_0.40_[box]_0.15_)(Mg_0.89_Al_0.07_Ti_0.04_)_3_Al_6_(BO_3_)_3_(Si_0.93_B_0.07_)_6_O_18_((OH)_0.95_O_0.05_)_4_
##PIN_ID=L00930
##ORIENTATION=Laser parallel to c* (0 0 1). Fiducial mark perpendicular to laser is parallel to -b [0 -1 0]
168.4860, 27195.00
169.7110, 27495.00
170.9360, 27721.00
172.1610, 27441.00
173.3850, 27525.00
174.6100, 27312.00
175.8340, 27358.00
177.0580, 27495.00
178.2820, 27389.00
179.5050, 27445.00
180.7290, 27561.00
181.9520, 27705.00
183.1760, 27892.00
184.3990, 28097.00
185.6220, 28436.00
186.8450, 28433.00
188.0670, 28866.00
189.2900, 29038.00
190.5120, 29368.00
191.7340, 29586.00
192.9560, 30048.00
194.1780, 30113.00
195.4000, 30490.00
196.6220, 31013.00
197.8430, 31309.00
199.0640, 31891.00
200.2860, 32551.00
201.5070, 32934.00
202.7270, 33751.00
203.9480, 34205.00
205.1690, 34132.00
206.3890, 34597.00
207.6090, 35437.00
208.8290, 36075.00
210.0490, 36946.00
211.2690, 37861.00
212.4890, 38520.00
213.7080, 39736.00
214.9280, 39634.00
216.1470, 39595.00
217.3660, 38970.00
218.5850, 38783.00
219.8030, 37774.00
221.0220, 36848.00
222.2400, 36360.00
223.4590, 35487.00
224.6770, 34897.00
225.8950, 34425.00
227.1120, 34138.00
228.3300, 34274.00
229.5480, 34082.00
230.7650, 34026.00
231.9820, 34609.00
233.1990, 34719.00
234.4160, 35017.00
235.6330, 35349.00
236.8490, 35547.00
238.0660, 35795.00
239.2820, 36201.00
240.4980, 36364.00
241.7140, 36491.00
242.9300, 36351.00
244.1460, 35849.00
245.3610, 35751.00
246.5770, 35304.00
247.7920, 34574.00
249.0070, 34052.00
250.2220, 33327.00
251.4370, 32923.00
252.6510, 32474.00
253.8660, 32207.00
255.0800, 32140.00
256.2940, 31783.00
257.5080, 32038.00
258.7220, 31824.90
259.9360, 31756.02
261.1490, 31788.00
262.3630, 31673.00
263.5760, 31850.00
264.7890, 31991.00
266.0020, 32136.00
267.2150, 32340.00
268.4270, 32700.00
269.6400, 32960.00
270.8520, 33232.00
272.0640, 33501.00
273.2760, 33500.00
274.4880, 33802.00
275.7000, 33626.00
276.9120, 33363.00
278.1230, 33557.00
279.3340, 33110.00
280.5450, 33015.00
281.7560, 32705.00
282.9670, 32489.00
284.1780, 32315.00
285.3880, 32117.84
286.5980, 31988.73
287.8090, 31845.00
289.0190, 31843.00
290.2290, 31768.00
291.4380, 31892.00
292.6480, 31888.00
293.8570, 32112.00
295.0670, 32315.00
296.2760, 32360.00
297.4850, 32396.00
298.6930, 32397.00
299.9020, 32406.51
301.1110, 32404.83
302.3190, 32365.00
303.5270, 32317.00
304.7350, 32246.00
305.9430, 32054.00
307.1510, 31954.00
308.3580, 31701.00
309.5660, 32009.00
310.7730, 31831.00
311.9800, 32140.00
313.1870, 32198.00
314.3940, 32740.00
315.6010, 32912.00
316.8070, 33088.00
318.0130, 33352.00
319.2200, 33634.00
320.4260, 34019.00
321.6310, 34559.00
322.8370, 34646.00
324.0430, 35274.00
325.2480, 35594.00
326.4540, 36310.00
327.6590, 36862.00
328.8640, 37306.00
330.0680, 37884.00
331.2730, 38791.00
332.4780, 39410.00
333.6820, 39916.00
334.8860, 40562.00
336.0900, 41171.00
337.2940, 41350.00
338.4980, 41747.00
339.7010, 41627.00
340.9050, 41581.00
342.1080, 41481.00
343.3110, 41290.00
344.5140, 40986.66
345.7170, 40790.00
346.9200, 40343.00
348.1220, 40301.00
349.3240, 40260.00
350.5270, 40440.00
351.7290, 40885.00
352.9310, 41239.00
354.1320, 42191.00
355.3340, 42935.00
356.5350, 43915.00
357.7370, 45022.00
358.9380, 46307.00
360.1390, 47789.00
361.3400, 49250.00
362.5400, 51053.00
363.7410, 52564.00
364.9410, 54015.00
366.1410, 55842.00
367.3410, 57120.00
368.5410, 58564.00
369.7410, 59717.00
370.9400, 60164.00
372.1400, 60009.00
373.3390, 59920.00
374.5380, 59387.00
375.7370, 57629.00
376.9360, 56297.00
378.1350, 54800.00
379.3330, 52858.00
380.5310, 51074.00
381.7300, 49307.00
382.9280, 47838.00
384.1260, 46479.00
385.3230, 45467.00
386.5210, 44332.00
387.7180, 43365.00
388.9160, 42603.00
390.1130, 41827.00
391.3100, 41531.00
392.5060, 40906.00
393.7030, 40547.00
394.9000, 40096.00
396.0960, 39717.00
397.2920, 39468.57
398.4880, 39290.00
399.6840, 39015.00
400.8800, 38833.00
402.0750, 38610.00
403.2710, 38376.00
404.4660, 38326.00
405.6610, 38095.00
406.8560, 37957.09
408.0510, 37811.00
409.2450, 37629.00
410.4400, 37453.00
411.6340, 37247.00
412.8280, 37040.00
414.0220, 36613.00
415.2160, 36528.00
416.4100, 36119.00
417.6030, 36161.00
418.7970, 35930.00
419.9900, 35969.00
421.1830, 36348.00
422.3760, 35944.00
423.5690, 36253.00
424.7610, 36353.00
425.9540, 36349.00
427.1460, 36644.00
428.3380, 36916.00
429.5300, 37121.00
430.7220, 37356.00
431.9140, 37450.00
433.1050, 37629.00
434.2970, 38078.00
435.4880, 37826.00
436.6790, 37997.00
437.8700, 38059.00
439.0610, 37871.00
440.2510, 38304.00
441.4420, 37952.00
442.6320, 37970.00
443.8220, 38219.00
445.0120, 37937.00
446.2020, 37969.00
447.3910, 37737.00
448.5810, 37550.00
449.7700, 37720.00
450.9600, 37231.00
452.1490, 37309.00
453.3370, 37173.00
454.5260, 36851.00
455.7150, 36874.00
456.9030, 36728.00
458.0910, 36601.00
459.2800, 36356.00
460.4670, 36062.00
461.6550, 36169.00
462.8430, 36021.00
464.0300, 35976.00
465.2180, 36063.00
466.4050, 35974.00
467.5920, 35865.00
468.7790, 36179.00
469.9650, 36039.00
471.1520, 36269.00
472.3380, 36618.00
473.5250, 36875.00
474.7110, 37160.71
475.8970, 37139.00
477.0820, 37728.00
478.2680, 37799.00
479.4540, 38066.00
480.6390, 38507.00
481.8240, 38249.00
483.0090, 38595.00
484.1940, 38754.00
485.3780, 39010.00
486.5630, 39194.00
487.7470, 39256.00
488.9320, 39248.00
490.1160, 39530.00
491.3000, 39836.00
492.4830, 39751.00
493.6670, 40386.00
494.8500, 40451.00
496.0340, 40906.00
497.2170, 41100.00
498.4000, 41674.00
499.5820, 41914.00
500.7650, 42055.00
501.9480, 42367.00
503.1300, 42367.00
504.3120, 42417.00
505.4940, 42599.00
506.6760, 42398.00
507.8580, 42104.00
509.0390, 41631.00
510.2210, 41237.00
511.4020, 40986.00
512.5830, 40761.00
513.7640, 40491.00
514.9450, 40073.00
516.1250, 39850.00
517.3060, 39838.00
518.4860, 39682.00
519.6660, 39935.00
520.8460, 40152.00
522.0260, 40358.00
523.2060, 40895.00
524.3850, 41250.00
525.5650, 42071.00
526.7440, 42422.00
527.9230, 43127.00
529.1020, 43967.00
530.2810, 44478.00
531.4590, 45325.00
532.6380, 45581.00
533.8160, 45981.00
534.9940, 46146.00
536.1720, 46402.00
537.3500, 46381.00
538.5270, 46446.00
539.7050, 45747.00
540.8820, 45775.00
542.0590, 45255.00
543.2360, 44619.00
544.4130, 44510.00
545.5900, 44133.00
546.7660, 43395.00
547.9430, 43242.00
549.1190, 42573.00
550.2950, 42357.00
551.4710, 42225.00
552.6470, 41924.00
553.8220, 41605.00
554.9980, 41312.00
556.1730, 41291.00
557.3480, 41168.00
558.5230, 40910.00
559.6980, 40611.00
560.8730, 40623.00
562.0470, 40671.00
563.2220, 40393.00
564.3960, 40451.00
565.5700, 40150.00
566.7440, 40162.00
567.9170, 39881.00
569.0910, 39720.00
570.2640, 39418.00
571.4380, 39347.00
572.6110, 39201.00
573.7840, 38733.00
574.9570, 38319.00
576.1290, 38278.00
577.3020, 37572.00
578.4740, 37492.00
579.6460, 37270.00
580.8180, 36959.00
581.9900, 36741.00
583.1620, 36388.00
584.3330, 36242.00
585.5040, 36171.00
586.6760, 35561.00
587.8470, 35765.00
589.0180, 35623.00
590.1880, 35552.00
591.3590, 35897.00
592.5290, 35625.00
593.7000, 35571.00
594.8700, 35542.00
596.0400, 35501.00
597.2090, 35555.00
598.3790, 35512.00
599.5490, 35586.00
600.7180, 35594.00
601.8870, 35708.00
603.0560, 35587.00
604.2250, 35517.00
605.3940, 35813.00
606.5620, 35926.00
607.7300, 35526.00
608.8990, 35788.00
610.0670, 35673.00
611.2350, 35851.00
612.4020, 35646.00
613.5700, 35851.00
614.7370, 35705.00
615.9050, 35857.00
617.0720, 35965.64
618.2390, 36347.00
619.4060, 36166.00
620.5720, 36293.00
621.7390, 36247.00
622.9050, 36595.00
624.0710, 36974.00
625.2370, 37364.00
626.4030, 37266.00
627.5690, 37215.00
628.7340, 37463.00
629.9000, 37556.00
631.0650, 37206.00
632.2300, 37154.00
633.3950, 37199.00
634.5600, 36510.00
635.7240, 36252.00
636.8890, 36123.00
638.0530, 35865.00
639.2170, 35525.00
640.3810, 35342.00
641.5450, 35230.83
642.7080, 35025.00
643.8720, 35154.00
645.0350, 35194.00
646.1980, 35219.00
647.3610, 35182.00
648.5240, 35417.00
649.6870, 35532.32
650.8490, 35941.00
652.0120, 36014.00
653.1740, 36285.00
654.3360, 36643.00
655.4980, 36829.00
656.6600, 37136.84
657.8210, 37287.00
658.9830, 37594.00
660.1440, 37758.00
661.3050, 37814.00
662.4660, 37803.00
663.6270, 37889.50
664.7870, 37894.00
665.9480, 37871.00
667.1080, 37872.00
668.2680, 37694.00
669.4280, 37716.00
670.5880, 37490.00
671.7480, 37290.00
672.9070, 37301.00
674.0670, 37090.00
675.2260, 37083.00
676.3850, 36893.00
677.5440, 36663.00
678.7030, 36435.00
679.8610, 36488.00
681.0200, 36398.00
682.1780, 36351.00
683.3360, 36257.00
684.4940, 36369.00
685.6520, 36259.00
686.8090, 36344.00
687.9670, 36722.00
689.1240, 36276.00
690.2810, 36677.00
691.4380, 37116.00
692.5950, 37128.00
693.7520, 37316.00
694.9080, 37727.00
696.0650, 37991.00
697.2210, 38276.00
698.3770, 38772.00
699.5330, 39268.00
700.6880, 39649.00
701.8440, 40126.00
702.9990, 40582.00
704.1550, 41259.00
705.3100, 41987.00
706.4650, 42536.00
707.6190, 42971.00
708.7740, 44069.00
709.9290, 44746.00
711.0830, 45743.00
712.2370, 46810.00
713.3910, 47943.00
714.5450, 49214.00
715.6980, 50485.02
716.8520, 51716.00
718.0050, 53376.00
719.1580, 55047.00
720.3110, 56878.00
721.4640, 58845.00
722.6170, 60455.00
723.7700, 61346.00
724.9220, 62122.00
726.0740, 62427.86
727.2260, 62152.42
728.3780, 61732.00
729.5300, 60546.00
730.6810, 58828.00
731.8330, 57151.00
732.9840, 55867.00
734.1350, 53905.00
735.2860, 52491.00
736.4370, 51068.00
737.5880, 49648.00
738.7380, 48772.00
739.8880, 48316.00
741.0390, 47775.00
742.1890, 47131.00
743.3380, 47170.00
744.4880, 47106.00
745.6380, 47015.00
746.7870, 47295.00
747.9360, 47770.00
749.0850, 48210.00
750.2340, 48701.00
751.3830, 49294.95
752.5310, 49883.00
753.6800, 50514.00
754.8280, 51018.00
755.9760, 51570.00
757.1240, 52080.00
758.2720, 52439.10
759.4190, 52746.06
760.5670, 52991.00
761.7140, 53002.00
762.8610, 52997.00
764.0080, 52749.21
765.1550, 52118.00
766.3020, 52032.00
767.4480, 51565.00
768.5950, 50952.00
769.7410, 51038.00
770.8870, 50530.00
772.0330, 50159.00
773.1780, 50169.00
774.3240, 49889.00
775.4690, 49811.00
776.6140, 49670.00
777.7590, 49490.00
778.9040, 49177.00
780.0490, 49420.00
781.1940, 49299.00
782.3380, 49750.00
783.4820, 49593.00
784.6260, 49770.00
785.7700, 49894.00
786.9140, 50121.00
788.0580, 50509.00
789.2010, 50632.28
790.3450, 50653.00
791.4880, 51171.00
792.6310, 51009.00
793.7730, 51527.00
794.9160, 50285.00
796.0590, 50078.00
797.2010, 49296.00
798.3430, 49046.00
799.4850, 48488.00
800.6270, 48496.00
801.7690, 48453.00
802.9100, 48426.00
804.0520, 48705.00
805.1930, 49060.00
806.3340, 49532.00
807.4750, 50592.00
808.6160, 51608.00
809.7560, 52515.00
810.8970, 53417.00
812.0370, 54639.00
813.1770, 55941.00
814.3170, 56644.00
815.4570, 57489.00
816.5960, 58049.00
817.7360, 58787.00
818.8750, 58766.00
820.0140, 58514.00
821.1530, 58027.00
822.2920, 57501.00
823.4310, 56644.39
824.5690, 55306.00
825.7070, 54457.00
826.8460, 53171.00
827.9840, 51635.00
829.1220, 50382.00
830.2590, 49243.00
831.3970, 47993.00
832.5340, 46875.00
833.6710, 45594.00
834.8080, 44594.00
835.9450, 43665.00
837.0820, 42642.34
838.2190, 41791.98
839.3550, 40863.00
840.4910, 40130.00
841.6270, 39323.00
842.7630, 38583.00
843.8990, 37558.00
845.0350, 37198.00
846.1700, 36673.00
847.3060, 35835.00
848.4410, 35642.00
849.5760, 34996.00
850.7100, 34785.00
851.8450, 34319.00
852.9800, 34271.00
854.1140, 33759.00
855.2480, 33657.04
856.3820, 33541.00
857.5160, 33394.00
858.6500, 33221.00
859.7830, 33128.00
860.9170, 33232.00
862.0500, 33013.00
863.1830, 32799.00
864.3160, 32958.00
865.4480, 32760.00
866.5810, 32679.00
867.7130, 32353.00
868.8460, 32530.00
869.9780, 32290.00
871.1100, 32438.00
872.2410, 32376.00
873.3730, 32279.00
874.5050, 32441.00
875.6360, 32342.00
876.7670, 32204.00
877.8980, 32221.00
879.0290, 32191.00
880.1590, 32437.00
881.2900, 32186.00
882.4200, 32241.00
883.5500, 32449.00
884.6800, 32328.00
885.8100, 32326.00
886.9400, 32404.00
888.0690, 32375.00
889.1990, 32591.00
890.3280, 32614.00
891.4570, 32826.00
892.5860, 32729.00
893.7140, 32894.00
894.8430, 32848.00
895.9710, 33011.00
897.1000, 33028.00
898.2280, 33040.00
899.3560, 33111.00
900.4830, 32989.00
901.6110, 33141.00
902.7380, 33317.00
903.8660, 33232.00
904.9930, 33516.00
906.1200, 33324.00
907.2460, 33424.00
908.3730, 33606.00
909.5000, 33494.00
910.6260, 33736.00
911.7520, 33861.00
912.8780, 34067.00
914.0040, 34041.72
915.1290, 34206.00
916.2550, 34065.00
917.3800, 34138.61
918.5050, 34073.00
919.6300, 34185.00
920.7550, 34108.00
921.8800, 34170.00
923.0040, 34141.00
924.1290, 33955.00
925.2530, 34123.00
926.3770, 34070.00
927.5010, 34104.00
928.6250, 34189.00
929.7480, 34267.00
930.8720, 34512.00
931.9950, 34306.00
933.1180, 34468.00
934.2410, 34352.00
935.3640, 34578.00
936.4860, 34515.00
937.6090, 34387.00
938.7310, 34521.00
939.8530, 34638.00
940.9750, 34521.00
942.0970, 34820.00
943.2180, 34772.00
944.3400, 34797.00
945.4610, 34904.00
946.5820, 34907.46
947.7030, 35022.44
948.8240, 35007.00
949.9450, 35210.00
951.0650, 35248.00
952.1860, 35288.00
953.3060, 35546.00
954.4260, 35349.00
955.5460, 35849.00
956.6650, 35552.00
957.7850, 35973.11
958.9040, 36079.29
960.0230, 36525.00
961.1420, 36340.00
962.2610, 36260.00
963.3800, 36255.00
964.4990, 36325.00
965.6170, 36478.00
966.7350, 36613.00
967.8530, 36815.00
968.9710, 36777.00
970.0890, 36706.00
971.2070, 36799.00
972.3240, 37148.00
973.4410, 37024.00
974.5580, 36994.00
975.6750, 37082.00
976.7920, 37001.00
977.9090, 37156.00
979.0250, 37361.00
980.1410, 37376.00
981.2580, 37402.00
982.3740, 37281.00
983.4890, 37333.00
984.6050, 37128.00
985.7200, 37148.00
986.8360, 37055.88
987.9510, 36899.00
989.0660, 36890.00
990.1810, 36959.00
991.2950, 36877.00
992.4100, 36593.00
993.5240, 37125.00
994.6390, 36704.00
995.7530, 36518.00
996.8660, 36793.00
997.9800, 36791.00
999.0940, 36994.00
1000.207, 36978.00
1001.320, 37228.00
1002.433, 36983.00
1003.546, 37515.00
1004.659, 37344.00
1005.772, 37284.00
1006.884, 37139.00
1007.996, 37075.00
1009.108, 37161.00
1010.220, 37266.00
1011.332, 37654.00
1012.444, 37752.00
1013.555, 37860.00
1014.666, 38422.00
1015.777, 38522.00
1016.888, 38883.00
1017.999, 39319.00
1019.110, 39405.00
1020.220, 40009.00
1021.331, 40108.00
1022.441, 40540.00
1023.551, 41121.00
1024.661, 41230.00
1025.770, 41333.00
1026.880, 41702.00
1027.989, 42251.00
1029.098, 42409.00
1030.207, 42377.00
1031.316, 43231.00
1032.425, 43309.00
1033.533, 44149.00
1034.642, 44311.00
1035.750, 44250.00
1036.858, 44563.00
1037.966, 45113.00
1039.073, 45511.00
1040.181, 45935.84
1041.288, 46365.00
1042.396, 46800.00
1043.503, 47286.00
1044.610, 47724.00
1045.716, 48062.54
1046.823, 48432.00
1047.929, 48663.00
1049.036, 48979.00
1050.142, 49198.00
1051.248, 49383.32
1052.353, 49698.00
1053.459, 49707.00
1054.564, 49958.00
1055.670, 50130.00
1056.775, 50377.09
1057.880, 50519.00
1058.985, 50947.00
1060.089, 51211.00
1061.194, 51437.00
1062.298, 52064.00
1063.402, 52602.00
1064.506, 53382.00
1065.610, 53587.00
1066.713, 54130.00
1067.817, 54242.00
1068.920, 54333.00
1070.023, 54344.00
1071.126, 54225.20
1072.229, 54051.44
1073.332, 53751.00
1074.435, 53372.00
1075.537, 52882.00
1076.639, 52233.00
1077.741, 51690.00
1078.843, 51010.36
1079.945, 50157.00
1081.046, 49535.00
1082.148, 48692.00
1083.249, 47769.00
1084.350, 47389.00
1085.451, 46453.00
1086.551, 45710.00
1087.652, 44988.00
1088.752, 44348.00
1089.853, 43786.00
1090.953, 43241.00
1092.053, 42392.00
1093.152, 42019.00
1094.252, 41546.00
1095.351, 40767.00
1096.451, 40704.00
1097.550, 40186.79
1098.649, 39741.00
1099.748, 39536.00
1100.846, 39177.00
1101.945, 38830.00
1103.043, 38613.00
1104.141, 38069.00
1105.239, 38102.00
1106.337, 38094.00
1107.434, 37719.00
1108.532, 37686.00
1109.629, 37472.00
1110.726, 37456.00
1111.823, 37282.00
1112.920, 37246.00
1114.017, 37391.00
1115.113, 37093.00
1116.210, 37108.56
1117.306, 36745.00
1118.402, 36848.00
1119.498, 36626.00
1120.593, 36375.00
1121.689, 36199.00
1122.784, 36000.00
1123.879, 35748.00
1124.974, 35622.00
1126.069, 35389.59
1127.164, 35031.00
1128.259, 34941.00
1129.353, 34696.00
1130.447, 34368.00
1131.541, 34241.00
1132.635, 33997.00
1133.729, 33854.00
1134.822, 33761.10
1135.916, 33550.00
1137.009, 33566.00
1138.102, 33532.00
1139.195, 33343.00
1140.288, 33199.00
1141.380, 33091.00
1142.473, 33004.70
1143.565, 33204.00
1144.657, 32925.00
1145.749, 32928.00
1146.841, 32939.00
1147.932, 32591.00
1149.024, 32831.00
1150.115, 32736.00
1151.206, 32640.00
1152.297, 32621.00
1153.388, 32563.00
1154.479, 32538.71
1155.569, 32580.00
1156.659, 32501.00
1157.750, 32552.57
1158.839, 32517.19
1159.929, 32575.00
1161.019, 32521.00
1162.108, 32530.00
1163.198, 32466.00
1164.287, 32566.00
1165.376, 32474.00
1166.465, 32348.00
1167.553, 32505.00
1168.642, 32555.00
1169.730, 32601.00
1170.818, 32645.00
1171.906, 32638.86
1172.994, 32645.21
1174.082, 32615.00
1175.170, 32596.00
1176.257, 32596.00
1177.344, 32543.00
1178.431, 32637.00
1179.518, 32436.00
1180.605, 32446.00
1181.691, 32470.00
1182.778, 32736.00
1183.864, 32352.00
1184.950, 32675.00
1186.036, 32530.00
1187.122, 32630.00
1188.207, 32460.00
1189.292, 32346.00
1190.378, 32399.00
1191.463, 32537.00
1192.548, 32548.00
1193.632, 32451.00
1194.717, 32404.00
1195.801, 32448.00
1196.886, 32443.00
1197.970, 32516.00
1199.054, 32472.00
1200.137, 32434.00
1201.221, 32422.00
1202.305, 32566.00
1203.388, 32465.00
1204.471, 32534.00
1205.554, 32378.00
1206.637, 32546.00
1207.719, 32681.00
1208.802, 32633.00
1209.884, 32596.00
1210.966, 32776.00
1212.048, 32717.00
1213.130, 32742.00
1214.212, 32463.00
1215.293, 32895.00
1216.374, 32970.00
1217.456, 32848.00
1218.536, 33228.00
1219.617, 33154.00
1220.698, 32981.00
1221.778, 33085.00
1222.859, 33185.00
1223.939, 33402.00
1225.019, 33161.00
1226.099, 33330.00
1227.178, 33576.00
1228.258, 33376.00
1229.337, 33464.00
1230.417, 33521.00
1231.496, 33782.00
1232.574, 33834.00
1233.653, 33726.00
1234.732, 33796.00
1235.810, 33994.00
1236.888, 33821.00
1237.966, 34109.00
1239.044, 34093.00
1240.122, 34217.00
1241.199, 34061.00
1242.277, 33952.00
1243.354, 34120.00
1244.431, 34206.00
1245.508, 34165.63
1246.585, 34099.00
1247.661, 34158.00
1248.738, 34187.00
1249.814, 34190.00
1250.890, 34231.44
1251.966, 34343.00
1253.042, 34210.00
1254.117, 34173.00
1255.193, 34011.00
1256.268, 34118.00
1257.343, 34320.00
1258.418, 34138.00
1259.493, 34132.00
1260.567, 34081.00
1261.642, 34079.89
1262.716, 34108.00
1263.790, 34233.00
1264.864, 34328.00
1265.938, 34559.00
1267.011, 34471.00
1268.085, 34666.00
1269.158, 34243.00
1270.231, 34559.00
1271.304, 34332.00
1272.377, 34594.00
1273.450, 34605.00
1274.522, 34533.49
1275.594, 34453.00
1276.666, 34428.00
1277.738, 34467.00
1278.810, 34382.00
1279.882, 34549.00
1280.953, 34255.00
1282.025, 34288.00
1283.096, 34470.00
1284.167, 34185.00
1285.238, 34391.00
1286.308, 34304.00
1287.379, 34252.00
1288.449, 34370.00
1289.519, 34305.83
1290.589, 34124.00
1291.659, 34346.00
1292.729, 34224.00
1293.798, 34281.00
1294.868, 34240.00
1295.937, 34304.00
1297.006, 34193.00
1298.075, 34241.00
1299.143, 34032.00
1300.212, 34035.00
1301.280, 34202.00
1302.348, 34044.00
1303.416, 34068.00
1304.484, 33922.00
1305.552, 33948.11
1306.620, 34023.00
1307.687, 34024.00
1308.754, 33989.00
1309.821, 34081.00
1310.888, 34018.00
1311.955, 34228.00
1313.021, 33897.00
1314.088, 34233.00
1315.154, 34035.00
1316.220, 34014.00
1317.286, 34421.00
1318.352, 33962.00
1319.417, 34056.00
1320.483, 34185.00
1321.548, 34092.00
1322.613, 34177.00
1323.678, 33898.00
1324.743, 34166.00
1325.807, 33935.00
1326.872, 33836.00
1327.936, 34075.00
1329.000, 33972.00
1330.064, 33797.00
1331.128, 33696.00
1332.191, 33548.00
1333.255, 33700.00
1334.318, 33534.00
1335.381, 33633.00
1336.444, 33661.00
