##NAMES=Dravite
##RRUFFID=R060534
##IDEAL CHEMISTRY=NaMg_3_Al_6_(Si_6_O_18_)(BO_3_)_3_(OH)_3_OH
##LOCALITY=Sri Lanka
##OWNER=RRUFF
##SOURCE=Gemological Institute of America
##DESCRIPTION=Black trigonal prism
##STATUS=The identification of this mineral has been confirmed by X-ray diffraction and chemical analysis
##URL=rruff.info/R060534
##MEASURED CHEMISTRY=(Na_0.79_Ca_0.21_)(Mg_0.68_Fe^2+^_0.29_Ti_0.02_Al_0.01_)_3_Al_6.00_(BO_3_)_3_(Si_0.95_Al_005_)_6.00_O_18_(OH)_4_
##PIN_ID=L01032
##ORIENTATION=Laser parallel to c* (0 0 1). Fiducial mark perpendicular to laser is parallel to a [1 0 0]
297.4850, 25932.00
298.6930, 25724.00
299.9020, 25797.50
301.1110, 25674.19
302.3190, 25819.00
303.5270, 25505.00
304.7350, 25630.00
305.9430, 25737.00
307.1510, 25740.00
308.3580, 25901.00
309.5660, 25875.00
310.7730, 25853.00
311.9800, 26077.00
313.1870, 25988.00
314.3940, 26315.00
315.6010, 26196.00
316.8070, 26410.00
318.0130, 26451.00
319.2200, 26908.00
320.4260, 26928.00
321.6310, 27073.00
322.8370, 27536.00
324.0430, 27583.00
325.2480, 27791.00
326.4540, 28147.00
327.6590, 28243.00
328.8640, 28687.00
330.0680, 28696.00
331.2730, 28803.00
332.4780, 29439.00
333.6820, 29354.00
334.8860, 29248.00
336.0900, 29167.00
337.2940, 29361.00
338.4980, 29412.00
339.7010, 29484.00
340.9050, 29381.00
342.1080, 29442.00
343.3110, 29507.00
344.5140, 29518.57
345.7170, 29591.30
346.9200, 29656.00
348.1220, 29697.00
349.3240, 29795.00
350.5270, 29841.00
351.7290, 29883.66
352.9310, 30036.00
354.1320, 30030.00
355.3340, 30091.00
356.5350, 30328.00
357.7370, 30636.00
358.9380, 30854.00
360.1390, 31088.00
361.3400, 31657.00
362.5400, 32081.00
363.7410, 32414.00
364.9410, 32901.00
366.1410, 33035.00
367.3410, 33253.00
368.5410, 33592.00
369.7410, 33524.00
370.9400, 33340.00
372.1400, 33607.00
373.3390, 33294.00
374.5380, 32789.00
375.7370, 32751.00
376.9360, 32490.00
378.1350, 32234.13
379.3330, 31964.00
380.5310, 31814.00
381.7300, 31629.00
382.9280, 31422.00
384.1260, 30835.00
385.3230, 30837.00
386.5210, 31232.00
387.7180, 30300.00
388.9160, 30502.00
390.1130, 30056.00
391.3100, 29837.00
392.5060, 29514.00
393.7030, 29605.00
394.9000, 29329.00
396.0960, 29378.00
397.2920, 29079.00
398.4880, 29029.00
399.6840, 28814.00
400.8800, 28533.00
402.0750, 28843.00
403.2710, 28527.00
404.4660, 28484.00
405.6610, 28435.00
406.8560, 28197.00
408.0510, 28027.00
409.2450, 27961.00
410.4400, 28031.00
411.6340, 27841.00
412.8280, 27975.00
414.0220, 27825.00
415.2160, 27809.00
416.4100, 27547.00
417.6030, 27360.00
418.7970, 27135.00
419.9900, 27061.00
421.1830, 27128.00
422.3760, 27075.00
423.5690, 26888.00
424.7610, 26769.00
425.9540, 26856.00
427.1460, 26744.00
428.3380, 26922.00
429.5300, 26461.00
430.7220, 26548.00
431.9140, 26485.00
433.1050, 26528.00
434.2970, 26490.00
435.4880, 26207.00
436.6790, 26458.00
437.8700, 26307.00
439.0610, 26326.00
440.2510, 26385.00
441.4420, 26146.00
442.6320, 26448.00
443.8220, 26370.00
445.0120, 26258.00
446.2020, 26353.00
447.3910, 26302.75
448.5810, 26316.00
449.7700, 26378.00
450.9600, 26378.00
452.1490, 26477.00
453.3370, 26494.00
454.5260, 26623.00
455.7150, 26487.00
456.9030, 26480.00
458.0910, 26454.00
459.2800, 26518.00
460.4670, 26389.00
461.6550, 26479.00
462.8430, 26551.00
464.0300, 26475.00
465.2180, 26815.00
466.4050, 26764.00
467.5920, 26628.00
468.7790, 26835.00
469.9650, 26901.00
471.1520, 27182.00
472.3380, 27173.00
473.5250, 27238.00
474.7110, 27257.00
475.8970, 27444.00
477.0820, 27397.00
478.2680, 27601.00
479.4540, 27738.00
480.6390, 27678.00
481.8240, 27917.00
483.0090, 28161.00
484.1940, 27809.00
485.3780, 28059.00
486.5630, 27943.00
487.7470, 28191.00
488.9320, 28469.00
490.1160, 28115.00
491.3000, 28295.00
492.4830, 28223.00
493.6670, 28528.00
494.8500, 28223.00
496.0340, 28374.00
497.2170, 28219.00
498.4000, 28342.00
499.5820, 28368.00
500.7650, 28194.00
501.9480, 28288.00
503.1300, 28295.00
504.3120, 27983.00
505.4940, 28080.00
506.6760, 28063.00
507.8580, 28090.00
509.0390, 27933.00
510.2210, 27854.00
511.4020, 27663.00
512.5830, 27671.00
513.7640, 27734.00
514.9450, 27717.00
516.1250, 27794.00
517.3060, 27913.00
518.4860, 28006.00
519.6660, 28051.59
520.8460, 27979.00
522.0260, 28111.00
523.2060, 28203.00
524.3850, 28190.00
525.5650, 28364.89
526.7440, 28474.00
527.9230, 28649.00
529.1020, 28617.00
530.2810, 28783.00
531.4590, 28930.00
532.6380, 28758.00
533.8160, 29110.00
534.9940, 29244.00
536.1720, 29121.00
537.3500, 29110.00
538.5270, 29197.00
539.7050, 29069.00
540.8820, 29075.00
542.0590, 29088.00
543.2360, 29104.21
544.4130, 29188.83
545.5900, 29311.00
546.7660, 29437.00
547.9430, 29415.52
549.1190, 29324.63
550.2950, 29289.00
551.4710, 29015.00
552.6470, 28770.00
553.8220, 28681.00
554.9980, 28823.00
556.1730, 28681.00
557.3480, 28708.00
558.5230, 28611.00
559.6980, 28387.00
560.8730, 28127.00
562.0470, 28171.00
563.2220, 28339.00
564.3960, 28095.00
565.5700, 28042.00
566.7440, 28137.00
567.9170, 27702.00
569.0910, 27728.00
570.2640, 27616.00
571.4380, 27925.00
572.6110, 27848.00
573.7840, 27877.00
574.9570, 27811.00
576.1290, 27534.00
577.3020, 27552.00
578.4740, 27566.00
579.6460, 27517.00
580.8180, 27177.00
581.9900, 27212.00
583.1620, 27202.00
584.3330, 27290.00
585.5040, 27176.00
586.6760, 27070.00
587.8470, 27060.00
589.0180, 26919.51
590.1880, 27033.00
591.3590, 26772.00
592.5290, 26676.00
593.7000, 26744.00
594.8700, 26783.00
596.0400, 26775.00
597.2090, 26725.00
598.3790, 26719.86
599.5490, 26619.00
600.7180, 26616.00
601.8870, 26559.00
603.0560, 26437.00
604.2250, 26275.00
605.3940, 26501.00
606.5620, 26289.00
607.7300, 26371.00
608.8990, 26372.00
610.0670, 26344.00
611.2350, 26227.00
612.4020, 26264.00
613.5700, 26366.00
614.7370, 26403.00
615.9050, 26209.00
617.0720, 26301.39
618.2390, 26182.00
619.4060, 26278.00
620.5720, 26077.00
621.7390, 26032.00
622.9050, 25959.00
624.0710, 26073.00
625.2370, 26155.00
626.4030, 25875.00
627.5690, 25997.00
628.7340, 25628.00
629.9000, 25651.00
631.0650, 25509.00
632.2300, 25340.00
633.3950, 25070.00
634.5600, 25206.00
635.7240, 25331.00
636.8890, 25122.99
638.0530, 25198.00
639.2170, 24923.00
640.3810, 25018.00
641.5450, 25023.00
642.7080, 25042.00
643.8720, 25047.97
645.0350, 25070.65
646.1980, 24994.00
647.3610, 25099.00
648.5240, 25047.00
649.6870, 25017.00
650.8490, 25321.00
652.0120, 25361.00
653.1740, 25516.00
654.3360, 26238.00
655.4980, 26503.00
656.6600, 26527.00
657.8210, 26177.00
658.9830, 26402.00
660.1440, 26306.00
661.3050, 26411.00
662.4660, 26362.00
663.6270, 26567.00
664.7870, 26440.00
665.9480, 26456.00
667.1080, 26247.00
668.2680, 26306.00
669.4280, 26090.00
670.5880, 25733.00
671.7480, 25640.00
672.9070, 25521.02
674.0670, 25478.00
675.2260, 25349.00
676.3850, 25405.00
677.5440, 25122.00
678.7030, 25313.00
679.8610, 25226.00
681.0200, 25493.00
682.1780, 25413.00
683.3360, 25453.85
684.4940, 25544.00
685.6520, 25492.00
686.8090, 25542.00
687.9670, 25639.00
689.1240, 25783.00
690.2810, 26006.00
691.4380, 26033.00
692.5950, 26116.00
693.7520, 26680.00
694.9080, 26645.00
696.0650, 26875.00
697.2210, 27173.00
698.3770, 27087.00
699.5330, 27321.00
700.6880, 27732.00
701.8440, 27792.00
702.9990, 28119.00
704.1550, 28653.00
705.3100, 28792.00
706.4650, 29336.00
707.6190, 29637.00
708.7740, 29929.00
709.9290, 30439.00
711.0830, 30601.00
712.2370, 31213.00
713.3910, 31277.00
714.5450, 31832.00
715.6980, 32393.00
716.8520, 32688.00
718.0050, 32971.00
719.1580, 33401.00
720.3110, 33538.00
721.4640, 33853.00
722.6170, 33838.00
723.7700, 33891.00
724.9220, 33697.00
726.0740, 33968.00
727.2260, 33860.00
728.3780, 33991.79
729.5300, 34161.00
730.6810, 34329.00
731.8330, 34819.00
732.9840, 35188.00
734.1350, 35530.00
735.2860, 35912.00
736.4370, 36787.00
737.5880, 36809.00
738.7380, 37566.00
739.8880, 38171.00
741.0390, 38437.00
742.1890, 38865.00
743.3380, 39371.00
744.4880, 39669.00
745.6380, 39923.00
746.7870, 40384.00
747.9360, 40287.00
749.0850, 40248.00
750.2340, 40424.00
751.3830, 40417.00
752.5310, 40459.00
753.6800, 40792.00
754.8280, 40703.00
755.9760, 41234.00
757.1240, 41251.00
758.2720, 41603.00
759.4190, 41631.00
760.5670, 42157.00
761.7140, 42502.00
762.8610, 42461.36
764.0080, 42556.00
765.1550, 42463.00
766.3020, 42339.00
767.4480, 42391.00
768.5950, 42221.79
769.7410, 42002.00
770.8870, 42090.00
772.0330, 42345.00
773.1780, 42543.00
774.3240, 42772.00
775.4690, 43355.00
776.6140, 43366.00
777.7590, 43341.00
778.9040, 43504.00
780.0490, 42737.00
781.1940, 41976.00
782.3380, 41485.00
783.4820, 40348.00
784.6260, 39460.00
785.7700, 37812.00
786.9140, 36836.00
788.0580, 35464.00
789.2010, 34369.00
790.3450, 33103.00
791.4880, 31876.00
792.6310, 30766.00
793.7730, 29628.00
794.9160, 28877.00
796.0590, 28058.00
797.2010, 27534.00
798.3430, 27046.00
799.4850, 26879.00
800.6270, 26627.00
801.7690, 26452.00
802.9100, 26358.00
804.0520, 26101.00
805.1930, 25951.00
806.3340, 25593.00
807.4750, 25621.00
808.6160, 25438.00
809.7560, 25200.00
810.8970, 25110.00
812.0370, 24857.00
813.1770, 24805.00
814.3170, 24223.74
815.4570, 24186.20
816.5960, 24063.07
817.7360, 23858.56
818.8750, 23329.97
820.0140, 23220.14
821.1530, 22942.48
822.2920, 22761.00
823.4310, 22684.00
824.5690, 22889.00
825.7070, 22846.00
826.8460, 22412.00
827.9840, 22703.00
829.1220, 22715.00
830.2590, 22380.00
831.3970, 22552.00
832.5340, 22414.00
833.6710, 22319.00
834.8080, 22185.00
835.9450, 22174.87
837.0820, 22360.00
838.2190, 22186.00
839.3550, 22339.00
840.4910, 22379.00
841.6270, 22155.00
842.7630, 22316.00
843.8990, 22143.62
845.0350, 22114.89
846.1700, 21964.00
847.3060, 22024.00
848.4410, 22041.00
849.5760, 22011.00
850.7100, 22026.00
851.8450, 21997.00
852.9800, 22014.00
854.1140, 22053.00
855.2480, 22063.00
856.3820, 22061.00
857.5160, 21985.00
858.6500, 22049.00
859.7830, 22218.00
860.9170, 21970.00
862.0500, 22027.00
863.1830, 22247.00
864.3160, 22230.00
865.4480, 22238.00
866.5810, 22242.00
867.7130, 22198.04
868.8460, 22170.00
869.9780, 22125.50
871.1100, 22131.35
872.2410, 22131.00
873.3730, 22215.00
874.5050, 22205.00
875.6360, 22298.00
876.7670, 22478.00
877.8980, 22366.00
879.0290, 22480.00
880.1590, 22252.00
881.2900, 22417.00
882.4200, 22632.00
883.5500, 22484.00
884.6800, 22375.00
885.8100, 22365.00
886.9400, 22523.00
888.0690, 22534.00
889.1990, 22600.46
890.3280, 22786.00
891.4570, 22710.00
892.5860, 22809.00
893.7140, 22860.00
894.8430, 22899.00
895.9710, 22859.00
897.1000, 22964.00
898.2280, 22942.00
899.3560, 23119.00
900.4830, 23137.00
901.6110, 23125.06
902.7380, 23239.21
903.8660, 23094.00
904.9930, 23322.00
906.1200, 23383.00
907.2460, 23335.00
908.3730, 23453.00
909.5000, 23286.00
910.6260, 23580.00
911.7520, 23441.00
912.8780, 23534.00
914.0040, 23425.00
915.1290, 23689.00
916.2550, 23867.00
917.3800, 24077.00
918.5050, 23903.00
919.6300, 23819.00
920.7550, 23960.00
921.8800, 23865.00
923.0040, 23804.00
924.1290, 24033.00
925.2530, 24034.00
926.3770, 24184.00
927.5010, 24070.00
928.6250, 24299.00
929.7480, 24237.00
930.8720, 24472.00
931.9950, 24460.00
933.1180, 24546.00
934.2410, 24524.00
935.3640, 24662.98
936.4860, 24853.00
937.6090, 24927.00
938.7310, 24927.00
939.8530, 25020.00
940.9750, 24918.00
942.0970, 25363.00
943.2180, 25194.00
944.3400, 25286.00
945.4610, 25573.00
946.5820, 25584.00
947.7030, 25759.00
948.8240, 25831.00
949.9450, 25575.00
951.0650, 25700.00
952.1860, 25832.00
953.3060, 25958.00
954.4260, 26039.00
955.5460, 26217.54
956.6650, 25871.00
957.7850, 26401.00
958.9040, 26256.00
960.0230, 26001.00
961.1420, 26207.00
962.2610, 26404.00
963.3800, 26417.00
964.4990, 26226.00
965.6170, 26297.00
966.7350, 26172.00
967.8530, 26147.00
968.9710, 26245.00
970.0890, 26250.00
971.2070, 26413.00
972.3240, 26524.00
973.4410, 26578.00
974.5580, 26566.00
975.6750, 26622.00
976.7920, 26453.00
977.9090, 26655.00
979.0250, 26678.00
980.1410, 26632.00
981.2580, 26780.00
982.3740, 26944.00
983.4890, 26854.00
984.6050, 26838.00
985.7200, 26805.00
986.8360, 26836.71
987.9510, 26689.04
989.0660, 26897.34
990.1810, 27019.85
991.2950, 27061.17
992.4100, 26778.21
993.5240, 26914.00
994.6390, 26881.98
995.7530, 26843.06
996.8660, 27037.78
997.9800, 26801.97
999.0940, 26993.00
1000.207, 27013.62
1001.320, 27112.24
1002.433, 27041.99
1003.546, 27029.00
1004.659, 26990.98
1005.772, 27187.60
1006.884, 27298.44
1007.996, 27328.11
1009.108, 27033.47
1010.220, 27157.60
1011.332, 27113.91
1012.444, 27063.34
1013.555, 27246.41
1014.666, 26998.94
1015.777, 27178.30
1016.888, 27187.28
1017.999, 27274.24
1019.110, 27192.34
1020.220, 27162.60
1021.331, 27301.77
1022.441, 27347.41
1023.551, 27243.84
1024.661, 27283.00
1025.770, 27408.00
1026.880, 27642.00
1027.989, 27878.00
1029.098, 27621.00
1030.207, 27764.00
1031.316, 27565.00
1032.425, 27500.00
1033.533, 28052.00
1034.642, 28043.00
1035.750, 28207.00
1036.858, 28443.00
1037.966, 28221.00
1039.073, 28657.00
1040.181, 28752.00
1041.288, 28907.00
1042.396, 28869.00
1043.503, 28995.00
1044.610, 29034.00
1045.716, 29048.00
1046.823, 29116.00
1047.929, 29213.00
1049.036, 29187.00
1050.142, 29489.00
1051.248, 29278.00
1052.353, 29544.00
1053.459, 29495.00
1054.564, 29805.00
1055.670, 29711.00
1056.775, 29528.00
1057.880, 29708.00
1058.985, 29628.00
1060.089, 29626.00
1061.194, 29473.00
1062.298, 29653.00
1063.402, 29645.00
1064.506, 29486.00
1065.610, 29603.00
1066.713, 29771.00
1067.817, 29600.00
1068.920, 29513.00
1070.023, 29105.00
1071.126, 29047.00
1072.229, 28510.00
1073.332, 28736.00
1074.435, 28444.00
1075.537, 28399.00
1076.639, 28233.00
1077.741, 28113.44
1078.843, 28050.00
1079.945, 27929.00
1081.046, 27821.00
1082.148, 27724.00
1083.249, 27644.00
1084.350, 27547.00
1085.451, 27367.00
1086.551, 27357.00
1087.652, 27162.00
1088.752, 26991.00
1089.853, 26907.00
1090.953, 27011.00
1092.053, 27092.00
1093.152, 26941.00
1094.252, 27063.00
1095.351, 27080.00
1096.451, 27003.22
1097.550, 27179.00
1098.649, 26860.00
1099.748, 26811.00
1100.846, 26646.00
1101.945, 26852.00
1103.043, 26760.00
1104.141, 26844.00
1105.239, 26942.00
1106.337, 26842.00
1107.434, 26945.00
1108.532, 26961.00
1109.629, 26783.00
1110.726, 26883.00
1111.823, 26793.00
1112.920, 26623.00
1114.017, 26335.00
1115.113, 26511.00
1116.210, 26400.00
1117.306, 26302.00
1118.402, 26395.00
1119.498, 26349.00
1120.593, 26389.00
1121.689, 26345.13
1122.784, 26364.00
1123.879, 26200.00
1124.974, 26148.00
1126.069, 26014.00
1127.164, 26048.00
1128.259, 25868.00
1129.353, 25819.00
1130.447, 25697.00
1131.541, 25820.00
1132.635, 25626.00
1133.729, 25727.00
1134.822, 25622.00
1135.916, 25666.00
1137.009, 25376.00
1138.102, 25525.00
1139.195, 25267.00
1140.288, 25392.00
1141.380, 25261.00
1142.473, 25318.00
1143.565, 25038.00
1144.657, 25366.00
1145.749, 25375.00
1146.841, 25184.00
1147.932, 25315.00
1149.024, 25456.00
1150.115, 25255.25
1151.206, 25231.00
1152.297, 25030.00
1153.388, 25016.00
1154.479, 24995.00
1155.569, 25068.00
1156.659, 24815.00
1157.750, 24973.00
1158.839, 24785.00
1159.929, 24961.00
1161.019, 25050.00
1162.108, 25063.00
1163.198, 25124.00
1164.287, 25003.00
1165.376, 24888.00
1166.465, 25131.00
1167.553, 24837.00
1168.642, 24944.00
1169.730, 24880.00
1170.818, 24506.43
1171.906, 24702.02
1172.994, 24811.83
1174.082, 24840.46
1175.170, 24544.79
1176.257, 24667.89
1177.344, 24623.16
1178.431, 24571.56
1179.518, 24753.60
1180.605, 24505.10
1181.691, 24683.43
1182.778, 24691.38
1183.864, 24777.30
1184.950, 24694.37
1186.036, 24663.60
1187.122, 24801.74
1188.207, 24846.35
1189.292, 24830.00
1190.378, 24859.00
1191.463, 24909.00
1192.548, 24767.00
1193.632, 24861.00
1194.717, 24680.00
1195.801, 24563.00
1196.886, 24735.00
1197.970, 24746.00
1199.054, 24915.00
1200.137, 24871.00
1201.221, 24813.00
1202.305, 24866.00
1203.388, 24692.00
1204.471, 24795.59
1205.554, 24818.00
1206.637, 24830.00
1207.719, 24750.00
1208.802, 24559.00
1209.884, 24772.00
1210.966, 24799.00
1212.048, 25142.00
1213.130, 24750.00
1214.212, 24757.00
1215.293, 25077.00
1216.374, 25039.00
1217.456, 25102.00
1218.536, 24967.00
1219.617, 24893.00
1220.698, 24855.00
1221.778, 24755.00
1222.859, 24886.00
1223.939, 24859.00
1225.019, 25135.00
1226.099, 25267.00
1227.178, 25388.37
1228.258, 25417.13
1229.337, 25451.83
1230.417, 25297.00
1231.496, 25428.00
1232.574, 25280.00
1233.653, 25266.00
1234.732, 25346.00
1235.810, 25168.00
1236.888, 25423.00
1237.966, 25364.00
1239.044, 25543.00
1240.122, 25498.00
1241.199, 25496.00
1242.277, 25871.00
1243.354, 25830.00
1244.431, 25579.00
1245.508, 26407.00
1246.585, 25959.00
1247.661, 25825.00
1248.738, 25802.00
1249.814, 25754.00
1250.890, 25739.00
1251.966, 25969.00
1253.042, 25970.00
1254.117, 25896.00
1255.193, 25815.00
1256.268, 26064.00
1257.343, 26188.00
1258.418, 26104.98
1259.493, 26132.69
1260.567, 25988.00
1261.642, 25968.00
1262.716, 25925.00
1263.790, 25935.00
1264.864, 25931.00
1265.938, 26039.00
1267.011, 26001.00
1268.085, 26161.00
1269.158, 26297.00
1270.231, 26149.00
1271.304, 26142.00
1272.377, 26076.00
1273.450, 26152.00
1274.522, 26189.00
1275.594, 26096.00
1276.666, 25917.00
1277.738, 26234.00
1278.810, 26024.00
1279.882, 25952.00
1280.953, 26282.00
1282.025, 26150.00
1283.096, 26265.00
1284.167, 26390.00
1285.238, 26267.00
1286.308, 26264.00
1287.379, 26204.00
1288.449, 26224.06
1289.519, 26325.00
1290.589, 26362.00
1291.659, 26381.00
1292.729, 26564.00
1293.798, 26604.00
1294.868, 26750.00
1295.937, 26598.00
1297.006, 26570.00
1298.075, 26480.00
1299.143, 26514.00
1300.212, 26500.00
1301.280, 26498.00
1302.348, 26454.00
1303.416, 26541.00
1304.484, 26619.00
1305.552, 26563.00
1306.620, 26563.00
1307.687, 26607.00
1308.754, 26677.00
1309.821, 26686.00
1310.888, 26740.00
1311.955, 26609.00
1313.021, 26481.00
1314.088, 26387.00
1315.154, 26386.00
1316.220, 26281.00
1317.286, 26488.00
1318.352, 26495.00
1319.417, 26697.00
1320.483, 26716.00
1321.548, 26347.00
1322.613, 26780.00
1323.678, 26447.00
1324.743, 26720.00
1325.807, 26341.00
1326.872, 26420.00
1327.936, 26320.00
1329.000, 26486.00
1330.064, 26404.00
1331.128, 26487.00
1332.191, 26521.00
1333.255, 26682.00
1334.318, 26479.00
1335.381, 26596.00
1336.444, 26724.00
1337.507, 26493.00
1338.569, 26609.00
1339.632, 26525.00
1340.694, 26409.00
1341.756, 26385.00
1342.818, 26355.00
1343.880, 26253.00
1344.941, 26383.00
1346.003, 26497.00
1347.064, 26656.00
1348.125, 26315.00
1349.186, 26319.00
1350.247, 26506.00
1351.308, 26343.00
1352.368, 26370.00
1353.428, 26085.00
1354.489, 26350.00
1355.549, 26062.00
1356.608, 26108.00
1357.668, 26123.00
1358.727, 26489.00
1359.787, 26383.00
1360.846, 26364.00
1361.905, 26541.00
1362.964, 26272.00
1364.022, 26425.00
1365.081, 26219.00
1366.139, 26340.00
1367.197, 26176.00
1368.255, 26245.00
1369.313, 26263.00
1370.371, 26251.00
1371.428, 26392.00
1372.486, 26286.00
1373.543, 26218.00
1374.600, 26376.00
1375.657, 26274.00
1376.713, 26195.00
1377.770, 26461.00
1378.826, 26296.00
1379.882, 26419.00
1380.938, 26241.00
1381.994, 26199.00
1383.050, 26124.00
1384.106, 26212.00
1385.161, 26241.27
1386.216, 26442.00
1387.271, 26394.00
1388.326, 26447.00
1389.381, 26454.00
1390.435, 26132.00
1391.490, 26318.00
1392.544, 26170.00
1393.598, 26325.00
1394.652, 26254.00
1395.705, 26238.20
1396.759, 26264.73
1397.812, 26194.00
1398.866, 26244.00
1399.919, 26219.00
1400.972, 26232.00
1402.024, 26205.02
1403.077, 26319.00
1404.129, 26123.00
1405.181, 26194.00
1406.233, 26150.00
1407.285, 26014.91
1408.337, 26112.00
1409.389, 25844.00
1410.440, 25980.00
1411.491, 26041.00
1412.542, 26011.00
1413.593, 26272.00
1414.644, 26260.00
1415.695, 26132.00
1416.745, 26245.00
1417.795, 26044.00
1418.845, 26244.00
1419.895, 26065.00
1420.945, 26432.00
1421.995, 26270.80
1423.044, 26211.65
1424.093, 26219.00
1425.142, 26046.00
1426.191, 26258.00
1427.240, 26391.00
1428.289, 26286.00
1429.337, 26257.00
1430.385, 26278.00
1431.433, 26328.55
1432.481, 26258.35
1433.529, 26431.00
1434.577, 26237.00
1435.624, 26035.00
1436.672, 26198.00
1437.719, 26076.00
1438.766, 26134.00
1439.812, 26290.00
1440.859, 26353.00
1441.905, 26466.00
1442.952, 26387.00
1443.998, 26654.00
1445.044, 26309.00
1446.090, 26440.00
1447.135, 26501.00
1448.181, 26377.00
