##NAMES=Dravite
##RRUFFID=R060534
##IDEAL CHEMISTRY=NaMg_3_Al_6_(Si_6_O_18_)(BO_3_)_3_(OH)_3_OH
##LOCALITY=Sri Lanka
##OWNER=RRUFF
##SOURCE=Gemological Institute of America
##DESCRIPTION=Black trigonal prism
##STATUS=The identification of this mineral has been confirmed by X-ray diffraction and chemical analysis
##URL=rruff.info/R060534
##MEASURED CHEMISTRY=(Na_0.79_Ca_0.21_)(Mg_0.68_Fe^2+^_0.29_Ti_0.02_Al_0.01_)_3_Al_6.00_(BO_3_)_3_(Si_0.95_Al_005_)_6.00_O_18_(OH)_4_
##PIN_ID=L01264
##ORIENTATION=Laser parallel to a* (1 0 0). Fiducial mark perpendicular to laser is parallel to -c [0 0 -1]
168.4860, 24366.00
169.7110, 24833.00
170.9360, 24987.00
172.1610, 24385.00
173.3850, 24005.00
174.6100, 23957.00
175.8340, 24074.00
177.0580, 24002.00
178.2820, 24139.82
179.5050, 24337.00
180.7290, 24440.00
181.9520, 24610.00
183.1760, 24869.00
184.3990, 25007.00
185.6220, 25938.00
186.8450, 26004.34
188.0670, 26580.00
189.2900, 26757.00
190.5120, 27284.00
191.7340, 27961.00
192.9560, 28455.00
194.1780, 28801.00
195.4000, 29508.00
196.6220, 30065.00
197.8430, 30590.00
199.0640, 31310.00
200.2860, 33160.00
201.5070, 34336.00
202.7270, 35076.00
203.9480, 34488.00
205.1690, 33498.00
206.3890, 33349.00
207.6090, 34606.00
208.8290, 36068.00
210.0490, 37942.00
211.2690, 39240.00
212.4890, 40810.00
213.7080, 41797.00
214.9280, 41798.00
216.1470, 40910.00
217.3660, 40611.00
218.5850, 39629.00
219.8030, 38730.00
221.0220, 37698.00
222.2400, 36492.00
223.4590, 35939.00
224.6770, 34921.00
225.8950, 34765.00
227.1120, 34346.00
228.3300, 34407.00
229.5480, 34831.67
230.7650, 35455.89
231.9820, 36395.00
233.1990, 37610.00
234.4160, 39128.00
235.6330, 40622.00
236.8490, 41894.73
238.0660, 43031.47
239.2820, 44534.00
240.4980, 44981.00
241.7140, 46165.00
242.9300, 47040.00
244.1460, 47095.00
245.3610, 46044.00
246.5770, 44903.00
247.7920, 43016.00
249.0070, 41097.00
250.2220, 38584.00
251.4370, 36356.00
252.6510, 34191.00
253.8660, 32512.00
255.0800, 30985.00
256.2940, 29701.21
257.5080, 29182.35
258.7220, 28577.71
259.9360, 27891.88
261.1490, 26882.37
262.3630, 26291.01
263.5760, 25532.44
264.7890, 25197.00
266.0020, 24975.00
267.2150, 24722.00
268.4270, 24298.00
269.6400, 24005.00
270.8520, 23694.00
272.0640, 23497.00
273.2760, 23593.00
274.4880, 23236.00
275.7000, 23113.00
276.9120, 22581.00
278.1230, 22499.00
279.3340, 21852.00
280.5450, 21502.00
281.7560, 21233.00
282.9670, 20990.00
284.1780, 20878.00
285.3880, 20899.00
286.5980, 20708.00
287.8090, 20558.00
289.0190, 20342.00
290.2290, 20195.00
291.4380, 20306.00
292.6480, 20206.00
293.8570, 20196.00
295.0670, 19978.00
296.2760, 19956.27
297.4850, 19947.27
298.6930, 19852.00
299.9020, 20017.00
301.1110, 20062.00
302.3190, 20159.28
303.5270, 20582.00
304.7350, 20632.00
305.9430, 20966.00
307.1510, 21106.00
308.3580, 21345.00
309.5660, 21877.00
310.7730, 22097.00
311.9800, 22567.00
313.1870, 23019.00
314.3940, 23508.00
315.6010, 23916.00
316.8070, 24202.00
318.0130, 24275.00
319.2200, 23683.00
320.4260, 23315.00
321.6310, 23140.00
322.8370, 22822.00
324.0430, 22588.00
325.2480, 22734.00
326.4540, 22719.00
327.6590, 23012.00
328.8640, 23051.00
330.0680, 23083.00
331.2730, 23501.00
332.4780, 23481.00
333.6820, 23777.00
334.8860, 23864.00
336.0900, 24448.00
337.2940, 24672.00
338.4980, 25038.00
339.7010, 25306.00
340.9050, 25729.00
342.1080, 26066.30
343.3110, 26322.00
344.5140, 26828.00
345.7170, 27140.00
346.9200, 27559.00
348.1220, 28167.00
349.3240, 28548.00
350.5270, 29424.00
351.7290, 29860.00
352.9310, 30364.00
354.1320, 31313.00
355.3340, 32527.00
356.5350, 33727.00
357.7370, 35207.00
358.9380, 37148.00
360.1390, 39261.00
361.3400, 41650.00
362.5400, 44270.00
363.7410, 47421.00
364.9410, 50524.00
366.1410, 53373.00
367.3410, 56275.00
368.5410, 58529.00
369.7410, 59714.00
370.9400, 60096.00
372.1400, 59427.00
373.3390, 57876.00
374.5380, 55695.00
375.7370, 52566.00
376.9360, 49592.00
378.1350, 46947.00
379.3330, 44184.00
380.5310, 42113.00
381.7300, 40095.00
382.9280, 38297.00
384.1260, 36914.00
385.3230, 35571.00
386.5210, 34740.00
387.7180, 34009.00
388.9160, 33032.00
390.1130, 32031.00
391.3100, 31756.00
392.5060, 31419.00
393.7030, 30644.00
394.9000, 30303.00
396.0960, 29915.00
397.2920, 29583.00
398.4880, 29578.00
399.6840, 29327.00
400.8800, 29261.91
402.0750, 29119.43
403.2710, 29137.00
404.4660, 28817.00
405.6610, 28699.00
406.8560, 28510.00
408.0510, 28124.00
409.2450, 27971.00
410.4400, 27671.00
411.6340, 27047.00
412.8280, 26938.00
414.0220, 26830.00
415.2160, 26136.00
416.4100, 25973.00
417.6030, 25348.00
418.7970, 25105.00
419.9900, 24871.00
421.1830, 24405.00
422.3760, 24127.00
423.5690, 23871.00
424.7610, 23861.00
425.9540, 23578.00
427.1460, 23254.00
428.3380, 22934.00
429.5300, 23143.00
430.7220, 22966.00
431.9140, 22882.00
433.1050, 22578.00
434.2970, 22668.00
435.4880, 22534.00
436.6790, 22241.00
437.8700, 22219.00
439.0610, 22172.00
440.2510, 22073.00
441.4420, 22310.00
442.6320, 22155.27
443.8220, 22091.83
445.0120, 22127.00
446.2020, 21896.00
447.3910, 22041.00
448.5810, 22123.00
449.7700, 22042.00
450.9600, 22133.00
452.1490, 22041.00
453.3370, 22076.00
454.5260, 22058.00
455.7150, 21921.00
456.9030, 22063.00
458.0910, 22012.37
459.2800, 22119.00
460.4670, 22174.00
461.6550, 22230.55
462.8430, 22283.00
464.0300, 22369.00
465.2180, 22311.00
466.4050, 22307.00
467.5920, 22355.00
468.7790, 22386.00
469.9650, 22603.00
471.1520, 22792.00
472.3380, 23039.00
473.5250, 23186.00
474.7110, 23317.00
475.8970, 23494.16
477.0820, 23485.00
478.2680, 23808.00
479.4540, 23808.00
480.6390, 24018.00
481.8240, 24146.00
483.0090, 24324.00
484.1940, 24404.00
485.3780, 24573.00
486.5630, 24750.00
487.7470, 25086.00
488.9320, 24923.00
490.1160, 25293.00
491.3000, 25300.00
492.4830, 25555.00
493.6670, 25783.00
494.8500, 25877.00
496.0340, 25913.00
497.2170, 25975.00
498.4000, 26044.00
499.5820, 25992.00
500.7650, 26077.00
501.9480, 25923.79
503.1300, 25646.00
504.3120, 25569.00
505.4940, 25444.00
506.6760, 25176.00
507.8580, 24928.00
509.0390, 24894.00
510.2210, 24646.00
511.4020, 24313.00
512.5830, 24073.00
513.7640, 24227.00
514.9450, 23639.00
516.1250, 23744.00
517.3060, 23393.00
518.4860, 23100.00
519.6660, 23095.61
520.8460, 22989.00
522.0260, 22996.00
523.2060, 22741.00
524.3850, 22854.00
525.5650, 22827.00
526.7440, 22999.00
527.9230, 23047.00
529.1020, 23180.00
530.2810, 23172.00
531.4590, 23345.00
532.6380, 23486.00
533.8160, 23540.00
534.9940, 23451.00
536.1720, 23624.00
537.3500, 23593.43
538.5270, 23738.00
539.7050, 23683.00
540.8820, 23772.00
542.0590, 23902.00
543.2360, 23858.00
544.4130, 23801.20
545.5900, 23744.76
546.7660, 23637.00
547.9430, 23530.00
549.1190, 23468.04
550.2950, 23631.00
551.4710, 23380.00
552.6470, 23354.00
553.8220, 23438.00
554.9980, 23199.00
556.1730, 23047.00
557.3480, 22827.00
558.5230, 22777.00
559.6980, 22913.00
560.8730, 22708.00
562.0470, 22754.00
563.2220, 22691.00
564.3960, 22586.00
565.5700, 22681.00
566.7440, 22391.00
567.9170, 22492.00
569.0910, 22700.00
570.2640, 22539.00
571.4380, 22336.00
572.6110, 22810.00
573.7840, 22340.00
574.9570, 22450.00
576.1290, 22516.00
577.3020, 22361.10
578.4740, 22379.00
579.6460, 22381.00
580.8180, 22426.00
581.9900, 22532.00
583.1620, 22418.00
584.3330, 22276.00
585.5040, 22368.00
586.6760, 22314.00
587.8470, 22439.00
589.0180, 22394.00
590.1880, 22428.55
591.3590, 22453.76
592.5290, 22432.00
593.7000, 22452.00
594.8700, 22376.00
596.0400, 22335.00
597.2090, 22374.00
598.3790, 22526.00
599.5490, 22367.00
600.7180, 22560.00
601.8870, 22432.00
603.0560, 22547.00
604.2250, 22452.00
605.3940, 22607.00
606.5620, 22538.00
607.7300, 22634.00
608.8990, 22781.00
610.0670, 22691.00
611.2350, 22839.00
612.4020, 23007.00
613.5700, 23047.00
614.7370, 22896.00
615.9050, 23264.00
617.0720, 23141.00
618.2390, 23444.00
619.4060, 23585.00
620.5720, 23971.00
621.7390, 24045.00
622.9050, 24408.00
624.0710, 24767.00
625.2370, 25158.00
626.4030, 25572.00
627.5690, 26267.00
628.7340, 27022.00
629.9000, 27467.00
631.0650, 27974.00
632.2300, 28367.00
633.3950, 28506.00
634.5600, 28541.00
635.7240, 28581.00
636.8890, 28448.00
638.0530, 28470.00
639.2170, 28345.00
640.3810, 28599.00
641.5450, 28830.00
642.7080, 28861.00
643.8720, 29518.00
645.0350, 29889.00
646.1980, 30326.00
647.3610, 30835.00
648.5240, 30949.00
649.6870, 30473.00
650.8490, 30492.00
652.0120, 30518.00
653.1740, 30521.00
654.3360, 30093.00
655.4980, 30101.00
656.6600, 30122.00
657.8210, 30275.00
658.9830, 30429.00
660.1440, 30759.00
661.3050, 31162.00
662.4660, 31427.00
663.6270, 31922.00
664.7870, 32423.00
665.9480, 32839.00
667.1080, 33105.00
668.2680, 33845.00
669.4280, 33964.00
670.5880, 34169.00
671.7480, 34315.00
672.9070, 34175.00
674.0670, 33928.00
675.2260, 33621.00
676.3850, 33286.00
677.5440, 32611.00
678.7030, 32104.00
679.8610, 31533.00
681.0200, 31008.00
682.1780, 30917.00
683.3360, 30493.00
684.4940, 30295.00
685.6520, 30366.00
686.8090, 30112.00
687.9670, 30331.00
689.1240, 30710.00
690.2810, 30607.00
691.4380, 31154.00
692.5950, 31715.00
693.7520, 32093.00
694.9080, 32893.00
696.0650, 33773.00
697.2210, 34522.00
698.3770, 35640.00
699.5330, 36532.00
700.6880, 37560.00
701.8440, 37967.00
702.9990, 38474.00
704.1550, 38474.00
705.3100, 37818.00
706.4650, 36783.00
707.6190, 35924.00
708.7740, 34739.00
709.9290, 33242.00
711.0830, 32241.00
712.2370, 31303.00
713.3910, 30238.00
714.5450, 29766.00
715.6980, 29141.00
716.8520, 28866.00
718.0050, 28673.00
719.1580, 28405.69
720.3110, 28269.00
721.4640, 28237.00
722.6170, 28219.00
723.7700, 28293.00
724.9220, 28292.00
726.0740, 28433.00
727.2260, 28391.00
728.3780, 28453.00
729.5300, 28415.00
730.6810, 28172.00
731.8330, 28587.00
732.9840, 28307.00
734.1350, 28598.00
735.2860, 28719.00
736.4370, 28515.00
737.5880, 28818.00
738.7380, 29005.00
739.8880, 29108.00
741.0390, 29358.00
742.1890, 29316.00
743.3380, 29574.00
744.4880, 29729.00
745.6380, 30071.00
746.7870, 30425.00
747.9360, 30412.00
749.0850, 30626.00
750.2340, 31116.00
751.3830, 31303.00
752.5310, 31294.00
753.6800, 31470.00
754.8280, 31655.00
755.9760, 31598.00
757.1240, 31814.00
758.2720, 31421.00
759.4190, 31573.00
760.5670, 31835.00
761.7140, 31389.00
762.8610, 31367.00
764.0080, 31424.00
765.1550, 31420.00
766.3020, 31310.00
767.4480, 31257.00
768.5950, 31239.00
769.7410, 30926.00
770.8870, 30938.21
772.0330, 30750.78
773.1780, 30722.00
774.3240, 30454.00
775.4690, 30216.00
776.6140, 30065.00
777.7590, 29779.71
778.9040, 29687.00
780.0490, 29430.00
781.1940, 29003.00
782.3380, 29131.00
783.4820, 28846.00
784.6260, 29003.00
785.7700, 28680.83
786.9140, 28570.24
788.0580, 28064.00
789.2010, 28158.00
790.3450, 27851.00
791.4880, 27498.00
792.6310, 27336.00
793.7730, 26871.00
794.9160, 26433.00
796.0590, 25848.00
797.2010, 25585.00
798.3430, 25198.00
799.4850, 24796.00
800.6270, 24221.00
801.7690, 23715.00
802.9100, 23582.00
804.0520, 23133.00
805.1930, 23052.00
806.3340, 22764.00
807.4750, 22518.00
808.6160, 22425.00
809.7560, 22312.62
810.8970, 22231.00
812.0370, 22386.00
813.1770, 22430.00
814.3170, 22736.00
815.4570, 21980.00
816.5960, 21843.00
817.7360, 21865.00
818.8750, 21261.00
820.0140, 21158.00
821.1530, 20899.00
822.2920, 20780.00
823.4310, 20430.00
824.5690, 20278.00
825.7070, 20128.00
826.8460, 19926.00
827.9840, 19830.00
829.1220, 19656.00
830.2590, 19412.00
831.3970, 19311.00
832.5340, 19091.00
833.6710, 19090.00
834.8080, 18955.56
835.9450, 18977.00
837.0820, 18778.00
838.2190, 18718.00
839.3550, 18603.00
840.4910, 18496.00
841.6270, 18387.00
842.7630, 18429.00
843.8990, 18325.00
845.0350, 18515.00
846.1700, 18487.00
847.3060, 18342.00
848.4410, 18435.00
849.5760, 18371.00
850.7100, 18340.00
851.8450, 18347.00
852.9800, 18272.00
854.1140, 18571.00
855.2480, 18310.00
856.3820, 18543.00
857.5160, 18486.00
858.6500, 18480.00
859.7830, 18531.00
860.9170, 18686.00
862.0500, 18588.00
863.1830, 18733.00
864.3160, 18589.00
865.4480, 18583.00
866.5810, 18590.00
867.7130, 18670.00
868.8460, 18712.00
869.9780, 18602.00
871.1100, 18760.00
872.2410, 18988.00
873.3730, 18958.00
874.5050, 18876.00
875.6360, 18806.00
876.7670, 18883.00
877.8980, 18982.00
879.0290, 18863.00
880.1590, 19083.00
881.2900, 19132.00
882.4200, 18966.00
883.5500, 19129.00
884.6800, 19100.00
885.8100, 19178.00
886.9400, 19410.00
888.0690, 19390.00
889.1990, 19337.00
890.3280, 19379.00
891.4570, 19538.00
892.5860, 19602.00
893.7140, 19654.17
894.8430, 19701.00
895.9710, 19735.00
897.1000, 19829.00
898.2280, 19864.77
899.3560, 19822.00
900.4830, 19904.00
901.6110, 19862.00
902.7380, 19983.00
903.8660, 20081.00
904.9930, 19980.00
906.1200, 20161.00
907.2460, 20121.00
908.3730, 20252.63
909.5000, 20400.70
910.6260, 20489.00
911.7520, 20639.00
912.8780, 20675.00
914.0040, 20601.23
915.1290, 20795.00
916.2550, 20735.00
917.3800, 20825.00
918.5050, 20992.00
919.6300, 21014.00
920.7550, 21221.00
921.8800, 21121.00
923.0040, 21083.18
924.1290, 21490.00
925.2530, 20962.00
926.3770, 21173.00
927.5010, 21398.00
928.6250, 21283.00
929.7480, 21338.00
930.8720, 21593.00
931.9950, 21588.00
933.1180, 21678.13
934.2410, 21863.30
935.3640, 21831.00
936.4860, 22053.00
937.6090, 22139.22
938.7310, 22457.64
939.8530, 22690.27
940.9750, 22841.72
942.0970, 22668.88
943.2180, 22914.69
944.3400, 22992.79
945.4610, 23063.90
946.5820, 23368.65
947.7030, 23242.86
948.8240, 23543.91
949.9450, 23674.58
951.0650, 23883.11
952.1860, 23922.89
953.3060, 24014.73
954.4260, 24275.47
955.5460, 24442.69
956.6650, 24462.81
957.7850, 24676.30
958.9040, 24544.40
960.0230, 24715.49
961.1420, 25017.31
962.2610, 25045.92
963.3800, 25262.39
964.4990, 25407.32
965.6170, 25226.99
966.7350, 25612.12
967.8530, 25752.71
968.9710, 25642.21
970.0890, 26007.96
971.2070, 25932.07
972.3240, 26013.71
973.4410, 26213.99
974.5580, 26290.59
975.6750, 26663.00
976.7920, 26674.00
977.9090, 27090.00
979.0250, 27264.00
980.1410, 26746.00
981.2580, 26781.00
982.3740, 26798.00
983.4890, 26810.00
984.6050, 26847.15
985.7200, 26890.00
986.8360, 26906.00
987.9510, 26962.00
989.0660, 26983.00
990.1810, 27009.29
991.2950, 26983.32
992.4100, 27050.00
993.5240, 27078.45
994.6390, 27104.61
995.7530, 27177.00
996.8660, 27204.00
997.9800, 27238.55
999.0940, 27339.00
1000.207, 27372.00
1001.320, 27307.00
1002.433, 27578.00
1003.546, 27550.00
1004.659, 27686.54
1005.772, 27865.41
1006.884, 27990.00
1007.996, 28172.00
1009.108, 28461.00
1010.220, 28569.00
1011.332, 28702.00
1012.444, 29200.00
1013.555, 29434.00
1014.666, 29708.00
1015.777, 29979.00
1016.888, 30373.00
1017.999, 30796.00
1019.110, 31309.00
1020.220, 31865.00
1021.331, 31738.00
1022.441, 32237.00
1023.551, 32580.00
1024.661, 33011.00
1025.770, 33179.00
1026.880, 33524.00
1027.989, 33690.00
1029.098, 33758.00
1030.207, 34275.00
1031.316, 34428.00
1032.425, 34484.00
1033.533, 34739.00
1034.642, 34690.00
1035.750, 34856.00
1036.858, 34925.39
1037.966, 35110.00
1039.073, 35081.00
1040.181, 34909.00
1041.288, 35032.00
1042.396, 35018.00
1043.503, 34897.00
1044.610, 34916.00
1045.716, 34742.00
1046.823, 34883.00
1047.929, 34799.00
1049.036, 34662.05
1050.142, 34528.00
1051.248, 34351.00
1052.353, 34302.00
1053.459, 34133.00
1054.564, 33681.00
1055.670, 33492.00
1056.775, 33652.00
1057.880, 33135.00
1058.985, 32927.00
1060.089, 32618.00
1061.194, 32322.00
1062.298, 32005.00
1063.402, 31938.00
1064.506, 31866.00
1065.610, 31588.00
1066.713, 31402.00
1067.817, 31292.00
1068.920, 31036.00
1070.023, 30825.00
1071.126, 30821.00
1072.229, 30446.00
1073.332, 30172.00
1074.435, 30089.00
1075.537, 29692.00
1076.639, 29679.00
1077.741, 29135.00
1078.843, 29042.00
1079.945, 28845.00
1081.046, 28535.32
1082.148, 28392.00
1083.249, 28000.00
1084.350, 27790.00
1085.451, 27342.00
1086.551, 27354.00
1087.652, 27285.00
1088.752, 26980.00
1089.853, 26879.00
1090.953, 26740.00
1092.053, 26640.00
1093.152, 26448.00
1094.252, 26269.00
1095.351, 26235.00
1096.451, 26089.47
1097.550, 26051.00
1098.649, 25968.00
1099.748, 25868.11
1100.846, 25665.00
1101.945, 25550.13
1103.043, 25663.44
1104.141, 25690.96
1105.239, 25637.30
1106.337, 25259.35
1107.434, 25300.24
1108.532, 25173.23
1109.629, 25039.41
1110.726, 25139.25
1111.823, 24808.54
1112.920, 24904.66
1114.017, 24830.40
1115.113, 24834.19
1116.210, 24669.06
1117.306, 24556.15
1118.402, 24612.16
1119.498, 24574.63
1120.593, 24390.21
1121.689, 24398.96
1122.784, 24062.50
1123.879, 24029.04
1124.974, 24126.30
1126.069, 23950.37
1127.164, 23962.29
1128.259, 23902.65
1129.353, 23517.96
1130.447, 23698.71
1131.541, 23634.93
1132.635, 23320.06
1133.729, 23481.45
1134.822, 23201.27
1135.916, 23078.65
1137.009, 23074.74
1138.102, 22947.16
1139.195, 22781.00
1140.288, 23006.00
1141.380, 22759.16
1142.473, 22861.00
1143.565, 22545.00
1144.657, 22756.00
1145.749, 22631.00
1146.841, 22489.00
1147.932, 22772.00
1149.024, 22325.22
1150.115, 22503.45
1151.206, 22595.88
1152.297, 22607.15
1153.388, 22294.12
1154.479, 22399.85
1155.569, 22337.78
1156.659, 22268.82
1157.750, 22433.49
1158.839, 22167.66
1159.929, 22328.64
1161.019, 22319.24
1162.108, 22387.84
1163.198, 22287.56
1164.287, 22166.00
1165.376, 22320.00
1166.465, 22334.00
1167.553, 22230.00
1168.642, 22254.00
1169.730, 22298.00
1170.818, 22266.00
1171.906, 22261.04
1172.994, 22271.00
1174.082, 22181.00
1175.170, 22063.00
1176.257, 21984.00
1177.344, 22123.00
1178.431, 21984.00
1179.518, 22008.00
1180.605, 22001.00
1181.691, 21926.00
1182.778, 22174.00
1183.864, 22085.00
1184.950, 22085.00
1186.036, 22092.00
1187.122, 22013.00
1188.207, 22116.00
1189.292, 22071.00
1190.378, 22108.00
1191.463, 22290.00
1192.548, 22158.21
1193.632, 22192.56
1194.717, 22029.00
1195.801, 22067.00
1196.886, 22044.00
1197.970, 21938.00
1199.054, 22007.00
1200.137, 22114.00
1201.221, 22073.04
1202.305, 22149.00
1203.388, 22173.00
1204.471, 22162.71
1205.554, 22187.64
1206.637, 22137.00
1207.719, 22204.00
1208.802, 22148.00
1209.884, 22208.08
1210.966, 22133.00
1212.048, 22227.00
1213.130, 22190.00
1214.212, 22212.00
1215.293, 22278.64
1216.374, 22309.87
1217.456, 22401.00
1218.536, 22387.00
1219.617, 22456.00
1220.698, 22366.00
1221.778, 22473.00
1222.859, 22409.00
1223.939, 22507.00
1225.019, 22486.00
1226.099, 22554.07
1227.178, 22551.00
1228.258, 22659.00
1229.337, 22684.00
1230.417, 22639.00
1231.496, 22779.00
1232.574, 22771.00
1233.653, 22799.00
1234.732, 22814.00
1235.810, 22693.00
1236.888, 23081.00
1237.966, 23062.00
1239.044, 22822.00
1240.122, 23064.00
1241.199, 22983.10
1242.277, 23176.00
1243.354, 23085.00
1244.431, 23094.00
1245.508, 23172.00
1246.585, 23112.00
1247.661, 23195.00
1248.738, 23410.00
1249.814, 23152.00
1250.890, 23294.00
1251.966, 23115.00
1253.042, 23231.00
1254.117, 23464.00
1255.193, 22991.00
1256.268, 23206.00
1257.343, 23043.00
1258.418, 23107.86
1259.493, 23282.00
1260.567, 23318.00
1261.642, 23305.00
1262.716, 23268.00
1263.790, 23107.00
1264.864, 23199.60
1265.938, 23410.00
1267.011, 23322.00
1268.085, 23209.00
1269.158, 23282.00
1270.231, 23147.00
1271.304, 23190.53
1272.377, 23535.00
1273.450, 23156.00
1274.522, 23435.00
1275.594, 23258.89
1276.666, 23540.00
1277.738, 23296.00
1278.810, 23200.00
1279.882, 23310.00
1280.953, 23140.00
1282.025, 23328.00
1283.096, 23170.00
1284.167, 23497.00
1285.238, 23411.00
1286.308, 23444.00
1287.379, 23444.00
1288.449, 23294.00
1289.519, 23290.00
1290.589, 23285.00
1291.659, 23466.00
1292.729, 23364.00
1293.798, 23488.00
1294.868, 23340.00
1295.937, 23391.70
1297.006, 23394.49
1298.075, 23388.00
1299.143, 23389.00
1300.212, 23304.00
1301.280, 23260.00
1302.348, 23162.00
1303.416, 23237.00
1304.484, 23068.00
1305.552, 23101.00
1306.620, 23022.00
1307.687, 23136.00
1308.754, 22959.00
1309.821, 23224.00
1310.888, 23268.00
1311.955, 23149.00
1313.021, 23334.00
1314.088, 23324.93
1315.154, 23546.00
1316.220, 23449.00
1317.286, 23455.00
1318.352, 23508.00
1319.417, 23596.00
1320.483, 23766.00
1321.548, 23719.00
1322.613, 23774.75
1323.678, 23709.00
1324.743, 23710.00
1325.807, 23675.00
1326.872, 23552.00
1327.936, 23636.00
1329.000, 23632.00
1330.064, 23871.00
1331.128, 23657.00
1332.191, 23588.00
1333.255, 23910.00
1334.318, 23616.00
1335.381, 23603.00
1336.444, 23688.00
