##NAMES=Dravite
##RRUFFID=R060286
##IDEAL CHEMISTRY=NaMg_3_Al_6_(Si_6_O_18_)(BO_3_)_3_(OH)_3_OH
##LOCALITY=Badakshan Province, Afghanistan
##OWNER=RRUFF
##SOURCE=Herb Obodda
##DESCRIPTION=Brown prismatic tourmaline crystal
##STATUS=The identification of this mineral has been confirmed by X-ray diffraction and chemical analysis
##URL=rruff.info/R060286
##MEASURED CHEMISTRY=(Na_0.48_Ca_0.38_[box]_0.14_)_Σ=1_(Mg_2.90_Ti_0.10_)_Σ=3_Al_6.00_(B_1.00_O_3_)_3_(Si_5.56_B_0.44_)_Σ=6_O_18_(OH)_4_; (OH) assumed from stoichiometry; B estimated by difference and charge balance
##PIN_ID=L00909
##ORIENTATION=Laser parallel to a* (1 0 0). Fiducial mark perpendicular to laser is parallel to -c [0 0 -1]
118.1340, 19126.00
119.3650, 18526.00
120.5960, 18024.00
121.8270, 17966.00
123.0580, 18502.00
124.2880, 18150.26
125.5190, 18615.00
126.7490, 18354.00
127.9790, 18789.00
129.2090, 19456.00
130.4390, 19760.00
131.6680, 20438.00
132.8980, 20736.00
134.1270, 20503.00
135.3560, 20833.00
136.5850, 20851.00
137.8140, 21257.00
139.0430, 21960.00
140.2710, 22326.00
141.5000, 21821.00
142.7280, 21329.00
143.9560, 21195.00
145.1840, 21117.00
146.4120, 21299.00
147.6390, 21455.00
148.8670, 21107.00
150.0940, 21118.00
151.3210, 21038.94
152.5490, 21382.00
153.7750, 20824.00
155.0020, 20547.00
156.2290, 20306.00
157.4550, 19672.00
158.6810, 19357.00
159.9080, 19112.00
161.1340, 18925.00
162.3590, 18960.00
163.5850, 19241.00
164.8110, 19559.00
166.0360, 19407.00
167.2610, 19126.00
168.4860, 19166.00
169.7110, 19123.00
170.9360, 19663.00
172.1610, 19629.00
173.3850, 19507.00
174.6100, 19180.00
175.8340, 19270.00
177.0580, 19162.00
178.2820, 19301.00
179.5050, 19317.00
180.7290, 19523.00
181.9520, 20212.00
183.1760, 21401.00
184.3990, 23288.00
185.6220, 25494.00
186.8450, 26485.00
188.0670, 25902.00
189.2900, 25541.00
190.5120, 26335.00
191.7340, 29608.00
192.9560, 35675.00
194.1780, 42844.00
195.4000, 44835.00
196.6220, 42888.00
197.8430, 40048.00
199.0640, 37000.00
200.2860, 33894.00
201.5070, 31649.00
202.7270, 30788.00
203.9480, 30345.00
205.1690, 30673.00
206.3890, 30858.00
207.6090, 31860.00
208.8290, 33592.00
210.0490, 35286.00
211.2690, 37206.00
212.4890, 38802.00
213.7080, 40189.00
214.9280, 40954.00
216.1470, 40509.00
217.3660, 39377.00
218.5850, 38017.00
219.8030, 36063.00
221.0220, 34022.00
222.2400, 31932.00
223.4590, 30507.00
224.6770, 29308.00
225.8950, 28163.00
227.1120, 27573.00
228.3300, 27049.00
229.5480, 26823.00
230.7650, 26773.00
231.9820, 26789.00
233.1990, 27031.05
234.4160, 27194.00
235.6330, 27762.00
236.8490, 28695.00
238.0660, 29123.00
239.2820, 29380.00
240.4980, 29883.00
241.7140, 30282.00
242.9300, 30890.00
244.1460, 30795.00
245.3610, 30270.00
246.5770, 29697.00
247.7920, 28738.00
249.0070, 27602.00
250.2220, 26327.00
251.4370, 25377.00
252.6510, 24223.00
253.8660, 23433.00
255.0800, 22541.00
256.2940, 22255.00
257.5080, 22629.00
258.7220, 22478.81
259.9360, 22211.72
261.1490, 22863.00
262.3630, 21704.00
263.5760, 21253.00
264.7890, 21281.00
266.0020, 21592.00
267.2150, 21679.00
268.4270, 21911.00
269.6400, 22099.00
270.8520, 22409.00
272.0640, 22444.00
273.2760, 22661.00
274.4880, 22767.00
275.7000, 22657.00
276.9120, 22936.00
278.1230, 22523.00
279.3340, 22003.00
280.5450, 21745.00
281.7560, 21544.00
282.9670, 21346.00
284.1780, 21247.00
285.3880, 21244.00
286.5980, 21027.00
287.8090, 21217.00
289.0190, 21333.00
290.2290, 21235.00
291.4380, 21446.00
292.6480, 21370.00
293.8570, 21490.00
295.0670, 21245.00
296.2760, 21239.00
297.4850, 21146.00
298.6930, 21108.00
299.9020, 21148.00
301.1110, 21191.00
302.3190, 21332.00
303.5270, 21277.98
304.7350, 21262.99
305.9430, 21192.00
307.1510, 21255.00
308.3580, 21160.00
309.5660, 21455.00
310.7730, 22462.00
311.9800, 22162.03
313.1870, 22498.25
314.3940, 22288.00
315.6010, 22570.00
316.8070, 22847.00
318.0130, 23038.00
319.2200, 23326.00
320.4260, 23665.00
321.6310, 24005.00
322.8370, 24406.00
324.0430, 24768.00
325.2480, 25278.00
326.4540, 25777.00
327.6590, 26590.00
328.8640, 27137.00
330.0680, 28208.00
331.2730, 28970.00
332.4780, 29901.00
333.6820, 30756.00
334.8860, 31590.00
336.0900, 32486.00
337.2940, 33529.00
338.4980, 34067.00
339.7010, 34700.00
340.9050, 35302.00
342.1080, 35202.00
343.3110, 35375.00
344.5140, 35103.00
345.7170, 34859.00
346.9200, 34895.00
348.1220, 34519.00
349.3240, 34435.00
350.5270, 34800.00
351.7290, 35550.00
352.9310, 36372.00
354.1320, 37287.00
355.3340, 38456.00
356.5350, 39871.00
357.7370, 42088.00
358.9380, 44698.00
360.1390, 48015.00
361.3400, 50991.00
362.5400, 54075.00
363.7410, 56765.00
364.9410, 58785.00
366.1410, 60936.00
367.3410, 62670.00
368.5410, 63881.00
369.7410, 64819.00
370.9400, 64600.00
372.1400, 64009.00
373.3390, 62265.00
374.5380, 59577.00
375.7370, 56413.00
376.9360, 53386.00
378.1350, 49977.00
379.3330, 46815.00
380.5310, 44277.00
381.7300, 41657.00
382.9280, 39917.00
384.1260, 37829.00
385.3230, 36372.00
386.5210, 35014.00
387.7180, 33958.00
388.9160, 35227.00
390.1130, 32368.00
391.3100, 32526.00
392.5060, 33010.00
393.7030, 30580.00
394.9000, 30171.00
396.0960, 29535.00
397.2920, 29277.00
398.4880, 28992.00
399.6840, 28544.00
400.8800, 28356.00
402.0750, 28164.00
403.2710, 28021.00
404.4660, 27904.00
405.6610, 27501.00
406.8560, 27187.00
408.0510, 26913.00
409.2450, 26697.00
410.4400, 26432.00
411.6340, 26320.00
412.8280, 25798.00
414.0220, 25274.00
415.2160, 25230.00
416.4100, 24698.00
417.6030, 24441.00
418.7970, 24544.00
419.9900, 24492.00
421.1830, 24356.00
422.3760, 24158.00
423.5690, 24198.00
424.7610, 24321.00
425.9540, 24253.00
427.1460, 24245.00
428.3380, 24626.00
429.5300, 24619.00
430.7220, 24802.00
431.9140, 24877.00
433.1050, 25053.00
434.2970, 25080.00
435.4880, 24965.00
436.6790, 25038.00
437.8700, 24915.00
439.0610, 24887.00
440.2510, 25200.00
441.4420, 25183.00
442.6320, 25251.00
443.8220, 25496.00
445.0120, 25701.00
446.2020, 25726.00
447.3910, 26072.00
448.5810, 26130.00
449.7700, 26327.00
450.9600, 26421.00
452.1490, 26359.00
453.3370, 26487.00
454.5260, 26421.00
455.7150, 26417.00
456.9030, 26366.00
458.0910, 26563.00
459.2800, 26581.00
460.4670, 26636.37
461.6550, 26675.00
462.8430, 26716.00
464.0300, 26965.00
465.2180, 26961.00
466.4050, 27329.00
467.5920, 27417.00
468.7790, 27924.00
469.9650, 28146.00
471.1520, 28513.00
472.3380, 28720.00
473.5250, 29141.00
474.7110, 29444.00
475.8970, 29563.00
477.0820, 30043.00
478.2680, 30233.00
479.4540, 30340.00
480.6390, 30590.00
481.8240, 30465.00
483.0090, 30566.00
484.1940, 30317.00
485.3780, 30596.00
486.5630, 30478.00
487.7470, 30737.00
488.9320, 30373.00
490.1160, 30644.00
491.3000, 30910.00
492.4830, 30923.00
493.6670, 31145.00
494.8500, 31280.00
496.0340, 31216.00
497.2170, 31205.00
498.4000, 31227.00
499.5820, 31182.78
500.7650, 31301.00
501.9480, 31108.00
503.1300, 31091.00
504.3120, 30973.00
505.4940, 30548.00
506.6760, 29909.00
507.8580, 29373.00
509.0390, 29038.00
510.2210, 28593.00
511.4020, 28222.00
512.5830, 28001.00
513.7640, 27581.00
514.9450, 27508.00
516.1250, 27520.00
517.3060, 27315.00
518.4860, 27352.00
519.6660, 27540.00
520.8460, 27994.00
522.0260, 28225.00
523.2060, 28753.00
524.3850, 29037.00
525.5650, 29799.00
526.7440, 29952.00
527.9230, 30688.00
529.1020, 30952.00
530.2810, 30992.00
531.4590, 31510.00
532.6380, 31365.00
533.8160, 31715.00
534.9940, 31598.00
536.1720, 31671.00
537.3500, 31098.00
538.5270, 31207.00
539.7050, 30706.00
540.8820, 30123.00
542.0590, 29705.00
543.2360, 29477.00
544.4130, 28941.00
545.5900, 28404.00
546.7660, 28124.00
547.9430, 27581.00
549.1190, 27018.00
550.2950, 26785.00
551.4710, 26460.00
552.6470, 25889.00
553.8220, 25854.00
554.9980, 25534.00
556.1730, 25162.00
557.3480, 24874.00
558.5230, 24641.00
559.6980, 24865.00
560.8730, 24352.00
562.0470, 24162.00
563.2220, 24250.00
564.3960, 23776.00
565.5700, 23885.00
566.7440, 23798.00
567.9170, 23505.00
569.0910, 23509.00
570.2640, 23551.00
571.4380, 23046.00
572.6110, 23248.00
573.7840, 23058.00
574.9570, 22947.00
576.1290, 22765.00
577.3020, 22805.00
578.4740, 22635.00
579.6460, 22726.00
580.8180, 22581.00
581.9900, 22588.00
583.1620, 22657.00
584.3330, 22421.48
585.5040, 22681.13
586.6760, 22839.30
587.8470, 22901.38
589.0180, 22579.72
590.1880, 22753.56
591.3590, 22728.84
592.5290, 22695.96
593.7000, 22939.57
594.8700, 22673.70
596.0400, 22912.90
597.2090, 23162.00
598.3790, 23101.00
599.5490, 23127.00
600.7180, 23206.00
601.8870, 23152.00
603.0560, 23300.00
604.2250, 23528.00
605.3940, 23699.00
606.5620, 23555.00
607.7300, 23582.00
608.8990, 23686.00
610.0670, 23899.00
611.2350, 24038.00
612.4020, 24160.00
613.5700, 24373.00
614.7370, 24466.00
615.9050, 24566.00
617.0720, 24942.00
618.2390, 25010.00
619.4060, 25463.00
620.5720, 25670.00
621.7390, 25746.00
622.9050, 26133.00
624.0710, 26451.00
625.2370, 26702.00
626.4030, 26958.00
627.5690, 27238.45
628.7340, 27569.00
629.9000, 27680.00
631.0650, 27862.00
632.2300, 27892.00
633.3950, 27778.00
634.5600, 27029.00
635.7240, 26979.00
636.8890, 26586.00
638.0530, 26242.00
639.2170, 25739.00
640.3810, 25292.00
641.5450, 25213.00
642.7080, 24964.00
643.8720, 25129.00
645.0350, 25302.00
646.1980, 25415.00
647.3610, 25452.00
648.5240, 25528.00
649.6870, 25917.00
650.8490, 26202.00
652.0120, 26663.00
653.1740, 27130.00
654.3360, 27259.00
655.4980, 27867.00
656.6600, 28125.00
657.8210, 28831.00
658.9830, 29354.00
660.1440, 29794.00
661.3050, 30472.00
662.4660, 31222.00
663.6270, 31866.00
664.7870, 32686.00
665.9480, 33644.00
667.1080, 34606.00
668.2680, 35423.00
669.4280, 36244.00
670.5880, 37196.56
671.7480, 37985.00
672.9070, 38985.00
674.0670, 39831.00
675.2260, 40596.00
676.3850, 40332.00
677.5440, 40117.00
678.7030, 39110.00
679.8610, 37843.00
681.0200, 36477.00
682.1780, 35266.00
683.3360, 33952.00
684.4940, 33080.00
685.6520, 32383.00
686.8090, 32389.00
687.9670, 32196.00
689.1240, 32369.00
690.2810, 32942.00
691.4380, 33489.00
692.5950, 34168.00
693.7520, 35280.00
694.9080, 36059.00
696.0650, 37218.00
697.2210, 38628.00
698.3770, 39919.00
699.5330, 41597.00
700.6880, 43032.00
701.8440, 44386.00
702.9990, 46521.00
704.1550, 47325.00
705.3100, 48191.00
706.4650, 49012.00
707.6190, 48973.00
708.7740, 48807.00
709.9290, 47940.00
711.0830, 46684.00
712.2370, 45486.00
713.3910, 43220.00
714.5450, 41516.00
715.6980, 39771.00
716.8520, 38043.00
718.0050, 36450.00
719.1580, 35294.00
720.3110, 34223.00
721.4640, 33650.00
722.6170, 32947.00
723.7700, 32331.00
724.9220, 32320.00
726.0740, 32210.00
727.2260, 32137.00
728.3780, 32477.00
729.5300, 32731.00
730.6810, 32814.00
731.8330, 32858.00
732.9840, 33288.00
734.1350, 33916.00
735.2860, 34149.00
736.4370, 34630.00
737.5880, 35315.00
738.7380, 35750.00
739.8880, 36487.00
741.0390, 37333.00
742.1890, 38198.09
743.3380, 39196.91
744.4880, 40398.00
745.6380, 41451.00
746.7870, 42886.00
747.9360, 44325.00
749.0850, 46060.29
750.2340, 47762.00
751.3830, 50004.00
752.5310, 52078.00
753.6800, 54363.00
754.8280, 56367.00
755.9760, 58744.00
757.1240, 60509.00
758.2720, 62084.00
759.4190, 63535.00
760.5670, 64188.00
761.7140, 64175.00
762.8610, 63963.00
764.0080, 62842.00
765.1550, 61352.00
766.3020, 59912.00
767.4480, 58290.00
768.5950, 56885.00
769.7410, 55679.00
770.8870, 54321.00
772.0330, 53456.00
773.1780, 52447.00
774.3240, 51682.00
775.4690, 50756.00
776.6140, 49933.00
777.7590, 49467.00
778.9040, 48403.00
780.0490, 47592.00
781.1940, 47192.00
782.3380, 46433.00
783.4820, 46001.00
784.6260, 45808.00
785.7700, 45468.00
786.9140, 45202.00
788.0580, 45099.00
789.2010, 45186.00
790.3450, 45301.00
791.4880, 45465.00
792.6310, 45310.00
793.7730, 45119.00
794.9160, 45293.00
796.0590, 45313.00
797.2010, 45410.00
798.3430, 45185.00
799.4850, 45078.00
800.6270, 44474.00
801.7690, 43959.00
802.9100, 43305.00
804.0520, 43058.00
805.1930, 42392.00
806.3340, 41764.00
807.4750, 41440.00
808.6160, 41349.00
809.7560, 40885.00
810.8970, 40410.00
812.0370, 40516.00
813.1770, 40303.00
814.3170, 40307.00
815.4570, 40618.00
816.5960, 40429.00
817.7360, 40379.65
818.8750, 40163.00
820.0140, 39798.00
821.1530, 39284.00
822.2920, 38480.00
823.4310, 37824.00
824.5690, 37314.00
825.7070, 35863.00
826.8460, 35185.00
827.9840, 33935.00
829.1220, 32661.00
830.2590, 31750.00
831.3970, 30613.00
832.5340, 29498.00
833.6710, 28691.00
834.8080, 27378.00
835.9450, 26641.00
837.0820, 25873.00
838.2190, 24984.00
839.3550, 24478.00
840.4910, 23771.00
841.6270, 23230.00
842.7630, 22614.00
843.8990, 22185.00
845.0350, 21846.00
846.1700, 21368.00
847.3060, 21162.00
848.4410, 20716.00
849.5760, 20423.00
850.7100, 20417.00
851.8450, 20092.00
852.9800, 20023.00
854.1140, 20174.00
855.2480, 19865.00
856.3820, 19647.00
857.5160, 19819.00
858.6500, 19642.00
859.7830, 19523.00
860.9170, 19475.00
862.0500, 19410.71
863.1830, 19400.21
864.3160, 19364.00
865.4480, 19436.00
866.5810, 19370.00
867.7130, 19407.00
868.8460, 19542.00
869.9780, 19725.00
871.1100, 19532.00
872.2410, 19542.00
873.3730, 19388.00
874.5050, 19650.00
875.6360, 19709.00
876.7670, 19728.00
877.8980, 19809.00
879.0290, 19879.00
880.1590, 19883.30
881.2900, 19966.00
882.4200, 19945.00
883.5500, 19992.00
884.6800, 20110.00
885.8100, 20414.00
886.9400, 20343.00
888.0690, 20460.00
889.1990, 20314.00
890.3280, 20413.00
891.4570, 20536.00
892.5860, 20513.00
893.7140, 20792.00
894.8430, 20691.00
895.9710, 20639.00
897.1000, 20963.00
898.2280, 20923.00
899.3560, 21118.00
900.4830, 21302.00
901.6110, 21341.00
902.7380, 21513.00
903.8660, 21465.00
904.9930, 21579.00
906.1200, 21618.00
907.2460, 21831.00
908.3730, 21875.00
909.5000, 21967.00
910.6260, 22067.99
911.7520, 22090.00
912.8780, 22250.00
914.0040, 22243.00
915.1290, 22419.00
916.2550, 22614.00
917.3800, 22412.00
918.5050, 22691.00
919.6300, 22969.00
920.7550, 22720.00
921.8800, 23042.00
923.0040, 22943.00
924.1290, 23058.00
925.2530, 23215.00
926.3770, 23132.00
927.5010, 23308.00
928.6250, 23337.00
929.7480, 23579.00
930.8720, 23629.00
931.9950, 23870.00
933.1180, 23879.00
934.2410, 24004.00
935.3640, 23948.00
936.4860, 24302.00
937.6090, 24219.00
938.7310, 24290.00
939.8530, 24683.00
940.9750, 24699.00
942.0970, 25050.00
943.2180, 25179.00
944.3400, 25270.00
945.4610, 25358.00
946.5820, 25554.22
947.7030, 25506.00
948.8240, 25931.00
949.9450, 25904.00
951.0650, 26042.00
952.1860, 26622.00
953.3060, 26279.00
954.4260, 26558.00
955.5460, 27005.00
956.6650, 27108.00
957.7850, 27241.00
958.9040, 27669.00
960.0230, 27625.00
961.1420, 27983.00
962.2610, 28161.00
963.3800, 28472.00
964.4990, 28752.00
965.6170, 28708.00
966.7350, 28689.00
967.8530, 29048.00
968.9710, 29508.00
970.0890, 29424.00
971.2070, 29640.00
972.3240, 29939.00
973.4410, 30046.00
974.5580, 30003.00
975.6750, 30266.00
976.7920, 30218.00
977.9090, 30211.00
979.0250, 30322.00
980.1410, 30356.00
981.2580, 30386.00
982.3740, 30170.00
983.4890, 30338.00
984.6050, 29876.00
985.7200, 29816.00
986.8360, 29727.00
987.9510, 29659.00
989.0660, 29528.00
990.1810, 29627.00
991.2950, 29323.00
992.4100, 29342.00
993.5240, 29168.00
994.6390, 28914.00
995.7530, 28783.00
996.8660, 28928.00
997.9800, 29059.00
999.0940, 29059.00
1000.207, 28971.00
1001.320, 28777.00
1002.433, 28766.00
1003.546, 28882.00
1004.659, 28853.00
1005.772, 29016.00
1006.884, 29098.00
1007.996, 29385.00
1009.108, 29577.44
1010.220, 29770.35
1011.332, 30111.00
1012.444, 30212.00
1013.555, 30515.00
1014.666, 30771.00
1015.777, 31214.00
1016.888, 31717.00
1017.999, 31852.00
1019.110, 32437.00
1020.220, 32593.00
1021.331, 33190.00
1022.441, 33293.00
1023.551, 33882.00
1024.661, 34120.00
1025.770, 34357.00
1026.880, 35105.00
1027.989, 35444.00
1029.098, 35999.00
1030.207, 36737.00
1031.316, 37178.00
1032.425, 37868.00
1033.533, 38451.71
1034.642, 39028.44
1035.750, 39585.00
1036.858, 40281.00
1037.966, 40735.00
1039.073, 41435.00
1040.181, 42114.00
1041.288, 42868.00
1042.396, 43600.00
1043.503, 44653.00
1044.610, 45102.00
1045.716, 46173.00
1046.823, 46495.00
1047.929, 47597.00
1049.036, 47598.00
1050.142, 48681.00
1051.248, 49081.00
1052.353, 48893.00
1053.459, 48823.00
1054.564, 48734.00
1055.670, 48118.00
1056.775, 47717.00
1057.880, 47640.00
1058.985, 47413.43
1060.089, 47491.98
1061.194, 47509.00
1062.298, 47890.00
1063.402, 48231.00
1064.506, 48652.00
1065.610, 48929.00
1066.713, 49265.57
1067.817, 49568.00
1068.920, 49764.00
1070.023, 49853.00
1071.126, 49870.00
1072.229, 49870.00
1073.332, 49917.00
1074.435, 48826.00
1075.537, 48575.00
1076.639, 48069.30
1077.741, 47040.61
1078.843, 46956.00
1079.945, 45163.00
1081.046, 44255.00
1082.148, 43330.00
1083.249, 42193.00
1084.350, 40991.00
1085.451, 40265.00
1086.551, 39163.00
1087.652, 38205.00
1088.752, 37445.00
1089.853, 36519.00
1090.953, 35726.00
1092.053, 34947.00
1093.152, 34296.00
1094.252, 33640.93
1095.351, 33064.00
1096.451, 32484.00
1097.550, 31926.00
1098.649, 31388.00
1099.748, 31292.00
1100.846, 31019.00
1101.945, 30177.00
1103.043, 30224.00
1104.141, 29854.00
1105.239, 29574.00
1106.337, 29301.00
1107.434, 29232.00
1108.532, 29101.00
1109.629, 28790.00
1110.726, 28526.00
1111.823, 28590.00
1112.920, 28522.00
1114.017, 28529.00
1115.113, 28566.00
1116.210, 28592.00
1117.306, 28730.00
1118.402, 28961.00
1119.498, 29020.00
1120.593, 29110.00
1121.689, 29232.84
1122.784, 29317.05
1123.879, 29375.00
1124.974, 29482.00
1126.069, 29495.00
1127.164, 29469.00
1128.259, 29258.00
1129.353, 29128.00
1130.447, 29046.00
1131.541, 28925.00
1132.635, 28718.00
1133.729, 28449.00
1134.822, 28208.46
1135.916, 28053.00
1137.009, 27644.00
1138.102, 27236.00
1139.195, 27005.00
1140.288, 26468.00
1141.380, 26078.00
1142.473, 25817.13
1143.565, 25685.00
1144.657, 25348.00
1145.749, 25013.00
1146.841, 24940.00
1147.932, 24664.00
1149.024, 24652.00
1150.115, 24573.00
1151.206, 24624.00
1152.297, 24435.00
1153.388, 24331.00
1154.479, 24432.00
1155.569, 24562.00
1156.659, 24235.00
1157.750, 24406.82
1158.839, 24527.00
1159.929, 24518.00
1161.019, 24193.00
1162.108, 24382.00
1163.198, 24107.00
1164.287, 24115.00
1165.376, 24298.00
1166.465, 24095.00
1167.553, 24004.00
1168.642, 24286.00
1169.730, 24161.00
1170.818, 23973.00
1171.906, 24020.00
1172.994, 23970.00
1174.082, 23957.66
1175.170, 24017.00
1176.257, 24030.00
1177.344, 24215.00
1178.431, 24323.00
1179.518, 24377.00
1180.605, 24389.91
1181.691, 24379.05
1182.778, 24221.00
1183.864, 24288.00
1184.950, 24043.00
1186.036, 24010.00
1187.122, 23930.00
1188.207, 24246.00
1189.292, 23954.00
1190.378, 24190.00
1191.463, 24357.00
1192.548, 24083.00
1193.632, 24208.00
1194.717, 24199.00
1195.801, 24366.00
1196.886, 24179.00
1197.970, 24530.00
1199.054, 24286.00
1200.137, 24424.00
1201.221, 24504.00
1202.305, 24479.00
1203.388, 24411.00
1204.471, 24493.00
1205.554, 24493.00
1206.637, 24465.00
1207.719, 24876.00
1208.802, 24619.00
1209.884, 24754.00
1210.966, 24802.00
1212.048, 24704.00
1213.130, 24975.00
1214.212, 25044.00
1215.293, 25183.00
1216.374, 25342.00
1217.456, 25216.00
1218.536, 25327.00
1219.617, 25655.00
1220.698, 25589.00
1221.778, 25709.00
1222.859, 25791.00
1223.939, 25878.00
1225.019, 25965.25
1226.099, 26042.05
1227.178, 26098.00
1228.258, 26182.00
1229.337, 26203.00
1230.417, 26236.88
1231.496, 26223.00
1232.574, 26334.00
1233.653, 26362.00
1234.732, 26467.00
1235.810, 26587.00
1236.888, 26599.00
1237.966, 26795.00
1239.044, 26592.00
1240.122, 26653.00
1241.199, 26751.00
1242.277, 26880.00
1243.354, 26949.00
1244.431, 26815.00
1245.508, 26729.00
1246.585, 26797.00
1247.661, 26958.00
1248.738, 27047.00
1249.814, 26964.00
1250.890, 26969.00
1251.966, 27039.00
1253.042, 26863.00
1254.117, 26881.00
1255.193, 26841.00
1256.268, 26842.06
1257.343, 27127.00
1258.418, 26846.00
1259.493, 27078.00
1260.567, 26924.00
1261.642, 27044.00
1262.716, 27048.00
1263.790, 27110.00
1264.864, 27268.00
1265.938, 27151.83
1267.011, 27208.15
1268.085, 27068.00
1269.158, 27118.00
1270.231, 27267.00
1271.304, 27155.00
1272.377, 27287.00
1273.450, 27394.00
1274.522, 27185.00
1275.594, 27305.00
1276.666, 27225.00
1277.738, 27231.00
1278.810, 27047.00
1279.882, 27189.00
1280.953, 27323.00
1282.025, 27185.00
1283.096, 27282.00
1284.167, 27184.00
1285.238, 27209.00
1286.308, 27117.00
1287.379, 27162.79
