##NAMES=Dravite
##RRUFFID=R050077
##IDEAL CHEMISTRY=NaMg_3_Al_6_(Si_6_O_18_)(BO_3_)_3_(OH)_3_OH
##LOCALITY=Yinnietharra Station, Western Australia, Australia
##OWNER=RRUFF
##SOURCE=Rock Currier
##DESCRIPTION=Dark brown euhedral prismatic single crystal
##STATUS=The identification of this mineral has been confirmed by X-ray diffraction and chemical analysis
##URL=rruff.info/R050077
##MEASURED CHEMISTRY=(Na_0.783_Ca_0.217_)(Mg_0.771_Fe^2+^_0.221_Ti^4+^_0.008_)_3_(Al_0.956_Mg_0.044_)_6_(BO_3_)_3_[Si_6_O_18_]((OH)_0.914_F_0.086_)_4_
##PIN_ID=L01436
##ORIENTATION=Laser parallel to c* (0 0 1). Fiducial mark perpendicular to laser is parallel to a [1 0 0]
118.1340, 47538.00
119.3650, 46323.00
120.5960, 45670.00
121.8270, 45940.00
123.0580, 46888.00
124.2880, 47026.00
125.5190, 46381.00
126.7490, 46024.00
127.9790, 46661.00
129.2090, 47237.00
130.4390, 47684.00
131.6680, 48234.00
132.8980, 48536.00
134.1270, 48800.00
135.3560, 49287.00
136.5850, 49822.00
137.8140, 51272.00
139.0430, 52620.00
140.2710, 53017.00
141.5000, 52702.00
142.7280, 52605.00
143.9560, 52590.00
145.1840, 52944.00
146.4120, 53040.00
147.6390, 53202.00
148.8670, 52866.00
150.0940, 53123.00
151.3210, 53036.82
152.5490, 53774.00
153.7750, 52865.00
155.0020, 52854.00
156.2290, 52404.00
157.4550, 51720.00
158.6810, 51495.00
159.9080, 51086.00
161.1340, 50978.00
162.3590, 51199.00
163.5850, 50954.00
164.8110, 51317.00
166.0360, 50632.00
167.2610, 50037.00
168.4860, 50575.00
169.7110, 50416.00
170.9360, 50386.00
172.1610, 49606.00
173.3850, 50298.00
174.6100, 49538.05
175.8340, 49022.00
177.0580, 48695.00
178.2820, 48342.00
179.5050, 48106.00
180.7290, 47831.69
181.9520, 47570.00
183.1760, 47425.00
184.3990, 47272.00
185.6220, 47188.00
186.8450, 47053.00
188.0670, 47054.00
189.2900, 46726.00
190.5120, 46577.00
191.7340, 46409.00
192.9560, 46847.00
194.1780, 46742.00
195.4000, 46881.00
196.6220, 46717.00
197.8430, 46875.00
199.0640, 47254.00
200.2860, 47887.00
201.5070, 48751.00
202.7270, 48085.29
203.9480, 48124.00
205.1690, 47010.00
206.3890, 46990.00
207.6090, 47030.00
208.8290, 47195.00
210.0490, 47163.00
211.2690, 47328.00
212.4890, 46974.00
213.7080, 47080.00
214.9280, 46554.00
216.1470, 45744.00
217.3660, 44634.00
218.5850, 44179.00
219.8030, 43872.00
221.0220, 43187.00
222.2400, 42659.00
223.4590, 42292.00
224.6770, 41404.00
225.8950, 41347.00
227.1120, 41035.00
228.3300, 40507.00
229.5480, 40628.00
230.7650, 40268.00
231.9820, 40207.32
233.1990, 40604.00
234.4160, 40006.00
235.6330, 39874.00
236.8490, 39529.00
238.0660, 39633.00
239.2820, 39176.00
240.4980, 38913.00
241.7140, 38389.00
242.9300, 37892.00
244.1460, 37249.00
245.3610, 36835.00
246.5770, 36343.00
247.7920, 35939.00
249.0070, 35843.00
250.2220, 35446.08
251.4370, 35196.84
252.6510, 35005.00
253.8660, 34561.78
255.0800, 34855.14
256.2940, 35014.94
257.5080, 35048.35
258.7220, 34576.86
259.9360, 34757.34
261.1490, 34676.56
262.3630, 34585.05
263.5760, 34857.31
264.7890, 34459.26
266.0020, 34725.76
267.2150, 34726.98
268.4270, 34849.62
269.6400, 34709.34
270.8520, 34650.29
272.0640, 34515.17
273.2760, 34590.00
274.4880, 34285.00
275.7000, 34225.00
276.9120, 33991.00
278.1230, 33894.00
279.3340, 33579.00
280.5450, 33192.00
281.7560, 33427.00
282.9670, 32998.00
284.1780, 32802.00
285.3880, 32731.30
286.5980, 32544.82
287.8090, 32383.00
289.0190, 32481.00
290.2290, 32270.00
291.4380, 32351.00
292.6480, 32075.00
293.8570, 31808.00
295.0670, 31902.00
296.2760, 31862.00
297.4850, 31708.00
298.6930, 31859.00
299.9020, 31663.00
301.1110, 31608.00
302.3190, 31768.00
303.5270, 31558.00
304.7350, 31808.00
305.9430, 31796.00
307.1510, 31916.00
308.3580, 31834.00
309.5660, 32228.00
310.7730, 32450.00
311.9800, 32424.00
313.1870, 32581.00
314.3940, 32706.00
315.6010, 32685.00
316.8070, 33019.00
318.0130, 32823.00
319.2200, 33255.00
320.4260, 33564.00
321.6310, 33621.00
322.8370, 34159.00
324.0430, 34355.00
325.2480, 34480.00
326.4540, 34986.00
327.6590, 35395.00
328.8640, 35347.00
330.0680, 35686.00
331.2730, 36051.00
332.4780, 36067.00
333.6820, 36323.00
334.8860, 36398.00
336.0900, 36778.00
337.2940, 37110.00
338.4980, 37113.00
339.7010, 36975.00
340.9050, 37133.00
342.1080, 37098.00
343.3110, 37289.00
344.5140, 37170.00
345.7170, 37423.00
346.9200, 37229.00
348.1220, 37254.00
349.3240, 37417.00
350.5270, 37565.62
351.7290, 37783.98
352.9310, 38163.00
354.1320, 38428.00
355.3340, 38769.00
356.5350, 39337.00
357.7370, 39313.00
358.9380, 39934.00
360.1390, 40447.14
361.3400, 41077.71
362.5400, 41377.00
363.7410, 42070.63
364.9410, 42520.00
366.1410, 43197.00
367.3410, 44080.00
368.5410, 44430.00
369.7410, 44931.00
370.9400, 44952.00
372.1400, 45259.00
373.3390, 44916.00
374.5380, 44640.54
375.7370, 44384.00
376.9360, 43784.00
378.1350, 42913.00
379.3330, 42736.00
380.5310, 41947.00
381.7300, 41546.00
382.9280, 40958.00
384.1260, 40525.00
385.3230, 40281.00
386.5210, 39807.00
387.7180, 39637.00
388.9160, 39341.00
390.1130, 38986.00
391.3100, 38800.00
392.5060, 38584.00
393.7030, 38455.00
394.9000, 38166.00
396.0960, 37732.00
397.2920, 37801.00
398.4880, 37462.00
399.6840, 37466.00
400.8800, 37337.00
402.0750, 37128.00
403.2710, 37235.00
404.4660, 36902.00
405.6610, 36856.00
406.8560, 36696.00
408.0510, 36683.00
409.2450, 36168.00
410.4400, 36518.00
411.6340, 36356.00
412.8280, 36668.00
414.0220, 36355.00
415.2160, 36020.00
416.4100, 35943.00
417.6030, 35867.00
418.7970, 35782.00
419.9900, 35754.00
421.1830, 35685.00
422.3760, 35598.13
423.5690, 35546.00
424.7610, 35385.00
425.9540, 35217.00
427.1460, 35035.00
428.3380, 35100.00
429.5300, 35054.00
430.7220, 34947.22
431.9140, 35760.00
433.1050, 34693.00
434.2970, 34924.00
435.4880, 34653.00
436.6790, 35317.00
437.8700, 34894.00
439.0610, 34554.00
440.2510, 34560.00
441.4420, 34518.00
442.6320, 34704.00
443.8220, 34449.00
445.0120, 34545.00
446.2020, 35017.00
447.3910, 34848.00
448.5810, 34957.00
449.7700, 34751.00
450.9600, 34689.00
452.1490, 34869.00
453.3370, 34953.00
454.5260, 34832.00
455.7150, 34693.00
456.9030, 34794.00
458.0910, 34830.00
459.2800, 35155.00
460.4670, 35085.00
461.6550, 35259.00
462.8430, 35466.00
464.0300, 35496.00
465.2180, 35633.80
466.4050, 35424.00
467.5920, 35814.00
468.7790, 35905.00
469.9650, 36063.00
471.1520, 36470.00
472.3380, 36712.00
473.5250, 36673.00
474.7110, 36866.00
475.8970, 36792.00
477.0820, 36753.00
478.2680, 37131.00
479.4540, 37353.00
480.6390, 37242.00
481.8240, 37514.00
483.0090, 37823.00
484.1940, 37776.00
485.3780, 37908.00
486.5630, 37988.00
487.7470, 38186.00
488.9320, 37981.00
490.1160, 38014.00
491.3000, 38057.00
492.4830, 38360.00
493.6670, 38428.00
494.8500, 38378.00
496.0340, 38906.00
497.2170, 38684.00
498.4000, 38387.00
499.5820, 38585.00
500.7650, 38457.00
501.9480, 38096.00
503.1300, 37912.00
504.3120, 38287.00
505.4940, 38324.00
506.6760, 38005.00
507.8580, 37872.00
509.0390, 37890.00
510.2210, 37683.00
511.4020, 37617.00
512.5830, 37921.00
513.7640, 37785.00
514.9450, 37963.00
516.1250, 38251.00
517.3060, 37927.00
518.4860, 37921.00
519.6660, 38339.00
520.8460, 38841.00
522.0260, 39081.00
523.2060, 38948.00
524.3850, 39459.00
525.5650, 39641.00
526.7440, 40134.00
527.9230, 39973.00
529.1020, 40307.00
530.2810, 40451.00
531.4590, 40506.00
532.6380, 40806.00
533.8160, 40830.00
534.9940, 41094.00
536.1720, 41159.00
537.3500, 41436.00
538.5270, 41514.00
539.7050, 41767.69
540.8820, 41705.48
542.0590, 41904.55
543.2360, 41983.26
544.4130, 42148.00
545.5900, 42094.00
546.7660, 42148.00
547.9430, 42061.00
549.1190, 42173.00
550.2950, 42139.05
551.4710, 42387.00
552.6470, 42145.00
553.8220, 41953.00
554.9980, 41955.00
556.1730, 42081.00
557.3480, 42107.00
558.5230, 42132.00
559.6980, 42059.00
560.8730, 42102.00
562.0470, 41604.00
563.2220, 41783.00
564.3960, 41398.00
565.5700, 41461.00
566.7440, 41494.00
567.9170, 41317.38
569.0910, 41439.00
570.2640, 41174.00
571.4380, 40969.00
572.6110, 40873.00
573.7840, 40318.00
574.9570, 40053.00
576.1290, 39939.00
577.3020, 39632.00
578.4740, 39177.00
579.6460, 39066.00
580.8180, 38793.00
581.9900, 38194.00
583.1620, 37839.00
584.3330, 37501.00
585.5040, 37423.00
586.6760, 37018.00
587.8470, 37071.00
589.0180, 36906.00
590.1880, 36762.00
591.3590, 36710.00
592.5290, 36641.00
593.7000, 36606.00
594.8700, 36469.00
596.0400, 36402.00
597.2090, 36480.00
598.3790, 36132.00
599.5490, 36091.00
600.7180, 35906.00
601.8870, 35977.00
603.0560, 36433.00
604.2250, 35854.00
605.3940, 36262.00
606.5620, 36589.00
607.7300, 35723.00
608.8990, 35970.00
610.0670, 36197.00
611.2350, 36029.00
612.4020, 35997.00
613.5700, 36214.00
614.7370, 35931.00
615.9050, 36361.00
617.0720, 36156.00
618.2390, 36282.00
619.4060, 36366.00
620.5720, 36216.00
621.7390, 36321.00
622.9050, 36310.00
624.0710, 35852.00
625.2370, 36187.00
626.4030, 35905.00
627.5690, 35895.00
628.7340, 35941.00
629.9000, 35521.00
631.0650, 35454.00
632.2300, 35075.00
633.3950, 35078.00
634.5600, 34893.00
635.7240, 34821.00
636.8890, 34451.00
638.0530, 34588.00
639.2170, 34217.00
640.3810, 34294.00
641.5450, 34371.00
642.7080, 34236.00
643.8720, 34200.00
645.0350, 34418.00
646.1980, 34475.00
647.3610, 34668.00
648.5240, 34866.69
649.6870, 35074.00
650.8490, 35315.00
652.0120, 35807.00
653.1740, 36101.14
654.3360, 36455.20
655.4980, 36689.00
656.6600, 37029.00
657.8210, 37278.00
658.9830, 37299.00
660.1440, 37328.00
661.3050, 37463.00
662.4660, 37585.00
663.6270, 37323.00
664.7870, 37471.00
665.9480, 37017.00
667.1080, 36823.00
668.2680, 36548.00
669.4280, 36589.00
670.5880, 36344.00
671.7480, 36207.00
672.9070, 35829.00
674.0670, 35686.00
675.2260, 35687.00
676.3850, 35581.00
677.5440, 35516.00
678.7030, 35523.26
679.8610, 35463.00
681.0200, 35569.00
682.1780, 35653.00
683.3360, 35776.00
684.4940, 35890.68
685.6520, 36120.00
686.8090, 36236.00
687.9670, 36292.00
689.1240, 36660.00
690.2810, 36986.00
691.4380, 37110.00
692.5950, 37416.00
693.7520, 38041.00
694.9080, 38083.00
696.0650, 38726.00
697.2210, 39024.00
698.3770, 39077.00
699.5330, 39587.00
700.6880, 40023.00
701.8440, 40737.00
702.9990, 41040.00
704.1550, 41859.00
705.3100, 42057.00
706.4650, 42944.00
707.6190, 43688.00
708.7740, 44277.00
709.9290, 44906.00
711.0830, 45958.00
712.2370, 46616.00
713.3910, 47936.00
714.5450, 49119.00
715.6980, 50079.00
716.8520, 51396.00
718.0050, 52490.00
719.1580, 53372.00
720.3110, 54417.00
721.4640, 55212.00
722.6170, 55463.00
723.7700, 55929.00
724.9220, 55440.00
726.0740, 55430.00
727.2260, 55082.00
728.3780, 54571.00
729.5300, 53938.00
730.6810, 53914.00
731.8330, 53718.00
732.9840, 53471.00
734.1350, 53463.00
735.2860, 53492.40
736.4370, 53930.00
737.5880, 54057.00
738.7380, 54187.00
739.8880, 55096.00
741.0390, 56837.00
742.1890, 56178.00
743.3380, 56697.00
744.4880, 55888.00
745.6380, 56299.00
746.7870, 56462.00
747.9360, 56091.00
749.0850, 56673.00
750.2340, 56567.00
751.3830, 56627.00
752.5310, 56677.00
753.6800, 56757.00
754.8280, 56778.00
755.9760, 56607.00
757.1240, 56603.00
758.2720, 56320.00
759.4190, 56362.00
760.5670, 56230.42
761.7140, 56489.00
762.8610, 56131.00
764.0080, 55999.00
765.1550, 56097.00
766.3020, 55712.00
767.4480, 55810.00
768.5950, 55537.00
769.7410, 55188.00
770.8870, 55062.00
772.0330, 54975.00
773.1780, 54300.00
774.3240, 53721.00
775.4690, 53592.00
776.6140, 53142.00
777.7590, 52578.00
778.9040, 52706.00
780.0490, 52199.22
781.1940, 51706.00
782.3380, 51602.00
783.4820, 51263.00
784.6260, 50886.00
785.7700, 50481.00
786.9140, 49986.00
788.0580, 49209.00
789.2010, 48454.00
790.3450, 47849.00
791.4880, 46687.00
792.6310, 45982.00
793.7730, 44686.00
794.9160, 43864.00
796.0590, 42868.00
797.2010, 41869.00
798.3430, 41050.00
799.4850, 40141.00
800.6270, 40023.00
801.7690, 39570.00
802.9100, 38977.00
804.0520, 39130.00
805.1930, 38666.00
806.3340, 38661.00
807.4750, 38463.00
808.6160, 38276.00
809.7560, 38229.00
810.8970, 37889.18
812.0370, 37627.04
813.1770, 37096.00
814.3170, 36870.00
815.4570, 36082.00
816.5960, 35549.00
817.7360, 35214.00
818.8750, 34670.00
820.0140, 34199.00
821.1530, 33514.00
822.2920, 33005.00
823.4310, 32753.00
824.5690, 32491.00
825.7070, 32195.00
826.8460, 31765.00
827.9840, 31701.00
829.1220, 31105.00
830.2590, 30875.00
831.3970, 30470.00
832.5340, 30365.00
833.6710, 29980.00
834.8080, 29696.00
835.9450, 29401.00
837.0820, 29250.00
838.2190, 29214.00
839.3550, 29160.00
840.4910, 28863.00
841.6270, 28739.00
842.7630, 28650.00
843.8990, 28720.00
845.0350, 28773.00
846.1700, 28736.00
847.3060, 28583.00
848.4410, 28536.00
849.5760, 28575.00
850.7100, 28484.00
851.8450, 28498.06
852.9800, 28484.92
854.1140, 28476.00
855.2480, 28500.00
856.3820, 28481.00
857.5160, 28553.00
858.6500, 28535.75
859.7830, 28732.00
860.9170, 28653.00
862.0500, 28528.00
863.1830, 28817.00
864.3160, 28981.00
865.4480, 28627.00
866.5810, 28586.00
867.7130, 28711.00
868.8460, 29007.00
869.9780, 28760.00
871.1100, 28869.00
872.2410, 28729.00
873.3730, 28836.00
874.5050, 29037.00
875.6360, 28787.00
876.7670, 29064.00
877.8980, 29204.00
879.0290, 29088.00
880.1590, 29267.00
881.2900, 29204.00
882.4200, 29248.00
883.5500, 29178.00
884.6800, 29307.00
885.8100, 29355.00
886.9400, 29552.00
888.0690, 29590.43
889.1990, 29696.00
890.3280, 29646.00
891.4570, 29749.00
892.5860, 29619.00
893.7140, 30062.00
894.8430, 30048.00
895.9710, 30049.00
897.1000, 30077.00
898.2280, 30217.00
899.3560, 30220.00
900.4830, 30231.00
901.6110, 30448.00
902.7380, 30684.00
903.8660, 30790.00
904.9930, 30683.00
906.1200, 30799.00
907.2460, 30849.00
908.3730, 30731.00
909.5000, 31092.00
910.6260, 31354.00
911.7520, 31103.00
912.8780, 31552.00
914.0040, 32022.00
915.1290, 31753.00
916.2550, 31557.00
917.3800, 31665.00
918.5050, 31549.00
919.6300, 31703.00
920.7550, 31719.00
921.8800, 31823.00
923.0040, 31829.56
924.1290, 31904.00
925.2530, 31977.32
926.3770, 31968.00
927.5010, 32108.00
928.6250, 32177.00
929.7480, 32203.00
930.8720, 32298.96
931.9950, 32324.97
933.1180, 32423.00
934.2410, 32430.00
935.3640, 32497.00
936.4860, 32616.00
937.6090, 32688.00
938.7310, 32886.00
939.8530, 33186.00
940.9750, 33094.00
942.0970, 33412.00
943.2180, 33350.00
944.3400, 33572.00
945.4610, 33503.00
946.5820, 33797.00
947.7030, 33866.13
948.8240, 33911.00
949.9450, 34055.00
951.0650, 34262.00
952.1860, 34237.00
953.3060, 34466.69
954.4260, 34575.00
955.5460, 34744.00
956.6650, 34768.00
957.7850, 34770.00
958.9040, 35006.81
960.0230, 35126.00
961.1420, 35366.00
962.2610, 35277.00
963.3800, 35313.00
964.4990, 35534.00
965.6170, 35710.00
966.7350, 35595.00
967.8530, 35799.00
968.9710, 35663.00
970.0890, 35913.00
971.2070, 36072.00
972.3240, 35929.00
973.4410, 36078.00
974.5580, 35998.00
975.6750, 36349.00
976.7920, 36649.00
977.9090, 36362.00
979.0250, 36577.00
980.1410, 36460.00
981.2580, 36634.00
982.3740, 36563.00
983.4890, 36574.00
984.6050, 36531.00
985.7200, 36498.00
986.8360, 36363.00
987.9510, 36451.00
989.0660, 36301.00
990.1810, 36223.00
991.2950, 36527.00
992.4100, 36488.00
993.5240, 36344.00
994.6390, 36299.00
995.7530, 36330.00
996.8660, 36258.00
997.9800, 36370.00
999.0940, 35902.00
1000.207, 36154.00
1001.320, 35997.00
1002.433, 35934.00
1003.546, 36025.00
1004.659, 35887.00
1005.772, 35931.98
1006.884, 35923.46
1007.996, 35940.00
1009.108, 35987.00
1010.220, 35987.00
1011.332, 36158.00
1012.444, 36027.00
1013.555, 36289.00
1014.666, 36262.00
1015.777, 36395.00
1016.888, 36436.00
1017.999, 36753.00
1019.110, 36789.00
1020.220, 36706.00
1021.331, 36881.00
1022.441, 36806.00
1023.551, 36721.00
1024.661, 37167.00
1025.770, 36765.00
1026.880, 37032.00
1027.989, 37235.00
1029.098, 37547.00
1030.207, 37597.00
1031.316, 37690.00
1032.425, 37883.00
1033.533, 37870.00
1034.642, 37913.00
1035.750, 38018.00
1036.858, 38257.00
1037.966, 38752.00
1039.073, 38551.00
1040.181, 39100.00
1041.288, 38985.00
1042.396, 39213.00
1043.503, 39340.00
1044.610, 39219.00
1045.716, 39705.00
1046.823, 39552.00
1047.929, 39599.00
1049.036, 39454.00
1050.142, 39475.09
1051.248, 39579.00
1052.353, 39591.00
1053.459, 39704.00
1054.564, 39961.00
1055.670, 39534.00
1056.775, 39841.00
1057.880, 39942.00
1058.985, 39361.00
1060.089, 39897.00
1061.194, 39736.00
1062.298, 39725.00
1063.402, 39756.00
1064.506, 39895.00
1065.610, 39973.00
1066.713, 40124.00
1067.817, 39649.00
1068.920, 39733.00
1070.023, 39658.00
1071.126, 39198.00
1072.229, 39339.00
1073.332, 39134.00
1074.435, 38636.00
1075.537, 38681.00
1076.639, 38366.00
1077.741, 38064.00
1078.843, 37885.00
1079.945, 37699.00
1081.046, 37524.00
1082.148, 37218.00
1083.249, 36930.00
1084.350, 37305.00
1085.451, 37087.00
1086.551, 36949.00
1087.652, 36826.00
1088.752, 36728.40
1089.853, 36638.15
1090.953, 36560.96
1092.053, 36491.00
1093.152, 36439.00
1094.252, 36359.00
1095.351, 36307.00
1096.451, 36186.00
1097.550, 36236.34
1098.649, 36195.91
1099.748, 36268.00
1100.846, 36210.00
1101.945, 36083.00
1103.043, 36065.00
1104.141, 35741.00
1105.239, 35777.00
1106.337, 35581.00
1107.434, 35450.00
1108.532, 35663.00
1109.629, 35579.00
1110.726, 35303.00
1111.823, 35447.00
1112.920, 35279.00
1114.017, 35047.00
1115.113, 35133.00
1116.210, 35327.00
1117.306, 35215.00
1118.402, 35467.00
1119.498, 35174.00
1120.593, 35219.00
1121.689, 35071.57
1122.784, 35018.00
1123.879, 34808.00
1124.974, 34672.10
1126.069, 34559.00
1127.164, 34342.00
1128.259, 34056.00
1129.353, 33915.00
1130.447, 33523.00
1131.541, 33418.00
1132.635, 33325.00
1133.729, 33307.00
1134.822, 33175.00
1135.916, 32883.67
1137.009, 33133.98
1138.102, 33250.74
1139.195, 33241.12
1140.288, 32726.58
1141.380, 32864.08
1142.473, 32740.24
1143.565, 32605.74
1144.657, 32835.00
1145.749, 32393.95
1146.841, 32617.45
1147.932, 32872.00
1149.024, 32895.00
1150.115, 32936.00
1151.206, 32669.00
1152.297, 32765.00
1153.388, 32609.00
1154.479, 32860.00
1155.569, 32456.00
1156.659, 32632.00
1157.750, 32726.00
1158.839, 32559.00
1159.929, 32729.00
1161.019, 32818.00
1162.108, 32397.00
1163.198, 32481.00
1164.287, 32415.00
1165.376, 32669.00
1166.465, 32680.00
1167.553, 32632.97
1168.642, 32411.00
1169.730, 32517.00
1170.818, 32538.00
1171.906, 32532.00
1172.994, 32298.00
1174.082, 32598.00
1175.170, 32893.25
1176.257, 32581.09
1177.344, 32647.18
1178.431, 32266.00
1179.518, 32306.00
1180.605, 32409.00
1181.691, 32343.00
1182.778, 32217.00
1183.864, 32452.00
1184.950, 32120.00
1186.036, 31925.00
1187.122, 32252.00
1188.207, 32131.00
1189.292, 32143.00
1190.378, 32085.00
1191.463, 32060.98
1192.548, 32056.12
1193.632, 32030.00
1194.717, 32039.00
1195.801, 32002.21
1196.886, 31992.70
1197.970, 32056.00
1199.054, 32097.00
1200.137, 32177.00
1201.221, 32256.00
1202.305, 32238.00
1203.388, 32061.00
1204.471, 32380.00
1205.554, 32141.00
1206.637, 32157.00
1207.719, 32427.00
1208.802, 32319.00
1209.884, 32204.00
1210.966, 32276.00
1212.048, 32606.00
1213.130, 32564.00
1214.212, 32435.00
1215.293, 32656.00
1216.374, 32492.00
1217.456, 32655.00
1218.536, 32542.00
1219.617, 32627.00
1220.698, 32929.00
1221.778, 32741.00
1222.859, 32972.00
1223.939, 32841.00
1225.019, 33517.00
1226.099, 32819.00
1227.178, 33222.00
1228.258, 33114.00
1229.337, 33047.00
1230.417, 33231.00
1231.496, 33177.00
1232.574, 33387.00
1233.653, 33544.00
1234.732, 33385.00
1235.810, 33898.00
1236.888, 33428.00
1237.966, 33691.00
1239.044, 33645.00
1240.122, 33548.00
1241.199, 33595.00
1242.277, 33711.00
1243.354, 33604.00
1244.431, 33843.00
1245.508, 33815.00
1246.585, 33811.00
1247.661, 33726.00
1248.738, 33754.00
1249.814, 33768.00
1250.890, 33996.00
1251.966, 33996.00
1253.042, 33847.00
1254.117, 33759.00
1255.193, 33990.00
1256.268, 33842.00
1257.343, 33907.00
1258.418, 33905.00
1259.493, 33937.00
1260.567, 33809.00
1261.642, 33793.00
1262.716, 33715.00
1263.790, 34134.00
1264.864, 33954.57
1265.938, 33898.00
1267.011, 33978.00
1268.085, 33794.00
1269.158, 33967.00
1270.231, 33860.00
1271.304, 34117.00
1272.377, 34065.00
1273.450, 33895.00
1274.522, 33919.00
1275.594, 33674.00
1276.666, 33630.00
1277.738, 33620.00
1278.810, 33917.00
1279.882, 33576.00
1280.953, 33848.00
1282.025, 33706.00
1283.096, 33522.00
1284.167, 33640.00
1285.238, 33915.00
1286.308, 33784.00
1287.379, 33942.00
1288.449, 34051.00
1289.519, 33778.00
