##NAMES=Dravite
##RRUFFID=R060280
##IDEAL CHEMISTRY=NaMg_3_Al_6_(Si_6_O_18_)(BO_3_)_3_(OH)_3_OH
##LOCALITY=near Merelani, Tanzania
##OWNER=RRUFF
##SOURCE=Herb Obodda
##DESCRIPTION=Green fragment
##STATUS=The identification of this mineral has been confirmed by X-ray diffraction and chemical analysis
##URL=rruff.info/R060280
##MEASURED CHEMISTRY=(Na_0.45_Ca_0.40_[box]_0.15_)(Mg_0.89_Al_0.07_Ti_0.04_)_3_Al_6_(BO_3_)_3_(Si_0.93_B_0.07_)_6_O_18_((OH)_0.95_O_0.05_)_4_
##PIN_ID=L01324
##ORIENTATION=Laser parallel to a* (1 0 0). Fiducial mark perpendicular to laser is parallel to c [0 0 1]
168.4860, 21879.00
169.7110, 21698.00
170.9360, 21802.00
172.1610, 21643.00
173.3850, 21835.00
174.6100, 21613.00
175.8340, 21554.00
177.0580, 21422.00
178.2820, 21543.00
179.5050, 21416.00
180.7290, 21527.00
181.9520, 21508.00
183.1760, 21875.00
184.3990, 22201.00
185.6220, 22288.00
186.8450, 22669.00
188.0670, 22877.00
189.2900, 23385.00
190.5120, 23674.00
191.7340, 23943.00
192.9560, 24313.00
194.1780, 24535.00
195.4000, 24951.00
196.6220, 25361.00
197.8430, 25853.00
199.0640, 26539.00
200.2860, 27183.00
201.5070, 27799.00
202.7270, 28560.00
203.9480, 29267.00
205.1690, 29551.00
206.3890, 30258.00
207.6090, 31134.00
208.8290, 32196.00
210.0490, 33266.00
211.2690, 33971.00
212.4890, 34719.00
213.7080, 35501.00
214.9280, 35652.00
216.1470, 35405.00
217.3660, 34763.00
218.5850, 34395.00
219.8030, 33380.00
221.0220, 32221.00
222.2400, 31236.00
223.4590, 30643.00
224.6770, 29982.00
225.8950, 29655.00
227.1120, 29262.98
228.3300, 29024.28
229.5480, 28900.00
230.7650, 28880.00
231.9820, 29042.00
233.1990, 29287.00
234.4160, 29672.00
235.6330, 30179.00
236.8490, 30430.00
238.0660, 30711.00
239.2820, 30937.00
240.4980, 31109.00
241.7140, 31372.00
242.9300, 31144.00
244.1460, 30958.00
245.3610, 30427.00
246.5770, 29856.00
247.7920, 29169.00
249.0070, 28666.85
250.2220, 28193.00
251.4370, 27634.00
252.6510, 27001.00
253.8660, 26620.00
255.0800, 26174.00
256.2940, 25930.00
257.5080, 26125.00
258.7220, 26464.00
259.9360, 26509.00
261.1490, 25994.00
262.3630, 25987.00
263.5760, 26041.00
264.7890, 26370.00
266.0020, 26678.00
267.2150, 26864.00
268.4270, 27127.00
269.6400, 27326.23
270.8520, 27498.00
272.0640, 27684.00
273.2760, 27545.00
274.4880, 27654.00
275.7000, 27463.00
276.9120, 27145.00
278.1230, 26828.00
279.3340, 26621.00
280.5450, 26502.00
281.7560, 25966.00
282.9670, 25718.00
284.1780, 25483.00
285.3880, 25574.00
286.5980, 25335.00
287.8090, 25289.00
289.0190, 25209.00
290.2290, 25233.00
291.4380, 25192.00
292.6480, 25013.00
293.8570, 25288.00
295.0670, 25371.00
296.2760, 25245.00
297.4850, 25465.00
298.6930, 25525.00
299.9020, 25433.00
301.1110, 25251.00
302.3190, 25157.00
303.5270, 25161.00
304.7350, 25248.00
305.9430, 25011.00
307.1510, 25315.00
308.3580, 25132.00
309.5660, 25136.00
310.7730, 25215.00
311.9800, 25494.00
313.1870, 25670.92
314.3940, 25978.00
315.6010, 26334.00
316.8070, 26533.00
318.0130, 27042.00
319.2200, 27157.00
320.4260, 27583.00
321.6310, 27958.00
322.8370, 28443.86
324.0430, 29128.00
325.2480, 29670.00
326.4540, 30388.00
327.6590, 31162.00
328.8640, 31958.00
330.0680, 32707.00
331.2730, 33317.00
332.4780, 34108.00
333.6820, 34999.00
334.8860, 35793.00
336.0900, 36136.00
337.2940, 36570.00
338.4980, 36924.00
339.7010, 36910.00
340.9050, 37181.00
342.1080, 37153.00
343.3110, 36783.00
344.5140, 36265.00
345.7170, 36089.00
346.9200, 35938.00
348.1220, 35982.00
349.3240, 35939.00
350.5270, 36021.00
351.7290, 36736.00
352.9310, 37478.00
354.1320, 38450.00
355.3340, 39795.00
356.5350, 41420.00
357.7370, 43196.00
358.9380, 45453.00
360.1390, 48147.00
361.3400, 50390.00
362.5400, 53280.00
363.7410, 55993.00
364.9410, 58299.00
366.1410, 60463.00
367.3410, 62280.00
368.5410, 62955.00
369.7410, 63234.00
370.9400, 62765.00
372.1400, 61252.00
373.3390, 59191.00
374.5380, 56759.00
375.7370, 54096.00
376.9360, 51281.00
378.1350, 48808.00
379.3330, 46305.00
380.5310, 44451.00
381.7300, 42420.00
382.9280, 41120.00
384.1260, 39732.00
385.3230, 38697.00
386.5210, 37574.00
387.7180, 36718.00
388.9160, 36061.00
390.1130, 35491.00
391.3100, 34814.00
392.5060, 34346.00
393.7030, 33904.00
394.9000, 33492.00
396.0960, 33188.94
397.2920, 32848.16
398.4880, 32625.00
399.6840, 32320.00
400.8800, 31965.00
402.0750, 31769.00
403.2710, 31467.00
404.4660, 31383.00
405.6610, 31243.00
406.8560, 30626.00
408.0510, 30594.00
409.2450, 30305.00
410.4400, 29835.00
411.6340, 29264.00
412.8280, 29346.00
414.0220, 29073.00
415.2160, 28883.00
416.4100, 28824.00
417.6030, 28734.00
418.7970, 28651.00
419.9900, 28434.00
421.1830, 28550.06
422.3760, 28832.00
423.5690, 28798.00
424.7610, 29102.00
425.9540, 29372.00
427.1460, 29636.00
428.3380, 29882.95
429.5300, 30076.79
430.7220, 30293.00
431.9140, 30441.00
433.1050, 30530.00
434.2970, 30728.00
435.4880, 30800.00
436.6790, 31116.00
437.8700, 31227.00
439.0610, 31136.00
440.2510, 31193.00
441.4420, 31478.00
442.6320, 31456.00
443.8220, 31771.00
445.0120, 31708.00
446.2020, 31613.00
447.3910, 31544.00
448.5810, 31573.00
449.7700, 31540.00
450.9600, 31328.00
452.1490, 30948.00
453.3370, 31153.00
454.5260, 30763.00
455.7150, 30699.00
456.9030, 30410.00
458.0910, 30398.00
459.2800, 30404.00
460.4670, 30213.00
461.6550, 30181.00
462.8430, 30010.18
464.0300, 29737.00
465.2180, 29697.00
466.4050, 29384.00
467.5920, 29295.00
468.7790, 29205.00
469.9650, 29610.00
471.1520, 29312.00
472.3380, 29493.00
473.5250, 29452.00
474.7110, 29483.00
475.8970, 29708.00
477.0820, 29776.00
478.2680, 29922.00
479.4540, 30082.00
480.6390, 30139.00
481.8240, 30351.00
483.0090, 30505.00
484.1940, 30775.00
485.3780, 31023.00
486.5630, 31363.00
487.7470, 31508.00
488.9320, 31359.00
490.1160, 32177.00
491.3000, 32087.00
492.4830, 32665.97
493.6670, 33423.00
494.8500, 33662.00
496.0340, 34217.00
497.2170, 34558.00
498.4000, 35166.00
499.5820, 35621.00
500.7650, 35914.00
501.9480, 36403.00
503.1300, 36797.00
504.3120, 36667.00
505.4940, 36651.00
506.6760, 36407.00
507.8580, 36183.07
509.0390, 35828.00
510.2210, 35543.00
511.4020, 34990.00
512.5830, 34548.00
513.7640, 34101.00
514.9450, 33554.00
516.1250, 33187.00
517.3060, 32897.00
518.4860, 32986.00
519.6660, 33115.00
520.8460, 33006.00
522.0260, 33356.00
523.2060, 33615.00
524.3850, 34195.00
525.5650, 34926.00
526.7440, 35613.00
527.9230, 36094.00
529.1020, 37127.00
530.2810, 37587.00
531.4590, 38336.00
532.6380, 38794.00
533.8160, 39322.00
534.9940, 39510.52
536.1720, 39685.00
537.3500, 39512.00
538.5270, 39334.00
539.7050, 38959.00
540.8820, 38439.93
542.0590, 37892.00
543.2360, 37103.00
544.4130, 36598.00
545.5900, 35805.00
546.7660, 35116.00
547.9430, 34373.00
549.1190, 33576.00
550.2950, 33019.00
551.4710, 32508.00
552.6470, 31686.00
553.8220, 31301.00
554.9980, 30901.00
556.1730, 30215.00
557.3480, 29876.00
558.5230, 29679.00
559.6980, 29436.00
560.8730, 28990.00
562.0470, 28594.00
563.2220, 28818.00
564.3960, 28657.00
565.5700, 28249.00
566.7440, 28035.00
567.9170, 27856.00
569.0910, 27696.19
570.2640, 28000.00
571.4380, 27594.00
572.6110, 27606.00
573.7840, 27666.00
574.9570, 27460.00
576.1290, 27307.00
577.3020, 27308.00
578.4740, 27308.00
579.6460, 27469.00
580.8180, 27539.00
581.9900, 27398.00
583.1620, 27626.00
584.3330, 27755.00
585.5040, 27805.00
586.6760, 27670.00
587.8470, 27846.00
589.0180, 27879.00
590.1880, 28017.00
591.3590, 28086.00
592.5290, 28257.00
593.7000, 28248.00
594.8700, 28518.00
596.0400, 28744.00
597.2090, 28765.00
598.3790, 28772.00
599.5490, 29112.00
600.7180, 29155.00
601.8870, 29328.00
603.0560, 29243.00
604.2250, 29246.00
605.3940, 29689.00
606.5620, 29642.00
607.7300, 29622.00
608.8990, 29784.00
610.0670, 29699.00
611.2350, 30037.00
612.4020, 30046.00
613.5700, 30442.00
614.7370, 30668.00
615.9050, 30433.00
617.0720, 30995.00
618.2390, 31250.00
619.4060, 31742.00
620.5720, 32085.00
621.7390, 32529.00
622.9050, 32914.45
624.0710, 33465.00
625.2370, 33568.00
626.4030, 33970.00
627.5690, 34077.00
628.7340, 33567.00
629.9000, 33063.00
631.0650, 32487.00
632.2300, 31938.00
633.3950, 30967.00
634.5600, 30425.00
635.7240, 29469.00
636.8890, 28811.00
638.0530, 28532.00
639.2170, 28135.00
640.3810, 27662.00
641.5450, 27398.00
642.7080, 27191.00
643.8720, 27320.00
645.0350, 27305.00
646.1980, 27334.00
647.3610, 27357.00
648.5240, 27748.00
649.6870, 27790.00
650.8490, 27893.00
652.0120, 28406.00
653.1740, 28621.00
654.3360, 28637.00
655.4980, 29285.00
656.6600, 29526.00
657.8210, 29676.00
658.9830, 29968.00
660.1440, 30059.00
661.3050, 30484.00
662.4660, 30648.00
663.6270, 30886.00
664.7870, 31279.00
665.9480, 31080.00
667.1080, 31479.00
668.2680, 31285.00
669.4280, 31305.00
670.5880, 31165.00
671.7480, 31066.00
672.9070, 31162.00
674.0670, 30867.00
675.2260, 31085.00
676.3850, 30456.00
677.5440, 30525.00
678.7030, 30534.00
679.8610, 30520.00
681.0200, 30590.00
682.1780, 30611.40
683.3360, 30649.00
684.4940, 30759.00
685.6520, 30978.00
686.8090, 31171.00
687.9670, 31927.00
689.1240, 32145.00
690.2810, 32910.00
691.4380, 33813.00
692.5950, 34630.00
693.7520, 36009.00
694.9080, 36982.00
696.0650, 38495.00
697.2210, 39874.00
698.3770, 41101.00
699.5330, 42546.00
700.6880, 44178.00
701.8440, 45618.00
702.9990, 46821.00
704.1550, 48065.00
705.3100, 48742.00
706.4650, 48667.00
707.6190, 48656.00
708.7740, 48203.00
709.9290, 46749.00
711.0830, 45583.00
712.2370, 43806.00
713.3910, 42035.00
714.5450, 39918.00
715.6980, 38439.00
716.8520, 36905.00
718.0050, 35529.00
719.1580, 34618.00
720.3110, 33224.00
721.4640, 32757.00
722.6170, 31928.00
723.7700, 31601.00
724.9220, 31197.00
726.0740, 30705.00
727.2260, 30913.00
728.3780, 30742.00
729.5300, 30883.00
730.6810, 30872.00
731.8330, 30984.00
732.9840, 31339.00
734.1350, 31493.00
735.2860, 31852.00
736.4370, 32367.00
737.5880, 32715.00
738.7380, 33109.00
739.8880, 33867.00
741.0390, 34553.00
742.1890, 35497.00
743.3380, 36697.00
744.4880, 37790.00
745.6380, 38977.00
746.7870, 40688.00
747.9360, 42612.00
749.0850, 44132.00
750.2340, 45974.00
751.3830, 48231.00
752.5310, 50163.00
753.6800, 52439.00
754.8280, 54669.00
755.9760, 56038.00
757.1240, 57729.00
758.2720, 58541.00
759.4190, 59010.00
760.5670, 58867.00
761.7140, 57958.00
762.8610, 56666.00
764.0080, 55113.00
765.1550, 53641.00
766.3020, 51992.00
767.4480, 50379.00
768.5950, 48998.00
769.7410, 47715.00
770.8870, 46356.00
772.0330, 45782.00
773.1780, 45292.00
774.3240, 44348.00
775.4690, 43408.00
776.6140, 43017.00
777.7590, 42598.00
778.9040, 42252.00
780.0490, 41700.00
781.1940, 41739.00
782.3380, 41209.00
783.4820, 41150.00
784.6260, 41361.00
785.7700, 41311.00
786.9140, 41114.00
788.0580, 41152.00
789.2010, 41076.00
790.3450, 41513.00
791.4880, 41237.00
792.6310, 41430.00
793.7730, 41323.00
794.9160, 41191.00
796.0590, 41522.00
797.2010, 41120.00
798.3430, 40714.00
799.4850, 41018.00
800.6270, 40961.00
801.7690, 41069.00
802.9100, 41327.00
804.0520, 41779.00
805.1930, 42393.00
806.3340, 42961.00
807.4750, 43960.00
808.6160, 45073.00
809.7560, 46501.00
810.8970, 47514.00
812.0370, 49091.00
813.1770, 50355.00
814.3170, 51551.00
815.4570, 52381.00
816.5960, 53370.00
817.7360, 53711.00
818.8750, 54088.00
820.0140, 53559.00
821.1530, 52907.00
822.2920, 52381.00
823.4310, 51073.00
824.5690, 50012.00
825.7070, 48614.00
826.8460, 47216.00
827.9840, 45546.00
829.1220, 44116.00
830.2590, 42451.00
831.3970, 41235.00
832.5340, 39715.00
833.6710, 38248.00
834.8080, 37104.00
835.9450, 35888.00
837.0820, 34842.00
838.2190, 34018.00
839.3550, 32780.00
840.4910, 32126.00
841.6270, 30835.00
842.7630, 30093.00
843.8990, 28977.00
845.0350, 28390.00
846.1700, 27581.00
847.3060, 27008.00
848.4410, 26506.00
849.5760, 25733.00
850.7100, 25047.00
851.8450, 24816.00
852.9800, 24373.00
854.1140, 24162.00
855.2480, 24038.00
856.3820, 23794.00
857.5160, 23799.00
858.6500, 23615.00
859.7830, 23527.54
860.9170, 23425.00
862.0500, 23350.00
863.1830, 23290.00
864.3160, 23192.00
865.4480, 22966.00
866.5810, 22592.00
867.7130, 22641.00
868.8460, 22310.00
869.9780, 22117.00
871.1100, 22242.00
872.2410, 22118.00
873.3730, 22127.00
874.5050, 22012.00
875.6360, 21944.00
876.7670, 21998.00
877.8980, 21961.00
879.0290, 21946.00
880.1590, 22139.00
881.2900, 22018.00
882.4200, 21935.00
883.5500, 22119.00
884.6800, 22176.00
885.8100, 22140.00
886.9400, 22042.00
888.0690, 22121.00
889.1990, 22272.00
890.3280, 22097.00
891.4570, 22625.00
892.5860, 22379.00
893.7140, 22473.00
894.8430, 22532.00
895.9710, 22544.00
897.1000, 22622.00
898.2280, 22644.00
899.3560, 22903.00
900.4830, 22948.00
901.6110, 22832.00
902.7380, 23132.00
903.8660, 22960.00
904.9930, 23161.00
906.1200, 23163.00
907.2460, 23326.00
908.3730, 23326.00
909.5000, 23260.00
910.6260, 23423.00
911.7520, 23380.00
912.8780, 23620.00
914.0040, 23463.00
915.1290, 23616.00
916.2550, 23719.00
917.3800, 23473.00
918.5050, 23670.00
919.6300, 23697.00
920.7550, 23547.00
921.8800, 23706.00
923.0040, 23808.00
924.1290, 23678.00
925.2530, 23814.00
926.3770, 23763.00
927.5010, 23852.00
928.6250, 23874.00
929.7480, 23878.98
930.8720, 23958.00
931.9950, 23922.00
933.1180, 24008.00
934.2410, 24058.00
935.3640, 24047.00
936.4860, 24186.00
937.6090, 24118.00
938.7310, 24243.00
939.8530, 24012.00
940.9750, 24345.00
942.0970, 24230.00
943.2180, 24402.00
944.3400, 24536.00
945.4610, 24590.00
946.5820, 24615.00
947.7030, 24732.00
948.8240, 24739.00
949.9450, 24907.00
951.0650, 25010.00
952.1860, 25194.00
953.3060, 25273.00
954.4260, 25277.00
955.5460, 25355.00
956.6650, 25421.00
957.7850, 25525.31
958.9040, 25672.93
960.0230, 25804.00
961.1420, 25986.00
962.2610, 26179.00
963.3800, 26288.00
964.4990, 26491.52
965.6170, 26575.00
966.7350, 26822.00
967.8530, 26905.00
968.9710, 27010.00
970.0890, 27022.00
971.2070, 27321.00
972.3240, 27287.00
973.4410, 27253.00
974.5580, 27435.00
975.6750, 27326.00
976.7920, 27664.00
977.9090, 27504.00
979.0250, 27559.00
980.1410, 27389.00
981.2580, 27429.00
982.3740, 27474.00
983.4890, 27284.00
984.6050, 27403.00
985.7200, 27209.00
986.8360, 27089.00
987.9510, 27001.00
989.0660, 26999.00
990.1810, 26757.00
991.2950, 26736.00
992.4100, 26606.00
993.5240, 26565.00
994.6390, 26638.00
995.7530, 26594.00
996.8660, 26380.00
997.9800, 26748.00
999.0940, 26545.00
1000.207, 27074.00
1001.320, 27473.00
1002.433, 27822.00
1003.546, 27718.00
1004.659, 27643.00
1005.772, 27317.00
1006.884, 26858.00
1007.996, 26659.00
1009.108, 27000.00
1010.220, 27010.00
1011.332, 27267.00
1012.444, 27570.00
1013.555, 27645.00
1014.666, 28117.00
1015.777, 28368.00
1016.888, 28684.00
1017.999, 28971.00
1019.110, 29405.00
1020.220, 29709.00
1021.331, 30096.46
1022.441, 30547.00
1023.551, 30883.00
1024.661, 31378.00
1025.770, 31827.00
1026.880, 31933.00
1027.989, 32081.00
1029.098, 32449.00
1030.207, 32605.00
1031.316, 33317.00
1032.425, 33571.00
1033.533, 34107.00
1034.642, 34579.00
1035.750, 34843.00
1036.858, 35428.00
1037.966, 35695.00
1039.073, 36123.00
1040.181, 37058.00
1041.288, 37415.00
1042.396, 37880.00
1043.503, 38447.00
1044.610, 38783.00
1045.716, 39519.00
1046.823, 39881.00
1047.929, 40032.00
1049.036, 40185.00
1050.142, 40810.00
1051.248, 40638.00
1052.353, 40894.00
1053.459, 40961.00
1054.564, 40894.00
1055.670, 41273.00
1056.775, 41413.00
1057.880, 41865.00
1058.985, 41946.00
1060.089, 42429.00
1061.194, 42776.63
1062.298, 43175.87
1063.402, 43555.00
1064.506, 44162.00
1065.610, 44494.00
1066.713, 45063.00
1067.817, 45533.00
1068.920, 46239.00
1070.023, 46679.00
1071.126, 46791.00
1072.229, 47338.00
1073.332, 47001.00
1074.435, 46851.00
1075.537, 46802.00
1076.639, 46264.00
1077.741, 45683.00
1078.843, 44838.00
1079.945, 44220.00
1081.046, 43127.00
1082.148, 42683.00
1083.249, 41696.00
1084.350, 40716.00
1085.451, 39503.00
1086.551, 38397.00
1087.652, 37358.00
1088.752, 36256.00
1089.853, 35182.00
1090.953, 34199.00
1092.053, 33295.32
1093.152, 32723.00
1094.252, 31767.00
1095.351, 31013.00
1096.451, 30577.00
1097.550, 29659.00
1098.649, 29350.00
1099.748, 28846.00
1100.846, 28302.00
1101.945, 28048.00
1103.043, 27586.00
1104.141, 27006.00
1105.239, 26793.00
1106.337, 26268.00
1107.434, 26111.00
1108.532, 26141.00
1109.629, 25710.00
1110.726, 25380.00
1111.823, 25305.00
1112.920, 24814.00
1114.017, 24810.00
1115.113, 24600.00
1116.210, 24218.00
1117.306, 24073.00
1118.402, 23852.68
1119.498, 23806.00
1120.593, 23601.00
1121.689, 23526.00
1122.784, 23595.00
1123.879, 23036.00
1124.974, 23140.00
1126.069, 23096.00
1127.164, 22731.00
1128.259, 22745.00
1129.353, 22741.00
1130.447, 22544.00
1131.541, 22537.00
1132.635, 22478.00
1133.729, 22263.00
1134.822, 22042.00
1135.916, 22071.00
1137.009, 22082.00
1138.102, 21830.00
1139.195, 21960.00
1140.288, 21549.00
1141.380, 21553.00
1142.473, 21539.00
1143.565, 21317.00
1144.657, 21354.00
1145.749, 21370.00
1146.841, 21252.00
1147.932, 21406.00
1149.024, 21231.00
1150.115, 21237.00
1151.206, 21184.00
1152.297, 21155.00
1153.388, 21120.00
1154.479, 21132.00
1155.569, 21125.00
1156.659, 21165.00
1157.750, 21078.00
1158.839, 20981.00
1159.929, 20869.00
1161.019, 21100.00
1162.108, 21050.00
1163.198, 21164.00
1164.287, 20976.00
1165.376, 20862.00
1166.465, 20993.00
1167.553, 21105.00
1168.642, 21042.00
1169.730, 20913.00
1170.818, 20981.00
1171.906, 21025.00
1172.994, 20960.00
1174.082, 21068.00
1175.170, 21039.00
1176.257, 20981.00
1177.344, 20970.00
1178.431, 21001.00
1179.518, 20977.00
1180.605, 20915.00
1181.691, 20920.86
1182.778, 20884.00
1183.864, 20889.00
1184.950, 20903.00
1186.036, 20919.32
1187.122, 20962.00
1188.207, 20908.00
1189.292, 20961.00
1190.378, 20957.00
1191.463, 21015.00
1192.548, 20795.00
1193.632, 20883.00
1194.717, 20763.00
1195.801, 20924.00
1196.886, 21084.00
1197.970, 20810.00
1199.054, 21013.00
1200.137, 20951.00
1201.221, 21021.00
1202.305, 21089.00
1203.388, 21084.00
1204.471, 21146.00
1205.554, 21133.62
1206.637, 21165.00
1207.719, 21106.00
1208.802, 21164.00
1209.884, 21152.00
1210.966, 21322.00
1212.048, 21445.00
1213.130, 21382.00
1214.212, 21643.00
1215.293, 21607.00
1216.374, 21871.00
1217.456, 21944.00
1218.536, 21594.00
1219.617, 21818.00
1220.698, 21923.00
1221.778, 21863.00
1222.859, 22153.00
1223.939, 22145.00
1225.019, 22132.00
1226.099, 22156.00
1227.178, 22410.00
1228.258, 22433.00
1229.337, 22507.00
1230.417, 22551.00
1231.496, 22643.00
1232.574, 22899.00
1233.653, 23150.00
1234.732, 22964.00
1235.810, 22878.00
1236.888, 22888.00
1237.966, 23107.00
1239.044, 23149.00
1240.122, 23124.00
1241.199, 23188.65
1242.277, 23221.86
1243.354, 23092.00
1244.431, 23285.00
1245.508, 23117.00
1246.585, 23045.00
1247.661, 23170.00
1248.738, 23067.00
1249.814, 22934.00
1250.890, 23184.00
1251.966, 23257.00
1253.042, 22798.00
1254.117, 23034.00
1255.193, 23016.00
1256.268, 22840.00
1257.343, 23141.00
1258.418, 23089.00
1259.493, 23046.00
1260.567, 22883.00
1261.642, 23131.00
1262.716, 23260.00
1263.790, 23259.00
1264.864, 23328.00
1265.938, 23361.06
1267.011, 23366.00
1268.085, 23409.00
1269.158, 23403.00
1270.231, 23442.00
1271.304, 23404.00
1272.377, 23395.00
1273.450, 23298.00
1274.522, 23335.00
1275.594, 23285.00
1276.666, 23272.00
1277.738, 23254.00
1278.810, 23397.00
1279.882, 23258.00
1280.953, 23128.00
1282.025, 23186.00
1283.096, 23017.00
1284.167, 23258.00
1285.238, 22876.00
1286.308, 22952.00
1287.379, 23066.00
1288.449, 22932.00
1289.519, 23057.00
1290.589, 23055.00
1291.659, 23084.00
1292.729, 23155.00
1293.798, 23006.00
1294.868, 23202.00
1295.937, 23293.00
1297.006, 23180.00
1298.075, 23104.00
1299.143, 22891.00
1300.212, 23123.00
1301.280, 22877.00
1302.348, 22985.00
1303.416, 23166.00
1304.484, 22877.00
1305.552, 23009.00
1306.620, 23113.00
1307.687, 22941.00
1308.754, 23081.00
1309.821, 23135.00
1310.888, 23142.00
1311.955, 23110.00
1313.021, 23115.25
1314.088, 23049.00
1315.154, 23076.00
1316.220, 23114.00
1317.286, 23123.00
1318.352, 23010.00
1319.417, 23008.46
1320.483, 22952.41
1321.548, 22898.00
1322.613, 22897.00
1323.678, 22857.00
1324.743, 22918.00
1325.807, 22844.49
1326.872, 22693.00
1327.936, 22692.00
1329.000, 22535.00
1330.064, 22352.00
1331.128, 22247.00
1332.191, 22348.00
1333.255, 22195.00
1334.318, 22208.00
1335.381, 22137.00
1336.444, 21952.00
