##NAMES=Dravite
##RRUFFID=R060534
##IDEAL CHEMISTRY=NaMg_3_Al_6_(Si_6_O_18_)(BO_3_)_3_(OH)_3_OH
##LOCALITY=Sri Lanka
##OWNER=RRUFF
##SOURCE=Gemological Institute of America
##DESCRIPTION=Black trigonal prism
##STATUS=The identification of this mineral has been confirmed by X-ray diffraction and chemical analysis
##URL=rruff.info/R060534
##MEASURED CHEMISTRY=(Na_0.79_Ca_0.21_)(Mg_0.68_Fe^2+^_0.29_Ti_0.02_Al_0.01_)_3_Al_6.00_(BO_3_)_3_(Si_0.95_Al_005_)_6.00_O_18_(OH)_4_
##PIN_ID=L01032
##ORIENTATION=Laser parallel to c* (0 0 1). Fiducial mark perpendicular to laser is parallel to a [1 0 0]
297.4850, 24948.60
298.6930, 24886.00
299.9020, 24939.00
301.1110, 24960.00
302.3190, 24959.00
303.5270, 24983.31
304.7350, 24967.32
305.9430, 24976.00
307.1510, 25014.00
308.3580, 24972.00
309.5660, 25161.00
310.7730, 24998.00
311.9800, 25210.00
313.1870, 25053.00
314.3940, 25240.00
315.6010, 25380.00
316.8070, 25741.00
318.0130, 25926.00
319.2200, 25893.00
320.4260, 26166.00
321.6310, 26171.00
322.8370, 26385.00
324.0430, 26632.00
325.2480, 26801.00
326.4540, 27041.00
327.6590, 27310.00
328.8640, 27492.00
330.0680, 27700.00
331.2730, 27884.00
332.4780, 28089.00
333.6820, 28178.60
334.8860, 28168.00
336.0900, 28308.00
337.2940, 28329.00
338.4980, 28334.42
339.7010, 28344.83
340.9050, 28258.00
342.1080, 28278.00
343.3110, 28264.00
344.5140, 28245.00
345.7170, 28497.00
346.9200, 28407.00
348.1220, 28652.00
349.3240, 28738.00
350.5270, 28574.00
351.7290, 28609.00
352.9310, 28955.00
354.1320, 28893.00
355.3340, 29102.00
356.5350, 29389.00
357.7370, 29390.00
358.9380, 29686.00
360.1390, 30072.00
361.3400, 30348.00
362.5400, 30686.00
363.7410, 30953.00
364.9410, 31644.00
366.1410, 31938.00
367.3410, 32350.00
368.5410, 32207.00
369.7410, 32546.00
370.9400, 32420.00
372.1400, 32230.00
373.3390, 32382.00
374.5380, 31899.00
375.7370, 31988.00
376.9360, 32269.00
378.1350, 31250.00
379.3330, 30999.00
380.5310, 30689.00
381.7300, 30625.00
382.9280, 30292.00
384.1260, 30143.00
385.3230, 30030.00
386.5210, 29854.00
387.7180, 29559.00
388.9160, 29472.00
390.1130, 29221.00
391.3100, 28912.00
392.5060, 28971.00
393.7030, 28688.00
394.9000, 28444.00
396.0960, 28413.00
397.2920, 28233.00
398.4880, 27876.00
399.6840, 28034.00
400.8800, 27813.00
402.0750, 27842.00
403.2710, 27594.00
404.4660, 27648.00
405.6610, 27538.00
406.8560, 27613.00
408.0510, 27434.00
409.2450, 27172.00
410.4400, 27211.00
411.6340, 27037.00
412.8280, 27014.60
414.0220, 27113.00
415.2160, 26914.00
416.4100, 26937.00
417.6030, 26711.00
418.7970, 26623.00
419.9900, 26673.00
421.1830, 26364.00
422.3760, 26310.00
423.5690, 26518.00
424.7610, 26200.00
425.9540, 26308.00
427.1460, 26440.54
428.3380, 26397.00
429.5300, 26400.00
430.7220, 26249.33
431.9140, 26014.00
433.1050, 25879.00
434.2970, 25784.00
435.4880, 25696.00
436.6790, 25767.00
437.8700, 25633.00
439.0610, 25789.00
440.2510, 25729.00
441.4420, 25771.00
442.6320, 25786.00
443.8220, 25785.00
445.0120, 25617.00
446.2020, 25889.00
447.3910, 25689.00
448.5810, 26061.00
449.7700, 25808.00
450.9600, 25710.00
452.1490, 25829.00
453.3370, 25974.00
454.5260, 25756.00
455.7150, 25821.00
456.9030, 26009.00
458.0910, 25929.00
459.2800, 25903.00
460.4670, 25950.00
461.6550, 26021.00
462.8430, 26034.00
464.0300, 26474.00
465.2180, 25989.00
466.4050, 26424.00
467.5920, 26317.00
468.7790, 26238.00
469.9650, 26568.00
471.1520, 26586.00
472.3380, 26640.00
473.5250, 26668.00
474.7110, 26694.00
475.8970, 26810.00
477.0820, 26730.00
478.2680, 27177.00
479.4540, 27107.00
480.6390, 27139.00
481.8240, 27130.00
483.0090, 27458.00
484.1940, 27471.35
485.3780, 27673.00
486.5630, 27582.00
487.7470, 27662.06
488.9320, 27747.00
490.1160, 27724.00
491.3000, 27630.00
492.4830, 27702.00
493.6670, 27662.00
494.8500, 27843.00
496.0340, 27569.00
497.2170, 27533.00
498.4000, 27783.00
499.5820, 27563.00
500.7650, 27617.00
501.9480, 27524.00
503.1300, 27587.00
504.3120, 27271.00
505.4940, 27329.00
506.6760, 27486.00
507.8580, 27267.00
509.0390, 27353.00
510.2210, 27389.00
511.4020, 27153.00
512.5830, 27060.00
513.7640, 27050.19
514.9450, 27072.00
516.1250, 27118.00
517.3060, 27192.00
518.4860, 27460.00
519.6660, 27461.00
520.8460, 27381.00
522.0260, 27711.00
523.2060, 27512.00
524.3850, 27753.00
525.5650, 27745.00
526.7440, 27905.00
527.9230, 27747.00
529.1020, 28143.00
530.2810, 27926.00
531.4590, 28299.00
532.6380, 28384.00
533.8160, 28671.00
534.9940, 28535.00
536.1720, 28362.00
537.3500, 28350.00
538.5270, 28614.00
539.7050, 28534.00
540.8820, 28531.00
542.0590, 28657.00
543.2360, 28682.00
544.4130, 28706.00
545.5900, 28656.00
546.7660, 28564.00
547.9430, 28567.61
549.1190, 28437.00
550.2950, 28443.00
551.4710, 28487.47
552.6470, 28292.21
553.8220, 28489.00
554.9980, 28215.00
556.1730, 28084.00
557.3480, 28171.00
558.5230, 28070.00
559.6980, 28035.00
560.8730, 27887.00
562.0470, 27799.00
563.2220, 27593.00
564.3960, 27525.80
565.5700, 27459.00
566.7440, 27415.00
567.9170, 27479.00
569.0910, 27577.00
570.2640, 27344.00
571.4380, 27628.00
572.6110, 27492.00
573.7840, 27403.00
574.9570, 27285.00
576.1290, 27250.00
577.3020, 26864.60
578.4740, 27022.85
579.6460, 27095.31
580.8180, 27086.60
581.9900, 26753.59
583.1620, 26839.35
584.3330, 26757.31
585.5040, 26668.39
586.6760, 26813.09
587.8470, 26527.28
589.0180, 26668.30
590.1880, 26638.97
591.3590, 26687.59
592.5290, 26509.00
593.7000, 26633.00
594.8700, 26627.00
596.0400, 26484.00
597.2090, 26634.00
598.3790, 26496.00
599.5490, 26306.00
600.7180, 26352.00
601.8870, 26335.00
603.0560, 26232.00
604.2250, 26068.00
605.3940, 26204.00
606.5620, 26151.00
607.7300, 26105.00
608.8990, 26147.00
610.0670, 26146.83
611.2350, 26154.00
612.4020, 26149.00
613.5700, 26188.00
614.7370, 26020.00
615.9050, 26207.00
617.0720, 26182.00
618.2390, 25995.00
619.4060, 26189.00
620.5720, 26080.00
621.7390, 25951.00
622.9050, 25728.00
624.0710, 25707.00
625.2370, 25896.00
626.4030, 25931.00
627.5690, 25793.00
628.7340, 25650.00
629.9000, 25374.00
631.0650, 25240.00
632.2300, 25326.00
633.3950, 25169.00
634.5600, 25134.00
635.7240, 25050.00
636.8890, 25036.00
638.0530, 24871.00
639.2170, 25004.00
640.3810, 24776.00
641.5450, 25085.00
642.7080, 25144.00
643.8720, 24923.00
645.0350, 24895.00
646.1980, 25012.00
647.3610, 25040.00
648.5240, 25025.00
649.6870, 25334.00
650.8490, 25386.00
652.0120, 25408.00
653.1740, 25484.00
654.3360, 25597.00
655.4980, 25691.05
656.6600, 25731.00
657.8210, 25932.00
658.9830, 26083.00
660.1440, 26173.00
661.3050, 26256.00
662.4660, 26364.57
663.6270, 26452.00
664.7870, 26293.00
665.9480, 26523.00
667.1080, 25969.09
668.2680, 26206.00
669.4280, 25979.00
670.5880, 25896.00
671.7480, 25797.00
672.9070, 25661.00
674.0670, 25606.00
675.2260, 25504.00
676.3850, 25371.00
677.5440, 25378.00
678.7030, 25189.00
679.8610, 25280.00
681.0200, 25499.00
682.1780, 25344.00
683.3360, 25259.00
684.4940, 25712.00
685.6520, 25319.00
686.8090, 25591.00
687.9670, 25700.00
689.1240, 25995.00
690.2810, 25945.00
691.4380, 26222.00
692.5950, 26420.00
693.7520, 26384.00
694.9080, 26553.00
696.0650, 26770.00
697.2210, 26966.00
698.3770, 27054.00
699.5330, 27273.00
700.6880, 27606.00
701.8440, 27529.00
702.9990, 28185.00
704.1550, 28346.00
705.3100, 28378.00
706.4650, 28824.00
707.6190, 29187.00
708.7740, 29259.00
709.9290, 29707.00
711.0830, 30172.00
712.2370, 30592.00
713.3910, 31069.00
714.5450, 31142.00
715.6980, 31595.00
716.8520, 31856.00
718.0050, 32314.00
719.1580, 32533.00
720.3110, 32723.00
721.4640, 32772.00
722.6170, 32768.00
723.7700, 32728.00
724.9220, 32915.00
726.0740, 32870.00
727.2260, 33027.00
728.3780, 32994.00
729.5300, 33069.00
730.6810, 33549.00
731.8330, 33860.00
732.9840, 33998.00
734.1350, 34330.00
735.2860, 34408.00
736.4370, 34975.00
737.5880, 35648.00
738.7380, 35901.00
739.8880, 36292.00
741.0390, 36778.00
742.1890, 37072.16
743.3380, 37490.45
744.4880, 37793.00
745.6380, 38073.00
746.7870, 38282.95
747.9360, 38365.00
749.0850, 38555.00
750.2340, 38521.00
751.3830, 38576.00
752.5310, 38992.00
753.6800, 39045.00
754.8280, 39284.00
755.9760, 39153.00
757.1240, 39587.00
758.2720, 39679.00
759.4190, 40216.00
760.5670, 40478.00
761.7140, 40510.00
762.8610, 40891.00
764.0080, 40958.00
765.1550, 40671.00
766.3020, 40547.00
767.4480, 40480.00
768.5950, 40465.00
769.7410, 40454.60
770.8870, 40289.00
772.0330, 40692.00
773.1780, 40738.00
774.3240, 41216.00
775.4690, 41357.00
776.6140, 41540.00
777.7590, 41706.00
778.9040, 41421.00
780.0490, 41318.00
781.1940, 40767.00
782.3380, 40145.00
783.4820, 39413.00
784.6260, 38433.00
785.7700, 37410.00
786.9140, 36223.34
788.0580, 34973.00
789.2010, 33678.00
790.3450, 32555.00
791.4880, 31464.00
792.6310, 30368.00
793.7730, 29661.00
794.9160, 28774.00
796.0590, 28248.00
797.2010, 27775.00
798.3430, 27307.84
799.4850, 26931.09
800.6270, 26832.00
801.7690, 26387.00
802.9100, 26489.00
804.0520, 26566.00
805.1930, 26265.00
806.3340, 26219.00
807.4750, 26095.00
808.6160, 25867.00
809.7560, 25880.00
810.8970, 25428.00
812.0370, 25532.00
813.1770, 25207.00
814.3170, 24735.00
815.4570, 24645.00
816.5960, 24563.00
817.7360, 24373.00
818.8750, 24239.71
820.0140, 23895.00
821.1530, 23840.00
822.2920, 23656.00
823.4310, 23358.00
824.5690, 23525.00
825.7070, 23402.00
826.8460, 23579.00
827.9840, 23500.00
829.1220, 23446.00
830.2590, 23193.00
831.3970, 23374.00
832.5340, 23288.00
833.6710, 23234.00
834.8080, 23216.00
835.9450, 23257.00
837.0820, 23225.00
838.2190, 23255.68
839.3550, 23245.32
840.4910, 23244.00
841.6270, 23221.00
842.7630, 23092.00
843.8990, 22862.89
845.0350, 23060.26
846.1700, 23171.85
847.3060, 23202.26
848.4410, 22908.37
849.5760, 23033.24
850.7100, 22990.29
851.8450, 22940.46
852.9800, 23124.28
854.1140, 22877.56
855.2480, 23057.66
856.3820, 23067.39
857.5160, 23155.09
858.6500, 23073.94
859.7830, 23044.94
860.9170, 23184.85
862.0500, 23231.24
863.1830, 23219.00
864.3160, 23225.00
865.4480, 23140.00
866.5810, 23025.00
867.7130, 23387.00
868.8460, 23208.00
869.9780, 23324.00
871.1100, 23087.00
872.2410, 23262.00
873.3730, 23218.00
874.5050, 23427.00
875.6360, 23161.00
876.7670, 23272.00
877.8980, 23334.00
879.0290, 23333.00
880.1590, 23442.00
881.2900, 23596.00
882.4200, 23392.00
883.5500, 23626.00
884.6800, 23534.00
885.8100, 23701.00
886.9400, 23504.00
888.0690, 23478.00
889.1990, 23546.00
890.3280, 23777.00
891.4570, 23821.00
892.5860, 23762.00
893.7140, 23889.00
894.8430, 23891.00
895.9710, 23872.00
897.1000, 24084.00
898.2280, 23902.00
899.3560, 24016.00
900.4830, 24195.00
901.6110, 23999.00
902.7380, 24305.00
903.8660, 24278.00
904.9930, 24317.24
906.1200, 24465.00
907.2460, 24390.00
908.3730, 24466.00
909.5000, 24448.00
910.6260, 24404.00
911.7520, 24379.00
912.8780, 24599.00
914.0040, 24519.00
915.1290, 24664.00
916.2550, 24737.00
917.3800, 24616.00
918.5050, 24755.00
919.6300, 24877.00
920.7550, 25012.00
921.8800, 24807.00
923.0040, 25128.00
924.1290, 25120.00
925.2530, 25092.00
926.3770, 25296.00
927.5010, 25283.00
928.6250, 25239.00
929.7480, 25351.00
930.8720, 25326.00
931.9950, 25398.00
933.1180, 25586.00
934.2410, 25760.00
935.3640, 25627.00
936.4860, 25821.00
937.6090, 25917.00
938.7310, 25691.53
939.8530, 25955.30
940.9750, 26133.29
942.0970, 26230.12
943.2180, 26002.57
944.3400, 26193.86
945.4610, 26217.26
946.5820, 26233.78
947.7030, 26483.95
948.8240, 26303.58
949.9450, 26550.04
951.0650, 26626.06
952.1860, 26780.11
953.3060, 26765.25
954.4260, 26802.54
955.5460, 27008.75
956.6650, 27121.37
957.7850, 27087.07
958.9040, 27245.96
960.0230, 27059.57
961.1420, 27160.35
962.2610, 27193.00
963.3800, 27172.00
964.4990, 27414.00
965.6170, 27225.00
966.7350, 27278.00
967.8530, 27166.00
968.9710, 27407.00
970.0890, 27322.00
971.2070, 27247.00
972.3240, 27588.00
973.4410, 27619.00
974.5580, 27649.00
975.6750, 27702.00
976.7920, 28027.00
977.9090, 27621.00
979.0250, 27792.00
980.1410, 27517.00
981.2580, 27846.00
982.3740, 27878.00
983.4890, 27938.00
984.6050, 27831.00
985.7200, 27831.00
986.8360, 28004.00
987.9510, 28171.00
989.0660, 28032.00
990.1810, 28288.00
991.2950, 28141.00
992.4100, 28270.00
993.5240, 27965.00
994.6390, 28278.00
995.7530, 27925.00
996.8660, 28275.00
997.9800, 28417.00
999.0940, 28323.00
1000.207, 28286.00
1001.320, 28522.00
1002.433, 28785.00
1003.546, 28142.00
1004.659, 28332.00
1005.772, 28137.00
1006.884, 28352.00
1007.996, 28153.00
1009.108, 28216.00
1010.220, 28251.00
1011.332, 28282.00
1012.444, 28361.00
1013.555, 28401.00
1014.666, 28436.27
1015.777, 28529.00
1016.888, 28445.00
1017.999, 28453.00
1019.110, 28340.00
1020.220, 28280.00
1021.331, 28496.00
1022.441, 28739.00
1023.551, 28856.00
1024.661, 28832.00
1025.770, 28650.00
1026.880, 28676.00
1027.989, 28770.00
1029.098, 29019.00
1030.207, 29135.00
1031.316, 28985.00
1032.425, 29193.00
1033.533, 29242.00
1034.642, 28935.00
1035.750, 29231.00
1036.858, 29642.00
1037.966, 29405.00
1039.073, 29605.00
1040.181, 29639.00
1041.288, 29813.00
1042.396, 29870.00
1043.503, 30028.00
1044.610, 30013.00
1045.716, 30181.00
1046.823, 30315.63
1047.929, 30538.78
1049.036, 30676.17
1050.142, 30732.36
1051.248, 30464.25
1052.353, 30614.88
1053.459, 30597.71
1054.564, 30573.64
1055.670, 30783.24
1056.775, 30562.28
1057.880, 30768.15
1058.985, 30803.63
1060.089, 30917.07
1061.194, 30861.67
1062.298, 30696.00
1063.402, 30663.00
1064.506, 30705.00
1065.610, 30508.00
1066.713, 30612.00
1067.817, 30446.00
1068.920, 30559.00
1070.023, 30242.00
1071.126, 30138.00
1072.229, 30099.00
1073.332, 29938.00
1074.435, 29857.08
1075.537, 29715.77
1076.639, 29612.00
1077.741, 29450.00
1078.843, 29268.00
1079.945, 29205.00
1081.046, 29050.00
1082.148, 28769.00
1083.249, 28774.00
1084.350, 28852.00
1085.451, 28642.00
1086.551, 28716.00
1087.652, 28454.00
1088.752, 28587.00
1089.853, 28472.00
1090.953, 28176.00
1092.053, 28422.00
1093.152, 28275.00
1094.252, 28284.00
1095.351, 28377.00
1096.451, 28105.00
1097.550, 28286.00
1098.649, 28277.00
1099.748, 28117.00
1100.846, 28339.00
1101.945, 28253.00
1103.043, 28179.00
1104.141, 28316.00
1105.239, 28170.00
1106.337, 28222.00
1107.434, 28108.00
1108.532, 28134.00
1109.629, 28126.00
1110.726, 27970.00
1111.823, 27929.39
1112.920, 27896.97
1114.017, 27881.72
1115.113, 27882.00
1116.210, 27957.00
1117.306, 28026.00
1118.402, 28102.00
1119.498, 27980.00
1120.593, 28050.32
1121.689, 28001.00
1122.784, 28049.00
1123.879, 27972.00
1124.974, 27967.77
1126.069, 27631.00
1127.164, 27726.00
1128.259, 27557.00
1129.353, 27398.00
1130.447, 27401.00
1131.541, 27270.00
1132.635, 27246.00
1133.729, 27252.00
1134.822, 26986.00
1135.916, 27165.00
1137.009, 27062.00
1138.102, 26930.00
1139.195, 26812.00
1140.288, 26752.00
1141.380, 26714.00
1142.473, 26724.39
1143.565, 26616.00
1144.657, 26827.00
1145.749, 26842.00
1146.841, 26910.00
1147.932, 26665.00
1149.024, 26747.00
1150.115, 26647.00
1151.206, 26570.00
1152.297, 26868.00
1153.388, 26855.00
1154.479, 26480.00
1155.569, 26718.00
1156.659, 26623.00
1157.750, 26644.00
1158.839, 26798.00
1159.929, 26592.00
1161.019, 26707.00
1162.108, 26607.00
1163.198, 26703.00
1164.287, 26448.00
1165.376, 26515.00
1166.465, 26577.00
1167.553, 26612.00
1168.642, 26413.00
1169.730, 26559.00
1170.818, 26746.00
1171.906, 26495.00
1172.994, 26803.00
1174.082, 26674.00
1175.170, 26519.00
1176.257, 26525.00
1177.344, 26539.00
1178.431, 26420.89
1179.518, 26822.00
1180.605, 26364.00
1181.691, 26544.00
1182.778, 26746.00
1183.864, 26417.00
1184.950, 26551.00
1186.036, 26438.00
1187.122, 26526.00
1188.207, 26500.00
1189.292, 26365.00
1190.378, 26502.00
1191.463, 26451.00
1192.548, 26615.00
1193.632, 26683.00
1194.717, 26479.00
1195.801, 26596.00
1196.886, 26521.00
1197.970, 26606.00
1199.054, 26779.00
1200.137, 26640.00
1201.221, 26781.00
1202.305, 26684.00
1203.388, 26805.00
1204.471, 26691.00
1205.554, 26727.00
1206.637, 26627.00
1207.719, 26776.00
1208.802, 26696.00
1209.884, 26871.00
1210.966, 26865.00
1212.048, 26860.00
1213.130, 26721.00
1214.212, 26715.00
1215.293, 26759.00
1216.374, 27241.00
1217.456, 26822.00
1218.536, 26917.00
1219.617, 26903.00
1220.698, 26636.00
1221.778, 26834.00
1222.859, 27110.00
1223.939, 26900.00
1225.019, 26787.00
1226.099, 27021.00
1227.178, 27196.00
1228.258, 27091.00
1229.337, 27171.00
1230.417, 27135.00
1231.496, 27411.00
1232.574, 27265.00
1233.653, 27404.00
1234.732, 27340.00
1235.810, 27409.00
1236.888, 27332.00
1237.966, 27303.00
1239.044, 27671.00
1240.122, 27587.00
1241.199, 27757.00
1242.277, 27419.00
1243.354, 27597.00
1244.431, 27708.00
1245.508, 27651.00
1246.585, 27869.00
1247.661, 28036.00
1248.738, 27648.00
1249.814, 27906.00
1250.890, 27850.00
1251.966, 27940.00
1253.042, 28063.00
1254.117, 28005.00
1255.193, 28158.00
1256.268, 28074.85
1257.343, 28067.00
1258.418, 27922.00
1259.493, 27961.00
1260.567, 27860.00
1261.642, 28021.00
1262.716, 28174.00
1263.790, 28121.00
1264.864, 28251.78
1265.938, 28082.00
1267.011, 28348.00
1268.085, 28291.00
1269.158, 28326.00
1270.231, 28251.00
1271.304, 28053.00
1272.377, 28272.00
1273.450, 28207.00
1274.522, 28365.00
1275.594, 28278.00
1276.666, 28310.91
1277.738, 28379.00
1278.810, 28284.00
1279.882, 28301.00
1280.953, 28228.00
1282.025, 28408.00
1283.096, 28419.00
1284.167, 28336.00
1285.238, 28278.00
1286.308, 28314.00
1287.379, 28337.00
1288.449, 28491.00
1289.519, 28595.00
1290.589, 28382.00
1291.659, 28777.00
1292.729, 28560.00
1293.798, 28750.00
1294.868, 28886.00
1295.937, 29335.00
1297.006, 29095.00
1298.075, 28647.00
1299.143, 28949.00
1300.212, 29073.00
1301.280, 28556.00
1302.348, 28865.00
1303.416, 28692.00
1304.484, 28795.00
1305.552, 28945.00
1306.620, 28987.00
1307.687, 28955.00
1308.754, 28998.00
1309.821, 28924.00
1310.888, 28874.00
1311.955, 28860.00
1313.021, 29027.00
1314.088, 28674.00
1315.154, 28864.00
1316.220, 29072.00
1317.286, 28698.00
1318.352, 28873.00
1319.417, 28854.00
1320.483, 28819.00
1321.548, 28948.00
1322.613, 28965.00
1323.678, 29015.00
1324.743, 28871.00
1325.807, 28919.00
1326.872, 28922.00
1327.936, 29136.00
1329.000, 28823.00
1330.064, 29036.00
1331.128, 28659.00
1332.191, 28867.00
1333.255, 28785.00
1334.318, 28912.00
1335.381, 28759.00
1336.444, 28771.00
1337.507, 28830.00
1338.569, 28836.00
1339.632, 28871.00
1340.694, 28938.00
1341.756, 28624.00
1342.818, 28976.00
1343.880, 28827.00
1344.941, 28699.00
1346.003, 28888.00
1347.064, 29066.00
1348.125, 28795.00
1349.186, 28988.00
1350.247, 28595.00
1351.308, 28813.00
1352.368, 28838.00
1353.428, 28765.00
1354.489, 28770.00
1355.549, 29043.00
1356.608, 28667.00
1357.668, 28442.00
1358.727, 28886.00
1359.787, 28748.00
1360.846, 28591.00
1361.905, 28747.00
1362.964, 28834.00
1364.022, 28701.00
1365.081, 28732.00
1366.139, 28716.00
1367.197, 28943.00
1368.255, 28620.00
1369.313, 28590.00
1370.371, 28783.00
1371.428, 28428.00
1372.486, 28642.00
1373.543, 28540.00
1374.600, 28606.00
1375.657, 28584.00
1376.713, 28525.00
1377.770, 28788.00
1378.826, 28964.00
1379.882, 28537.00
1380.938, 28698.00
1381.994, 28204.00
1383.050, 28580.00
1384.106, 28713.00
1385.161, 28768.00
1386.216, 28641.00
1387.271, 28527.00
1388.326, 28629.00
1389.381, 28684.00
1390.435, 28639.00
1391.490, 28376.00
1392.544, 28648.00
1393.598, 28440.00
1394.652, 28514.00
1395.705, 28553.00
1396.759, 28598.00
1397.812, 28556.00
1398.866, 28606.00
1399.919, 28649.00
1400.972, 28806.00
1402.024, 28628.00
1403.077, 28598.00
1404.129, 28689.00
1405.181, 28587.00
1406.233, 28591.00
1407.285, 28524.00
1408.337, 28557.82
1409.389, 28412.00
1410.440, 28614.00
1411.491, 28583.00
1412.542, 28525.00
1413.593, 28624.00
1414.644, 28751.00
1415.695, 28857.00
1416.745, 28645.00
1417.795, 28645.00
1418.845, 28560.00
1419.895, 28565.00
1420.945, 28675.00
1421.995, 28696.00
1423.044, 28654.00
1424.093, 28962.00
1425.142, 28803.00
1426.191, 28899.00
1427.240, 28998.00
1428.289, 28758.00
1429.337, 29135.00
1430.385, 28806.00
1431.433, 28888.00
1432.481, 28724.00
1433.529, 28992.00
1434.577, 29145.00
1435.624, 29156.00
1436.672, 29127.00
1437.719, 29081.00
1438.766, 29090.00
1439.812, 29147.00
1440.859, 29138.55
1441.905, 29229.00
1442.952, 29235.00
1443.998, 29216.00
1445.044, 29358.00
1446.090, 29427.00
1447.135, 29408.00
1448.181, 29318.00
