##NAMES=Dravite
##RRUFFID=R060534
##IDEAL CHEMISTRY=NaMg_3_Al_6_(Si_6_O_18_)(BO_3_)_3_(OH)_3_OH
##LOCALITY=Sri Lanka
##OWNER=RRUFF
##SOURCE=Gemological Institute of America
##DESCRIPTION=Black trigonal prism
##STATUS=The identification of this mineral has been confirmed by X-ray diffraction and chemical analysis
##URL=rruff.info/R060534
##MEASURED CHEMISTRY=(Na_0.79_Ca_0.21_)(Mg_0.68_Fe^2+^_0.29_Ti_0.02_Al_0.01_)_3_Al_6.00_(BO_3_)_3_(Si_0.95_Al_005_)_6.00_O_18_(OH)_4_
##PIN_ID=L01264
##ORIENTATION=Laser parallel to a* (1 0 0). Fiducial mark perpendicular to laser is parallel to -c [0 0 -1]
168.4860, 27624.00
169.7110, 27921.00
170.9360, 28300.00
172.1610, 28250.00
173.3850, 27393.00
174.6100, 27382.00
175.8340, 27263.00
177.0580, 27648.00
178.2820, 27867.00
179.5050, 28029.00
180.7290, 28134.00
181.9520, 27653.00
183.1760, 27919.00
184.3990, 28292.00
185.6220, 28466.00
186.8450, 29052.00
188.0670, 29362.00
189.2900, 29732.00
190.5120, 29818.00
191.7340, 30256.00
192.9560, 30752.00
194.1780, 31426.00
195.4000, 31955.00
196.6220, 32282.00
197.8430, 32884.00
199.0640, 33658.00
200.2860, 34778.00
201.5070, 36024.00
202.7270, 37393.00
203.9480, 37844.00
205.1690, 37077.00
206.3890, 37028.00
207.6090, 37684.00
208.8290, 39298.00
210.0490, 40667.00
211.2690, 42721.00
212.4890, 44065.00
213.7080, 45502.00
214.9280, 46020.00
216.1470, 45210.00
217.3660, 44494.00
218.5850, 43658.00
219.8030, 42559.00
221.0220, 41465.00
222.2400, 40603.00
223.4590, 39723.00
224.6770, 38723.00
225.8950, 38337.00
227.1120, 37877.00
228.3300, 37688.00
229.5480, 37588.00
230.7650, 38046.00
231.9820, 38465.00
233.1990, 39004.00
234.4160, 40136.00
235.6330, 41266.00
236.8490, 43177.00
238.0660, 43811.00
239.2820, 45513.00
240.4980, 47189.00
241.7140, 48556.00
242.9300, 49168.19
244.1460, 49846.00
245.3610, 49405.00
246.5770, 48503.00
247.7920, 47504.00
249.0070, 45104.00
250.2220, 42607.00
251.4370, 40780.00
252.6510, 38469.00
253.8660, 36382.00
255.0800, 34833.36
256.2940, 34289.71
257.5080, 33660.30
258.7220, 32949.71
259.9360, 31914.79
261.1490, 31299.28
262.3630, 30515.31
263.5760, 29725.09
264.7890, 29168.50
266.0020, 28181.36
267.2150, 28053.00
268.4270, 27604.89
269.6400, 27183.00
270.8520, 26875.00
272.0640, 26654.00
273.2760, 26062.00
274.4880, 25961.00
275.7000, 26159.00
276.9120, 26002.00
278.1230, 25665.00
279.3340, 25494.00
280.5450, 24800.00
281.7560, 25184.00
282.9670, 24275.00
284.1780, 23865.00
285.3880, 23721.00
286.5980, 23703.00
287.8090, 23672.00
289.0190, 23349.00
290.2290, 23368.00
291.4380, 23126.00
292.6480, 23098.00
293.8570, 22929.00
295.0670, 22760.00
296.2760, 22805.00
297.4850, 22784.00
298.6930, 22778.00
299.9020, 22810.00
301.1110, 22919.76
302.3190, 23021.54
303.5270, 23266.00
304.7350, 23243.00
305.9430, 23529.00
307.1510, 23852.23
308.3580, 23878.00
309.5660, 24643.00
310.7730, 24994.00
311.9800, 25399.31
313.1870, 25715.00
314.3940, 26059.00
315.6010, 26607.00
316.8070, 26968.00
318.0130, 26983.00
319.2200, 26864.00
320.4260, 26841.77
321.6310, 26611.00
322.8370, 26307.00
324.0430, 25904.65
325.2480, 25296.00
326.4540, 25260.00
327.6590, 25443.00
328.8640, 25593.00
330.0680, 25765.00
331.2730, 25942.00
332.4780, 26161.00
333.6820, 26281.00
334.8860, 26670.00
336.0900, 26750.00
337.2940, 27220.00
338.4980, 27343.00
339.7010, 27715.00
340.9050, 28145.00
342.1080, 28567.00
343.3110, 28893.00
344.5140, 29243.00
345.7170, 29719.00
346.9200, 30022.00
348.1220, 30775.00
349.3240, 31152.06
350.5270, 31737.00
351.7290, 32398.00
352.9310, 33003.00
354.1320, 34182.00
355.3340, 35191.00
356.5350, 36367.00
357.7370, 38223.00
358.9380, 39780.87
360.1390, 41816.26
361.3400, 43949.00
362.5400, 46592.00
363.7410, 49468.00
364.9410, 52829.00
366.1410, 55583.00
367.3410, 58337.00
368.5410, 60678.00
369.7410, 62215.00
370.9400, 62857.00
372.1400, 62770.00
373.3390, 61337.00
374.5380, 59650.00
375.7370, 56878.00
376.9360, 54277.00
378.1350, 51456.00
379.3330, 48825.00
380.5310, 46306.00
381.7300, 44118.00
382.9280, 42427.00
384.1260, 41062.00
385.3230, 39394.00
386.5210, 38615.00
387.7180, 37387.00
388.9160, 36861.00
390.1130, 36046.00
391.3100, 35333.00
392.5060, 34715.00
393.7030, 34301.00
394.9000, 33850.00
396.0960, 33460.80
397.2920, 33271.00
398.4880, 32955.00
399.6840, 32804.00
400.8800, 32564.58
402.0750, 32409.25
403.2710, 32130.00
404.4660, 32197.00
405.6610, 31975.00
406.8560, 31979.00
408.0510, 31570.00
409.2450, 31358.00
410.4400, 31220.00
411.6340, 30832.00
412.8280, 30712.00
414.0220, 30116.00
415.2160, 29755.00
416.4100, 30049.00
417.6030, 29247.31
418.7970, 28990.00
419.9900, 28291.00
421.1830, 28006.00
422.3760, 27800.00
423.5690, 27523.00
424.7610, 27233.00
425.9540, 26872.00
427.1460, 26885.00
428.3380, 26550.00
429.5300, 26603.00
430.7220, 26390.00
431.9140, 26120.00
433.1050, 26209.00
434.2970, 26074.00
435.4880, 26288.00
436.6790, 26069.00
437.8700, 25862.00
439.0610, 25949.00
440.2510, 25699.00
441.4420, 25624.00
442.6320, 25557.00
443.8220, 25470.00
445.0120, 25395.00
446.2020, 25382.28
447.3910, 25357.00
448.5810, 25395.00
449.7700, 25303.00
450.9600, 25353.00
452.1490, 25279.00
453.3370, 25411.00
454.5260, 25424.92
455.7150, 25381.00
456.9030, 25500.00
458.0910, 25554.00
459.2800, 25495.00
460.4670, 25358.00
461.6550, 25527.00
462.8430, 25456.00
464.0300, 25636.00
465.2180, 25667.00
466.4050, 25795.11
467.5920, 25779.00
468.7790, 26104.00
469.9650, 26121.12
471.1520, 26283.00
472.3380, 26231.00
473.5250, 26402.00
474.7110, 26734.00
475.8970, 26700.81
477.0820, 26993.00
478.2680, 26851.00
479.4540, 26962.00
480.6390, 27041.00
481.8240, 27325.00
483.0090, 27384.00
484.1940, 27517.00
485.3780, 27676.00
486.5630, 27798.45
487.7470, 27996.37
488.9320, 28138.00
490.1160, 28385.00
491.3000, 28624.00
492.4830, 28806.00
493.6670, 28672.00
494.8500, 28772.00
496.0340, 29078.00
497.2170, 28978.00
498.4000, 29231.00
499.5820, 29622.00
500.7650, 29390.00
501.9480, 29323.00
503.1300, 29381.00
504.3120, 29087.00
505.4940, 28906.00
506.6760, 28567.00
507.8580, 28558.00
509.0390, 28264.00
510.2210, 28077.00
511.4020, 27831.00
512.5830, 27930.00
513.7640, 27780.00
514.9450, 27847.00
516.1250, 27446.00
517.3060, 27105.00
518.4860, 26764.00
519.6660, 26634.50
520.8460, 26499.91
522.0260, 26563.00
523.2060, 26452.00
524.3850, 26615.00
525.5650, 26634.00
526.7440, 26669.00
527.9230, 26664.00
529.1020, 26778.00
530.2810, 26728.00
531.4590, 26802.00
532.6380, 27056.00
533.8160, 27093.00
534.9940, 27251.00
536.1720, 27498.00
537.3500, 27547.00
538.5270, 27572.00
539.7050, 27452.00
540.8820, 27568.00
542.0590, 27392.00
543.2360, 27404.00
544.4130, 27357.00
545.5900, 27516.00
546.7660, 27411.00
547.9430, 27436.00
549.1190, 27182.00
550.2950, 26912.00
551.4710, 27326.00
552.6470, 26988.00
553.8220, 26939.00
554.9980, 27009.00
556.1730, 26939.00
557.3480, 26805.43
558.5230, 26945.00
559.6980, 26502.00
560.8730, 26581.00
562.0470, 26535.00
563.2220, 26648.00
564.3960, 26472.00
565.5700, 26563.00
566.7440, 26500.00
567.9170, 26320.00
569.0910, 26266.00
570.2640, 26371.00
571.4380, 26275.00
572.6110, 26270.00
573.7840, 26161.00
574.9570, 26296.00
576.1290, 26150.00
577.3020, 26027.00
578.4740, 26295.00
579.6460, 26223.00
580.8180, 26292.00
581.9900, 26370.00
583.1620, 26277.06
584.3330, 26114.00
585.5040, 26221.00
586.6760, 26251.00
587.8470, 26381.00
589.0180, 26457.00
590.1880, 26210.00
591.3590, 26379.00
592.5290, 26310.00
593.7000, 26226.00
594.8700, 26430.00
596.0400, 26607.00
597.2090, 26158.00
598.3790, 26363.00
599.5490, 26269.00
600.7180, 26397.00
601.8870, 26226.00
603.0560, 26274.00
604.2250, 26305.00
605.3940, 26338.00
606.5620, 26332.10
607.7300, 26411.00
608.8990, 26359.00
610.0670, 26398.00
611.2350, 26540.00
612.4020, 26706.00
613.5700, 26836.00
614.7370, 26809.00
615.9050, 27024.00
617.0720, 27013.00
618.2390, 27227.27
619.4060, 27392.00
620.5720, 27758.00
621.7390, 28322.00
622.9050, 28849.00
624.0710, 28717.00
625.2370, 28713.00
626.4030, 29473.00
627.5690, 30206.00
628.7340, 30297.00
629.9000, 31408.00
631.0650, 32017.00
632.2300, 32244.00
633.3950, 32272.00
634.5600, 32327.00
635.7240, 32313.00
636.8890, 32247.00
638.0530, 32265.00
639.2170, 32536.00
640.3810, 32053.00
641.5450, 32352.00
642.7080, 32562.00
643.8720, 33054.00
645.0350, 33303.00
646.1980, 33689.00
647.3610, 33845.00
648.5240, 33822.00
649.6870, 33989.00
650.8490, 34164.00
652.0120, 33967.00
653.1740, 33968.00
654.3360, 33935.00
655.4980, 33610.00
656.6600, 33754.00
657.8210, 34001.00
658.9830, 33699.00
660.1440, 33927.00
661.3050, 34305.00
662.4660, 34801.00
663.6270, 35087.00
664.7870, 35531.00
665.9480, 35875.00
667.1080, 36444.00
668.2680, 36911.00
669.4280, 37221.00
670.5880, 37424.00
671.7480, 37477.00
672.9070, 37392.00
674.0670, 37555.00
675.2260, 36981.00
676.3850, 36942.00
677.5440, 36549.00
678.7030, 35602.00
679.8610, 35154.00
681.0200, 34572.00
682.1780, 34322.00
683.3360, 33772.00
684.4940, 33444.00
685.6520, 33655.00
686.8090, 33557.00
687.9670, 33445.00
689.1240, 33709.00
690.2810, 34230.00
691.4380, 34300.00
692.5950, 35327.00
693.7520, 35732.00
694.9080, 36140.00
696.0650, 36644.00
697.2210, 37615.00
698.3770, 38700.00
699.5330, 39594.00
700.6880, 40409.00
701.8440, 41140.00
702.9990, 41477.00
704.1550, 41728.00
705.3100, 41389.00
706.4650, 40725.00
707.6190, 39716.00
708.7740, 38662.00
709.9290, 37451.00
711.0830, 36261.00
712.2370, 35394.00
713.3910, 34430.00
714.5450, 33712.00
715.6980, 32915.00
716.8520, 32600.00
718.0050, 32537.00
719.1580, 32613.00
720.3110, 32299.00
721.4640, 32200.00
722.6170, 32219.00
723.7700, 32453.00
724.9220, 32551.00
726.0740, 32388.00
727.2260, 32569.00
728.3780, 32370.00
729.5300, 32722.00
730.6810, 32621.00
731.8330, 32682.00
732.9840, 32617.00
734.1350, 32759.00
735.2860, 33081.00
736.4370, 33206.00
737.5880, 33247.00
738.7380, 33493.00
739.8880, 33511.00
741.0390, 33693.00
742.1890, 33872.00
743.3380, 34401.00
744.4880, 34587.00
745.6380, 34878.00
746.7870, 34962.00
747.9360, 35374.00
749.0850, 35545.00
750.2340, 35532.00
751.3830, 36041.00
752.5310, 36186.00
753.6800, 36473.00
754.8280, 36463.00
755.9760, 36366.00
757.1240, 36562.00
758.2720, 36742.00
759.4190, 36252.00
760.5670, 36814.00
761.7140, 36458.00
762.8610, 36503.00
764.0080, 36522.00
765.1550, 36253.00
766.3020, 36269.00
767.4480, 36057.00
768.5950, 36315.00
769.7410, 36036.00
770.8870, 35838.00
772.0330, 35705.00
773.1780, 35495.00
774.3240, 35239.37
775.4690, 35009.00
776.6140, 34680.00
777.7590, 34521.00
778.9040, 34244.00
780.0490, 34051.00
781.1940, 33691.00
782.3380, 33578.00
783.4820, 33450.00
784.6260, 33185.00
785.7700, 33077.00
786.9140, 32938.00
788.0580, 32787.00
789.2010, 32312.00
790.3450, 32089.00
791.4880, 31732.43
792.6310, 31519.00
793.7730, 30973.00
794.9160, 30580.00
796.0590, 30097.00
797.2010, 29639.00
798.3430, 29164.00
799.4850, 28686.00
800.6270, 28178.00
801.7690, 27535.00
802.9100, 27407.00
804.0520, 27283.00
805.1930, 26662.00
806.3340, 26621.00
807.4750, 26193.00
808.6160, 26075.00
809.7560, 25785.00
810.8970, 25616.00
812.0370, 25822.00
813.1770, 25544.00
814.3170, 25464.00
815.4570, 25399.00
816.5960, 25160.00
817.7360, 24986.00
818.8750, 24830.00
820.0140, 24549.00
821.1530, 24275.00
822.2920, 23973.00
823.4310, 23658.00
824.5690, 23513.00
825.7070, 23286.00
826.8460, 23131.97
827.9840, 23006.63
829.1220, 22780.00
830.2590, 22780.00
831.3970, 22413.00
832.5340, 22276.00
833.6710, 22186.00
834.8080, 22576.00
835.9450, 21901.00
837.0820, 22088.00
838.2190, 21896.00
839.3550, 21725.00
840.4910, 22034.00
841.6270, 21716.77
842.7630, 21718.00
843.8990, 21505.00
845.0350, 21451.00
846.1700, 21547.00
847.3060, 21384.00
848.4410, 21398.31
849.5760, 21414.27
850.7100, 21321.00
851.8450, 21468.00
852.9800, 21459.00
854.1140, 21522.00
855.2480, 21675.00
856.3820, 21538.00
857.5160, 21571.00
858.6500, 21548.00
859.7830, 21498.00
860.9170, 21705.00
862.0500, 21524.00
863.1830, 21602.00
864.3160, 21907.58
865.4480, 21920.00
866.5810, 21903.13
867.7130, 21819.00
868.8460, 21754.00
869.9780, 21832.00
871.1100, 21839.00
872.2410, 21835.02
873.3730, 21908.32
874.5050, 21869.00
875.6360, 22000.00
876.7670, 22070.09
877.8980, 22082.47
879.0290, 22040.00
880.1590, 22218.00
881.2900, 22079.00
882.4200, 22113.00
883.5500, 22217.00
884.6800, 22241.00
885.8100, 22281.00
886.9400, 22329.83
888.0690, 22518.00
889.1990, 22345.73
890.3280, 22602.01
891.4570, 22772.51
892.5860, 22861.83
893.7140, 22626.80
894.8430, 22810.60
895.9710, 22826.51
897.1000, 22835.60
898.2280, 23078.28
899.3560, 22890.41
900.4830, 23129.33
901.6110, 23197.92
902.7380, 23344.43
903.8660, 23322.15
904.9930, 23351.96
906.1200, 23550.68
907.2460, 23655.82
908.3730, 23614.04
909.5000, 23659.00
910.6260, 23640.81
911.7520, 23661.67
912.8780, 23608.00
914.0040, 23673.00
915.1290, 23642.00
916.2550, 23985.00
917.3800, 23879.00
918.5050, 24071.00
919.6300, 24284.00
920.7550, 24314.00
921.8800, 24422.54
923.0040, 24270.00
924.1290, 24456.00
925.2530, 24465.00
926.3770, 24403.00
927.5010, 24657.00
928.6250, 24620.15
929.7480, 24876.00
930.8720, 24747.00
931.9950, 24762.00
933.1180, 24838.00
934.2410, 24958.00
935.3640, 25044.00
936.4860, 25199.00
937.6090, 25242.00
938.7310, 25458.00
939.8530, 25503.00
940.9750, 25441.00
942.0970, 25652.00
943.2180, 25633.00
944.3400, 25856.00
945.4610, 26096.00
946.5820, 26224.00
947.7030, 26318.00
948.8240, 26453.00
949.9450, 26708.00
951.0650, 26972.00
952.1860, 27032.88
953.3060, 27177.00
954.4260, 27284.00
955.5460, 27445.00
956.6650, 27774.00
957.7850, 27791.00
958.9040, 27901.00
960.0230, 27913.00
961.1420, 28169.00
962.2610, 28271.00
963.3800, 28552.00
964.4990, 28514.00
965.6170, 28916.00
966.7350, 28799.00
967.8530, 28947.00
968.9710, 29234.00
970.0890, 28962.00
971.2070, 28844.00
972.3240, 29305.00
973.4410, 29206.00
974.5580, 29591.00
975.6750, 29204.00
976.7920, 29315.00
977.9090, 28975.00
979.0250, 29512.00
980.1410, 29547.00
981.2580, 29702.00
982.3740, 29676.00
983.4890, 29328.00
984.6050, 29510.00
985.7200, 29465.00
986.8360, 29467.00
987.9510, 29574.00
989.0660, 29742.00
990.1810, 29744.00
991.2950, 29958.00
992.4100, 29803.49
993.5240, 29788.00
994.6390, 29515.00
995.7530, 29856.00
996.8660, 29783.00
997.9800, 30391.00
999.0940, 29973.00
1000.207, 29848.00
1001.320, 30210.00
1002.433, 30227.00
1003.546, 30391.00
1004.659, 30234.00
1005.772, 30385.00
1006.884, 30655.00
1007.996, 30850.00
1009.108, 31117.00
1010.220, 31371.00
1011.332, 31489.00
1012.444, 31973.00
1013.555, 32148.00
1014.666, 32407.00
1015.777, 32779.00
1016.888, 33029.00
1017.999, 33414.00
1019.110, 33866.00
1020.220, 33969.00
1021.331, 34272.00
1022.441, 35027.00
1023.551, 35224.00
1024.661, 35674.00
1025.770, 35765.00
1026.880, 36171.00
1027.989, 36063.00
1029.098, 36325.00
1030.207, 36480.00
1031.316, 36856.00
1032.425, 37125.00
1033.533, 37352.00
1034.642, 37184.00
1035.750, 37204.00
1036.858, 37319.00
1037.966, 37611.00
1039.073, 37504.88
1040.181, 37015.00
1041.288, 37406.00
1042.396, 37263.00
1043.503, 37151.00
1044.610, 37292.00
1045.716, 37521.00
1046.823, 37365.00
1047.929, 37646.00
1049.036, 37399.00
1050.142, 37142.00
1051.248, 37082.00
1052.353, 36961.00
1053.459, 36908.00
1054.564, 36552.00
1055.670, 36369.23
1056.775, 36256.00
1057.880, 35875.00
1058.985, 35436.00
1060.089, 35354.00
1061.194, 35026.23
1062.298, 35001.00
1063.402, 34647.00
1064.506, 34686.00
1065.610, 34565.00
1066.713, 34117.00
1067.817, 34064.00
1068.920, 34056.00
1070.023, 33796.00
1071.126, 33755.00
1072.229, 33328.00
1073.332, 33144.00
1074.435, 32992.00
1075.537, 32825.00
1076.639, 32422.00
1077.741, 32292.00
1078.843, 31903.00
1079.945, 31689.00
1081.046, 31501.00
1082.148, 31317.00
1083.249, 30780.00
1084.350, 30837.00
1085.451, 30590.00
1086.551, 30613.00
1087.652, 30269.00
1088.752, 30097.00
1089.853, 29978.00
1090.953, 29924.00
1092.053, 29973.00
1093.152, 29315.00
1094.252, 29470.00
1095.351, 29366.00
1096.451, 28789.78
1097.550, 28907.77
1098.649, 28939.97
1099.748, 28891.00
1100.846, 28517.80
1101.945, 28563.29
1103.043, 28441.04
1104.141, 28311.89
1105.239, 28416.40
1106.337, 28090.36
1107.434, 28191.24
1108.532, 28174.00
1109.629, 28126.00
1110.726, 28087.00
1111.823, 27839.00
1112.920, 27809.00
1114.017, 27712.00
1115.113, 27657.02
1116.210, 27780.00
1117.306, 27661.00
1118.402, 27622.00
1119.498, 27674.00
1120.593, 27570.24
1121.689, 27583.00
1122.784, 27415.00
1123.879, 27234.00
1124.974, 27034.00
1126.069, 26908.00
1127.164, 26899.00
1128.259, 26486.00
1129.353, 26632.00
1130.447, 26410.00
1131.541, 26384.00
1132.635, 26466.00
1133.729, 26141.54
1134.822, 26300.13
1135.916, 26372.89
1137.009, 26364.52
1138.102, 26031.84
1139.195, 26117.94
1140.288, 26036.21
1141.380, 25947.63
1142.473, 26092.66
1143.565, 25807.19
1144.657, 25948.55
1145.749, 25919.53
1146.841, 25968.49
1147.932, 25848.62
1149.024, 25780.88
1150.115, 25882.08
1151.206, 25439.00
1152.297, 25638.00
1153.388, 25586.00
1154.479, 25495.00
1155.569, 25463.00
1156.659, 25536.00
1157.750, 25614.00
1158.839, 25308.00
1159.929, 25265.00
1161.019, 25450.00
1162.108, 25183.00
1163.198, 25258.00
1164.287, 25062.00
1165.376, 25275.00
1166.465, 25317.00
1167.553, 25476.00
1168.642, 25356.36
1169.730, 25179.00
1170.818, 25085.00
1171.906, 25217.00
1172.994, 25183.00
1174.082, 24981.00
1175.170, 25149.00
1176.257, 25083.00
1177.344, 25217.00
1178.431, 25194.62
1179.518, 24895.00
1180.605, 25095.00
1181.691, 25061.00
1182.778, 24886.00
1183.864, 25086.00
1184.950, 24853.00
1186.036, 25041.00
1187.122, 24898.00
1188.207, 24786.00
1189.292, 24873.00
1190.378, 25033.00
1191.463, 24938.00
1192.548, 24892.00
1193.632, 25152.00
1194.717, 25019.00
1195.801, 24761.00
1196.886, 25415.00
1197.970, 25015.00
1199.054, 24703.00
1200.137, 24782.00
1201.221, 24988.00
1202.305, 24851.00
1203.388, 24861.00
1204.471, 24728.00
1205.554, 24773.00
1206.637, 24806.00
1207.719, 25062.00
1208.802, 24925.26
1209.884, 24934.00
1210.966, 24816.00
1212.048, 24989.00
1213.130, 25063.00
1214.212, 24962.00
1215.293, 25109.00
1216.374, 24919.00
1217.456, 25082.00
1218.536, 25064.00
1219.617, 25122.00
1220.698, 25170.00
1221.778, 25307.00
1222.859, 25103.00
1223.939, 25253.00
1225.019, 25149.00
1226.099, 25167.00
1227.178, 25273.00
1228.258, 25299.00
1229.337, 25275.00
1230.417, 25266.00
1231.496, 25286.00
1232.574, 25316.00
1233.653, 25221.00
1234.732, 25489.00
1235.810, 25550.00
1236.888, 25526.00
1237.966, 25433.00
1239.044, 25666.00
1240.122, 25597.00
1241.199, 25697.00
1242.277, 25638.00
1243.354, 25756.00
1244.431, 25757.00
1245.508, 25558.00
1246.585, 25478.00
1247.661, 25907.00
1248.738, 25506.00
1249.814, 25858.00
1250.890, 25856.00
1251.966, 25927.00
1253.042, 25921.00
1254.117, 25872.53
1255.193, 25832.00
1256.268, 25736.00
1257.343, 25840.00
1258.418, 25784.00
1259.493, 25838.00
1260.567, 25652.00
1261.642, 25819.00
1262.716, 25821.00
1263.790, 25559.00
1264.864, 25874.00
1265.938, 25793.00
1267.011, 25921.00
1268.085, 25740.00
1269.158, 25829.00
1270.231, 25911.00
1271.304, 25924.00
1272.377, 25968.82
1273.450, 25997.51
1274.522, 25986.00
1275.594, 26000.00
1276.666, 25993.00
1277.738, 25914.00
1278.810, 25795.00
1279.882, 26001.00
1280.953, 26054.00
1282.025, 26158.00
1283.096, 25968.00
1284.167, 26109.11
1285.238, 26066.00
1286.308, 26168.00
1287.379, 26054.00
1288.449, 25964.00
1289.519, 26095.00
1290.589, 26253.00
1291.659, 25933.00
1292.729, 26107.00
1293.798, 26147.00
1294.868, 26021.50
1295.937, 25981.00
1297.006, 25865.00
1298.075, 25988.00
1299.143, 25796.00
1300.212, 26113.00
1301.280, 25968.00
1302.348, 25943.00
1303.416, 26043.00
1304.484, 25952.00
1305.552, 25932.58
1306.620, 25981.00
1307.687, 25857.00
1308.754, 25906.00
1309.821, 25988.00
1310.888, 25774.00
1311.955, 25949.83
1313.021, 25979.04
1314.088, 26150.00
1315.154, 26088.00
1316.220, 26222.00
1317.286, 26060.00
1318.352, 26335.00
1319.417, 26132.00
1320.483, 26431.00
1321.548, 26264.00
1322.613, 26372.00
1323.678, 26283.00
1324.743, 26308.00
1325.807, 26212.85
1326.872, 26412.80
1327.936, 26526.96
1329.000, 26559.94
1330.064, 26268.62
1331.128, 26396.07
1332.191, 26355.70
1333.255, 26308.44
1334.318, 26494.83
1335.381, 26250.67
1336.444, 26433.36
