##NAMES=Dravite
##RRUFFID=R060280
##IDEAL CHEMISTRY=NaMg_3_Al_6_(Si_6_O_18_)(BO_3_)_3_(OH)_3_OH
##LOCALITY=near Merelani, Tanzania
##OWNER=RRUFF
##SOURCE=Herb Obodda
##DESCRIPTION=Green fragment
##STATUS=The identification of this mineral has been confirmed by X-ray diffraction and chemical analysis
##URL=rruff.info/R060280
##MEASURED CHEMISTRY=(Na_0.45_Ca_0.40_[box]_0.15_)(Mg_0.89_Al_0.07_Ti_0.04_)_3_Al_6_(BO_3_)_3_(Si_0.93_B_0.07_)_6_O_18_((OH)_0.95_O_0.05_)_4_
##PIN_ID=L01324
##ORIENTATION=Laser parallel to a* (1 0 0). Fiducial mark perpendicular to laser is parallel to c [0 0 1]
168.4860, 16437.00
169.7110, 16551.00
170.9360, 16568.00
172.1610, 16547.00
173.3850, 16415.00
174.6100, 16595.00
175.8340, 16490.00
177.0580, 16740.00
178.2820, 16556.00
179.5050, 16947.00
180.7290, 16770.00
181.9520, 17174.00
183.1760, 17099.00
184.3990, 17637.00
185.6220, 17716.00
186.8450, 17851.00
188.0670, 18412.00
189.2900, 18749.00
190.5120, 18979.00
191.7340, 19588.00
192.9560, 20160.00
194.1780, 20643.00
195.4000, 21108.00
196.6220, 21780.00
197.8430, 22255.00
199.0640, 23191.00
200.2860, 24128.00
201.5070, 25239.00
202.7270, 26388.00
203.9480, 27870.00
205.1690, 29523.00
206.3890, 31387.00
207.6090, 33418.00
208.8290, 35508.00
210.0490, 37671.00
211.2690, 39844.00
212.4890, 41604.00
213.7080, 43011.00
214.9280, 44002.00
216.1470, 44155.00
217.3660, 43733.00
218.5850, 42551.00
219.8030, 41094.00
221.0220, 39579.00
222.2400, 37837.00
223.4590, 36127.00
224.6770, 34805.00
225.8950, 33656.00
227.1120, 32551.00
228.3300, 32397.00
229.5480, 32305.00
230.7650, 32184.00
231.9820, 32381.00
233.1990, 32982.00
234.4160, 33262.00
235.6330, 33977.00
236.8490, 34354.00
238.0660, 35355.00
239.2820, 35956.00
240.4980, 36504.00
241.7140, 36770.00
242.9300, 37129.00
244.1460, 37037.00
245.3610, 36734.00
246.5770, 35910.00
247.7920, 35243.00
249.0070, 34169.00
250.2220, 32997.00
251.4370, 31802.00
252.6510, 30492.00
253.8660, 29481.00
255.0800, 28470.00
256.2940, 27546.00
257.5080, 26989.00
258.7220, 26416.00
259.9360, 25971.00
261.1490, 25561.98
262.3630, 25114.00
263.5760, 24980.00
264.7890, 24687.00
266.0020, 24637.00
267.2150, 24609.00
268.4270, 24516.00
269.6400, 24383.93
270.8520, 24153.00
272.0640, 24045.00
273.2760, 23808.00
274.4880, 23600.00
275.7000, 23233.00
276.9120, 23166.00
278.1230, 22554.00
279.3340, 22445.00
280.5450, 21739.00
281.7560, 21672.00
282.9670, 21620.00
284.1780, 21211.00
285.3880, 20793.00
286.5980, 20830.00
287.8090, 20666.00
289.0190, 20423.00
290.2290, 20506.00
291.4380, 20464.00
292.6480, 20338.00
293.8570, 20385.00
295.0670, 20491.00
296.2760, 20633.00
297.4850, 20600.00
298.6930, 20693.00
299.9020, 20846.00
301.1110, 20645.00
302.3190, 21116.00
303.5270, 21124.00
304.7350, 21446.00
305.9430, 21503.00
307.1510, 21814.00
308.3580, 22052.00
309.5660, 22500.00
310.7730, 22488.00
311.9800, 23068.00
313.1870, 23207.00
314.3940, 23343.00
315.6010, 23353.00
316.8070, 23306.00
318.0130, 23286.00
319.2200, 22985.00
320.4260, 23054.00
321.6310, 22971.00
322.8370, 22785.00
324.0430, 22830.00
325.2480, 23214.00
326.4540, 23412.00
327.6590, 23746.00
328.8640, 23860.00
330.0680, 24428.00
331.2730, 24776.00
332.4780, 25295.00
333.6820, 25824.00
334.8860, 26093.00
336.0900, 26422.00
337.2940, 27128.00
338.4980, 27501.00
339.7010, 27801.00
340.9050, 28053.00
342.1080, 28361.00
343.3110, 28297.00
344.5140, 28388.00
345.7170, 28918.00
346.9200, 29240.00
348.1220, 29525.00
349.3240, 30499.00
350.5270, 31163.00
351.7290, 31987.00
352.9310, 33469.00
354.1320, 34547.00
355.3340, 36277.00
356.5350, 38533.00
357.7370, 40478.00
358.9380, 43025.00
360.1390, 45671.00
361.3400, 48816.00
362.5400, 51601.00
363.7410, 54539.00
364.9410, 57022.00
366.1410, 59534.00
367.3410, 61398.00
368.5410, 62485.00
369.7410, 62655.00
370.9400, 61706.00
372.1400, 60428.00
373.3390, 58307.00
374.5380, 55868.00
375.7370, 52776.00
376.9360, 49645.00
378.1350, 46578.00
379.3330, 43808.00
380.5310, 41567.00
381.7300, 39013.00
382.9280, 37479.00
384.1260, 35865.00
385.3230, 34447.00
386.5210, 33296.00
387.7180, 32246.00
388.9160, 31715.00
390.1130, 31043.00
391.3100, 30505.00
392.5060, 30159.00
393.7030, 29494.00
394.9000, 29366.00
396.0960, 28955.00
397.2920, 28914.00
398.4880, 28588.00
399.6840, 28294.00
400.8800, 28405.00
402.0750, 28155.00
403.2710, 28075.00
404.4660, 27982.00
405.6610, 27882.00
406.8560, 27386.00
408.0510, 27027.00
409.2450, 26765.00
410.4400, 26201.00
411.6340, 25832.00
412.8280, 25462.00
414.0220, 25081.00
415.2160, 24794.00
416.4100, 24283.00
417.6030, 24082.00
418.7970, 23814.00
419.9900, 23648.00
421.1830, 23420.00
422.3760, 23225.00
423.5690, 23132.00
424.7610, 23039.74
425.9540, 23051.00
427.1460, 23052.00
428.3380, 23223.00
429.5300, 23403.00
430.7220, 23187.00
431.9140, 23167.00
433.1050, 23436.00
434.2970, 23358.00
435.4880, 23547.00
436.6790, 23403.00
437.8700, 23495.00
439.0610, 23570.00
440.2510, 23471.00
441.4420, 23687.00
442.6320, 23396.00
443.8220, 23612.00
445.0120, 23331.00
446.2020, 23486.00
447.3910, 23420.00
448.5810, 23379.00
449.7700, 23352.00
450.9600, 23359.00
452.1490, 23232.00
453.3370, 23345.00
454.5260, 22891.00
455.7150, 23137.00
456.9030, 22928.00
458.0910, 23033.00
459.2800, 22930.00
460.4670, 23035.00
461.6550, 22895.00
462.8430, 22996.00
464.0300, 22691.00
465.2180, 22818.00
466.4050, 22680.00
467.5920, 22728.00
468.7790, 22756.00
469.9650, 22934.00
471.1520, 23021.00
472.3380, 23073.00
473.5250, 23190.00
474.7110, 23371.00
475.8970, 23320.00
477.0820, 23510.00
478.2680, 23556.00
479.4540, 23927.00
480.6390, 23868.00
481.8240, 24089.00
483.0090, 24174.00
484.1940, 24317.90
485.3780, 24502.00
486.5630, 24683.00
487.7470, 24959.00
488.9320, 25173.00
490.1160, 25350.00
491.3000, 25513.00
492.4830, 25823.00
493.6670, 26095.00
494.8500, 26475.00
496.0340, 26707.00
497.2170, 26837.00
498.4000, 27351.00
499.5820, 27547.00
500.7650, 27668.00
501.9480, 27885.00
503.1300, 28012.00
504.3120, 27943.00
505.4940, 28121.00
506.6760, 27928.00
507.8580, 27801.00
509.0390, 27769.00
510.2210, 27358.00
511.4020, 27153.00
512.5830, 26543.00
513.7640, 26442.00
514.9450, 25871.00
516.1250, 25530.00
517.3060, 25175.00
518.4860, 24886.00
519.6660, 24690.85
520.8460, 24339.00
522.0260, 24403.00
523.2060, 24329.00
524.3850, 24240.00
525.5650, 24431.00
526.7440, 24562.00
527.9230, 24826.00
529.1020, 24987.00
530.2810, 25230.00
531.4590, 25497.00
532.6380, 25608.00
533.8160, 25674.00
534.9940, 26037.00
536.1720, 26075.00
537.3500, 25802.00
538.5270, 26009.00
539.7050, 25801.00
540.8820, 25709.00
542.0590, 25654.00
543.2360, 25158.00
544.4130, 24850.00
545.5900, 24847.00
546.7660, 24484.00
547.9430, 24033.00
549.1190, 23848.00
550.2950, 23531.00
551.4710, 23290.00
552.6470, 22957.00
553.8220, 22792.00
554.9980, 22807.00
556.1730, 22245.00
557.3480, 22370.00
558.5230, 22316.00
559.6980, 21728.00
560.8730, 21989.00
562.0470, 21613.00
563.2220, 21694.00
564.3960, 21775.00
565.5700, 21756.00
566.7440, 21673.00
567.9170, 21448.00
569.0910, 21641.00
570.2640, 21495.00
571.4380, 21468.00
572.6110, 21549.00
573.7840, 21342.00
574.9570, 21468.00
576.1290, 21400.00
577.3020, 21443.00
578.4740, 21586.00
579.6460, 21647.00
580.8180, 21622.00
581.9900, 21797.00
583.1620, 21560.00
584.3330, 21731.00
585.5040, 21725.00
586.6760, 21930.00
587.8470, 21958.00
589.0180, 21988.00
590.1880, 22081.00
591.3590, 22307.00
592.5290, 22443.00
593.7000, 22490.25
594.8700, 22517.00
596.0400, 22612.00
597.2090, 22602.00
598.3790, 22767.00
599.5490, 22777.00
600.7180, 22725.00
601.8870, 23026.00
603.0560, 23050.00
604.2250, 23185.00
605.3940, 23292.00
606.5620, 23316.00
607.7300, 23551.00
608.8990, 23636.00
610.0670, 23622.00
611.2350, 23706.00
612.4020, 23830.00
613.5700, 24090.00
614.7370, 24115.00
615.9050, 24208.00
617.0720, 24646.00
618.2390, 24828.00
619.4060, 25247.00
620.5720, 25414.00
621.7390, 25691.00
622.9050, 26049.00
624.0710, 26367.00
625.2370, 26562.23
626.4030, 26864.00
627.5690, 26854.00
628.7340, 26857.00
629.9000, 26812.00
631.0650, 26919.00
632.2300, 26840.00
633.3950, 26619.00
634.5600, 26356.00
635.7240, 26056.00
636.8890, 25957.00
638.0530, 25726.00
639.2170, 25797.00
640.3810, 25804.00
641.5450, 25839.00
642.7080, 25853.00
643.8720, 26204.00
645.0350, 26271.00
646.1980, 26634.00
647.3610, 27131.00
648.5240, 27175.00
649.6870, 27623.00
650.8490, 28067.00
652.0120, 28224.00
653.1740, 28551.00
654.3360, 28836.00
655.4980, 29246.00
656.6600, 29399.00
657.8210, 29840.00
658.9830, 30175.00
660.1440, 30408.00
661.3050, 31004.00
662.4660, 31493.00
663.6270, 31601.00
664.7870, 32084.00
665.9480, 32468.00
667.1080, 32740.00
668.2680, 33110.00
669.4280, 33443.00
670.5880, 33698.00
671.7480, 33653.00
672.9070, 33555.00
674.0670, 33607.00
675.2260, 33230.00
676.3850, 32862.00
677.5440, 32747.00
678.7030, 32432.00
679.8610, 32035.00
681.0200, 31917.00
682.1780, 31768.00
683.3360, 31527.00
684.4940, 31492.00
685.6520, 31541.00
686.8090, 31547.00
687.9670, 31942.00
689.1240, 32157.00
690.2810, 32374.00
691.4380, 33010.00
692.5950, 33964.00
693.7520, 34278.00
694.9080, 35370.00
696.0650, 36115.00
697.2210, 37118.00
698.3770, 38244.00
699.5330, 39058.00
700.6880, 39822.00
701.8440, 40928.00
702.9990, 41529.00
704.1550, 41662.00
705.3100, 42143.00
706.4650, 42064.00
707.6190, 41685.00
708.7740, 41074.00
709.9290, 39960.00
711.0830, 38640.00
712.2370, 37228.00
713.3910, 35654.00
714.5450, 34240.00
715.6980, 32560.00
716.8520, 31431.00
718.0050, 30210.00
719.1580, 29290.00
720.3110, 28370.00
721.4640, 27725.00
722.6170, 26982.00
723.7700, 26449.00
724.9220, 25989.00
726.0740, 25522.00
727.2260, 25213.00
728.3780, 25030.00
729.5300, 24827.29
730.6810, 24917.00
731.8330, 24755.00
732.9840, 24650.00
734.1350, 24843.00
735.2860, 24862.00
736.4370, 24948.00
737.5880, 25073.00
738.7380, 24861.00
739.8880, 25148.00
741.0390, 25148.00
742.1890, 25535.00
743.3380, 25685.00
744.4880, 26000.00
745.6380, 26412.00
746.7870, 26886.00
747.9360, 27313.20
749.0850, 27739.00
750.2340, 28261.00
751.3830, 28747.00
752.5310, 29176.00
753.6800, 29774.94
754.8280, 30608.00
755.9760, 30852.00
757.1240, 31275.00
758.2720, 31622.00
759.4190, 31379.00
760.5670, 31287.00
761.7140, 31028.00
762.8610, 30739.00
764.0080, 30387.00
765.1550, 29797.00
766.3020, 29528.00
767.4480, 28886.00
768.5950, 28598.00
769.7410, 28268.00
770.8870, 28038.00
772.0330, 27698.00
773.1780, 27676.00
774.3240, 27356.00
775.4690, 27215.00
776.6140, 27302.00
777.7590, 26881.00
778.9040, 26961.00
780.0490, 26860.00
781.1940, 26890.00
782.3380, 27118.00
783.4820, 27193.00
784.6260, 26985.00
785.7700, 27077.00
786.9140, 27311.00
788.0580, 27199.00
789.2010, 27335.00
790.3450, 27214.00
791.4880, 27201.00
792.6310, 27514.00
793.7730, 27310.00
794.9160, 27660.00
796.0590, 27390.00
797.2010, 27378.00
798.3430, 27367.00
799.4850, 27393.00
800.6270, 27489.00
801.7690, 27303.00
802.9100, 27661.00
804.0520, 27672.00
805.1930, 28079.00
806.3340, 28134.00
807.4750, 28544.00
808.6160, 29071.00
809.7560, 29461.00
810.8970, 29880.00
812.0370, 30569.00
813.1770, 31110.00
814.3170, 31613.00
815.4570, 31932.00
816.5960, 32200.00
817.7360, 32359.93
818.8750, 32373.68
820.0140, 32333.00
821.1530, 32125.00
822.2920, 31776.00
823.4310, 31419.00
824.5690, 31121.00
825.7070, 30678.00
826.8460, 30112.00
827.9840, 29542.00
829.1220, 28942.00
830.2590, 28363.36
831.3970, 27820.00
832.5340, 27179.00
833.6710, 26626.00
834.8080, 26037.00
835.9450, 25720.00
837.0820, 25151.00
838.2190, 24992.00
839.3550, 24679.00
840.4910, 24301.00
841.6270, 23826.00
842.7630, 23431.00
843.8990, 23216.00
845.0350, 22717.00
846.1700, 22641.00
847.3060, 22321.00
848.4410, 21947.00
849.5760, 21957.00
850.7100, 21783.00
851.8450, 21498.00
852.9800, 21293.00
854.1140, 21321.00
855.2480, 21166.00
856.3820, 21237.00
857.5160, 21160.00
858.6500, 21277.00
859.7830, 21291.00
860.9170, 21226.00
862.0500, 20984.00
863.1830, 21026.00
864.3160, 20868.00
865.4480, 20842.00
866.5810, 20731.00
867.7130, 20938.00
868.8460, 20621.00
869.9780, 20696.00
871.1100, 20783.00
872.2410, 20671.00
873.3730, 20748.00
874.5050, 20737.00
875.6360, 20661.00
876.7670, 20573.00
877.8980, 20612.45
879.0290, 20836.00
880.1590, 20685.00
881.2900, 20738.00
882.4200, 20812.00
883.5500, 20786.00
884.6800, 20806.00
885.8100, 20881.00
886.9400, 20854.00
888.0690, 20912.00
889.1990, 20808.00
890.3280, 21006.00
891.4570, 21079.00
892.5860, 20845.00
893.7140, 21064.00
894.8430, 21144.00
895.9710, 21286.00
897.1000, 21408.00
898.2280, 21449.46
899.3560, 21491.00
900.4830, 21546.00
901.6110, 21421.00
902.7380, 21482.00
903.8660, 21453.38
904.9930, 21584.00
906.1200, 21529.00
907.2460, 21661.00
908.3730, 21905.00
909.5000, 21782.00
910.6260, 21743.00
911.7520, 21746.00
912.8780, 21987.00
914.0040, 21847.00
915.1290, 21804.00
916.2550, 22032.00
917.3800, 21991.00
918.5050, 21981.00
919.6300, 21952.00
920.7550, 21994.00
921.8800, 21982.00
923.0040, 21996.00
924.1290, 22184.00
925.2530, 22056.00
926.3770, 22407.00
927.5010, 22323.00
928.6250, 22424.00
929.7480, 22195.00
930.8720, 22266.00
931.9950, 22520.00
933.1180, 22449.00
934.2410, 22648.00
935.3640, 22478.00
936.4860, 22627.00
937.6090, 22818.00
938.7310, 22750.00
939.8530, 22874.00
940.9750, 22997.00
942.0970, 23249.00
943.2180, 23096.00
944.3400, 23164.00
945.4610, 23234.00
946.5820, 23450.00
947.7030, 23583.00
948.8240, 23452.00
949.9450, 23671.00
951.0650, 23805.00
952.1860, 23954.00
953.3060, 24190.00
954.4260, 24074.00
955.5460, 24199.00
956.6650, 24537.00
957.7850, 24536.00
958.9040, 24833.00
960.0230, 24678.00
961.1420, 24931.00
962.2610, 24967.00
963.3800, 25195.00
964.4990, 25253.00
965.6170, 25549.00
966.7350, 25734.00
967.8530, 25726.00
968.9710, 25866.00
970.0890, 25726.00
971.2070, 25807.00
972.3240, 25884.00
973.4410, 25910.00
974.5580, 25813.00
975.6750, 26041.00
976.7920, 25870.00
977.9090, 25832.00
979.0250, 25985.00
980.1410, 25790.00
981.2580, 25708.00
982.3740, 25789.00
983.4890, 25445.00
984.6050, 25771.00
985.7200, 25466.00
986.8360, 25433.00
987.9510, 25480.00
989.0660, 25514.00
990.1810, 25460.00
991.2950, 25450.10
992.4100, 25334.00
993.5240, 25324.00
994.6390, 25259.00
995.7530, 25149.00
996.8660, 25247.00
997.9800, 25343.00
999.0940, 25573.00
1000.207, 25606.00
1001.320, 25905.00
1002.433, 26033.00
1003.546, 26393.00
1004.659, 26182.00
1005.772, 26150.00
1006.884, 26088.00
1007.996, 26346.00
1009.108, 26611.00
1010.220, 26729.00
1011.332, 26742.00
1012.444, 27196.00
1013.555, 27173.00
1014.666, 27326.00
1015.777, 27778.00
1016.888, 28113.00
1017.999, 28522.00
1019.110, 28573.00
1020.220, 28568.00
1021.331, 29067.00
1022.441, 29270.00
1023.551, 29700.00
1024.661, 29733.00
1025.770, 29957.00
1026.880, 30116.00
1027.989, 30354.00
1029.098, 30506.00
1030.207, 30828.00
1031.316, 31097.00
1032.425, 30939.00
1033.533, 31422.00
1034.642, 31359.00
1035.750, 31734.00
1036.858, 32262.00
1037.966, 32116.00
1039.073, 32591.00
1040.181, 32571.00
1041.288, 32761.00
1042.396, 33416.00
1043.503, 33384.00
1044.610, 33444.00
1045.716, 33692.00
1046.823, 33868.00
1047.929, 34037.00
1049.036, 34194.00
1050.142, 34256.00
1051.248, 34385.00
1052.353, 34415.57
1053.459, 34457.15
1054.564, 34443.00
1055.670, 34499.00
1056.775, 34490.00
1057.880, 34528.00
1058.985, 34646.00
1060.089, 34814.00
1061.194, 34741.00
1062.298, 34788.00
1063.402, 34671.00
1064.506, 34480.00
1065.610, 34506.00
1066.713, 34416.02
1067.817, 34634.00
1068.920, 34382.00
1070.023, 34462.00
1071.126, 34473.00
1072.229, 34189.00
1073.332, 34093.00
1074.435, 33791.00
1075.537, 33724.00
1076.639, 33411.00
1077.741, 33155.00
1078.843, 32592.00
1079.945, 32237.00
1081.046, 32161.00
1082.148, 31538.00
1083.249, 31232.00
1084.350, 30548.00
1085.451, 30441.00
1086.551, 30164.00
1087.652, 29660.00
1088.752, 29127.00
1089.853, 28906.00
1090.953, 28386.00
1092.053, 28124.00
1093.152, 27769.00
1094.252, 27614.00
1095.351, 27220.00
1096.451, 26837.00
1097.550, 27039.00
1098.649, 26457.00
1099.748, 26498.00
1100.846, 26215.00
1101.945, 26020.00
1103.043, 25831.00
1104.141, 26036.00
1105.239, 25639.00
1106.337, 25776.00
1107.434, 25677.00
1108.532, 25571.00
1109.629, 25545.00
1110.726, 25360.00
1111.823, 25400.00
1112.920, 25288.00
1114.017, 25190.00
1115.113, 25118.00
1116.210, 25026.00
1117.306, 24908.09
1118.402, 24973.00
1119.498, 24676.00
1120.593, 24632.00
1121.689, 24550.00
1122.784, 24603.00
1123.879, 24471.00
1124.974, 24244.00
1126.069, 24319.00
1127.164, 23970.00
1128.259, 23981.00
1129.353, 23862.00
1130.447, 23631.00
1131.541, 23580.00
1132.635, 23433.00
1133.729, 23187.00
1134.822, 23334.00
1135.916, 23016.00
1137.009, 23193.00
1138.102, 23069.00
1139.195, 23088.00
1140.288, 22995.00
1141.380, 22820.00
1142.473, 22825.00
1143.565, 22653.00
1144.657, 23000.00
1145.749, 22785.00
1146.841, 22399.00
1147.932, 22882.00
1149.024, 22605.00
1150.115, 22769.00
1151.206, 22715.00
1152.297, 22543.00
1153.388, 22579.00
1154.479, 22602.00
1155.569, 22666.00
1156.659, 22560.00
1157.750, 22680.00
1158.839, 22769.00
1159.929, 22797.00
1161.019, 22677.00
1162.108, 22807.00
1163.198, 22691.00
1164.287, 22749.00
1165.376, 22639.00
1166.465, 22556.00
1167.553, 22631.00
1168.642, 22727.00
1169.730, 22729.00
1170.818, 22952.00
1171.906, 22824.00
1172.994, 22574.00
1174.082, 22562.00
1175.170, 22708.00
1176.257, 22736.00
1177.344, 22836.00
1178.431, 22738.00
1179.518, 22857.00
1180.605, 22829.29
1181.691, 22975.00
1182.778, 22839.00
1183.864, 22842.20
1184.950, 22611.00
1186.036, 22711.00
1187.122, 22616.00
1188.207, 22529.00
1189.292, 22677.00
1190.378, 22731.00
1191.463, 22669.00
1192.548, 22779.00
1193.632, 22758.00
1194.717, 22850.00
1195.801, 22843.00
1196.886, 22846.00
1197.970, 22780.00
1199.054, 22914.00
1200.137, 22952.00
1201.221, 22984.00
1202.305, 22872.00
1203.388, 23017.00
1204.471, 22957.00
1205.554, 22874.00
1206.637, 23161.00
1207.719, 23020.00
1208.802, 22895.00
1209.884, 23256.00
1210.966, 23256.00
1212.048, 22980.00
1213.130, 23185.00
1214.212, 23183.00
1215.293, 23416.00
1216.374, 23417.00
1217.456, 23427.00
1218.536, 23569.00
1219.617, 23459.00
1220.698, 23588.00
1221.778, 23675.00
1222.859, 23607.00
1223.939, 23795.00
1225.019, 23749.00
1226.099, 24031.00
1227.178, 23963.00
1228.258, 23889.00
1229.337, 23900.00
1230.417, 24055.00
1231.496, 24155.00
1232.574, 23889.00
1233.653, 24151.00
1234.732, 24069.00
1235.810, 24349.00
1236.888, 24233.00
1237.966, 24219.00
1239.044, 24271.00
1240.122, 24362.00
1241.199, 24274.00
1242.277, 24502.00
1243.354, 24181.00
1244.431, 24319.00
1245.508, 24189.00
1246.585, 24410.00
1247.661, 24306.00
1248.738, 24177.00
1249.814, 24253.00
1250.890, 24324.00
1251.966, 24207.00
1253.042, 24248.00
1254.117, 24315.00
1255.193, 24349.00
1256.268, 24307.00
1257.343, 24272.00
1258.418, 24352.77
1259.493, 24371.00
1260.567, 24486.00
1261.642, 24455.00
1262.716, 24483.00
1263.790, 24419.00
1264.864, 24404.00
1265.938, 24486.00
1267.011, 24662.00
1268.085, 24303.00
1269.158, 24588.00
1270.231, 24375.00
1271.304, 24375.00
1272.377, 24505.00
1273.450, 24558.00
1274.522, 24573.76
1275.594, 24513.00
1276.666, 24569.00
1277.738, 24582.00
1278.810, 24500.00
1279.882, 24646.00
1280.953, 24604.00
1282.025, 24548.00
1283.096, 24643.00
1284.167, 24240.00
1285.238, 24545.00
1286.308, 24362.00
1287.379, 24260.00
1288.449, 24411.00
1289.519, 24399.00
1290.589, 24474.00
1291.659, 24529.00
1292.729, 24521.00
1293.798, 24399.00
1294.868, 24287.00
1295.937, 24385.00
1297.006, 24267.80
1298.075, 24343.00
1299.143, 24164.00
1300.212, 24288.00
1301.280, 24185.00
1302.348, 24188.00
1303.416, 24203.00
1304.484, 24317.00
1305.552, 24065.00
1306.620, 24036.00
1307.687, 24197.00
1308.754, 24306.00
1309.821, 24350.00
1310.888, 24432.00
1311.955, 24597.00
1313.021, 24556.79
1314.088, 24587.00
1315.154, 24525.00
1316.220, 24469.00
1317.286, 24434.00
1318.352, 24647.00
1319.417, 24688.00
1320.483, 24686.00
1321.548, 24947.00
1322.613, 24765.00
1323.678, 24726.00
1324.743, 24595.00
1325.807, 24738.00
1326.872, 24748.00
1327.936, 24721.00
1329.000, 24512.00
1330.064, 24711.00
1331.128, 24465.00
1332.191, 24281.00
1333.255, 24505.00
1334.318, 24481.00
1335.381, 24473.00
1336.444, 24453.00
