##NAMES=Dravite
##RRUFFID=R060280
##IDEAL CHEMISTRY=NaMg_3_Al_6_(Si_6_O_18_)(BO_3_)_3_(OH)_3_OH
##LOCALITY=near Merelani, Tanzania
##OWNER=RRUFF
##SOURCE=Herb Obodda
##DESCRIPTION=Green fragment
##STATUS=The identification of this mineral has been confirmed by X-ray diffraction and chemical analysis
##URL=rruff.info/R060280
##MEASURED CHEMISTRY=(Na_0.45_Ca_0.40_[box]_0.15_)(Mg_0.89_Al_0.07_Ti_0.04_)_3_Al_6_(BO_3_)_3_(Si_0.93_B_0.07_)_6_O_18_((OH)_0.95_O_0.05_)_4_
##PIN_ID=L01324
##ORIENTATION=Laser parallel to a* (1 0 0). Fiducial mark perpendicular to laser is parallel to c [0 0 1]
168.4860, 19100.00
169.7110, 19105.00
170.9360, 19164.00
172.1610, 19213.00
173.3850, 19122.00
174.6100, 19309.00
175.8340, 19198.00
177.0580, 19283.00
178.2820, 19418.00
179.5050, 19464.00
180.7290, 19602.00
181.9520, 19706.00
183.1760, 19767.00
184.3990, 20070.00
185.6220, 20279.00
186.8450, 20591.00
188.0670, 21083.00
189.2900, 21408.00
190.5120, 21875.00
191.7340, 22454.00
192.9560, 22721.00
194.1780, 23149.00
195.4000, 23485.00
196.6220, 24104.00
197.8430, 24465.00
199.0640, 25235.00
200.2860, 25821.00
201.5070, 26760.00
202.7270, 27747.00
203.9480, 28751.00
205.1690, 29847.00
206.3890, 31353.00
207.6090, 32765.00
208.8290, 34687.00
210.0490, 36375.00
211.2690, 38543.00
212.4890, 40049.00
213.7080, 41711.00
214.9280, 42576.00
216.1470, 42794.00
217.3660, 42684.00
218.5850, 41983.00
219.8030, 40807.00
221.0220, 39438.00
222.2400, 37773.00
223.4590, 36625.00
224.6770, 35471.00
225.8950, 34618.00
227.1120, 33988.28
228.3300, 33345.00
229.5480, 33273.00
230.7650, 33221.00
231.9820, 33309.76
233.1990, 33544.51
234.4160, 33866.00
235.6330, 34285.00
236.8490, 34812.00
238.0660, 35372.00
239.2820, 35632.00
240.4980, 36110.00
241.7140, 36796.00
242.9300, 36716.00
244.1460, 36939.00
245.3610, 36655.00
246.5770, 36029.00
247.7920, 35490.00
249.0070, 34511.00
250.2220, 33696.00
251.4370, 32688.00
252.6510, 31552.00
253.8660, 30714.00
255.0800, 29755.00
256.2940, 29025.00
257.5080, 28586.00
258.7220, 28368.00
259.9360, 28033.00
261.1490, 27482.00
262.3630, 27062.00
263.5760, 26855.00
264.7890, 26949.00
266.0020, 26940.00
267.2150, 26706.00
268.4270, 26817.00
269.6400, 26810.00
270.8520, 26718.00
272.0640, 26783.00
273.2760, 26754.00
274.4880, 26486.00
275.7000, 26263.00
276.9120, 26128.00
278.1230, 25796.00
279.3340, 25536.00
280.5450, 25460.00
281.7560, 25143.00
282.9670, 24775.00
284.1780, 24577.00
285.3880, 24484.00
286.5980, 24266.00
287.8090, 24097.00
289.0190, 23874.00
290.2290, 23811.31
291.4380, 23746.66
292.6480, 23760.00
293.8570, 23756.00
295.0670, 23851.00
296.2760, 23898.00
297.4850, 23912.00
298.6930, 24127.00
299.9020, 24257.00
301.1110, 24261.00
302.3190, 24415.00
303.5270, 24347.00
304.7350, 24682.00
305.9430, 24822.00
307.1510, 24973.00
308.3580, 25261.00
309.5660, 25363.00
310.7730, 25632.00
311.9800, 26023.00
313.1870, 26353.00
314.3940, 26381.00
315.6010, 26630.00
316.8070, 26535.00
318.0130, 26405.00
319.2200, 26467.00
320.4260, 26551.00
321.6310, 26645.00
322.8370, 26745.42
324.0430, 26825.00
325.2480, 27003.00
326.4540, 27246.00
327.6590, 27451.00
328.8640, 28282.00
330.0680, 28802.00
331.2730, 29393.00
332.4780, 29857.00
333.6820, 30589.00
334.8860, 31318.00
336.0900, 31737.00
337.2940, 32060.00
338.4980, 32595.00
339.7010, 32851.00
340.9050, 33119.00
342.1080, 33324.00
343.3110, 33355.00
344.5140, 33432.00
345.7170, 33380.00
346.9200, 33714.00
348.1220, 33802.00
349.3240, 34124.00
350.5270, 34664.00
351.7290, 35178.00
352.9310, 35844.00
354.1320, 37154.00
355.3340, 38076.00
356.5350, 39434.00
357.7370, 41375.00
358.9380, 43209.00
360.1390, 45574.00
361.3400, 47921.00
362.5400, 50314.00
363.7410, 52443.00
364.9410, 55236.00
366.1410, 57115.00
367.3410, 58818.00
368.5410, 59882.00
369.7410, 60346.00
370.9400, 59853.00
372.1400, 58770.00
373.3390, 56631.00
374.5380, 54365.00
375.7370, 51843.00
376.9360, 49149.00
378.1350, 46605.00
379.3330, 44282.00
380.5310, 42053.00
381.7300, 40370.00
382.9280, 38665.00
384.1260, 36994.00
385.3230, 36090.00
386.5210, 34871.00
387.7180, 34080.00
388.9160, 33501.00
390.1130, 32943.00
391.3100, 32467.83
392.5060, 32015.00
393.7030, 31736.00
394.9000, 31403.00
396.0960, 31117.00
397.2920, 30957.00
398.4880, 30970.00
399.6840, 30891.00
400.8800, 30764.86
402.0750, 30725.00
403.2710, 30534.00
404.4660, 30205.00
405.6610, 30092.00
406.8560, 29573.00
408.0510, 29430.00
409.2450, 29219.00
410.4400, 28710.00
411.6340, 28531.00
412.8280, 28128.00
414.0220, 27735.00
415.2160, 27473.00
416.4100, 27277.00
417.6030, 26973.00
418.7970, 26911.00
419.9900, 26536.00
421.1830, 26592.00
422.3760, 26353.00
423.5690, 26216.00
424.7610, 26266.00
425.9540, 26233.00
427.1460, 26176.00
428.3380, 26178.00
429.5300, 26208.58
430.7220, 26099.00
431.9140, 26341.00
433.1050, 26420.00
434.2970, 26534.00
435.4880, 26394.00
436.6790, 26495.00
437.8700, 26446.00
439.0610, 26485.00
440.2510, 26618.00
441.4420, 26538.00
442.6320, 26757.00
443.8220, 26680.00
445.0120, 26716.00
446.2020, 26811.37
447.3910, 26683.00
448.5810, 26813.00
449.7700, 26685.00
450.9600, 26415.00
452.1490, 26332.00
453.3370, 26247.00
454.5260, 26411.00
455.7150, 26296.00
456.9030, 26078.00
458.0910, 26304.00
459.2800, 26140.00
460.4670, 26046.00
461.6550, 26352.00
462.8430, 26165.00
464.0300, 25900.00
465.2180, 26174.00
466.4050, 25986.00
467.5920, 26135.00
468.7790, 25982.00
469.9650, 26127.00
471.1520, 26314.00
472.3380, 26335.00
473.5250, 26504.00
474.7110, 26801.00
475.8970, 26610.00
477.0820, 26826.00
478.2680, 26976.00
479.4540, 27301.00
480.6390, 27400.00
481.8240, 27510.00
483.0090, 27640.00
484.1940, 27800.00
485.3780, 28104.00
486.5630, 28295.00
487.7470, 28434.00
488.9320, 28712.00
490.1160, 28713.00
491.3000, 28788.00
492.4830, 29026.00
493.6670, 28907.00
494.8500, 29377.00
496.0340, 29822.00
497.2170, 29695.00
498.4000, 29948.00
499.5820, 30116.00
500.7650, 30581.00
501.9480, 30586.00
503.1300, 30771.00
504.3120, 30852.00
505.4940, 30922.00
506.6760, 30812.00
507.8580, 30844.00
509.0390, 30424.00
510.2210, 30190.00
511.4020, 29907.00
512.5830, 29618.00
513.7640, 29296.00
514.9450, 28927.00
516.1250, 28676.00
517.3060, 28479.00
518.4860, 28365.00
519.6660, 28109.20
520.8460, 27750.00
522.0260, 27720.00
523.2060, 27604.00
524.3850, 27503.00
525.5650, 27800.00
526.7440, 27819.00
527.9230, 27966.00
529.1020, 28184.00
530.2810, 28423.00
531.4590, 28600.00
532.6380, 28709.00
533.8160, 29106.00
534.9940, 29303.00
536.1720, 29190.00
537.3500, 29002.00
538.5270, 29137.00
539.7050, 28930.00
540.8820, 28879.00
542.0590, 28520.00
543.2360, 28235.00
544.4130, 28211.00
545.5900, 27944.00
546.7660, 27725.00
547.9430, 27603.00
549.1190, 27156.00
550.2950, 26913.00
551.4710, 26603.00
552.6470, 26565.00
553.8220, 26396.00
554.9980, 26206.00
556.1730, 26148.00
557.3480, 25913.00
558.5230, 25949.00
559.6980, 25607.00
560.8730, 25634.00
562.0470, 25546.00
563.2220, 25208.00
564.3960, 25331.00
565.5700, 25063.00
566.7440, 25102.00
567.9170, 25096.00
569.0910, 25088.00
570.2640, 25033.00
571.4380, 24948.00
572.6110, 25091.00
573.7840, 24983.00
574.9570, 25053.00
576.1290, 24837.00
577.3020, 25094.00
578.4740, 25352.00
579.6460, 25184.00
580.8180, 25262.00
581.9900, 25317.00
583.1620, 25020.00
584.3330, 25394.00
585.5040, 25357.00
586.6760, 25366.00
587.8470, 25676.00
589.0180, 25730.00
590.1880, 25526.00
591.3590, 25693.00
592.5290, 25856.00
593.7000, 25726.00
594.8700, 25888.00
596.0400, 26121.00
597.2090, 26088.00
598.3790, 26206.00
599.5490, 26216.00
600.7180, 26435.00
601.8870, 26549.00
603.0560, 26506.00
604.2250, 26460.00
605.3940, 26907.00
606.5620, 26774.00
607.7300, 26823.00
608.8990, 26879.00
610.0670, 26895.00
611.2350, 27037.86
612.4020, 27162.61
613.5700, 27333.00
614.7370, 27498.00
615.9050, 27674.00
617.0720, 27823.00
618.2390, 28022.00
619.4060, 28269.58
620.5720, 28610.00
621.7390, 28846.00
622.9050, 29080.00
624.0710, 29445.00
625.2370, 29483.00
626.4030, 29937.00
627.5690, 30127.00
628.7340, 29985.00
629.9000, 30174.00
631.0650, 30090.00
632.2300, 30166.00
633.3950, 29931.00
634.5600, 29844.00
635.7240, 29366.00
636.8890, 29476.00
638.0530, 29231.32
639.2170, 29248.00
640.3810, 29007.00
641.5450, 29268.00
642.7080, 29256.00
643.8720, 29412.00
645.0350, 29513.00
646.1980, 29921.00
647.3610, 30360.00
648.5240, 30430.00
649.6870, 30674.00
650.8490, 30828.00
652.0120, 31527.00
653.1740, 31910.00
654.3360, 32047.00
655.4980, 32273.00
656.6600, 32519.00
657.8210, 32905.00
658.9830, 33256.00
660.1440, 33558.04
661.3050, 34093.00
662.4660, 34269.00
663.6270, 34731.00
664.7870, 35228.00
665.9480, 35710.00
667.1080, 35767.00
668.2680, 36171.00
669.4280, 36554.00
670.5880, 36423.00
671.7480, 36669.00
672.9070, 36454.00
674.0670, 36690.00
675.2260, 36221.00
676.3850, 36085.00
677.5440, 35828.00
678.7030, 35495.00
679.8610, 35345.00
681.0200, 35334.00
682.1780, 34862.00
683.3360, 34853.00
684.4940, 34912.00
685.6520, 35005.00
686.8090, 35135.05
687.9670, 35184.00
689.1240, 35560.00
690.2810, 35783.00
691.4380, 36163.00
692.5950, 36685.00
693.7520, 37383.00
694.9080, 38089.00
696.0650, 39153.00
697.2210, 39744.00
698.3770, 40946.00
699.5330, 41715.00
700.6880, 42507.00
701.8440, 43665.00
702.9990, 44070.00
704.1550, 44559.00
705.3100, 44646.00
706.4650, 44596.00
707.6190, 44090.00
708.7740, 43643.00
709.9290, 42903.00
711.0830, 41629.00
712.2370, 40160.00
713.3910, 38797.00
714.5450, 37242.00
715.6980, 36011.00
716.8520, 35018.00
718.0050, 33893.00
719.1580, 33075.00
720.3110, 32573.00
721.4640, 31756.00
722.6170, 31078.00
723.7700, 30706.00
724.9220, 30204.00
726.0740, 29832.00
727.2260, 29965.00
728.3780, 29702.00
729.5300, 29587.00
730.6810, 29595.00
731.8330, 29478.00
732.9840, 29397.00
734.1350, 29359.00
735.2860, 29407.59
736.4370, 29446.00
737.5880, 29527.48
738.7380, 29683.00
739.8880, 29772.00
741.0390, 29926.78
742.1890, 30102.00
743.3380, 30254.00
744.4880, 30605.00
745.6380, 30871.00
746.7870, 31173.00
747.9360, 31693.00
749.0850, 32012.00
750.2340, 32683.00
751.3830, 33025.00
752.5310, 33526.00
753.6800, 34035.00
754.8280, 34803.00
755.9760, 35291.00
757.1240, 35570.00
758.2720, 35789.00
759.4190, 35768.00
760.5670, 35669.00
761.7140, 35386.09
762.8610, 35465.00
764.0080, 34543.00
765.1550, 34262.00
766.3020, 33867.00
767.4480, 33549.00
768.5950, 33061.00
769.7410, 32704.00
770.8870, 32518.00
772.0330, 32195.00
773.1780, 31998.00
774.3240, 32096.00
775.4690, 31485.00
776.6140, 31714.00
777.7590, 31660.00
778.9040, 31470.00
780.0490, 31470.00
781.1940, 31449.00
782.3380, 31470.00
783.4820, 31393.00
784.6260, 31580.00
785.7700, 31764.00
786.9140, 31557.00
788.0580, 31665.00
789.2010, 31636.00
790.3450, 31787.00
791.4880, 31851.00
792.6310, 31830.00
793.7730, 32053.00
794.9160, 32052.00
796.0590, 31872.00
797.2010, 31864.00
798.3430, 32022.00
799.4850, 32032.00
800.6270, 31813.00
801.7690, 31964.00
802.9100, 32290.00
804.0520, 32213.00
805.1930, 32562.00
806.3340, 32526.00
807.4750, 32940.00
808.6160, 33488.00
809.7560, 34007.00
810.8970, 34442.00
812.0370, 35064.00
813.1770, 35651.00
814.3170, 35885.00
815.4570, 36486.00
816.5960, 36792.00
817.7360, 36823.00
818.8750, 37271.00
820.0140, 36906.00
821.1530, 36780.00
822.2920, 36374.00
823.4310, 36350.00
824.5690, 35843.00
825.7070, 35245.00
826.8460, 34856.00
827.9840, 34006.00
829.1220, 33574.00
830.2590, 32768.00
831.3970, 32356.00
832.5340, 32002.00
833.6710, 31350.00
834.8080, 31210.00
835.9450, 30518.00
837.0820, 30073.00
838.2190, 29801.00
839.3550, 29366.00
840.4910, 29137.00
841.6270, 28612.00
842.7630, 28145.00
843.8990, 27807.00
845.0350, 27697.00
846.1700, 27375.00
847.3060, 27301.00
848.4410, 27022.00
849.5760, 26723.00
850.7100, 26500.00
851.8450, 26424.00
852.9800, 26136.00
854.1140, 26122.00
855.2480, 25992.00
856.3820, 25959.00
857.5160, 26028.00
858.6500, 25821.00
859.7830, 25937.00
860.9170, 25814.00
862.0500, 26076.00
863.1830, 25968.00
864.3160, 25657.00
865.4480, 25834.00
866.5810, 25566.00
867.7130, 25652.00
868.8460, 25556.00
869.9780, 25629.00
871.1100, 25484.00
872.2410, 25649.00
873.3730, 25375.00
874.5050, 25715.00
875.6360, 25547.00
876.7670, 25543.00
877.8980, 25540.00
879.0290, 25750.00
880.1590, 25721.00
881.2900, 25657.00
882.4200, 25869.00
883.5500, 25855.00
884.6800, 25845.00
885.8100, 25926.58
886.9400, 25910.73
888.0690, 25957.00
889.1990, 25972.00
890.3280, 25967.00
891.4570, 26047.00
892.5860, 25989.00
893.7140, 26122.00
894.8430, 26315.00
895.9710, 26261.00
897.1000, 26541.00
898.2280, 26471.00
899.3560, 26509.00
900.4830, 26602.00
901.6110, 26572.00
902.7380, 26796.00
903.8660, 26649.00
904.9930, 26795.00
906.1200, 26976.00
907.2460, 26963.00
908.3730, 26941.00
909.5000, 27303.00
910.6260, 27014.00
911.7520, 26927.00
912.8780, 27538.00
914.0040, 27218.00
915.1290, 27035.00
916.2550, 27432.00
917.3800, 27260.00
918.5050, 27552.00
919.6300, 27612.00
920.7550, 27336.00
921.8800, 27591.00
923.0040, 27554.00
924.1290, 27234.00
925.2530, 27463.00
926.3770, 27487.00
927.5010, 27596.00
928.6250, 27806.00
929.7480, 27711.00
930.8720, 27856.00
931.9950, 27810.00
933.1180, 27954.00
934.2410, 27842.00
935.3640, 28135.00
936.4860, 28478.00
937.6090, 28615.00
938.7310, 28556.00
939.8530, 28522.00
940.9750, 28614.00
942.0970, 28667.85
943.2180, 28688.52
944.3400, 28874.00
945.4610, 28854.00
946.5820, 28873.00
947.7030, 29139.00
948.8240, 29207.00
949.9450, 29466.00
951.0650, 29359.00
952.1860, 29862.00
953.3060, 30270.00
954.4260, 30502.00
955.5460, 30004.00
956.6650, 29999.00
957.7850, 30311.00
958.9040, 30649.00
960.0230, 30496.00
961.1420, 30675.00
962.2610, 30772.00
963.3800, 31013.00
964.4990, 31032.00
965.6170, 31367.00
966.7350, 31364.00
967.8530, 31626.00
968.9710, 31528.00
970.0890, 31678.00
971.2070, 31749.00
972.3240, 31857.00
973.4410, 31893.76
974.5580, 31774.00
975.6750, 31966.00
976.7920, 31962.00
977.9090, 32066.00
979.0250, 32121.00
980.1410, 32108.00
981.2580, 31913.00
982.3740, 31950.00
983.4890, 31636.00
984.6050, 31735.00
985.7200, 31570.00
986.8360, 31527.00
987.9510, 31290.00
989.0660, 31143.00
990.1810, 31150.00
991.2950, 31142.00
992.4100, 31095.00
993.5240, 30924.00
994.6390, 30928.00
995.7530, 30906.00
996.8660, 30851.00
997.9800, 30926.00
999.0940, 31228.00
1000.207, 31179.00
1001.320, 31464.00
1002.433, 31568.00
1003.546, 31629.00
1004.659, 31582.00
1005.772, 31580.00
1006.884, 31625.00
1007.996, 31775.00
1009.108, 32063.00
1010.220, 32207.00
1011.332, 32436.00
1012.444, 32663.00
1013.555, 32720.00
1014.666, 33153.00
1015.777, 33238.00
1016.888, 33396.00
1017.999, 34030.00
1019.110, 34171.00
1020.220, 34438.00
1021.331, 34851.00
1022.441, 35143.00
1023.551, 35291.00
1024.661, 35357.00
1025.770, 35528.00
1026.880, 35650.00
1027.989, 36033.00
1029.098, 36388.00
1030.207, 36519.00
1031.316, 36483.00
1032.425, 36656.00
1033.533, 37038.00
1034.642, 37003.00
1035.750, 37398.56
1036.858, 37799.00
1037.966, 37887.00
1039.073, 38162.00
1040.181, 38110.00
1041.288, 38621.00
1042.396, 38627.00
1043.503, 38829.00
1044.610, 39163.00
1045.716, 39152.00
1046.823, 39274.00
1047.929, 39615.00
1049.036, 39523.00
1050.142, 39836.00
1051.248, 39716.00
1052.353, 39761.00
1053.459, 39896.00
1054.564, 39949.00
1055.670, 39629.00
1056.775, 39638.00
1057.880, 39964.00
1058.985, 39678.00
1060.089, 39812.00
1061.194, 39692.00
1062.298, 40016.00
1063.402, 39725.00
1064.506, 39811.00
1065.610, 39923.00
1066.713, 39988.00
1067.817, 39987.00
1068.920, 39839.00
1070.023, 39913.00
1071.126, 39653.00
1072.229, 39475.00
1073.332, 39491.00
1074.435, 39392.00
1075.537, 38994.00
1076.639, 39244.00
1077.741, 38657.00
1078.843, 38378.00
1079.945, 37703.00
1081.046, 37734.00
1082.148, 37281.00
1083.249, 36923.00
1084.350, 36615.00
1085.451, 36292.00
1086.551, 35578.00
1087.652, 35184.00
1088.752, 34868.00
1089.853, 34712.00
1090.953, 34040.00
1092.053, 33703.00
1093.152, 33483.00
1094.252, 33111.00
1095.351, 32989.00
1096.451, 32654.00
1097.550, 32344.00
1098.649, 32260.00
1099.748, 31878.00
1100.846, 32008.00
1101.945, 31846.00
1103.043, 31696.00
1104.141, 31385.00
1105.239, 31518.00
1106.337, 31321.00
1107.434, 31418.00
1108.532, 31537.00
1109.629, 31281.00
1110.726, 30933.00
1111.823, 30904.00
1112.920, 30826.00
1114.017, 30882.00
1115.113, 30655.00
1116.210, 30871.00
1117.306, 30357.00
1118.402, 30690.00
1119.498, 30445.00
1120.593, 30308.00
1121.689, 30418.00
1122.784, 30435.00
1123.879, 30294.54
1124.974, 30058.00
1126.069, 30009.00
1127.164, 29733.00
1128.259, 29498.00
1129.353, 29512.00
1130.447, 29487.00
1131.541, 29281.00
1132.635, 29081.00
1133.729, 29127.00
1134.822, 29055.00
1135.916, 28936.00
1137.009, 28962.00
1138.102, 28650.00
1139.195, 28859.00
1140.288, 28631.00
1141.380, 28461.00
1142.473, 28617.00
1143.565, 28623.00
1144.657, 28659.00
1145.749, 28544.00
1146.841, 28466.00
1147.932, 28492.00
1149.024, 28327.00
1150.115, 28542.00
1151.206, 28749.00
1152.297, 28608.00
1153.388, 28364.00
1154.479, 28567.00
1155.569, 28445.00
1156.659, 28397.00
1157.750, 28400.00
1158.839, 28672.00
1159.929, 28516.00
1161.019, 28570.00
1162.108, 28457.00
1163.198, 28480.00
1164.287, 28532.00
1165.376, 28574.00
1166.465, 28410.00
1167.553, 28588.00
1168.642, 28467.00
1169.730, 28456.00
1170.818, 28583.00
1171.906, 28670.00
1172.994, 28590.00
1174.082, 28609.00
1175.170, 28598.00
1176.257, 28546.00
1177.344, 28513.00
1178.431, 28436.00
1179.518, 28632.00
1180.605, 28562.00
1181.691, 28490.00
1182.778, 28378.00
1183.864, 28745.00
1184.950, 28498.00
1186.036, 28678.00
1187.122, 28714.00
1188.207, 28596.00
1189.292, 28799.00
1190.378, 28821.00
1191.463, 28498.00
1192.548, 28811.00
1193.632, 28790.00
1194.717, 28716.00
1195.801, 28754.00
1196.886, 28679.00
1197.970, 28944.00
1199.054, 28780.00
1200.137, 29055.00
1201.221, 28728.00
1202.305, 28948.00
1203.388, 28938.00
1204.471, 29111.00
1205.554, 28991.00
1206.637, 29112.00
1207.719, 28888.00
1208.802, 29083.00
1209.884, 29320.00
1210.966, 29293.00
1212.048, 29234.00
1213.130, 29322.00
1214.212, 29524.00
1215.293, 29504.00
1216.374, 29597.00
1217.456, 29629.00
1218.536, 29675.87
1219.617, 29728.29
1220.698, 29810.00
1221.778, 29820.00
1222.859, 29930.00
1223.939, 30006.00
1225.019, 30023.00
1226.099, 30009.00
1227.178, 30107.00
1228.258, 30346.00
1229.337, 30285.00
1230.417, 30439.00
1231.496, 30363.00
1232.574, 30531.00
1233.653, 30584.00
1234.732, 30542.00
1235.810, 30603.00
1236.888, 30758.00
1237.966, 30857.00
1239.044, 30734.00
1240.122, 30674.00
1241.199, 30685.00
1242.277, 30723.00
1243.354, 30840.00
1244.431, 30739.00
1245.508, 30583.00
1246.585, 30737.00
1247.661, 30764.00
1248.738, 30475.00
1249.814, 30756.00
1250.890, 30665.00
1251.966, 30653.00
1253.042, 30829.00
1254.117, 30625.00
1255.193, 30449.00
1256.268, 30357.00
1257.343, 30494.00
1258.418, 30664.00
1259.493, 30433.00
1260.567, 30501.00
1261.642, 30507.00
1262.716, 30628.00
1263.790, 31001.00
1264.864, 30770.00
1265.938, 30889.00
1267.011, 30707.00
1268.085, 30722.00
1269.158, 30929.00
1270.231, 30629.00
1271.304, 30682.00
1272.377, 30732.00
1273.450, 31082.00
1274.522, 30862.00
1275.594, 30979.00
1276.666, 30807.00
1277.738, 30945.00
1278.810, 30676.00
1279.882, 30741.00
1280.953, 30819.00
1282.025, 30747.00
1283.096, 30595.00
1284.167, 30806.00
1285.238, 30760.00
1286.308, 30768.00
1287.379, 30483.00
1288.449, 30858.00
1289.519, 30631.00
1290.589, 30919.00
1291.659, 30603.00
1292.729, 30658.00
1293.798, 30741.00
1294.868, 30700.00
1295.937, 30832.00
1297.006, 30811.00
1298.075, 30945.00
1299.143, 30793.00
1300.212, 30803.00
1301.280, 30921.00
1302.348, 30876.00
1303.416, 30858.00
1304.484, 30783.00
1305.552, 30829.98
1306.620, 30822.34
1307.687, 30924.00
1308.754, 30877.00
1309.821, 30933.00
1310.888, 30964.00
1311.955, 30854.00
1313.021, 30843.00
1314.088, 30885.00
1315.154, 31017.00
1316.220, 31021.00
1317.286, 31015.52
1318.352, 30943.00
1319.417, 30962.00
1320.483, 30958.00
1321.548, 30992.00
1322.613, 30957.00
1323.678, 31215.00
1324.743, 31183.00
1325.807, 30759.00
1326.872, 30927.00
1327.936, 30777.00
1329.000, 30880.00
1330.064, 30861.00
1331.128, 30772.00
1332.191, 31017.00
1333.255, 30853.00
1334.318, 30920.00
1335.381, 30727.00
1336.444, 30930.00
