##NAMES=Dravite
##RRUFFID=R060286
##IDEAL CHEMISTRY=NaMg_3_Al_6_(Si_6_O_18_)(BO_3_)_3_(OH)_3_OH
##LOCALITY=Badakshan Province, Afghanistan
##OWNER=RRUFF
##SOURCE=Herb Obodda
##DESCRIPTION=Brown prismatic tourmaline crystal
##STATUS=The identification of this mineral has been confirmed by X-ray diffraction and chemical analysis
##URL=rruff.info/R060286
##MEASURED CHEMISTRY=(Na_0.48_Ca_0.38_[box]_0.14_)_Σ=1_(Mg_2.90_Ti_0.10_)_Σ=3_Al_6.00_(B_1.00_O_3_)_3_(Si_5.56_B_0.44_)_Σ=6_O_18_(OH)_4_; (OH) assumed from stoichiometry; B estimated by difference and charge balance
##PIN_ID=L00909
##ORIENTATION=Laser parallel to a* (1 0 0). Fiducial mark perpendicular to laser is parallel to -c [0 0 -1]
118.1340, 13527.00
119.3650, 13083.00
120.5960, 12784.00
121.8270, 12606.00
123.0580, 12698.00
124.2880, 12906.00
125.5190, 12401.00
126.7490, 12240.00
127.9790, 12404.00
129.2090, 12593.00
130.4390, 12926.00
131.6680, 12988.00
132.8980, 13155.00
134.1270, 13257.00
135.3560, 13362.00
136.5850, 13572.00
137.8140, 13894.00
139.0430, 14216.00
140.2710, 14413.00
141.5000, 14402.00
142.7280, 14435.00
143.9560, 14262.00
145.1840, 14378.00
146.4120, 14514.00
147.6390, 14634.00
148.8670, 14467.00
150.0940, 14384.00
151.3210, 14461.00
152.5490, 14361.00
153.7750, 13951.00
155.0020, 13615.00
156.2290, 13396.00
157.4550, 12982.00
158.6810, 12759.00
159.9080, 12559.00
161.1340, 12406.00
162.3590, 12401.00
163.5850, 12403.00
164.8110, 12454.00
166.0360, 12338.00
167.2610, 12326.00
168.4860, 12374.00
169.7110, 12605.00
170.9360, 12575.00
172.1610, 12628.00
173.3850, 12502.00
174.6100, 12425.00
175.8340, 12554.00
177.0580, 12583.00
178.2820, 12707.00
179.5050, 12965.00
180.7290, 13165.00
181.9520, 13548.00
183.1760, 14214.00
184.3990, 15332.00
185.6220, 16867.00
186.8450, 18451.00
188.0670, 19322.00
189.2900, 21111.00
190.5120, 24175.00
191.7340, 27181.00
192.9560, 29916.00
194.1780, 32202.00
195.4000, 33659.00
196.6220, 33495.00
197.8430, 33428.00
199.0640, 33144.00
200.2860, 30904.00
201.5070, 28809.00
202.7270, 27267.00
203.9480, 26713.00
205.1690, 27133.00
206.3890, 28868.00
207.6090, 30416.00
208.8290, 33092.00
210.0490, 35529.00
211.2690, 37781.00
212.4890, 39846.00
213.7080, 40561.00
214.9280, 40561.00
216.1470, 39419.00
217.3660, 37819.00
218.5850, 35655.00
219.8030, 33186.00
221.0220, 30922.00
222.2400, 29356.00
223.4590, 27981.00
224.6770, 26831.00
225.8950, 26001.00
227.1120, 25551.00
228.3300, 25405.00
229.5480, 25291.00
230.7650, 25461.00
231.9820, 25693.00
233.1990, 26146.00
234.4160, 26924.00
235.6330, 27871.00
236.8490, 28921.00
238.0660, 29794.00
239.2820, 30924.00
240.4980, 32100.00
241.7140, 32520.00
242.9300, 33065.00
244.1460, 32740.00
245.3610, 32308.00
246.5770, 31144.00
247.7920, 29680.00
249.0070, 28075.00
250.2220, 26166.00
251.4370, 24485.00
252.6510, 23042.00
253.8660, 21718.00
255.0800, 20597.00
256.2940, 19754.00
257.5080, 19571.00
258.7220, 18977.96
259.9360, 18532.61
261.1490, 18443.00
262.3630, 17941.00
263.5760, 17466.00
264.7890, 17655.00
266.0020, 17571.00
267.2150, 17586.00
268.4270, 17694.00
269.6400, 17885.00
270.8520, 17890.00
272.0640, 18191.00
273.2760, 18119.00
274.4880, 17996.00
275.7000, 17949.00
276.9120, 17662.00
278.1230, 17596.00
279.3340, 17278.00
280.5450, 17226.00
281.7560, 17102.00
282.9670, 16911.00
284.1780, 16823.00
285.3880, 16744.03
286.5980, 16698.00
287.8090, 16676.00
289.0190, 16708.00
290.2290, 16745.00
291.4380, 16720.00
292.6480, 16756.00
293.8570, 16706.00
295.0670, 16465.00
296.2760, 16551.00
297.4850, 16392.00
298.6930, 16491.00
299.9020, 16343.00
301.1110, 16292.00
302.3190, 16353.00
303.5270, 16441.00
304.7350, 16460.00
305.9430, 16702.00
307.1510, 16836.00
308.3580, 17031.00
309.5660, 17232.00
310.7730, 17719.00
311.9800, 17993.00
313.1870, 18257.00
314.3940, 18696.00
315.6010, 18785.00
316.8070, 19000.00
318.0130, 18999.00
319.2200, 19018.00
320.4260, 18996.00
321.6310, 19205.00
322.8370, 19276.00
324.0430, 19578.00
325.2480, 20008.00
326.4540, 20400.00
327.6590, 21200.00
328.8640, 21837.00
330.0680, 22283.00
331.2730, 22826.00
332.4780, 23476.51
333.6820, 24189.00
334.8860, 24788.00
336.0900, 25316.00
337.2940, 25727.19
338.4980, 26294.00
339.7010, 26328.00
340.9050, 26471.00
342.1080, 26658.00
343.3110, 26403.00
344.5140, 26535.00
345.7170, 26484.00
346.9200, 26682.00
348.1220, 26631.00
349.3240, 27175.00
350.5270, 27775.00
351.7290, 28492.00
352.9310, 29840.00
354.1320, 30994.00
355.3340, 32701.00
356.5350, 34972.00
357.7370, 37388.00
358.9380, 40033.00
360.1390, 43386.00
361.3400, 46908.00
362.5400, 49767.00
363.7410, 53126.00
364.9410, 55682.00
366.1410, 57936.00
367.3410, 59145.00
368.5410, 59780.00
369.7410, 59155.00
370.9400, 58377.00
372.1400, 56216.00
373.3390, 53374.00
374.5380, 50375.00
375.7370, 47017.00
376.9360, 43866.00
378.1350, 40649.00
379.3330, 37624.00
380.5310, 35284.00
381.7300, 32889.00
382.9280, 31136.00
384.1260, 29573.00
385.3230, 28300.00
386.5210, 27022.00
387.7180, 26210.00
388.9160, 25218.00
390.1130, 24825.00
391.3100, 24178.00
392.5060, 23753.00
393.7030, 23357.00
394.9000, 23070.00
396.0960, 22878.00
397.2920, 22551.00
398.4880, 22327.00
399.6840, 22408.00
400.8800, 22254.00
402.0750, 22333.00
403.2710, 22459.00
404.4660, 21981.00
405.6610, 21736.00
406.8560, 21667.00
408.0510, 21179.00
409.2450, 21038.00
410.4400, 20334.00
411.6340, 20038.00
412.8280, 19674.00
414.0220, 19275.00
415.2160, 19029.00
416.4100, 18589.00
417.6030, 18287.00
418.7970, 18001.00
419.9900, 17844.00
421.1830, 17574.00
422.3760, 17469.00
423.5690, 17337.00
424.7610, 17231.00
425.9540, 17401.00
427.1460, 17243.00
428.3380, 17464.00
429.5300, 17486.00
430.7220, 17366.00
431.9140, 17381.00
433.1050, 17401.00
434.2970, 17526.00
435.4880, 17339.00
436.6790, 17383.00
437.8700, 17314.00
439.0610, 17200.00
440.2510, 17069.00
441.4420, 17024.00
442.6320, 17021.37
443.8220, 17265.00
445.0120, 17140.00
446.2020, 17287.00
447.3910, 17439.00
448.5810, 17351.00
449.7700, 17510.00
450.9600, 17512.00
452.1490, 17598.00
453.3370, 17649.00
454.5260, 17530.00
455.7150, 17679.00
456.9030, 17681.00
458.0910, 17571.00
459.2800, 17582.00
460.4670, 17636.00
461.6550, 17849.00
462.8430, 17840.00
464.0300, 18022.00
465.2180, 18393.00
466.4050, 18472.00
467.5920, 18931.00
468.7790, 19197.00
469.9650, 19251.00
471.1520, 19572.00
472.3380, 20018.00
473.5250, 20322.00
474.7110, 20571.00
475.8970, 20831.00
477.0820, 21128.00
478.2680, 21313.00
479.4540, 21515.22
480.6390, 21714.00
481.8240, 21769.00
483.0090, 22045.00
484.1940, 22035.00
485.3780, 22292.00
486.5630, 22229.00
487.7470, 22016.00
488.9320, 22210.00
490.1160, 22099.00
491.3000, 22058.00
492.4830, 22168.00
493.6670, 21965.00
494.8500, 21952.00
496.0340, 21692.00
497.2170, 21789.00
498.4000, 21672.00
499.5820, 21369.00
500.7650, 21282.00
501.9480, 21122.00
503.1300, 20874.00
504.3120, 20532.00
505.4940, 20484.00
506.6760, 20093.00
507.8580, 19517.00
509.0390, 19582.00
510.2210, 19138.00
511.4020, 19005.00
512.5830, 18800.00
513.7640, 18362.00
514.9450, 18149.00
516.1250, 17984.00
517.3060, 17894.00
518.4860, 17689.00
519.6660, 17688.00
520.8460, 17806.00
522.0260, 17628.00
523.2060, 17754.00
524.3850, 17861.00
525.5650, 17854.00
526.7440, 18157.00
527.9230, 18161.00
529.1020, 18241.00
530.2810, 18462.00
531.4590, 18313.00
532.6380, 18381.00
533.8160, 18413.00
534.9940, 18339.00
536.1720, 18381.00
537.3500, 18486.00
538.5270, 18016.00
539.7050, 18035.00
540.8820, 17537.00
542.0590, 17540.00
543.2360, 17234.00
544.4130, 17061.00
545.5900, 16786.00
546.7660, 16592.19
547.9430, 16563.00
549.1190, 16269.00
550.2950, 16134.00
551.4710, 16098.00
552.6470, 15762.00
553.8220, 15809.00
554.9980, 15788.00
556.1730, 15519.00
557.3480, 15507.00
558.5230, 15345.00
559.6980, 15285.00
560.8730, 15515.00
562.0470, 15335.00
563.2220, 15364.00
564.3960, 15419.00
565.5700, 15323.00
566.7440, 15193.00
567.9170, 15181.00
569.0910, 14959.00
570.2640, 15239.00
571.4380, 15506.00
572.6110, 15231.68
573.7840, 15302.00
574.9570, 14917.00
576.1290, 15019.00
577.3020, 14991.00
578.4740, 15146.00
579.6460, 14922.00
580.8180, 14851.00
581.9900, 14839.00
583.1620, 15058.00
584.3330, 15004.00
585.5040, 15123.00
586.6760, 15184.00
587.8470, 15096.00
589.0180, 15204.00
590.1880, 15051.00
591.3590, 14994.00
592.5290, 15258.00
593.7000, 15404.00
594.8700, 15473.00
596.0400, 15538.00
597.2090, 15539.00
598.3790, 15499.00
599.5490, 15730.00
600.7180, 15647.00
601.8870, 15934.00
603.0560, 15846.00
604.2250, 15850.00
605.3940, 15900.00
606.5620, 15949.00
607.7300, 16044.00
608.8990, 16180.00
610.0670, 16344.00
611.2350, 16456.00
612.4020, 16572.00
613.5700, 16633.00
614.7370, 16935.00
615.9050, 17170.00
617.0720, 17171.00
618.2390, 17562.00
619.4060, 17599.00
620.5720, 17908.00
621.7390, 18208.00
622.9050, 18479.00
624.0710, 18660.00
625.2370, 19096.00
626.4030, 19360.00
627.5690, 19935.00
628.7340, 19850.00
629.9000, 20018.00
631.0650, 19991.00
632.2300, 20014.00
633.3950, 19929.00
634.5600, 19680.00
635.7240, 19549.00
636.8890, 19524.00
638.0530, 19454.00
639.2170, 19241.00
640.3810, 19312.00
641.5450, 19461.00
642.7080, 19771.00
643.8720, 20113.00
645.0350, 20592.00
646.1980, 20978.00
647.3610, 21538.00
648.5240, 22076.00
649.6870, 22745.00
650.8490, 23168.00
652.0120, 23680.00
653.1740, 24095.00
654.3360, 24702.00
655.4980, 25079.00
656.6600, 25582.00
657.8210, 26182.00
658.9830, 26701.00
660.1440, 27222.00
661.3050, 28206.00
662.4660, 28902.00
663.6270, 29904.00
664.7870, 30957.00
665.9480, 31593.00
667.1080, 32846.00
668.2680, 34011.00
669.4280, 35099.00
670.5880, 36318.00
671.7480, 37021.00
672.9070, 38359.00
674.0670, 38677.00
675.2260, 38598.00
676.3850, 38673.00
677.5440, 37776.00
678.7030, 36653.00
679.8610, 35143.00
681.0200, 33755.00
682.1780, 31962.00
683.3360, 30797.00
684.4940, 29561.00
685.6520, 28594.00
686.8090, 27926.00
687.9670, 27880.00
689.1240, 27639.00
690.2810, 27868.00
691.4380, 28136.00
692.5950, 28477.00
693.7520, 29134.00
694.9080, 29867.00
696.0650, 30697.00
697.2210, 31433.00
698.3770, 32760.00
699.5330, 33629.00
700.6880, 34491.00
701.8440, 35543.00
702.9990, 36417.00
704.1550, 36899.00
705.3100, 37068.00
706.4650, 36918.60
707.6190, 36532.00
708.7740, 35641.00
709.9290, 34394.00
711.0830, 32992.00
712.2370, 31443.00
713.3910, 29772.00
714.5450, 28557.00
715.6980, 27224.00
716.8520, 25898.00
718.0050, 24831.00
719.1580, 23869.00
720.3110, 23319.00
721.4640, 22546.00
722.6170, 22096.00
723.7700, 21770.00
724.9220, 21417.00
726.0740, 21233.00
727.2260, 21067.00
728.3780, 20990.00
729.5300, 21196.00
730.6810, 20983.00
731.8330, 21029.00
732.9840, 20980.00
734.1350, 20947.00
735.2860, 20982.00
736.4370, 20999.00
737.5880, 21128.00
738.7380, 21099.00
739.8880, 21332.00
741.0390, 21347.00
742.1890, 21819.00
743.3380, 22011.00
744.4880, 22283.00
745.6380, 22932.00
746.7870, 23388.00
747.9360, 23941.00
749.0850, 24450.00
750.2340, 25168.00
751.3830, 25946.00
752.5310, 26631.00
753.6800, 27456.65
754.8280, 28144.00
755.9760, 29105.00
757.1240, 29795.00
758.2720, 30638.00
759.4190, 31015.00
760.5670, 30489.00
761.7140, 30507.00
762.8610, 29927.00
764.0080, 29515.00
765.1550, 28623.00
766.3020, 28220.00
767.4480, 27655.00
768.5950, 27127.00
769.7410, 26766.00
770.8870, 26302.00
772.0330, 26193.00
773.1780, 25690.00
774.3240, 25541.00
775.4690, 25352.00
776.6140, 25090.00
777.7590, 25000.00
778.9040, 24680.00
780.0490, 24521.00
781.1940, 24517.00
782.3380, 24330.00
783.4820, 24156.00
784.6260, 24521.00
785.7700, 24156.00
786.9140, 24199.00
788.0580, 24532.00
789.2010, 24642.00
790.3450, 24605.00
791.4880, 24767.00
792.6310, 24730.00
793.7730, 25103.00
794.9160, 25103.00
796.0590, 25171.00
797.2010, 25068.00
798.3430, 25027.98
799.4850, 24947.00
800.6270, 24787.00
801.7690, 24642.00
802.9100, 24405.00
804.0520, 24261.00
805.1930, 23970.00
806.3340, 23774.00
807.4750, 23479.00
808.6160, 23302.00
809.7560, 23213.00
810.8970, 23012.00
812.0370, 23010.00
813.1770, 23164.00
814.3170, 23249.00
815.4570, 23283.00
816.5960, 23044.00
817.7360, 22889.00
818.8750, 22979.00
820.0140, 22728.00
821.1530, 22236.00
822.2920, 22202.00
823.4310, 21689.00
824.5690, 21426.00
825.7070, 21043.00
826.8460, 20548.00
827.9840, 20044.00
829.1220, 19508.00
830.2590, 19020.00
831.3970, 18526.00
832.5340, 18021.00
833.6710, 17684.00
834.8080, 17225.00
835.9450, 16903.08
837.0820, 16585.00
838.2190, 16325.00
839.3550, 15956.00
840.4910, 15748.00
841.6270, 15492.00
842.7630, 15327.00
843.8990, 15005.00
845.0350, 14827.00
846.1700, 14657.49
847.3060, 14600.00
848.4410, 14448.00
849.5760, 14324.00
850.7100, 14412.00
851.8450, 14225.00
852.9800, 14193.00
854.1140, 14152.00
855.2480, 14112.00
856.3820, 14171.00
857.5160, 14035.00
858.6500, 14099.00
859.7830, 14053.00
860.9170, 14200.00
862.0500, 13964.00
863.1830, 14003.00
864.3160, 14075.00
865.4480, 14069.00
866.5810, 14119.00
867.7130, 14081.00
868.8460, 14092.00
869.9780, 14183.00
871.1100, 14141.00
872.2410, 14339.00
873.3730, 14280.00
874.5050, 14404.00
875.6360, 14359.00
876.7670, 14253.00
877.8980, 14383.00
879.0290, 14513.00
880.1590, 14643.00
881.2900, 14577.00
882.4200, 14590.00
883.5500, 14576.00
884.6800, 14551.00
885.8100, 14499.00
886.9400, 14739.00
888.0690, 14748.00
889.1990, 14773.00
890.3280, 14938.00
891.4570, 14932.00
892.5860, 14888.00
893.7140, 14917.00
894.8430, 15074.00
895.9710, 15050.00
897.1000, 15213.00
898.2280, 15167.00
899.3560, 15173.00
900.4830, 15202.00
901.6110, 15250.00
902.7380, 15409.00
903.8660, 15436.00
904.9930, 15494.00
906.1200, 15585.00
907.2460, 16402.00
908.3730, 16799.00
909.5000, 16503.89
910.6260, 16569.01
911.7520, 15911.00
912.8780, 15955.00
914.0040, 15918.00
915.1290, 15922.00
916.2550, 15937.00
917.3800, 15954.00
918.5050, 16078.00
919.6300, 16303.00
920.7550, 16313.00
921.8800, 16377.71
923.0040, 16413.69
924.1290, 16372.00
925.2530, 16475.00
926.3770, 16475.00
927.5010, 16690.00
928.6250, 16677.00
929.7480, 16719.00
930.8720, 16836.00
931.9950, 16831.00
933.1180, 17008.00
934.2410, 17062.00
935.3640, 17245.00
936.4860, 17297.00
937.6090, 17401.00
938.7310, 17584.00
939.8530, 17715.00
940.9750, 17829.00
942.0970, 17852.00
943.2180, 18043.00
944.3400, 17962.00
945.4610, 18165.00
946.5820, 18420.00
947.7030, 18386.00
948.8240, 18693.00
949.9450, 19055.00
951.0650, 19091.00
952.1860, 19279.00
953.3060, 19345.00
954.4260, 19411.00
955.5460, 19756.00
956.6650, 19976.00
957.7850, 20161.00
958.9040, 20483.00
960.0230, 20567.00
961.1420, 20957.00
962.2610, 21102.00
963.3800, 21332.00
964.4990, 21585.00
965.6170, 21729.00
966.7350, 21882.00
967.8530, 22020.00
968.9710, 22216.00
970.0890, 22336.00
971.2070, 22374.00
972.3240, 22600.00
973.4410, 22409.00
974.5580, 22831.00
975.6750, 22852.00
976.7920, 23020.00
977.9090, 22812.00
979.0250, 23010.00
980.1410, 22673.00
981.2580, 22939.00
982.3740, 22516.00
983.4890, 22321.00
984.6050, 22253.00
985.7200, 22029.00
986.8360, 21660.00
987.9510, 21597.00
989.0660, 21583.00
990.1810, 21254.00
991.2950, 20935.00
992.4100, 20767.00
993.5240, 20828.00
994.6390, 20528.00
995.7530, 20819.00
996.8660, 20555.00
997.9800, 20660.00
999.0940, 20623.00
1000.207, 20491.00
1001.320, 20476.00
1002.433, 20560.00
1003.546, 20535.00
1004.659, 20676.00
1005.772, 20771.00
1006.884, 20994.00
1007.996, 21128.09
1009.108, 21342.88
1010.220, 21511.00
1011.332, 21816.00
1012.444, 22106.00
1013.555, 22404.00
1014.666, 22666.00
1015.777, 22957.00
1016.888, 23304.00
1017.999, 23794.00
1019.110, 24038.00
1020.220, 24294.00
1021.331, 24402.00
1022.441, 24862.00
1023.551, 24989.00
1024.661, 25335.00
1025.770, 25569.00
1026.880, 26033.00
1027.989, 26365.00
1029.098, 26626.00
1030.207, 27283.00
1031.316, 27594.00
1032.425, 27815.00
1033.533, 28236.00
1034.642, 28719.00
1035.750, 29133.00
1036.858, 29601.00
1037.966, 30119.00
1039.073, 30231.00
1040.181, 30827.00
1041.288, 31430.00
1042.396, 32061.00
1043.503, 32244.00
1044.610, 32799.00
1045.716, 33024.00
1046.823, 33619.00
1047.929, 33978.00
1049.036, 34465.00
1050.142, 34846.00
1051.248, 35016.00
1052.353, 35275.00
1053.459, 35418.00
1054.564, 34910.00
1055.670, 34365.00
1056.775, 34211.00
1057.880, 33529.00
1058.985, 33118.00
1060.089, 33493.00
1061.194, 32688.00
1062.298, 32772.00
1063.402, 32603.55
1064.506, 32512.00
1065.610, 32431.00
1066.713, 32229.00
1067.817, 32421.00
1068.920, 32086.00
1070.023, 31926.00
1071.126, 31514.00
1072.229, 31429.00
1073.332, 30931.00
1074.435, 30782.00
1075.537, 30408.00
1076.639, 29876.00
1077.741, 29537.00
1078.843, 28879.00
1079.945, 28478.00
1081.046, 28054.00
1082.148, 27332.00
1083.249, 26856.00
1084.350, 26549.00
1085.451, 26167.00
1086.551, 25498.00
1087.652, 24898.00
1088.752, 24633.00
1089.853, 24526.00
1090.953, 24007.00
1092.053, 23706.00
1093.152, 23258.00
1094.252, 23133.00
1095.351, 22791.00
1096.451, 22658.00
1097.550, 22524.00
1098.649, 22321.00
1099.748, 22180.93
1100.846, 21821.00
1101.945, 21854.00
1103.043, 21813.00
1104.141, 21674.00
1105.239, 21788.00
1106.337, 21601.00
1107.434, 21474.00
1108.532, 21367.00
1109.629, 21355.00
1110.726, 21286.00
1111.823, 21277.12
1112.920, 21296.00
1114.017, 21291.00
1115.113, 21380.00
1116.210, 21415.00
1117.306, 21272.00
1118.402, 21461.00
1119.498, 21505.00
1120.593, 21391.00
1121.689, 21201.00
1122.784, 21358.00
1123.879, 21075.00
1124.974, 20979.00
1126.069, 20704.00
1127.164, 20530.00
1128.259, 20283.00
1129.353, 20156.00
1130.447, 19972.00
1131.541, 19730.00
1132.635, 19633.00
1133.729, 19533.00
1134.822, 19378.00
1135.916, 19141.00
1137.009, 19068.00
1138.102, 18924.00
1139.195, 18642.00
1140.288, 18489.00
1141.380, 18111.00
1142.473, 18050.00
1143.565, 17853.00
1144.657, 17721.97
1145.749, 17795.00
1146.841, 17647.00
1147.932, 17526.00
1149.024, 17687.00
1150.115, 17595.00
1151.206, 17635.00
1152.297, 17580.00
1153.388, 17685.00
1154.479, 17663.00
1155.569, 17520.00
1156.659, 17381.00
1157.750, 17538.00
1158.839, 17498.00
1159.929, 17277.00
1161.019, 17375.00
1162.108, 17553.00
1163.198, 17446.00
1164.287, 17453.00
1165.376, 17431.00
1166.465, 17392.00
1167.553, 17429.00
1168.642, 17404.00
1169.730, 17499.00
1170.818, 17248.00
1171.906, 17400.00
1172.994, 17355.00
1174.082, 17571.00
1175.170, 17379.00
1176.257, 17383.00
1177.344, 17546.00
1178.431, 17352.00
1179.518, 17298.00
1180.605, 17485.00
1181.691, 17384.00
1182.778, 17509.00
1183.864, 17458.00
1184.950, 17567.00
1186.036, 17457.00
1187.122, 17524.00
1188.207, 17728.00
1189.292, 17449.00
1190.378, 17603.00
1191.463, 17642.00
1192.548, 17503.00
1193.632, 17512.00
1194.717, 17464.00
1195.801, 17545.00
1196.886, 17737.00
1197.970, 17665.00
1199.054, 17775.00
1200.137, 17592.00
1201.221, 17581.00
1202.305, 17704.00
1203.388, 17689.38
1204.471, 17723.00
1205.554, 17870.00
1206.637, 17953.00
1207.719, 18036.00
1208.802, 18132.95
1209.884, 18106.00
1210.966, 18221.00
1212.048, 18178.00
1213.130, 18069.00
1214.212, 18398.00
1215.293, 18448.00
1216.374, 18651.00
1217.456, 18632.00
1218.536, 18604.00
1219.617, 18778.00
1220.698, 18746.00
1221.778, 18701.00
1222.859, 18634.00
1223.939, 18959.00
1225.019, 19027.00
1226.099, 19242.00
1227.178, 19119.00
1228.258, 19450.00
1229.337, 19817.00
1230.417, 19241.00
1231.496, 19276.00
1232.574, 19371.00
1233.653, 19424.00
1234.732, 19314.00
1235.810, 19316.00
1236.888, 19474.00
1237.966, 19383.00
1239.044, 19522.00
1240.122, 19430.00
1241.199, 19317.00
1242.277, 19436.54
1243.354, 19526.00
1244.431, 19565.00
1245.508, 19393.00
1246.585, 19449.00
1247.661, 19321.00
1248.738, 19361.00
1249.814, 19494.00
1250.890, 19350.00
1251.966, 19452.00
1253.042, 19470.00
1254.117, 19538.00
1255.193, 19399.00
1256.268, 19453.00
1257.343, 19352.00
1258.418, 19387.00
1259.493, 19477.00
1260.567, 19581.00
1261.642, 19494.00
1262.716, 19528.00
1263.790, 19450.00
1264.864, 19607.00
1265.938, 19689.00
1267.011, 19403.00
1268.085, 19536.00
1269.158, 19610.00
1270.231, 19552.00
1271.304, 19556.00
1272.377, 19432.00
1273.450, 19548.00
1274.522, 19433.00
1275.594, 19532.00
1276.666, 19383.00
1277.738, 19460.00
1278.810, 19486.00
1279.882, 19438.00
1280.953, 19517.00
1282.025, 19526.00
1283.096, 19404.00
1284.167, 19616.00
1285.238, 19624.00
1286.308, 19572.00
1287.379, 19423.00
