##NAMES=Dravite
##RRUFFID=R060286
##IDEAL CHEMISTRY=NaMg_3_Al_6_(Si_6_O_18_)(BO_3_)_3_(OH)_3_OH
##LOCALITY=Badakshan Province, Afghanistan
##OWNER=RRUFF
##SOURCE=Herb Obodda
##DESCRIPTION=Brown prismatic tourmaline crystal
##STATUS=The identification of this mineral has been confirmed by X-ray diffraction and chemical analysis
##URL=rruff.info/R060286
##MEASURED CHEMISTRY=(Na_0.48_Ca_0.38_[box]_0.14_)_Σ=1_(Mg_2.90_Ti_0.10_)_Σ=3_Al_6.00_(B_1.00_O_3_)_3_(Si_5.56_B_0.44_)_Σ=6_O_18_(OH)_4_; (OH) assumed from stoichiometry; B estimated by difference and charge balance
##PIN_ID=L01259
##ORIENTATION=Laser parallel to c* (0 0 1). Fiducial mark perpendicular to laser is parallel to a [1 0 0]
118.1340, 14416.00
119.3650, 14372.00
120.5960, 14544.00
121.8270, 14853.00
123.0580, 15635.00
124.2880, 16053.00
125.5190, 16017.00
126.7490, 16038.00
127.9790, 16401.00
129.2090, 16888.00
130.4390, 17151.00
131.6680, 17402.00
132.8980, 17519.00
134.1270, 17472.00
135.3560, 17637.00
136.5850, 17666.00
137.8140, 17781.00
139.0430, 18177.00
140.2710, 18351.00
141.5000, 18090.00
142.7280, 17757.00
143.9560, 17822.00
145.1840, 17743.00
146.4120, 17553.22
147.6390, 17729.00
148.8670, 17429.00
150.0940, 17206.00
151.3210, 17482.00
152.5490, 17262.00
153.7750, 16514.00
155.0020, 16479.00
156.2290, 16228.00
157.4550, 16302.00
158.6810, 15537.00
159.9080, 15392.00
161.1340, 15230.00
162.3590, 15250.00
163.5850, 15393.00
164.8110, 15560.00
166.0360, 15557.00
167.2610, 15576.00
168.4860, 15681.00
169.7110, 15918.00
170.9360, 15932.00
172.1610, 15756.00
173.3850, 15724.00
174.6100, 15526.00
175.8340, 15654.00
177.0580, 15743.00
178.2820, 15847.00
179.5050, 16031.86
180.7290, 16202.27
181.9520, 16457.00
183.1760, 16657.00
184.3990, 16969.00
185.6220, 17263.00
186.8450, 17661.00
188.0670, 18176.00
189.2900, 18652.00
190.5120, 18895.00
191.7340, 19422.00
192.9560, 19731.00
194.1780, 19911.00
195.4000, 20426.00
196.6220, 20821.00
197.8430, 21349.00
199.0640, 21997.00
200.2860, 23025.00
201.5070, 23960.00
202.7270, 25178.00
203.9480, 25850.00
205.1690, 27169.00
206.3890, 28353.00
207.6090, 30060.00
208.8290, 31949.00
210.0490, 34035.00
211.2690, 35484.00
212.4890, 36807.00
213.7080, 37381.00
214.9280, 37533.00
216.1470, 36621.00
217.3660, 35645.00
218.5850, 34086.00
219.8030, 32516.00
221.0220, 31020.00
222.2400, 29726.00
223.4590, 28365.00
224.6770, 27410.00
225.8950, 26547.00
227.1120, 26125.00
228.3300, 25679.00
229.5480, 25596.00
230.7650, 25676.00
231.9820, 25857.00
233.1990, 26387.00
234.4160, 26942.00
235.6330, 27711.00
236.8490, 28219.00
238.0660, 28915.00
239.2820, 29084.00
240.4980, 29333.00
241.7140, 29610.00
242.9300, 29100.00
244.1460, 28628.00
245.3610, 27935.00
246.5770, 26619.00
247.7920, 25582.00
249.0070, 24627.00
250.2220, 23192.00
251.4370, 22140.00
252.6510, 21350.00
253.8660, 20539.00
255.0800, 19941.00
256.2940, 19644.00
257.5080, 20085.00
258.7220, 19618.34
259.9360, 19500.06
261.1490, 19500.00
262.3630, 19093.00
263.5760, 19247.00
264.7890, 19403.00
266.0020, 19634.00
267.2150, 19946.00
268.4270, 20195.00
269.6400, 20342.00
270.8520, 20837.00
272.0640, 21011.00
273.2760, 21283.00
274.4880, 21245.00
275.7000, 21405.00
276.9120, 21219.00
278.1230, 20925.00
279.3340, 20946.00
280.5450, 20444.00
281.7560, 20445.00
282.9670, 20072.00
284.1780, 19595.00
285.3880, 19729.00
286.5980, 19448.00
287.8090, 19456.00
289.0190, 19489.00
290.2290, 19503.00
291.4380, 19670.00
292.6480, 19576.00
293.8570, 19798.00
295.0670, 19694.00
296.2760, 19810.00
297.4850, 19889.00
298.6930, 19631.00
299.9020, 19711.00
301.1110, 19580.00
302.3190, 19392.00
303.5270, 19389.00
304.7350, 19248.00
305.9430, 19224.00
307.1510, 19118.00
308.3580, 19160.00
309.5660, 19833.00
310.7730, 19424.00
311.9800, 19508.00
313.1870, 20583.00
314.3940, 19975.00
315.6010, 20342.00
316.8070, 20655.00
318.0130, 20903.00
319.2200, 21423.00
320.4260, 21899.00
321.6310, 22376.00
322.8370, 23047.00
324.0430, 23828.00
325.2480, 24310.00
326.4540, 24854.00
327.6590, 25755.00
328.8640, 26293.00
330.0680, 27420.00
331.2730, 28403.00
332.4780, 29177.00
333.6820, 30019.00
334.8860, 30368.00
336.0900, 31320.00
337.2940, 31737.00
338.4980, 32244.00
339.7010, 32224.00
340.9050, 32545.00
342.1080, 32809.00
343.3110, 32089.00
344.5140, 31741.00
345.7170, 32578.00
346.9200, 32063.00
348.1220, 31474.00
349.3240, 31493.00
350.5270, 31948.00
351.7290, 32287.00
352.9310, 33245.00
354.1320, 36754.00
355.3340, 36461.05
356.5350, 38276.00
357.7370, 38242.00
358.9380, 39602.00
360.1390, 41368.00
361.3400, 43515.00
362.5400, 45377.00
363.7410, 47719.00
364.9410, 50084.00
366.1410, 52708.00
367.3410, 55244.00
368.5410, 57173.00
369.7410, 58924.00
370.9400, 59505.00
372.1400, 60033.00
373.3390, 59458.00
374.5380, 58044.00
375.7370, 55735.00
376.9360, 53392.00
378.1350, 50741.00
379.3330, 47811.00
380.5310, 45373.00
381.7300, 43067.00
382.9280, 40639.66
384.1260, 38689.00
385.3230, 36935.55
386.5210, 35264.00
387.7180, 34077.00
388.9160, 33013.00
390.1130, 32064.00
391.3100, 31207.86
392.5060, 30430.00
393.7030, 29853.00
394.9000, 29387.00
396.0960, 29028.00
397.2920, 28577.00
398.4880, 28308.45
399.6840, 28028.00
400.8800, 27823.00
402.0750, 27759.00
403.2710, 27587.00
404.4660, 27279.00
405.6610, 27095.00
406.8560, 26794.00
408.0510, 26744.00
409.2450, 26624.00
410.4400, 25790.00
411.6340, 25670.00
412.8280, 25203.00
414.0220, 24755.00
415.2160, 24339.00
416.4100, 24021.00
417.6030, 23773.00
418.7970, 23669.00
419.9900, 23484.00
421.1830, 23097.00
422.3760, 23077.00
423.5690, 22880.00
424.7610, 22906.00
425.9540, 22775.00
427.1460, 22700.00
428.3380, 22786.00
429.5300, 22780.00
430.7220, 22699.00
431.9140, 22881.00
433.1050, 22702.00
434.2970, 22905.00
435.4880, 22979.00
436.6790, 22986.00
437.8700, 23005.00
439.0610, 23064.04
440.2510, 23226.00
441.4420, 23196.00
442.6320, 23338.00
443.8220, 23490.00
445.0120, 23498.00
446.2020, 23494.00
447.3910, 23458.00
448.5810, 23395.00
449.7700, 23371.00
450.9600, 23318.52
452.1490, 23102.00
453.3370, 23209.00
454.5260, 23087.00
455.7150, 22987.00
456.9030, 23094.00
458.0910, 23091.00
459.2800, 23246.00
460.4670, 22932.00
461.6550, 23070.00
462.8430, 23285.00
464.0300, 23393.00
465.2180, 23901.00
466.4050, 24321.00
467.5920, 24659.00
468.7790, 25253.00
469.9650, 25991.00
471.1520, 26591.00
472.3380, 27306.00
473.5250, 27830.00
474.7110, 28524.00
475.8970, 29049.00
477.0820, 29574.00
478.2680, 30062.00
479.4540, 30319.52
480.6390, 30616.00
481.8240, 30666.00
483.0090, 30739.00
484.1940, 30743.27
485.3780, 30744.00
486.5630, 30695.00
487.7470, 30482.00
488.9320, 30303.00
490.1160, 30252.00
491.3000, 30181.00
492.4830, 30414.00
493.6670, 30275.00
494.8500, 30130.00
496.0340, 29966.00
497.2170, 29579.00
498.4000, 29651.00
499.5820, 29273.00
500.7650, 29130.00
501.9480, 28570.00
503.1300, 28274.00
504.3120, 27750.00
505.4940, 27506.00
506.6760, 26831.00
507.8580, 26423.00
509.0390, 25800.00
510.2210, 25590.00
511.4020, 25297.00
512.5830, 25048.00
513.7640, 24662.00
514.9450, 24549.00
516.1250, 24698.00
517.3060, 24404.00
518.4860, 24792.00
519.6660, 25122.00
520.8460, 25204.00
522.0260, 25515.00
523.2060, 26034.00
524.3850, 26528.00
525.5650, 26799.00
526.7440, 27337.00
527.9230, 27723.00
529.1020, 28031.00
530.2810, 28331.00
531.4590, 28398.69
532.6380, 28655.00
533.8160, 28425.00
534.9940, 28234.00
536.1720, 28251.00
537.3500, 27719.00
538.5270, 27584.00
539.7050, 27405.00
540.8820, 26999.00
542.0590, 26651.00
543.2360, 26543.00
544.4130, 26162.00
545.5900, 25907.00
546.7660, 25847.00
547.9430, 25641.00
549.1190, 25434.00
550.2950, 25225.00
551.4710, 25128.00
552.6470, 24939.00
553.8220, 24742.00
554.9980, 24771.00
556.1730, 24440.00
557.3480, 24413.00
558.5230, 24373.00
559.6980, 24642.00
560.8730, 24848.00
562.0470, 24713.00
563.2220, 24021.00
564.3960, 23833.00
565.5700, 23691.00
566.7440, 23817.00
567.9170, 23483.00
569.0910, 23555.00
570.2640, 23265.00
571.4380, 23057.00
572.6110, 22953.00
573.7840, 22710.00
574.9570, 22528.00
576.1290, 22080.00
577.3020, 22213.00
578.4740, 21618.00
579.6460, 21638.00
580.8180, 21435.00
581.9900, 21094.00
583.1620, 20858.00
584.3330, 20537.00
585.5040, 20651.00
586.6760, 20473.00
587.8470, 20410.00
589.0180, 20244.00
590.1880, 20261.00
591.3590, 20134.00
592.5290, 20058.00
593.7000, 20121.00
594.8700, 20043.00
596.0400, 20001.00
597.2090, 19918.00
598.3790, 19990.00
599.5490, 20289.00
600.7180, 19956.00
601.8870, 19948.00
603.0560, 20146.00
604.2250, 19939.00
605.3940, 20006.00
606.5620, 20139.00
607.7300, 20329.00
608.8990, 20280.00
610.0670, 20321.00
611.2350, 20459.00
612.4020, 20300.00
613.5700, 20461.00
614.7370, 20688.00
615.9050, 20745.00
617.0720, 21007.00
618.2390, 21101.00
619.4060, 21161.00
620.5720, 21194.00
621.7390, 21411.22
622.9050, 21707.00
624.0710, 21866.00
625.2370, 22177.00
626.4030, 22462.00
627.5690, 22661.00
628.7340, 22763.55
629.9000, 22867.00
631.0650, 22799.00
632.2300, 22652.00
633.3950, 22563.00
634.5600, 22367.00
635.7240, 21919.00
636.8890, 21776.00
638.0530, 21426.00
639.2170, 21133.00
640.3810, 21108.00
641.5450, 21081.00
642.7080, 20870.00
643.8720, 20960.00
645.0350, 20778.00
646.1980, 20886.00
647.3610, 20990.00
648.5240, 21318.00
649.6870, 21354.00
650.8490, 21736.00
652.0120, 21930.00
653.1740, 22514.00
654.3360, 22879.53
655.4980, 23320.03
656.6600, 23699.00
657.8210, 24199.00
658.9830, 24358.00
660.1440, 24634.00
661.3050, 25086.00
662.4660, 25449.00
663.6270, 25923.00
664.7870, 25881.00
665.9480, 26118.00
667.1080, 26100.00
668.2680, 26386.00
669.4280, 26469.00
670.5880, 26444.00
671.7480, 26171.00
672.9070, 25905.00
674.0670, 26078.00
675.2260, 25595.00
676.3850, 25550.00
677.5440, 25466.00
678.7030, 24923.00
679.8610, 24900.00
681.0200, 24680.00
682.1780, 24610.00
683.3360, 24536.00
684.4940, 24596.00
685.6520, 24604.94
686.8090, 24678.93
687.9670, 24774.00
689.1240, 24941.00
690.2810, 25106.00
691.4380, 25368.68
692.5950, 25770.52
693.7520, 26148.00
694.9080, 26764.00
696.0650, 27353.00
697.2210, 27986.00
698.3770, 28653.00
699.5330, 29039.00
700.6880, 30004.00
701.8440, 30775.00
702.9990, 31734.00
704.1550, 32924.00
705.3100, 33902.00
706.4650, 35103.00
707.6190, 36572.00
708.7740, 37796.00
709.9290, 39387.00
711.0830, 41440.00
712.2370, 43221.00
713.3910, 45214.00
714.5450, 47649.00
715.6980, 49945.00
716.8520, 52117.00
718.0050, 54336.00
719.1580, 56526.00
720.3110, 57902.00
721.4640, 59200.00
722.6170, 59061.00
723.7700, 59095.00
724.9220, 57988.00
726.0740, 56578.00
727.2260, 54674.00
728.3780, 52872.88
729.5300, 50324.00
730.6810, 48836.00
731.8330, 45810.00
732.9840, 44213.00
734.1350, 42243.00
735.2860, 40584.00
736.4370, 39853.00
737.5880, 38920.00
738.7380, 38255.00
739.8880, 37943.00
741.0390, 38002.00
742.1890, 38103.00
743.3380, 38150.00
744.4880, 38654.00
745.6380, 39269.00
746.7870, 40242.00
747.9360, 40786.00
749.0850, 41627.00
750.2340, 42309.00
751.3830, 43330.00
752.5310, 44401.00
753.6800, 45314.57
754.8280, 46403.00
755.9760, 47383.00
757.1240, 48167.00
758.2720, 49192.00
759.4190, 49401.00
760.5670, 49921.00
761.7140, 49950.00
762.8610, 49890.00
764.0080, 50035.00
765.1550, 49345.00
766.3020, 48878.00
767.4480, 48375.00
768.5950, 47848.00
769.7410, 47358.00
770.8870, 47056.00
772.0330, 46519.00
773.1780, 46349.00
774.3240, 45469.00
775.4690, 45026.00
776.6140, 44961.00
777.7590, 44104.00
778.9040, 43733.00
780.0490, 43516.00
781.1940, 43094.00
782.3380, 42940.00
783.4820, 42994.00
784.6260, 42792.00
785.7700, 43204.00
786.9140, 43113.00
788.0580, 43140.00
789.2010, 43705.00
790.3450, 43787.00
791.4880, 43999.00
792.6310, 44068.00
793.7730, 43812.00
794.9160, 43769.00
796.0590, 43540.00
797.2010, 42947.00
798.3430, 42240.00
799.4850, 41705.00
800.6270, 40988.00
801.7690, 40424.42
802.9100, 39771.00
804.0520, 39301.00
805.1930, 38823.00
806.3340, 38336.00
807.4750, 38394.00
808.6160, 38282.00
809.7560, 38040.00
810.8970, 38186.00
812.0370, 38381.00
813.1770, 38685.00
814.3170, 38615.00
815.4570, 38448.00
816.5960, 38802.00
817.7360, 38452.00
818.8750, 38199.00
820.0140, 37433.00
821.1530, 37127.00
822.2920, 36172.00
823.4310, 35262.00
824.5690, 34307.00
825.7070, 32927.00
826.8460, 31689.00
827.9840, 30692.00
829.1220, 29373.00
830.2590, 28141.00
831.3970, 26887.00
832.5340, 25846.00
833.6710, 24787.00
834.8080, 23919.00
835.9450, 23010.00
837.0820, 22294.00
838.2190, 21432.00
839.3550, 20861.00
840.4910, 20210.00
841.6270, 19805.00
842.7630, 19208.00
843.8990, 18582.00
845.0350, 18199.00
846.1700, 17726.00
847.3060, 17565.00
848.4410, 17201.00
849.5760, 16776.00
850.7100, 16842.00
851.8450, 16444.00
852.9800, 16341.00
854.1140, 16258.00
855.2480, 15945.00
856.3820, 15921.00
857.5160, 15924.00
858.6500, 15841.00
859.7830, 15800.00
860.9170, 15816.74
862.0500, 15802.00
863.1830, 15818.00
864.3160, 15754.00
865.4480, 15681.00
866.5810, 15771.00
867.7130, 15573.00
868.8460, 15782.00
869.9780, 15687.00
871.1100, 15699.01
872.2410, 15919.00
873.3730, 15733.00
874.5050, 15769.00
875.6360, 15817.00
876.7670, 15957.00
877.8980, 15986.00
879.0290, 16034.00
880.1590, 16003.00
881.2900, 15921.00
882.4200, 16015.00
883.5500, 16180.00
884.6800, 16324.00
885.8100, 16278.00
886.9400, 16444.00
888.0690, 16465.00
889.1990, 16634.00
890.3280, 16689.00
891.4570, 16663.00
892.5860, 16721.00
893.7140, 16651.00
894.8430, 16921.00
895.9710, 16917.00
897.1000, 17047.00
898.2280, 17258.00
899.3560, 17100.00
900.4830, 17361.00
901.6110, 17491.00
902.7380, 17559.00
903.8660, 17734.00
904.9930, 17780.00
906.1200, 17873.90
907.2460, 18057.00
908.3730, 18066.00
909.5000, 18163.00
910.6260, 18366.00
911.7520, 18266.00
912.8780, 18686.00
914.0040, 18778.00
915.1290, 18805.00
916.2550, 18696.00
917.3800, 18847.00
918.5050, 19116.00
919.6300, 19082.00
920.7550, 19307.00
921.8800, 19152.00
923.0040, 19329.00
924.1290, 19398.00
925.2530, 19505.00
926.3770, 19543.00
927.5010, 19694.00
928.6250, 19743.00
929.7480, 19827.00
930.8720, 20027.00
931.9950, 20008.00
933.1180, 20216.00
934.2410, 20284.00
935.3640, 20393.00
936.4860, 20537.00
937.6090, 20733.00
938.7310, 20705.00
939.8530, 20866.00
940.9750, 20888.00
942.0970, 21071.00
943.2180, 21201.00
944.3400, 21454.00
945.4610, 21463.00
946.5820, 21874.00
947.7030, 21627.00
948.8240, 21812.00
949.9450, 21931.00
951.0650, 22173.00
952.1860, 22238.00
953.3060, 22586.00
954.4260, 22544.00
955.5460, 22861.00
956.6650, 23072.00
957.7850, 23055.00
958.9040, 23467.00
960.0230, 23472.00
961.1420, 23547.00
962.2610, 23916.00
963.3800, 24021.00
964.4990, 24213.00
965.6170, 24462.00
966.7350, 24462.00
967.8530, 24541.00
968.9710, 24786.00
970.0890, 24964.00
971.2070, 25223.00
972.3240, 25411.00
973.4410, 25634.00
974.5580, 25890.17
975.6750, 26200.00
976.7920, 26232.00
977.9090, 26478.00
979.0250, 26292.00
980.1410, 26634.00
981.2580, 26460.00
982.3740, 26837.00
983.4890, 26289.00
984.6050, 26694.00
985.7200, 26460.00
986.8360, 26248.00
987.9510, 26082.00
989.0660, 25957.00
990.1810, 25815.00
991.2950, 25327.00
992.4100, 25432.00
993.5240, 24990.00
994.6390, 24932.00
995.7530, 24952.00
996.8660, 24561.00
997.9800, 24415.00
999.0940, 24281.00
1000.207, 24393.00
1001.320, 24115.00
1002.433, 24238.00
1003.546, 24325.00
1004.659, 24127.00
1005.772, 24318.00
1006.884, 24122.00
1007.996, 24250.00
1009.108, 24643.00
1010.220, 24697.00
1011.332, 24859.00
1012.444, 25241.00
1013.555, 25483.00
1014.666, 25878.00
1015.777, 26298.00
1016.888, 26577.00
1017.999, 27074.00
1019.110, 27455.00
1020.220, 27782.00
1021.331, 28333.00
1022.441, 28842.00
1023.551, 29226.00
1024.661, 29278.00
1025.770, 30034.00
1026.880, 30347.00
1027.989, 31126.00
1029.098, 31279.00
1030.207, 31876.00
1031.316, 32533.00
1032.425, 33055.00
1033.533, 33647.00
1034.642, 34135.00
1035.750, 34881.00
1036.858, 35598.00
1037.966, 36127.00
1039.073, 36932.00
1040.181, 37601.00
1041.288, 38213.00
1042.396, 38855.00
1043.503, 39332.00
1044.610, 39794.00
1045.716, 40198.00
1046.823, 40522.00
1047.929, 41067.00
1049.036, 41224.00
1050.142, 41419.00
1051.248, 41576.00
1052.353, 41562.00
1053.459, 41717.00
1054.564, 41939.00
1055.670, 42267.00
1056.775, 42523.00
1057.880, 42723.00
1058.985, 43193.00
1060.089, 43937.00
1061.194, 44234.00
1062.298, 44920.00
1063.402, 45379.00
1064.506, 45587.00
1065.610, 46249.00
1066.713, 46696.00
1067.817, 46607.00
1068.920, 46673.00
1070.023, 46801.00
1071.126, 46531.00
1072.229, 45757.00
1073.332, 45587.00
1074.435, 44413.00
1075.537, 43523.00
1076.639, 42933.00
1077.741, 41426.00
1078.843, 40528.00
1079.945, 39522.00
1081.046, 38141.00
1082.148, 37479.00
1083.249, 36288.00
1084.350, 35175.00
1085.451, 34443.00
1086.551, 33476.00
1087.652, 32535.00
1088.752, 31810.00
1089.853, 30907.00
1090.953, 30373.00
1092.053, 29623.00
1093.152, 29008.00
1094.252, 28554.00
1095.351, 28054.00
1096.451, 27438.00
1097.550, 27057.00
1098.649, 26643.00
1099.748, 26316.00
1100.846, 25836.00
1101.945, 25688.00
1103.043, 25414.00
1104.141, 24926.00
1105.239, 25075.00
1106.337, 24674.00
1107.434, 24503.00
1108.532, 24279.00
1109.629, 24261.00
1110.726, 23974.00
1111.823, 23980.00
1112.920, 24075.00
1114.017, 23956.00
1115.113, 24132.00
1116.210, 24038.00
1117.306, 24206.00
1118.402, 24232.00
1119.498, 24625.00
1120.593, 24550.00
1121.689, 25019.00
1122.784, 24999.00
1123.879, 24959.00
1124.974, 25059.00
1126.069, 25199.00
1127.164, 25217.00
1128.259, 25053.00
1129.353, 25040.00
1130.447, 24841.00
1131.541, 24682.00
1132.635, 24562.00
1133.729, 24840.00
1134.822, 24177.31
1135.916, 23843.00
1137.009, 23035.00
1138.102, 22718.00
1139.195, 22168.00
1140.288, 21984.00
1141.380, 21738.00
1142.473, 21303.00
1143.565, 20870.00
1144.657, 20668.00
1145.749, 20460.39
1146.841, 20208.00
1147.932, 20272.00
1149.024, 19997.00
1150.115, 19882.00
1151.206, 20066.00
1152.297, 19841.00
1153.388, 19849.00
1154.479, 19854.00
1155.569, 19663.00
1156.659, 19665.00
1157.750, 19794.00
1158.839, 19659.00
1159.929, 19528.00
1161.019, 19400.00
1162.108, 19389.01
1163.198, 19516.00
1164.287, 19444.00
1165.376, 19418.00
1166.465, 19532.00
1167.553, 19447.00
1168.642, 19420.00
1169.730, 19524.00
1170.818, 19593.00
1171.906, 19466.00
1172.994, 19563.00
1174.082, 19517.01
1175.170, 19376.00
1176.257, 19450.00
1177.344, 19493.00
1178.431, 19399.00
1179.518, 19352.00
1180.605, 19350.00
1181.691, 19330.00
1182.778, 19498.00
1183.864, 19509.00
1184.950, 19511.00
1186.036, 19502.00
1187.122, 19517.00
1188.207, 19497.90
1189.292, 19504.00
1190.378, 19468.00
1191.463, 19442.00
1192.548, 19427.00
1193.632, 19453.77
1194.717, 19605.00
1195.801, 19555.00
1196.886, 19544.00
1197.970, 19632.00
1199.054, 19482.00
1200.137, 19586.00
1201.221, 19528.00
1202.305, 19557.00
1203.388, 19580.00
1204.471, 19675.00
1205.554, 19740.00
1206.637, 19821.00
1207.719, 19916.00
1208.802, 20088.00
1209.884, 20204.00
1210.966, 19958.00
1212.048, 20207.00
1213.130, 20318.00
1214.212, 20283.00
1215.293, 20686.00
1216.374, 20701.00
1217.456, 20681.00
1218.536, 20893.00
1219.617, 20762.00
1220.698, 21002.00
1221.778, 21046.00
1222.859, 21185.00
1223.939, 21302.00
1225.019, 21262.00
1226.099, 21390.00
1227.178, 21414.00
1228.258, 21578.00
1229.337, 21606.00
1230.417, 21508.00
1231.496, 21663.00
1232.574, 21879.00
1233.653, 21690.00
1234.732, 21811.00
1235.810, 21987.00
1236.888, 22033.00
1237.966, 21981.00
1239.044, 22148.00
1240.122, 22068.00
1241.199, 22195.00
1242.277, 22261.85
1243.354, 22359.00
1244.431, 22415.00
1245.508, 22552.00
1246.585, 22620.00
1247.661, 22731.07
1248.738, 22720.27
1249.814, 22915.00
1250.890, 22635.00
1251.966, 22620.00
1253.042, 22515.00
1254.117, 22631.00
1255.193, 22610.00
1256.268, 22629.00
1257.343, 22678.00
1258.418, 22694.59
1259.493, 22735.00
1260.567, 22745.00
1261.642, 22801.00
1262.716, 22761.00
1263.790, 22494.00
1264.864, 22751.00
1265.938, 22805.00
1267.011, 22608.00
1268.085, 22849.00
1269.158, 22867.00
1270.231, 23044.00
1271.304, 22832.00
1272.377, 22833.00
1273.450, 23022.00
1274.522, 22774.00
1275.594, 22788.00
1276.666, 22777.00
1277.738, 22677.05
1278.810, 22676.00
1279.882, 22708.00
1280.953, 22564.00
1282.025, 22792.00
1283.096, 22662.00
1284.167, 22739.00
1285.238, 22874.00
1286.308, 22765.00
1287.379, 22832.00
