##NAMES=Dravite
##RRUFFID=R060286
##IDEAL CHEMISTRY=NaMg_3_Al_6_(Si_6_O_18_)(BO_3_)_3_(OH)_3_OH
##LOCALITY=Badakshan Province, Afghanistan
##OWNER=RRUFF
##SOURCE=Herb Obodda
##DESCRIPTION=Brown prismatic tourmaline crystal
##STATUS=The identification of this mineral has been confirmed by X-ray diffraction and chemical analysis
##URL=rruff.info/R060286
##MEASURED CHEMISTRY=(Na_0.48_Ca_0.38_[box]_0.14_)_Σ=1_(Mg_2.90_Ti_0.10_)_Σ=3_Al_6.00_(B_1.00_O_3_)_3_(Si_5.56_B_0.44_)_Σ=6_O_18_(OH)_4_; (OH) assumed from stoichiometry; B estimated by difference and charge balance
##PIN_ID=L01259
##ORIENTATION=Laser parallel to c* (0 0 1). Fiducial mark perpendicular to laser is parallel to a [1 0 0]
118.1340, 14555.00
119.3650, 14499.00
120.5960, 14613.00
121.8270, 15003.00
123.0580, 15812.00
124.2880, 16246.00
125.5190, 16246.00
126.7490, 16238.00
127.9790, 16682.00
129.2090, 17146.00
130.4390, 17456.00
131.6680, 17711.00
132.8980, 17764.00
134.1270, 17341.00
135.3560, 17716.00
136.5850, 17561.00
137.8140, 17742.00
139.0430, 18173.00
140.2710, 18269.00
141.5000, 18178.00
142.7280, 17799.00
143.9560, 17844.00
145.1840, 17782.00
146.4120, 17751.00
147.6390, 17722.00
148.8670, 17443.00
150.0940, 17412.00
151.3210, 17211.83
152.5490, 17036.58
153.7750, 16812.00
155.0020, 16615.00
156.2290, 16336.00
157.4550, 15956.29
158.6810, 15745.00
159.9080, 15479.00
161.1340, 15284.00
162.3590, 15408.00
163.5850, 15568.00
164.8110, 15923.00
166.0360, 15758.00
167.2610, 15846.00
168.4860, 15908.00
169.7110, 16215.00
170.9360, 16157.00
172.1610, 16004.00
173.3850, 15926.00
174.6100, 15756.00
175.8340, 15868.00
177.0580, 15835.00
178.2820, 16137.00
179.5050, 16033.00
180.7290, 16289.00
181.9520, 16619.00
183.1760, 16847.00
184.3990, 17267.00
185.6220, 17710.00
186.8450, 18236.00
188.0670, 18485.00
189.2900, 18940.00
190.5120, 19402.00
191.7340, 19632.00
192.9560, 20106.00
194.1780, 20460.00
195.4000, 20822.00
196.6220, 21174.00
197.8430, 21573.00
199.0640, 22209.00
200.2860, 22893.00
201.5070, 23882.00
202.7270, 25160.00
203.9480, 25751.00
205.1690, 26974.00
206.3890, 28443.00
207.6090, 30234.00
208.8290, 31864.00
210.0490, 34079.00
211.2690, 35558.00
212.4890, 36697.00
213.7080, 37298.62
214.9280, 37755.00
216.1470, 36956.00
217.3660, 35801.00
218.5850, 34277.00
219.8030, 33079.00
221.0220, 31768.00
222.2400, 30393.00
223.4590, 28724.00
224.6770, 27812.00
225.8950, 27120.00
227.1120, 26575.00
228.3300, 26394.00
229.5480, 26116.00
230.7650, 26336.00
231.9820, 26611.00
233.1990, 26856.00
234.4160, 27609.00
235.6330, 28293.00
236.8490, 29127.00
238.0660, 29857.00
239.2820, 30367.00
240.4980, 30658.00
241.7140, 30829.00
242.9300, 30603.00
244.1460, 29618.00
245.3610, 28996.00
246.5770, 28156.00
247.7920, 26616.00
249.0070, 25346.00
250.2220, 24112.00
251.4370, 22756.00
252.6510, 22031.00
253.8660, 21017.00
255.0800, 20583.00
256.2940, 20259.00
257.5080, 20451.00
258.7220, 20239.89
259.9360, 20008.12
261.1490, 20328.00
262.3630, 19662.00
263.5760, 19704.00
264.7890, 19940.00
266.0020, 20319.00
267.2150, 20507.00
268.4270, 20997.00
269.6400, 21334.00
270.8520, 21472.00
272.0640, 21972.00
273.2760, 22028.00
274.4880, 22359.00
275.7000, 22261.00
276.9120, 22214.00
278.1230, 22151.00
279.3340, 21897.00
280.5450, 21408.00
281.7560, 21109.00
282.9670, 20875.00
284.1780, 20670.00
285.3880, 20616.00
286.5980, 20394.00
287.8090, 20294.00
289.0190, 20104.00
290.2290, 20105.00
291.4380, 20085.00
292.6480, 20238.00
293.8570, 20369.00
295.0670, 20567.00
296.2760, 20657.00
297.4850, 20773.00
298.6930, 20516.00
299.9020, 20583.00
301.1110, 20351.00
302.3190, 20025.00
303.5270, 20099.00
304.7350, 19819.00
305.9430, 19471.00
307.1510, 19628.00
308.3580, 19625.00
309.5660, 19681.00
310.7730, 19899.00
311.9800, 20111.00
313.1870, 20310.08
314.3940, 20602.00
315.6010, 20815.00
316.8070, 21282.00
318.0130, 21570.00
319.2200, 22006.00
320.4260, 22659.00
321.6310, 23071.00
322.8370, 23666.00
324.0430, 24657.00
325.2480, 25272.00
326.4540, 26200.00
327.6590, 26783.00
328.8640, 27664.00
330.0680, 28842.00
331.2730, 29683.00
332.4780, 30439.00
333.6820, 31294.00
334.8860, 32304.00
336.0900, 32868.00
337.2940, 33275.00
338.4980, 33941.00
339.7010, 33745.00
340.9050, 33567.00
342.1080, 33769.00
343.3110, 33138.00
344.5140, 32942.00
345.7170, 32775.00
346.9200, 32690.00
348.1220, 32549.00
349.3240, 32781.00
350.5270, 32851.00
351.7290, 33628.00
352.9310, 34375.00
354.1320, 34992.00
355.3340, 36254.00
356.5350, 37502.00
357.7370, 38913.00
358.9380, 40241.00
360.1390, 42184.00
361.3400, 44106.00
362.5400, 46453.00
363.7410, 48087.00
364.9410, 51089.00
366.1410, 53113.00
367.3410, 55542.00
368.5410, 57584.00
369.7410, 58910.00
370.9400, 59766.00
372.1400, 59899.57
373.3390, 59474.00
374.5380, 58284.00
375.7370, 56303.00
376.9360, 53746.00
378.1350, 51008.00
379.3330, 48349.00
380.5310, 45594.00
381.7300, 43059.00
382.9280, 40732.00
384.1260, 38722.00
385.3230, 37129.00
386.5210, 35482.00
387.7180, 34358.00
388.9160, 33115.00
390.1130, 32253.00
391.3100, 31620.00
392.5060, 30931.00
393.7030, 30275.00
394.9000, 29799.00
396.0960, 29378.00
397.2920, 28983.15
398.4880, 28832.00
399.6840, 28382.00
400.8800, 28244.00
402.0750, 27973.00
403.2710, 27761.81
404.4660, 27627.00
405.6610, 27407.00
406.8560, 27321.00
408.0510, 27100.00
409.2450, 26789.00
410.4400, 26567.00
411.6340, 25752.00
412.8280, 25484.00
414.0220, 25047.00
415.2160, 24545.00
416.4100, 24471.00
417.6030, 24020.00
418.7970, 23859.00
419.9900, 23616.00
421.1830, 23663.00
422.3760, 23154.00
423.5690, 23152.00
424.7610, 22981.00
425.9540, 23074.00
427.1460, 22927.00
428.3380, 22908.00
429.5300, 23011.00
430.7220, 22972.00
431.9140, 22898.00
433.1050, 23000.00
434.2970, 23089.00
435.4880, 23136.00
436.6790, 23022.00
437.8700, 23311.00
439.0610, 23282.00
440.2510, 23388.00
441.4420, 23566.00
442.6320, 23508.00
443.8220, 23659.00
445.0120, 23671.96
446.2020, 23590.00
447.3910, 23658.00
448.5810, 23551.00
449.7700, 23415.00
450.9600, 23471.00
452.1490, 23291.00
453.3370, 23258.00
454.5260, 23136.00
455.7150, 23231.00
456.9030, 23179.00
458.0910, 23236.00
459.2800, 23337.00
460.4670, 23492.00
461.6550, 23540.00
462.8430, 23875.02
464.0300, 24130.79
465.2180, 24558.00
466.4050, 24953.00
467.5920, 25322.00
468.7790, 25985.00
469.9650, 26626.00
471.1520, 27368.00
472.3380, 28392.00
473.5250, 29176.00
474.7110, 29749.00
475.8970, 30361.00
477.0820, 31176.00
478.2680, 31198.00
479.4540, 31722.00
480.6390, 32042.00
481.8240, 31951.00
483.0090, 32316.00
484.1940, 32334.00
485.3780, 32205.00
486.5630, 32156.00
487.7470, 32134.00
488.9320, 31774.00
490.1160, 31816.00
491.3000, 31516.00
492.4830, 31362.00
493.6670, 31192.00
494.8500, 31057.00
496.0340, 30843.00
497.2170, 30474.00
498.4000, 30423.00
499.5820, 30237.00
500.7650, 29594.00
501.9480, 29220.00
503.1300, 28901.00
504.3120, 28441.00
505.4940, 28116.00
506.6760, 27572.00
507.8580, 26976.00
509.0390, 26424.00
510.2210, 25973.00
511.4020, 25570.62
512.5830, 25345.00
513.7640, 25098.00
514.9450, 24898.00
516.1250, 24828.59
517.3060, 24931.00
518.4860, 24879.00
519.6660, 25030.00
520.8460, 25336.00
522.0260, 25859.00
523.2060, 26029.00
524.3850, 26455.00
525.5650, 26845.00
526.7440, 27236.00
527.9230, 27508.00
529.1020, 27956.00
530.2810, 28012.00
531.4590, 28339.00
532.6380, 28385.00
533.8160, 28264.00
534.9940, 28282.00
536.1720, 28158.88
537.3500, 27924.00
538.5270, 27842.00
539.7050, 27507.00
540.8820, 27199.00
542.0590, 26737.00
543.2360, 26755.00
544.4130, 26644.00
545.5900, 26185.00
546.7660, 26152.00
547.9430, 25887.00
549.1190, 25787.00
550.2950, 25651.51
551.4710, 25617.00
552.6470, 25339.00
553.8220, 25189.00
554.9980, 24942.00
556.1730, 24778.00
557.3480, 24552.81
558.5230, 24200.00
559.6980, 24142.00
560.8730, 23854.00
562.0470, 23723.00
563.2220, 23400.00
564.3960, 23125.00
565.5700, 22738.00
566.7440, 22903.00
567.9170, 22482.00
569.0910, 22179.00
570.2640, 22256.00
571.4380, 21674.00
572.6110, 21625.00
573.7840, 21350.00
574.9570, 21287.00
576.1290, 21075.00
577.3020, 21064.00
578.4740, 20716.00
579.6460, 20446.00
580.8180, 20313.00
581.9900, 20336.00
583.1620, 20193.00
584.3330, 20072.00
585.5040, 20045.00
586.6760, 20018.00
587.8470, 19950.00
589.0180, 19909.45
590.1880, 19736.00
591.3590, 19848.00
592.5290, 19807.00
593.7000, 19892.00
594.8700, 19987.00
596.0400, 19774.00
597.2090, 20010.00
598.3790, 19883.00
599.5490, 20013.00
600.7180, 20012.00
601.8870, 19880.00
603.0560, 20083.00
604.2250, 20114.00
605.3940, 20087.00
606.5620, 20275.00
607.7300, 20336.00
608.8990, 20412.00
610.0670, 20397.00
611.2350, 20352.00
612.4020, 20644.00
613.5700, 20626.00
614.7370, 20692.00
615.9050, 20874.00
617.0720, 20783.00
618.2390, 21002.00
619.4060, 21376.00
620.5720, 21508.00
621.7390, 21518.00
622.9050, 21862.00
624.0710, 22018.00
625.2370, 22048.00
626.4030, 22512.00
627.5690, 22580.00
628.7340, 22966.00
629.9000, 23074.00
631.0650, 22992.00
632.2300, 23039.00
633.3950, 23060.00
634.5600, 22717.00
635.7240, 22496.00
636.8890, 22040.00
638.0530, 21860.00
639.2170, 21902.00
640.3810, 21570.00
641.5450, 21563.00
642.7080, 21524.00
643.8720, 21375.00
645.0350, 21683.00
646.1980, 21622.00
647.3610, 21855.00
648.5240, 21971.00
649.6870, 22228.00
650.8490, 22453.00
652.0120, 22996.00
653.1740, 23051.00
654.3360, 23665.00
655.4980, 23945.00
656.6600, 24503.00
657.8210, 24859.00
658.9830, 25235.00
660.1440, 25441.00
661.3050, 26172.00
662.4660, 26469.00
663.6270, 26856.00
664.7870, 26926.00
665.9480, 27324.00
667.1080, 27565.00
668.2680, 27869.00
669.4280, 27719.00
670.5880, 27661.00
671.7480, 27672.00
672.9070, 27527.00
674.0670, 27407.00
675.2260, 27243.00
676.3850, 27013.00
677.5440, 26739.00
678.7030, 26566.00
679.8610, 26343.00
681.0200, 26190.00
682.1780, 25941.00
683.3360, 25881.00
684.4940, 25871.00
685.6520, 25743.00
686.8090, 25917.00
687.9670, 26055.00
689.1240, 26184.00
690.2810, 26380.00
691.4380, 26788.00
692.5950, 27209.00
693.7520, 27533.00
694.9080, 28026.00
696.0650, 28534.00
697.2210, 29281.00
698.3770, 29919.00
699.5330, 30762.00
700.6880, 31255.00
701.8440, 32129.00
702.9990, 33234.00
704.1550, 34109.00
705.3100, 35400.00
706.4650, 36378.00
707.6190, 37723.00
708.7740, 39296.00
709.9290, 40539.00
711.0830, 42701.00
712.2370, 44434.00
713.3910, 46740.00
714.5450, 48339.00
715.6980, 50423.00
716.8520, 52647.00
718.0050, 54695.00
719.1580, 56237.00
720.3110, 57909.00
721.4640, 58252.00
722.6170, 58469.00
723.7700, 58560.00
724.9220, 57132.00
726.0740, 55471.00
727.2260, 53775.00
728.3780, 51363.00
729.5300, 49163.00
730.6810, 47078.00
731.8330, 44794.00
732.9840, 43165.00
734.1350, 41424.00
735.2860, 40005.00
736.4370, 38954.00
737.5880, 38056.00
738.7380, 37571.00
739.8880, 37179.00
741.0390, 36916.00
742.1890, 36941.00
743.3380, 37195.00
744.4880, 37593.00
745.6380, 37832.00
746.7870, 38840.00
747.9360, 39642.00
749.0850, 40425.00
750.2340, 41192.00
751.3830, 41551.00
752.5310, 42765.00
753.6800, 43239.00
754.8280, 44252.00
755.9760, 45184.00
757.1240, 45968.00
758.2720, 46687.00
759.4190, 47327.00
760.5670, 47591.00
761.7140, 47819.00
762.8610, 47682.00
764.0080, 47415.00
765.1550, 47153.00
766.3020, 46541.00
767.4480, 46189.00
768.5950, 45824.00
769.7410, 45245.00
770.8870, 45041.00
772.0330, 44623.00
773.1780, 44061.00
774.3240, 43914.00
775.4690, 43491.00
776.6140, 42843.00
777.7590, 42625.00
778.9040, 42091.00
780.0490, 41822.00
781.1940, 41474.00
782.3380, 41211.00
783.4820, 41237.00
784.6260, 41055.00
785.7700, 41440.00
786.9140, 41375.00
788.0580, 41502.00
789.2010, 41635.00
790.3450, 41956.00
791.4880, 42280.00
792.6310, 42153.00
793.7730, 42196.00
794.9160, 42235.00
796.0590, 41285.00
797.2010, 41384.00
798.3430, 40852.00
799.4850, 40102.00
800.6270, 39829.00
801.7690, 39257.00
802.9100, 38592.00
804.0520, 38060.00
805.1930, 37817.00
806.3340, 37454.00
807.4750, 37338.57
808.6160, 37317.00
809.7560, 37324.00
810.8970, 37416.00
812.0370, 37592.00
813.1770, 37594.39
814.3170, 37639.00
815.4570, 37665.00
816.5960, 37748.00
817.7360, 37721.00
818.8750, 37199.00
820.0140, 36806.00
821.1530, 36284.00
822.2920, 35445.00
823.4310, 34596.00
824.5690, 33694.00
825.7070, 32509.00
826.8460, 31616.00
827.9840, 30435.00
829.1220, 29057.00
830.2590, 27894.00
831.3970, 26945.00
832.5340, 26001.00
833.6710, 24986.00
834.8080, 24027.00
835.9450, 23334.00
837.0820, 22384.00
838.2190, 21886.00
839.3550, 21255.00
840.4910, 20552.00
841.6270, 20168.00
842.7630, 19490.00
843.8990, 19278.00
845.0350, 18645.00
846.1700, 18313.00
847.3060, 18050.00
848.4410, 17768.00
849.5760, 17482.00
850.7100, 17267.00
851.8450, 17098.00
852.9800, 16877.00
854.1140, 16744.00
855.2480, 16673.00
856.3820, 16736.00
857.5160, 16514.00
858.6500, 16508.28
859.7830, 16358.00
860.9170, 16373.00
862.0500, 16372.00
863.1830, 16343.00
864.3160, 16341.00
865.4480, 16337.00
866.5810, 16379.86
867.7130, 16372.73
868.8460, 16470.00
869.9780, 16422.00
871.1100, 16408.00
872.2410, 16497.00
873.3730, 16639.00
874.5050, 16585.00
875.6360, 16429.00
876.7670, 16604.00
877.8980, 16655.00
879.0290, 16720.00
880.1590, 16861.00
881.2900, 16775.00
882.4200, 16839.00
883.5500, 16967.00
884.6800, 16955.00
885.8100, 17141.00
886.9400, 17187.00
888.0690, 17139.00
889.1990, 17167.00
890.3280, 17430.00
891.4570, 17400.00
892.5860, 17568.00
893.7140, 17640.99
894.8430, 17670.64
895.9710, 17771.00
897.1000, 17804.00
898.2280, 17881.00
899.3560, 18052.00
900.4830, 18007.00
901.6110, 18283.00
902.7380, 18314.00
903.8660, 18471.00
904.9930, 18404.00
906.1200, 18687.00
907.2460, 18793.00
908.3730, 18799.00
909.5000, 18946.00
910.6260, 19123.00
911.7520, 19172.00
912.8780, 19409.00
914.0040, 19451.62
915.1290, 19311.00
916.2550, 19650.00
917.3800, 19687.00
918.5050, 19914.00
919.6300, 20017.00
920.7550, 19901.00
921.8800, 20189.00
923.0040, 20152.00
924.1290, 20470.00
925.2530, 20272.00
926.3770, 20425.00
927.5010, 20584.00
928.6250, 20639.00
929.7480, 20852.00
930.8720, 20948.00
931.9950, 20974.00
933.1180, 20925.00
934.2410, 21078.88
935.3640, 21280.00
936.4860, 21386.00
937.6090, 21509.00
938.7310, 21811.00
939.8530, 21938.00
940.9750, 22033.00
942.0970, 22180.00
943.2180, 22261.00
944.3400, 22281.00
945.4610, 22663.00
946.5820, 22640.00
947.7030, 22909.00
948.8240, 22939.00
949.9450, 23022.00
951.0650, 23171.00
952.1860, 23327.00
953.3060, 23597.00
954.4260, 23772.00
955.5460, 23759.00
956.6650, 24072.00
957.7850, 24146.00
958.9040, 24446.00
960.0230, 24383.00
961.1420, 24782.00
962.2610, 24869.00
963.3800, 25150.00
964.4990, 25364.00
965.6170, 25390.00
966.7350, 25698.15
967.8530, 25820.00
968.9710, 26113.00
970.0890, 26311.00
971.2070, 26427.00
972.3240, 26799.00
973.4410, 26997.00
974.5580, 27267.00
975.6750, 27492.00
976.7920, 27824.00
977.9090, 27941.00
979.0250, 28126.00
980.1410, 28273.00
981.2580, 28376.00
982.3740, 28453.00
983.4890, 28551.00
984.6050, 28388.00
985.7200, 28282.00
986.8360, 27937.00
987.9510, 27727.00
989.0660, 27499.00
990.1810, 27374.00
991.2950, 27061.00
992.4100, 26815.00
993.5240, 26503.00
994.6390, 26317.29
995.7530, 26060.00
996.8660, 25891.00
997.9800, 25740.00
999.0940, 25388.00
1000.207, 25319.00
1001.320, 25231.00
1002.433, 25093.00
1003.546, 25239.00
1004.659, 25074.00
1005.772, 25283.00
1006.884, 24997.00
1007.996, 25252.00
1009.108, 25459.00
1010.220, 25550.00
1011.332, 25699.00
1012.444, 26154.00
1013.555, 26418.00
1014.666, 27347.00
1015.777, 27381.51
1016.888, 27870.00
1017.999, 27823.00
1019.110, 28515.00
1020.220, 28919.00
1021.331, 29106.00
1022.441, 29531.00
1023.551, 30059.00
1024.661, 30327.00
1025.770, 30826.00
1026.880, 31137.00
1027.989, 31546.00
1029.098, 32012.00
1030.207, 32626.00
1031.316, 33202.00
1032.425, 33679.00
1033.533, 33926.00
1034.642, 34642.00
1035.750, 35066.00
1036.858, 35973.00
1037.966, 36564.00
1039.073, 37203.00
1040.181, 37807.00
1041.288, 38028.00
1042.396, 39094.00
1043.503, 39236.00
1044.610, 39919.00
1045.716, 40386.00
1046.823, 40952.00
1047.929, 41197.52
1049.036, 41156.00
1050.142, 41704.00
1051.248, 41711.00
1052.353, 42254.00
1053.459, 41676.00
1054.564, 42171.00
1055.670, 42584.00
1056.775, 42642.00
1057.880, 43008.00
1058.985, 43284.00
1060.089, 43867.00
1061.194, 44280.00
1062.298, 44902.00
1063.402, 45475.49
1064.506, 46077.00
1065.610, 46598.00
1066.713, 46973.00
1067.817, 47286.00
1068.920, 47384.00
1070.023, 47356.00
1071.126, 47133.00
1072.229, 46553.00
1073.332, 45940.00
1074.435, 44993.00
1075.537, 43997.00
1076.639, 43344.00
1077.741, 42159.00
1078.843, 41146.00
1079.945, 40131.00
1081.046, 38976.00
1082.148, 37953.00
1083.249, 36923.00
1084.350, 35917.20
1085.451, 34974.00
1086.551, 34033.00
1087.652, 33225.00
1088.752, 32382.00
1089.853, 31677.00
1090.953, 31013.00
1092.053, 30260.00
1093.152, 29602.00
1094.252, 29233.00
1095.351, 28707.00
1096.451, 28100.00
1097.550, 27400.00
1098.649, 27154.00
1099.748, 26752.00
1100.846, 26575.00
1101.945, 26317.00
1103.043, 26304.00
1104.141, 25995.00
1105.239, 25545.00
1106.337, 25504.00
1107.434, 25123.00
1108.532, 25272.00
1109.629, 25055.00
1110.726, 24733.00
1111.823, 24802.00
1112.920, 24663.00
1114.017, 24805.00
1115.113, 24839.00
1116.210, 24939.00
1117.306, 24992.00
1118.402, 25073.00
1119.498, 25425.00
1120.593, 25608.00
1121.689, 25722.00
1122.784, 25975.00
1123.879, 25954.00
1124.974, 26151.00
1126.069, 26176.00
1127.164, 26097.00
1128.259, 26008.00
1129.353, 25656.00
1130.447, 25656.00
1131.541, 25373.00
1132.635, 25237.00
1133.729, 24932.00
1134.822, 24657.00
1135.916, 24407.00
1137.009, 23991.00
1138.102, 23682.00
1139.195, 23037.00
1140.288, 22863.00
1141.380, 22437.00
1142.473, 22114.00
1143.565, 21834.00
1144.657, 21549.00
1145.749, 21434.00
1146.841, 21301.00
1147.932, 21185.58
1149.024, 21107.29
1150.115, 21064.00
1151.206, 20981.00
1152.297, 20938.68
1153.388, 20910.93
1154.479, 20799.00
1155.569, 20811.00
1156.659, 20838.00
1157.750, 20773.00
1158.839, 20725.00
1159.929, 20616.00
1161.019, 20724.00
1162.108, 20718.00
1163.198, 20664.00
1164.287, 20686.00
1165.376, 20671.00
1166.465, 20594.00
1167.553, 20471.00
1168.642, 20619.00
1169.730, 20634.00
1170.818, 20737.00
1171.906, 20575.00
1172.994, 20582.00
1174.082, 20493.00
1175.170, 20485.00
1176.257, 20580.00
1177.344, 20580.00
1178.431, 20362.00
1179.518, 20434.00
1180.605, 20501.00
1181.691, 20669.00
1182.778, 20483.00
1183.864, 20641.00
1184.950, 20546.00
1186.036, 20686.00
1187.122, 20628.00
1188.207, 20658.00
1189.292, 20550.00
1190.378, 20739.00
1191.463, 20486.00
1192.548, 20635.00
1193.632, 20758.00
1194.717, 20480.00
1195.801, 20748.00
1196.886, 20707.00
1197.970, 20751.00
1199.054, 20674.00
1200.137, 20904.00
1201.221, 20819.00
1202.305, 20995.00
1203.388, 21153.00
1204.471, 20861.00
1205.554, 21177.00
1206.637, 21012.00
1207.719, 21168.00
1208.802, 21399.00
1209.884, 21346.00
1210.966, 21387.00
1212.048, 21417.00
1213.130, 21467.00
1214.212, 21686.00
1215.293, 21816.00
1216.374, 21835.00
1217.456, 21872.00
1218.536, 22110.00
1219.617, 22375.00
1220.698, 22381.00
1221.778, 22546.47
1222.859, 22516.00
1223.939, 22716.00
1225.019, 22676.00
1226.099, 22832.00
1227.178, 22976.00
1228.258, 22949.00
1229.337, 22872.00
1230.417, 23008.00
1231.496, 23261.00
1232.574, 23199.00
1233.653, 23373.00
1234.732, 23282.00
1235.810, 23412.00
1236.888, 23330.00
1237.966, 23616.00
1239.044, 23420.00
1240.122, 23682.00
1241.199, 23679.00
1242.277, 23800.00
1243.354, 23641.00
1244.431, 23848.00
1245.508, 23807.00
1246.585, 23609.00
1247.661, 23797.00
1248.738, 23980.00
1249.814, 24151.00
1250.890, 23762.00
1251.966, 23881.00
1253.042, 23786.00
1254.117, 23995.00
1255.193, 23887.00
1256.268, 23824.00
1257.343, 23895.00
1258.418, 23859.53
1259.493, 23970.00
1260.567, 23944.00
1261.642, 23983.00
1262.716, 24067.00
1263.790, 23856.00
1264.864, 24224.00
1265.938, 24190.00
1267.011, 24180.00
1268.085, 24021.00
1269.158, 24012.00
1270.231, 23974.00
1271.304, 24193.00
1272.377, 24180.00
1273.450, 23904.00
1274.522, 24270.00
1275.594, 24129.00
1276.666, 24036.00
1277.738, 24070.00
1278.810, 24012.00
1279.882, 23944.00
1280.953, 23961.00
1282.025, 24159.00
1283.096, 23883.00
1284.167, 23779.00
1285.238, 24054.00
1286.308, 24026.00
1287.379, 23899.00
