##NAMES=Dravite
##RRUFFID=R060286
##IDEAL CHEMISTRY=NaMg_3_Al_6_(Si_6_O_18_)(BO_3_)_3_(OH)_3_OH
##LOCALITY=Badakshan Province, Afghanistan
##OWNER=RRUFF
##SOURCE=Herb Obodda
##DESCRIPTION=Brown prismatic tourmaline crystal
##STATUS=The identification of this mineral has been confirmed by X-ray diffraction and chemical analysis
##URL=rruff.info/R060286
##MEASURED CHEMISTRY=(Na_0.48_Ca_0.38_[box]_0.14_)_Σ=1_(Mg_2.90_Ti_0.10_)_Σ=3_Al_6.00_(B_1.00_O_3_)_3_(Si_5.56_B_0.44_)_Σ=6_O_18_(OH)_4_; (OH) assumed from stoichiometry; B estimated by difference and charge balance
##PIN_ID=L01259
##ORIENTATION=Laser parallel to c* (0 0 1). Fiducial mark perpendicular to laser is parallel to a [1 0 0]
118.1340, 12825.00
119.3650, 13005.00
120.5960, 13362.00
121.8270, 13539.00
123.0580, 14151.00
124.2880, 14403.00
125.5190, 14288.00
126.7490, 14339.00
127.9790, 14849.00
129.2090, 15175.00
130.4390, 15453.00
131.6680, 15648.00
132.8980, 15754.00
134.1270, 15912.00
135.3560, 16138.00
136.5850, 16251.00
137.8140, 16432.00
139.0430, 16946.00
140.2710, 16971.00
141.5000, 17019.00
142.7280, 16736.00
143.9560, 16625.00
145.1840, 16628.00
146.4120, 16593.00
147.6390, 16731.00
148.8670, 16299.00
150.0940, 16313.00
151.3210, 16306.00
152.5490, 15885.00
153.7750, 15470.00
155.0020, 15157.00
156.2290, 14857.00
157.4550, 14416.00
158.6810, 14188.00
159.9080, 13910.11
161.1340, 13575.00
162.3590, 13513.00
163.5850, 13440.00
164.8110, 13369.39
166.0360, 13446.00
167.2610, 13312.00
168.4860, 13326.00
169.7110, 13406.00
170.9360, 13513.00
172.1610, 13606.00
173.3850, 13521.00
174.6100, 13646.00
175.8340, 13837.00
177.0580, 13907.00
178.2820, 14230.00
179.5050, 14566.00
180.7290, 15041.00
181.9520, 15333.00
183.1760, 15658.00
184.3990, 16142.00
185.6220, 16582.00
186.8450, 17320.00
188.0670, 17716.00
189.2900, 18209.00
190.5120, 18567.00
191.7340, 19027.00
192.9560, 19529.00
194.1780, 19880.00
195.4000, 20230.00
196.6220, 20508.00
197.8430, 20938.00
199.0640, 21709.00
200.2860, 22652.00
201.5070, 23697.58
202.7270, 25082.00
203.9480, 26413.00
205.1690, 27905.00
206.3890, 29711.00
207.6090, 32039.00
208.8290, 34125.00
210.0490, 36306.00
211.2690, 38375.00
212.4890, 39948.00
213.7080, 40395.00
214.9280, 40207.00
216.1470, 39682.00
217.3660, 38543.00
218.5850, 36754.00
219.8030, 34759.00
221.0220, 33014.00
222.2400, 31589.00
223.4590, 30107.00
224.6770, 29097.00
225.8950, 27828.00
227.1120, 27220.00
228.3300, 27204.00
229.5480, 26871.00
230.7650, 27143.00
231.9820, 27515.00
233.1990, 28185.00
234.4160, 28825.00
235.6330, 29468.00
236.8490, 30157.00
238.0660, 31103.00
239.2820, 31562.00
240.4980, 31892.00
241.7140, 31989.00
242.9300, 31423.00
244.1460, 30810.00
245.3610, 29800.00
246.5770, 28222.00
247.7920, 27050.00
249.0070, 25480.00
250.2220, 24141.00
251.4370, 22691.00
252.6510, 21615.00
253.8660, 20413.00
255.0800, 19712.00
256.2940, 19171.00
257.5080, 19484.00
258.7220, 19037.15
259.9360, 19795.00
261.1490, 18979.00
262.3630, 18366.00
263.5760, 18447.00
264.7890, 18825.00
266.0020, 19231.00
267.2150, 19476.00
268.4270, 19785.00
269.6400, 20329.00
270.8520, 20559.00
272.0640, 20955.00
273.2760, 21270.00
274.4880, 21359.00
275.7000, 21482.00
276.9120, 21412.00
278.1230, 21080.00
279.3340, 20720.00
280.5450, 20411.00
281.7560, 20173.00
282.9670, 19771.00
284.1780, 19346.00
285.3880, 19107.00
286.5980, 18850.00
287.8090, 18841.00
289.0190, 18685.00
290.2290, 18549.00
291.4380, 18586.00
292.6480, 18413.00
293.8570, 18655.00
295.0670, 18432.00
296.2760, 18507.00
297.4850, 18656.00
298.6930, 18457.00
299.9020, 18519.00
301.1110, 18084.00
302.3190, 18019.00
303.5270, 17770.00
304.7350, 17553.00
305.9430, 17361.00
307.1510, 17355.62
308.3580, 17472.00
309.5660, 17492.00
310.7730, 17697.00
311.9800, 17894.00
313.1870, 18239.00
314.3940, 18549.00
315.6010, 18716.00
316.8070, 19315.00
318.0130, 19623.00
319.2200, 20177.00
320.4260, 20651.00
321.6310, 21141.00
322.8370, 21683.00
324.0430, 22364.00
325.2480, 22994.00
326.4540, 23778.00
327.6590, 24503.00
328.8640, 25318.00
330.0680, 26167.00
331.2730, 26675.00
332.4780, 27497.00
333.6820, 28175.00
334.8860, 28454.00
336.0900, 29056.00
337.2940, 29147.00
338.4980, 29190.00
339.7010, 29196.00
340.9050, 29216.00
342.1080, 29181.00
343.3110, 28860.00
344.5140, 28876.00
345.7170, 29088.00
346.9200, 29125.00
348.1220, 29360.00
349.3240, 29699.00
350.5270, 30364.00
351.7290, 31161.00
352.9310, 32272.00
354.1320, 33344.00
355.3340, 34765.00
356.5350, 36239.00
357.7370, 37750.00
358.9380, 39637.00
360.1390, 41787.00
361.3400, 44231.00
362.5400, 46885.00
363.7410, 49554.00
364.9410, 52387.00
366.1410, 55400.00
367.3410, 58285.00
368.5410, 60579.00
369.7410, 62117.00
370.9400, 63581.00
372.1400, 63605.00
373.3390, 63151.00
374.5380, 61855.00
375.7370, 59485.00
376.9360, 57128.00
378.1350, 54129.00
379.3330, 50836.00
380.5310, 47574.00
381.7300, 44600.00
382.9280, 42006.00
384.1260, 39611.00
385.3230, 37553.00
386.5210, 35927.00
387.7180, 34459.00
388.9160, 33217.00
390.1130, 32104.00
391.3100, 31032.00
392.5060, 30242.00
393.7030, 29639.00
394.9000, 29424.00
396.0960, 28801.00
397.2920, 28329.00
398.4880, 27815.00
399.6840, 27662.00
400.8800, 27473.00
402.0750, 27250.00
403.2710, 26924.00
404.4660, 26766.00
405.6610, 26427.19
406.8560, 26245.00
408.0510, 25810.00
409.2450, 25468.00
410.4400, 25174.00
411.6340, 24754.00
412.8280, 24076.00
414.0220, 23692.00
415.2160, 23234.00
416.4100, 22701.00
417.6030, 22553.00
418.7970, 22015.00
419.9900, 21731.00
421.1830, 21727.00
422.3760, 21274.00
423.5690, 21489.00
424.7610, 21036.00
425.9540, 21034.00
427.1460, 21025.00
428.3380, 20924.00
429.5300, 20975.00
430.7220, 20872.00
431.9140, 20894.00
433.1050, 20833.00
434.2970, 20974.00
435.4880, 20715.00
436.6790, 20845.00
437.8700, 20844.00
439.0610, 21006.00
440.2510, 20881.00
441.4420, 20970.00
442.6320, 21084.00
443.8220, 21137.00
445.0120, 21079.00
446.2020, 21118.00
447.3910, 20948.00
448.5810, 21251.00
449.7700, 21334.00
450.9600, 21216.00
452.1490, 21228.00
453.3370, 21291.00
454.5260, 21347.00
455.7150, 21400.00
456.9030, 21508.00
458.0910, 21434.00
459.2800, 21601.00
460.4670, 21733.00
461.6550, 21810.00
462.8430, 22215.00
464.0300, 22592.00
465.2180, 22931.00
466.4050, 23617.00
467.5920, 24234.00
468.7790, 24785.00
469.9650, 25868.00
471.1520, 26618.00
472.3380, 27550.00
473.5250, 28412.00
474.7110, 29297.00
475.8970, 29991.00
477.0820, 30616.00
478.2680, 31035.00
479.4540, 31661.00
480.6390, 31607.00
481.8240, 31561.00
483.0090, 31699.00
484.1940, 31720.00
485.3780, 31560.00
486.5630, 31539.00
487.7470, 31446.00
488.9320, 31281.00
490.1160, 31092.00
491.3000, 30968.00
492.4830, 30814.00
493.6670, 30562.00
494.8500, 30429.00
496.0340, 30191.00
497.2170, 29506.00
498.4000, 29258.00
499.5820, 28772.00
500.7650, 28345.00
501.9480, 28047.00
503.1300, 27345.00
504.3120, 26702.00
505.4940, 26334.00
506.6760, 25604.00
507.8580, 25163.00
509.0390, 24555.00
510.2210, 24156.00
511.4020, 23904.00
512.5830, 23374.00
513.7640, 23143.38
514.9450, 22752.00
516.1250, 22716.00
517.3060, 22424.00
518.4860, 22501.00
519.6660, 22630.00
520.8460, 23076.00
522.0260, 23332.00
523.2060, 23571.00
524.3850, 23929.00
525.5650, 24315.00
526.7440, 25143.00
527.9230, 25384.00
529.1020, 25660.00
530.2810, 25737.00
531.4590, 26007.00
532.6380, 25861.00
533.8160, 25985.00
534.9940, 25964.00
536.1720, 25723.00
537.3500, 25636.00
538.5270, 25188.00
539.7050, 24918.00
540.8820, 24749.00
542.0590, 24401.00
543.2360, 24096.00
544.4130, 23977.00
545.5900, 23735.00
546.7660, 23380.00
547.9430, 23169.00
549.1190, 22874.62
550.2950, 22675.00
551.4710, 22337.00
552.6470, 22091.00
553.8220, 21834.00
554.9980, 21494.00
556.1730, 21183.00
557.3480, 20841.39
558.5230, 20493.00
559.6980, 20104.00
560.8730, 19702.00
562.0470, 19287.00
563.2220, 19071.00
564.3960, 18879.00
565.5700, 18196.00
566.7440, 18322.00
567.9170, 17838.00
569.0910, 17721.00
570.2640, 17604.00
571.4380, 17397.00
572.6110, 17098.00
573.7840, 17072.00
574.9570, 16898.00
576.1290, 16746.00
577.3020, 16659.00
578.4740, 16508.00
579.6460, 16572.00
580.8180, 16370.00
581.9900, 16351.00
583.1620, 16440.00
584.3330, 16326.00
585.5040, 16304.00
586.6760, 16373.00
587.8470, 16388.00
589.0180, 16286.00
590.1880, 16447.00
591.3590, 16427.00
592.5290, 16381.00
593.7000, 16489.00
594.8700, 16523.00
596.0400, 16554.00
597.2090, 16618.63
598.3790, 16783.00
599.5490, 16709.00
600.7180, 16744.00
601.8870, 16799.00
603.0560, 17031.00
604.2250, 17011.00
605.3940, 16996.00
606.5620, 17275.00
607.7300, 17282.00
608.8990, 17366.00
610.0670, 17305.00
611.2350, 17418.00
612.4020, 17503.00
613.5700, 17781.00
614.7370, 17940.00
615.9050, 17975.00
617.0720, 17943.00
618.2390, 18373.00
619.4060, 18382.00
620.5720, 18700.00
621.7390, 18684.00
622.9050, 19023.00
624.0710, 19254.00
625.2370, 19447.00
626.4030, 19682.14
627.5690, 19830.00
628.7340, 19981.00
629.9000, 20173.00
631.0650, 20168.00
632.2300, 20386.00
633.3950, 19874.00
634.5600, 19626.00
635.7240, 19279.00
636.8890, 19123.00
638.0530, 18624.00
639.2170, 18308.00
640.3810, 18229.00
641.5450, 18078.00
642.7080, 17920.00
643.8720, 17938.00
645.0350, 17923.00
646.1980, 18162.00
647.3610, 18309.00
648.5240, 18358.00
649.6870, 18774.00
650.8490, 18898.00
652.0120, 19511.00
653.1740, 19667.00
654.3360, 20274.00
655.4980, 20767.00
656.6600, 21069.00
657.8210, 21648.00
658.9830, 22113.35
660.1440, 22725.00
661.3050, 23195.00
662.4660, 23600.00
663.6270, 24199.00
664.7870, 24690.00
665.9480, 24991.00
667.1080, 25311.00
668.2680, 25517.00
669.4280, 25767.00
670.5880, 25788.00
671.7480, 25963.00
672.9070, 25755.00
674.0670, 25589.00
675.2260, 25282.00
676.3850, 25078.84
677.5440, 24897.00
678.7030, 24580.00
679.8610, 24345.00
681.0200, 24082.00
682.1780, 23896.26
683.3360, 23644.00
684.4940, 23614.00
685.6520, 23552.00
686.8090, 23511.00
687.9670, 23658.58
689.1240, 23860.00
690.2810, 24098.00
691.4380, 24431.00
692.5950, 24872.00
693.7520, 25382.00
694.9080, 25780.00
696.0650, 26538.00
697.2210, 27175.96
698.3770, 28057.00
699.5330, 28792.00
700.6880, 29732.00
701.8440, 30742.37
702.9990, 31866.36
704.1550, 33264.00
705.3100, 34458.00
706.4650, 36153.00
707.6190, 37719.00
708.7740, 39522.00
709.9290, 40954.00
711.0830, 43395.00
712.2370, 45273.00
713.3910, 47457.00
714.5450, 50122.00
715.6980, 52325.00
716.8520, 54325.00
718.0050, 56848.00
719.1580, 58320.00
720.3110, 59335.00
721.4640, 60279.00
722.6170, 59773.00
723.7700, 59047.00
724.9220, 57569.00
726.0740, 55640.00
727.2260, 53146.00
728.3780, 50523.00
729.5300, 47718.00
730.6810, 45157.00
731.8330, 42645.00
732.9840, 40250.00
734.1350, 38517.00
735.2860, 36890.00
736.4370, 35625.00
737.5880, 34518.00
738.7380, 33840.00
739.8880, 33406.00
741.0390, 33212.00
742.1890, 33111.07
743.3380, 33338.00
744.4880, 33521.00
745.6380, 34098.00
746.7870, 34743.00
747.9360, 35231.00
749.0850, 36079.00
750.2340, 36731.00
751.3830, 37758.00
752.5310, 38464.00
753.6800, 39294.00
754.8280, 40371.00
755.9760, 41355.00
757.1240, 42154.00
758.2720, 42813.00
759.4190, 43377.00
760.5670, 43946.00
761.7140, 43646.00
762.8610, 43637.00
764.0080, 43730.00
765.1550, 42784.00
766.3020, 42569.00
767.4480, 41564.00
768.5950, 41052.00
769.7410, 40709.00
770.8870, 40209.00
772.0330, 39870.00
773.1780, 39519.00
774.3240, 38976.00
775.4690, 38633.20
776.6140, 38220.00
777.7590, 37827.00
778.9040, 37605.00
780.0490, 37277.00
781.1940, 37039.71
782.3380, 37333.00
783.4820, 36831.00
784.6260, 36668.00
785.7700, 37070.00
786.9140, 37087.00
788.0580, 37244.00
789.2010, 37772.00
790.3450, 37863.00
791.4880, 38264.00
792.6310, 38118.00
793.7730, 38139.00
794.9160, 37989.00
796.0590, 37763.00
797.2010, 37329.00
798.3430, 37143.00
799.4850, 36586.00
800.6270, 36051.00
801.7690, 35486.00
802.9100, 35029.27
804.0520, 34755.00
805.1930, 34237.00
806.3340, 33810.00
807.4750, 33649.00
808.6160, 33631.00
809.7560, 33603.00
810.8970, 33582.00
812.0370, 33658.87
813.1770, 34064.00
814.3170, 33915.00
815.4570, 33926.00
816.5960, 34213.00
817.7360, 33853.00
818.8750, 33738.00
820.0140, 33028.00
821.1530, 32560.00
822.2920, 31432.00
823.4310, 30671.00
824.5690, 29713.00
825.7070, 28744.00
826.8460, 27515.00
827.9840, 26290.00
829.1220, 24975.00
830.2590, 24079.00
831.3970, 22873.00
832.5340, 21713.00
833.6710, 20880.00
834.8080, 19723.00
835.9450, 19014.00
837.0820, 18192.00
838.2190, 17385.00
839.3550, 16906.00
840.4910, 16386.00
841.6270, 15654.00
842.7630, 15207.00
843.8990, 14530.00
845.0350, 14156.00
846.1700, 13844.00
847.3060, 13404.00
848.4410, 13188.00
849.5760, 12787.00
850.7100, 12680.00
851.8450, 12342.00
852.9800, 12275.00
854.1140, 12022.00
855.2480, 11962.00
856.3820, 11829.00
857.5160, 11778.00
858.6500, 11634.00
859.7830, 11605.52
860.9170, 11638.00
862.0500, 11565.00
863.1830, 11532.00
864.3160, 11565.00
865.4480, 11451.00
866.5810, 11508.00
867.7130, 11476.00
868.8460, 11509.00
869.9780, 11578.00
871.1100, 11553.00
872.2410, 11410.00
873.3730, 11556.00
874.5050, 11562.00
875.6360, 11486.00
876.7670, 11594.00
877.8980, 11636.00
879.0290, 11754.00
880.1590, 11647.00
881.2900, 11698.00
882.4200, 11809.00
883.5500, 11881.00
884.6800, 12008.00
885.8100, 11960.00
886.9400, 12037.00
888.0690, 12070.00
889.1990, 12164.00
890.3280, 12189.00
891.4570, 12181.00
892.5860, 12315.00
893.7140, 12388.00
894.8430, 12547.00
895.9710, 12298.00
897.1000, 12590.00
898.2280, 12541.00
899.3560, 12596.00
900.4830, 12841.00
901.6110, 12845.00
902.7380, 12861.00
903.8660, 13036.00
904.9930, 13104.00
906.1200, 13129.00
907.2460, 13083.00
908.3730, 13333.00
909.5000, 13283.00
910.6260, 13406.00
911.7520, 13520.00
912.8780, 13558.00
914.0040, 13748.00
915.1290, 13688.00
916.2550, 13727.00
917.3800, 13961.00
918.5050, 13877.00
919.6300, 14070.00
920.7550, 14030.00
921.8800, 14017.00
923.0040, 13982.00
924.1290, 14051.40
925.2530, 14127.00
926.3770, 14212.00
927.5010, 14392.00
928.6250, 14479.00
929.7480, 14494.00
930.8720, 14580.00
931.9950, 14565.00
933.1180, 14741.00
934.2410, 14874.00
935.3640, 14891.00
936.4860, 14945.00
937.6090, 14986.00
938.7310, 15184.00
939.8530, 15433.00
940.9750, 15462.00
942.0970, 15728.00
943.2180, 15644.00
944.3400, 15820.00
945.4610, 16025.00
946.5820, 16128.00
947.7030, 16397.00
948.8240, 16460.00
949.9450, 16658.00
951.0650, 16710.00
952.1860, 17021.00
953.3060, 17219.00
954.4260, 17428.00
955.5460, 17636.91
956.6650, 17764.00
957.7850, 18020.00
958.9040, 18219.00
960.0230, 18476.00
961.1420, 18781.00
962.2610, 18939.00
963.3800, 19184.00
964.4990, 19296.00
965.6170, 19777.00
966.7350, 19841.00
967.8530, 20223.00
968.9710, 20341.00
970.0890, 20671.00
971.2070, 21100.00
972.3240, 21346.00
973.4410, 21658.00
974.5580, 21851.00
975.6750, 21982.00
976.7920, 22387.00
977.9090, 22647.00
979.0250, 22829.00
980.1410, 23244.00
981.2580, 23366.00
982.3740, 23492.00
983.4890, 23355.00
984.6050, 23378.00
985.7200, 22885.00
986.8360, 22787.00
987.9510, 22546.00
989.0660, 22015.00
990.1810, 21876.00
991.2950, 21408.00
992.4100, 21143.00
993.5240, 20684.00
994.6390, 20536.00
995.7530, 20217.00
996.8660, 19953.00
997.9800, 19842.00
999.0940, 19545.00
1000.207, 19426.00
1001.320, 19212.00
1002.433, 19157.00
1003.546, 19158.00
1004.659, 19000.00
1005.772, 19083.00
1006.884, 18884.00
1007.996, 19093.00
1009.108, 19038.00
1010.220, 19342.00
1011.332, 19335.00
1012.444, 19716.00
1013.555, 19852.00
1014.666, 20155.00
1015.777, 20545.00
1016.888, 20841.00
1017.999, 21290.00
1019.110, 21588.00
1020.220, 21981.00
1021.331, 22348.00
1022.441, 23034.00
1023.551, 23448.00
1024.661, 23785.00
1025.770, 24262.00
1026.880, 24559.00
1027.989, 25097.55
1029.098, 25495.00
1030.207, 26218.00
1031.316, 26519.00
1032.425, 27205.00
1033.533, 27703.00
1034.642, 28517.00
1035.750, 28891.00
1036.858, 29588.00
1037.966, 30358.00
1039.073, 30780.00
1040.181, 31702.00
1041.288, 32185.00
1042.396, 32991.00
1043.503, 33447.00
1044.610, 33971.00
1045.716, 34447.00
1046.823, 34664.00
1047.929, 35290.00
1049.036, 35344.00
1050.142, 35692.00
1051.248, 35884.00
1052.353, 36121.00
1053.459, 36433.00
1054.564, 36669.54
1055.670, 36816.00
1056.775, 37267.00
1057.880, 37473.00
1058.985, 37849.00
1060.089, 38395.00
1061.194, 39046.00
1062.298, 39932.00
1063.402, 40398.00
1064.506, 40885.00
1065.610, 41331.00
1066.713, 42015.00
1067.817, 41964.00
1068.920, 42335.00
1070.023, 41961.00
1071.126, 41555.00
1072.229, 41219.00
1073.332, 40280.00
1074.435, 39419.00
1075.537, 38357.00
1076.639, 37456.00
1077.741, 36161.00
1078.843, 34954.00
1079.945, 33835.00
1081.046, 32712.00
1082.148, 31599.00
1083.249, 30609.00
1084.350, 29483.00
1085.451, 28368.00
1086.551, 27637.00
1087.652, 26627.00
1088.752, 25603.00
1089.853, 24987.00
1090.953, 24157.00
1092.053, 23527.00
1093.152, 22833.00
1094.252, 22143.00
1095.351, 21834.00
1096.451, 21367.00
1097.550, 20869.00
1098.649, 20528.00
1099.748, 19968.00
1100.846, 19706.00
1101.945, 19537.00
1103.043, 19142.00
1104.141, 18812.00
1105.239, 18714.00
1106.337, 18597.00
1107.434, 18396.00
1108.532, 18089.00
1109.629, 17975.00
1110.726, 17875.00
1111.823, 17914.00
1112.920, 17834.00
1114.017, 17910.00
1115.113, 17994.00
1116.210, 18081.00
1117.306, 18263.00
1118.402, 18438.47
1119.498, 18614.93
1120.593, 18859.00
1121.689, 19041.00
1122.784, 19194.00
1123.879, 19437.00
1124.974, 19360.00
1126.069, 19538.00
1127.164, 19555.00
1128.259, 19219.00
1129.353, 19127.00
1130.447, 19055.00
1131.541, 18813.00
1132.635, 18590.78
1133.729, 18337.00
1134.822, 17947.00
1135.916, 17572.00
1137.009, 17139.00
1138.102, 16555.00
1139.195, 16225.00
1140.288, 15836.00
1141.380, 15528.00
1142.473, 15168.00
1143.565, 14758.00
1144.657, 14591.00
1145.749, 14326.00
1146.841, 14401.00
1147.932, 14154.00
1149.024, 14141.00
1150.115, 13723.00
1151.206, 13978.00
1152.297, 13725.00
1153.388, 13778.00
1154.479, 13785.00
1155.569, 13747.00
1156.659, 13662.00
1157.750, 13641.00
1158.839, 13670.00
1159.929, 13469.00
1161.019, 13598.00
1162.108, 13451.00
1163.198, 13425.59
1164.287, 13597.00
1165.376, 13424.00
1166.465, 13427.00
1167.553, 13585.00
1168.642, 13519.00
1169.730, 13439.00
1170.818, 13441.00
1171.906, 13344.00
1172.994, 13396.00
1174.082, 13381.00
1175.170, 13349.00
1176.257, 13516.00
1177.344, 13260.00
1178.431, 13345.00
1179.518, 13274.00
1180.605, 13375.00
1181.691, 13296.00
1182.778, 13378.00
1183.864, 13429.00
1184.950, 13332.00
1186.036, 13306.00
1187.122, 13411.00
1188.207, 13225.00
1189.292, 13315.00
1190.378, 13385.00
1191.463, 13208.00
1192.548, 13407.00
1193.632, 13499.00
1194.717, 13348.00
1195.801, 13333.00
1196.886, 13318.00
1197.970, 13489.00
1199.054, 13440.00
1200.137, 13397.00
1201.221, 13458.00
1202.305, 13372.00
1203.388, 13520.00
1204.471, 13453.00
1205.554, 13480.00
1206.637, 13615.00
1207.719, 13614.00
1208.802, 13580.00
1209.884, 13715.00
1210.966, 13905.00
1212.048, 13783.00
1213.130, 13928.00
1214.212, 13908.00
1215.293, 13966.00
1216.374, 14027.00
1217.456, 14110.53
1218.536, 14226.91
1219.617, 14356.00
1220.698, 14450.00
1221.778, 14555.78
1222.859, 14632.00
1223.939, 14748.00
1225.019, 14816.42
1226.099, 14919.00
1227.178, 14971.00
1228.258, 15006.00
1229.337, 15141.00
1230.417, 14972.00
1231.496, 15089.00
1232.574, 15147.00
1233.653, 15243.00
1234.732, 15352.00
1235.810, 15479.00
1236.888, 15378.00
1237.966, 15308.00
1239.044, 15581.00
1240.122, 15302.00
1241.199, 15527.00
1242.277, 15546.00
1243.354, 15437.00
1244.431, 15484.00
1245.508, 15562.00
1246.585, 15749.00
1247.661, 15499.00
1248.738, 15712.00
1249.814, 15342.00
1250.890, 15582.00
1251.966, 15422.00
1253.042, 15535.00
1254.117, 15573.00
1255.193, 15577.00
1256.268, 15512.00
1257.343, 15625.00
1258.418, 15544.00
1259.493, 15533.00
1260.567, 15634.00
1261.642, 15618.00
1262.716, 15704.00
1263.790, 15597.00
1264.864, 15533.00
1265.938, 15758.00
1267.011, 15824.00
1268.085, 15694.00
1269.158, 15607.00
1270.231, 15764.00
1271.304, 15728.00
1272.377, 15630.00
1273.450, 15450.00
1274.522, 15537.00
1275.594, 15547.00
1276.666, 15579.00
1277.738, 15444.00
1278.810, 15503.00
1279.882, 15435.00
1280.953, 15467.00
1282.025, 15541.00
1283.096, 15581.00
1284.167, 15531.00
1285.238, 15594.00
1286.308, 15635.00
1287.379, 15453.00
