##NAMES=Dravite
##RRUFFID=R060280
##IDEAL CHEMISTRY=NaMg_3_Al_6_(Si_6_O_18_)(BO_3_)_3_(OH)_3_OH
##LOCALITY=near Merelani, Tanzania
##OWNER=RRUFF
##SOURCE=Herb Obodda
##DESCRIPTION=Green fragment
##STATUS=The identification of this mineral has been confirmed by X-ray diffraction and chemical analysis
##URL=rruff.info/R060280
##MEASURED CHEMISTRY=(Na_0.45_Ca_0.40_[box]_0.15_)(Mg_0.89_Al_0.07_Ti_0.04_)_3_Al_6_(BO_3_)_3_(Si_0.93_B_0.07_)_6_O_18_((OH)_0.95_O_0.05_)_4_
##PIN_ID=L00930
##ORIENTATION=Laser parallel to c* (0 0 1). Fiducial mark perpendicular to laser is parallel to -b [0 -1 0]
168.4860, 29192.00
169.7110, 29222.00
170.9360, 29412.00
172.1610, 29298.00
173.3850, 29360.00
174.6100, 29282.00
175.8340, 29536.00
177.0580, 29172.00
178.2820, 29331.00
179.5050, 29571.00
180.7290, 29327.00
181.9520, 29634.00
183.1760, 29840.00
184.3990, 29851.00
185.6220, 30234.00
186.8450, 30515.00
188.0670, 30772.00
189.2900, 30983.00
190.5120, 31186.00
191.7340, 31297.00
192.9560, 31595.00
194.1780, 31862.00
195.4000, 32043.00
196.6220, 32642.00
197.8430, 32648.00
199.0640, 33189.00
200.2860, 33318.00
201.5070, 34023.00
202.7270, 34653.00
203.9480, 34427.00
205.1690, 35107.00
206.3890, 35737.00
207.6090, 35991.00
208.8290, 36783.00
210.0490, 37880.00
211.2690, 38450.00
212.4890, 39475.00
213.7080, 39689.00
214.9280, 40109.00
216.1470, 40251.00
217.3660, 40101.00
218.5850, 39464.00
219.8030, 38874.00
221.0220, 38279.00
222.2400, 37642.00
223.4590, 37335.00
224.6770, 36508.00
225.8950, 36472.00
227.1120, 36201.00
228.3300, 35614.00
229.5480, 35997.00
230.7650, 36050.00
231.9820, 36029.00
233.1990, 36316.00
234.4160, 36392.00
235.6330, 36979.00
236.8490, 37097.00
238.0660, 37484.00
239.2820, 37667.00
240.4980, 38047.00
241.7140, 38192.00
242.9300, 37820.00
244.1460, 37621.00
245.3610, 37542.00
246.5770, 36867.00
247.7920, 36365.00
249.0070, 35646.00
250.2220, 35438.00
251.4370, 34718.00
252.6510, 34381.00
253.8660, 33920.00
255.0800, 33891.00
256.2940, 33594.00
257.5080, 33406.00
258.7220, 33448.26
259.9360, 33340.33
261.1490, 33498.00
262.3630, 33377.00
263.5760, 33340.00
264.7890, 33330.00
266.0020, 33768.00
267.2150, 34004.00
268.4270, 34449.00
269.6400, 34779.00
270.8520, 34998.00
272.0640, 35084.00
273.2760, 35283.00
274.4880, 35602.00
275.7000, 35095.00
276.9120, 35460.00
278.1230, 35201.00
279.3340, 34874.00
280.5450, 34910.00
281.7560, 34484.00
282.9670, 34301.00
284.1780, 33985.00
285.3880, 33810.00
286.5980, 33924.00
287.8090, 33822.00
289.0190, 33734.00
290.2290, 33920.00
291.4380, 33757.00
292.6480, 33879.00
293.8570, 33902.00
295.0670, 33863.00
296.2760, 34093.00
297.4850, 34563.00
298.6930, 34274.00
299.9020, 34166.00
301.1110, 34603.00
302.3190, 34324.00
303.5270, 34061.00
304.7350, 34200.00
305.9430, 34031.00
307.1510, 34081.00
308.3580, 33853.00
309.5660, 33918.00
310.7730, 34011.00
311.9800, 34198.00
313.1870, 34285.76
314.3940, 34453.37
315.6010, 34539.00
316.8070, 34802.00
318.0130, 34920.00
319.2200, 35153.00
320.4260, 35838.00
321.6310, 36315.00
322.8370, 36664.00
324.0430, 36985.00
325.2480, 37895.00
326.4540, 38317.00
327.6590, 38939.00
328.8640, 39444.00
330.0680, 40058.35
331.2730, 40815.00
332.4780, 41344.00
333.6820, 42126.00
334.8860, 42807.00
336.0900, 43459.00
337.2940, 43871.00
338.4980, 44036.00
339.7010, 44225.00
340.9050, 44560.00
342.1080, 44410.00
343.3110, 44460.00
344.5140, 43839.00
345.7170, 44075.00
346.9200, 43932.00
348.1220, 43426.00
349.3240, 43680.00
350.5270, 43333.00
351.7290, 43790.00
352.9310, 44248.00
354.1320, 44709.00
355.3340, 45422.00
356.5350, 46309.00
357.7370, 47077.00
358.9380, 48190.00
360.1390, 49102.00
361.3400, 50151.51
362.5400, 52009.00
363.7410, 52533.00
364.9410, 53971.00
366.1410, 55657.00
367.3410, 56561.00
368.5410, 57551.00
369.7410, 58263.00
370.9400, 58623.00
372.1400, 58716.05
373.3390, 58892.00
374.5380, 57962.00
375.7370, 57174.00
376.9360, 56025.00
378.1350, 54161.00
379.3330, 52784.00
380.5310, 51397.00
381.7300, 49808.00
382.9280, 48398.00
384.1260, 47084.00
385.3230, 46012.00
386.5210, 45055.00
387.7180, 44160.16
388.9160, 43740.00
390.1130, 42807.00
391.3100, 42338.00
392.5060, 41996.00
393.7030, 41274.00
394.9000, 41014.00
396.0960, 40816.00
397.2920, 40399.00
398.4880, 40235.35
399.6840, 40094.00
400.8800, 39897.00
402.0750, 39819.00
403.2710, 39878.00
404.4660, 39350.00
405.6610, 39157.00
406.8560, 39376.00
408.0510, 38696.00
409.2450, 38791.00
410.4400, 38471.00
411.6340, 38261.00
412.8280, 37924.00
414.0220, 37834.00
415.2160, 37729.00
416.4100, 37427.00
417.6030, 37246.00
418.7970, 37140.00
419.9900, 37238.00
421.1830, 37140.00
422.3760, 37010.00
423.5690, 37141.00
424.7610, 37075.30
425.9540, 37392.00
427.1460, 37295.00
428.3380, 37658.00
429.5300, 38145.00
430.7220, 37820.00
431.9140, 37921.00
433.1050, 38385.00
434.2970, 38514.00
435.4880, 38592.00
436.6790, 38613.00
437.8700, 38601.00
439.0610, 38959.00
440.2510, 38868.00
441.4420, 38695.00
442.6320, 39222.00
443.8220, 38955.00
445.0120, 38911.00
446.2020, 38702.00
447.3910, 38688.00
448.5810, 38531.00
449.7700, 38426.05
450.9600, 38317.75
452.1490, 38157.00
453.3370, 38026.00
454.5260, 37760.00
455.7150, 37537.00
456.9030, 37764.00
458.0910, 37410.00
459.2800, 37338.00
460.4670, 37411.00
461.6550, 37213.00
462.8430, 37416.00
464.0300, 37276.00
465.2180, 37176.00
466.4050, 37193.00
467.5920, 37426.00
468.7790, 37527.00
469.9650, 37671.00
471.1520, 38008.00
472.3380, 38216.00
473.5250, 38311.00
474.7110, 38394.00
475.8970, 39110.00
477.0820, 38980.00
478.2680, 39342.00
479.4540, 39367.00
480.6390, 39759.00
481.8240, 39879.00
483.0090, 40458.00
484.1940, 40326.00
485.3780, 40782.00
486.5630, 40643.00
487.7470, 40747.00
488.9320, 40849.00
490.1160, 40969.00
491.3000, 40957.00
492.4830, 41150.00
493.6670, 41418.00
494.8500, 41242.00
496.0340, 41593.00
497.2170, 41873.00
498.4000, 41993.00
499.5820, 42074.00
500.7650, 42209.00
501.9480, 42381.00
503.1300, 42420.00
504.3120, 42360.00
505.4940, 42544.00
506.6760, 42256.00
507.8580, 41974.00
509.0390, 41923.00
510.2210, 41613.00
511.4020, 41401.00
512.5830, 41184.58
513.7640, 40633.00
514.9450, 40613.00
516.1250, 40338.00
517.3060, 40300.61
518.4860, 40259.00
519.6660, 40463.00
520.8460, 40666.00
522.0260, 40923.12
523.2060, 41214.87
524.3850, 41511.30
525.5650, 41924.00
526.7440, 42186.00
527.9230, 42672.00
529.1020, 43044.00
530.2810, 44039.00
531.4590, 44231.00
532.6380, 44649.00
533.8160, 44775.00
534.9940, 45244.00
536.1720, 45307.00
537.3500, 45097.00
538.5270, 45071.00
539.7050, 44852.00
540.8820, 44626.00
542.0590, 44354.00
543.2360, 44157.00
544.4130, 43810.00
545.5900, 43514.29
546.7660, 43217.00
547.9430, 42795.00
549.1190, 42544.00
550.2950, 42102.00
551.4710, 41710.00
552.6470, 41835.00
553.8220, 41621.00
554.9980, 41305.00
556.1730, 41404.00
557.3480, 41232.00
558.5230, 40970.00
559.6980, 40942.00
560.8730, 40825.00
562.0470, 40671.26
563.2220, 40723.00
564.3960, 40392.00
565.5700, 40518.00
566.7440, 40335.00
567.9170, 40321.00
569.0910, 40143.00
570.2640, 40080.00
571.4380, 40047.00
572.6110, 39461.00
573.7840, 39136.00
574.9570, 39038.00
576.1290, 38703.00
577.3020, 38451.00
578.4740, 38470.00
579.6460, 37644.00
580.8180, 37852.00
581.9900, 37389.00
583.1620, 37491.00
584.3330, 37411.00
585.5040, 37011.00
586.6760, 36867.00
587.8470, 36741.00
589.0180, 36589.00
590.1880, 36658.00
591.3590, 36442.00
592.5290, 36472.00
593.7000, 36354.00
594.8700, 36319.00
596.0400, 36323.00
597.2090, 36188.00
598.3790, 36492.00
599.5490, 36509.00
600.7180, 36559.00
601.8870, 36541.00
603.0560, 36410.00
604.2250, 36322.00
605.3940, 36281.00
606.5620, 36558.00
607.7300, 36502.00
608.8990, 36665.00
610.0670, 36316.00
611.2350, 36433.00
612.4020, 36416.00
613.5700, 36474.00
614.7370, 36476.00
615.9050, 36512.01
617.0720, 36691.00
618.2390, 36701.00
619.4060, 36756.00
620.5720, 37096.00
621.7390, 36981.00
622.9050, 37707.00
624.0710, 37445.00
625.2370, 37555.00
626.4030, 38115.00
627.5690, 37852.00
628.7340, 37847.00
629.9000, 37974.00
631.0650, 38081.00
632.2300, 37925.00
633.3950, 37693.00
634.5600, 37449.00
635.7240, 37112.00
636.8890, 37169.00
638.0530, 37075.00
639.2170, 37022.00
640.3810, 36685.00
641.5450, 36754.00
642.7080, 36539.00
643.8720, 36559.00
645.0350, 36755.00
646.1980, 36782.00
647.3610, 36566.00
648.5240, 37109.00
649.6870, 36967.00
650.8490, 37238.00
652.0120, 37619.00
653.1740, 37688.00
654.3360, 37787.00
655.4980, 38353.00
656.6600, 38579.00
657.8210, 38703.00
658.9830, 39075.00
660.1440, 39189.00
661.3050, 39343.00
662.4660, 39615.00
663.6270, 39622.00
664.7870, 39904.00
665.9480, 39959.00
667.1080, 39929.00
668.2680, 39650.00
669.4280, 39861.00
670.5880, 39533.00
671.7480, 39573.00
672.9070, 39294.00
674.0670, 39066.00
675.2260, 38832.00
676.3850, 38684.46
677.5440, 39131.00
678.7030, 38528.00
679.8610, 38505.00
681.0200, 38625.00
682.1780, 38245.00
683.3360, 38298.00
684.4940, 38285.00
685.6520, 38393.00
686.8090, 38478.00
687.9670, 38169.00
689.1240, 38638.00
690.2810, 38647.00
691.4380, 38637.00
692.5950, 39219.00
693.7520, 39490.00
694.9080, 39670.00
696.0650, 39957.00
697.2210, 40094.00
698.3770, 40356.00
699.5330, 40611.00
700.6880, 41235.00
701.8440, 41692.00
702.9990, 42040.00
704.1550, 42787.00
705.3100, 43034.00
706.4650, 43755.00
707.6190, 44374.00
708.7740, 45007.00
709.9290, 45660.29
711.0830, 46222.00
712.2370, 47143.00
713.3910, 48326.00
714.5450, 49596.00
715.6980, 50595.00
716.8520, 51873.00
718.0050, 52948.00
719.1580, 54544.00
720.3110, 55704.00
721.4640, 57256.00
722.6170, 58600.00
723.7700, 59504.00
724.9220, 60271.00
726.0740, 60468.00
727.2260, 60367.00
728.3780, 59690.00
729.5300, 59038.00
730.6810, 57512.00
731.8330, 55908.00
732.9840, 54551.00
734.1350, 52915.00
735.2860, 51590.00
736.4370, 50170.00
737.5880, 49256.00
738.7380, 48424.00
739.8880, 47308.00
741.0390, 47213.00
742.1890, 46541.00
743.3380, 46516.00
744.4880, 46468.00
745.6380, 46632.00
746.7870, 46598.00
747.9360, 46704.00
749.0850, 47095.00
750.2340, 47527.00
751.3830, 47777.00
752.5310, 48398.00
753.6800, 48568.00
754.8280, 49319.00
755.9760, 49730.00
757.1240, 49896.00
758.2720, 50179.00
759.4190, 50458.00
760.5670, 50660.00
761.7140, 50808.00
762.8610, 50715.00
764.0080, 50462.00
765.1550, 50345.00
766.3020, 49910.00
767.4480, 49474.00
768.5950, 49398.00
769.7410, 48971.00
770.8870, 48820.00
772.0330, 48543.00
773.1780, 48463.00
774.3240, 48406.00
775.4690, 48116.00
776.6140, 48440.00
777.7590, 48047.00
778.9040, 47898.00
780.0490, 48240.00
781.1940, 47984.00
782.3380, 48069.00
783.4820, 48191.00
784.6260, 48460.00
785.7700, 48419.00
786.9140, 48564.00
788.0580, 48958.00
789.2010, 48889.00
790.3450, 48962.00
791.4880, 49099.00
792.6310, 49328.00
793.7730, 48914.00
794.9160, 49069.00
796.0590, 48957.00
797.2010, 48428.00
798.3430, 48148.00
799.4850, 47926.00
800.6270, 47859.00
801.7690, 48223.00
802.9100, 47841.00
804.0520, 47886.00
805.1930, 48428.00
806.3340, 49189.00
807.4750, 49726.00
808.6160, 50557.00
809.7560, 51424.00
810.8970, 52131.00
812.0370, 52973.00
813.1770, 53959.00
814.3170, 54733.00
815.4570, 55240.00
816.5960, 55821.00
817.7360, 56370.00
818.8750, 56724.00
820.0140, 56972.00
821.1530, 56540.30
822.2920, 56555.00
823.4310, 55096.00
824.5690, 54021.00
825.7070, 52890.00
826.8460, 51733.19
827.9840, 50833.00
829.1220, 49677.00
830.2590, 48724.00
831.3970, 47841.00
832.5340, 46643.00
833.6710, 45848.00
834.8080, 45039.00
835.9450, 44113.00
837.0820, 43364.00
838.2190, 42553.00
839.3550, 41755.00
840.4910, 41277.00
841.6270, 40345.00
842.7630, 39857.00
843.8990, 39047.00
845.0350, 38506.00
846.1700, 37988.00
847.3060, 37503.00
848.4410, 37045.00
849.5760, 36668.41
850.7100, 36359.00
851.8450, 36059.00
852.9800, 35949.00
854.1140, 35823.00
855.2480, 35624.00
856.3820, 35389.00
857.5160, 35386.00
858.6500, 35074.00
859.7830, 35221.00
860.9170, 35075.00
862.0500, 35067.00
863.1830, 34888.00
864.3160, 35013.00
865.4480, 35033.00
866.5810, 34776.00
867.7130, 34679.00
868.8460, 34627.00
869.9780, 34409.00
871.1100, 34482.00
872.2410, 34555.00
873.3730, 34592.00
874.5050, 34468.00
875.6360, 34562.00
876.7670, 34623.00
877.8980, 34422.00
879.0290, 34502.00
880.1590, 34499.81
881.2900, 34507.21
882.4200, 34606.00
883.5500, 34673.00
884.6800, 34786.00
885.8100, 34965.00
886.9400, 34754.00
888.0690, 34928.00
889.1990, 34974.00
890.3280, 35141.00
891.4570, 35218.00
892.5860, 35214.00
893.7140, 35288.00
894.8430, 35359.00
895.9710, 35683.00
897.1000, 35432.00
898.2280, 35700.00
899.3560, 35689.00
900.4830, 35720.00
901.6110, 36060.00
902.7380, 36097.00
903.8660, 35932.00
904.9930, 36271.00
906.1200, 36240.00
907.2460, 36201.00
908.3730, 36388.00
909.5000, 36453.00
910.6260, 36526.00
911.7520, 36632.44
912.8780, 36739.00
914.0040, 36743.00
915.1290, 36780.00
916.2550, 36752.00
917.3800, 36792.00
918.5050, 36978.00
919.6300, 36702.00
920.7550, 36949.00
921.8800, 36954.00
923.0040, 36903.00
924.1290, 37119.00
925.2530, 37046.00
926.3770, 37265.00
927.5010, 37080.00
928.6250, 37359.00
929.7480, 37097.00
930.8720, 37377.00
931.9950, 37477.00
933.1180, 37299.00
934.2410, 37364.00
935.3640, 37427.00
936.4860, 37616.00
937.6090, 37745.00
938.7310, 37785.00
939.8530, 37787.00
940.9750, 37945.00
942.0970, 37832.00
943.2180, 37969.00
944.3400, 38000.00
945.4610, 38164.00
946.5820, 38291.00
947.7030, 38120.00
948.8240, 38371.00
949.9450, 38229.00
951.0650, 38229.00
952.1860, 38435.00
953.3060, 38670.00
954.4260, 38607.00
955.5460, 38831.00
956.6650, 39059.00
957.7850, 39099.06
958.9040, 39145.00
960.0230, 39319.00
961.1420, 39374.00
962.2610, 39462.00
963.3800, 39698.00
964.4990, 39458.00
965.6170, 39842.00
966.7350, 39796.00
967.8530, 39917.00
968.9710, 39978.00
970.0890, 40408.00
971.2070, 40337.00
972.3240, 40560.00
973.4410, 40639.00
974.5580, 40779.00
975.6750, 40842.68
976.7920, 40882.79
977.9090, 40894.00
979.0250, 40872.00
980.1410, 40847.00
981.2580, 40731.00
982.3740, 40921.00
983.4890, 40839.00
984.6050, 40938.00
985.7200, 40719.00
986.8360, 40703.00
987.9510, 40614.00
989.0660, 40495.53
990.1810, 40535.00
991.2950, 40276.00
992.4100, 39984.74
993.5240, 40234.70
994.6390, 40388.18
995.7530, 40450.32
996.8660, 40147.60
997.9800, 40316.01
999.0940, 40295.62
1000.207, 40267.46
1001.320, 40502.15
1002.433, 40252.50
1003.546, 40483.02
1004.659, 40521.86
1005.772, 40648.43
1006.884, 40585.00
1007.996, 40580.26
1009.108, 40765.54
1010.220, 40845.59
1011.332, 40760.30
1012.444, 40892.42
1013.555, 40636.08
1014.666, 41233.00
1015.777, 41468.00
1016.888, 41786.00
1017.999, 42130.00
1019.110, 42512.00
1020.220, 42892.00
1021.331, 43193.00
1022.441, 43475.16
1023.551, 43759.71
1024.661, 43960.00
1025.770, 44209.00
1026.880, 44463.00
1027.989, 44583.00
1029.098, 44963.00
1030.207, 45158.84
1031.316, 45378.00
1032.425, 45701.00
1033.533, 45847.00
1034.642, 46169.00
1035.750, 46455.00
1036.858, 46893.00
1037.966, 47224.00
1039.073, 47650.00
1040.181, 48087.00
1041.288, 48249.00
1042.396, 48628.00
1043.503, 48982.62
1044.610, 49509.00
1045.716, 49704.00
1046.823, 50133.00
1047.929, 50469.00
1049.036, 50556.00
1050.142, 50875.00
1051.248, 50970.00
1052.353, 51312.00
1053.459, 51380.00
1054.564, 51299.00
1055.670, 51702.00
1056.775, 51725.00
1057.880, 51840.00
1058.985, 52493.00
1060.089, 52678.00
1061.194, 53010.00
1062.298, 53578.00
1063.402, 53831.00
1064.506, 54442.00
1065.610, 54471.00
1066.713, 55197.00
1067.817, 55615.00
1068.920, 56021.00
1070.023, 55979.00
1071.126, 55828.00
1072.229, 55614.00
1073.332, 55274.00
1074.435, 55260.00
1075.537, 54792.00
1076.639, 54309.00
1077.741, 53215.00
1078.843, 53111.00
1079.945, 52045.00
1081.046, 51703.00
1082.148, 51168.00
1083.249, 50430.00
1084.350, 50175.00
1085.451, 48771.00
1086.551, 48272.00
1087.652, 47712.00
1088.752, 46984.00
1089.853, 46414.00
1090.953, 45850.00
1092.053, 45117.00
1093.152, 44469.00
1094.252, 43950.00
1095.351, 43794.00
1096.451, 43346.00
1097.550, 42988.00
1098.649, 42537.00
1099.748, 42136.00
1100.846, 41830.23
1101.945, 41549.43
1103.043, 41303.00
1104.141, 41090.00
1105.239, 40989.00
1106.337, 40700.00
1107.434, 40628.00
1108.532, 40315.00
1109.629, 40423.00
1110.726, 40153.00
1111.823, 40152.00
1112.920, 40263.00
1114.017, 39908.00
1115.113, 39906.00
1116.210, 39928.00
1117.306, 39771.00
1118.402, 39607.00
1119.498, 39463.00
1120.593, 39423.20
1121.689, 39313.00
1122.784, 39187.00
1123.879, 39186.00
1124.974, 38645.00
1126.069, 38604.00
1127.164, 38298.00
1128.259, 38157.00
1129.353, 37854.00
1130.447, 37817.00
1131.541, 37764.00
1132.635, 37364.00
1133.729, 37322.00
1134.822, 37188.00
1135.916, 37006.00
1137.009, 36973.00
1138.102, 36862.80
1139.195, 36750.00
1140.288, 36743.00
1141.380, 36658.00
1142.473, 36605.00
1143.565, 36496.00
1144.657, 36574.00
1145.749, 36396.00
1146.841, 36263.00
1147.932, 36216.00
1149.024, 36275.00
1150.115, 36111.00
1151.206, 36294.00
1152.297, 36162.00
1153.388, 36280.00
1154.479, 36382.00
1155.569, 36525.00
1156.659, 36475.72
1157.750, 36203.00
1158.839, 36311.00
1159.929, 36255.00
1161.019, 36071.00
1162.108, 36227.00
1163.198, 36282.00
1164.287, 36161.00
1165.376, 36343.00
1166.465, 36093.00
1167.553, 36248.00
1168.642, 36198.00
1169.730, 36375.00
1170.818, 36263.00
1171.906, 36174.00
1172.994, 36024.00
1174.082, 36487.00
1175.170, 36235.00
1176.257, 36291.00
1177.344, 36501.00
1178.431, 36306.00
1179.518, 36397.00
1180.605, 36233.00
1181.691, 36265.92
1182.778, 36510.96
1183.864, 36659.47
1184.950, 36716.66
1186.036, 36409.02
1187.122, 36572.48
1188.207, 36547.13
1189.292, 36514.03
1190.378, 36743.80
1191.463, 36489.20
1192.548, 36714.78
1193.632, 36748.66
1194.717, 36870.28
1195.801, 36801.92
1196.886, 36792.26
1197.970, 36972.60
1199.054, 37047.72
1200.137, 36957.47
1201.221, 37084.65
1202.305, 36823.39
1203.388, 36902.97
1204.471, 37129.61
1205.554, 37048.92
1206.637, 37179.55
1207.719, 37229.67
1208.802, 36914.04
1209.884, 37234.51
1210.966, 37279.88
1212.048, 37042.77
1213.130, 37341.45
1214.212, 37143.29
1215.293, 37122.44
1216.374, 37235.05
1217.456, 37208.57
1218.536, 37401.38
1219.617, 37382.90
1220.698, 37345.54
1221.778, 37390.55
1222.859, 37202.11
1223.939, 37446.79
1225.019, 37395.60
1226.099, 37505.00
1227.178, 37802.00
1228.258, 37841.00
1229.337, 37654.00
1230.417, 38029.00
1231.496, 37935.00
1232.574, 38205.00
1233.653, 37870.00
1234.732, 38093.00
1235.810, 38132.00
1236.888, 38208.00
1237.966, 38423.00
1239.044, 38263.00
1240.122, 38426.00
1241.199, 38477.00
1242.277, 38757.00
1243.354, 38423.00
1244.431, 38584.00
1245.508, 38349.00
1246.585, 38321.00
1247.661, 38569.00
1248.738, 38542.00
1249.814, 38616.00
1250.890, 38754.00
1251.966, 38621.00
1253.042, 38239.00
1254.117, 38483.00
1255.193, 38627.00
1256.268, 38318.00
1257.343, 38491.00
1258.418, 38482.00
1259.493, 38442.00
1260.567, 38241.00
1261.642, 38442.00
1262.716, 38524.00
1263.790, 38475.00
1264.864, 38827.00
1265.938, 38639.00
1267.011, 38653.00
1268.085, 38722.00
1269.158, 38666.00
1270.231, 38660.00
1271.304, 38676.00
1272.377, 38596.00
1273.450, 38829.00
1274.522, 38588.00
1275.594, 38836.00
1276.666, 38558.00
1277.738, 38552.00
1278.810, 38676.00
1279.882, 38509.00
1280.953, 38477.00
1282.025, 38499.95
1283.096, 38563.00
1284.167, 38491.00
1285.238, 38568.00
1286.308, 38551.00
1287.379, 38590.00
1288.449, 38347.00
1289.519, 38655.00
1290.589, 38500.00
1291.659, 38302.00
1292.729, 38573.00
1293.798, 38510.00
1294.868, 38702.00
1295.937, 38277.00
1297.006, 38618.00
1298.075, 38345.00
1299.143, 38423.00
1300.212, 38409.00
1301.280, 38222.00
1302.348, 38459.00
1303.416, 38575.00
1304.484, 38398.55
1305.552, 38413.00
1306.620, 38213.00
1307.687, 38257.00
1308.754, 38348.00
1309.821, 38307.00
1310.888, 38634.00
1311.955, 38319.00
1313.021, 38541.00
1314.088, 38636.00
1315.154, 38376.00
1316.220, 38557.00
1317.286, 38658.00
1318.352, 38370.00
1319.417, 38517.00
1320.483, 38479.00
1321.548, 38593.00
1322.613, 38243.00
1323.678, 38365.00
1324.743, 38281.00
1325.807, 38276.00
1326.872, 38307.00
1327.936, 37947.00
1329.000, 38253.00
1330.064, 38227.00
1331.128, 37884.00
1332.191, 37955.00
1333.255, 37945.00
1334.318, 38097.00
1335.381, 37875.00
1336.444, 37869.00
