##NAMES=Dravite
##RRUFFID=R050077
##IDEAL CHEMISTRY=NaMg_3_Al_6_(Si_6_O_18_)(BO_3_)_3_(OH)_3_OH
##LOCALITY=Yinnietharra Station, Western Australia, Australia
##OWNER=RRUFF
##SOURCE=Rock Currier
##DESCRIPTION=Dark brown euhedral prismatic single crystal
##STATUS=The identification of this mineral has been confirmed by X-ray diffraction and chemical analysis
##URL=rruff.info/R050077
##MEASURED CHEMISTRY=(Na_0.783_Ca_0.217_)(Mg_0.771_Fe^2+^_0.221_Ti^4+^_0.008_)_3_(Al_0.956_Mg_0.044_)_6_(BO_3_)_3_[Si_6_O_18_]((OH)_0.914_F_0.086_)_4_
##PIN_ID=L01436
##ORIENTATION=Laser parallel to c* (0 0 1). Fiducial mark perpendicular to laser is parallel to a [1 0 0]
118.1340, 46436.00
119.3650, 45857.00
120.5960, 45272.00
121.8270, 45366.00
123.0580, 46106.00
124.2880, 46408.00
125.5190, 47693.00
126.7490, 45268.00
127.9790, 45678.00
129.2090, 46652.00
130.4390, 47418.00
131.6680, 47908.00
132.8980, 48148.00
134.1270, 48511.00
135.3560, 48719.00
136.5850, 49525.00
137.8140, 50560.00
139.0430, 50993.34
140.2710, 51482.39
141.5000, 52058.00
142.7280, 52034.00
143.9560, 51917.00
145.1840, 52169.00
146.4120, 52123.00
147.6390, 52979.00
148.8670, 52540.00
150.0940, 53108.00
151.3210, 52975.17
152.5490, 53451.00
153.7750, 52597.00
155.0020, 52127.00
156.2290, 51757.00
157.4550, 50833.00
158.6810, 50585.00
159.9080, 49993.00
161.1340, 49915.00
162.3590, 49966.00
163.5850, 50041.00
164.8110, 49727.10
166.0360, 50209.00
167.2610, 49313.00
168.4860, 49407.00
169.7110, 49667.00
170.9360, 49337.00
172.1610, 49117.00
173.3850, 48332.00
174.6100, 47968.00
175.8340, 47743.00
177.0580, 47573.00
178.2820, 47531.00
179.5050, 47106.00
180.7290, 47043.00
181.9520, 46672.00
183.1760, 46327.00
184.3990, 46422.00
185.6220, 46104.00
186.8450, 46179.00
188.0670, 45464.00
189.2900, 45088.00
190.5120, 45375.00
191.7340, 45132.00
192.9560, 45263.00
194.1780, 45207.00
195.4000, 45316.00
196.6220, 45085.41
197.8430, 45416.68
199.0640, 45614.39
200.2860, 45685.75
201.5070, 45252.17
202.7270, 45470.56
203.9480, 45427.69
205.1690, 45374.10
206.3890, 45684.26
207.6090, 45324.10
208.8290, 45719.00
210.0490, 46292.00
211.2690, 46015.00
212.4890, 45616.00
213.7080, 45704.00
214.9280, 45143.00
216.1470, 44328.00
217.3660, 43520.00
218.5850, 43116.00
219.8030, 42359.00
221.0220, 41731.00
222.2400, 40965.00
223.4590, 40766.00
224.6770, 40251.00
225.8950, 39637.00
227.1120, 39464.00
228.3300, 38929.00
229.5480, 39314.00
230.7650, 39472.00
231.9820, 38653.00
233.1990, 38468.00
234.4160, 38340.00
235.6330, 38147.00
236.8490, 38038.00
238.0660, 37866.00
239.2820, 37516.00
240.4980, 37210.08
241.7140, 36748.40
242.9300, 36251.00
244.1460, 35765.00
245.3610, 34980.00
246.5770, 34582.00
247.7920, 34113.00
249.0070, 33455.00
250.2220, 33417.00
251.4370, 33091.00
252.6510, 32860.79
253.8660, 33139.82
255.0800, 33285.31
256.2940, 33304.43
257.5080, 32818.63
258.7220, 32984.82
259.9360, 32889.73
261.1490, 32783.94
262.3630, 33041.89
263.5760, 32629.56
264.7890, 32881.77
266.0020, 32868.70
267.2150, 32977.05
268.4270, 32822.51
269.6400, 32549.00
270.8520, 32399.00
272.0640, 32424.00
273.2760, 32162.00
274.4880, 32201.00
275.7000, 32047.00
276.9120, 31892.00
278.1230, 31927.00
279.3340, 31456.00
280.5450, 31445.00
281.7560, 31253.00
282.9670, 30798.00
284.1780, 30541.00
285.3880, 30730.00
286.5980, 30628.00
287.8090, 30368.00
289.0190, 30334.00
290.2290, 30052.00
291.4380, 29803.00
292.6480, 29720.00
293.8570, 29769.00
295.0670, 29735.00
296.2760, 29585.00
297.4850, 29814.00
298.6930, 29741.00
299.9020, 29545.00
301.1110, 29859.00
302.3190, 29567.00
303.5270, 29855.00
304.7350, 29799.00
305.9430, 29683.00
307.1510, 29740.00
308.3580, 29985.00
309.5660, 30389.00
310.7730, 30290.00
311.9800, 30292.00
313.1870, 30800.00
314.3940, 30521.00
315.6010, 30644.00
316.8070, 30952.00
318.0130, 31250.00
319.2200, 31405.00
320.4260, 31644.00
321.6310, 31947.00
322.8370, 32119.00
324.0430, 32532.00
325.2480, 32649.00
326.4540, 33223.00
327.6590, 33298.00
328.8640, 33694.00
330.0680, 34099.00
331.2730, 34229.00
332.4780, 34499.00
333.6820, 34503.00
334.8860, 34979.00
336.0900, 34974.00
337.2940, 35323.00
338.4980, 35148.00
339.7010, 35560.00
340.9050, 35253.00
342.1080, 35502.00
343.3110, 35457.00
344.5140, 35521.00
345.7170, 35680.00
346.9200, 35652.00
348.1220, 35745.00
349.3240, 36016.00
350.5270, 36176.43
351.7290, 36360.00
352.9310, 36708.00
354.1320, 36918.00
355.3340, 37138.00
356.5350, 37665.00
357.7370, 37923.00
358.9380, 38277.00
360.1390, 38496.00
361.3400, 39364.00
362.5400, 40049.00
363.7410, 40755.00
364.9410, 41278.00
366.1410, 42239.00
367.3410, 42766.00
368.5410, 43183.00
369.7410, 43836.00
370.9400, 44113.00
372.1400, 44093.00
373.3390, 43800.00
374.5380, 43616.00
375.7370, 42975.00
376.9360, 42539.00
378.1350, 41876.00
379.3330, 41205.00
380.5310, 40790.00
381.7300, 40355.00
382.9280, 39614.00
384.1260, 39084.00
385.3230, 38836.00
386.5210, 38509.00
387.7180, 38049.00
388.9160, 37616.00
390.1130, 37599.00
391.3100, 37291.00
392.5060, 36918.00
393.7030, 36740.00
394.9000, 36517.00
396.0960, 36254.33
397.2920, 36068.00
398.4880, 35852.00
399.6840, 35686.00
400.8800, 35592.00
402.0750, 35357.00
403.2710, 35106.00
404.4660, 35108.55
405.6610, 34918.82
406.8560, 34815.24
408.0510, 34714.00
409.2450, 34640.00
410.4400, 34501.00
411.6340, 34479.00
412.8280, 34342.00
414.0220, 34100.00
415.2160, 34072.00
416.4100, 33897.00
417.6030, 33690.00
418.7970, 33879.00
419.9900, 33611.00
421.1830, 33569.00
422.3760, 33394.00
423.5690, 33307.00
424.7610, 33244.00
425.9540, 33145.43
427.1460, 32884.00
428.3380, 32990.00
429.5300, 32713.00
430.7220, 32549.00
431.9140, 32509.00
433.1050, 32555.00
434.2970, 32579.00
435.4880, 32479.00
436.6790, 32455.55
437.8700, 32529.00
439.0610, 32321.00
440.2510, 32267.00
441.4420, 32268.00
442.6320, 32424.00
443.8220, 32432.00
445.0120, 32461.00
446.2020, 32484.00
447.3910, 32403.00
448.5810, 32417.00
449.7700, 32302.00
450.9600, 32298.00
452.1490, 32433.00
453.3370, 32308.00
454.5260, 32389.00
455.7150, 32175.00
456.9030, 32575.00
458.0910, 32409.00
459.2800, 32666.00
460.4670, 32835.00
461.6550, 32635.00
462.8430, 32952.00
464.0300, 32830.00
465.2180, 33015.00
466.4050, 33312.00
467.5920, 33248.00
468.7790, 33494.00
469.9650, 33597.00
471.1520, 33644.00
472.3380, 33933.00
473.5250, 34085.00
474.7110, 33880.00
475.8970, 34346.00
477.0820, 34468.00
478.2680, 34419.00
479.4540, 34782.00
480.6390, 34289.00
481.8240, 34784.00
483.0090, 35157.00
484.1940, 34906.00
485.3780, 35066.00
486.5630, 35167.00
487.7470, 35085.00
488.9320, 35417.00
490.1160, 35077.00
491.3000, 35333.00
492.4830, 35106.00
493.6670, 35224.00
494.8500, 35196.00
496.0340, 35394.00
497.2170, 35213.00
498.4000, 35009.00
499.5820, 35198.00
500.7650, 35291.00
501.9480, 35018.00
503.1300, 34770.00
504.3120, 34697.00
505.4940, 34717.00
506.6760, 34685.00
507.8580, 34619.62
509.0390, 34439.00
510.2210, 34479.00
511.4020, 34469.00
512.5830, 34378.00
513.7640, 34520.00
514.9450, 34376.00
516.1250, 34490.00
517.3060, 34547.00
518.4860, 34795.00
519.6660, 34815.00
520.8460, 35265.00
522.0260, 35146.00
523.2060, 35292.00
524.3850, 35787.00
525.5650, 36139.00
526.7440, 36202.00
527.9230, 36501.00
529.1020, 36546.00
530.2810, 36771.80
531.4590, 36776.00
532.6380, 37104.00
533.8160, 37226.00
534.9940, 37235.00
536.1720, 37458.00
537.3500, 37518.00
538.5270, 37676.00
539.7050, 37656.00
540.8820, 37796.52
542.0590, 38033.00
543.2360, 38023.00
544.4130, 37986.00
545.5900, 38122.00
546.7660, 37867.00
547.9430, 38169.00
549.1190, 37872.00
550.2950, 37834.07
551.4710, 38254.00
552.6470, 37942.00
553.8220, 37851.00
554.9980, 37780.07
556.1730, 37537.95
557.3480, 37449.00
558.5230, 37186.00
559.6980, 37174.00
560.8730, 37030.00
562.0470, 36988.00
563.2220, 36970.00
564.3960, 36757.00
565.5700, 36788.00
566.7440, 36673.00
567.9170, 36744.00
569.0910, 36484.00
570.2640, 36459.00
571.4380, 36231.00
572.6110, 36304.00
573.7840, 36234.94
574.9570, 35908.00
576.1290, 36187.00
577.3020, 35901.00
578.4740, 35773.00
579.6460, 35951.00
580.8180, 36023.00
581.9900, 35822.00
583.1620, 35386.00
584.3330, 35420.00
585.5040, 35346.00
586.6760, 35402.00
587.8470, 35236.00
589.0180, 35137.00
590.1880, 35096.00
591.3590, 35152.00
592.5290, 35033.00
593.7000, 35168.00
594.8700, 35013.00
596.0400, 35084.00
597.2090, 34891.00
598.3790, 34755.00
599.5490, 34532.00
600.7180, 34574.00
601.8870, 34382.00
603.0560, 34464.00
604.2250, 34338.00
605.3940, 34494.00
606.5620, 34317.00
607.7300, 34275.00
608.8990, 34326.00
610.0670, 34310.56
611.2350, 34284.00
612.4020, 34457.00
613.5700, 34485.00
614.7370, 34580.00
615.9050, 34623.64
617.0720, 34678.00
618.2390, 34688.00
619.4060, 34729.00
620.5720, 34806.00
621.7390, 34677.00
622.9050, 34878.00
624.0710, 34395.00
625.2370, 34269.00
626.4030, 34237.00
627.5690, 34184.00
628.7340, 33941.00
629.9000, 33852.57
631.0650, 33537.00
632.2300, 33486.00
633.3950, 33296.00
634.5600, 33055.00
635.7240, 32988.00
636.8890, 32788.23
638.0530, 32636.00
639.2170, 32517.00
640.3810, 32450.35
641.5450, 32415.00
642.7080, 32438.00
643.8720, 32483.00
645.0350, 32575.00
646.1980, 32817.00
647.3610, 32647.00
648.5240, 33111.00
649.6870, 33105.00
650.8490, 33677.00
652.0120, 33868.00
653.1740, 34486.00
654.3360, 34395.00
655.4980, 34872.00
656.6600, 35304.00
657.8210, 35854.00
658.9830, 35738.00
660.1440, 35875.00
661.3050, 36121.00
662.4660, 36162.00
663.6270, 35812.00
664.7870, 35349.00
665.9480, 35392.00
667.1080, 35193.00
668.2680, 35186.00
669.4280, 34837.00
670.5880, 34940.00
671.7480, 34900.00
672.9070, 34132.00
674.0670, 34094.00
675.2260, 34133.00
676.3850, 34141.00
677.5440, 33813.00
678.7030, 33773.00
679.8610, 33751.00
681.0200, 34104.00
682.1780, 33832.00
683.3360, 34214.00
684.4940, 34398.00
685.6520, 34359.00
686.8090, 34809.00
687.9670, 35026.00
689.1240, 34814.00
690.2810, 35451.00
691.4380, 35529.00
692.5950, 35711.00
693.7520, 36096.00
694.9080, 36536.00
696.0650, 37128.00
697.2210, 37439.00
698.3770, 38085.00
699.5330, 38244.00
700.6880, 38819.00
701.8440, 39349.00
702.9990, 39759.00
704.1550, 40386.00
705.3100, 40990.00
706.4650, 41646.38
707.6190, 42310.00
708.7740, 43143.00
709.9290, 44013.00
711.0830, 44878.00
712.2370, 46085.00
713.3910, 47186.00
714.5450, 48212.00
715.6980, 49720.00
716.8520, 50857.00
718.0050, 52130.00
719.1580, 53120.00
720.3110, 54534.00
721.4640, 54951.00
722.6170, 55470.00
723.7700, 55528.00
724.9220, 55701.00
726.0740, 55204.00
727.2260, 55058.00
728.3780, 54492.00
729.5300, 54431.00
730.6810, 54027.27
731.8330, 53787.38
732.9840, 53509.00
734.1350, 53501.00
735.2860, 53600.00
736.4370, 53817.00
737.5880, 54097.41
738.7380, 54450.00
739.8880, 54859.00
741.0390, 55348.00
742.1890, 55729.50
743.3380, 56100.00
744.4880, 56296.00
745.6380, 56549.00
746.7870, 56630.00
747.9360, 56890.00
749.0850, 56930.00
750.2340, 57183.00
751.3830, 57095.00
752.5310, 56913.00
753.6800, 57226.00
754.8280, 56762.00
755.9760, 56994.00
757.1240, 57007.00
758.2720, 56823.00
759.4190, 56787.00
760.5670, 56724.00
761.7140, 56525.00
762.8610, 56879.00
764.0080, 56831.00
765.1550, 56453.00
766.3020, 56348.00
767.4480, 56104.00
768.5950, 55849.00
769.7410, 55765.00
770.8870, 55289.00
772.0330, 54662.00
773.1780, 54519.00
774.3240, 53949.00
775.4690, 53563.00
776.6140, 53413.00
777.7590, 53016.00
778.9040, 52375.00
780.0490, 52421.00
781.1940, 51613.00
782.3380, 51683.00
783.4820, 51078.00
784.6260, 50719.00
785.7700, 50196.00
786.9140, 49808.00
788.0580, 49024.00
789.2010, 48139.00
790.3450, 47069.00
791.4880, 45979.00
792.6310, 45020.00
793.7730, 44011.00
794.9160, 43046.00
796.0590, 41841.00
797.2010, 40766.00
798.3430, 39840.00
799.4850, 39429.00
800.6270, 38542.00
801.7690, 38354.00
802.9100, 37966.00
804.0520, 37714.00
805.1930, 37496.36
806.3340, 37398.00
807.4750, 37144.00
808.6160, 36648.00
809.7560, 36603.00
810.8970, 36310.00
812.0370, 35772.00
813.1770, 35607.00
814.3170, 35021.00
815.4570, 34584.00
816.5960, 34279.00
817.7360, 33332.00
818.8750, 33159.00
820.0140, 32328.00
821.1530, 32011.00
822.2920, 31349.00
823.4310, 30736.00
824.5690, 30519.00
825.7070, 30130.00
826.8460, 29493.00
827.9840, 29145.00
829.1220, 28813.00
830.2590, 28580.00
831.3970, 28289.22
832.5340, 27919.00
833.6710, 27811.00
834.8080, 27437.00
835.9450, 27206.00
837.0820, 27087.00
838.2190, 26668.00
839.3550, 26634.00
840.4910, 26799.00
841.6270, 26686.00
842.7630, 26478.00
843.8990, 26396.00
845.0350, 26155.00
846.1700, 26481.00
847.3060, 26177.00
848.4410, 26288.00
849.5760, 26322.00
850.7100, 26362.00
851.8450, 26278.00
852.9800, 26241.00
854.1140, 26172.00
855.2480, 25977.00
856.3820, 25973.00
857.5160, 26332.00
858.6500, 26240.00
859.7830, 26209.00
860.9170, 26341.00
862.0500, 26298.00
863.1830, 26316.00
864.3160, 26491.00
865.4480, 26408.00
866.5810, 26371.00
867.7130, 26346.00
868.8460, 26359.00
869.9780, 26463.00
871.1100, 26409.00
872.2410, 26454.00
873.3730, 26585.00
874.5050, 26785.00
875.6360, 26753.00
876.7670, 26863.00
877.8980, 26839.00
879.0290, 26686.00
880.1590, 26930.00
881.2900, 26694.00
882.4200, 27037.00
883.5500, 27080.00
884.6800, 27086.00
885.8100, 27294.00
886.9400, 27368.00
888.0690, 27386.00
889.1990, 27483.00
890.3280, 27410.00
891.4570, 27613.00
892.5860, 27601.00
893.7140, 27914.00
894.8430, 27946.81
895.9710, 27807.00
897.1000, 28044.00
898.2280, 28170.00
899.3560, 28057.00
900.4830, 28376.00
901.6110, 28263.00
902.7380, 28433.00
903.8660, 28588.00
904.9930, 28355.00
906.1200, 28653.00
907.2460, 28769.00
908.3730, 28848.00
909.5000, 28828.00
910.6260, 29191.00
911.7520, 29084.00
912.8780, 29088.00
914.0040, 29466.00
915.1290, 29463.00
916.2550, 29567.00
917.3800, 29541.00
918.5050, 29635.00
919.6300, 29650.00
920.7550, 29738.00
921.8800, 29758.44
923.0040, 29786.00
924.1290, 29779.00
925.2530, 29782.70
926.3770, 29742.00
927.5010, 29867.00
928.6250, 29909.00
929.7480, 30115.00
930.8720, 30028.00
931.9950, 30254.00
933.1180, 30232.00
934.2410, 30476.00
935.3640, 30491.00
936.4860, 30591.00
937.6090, 30751.00
938.7310, 30754.00
939.8530, 30945.05
940.9750, 31044.88
942.0970, 31226.00
943.2180, 31298.00
944.3400, 31361.00
945.4610, 31470.00
946.5820, 31801.00
947.7030, 31983.00
948.8240, 32272.00
949.9450, 32069.00
951.0650, 32333.00
952.1860, 32906.00
953.3060, 32360.00
954.4260, 32649.00
955.5460, 32893.00
956.6650, 32895.00
957.7850, 32819.00
958.9040, 33330.00
960.0230, 33152.00
961.1420, 33417.00
962.2610, 33459.00
963.3800, 33433.23
964.4990, 33669.13
965.6170, 33536.00
966.7350, 33866.00
967.8530, 34154.00
968.9710, 33995.00
970.0890, 34210.57
971.2070, 34465.00
972.3240, 34241.00
973.4410, 34319.00
974.5580, 34288.00
975.6750, 34275.34
976.7920, 34472.00
977.9090, 34410.00
979.0250, 34676.00
980.1410, 34896.00
981.2580, 34797.00
982.3740, 34955.00
983.4890, 34891.00
984.6050, 35101.00
985.7200, 34760.00
986.8360, 34538.00
987.9510, 34898.00
989.0660, 34801.00
990.1810, 34763.00
991.2950, 34620.00
992.4100, 34810.00
993.5240, 34786.00
994.6390, 34371.00
995.7530, 34594.00
996.8660, 34371.00
997.9800, 34749.00
999.0940, 34323.00
1000.207, 34497.00
1001.320, 34524.00
1002.433, 34354.00
1003.546, 34126.00
1004.659, 34289.00
1005.772, 34476.00
1006.884, 34228.00
1007.996, 34262.00
1009.108, 34114.00
1010.220, 34278.00
1011.332, 34350.00
1012.444, 34143.00
1013.555, 34619.00
1014.666, 34446.00
1015.777, 34627.00
1016.888, 34954.00
1017.999, 34720.00
1019.110, 34895.00
1020.220, 35010.00
1021.331, 35111.00
1022.441, 35206.00
1023.551, 35280.00
1024.661, 35293.00
1025.770, 35415.00
1026.880, 35427.00
1027.989, 35325.00
1029.098, 35768.00
1030.207, 35798.00
1031.316, 36173.00
1032.425, 36085.00
1033.533, 36362.00
1034.642, 36570.00
1035.750, 36454.00
1036.858, 37130.00
1037.966, 36969.00
1039.073, 37042.00
1040.181, 37207.00
1041.288, 37160.00
1042.396, 37372.89
1043.503, 37710.00
1044.610, 37724.00
1045.716, 37916.00
1046.823, 38112.00
1047.929, 38026.00
1049.036, 38019.00
1050.142, 38242.00
1051.248, 37962.00
1052.353, 38044.00
1053.459, 37926.00
1054.564, 38088.00
1055.670, 38216.00
1056.775, 37904.00
1057.880, 37991.00
1058.985, 38134.00
1060.089, 38185.00
1061.194, 38329.00
1062.298, 38411.41
1063.402, 38320.00
1064.506, 38558.00
1065.610, 38422.00
1066.713, 38404.00
1067.817, 37987.00
1068.920, 38277.00
1070.023, 37969.00
1071.126, 37573.00
1072.229, 37659.00
1073.332, 37624.00
1074.435, 37229.00
1075.537, 36986.00
1076.639, 36942.00
1077.741, 36446.00
1078.843, 36124.00
1079.945, 36098.00
1081.046, 35883.00
1082.148, 35815.00
1083.249, 35697.88
1084.350, 35451.00
1085.451, 35446.00
1086.551, 35261.00
1087.652, 35075.00
1088.752, 34957.00
1089.853, 34756.68
1090.953, 34770.68
1092.053, 34599.00
1093.152, 34578.00
1094.252, 34591.32
1095.351, 34355.00
1096.451, 34631.00
1097.550, 34464.00
1098.649, 34421.00
1099.748, 34344.00
1100.846, 34332.00
1101.945, 34227.45
1103.043, 34177.00
1104.141, 34066.00
1105.239, 33950.00
1106.337, 33930.00
1107.434, 33840.00
1108.532, 33759.00
1109.629, 33504.00
1110.726, 33663.00
1111.823, 33497.00
1112.920, 33537.00
1114.017, 33261.00
1115.113, 33248.00
1116.210, 33349.00
1117.306, 33385.00
1118.402, 33311.00
1119.498, 33257.00
1120.593, 33203.00
1121.689, 33105.25
1122.784, 33001.04
1123.879, 32863.00
1124.974, 32726.49
1126.069, 32497.00
1127.164, 32306.00
1128.259, 32177.00
1129.353, 32027.00
1130.447, 31772.11
1131.541, 31479.00
1132.635, 31304.00
1133.729, 31329.00
1134.822, 31221.00
1135.916, 30864.00
1137.009, 30806.00
1138.102, 31004.00
1139.195, 30843.00
1140.288, 30946.00
1141.380, 30811.00
1142.473, 30870.00
1143.565, 30753.00
1144.657, 30876.00
1145.749, 30617.00
1146.841, 30724.00
1147.932, 30727.00
1149.024, 30575.00
1150.115, 30566.00
1151.206, 30758.00
1152.297, 30521.00
1153.388, 30652.00
1154.479, 30706.00
1155.569, 30594.00
1156.659, 30486.00
1157.750, 30531.00
1158.839, 30428.00
1159.929, 30364.00
1161.019, 30503.00
1162.108, 30528.00
1163.198, 30495.00
1164.287, 30320.00
1165.376, 30246.00
1166.465, 30320.83
1167.553, 30572.00
1168.642, 30440.00
1169.730, 30519.00
1170.818, 30419.00
1171.906, 30278.00
1172.994, 30143.00
1174.082, 30186.00
1175.170, 30241.00
1176.257, 30162.00
1177.344, 30426.00
1178.431, 30074.00
1179.518, 30248.00
1180.605, 30046.00
1181.691, 30183.76
1182.778, 30117.57
1183.864, 30404.00
1184.950, 30155.00
1186.036, 29976.00
1187.122, 30272.00
1188.207, 29980.00
1189.292, 29872.00
1190.378, 29946.00
1191.463, 30033.00
1192.548, 30108.00
1193.632, 30116.49
1194.717, 30047.00
1195.801, 30111.00
1196.886, 30037.00
1197.970, 30023.00
1199.054, 30019.00
1200.137, 29924.00
1201.221, 30009.00
1202.305, 29986.00
1203.388, 29816.00
1204.471, 30257.00
1205.554, 30152.00
1206.637, 30270.00
1207.719, 30094.00
1208.802, 29930.00
1209.884, 30353.00
1210.966, 30119.00
1212.048, 30118.00
1213.130, 30364.00
1214.212, 30257.00
1215.293, 30511.00
1216.374, 30435.00
1217.456, 30423.00
1218.536, 30388.00
1219.617, 30416.25
1220.698, 30421.88
1221.778, 30502.00
1222.859, 30516.00
1223.939, 30542.00
1225.019, 30677.00
1226.099, 31025.00
1227.178, 30942.00
1228.258, 30852.00
1229.337, 31187.00
1230.417, 30834.00
1231.496, 31081.00
1232.574, 31300.00
1233.653, 31274.00
1234.732, 31431.00
1235.810, 31070.00
1236.888, 31578.00
1237.966, 31253.00
1239.044, 31397.00
1240.122, 31704.00
1241.199, 31561.62
1242.277, 31719.00
1243.354, 31653.00
1244.431, 31745.00
1245.508, 31828.00
1246.585, 31849.36
1247.661, 31858.00
1248.738, 31921.00
1249.814, 31844.00
1250.890, 31757.00
1251.966, 31890.00
1253.042, 31840.00
1254.117, 31683.00
1255.193, 31877.00
1256.268, 31697.00
1257.343, 31990.00
1258.418, 31915.00
1259.493, 31878.00
1260.567, 31678.00
1261.642, 31904.00
1262.716, 31943.00
1263.790, 31885.00
1264.864, 31930.00
1265.938, 31947.00
1267.011, 31940.37
1268.085, 31931.00
1269.158, 31926.00
1270.231, 31905.00
1271.304, 31818.00
1272.377, 31838.00
1273.450, 31775.00
1274.522, 31812.00
1275.594, 31622.00
1276.666, 31865.00
1277.738, 31622.00
1278.810, 31460.00
1279.882, 31838.00
1280.953, 31671.00
1282.025, 31815.00
1283.096, 31852.00
1284.167, 31946.00
1285.238, 31972.72
1286.308, 31876.00
1287.379, 31946.00
1288.449, 31875.00
1289.519, 31751.00
