##NAMES=Dravite
##RRUFFID=R060534
##IDEAL CHEMISTRY=NaMg_3_Al_6_(Si_6_O_18_)(BO_3_)_3_(OH)_3_OH
##LOCALITY=Sri Lanka
##OWNER=RRUFF
##SOURCE=Gemological Institute of America
##DESCRIPTION=Black trigonal prism
##STATUS=The identification of this mineral has been confirmed by X-ray diffraction and chemical analysis
##URL=rruff.info/R060534
##MEASURED CHEMISTRY=(Na_0.79_Ca_0.21_)(Mg_0.68_Fe^2+^_0.29_Ti_0.02_Al_0.01_)_3_Al_6.00_(BO_3_)_3_(Si_0.95_Al_005_)_6.00_O_18_(OH)_4_
##PIN_ID=L01032
##ORIENTATION=Laser parallel to c* (0 0 1). Fiducial mark perpendicular to laser is parallel to a [1 0 0]
297.4850, 27331.33
298.6930, 27265.00
299.9020, 27282.00
301.1110, 27444.00
302.3190, 27486.00
303.5270, 27491.12
304.7350, 27388.00
305.9430, 27457.00
307.1510, 27551.00
308.3580, 27516.00
309.5660, 27593.00
310.7730, 27661.92
311.9800, 27504.00
313.1870, 27879.00
314.3940, 27942.00
315.6010, 28169.00
316.8070, 28106.00
318.0130, 28301.00
319.2200, 28513.00
320.4260, 28771.00
321.6310, 28979.45
322.8370, 29156.00
324.0430, 29506.00
325.2480, 29704.00
326.4540, 30104.00
327.6590, 29963.00
328.8640, 30214.00
330.0680, 30357.00
331.2730, 30826.00
332.4780, 30952.00
333.6820, 30947.00
334.8860, 31133.00
336.0900, 31115.00
337.2940, 31046.00
338.4980, 31136.00
339.7010, 31214.00
340.9050, 31447.00
342.1080, 31458.00
343.3110, 31289.00
344.5140, 31278.00
345.7170, 31630.00
346.9200, 31329.00
348.1220, 31511.00
349.3240, 31229.00
350.5270, 31604.00
351.7290, 31738.00
352.9310, 31783.00
354.1320, 31808.00
355.3340, 32301.00
356.5350, 32299.00
357.7370, 32601.62
358.9380, 33225.00
360.1390, 33268.00
361.3400, 33844.00
362.5400, 34555.00
363.7410, 34948.00
364.9410, 35323.00
366.1410, 35613.00
367.3410, 36014.00
368.5410, 36046.00
369.7410, 36247.00
370.9400, 36173.00
372.1400, 35980.00
373.3390, 35682.00
374.5380, 35514.00
375.7370, 35161.00
376.9360, 35015.00
378.1350, 34973.00
379.3330, 34512.00
380.5310, 33952.00
381.7300, 33668.00
382.9280, 33470.00
384.1260, 33251.00
385.3230, 33216.00
386.5210, 32718.00
387.7180, 32451.00
388.9160, 32415.00
390.1130, 31850.00
391.3100, 32097.00
392.5060, 31714.00
393.7030, 31652.00
394.9000, 31264.00
396.0960, 31420.00
397.2920, 31273.00
398.4880, 30927.00
399.6840, 30847.00
400.8800, 30706.00
402.0750, 30614.00
403.2710, 30517.82
404.4660, 30354.00
405.6610, 30340.00
406.8560, 30208.00
408.0510, 30132.00
409.2450, 30013.43
410.4400, 29902.00
411.6340, 29741.00
412.8280, 29621.67
414.0220, 29502.58
415.2160, 29374.00
416.4100, 29303.00
417.6030, 29238.00
418.7970, 29207.00
419.9900, 29142.00
421.1830, 28936.00
422.3760, 29047.00
423.5690, 28870.00
424.7610, 28670.00
425.9540, 28623.00
427.1460, 28668.00
428.3380, 28593.00
429.5300, 28331.00
430.7220, 28391.00
431.9140, 28298.00
433.1050, 28529.00
434.2970, 28428.00
435.4880, 28341.00
436.6790, 28338.00
437.8700, 28322.00
439.0610, 28026.81
440.2510, 28217.82
441.4420, 28323.03
442.6320, 28347.07
443.8220, 28046.81
445.0120, 28165.32
446.2020, 28116.01
447.3910, 28059.82
448.5810, 28237.27
449.7700, 28295.00
450.9600, 28315.00
452.1490, 28155.00
453.3370, 28290.00
454.5260, 28169.00
455.7150, 28117.00
456.9030, 28065.00
458.0910, 28405.00
459.2800, 28187.00
460.4670, 28359.00
461.6550, 28441.00
462.8430, 28388.00
464.0300, 28405.00
465.2180, 28426.88
466.4050, 28706.00
467.5920, 28550.00
468.7790, 28744.00
469.9650, 29032.00
471.1520, 28860.00
472.3380, 29051.00
473.5250, 29336.00
474.7110, 29315.00
475.8970, 29478.00
477.0820, 29513.82
478.2680, 29537.00
479.4540, 29593.00
480.6390, 29660.00
481.8240, 29723.55
483.0090, 29817.31
484.1940, 29866.00
485.3780, 30009.00
486.5630, 30050.00
487.7470, 30125.00
488.9320, 30292.00
490.1160, 30250.00
491.3000, 30200.00
492.4830, 30335.00
493.6670, 30161.00
494.8500, 30291.00
496.0340, 30292.00
497.2170, 30320.00
498.4000, 30265.00
499.5820, 30212.00
500.7650, 30383.00
501.9480, 30118.00
503.1300, 29969.00
504.3120, 30074.00
505.4940, 30158.00
506.6760, 29783.00
507.8580, 29920.00
509.0390, 29775.00
510.2210, 29700.27
511.4020, 29691.00
512.5830, 29596.00
513.7640, 29794.00
514.9450, 29689.00
516.1250, 29821.00
517.3060, 29807.00
518.4860, 29760.00
519.6660, 29831.00
520.8460, 29988.00
522.0260, 30217.00
523.2060, 30090.00
524.3850, 30173.00
525.5650, 30266.00
526.7440, 30272.45
527.9230, 30316.00
529.1020, 30530.00
530.2810, 30453.00
531.4590, 30819.00
532.6380, 30820.00
533.8160, 30744.00
534.9940, 30801.00
536.1720, 30923.00
537.3500, 31141.00
538.5270, 30891.00
539.7050, 31241.00
540.8820, 31231.00
542.0590, 31041.00
543.2360, 31146.00
544.4130, 31236.00
545.5900, 30957.00
546.7660, 31249.00
547.9430, 30967.00
549.1190, 31342.00
550.2950, 31085.00
551.4710, 31039.00
552.6470, 31146.00
553.8220, 31148.00
554.9980, 31137.00
556.1730, 31047.00
557.3480, 31036.00
558.5230, 30885.00
559.6980, 30819.63
560.8730, 30717.46
562.0470, 30605.00
563.2220, 30513.00
564.3960, 30365.00
565.5700, 30297.00
566.7440, 30405.00
567.9170, 30288.84
569.0910, 30320.00
570.2640, 30190.00
571.4380, 30085.00
572.6110, 29948.00
573.7840, 29978.00
574.9570, 29594.00
576.1290, 29870.00
577.3020, 29663.00
578.4740, 29450.00
579.6460, 29777.00
580.8180, 29645.00
581.9900, 29592.00
583.1620, 29461.00
584.3330, 29405.25
585.5040, 29469.00
586.6760, 29263.00
587.8470, 29343.00
589.0180, 29230.00
590.1880, 29160.00
591.3590, 29316.00
592.5290, 29606.00
593.7000, 29122.00
594.8700, 28822.00
596.0400, 29062.65
597.2090, 28789.71
598.3790, 28830.83
599.5490, 28740.00
600.7180, 28810.00
601.8870, 28720.00
603.0560, 28631.00
604.2250, 28624.00
605.3940, 28519.67
606.5620, 28529.00
607.7300, 28385.00
608.8990, 28618.00
610.0670, 28612.00
611.2350, 28439.00
612.4020, 28672.00
613.5700, 28512.00
614.7370, 28559.00
615.9050, 28319.00
617.0720, 28304.00
618.2390, 28686.00
619.4060, 28491.00
620.5720, 28589.00
621.7390, 28250.00
622.9050, 28324.00
624.0710, 28073.00
625.2370, 28204.00
626.4030, 27982.00
627.5690, 27997.00
628.7340, 27771.00
629.9000, 27779.00
631.0650, 27637.00
632.2300, 27565.00
633.3950, 27414.00
634.5600, 27370.00
635.7240, 27323.32
636.8890, 27277.61
638.0530, 27278.00
639.2170, 27248.00
640.3810, 27214.00
641.5450, 27182.00
642.7080, 27130.50
643.8720, 27143.88
645.0350, 27091.00
646.1980, 27212.00
647.3610, 27355.00
648.5240, 27492.00
649.6870, 27474.00
650.8490, 27605.00
652.0120, 27638.00
653.1740, 27911.00
654.3360, 28026.00
655.4980, 27994.00
656.6600, 28216.00
657.8210, 28544.00
658.9830, 28603.00
660.1440, 28517.00
661.3050, 28769.00
662.4660, 28689.00
663.6270, 29045.00
664.7870, 28663.00
665.9480, 28603.00
667.1080, 28728.00
668.2680, 28292.00
669.4280, 28441.00
670.5880, 28057.00
671.7480, 27932.00
672.9070, 27894.00
674.0670, 27769.00
675.2260, 27763.00
676.3850, 27596.00
677.5440, 27692.00
678.7030, 27638.00
679.8610, 27421.00
681.0200, 27622.00
682.1780, 27557.00
683.3360, 27683.00
684.4940, 27944.00
685.6520, 27815.00
686.8090, 27939.00
687.9670, 28060.00
689.1240, 28329.00
690.2810, 28343.00
691.4380, 28534.00
692.5950, 28529.00
693.7520, 28844.00
694.9080, 28842.00
696.0650, 29382.00
697.2210, 29347.00
698.3770, 29680.28
699.5330, 29955.00
700.6880, 30197.00
701.8440, 30472.00
702.9990, 30659.00
704.1550, 30955.00
705.3100, 31219.00
706.4650, 31538.00
707.6190, 32300.00
708.7740, 32514.00
709.9290, 33030.00
711.0830, 33411.00
712.2370, 33875.00
713.3910, 34107.00
714.5450, 34473.00
715.6980, 34888.00
716.8520, 35348.00
718.0050, 35643.00
719.1580, 36032.00
720.3110, 36277.00
721.4640, 36066.00
722.6170, 36304.00
723.7700, 36434.00
724.9220, 36303.00
726.0740, 36386.00
727.2260, 36615.00
728.3780, 36314.00
729.5300, 36476.00
730.6810, 36744.00
731.8330, 36863.00
732.9840, 37332.00
734.1350, 37652.00
735.2860, 37919.00
736.4370, 38692.00
737.5880, 38910.00
738.7380, 39155.00
739.8880, 40374.00
741.0390, 40505.00
742.1890, 40844.00
743.3380, 41106.00
744.4880, 41287.46
745.6380, 41616.00
746.7870, 41656.00
747.9360, 41862.00
749.0850, 41969.00
750.2340, 42216.00
751.3830, 42520.00
752.5310, 42343.00
753.6800, 42321.00
754.8280, 42544.00
755.9760, 42831.00
757.1240, 43077.00
758.2720, 43196.00
759.4190, 43685.00
760.5670, 43594.00
761.7140, 43910.00
762.8610, 44070.00
764.0080, 43947.00
765.1550, 43870.00
766.3020, 43959.00
767.4480, 43674.00
768.5950, 43753.00
769.7410, 43776.00
770.8870, 43770.00
772.0330, 44035.00
773.1780, 44094.00
774.3240, 44171.00
775.4690, 44753.00
776.6140, 44884.00
777.7590, 44939.00
778.9040, 44926.00
780.0490, 44418.00
781.1940, 43829.00
782.3380, 43131.00
783.4820, 41936.00
784.6260, 41055.00
785.7700, 39770.00
786.9140, 38500.00
788.0580, 36975.00
789.2010, 36102.00
790.3450, 34845.00
791.4880, 33879.00
792.6310, 32907.00
793.7730, 31819.00
794.9160, 30945.00
796.0590, 30431.00
797.2010, 29835.00
798.3430, 29410.00
799.4850, 28903.00
800.6270, 28877.00
801.7690, 28808.00
802.9100, 28599.00
804.0520, 28536.00
805.1930, 28329.00
806.3340, 28125.00
807.4750, 28196.00
808.6160, 27918.00
809.7560, 27882.00
810.8970, 27531.00
812.0370, 27236.00
813.1770, 27074.00
814.3170, 26763.00
815.4570, 26600.00
816.5960, 26450.00
817.7360, 26095.00
818.8750, 26132.00
820.0140, 25983.00
821.1530, 25748.00
822.2920, 25760.00
823.4310, 25536.00
824.5690, 25464.00
825.7070, 25449.00
826.8460, 25328.82
827.9840, 25324.00
829.1220, 25242.00
830.2590, 25269.00
831.3970, 25280.02
832.5340, 25220.00
833.6710, 24989.43
834.8080, 25173.61
835.9450, 25272.01
837.0820, 25289.23
838.2190, 24982.15
839.3550, 25093.85
840.4910, 25037.72
841.6270, 24974.71
842.7630, 25145.35
843.8990, 24885.45
845.0350, 25052.38
846.1700, 25048.94
847.3060, 25123.47
848.4410, 25029.14
849.5760, 24986.98
850.7100, 25113.74
851.8450, 25146.96
852.9800, 25033.20
854.1140, 25112.70
855.2480, 24846.92
856.3820, 24884.13
857.5160, 25052.08
858.6500, 24946.82
859.7830, 25029.42
860.9170, 25040.47
862.0500, 24726.39
863.1830, 24807.00
864.3160, 24911.00
865.4480, 24775.00
866.5810, 24811.89
867.7130, 24812.09
868.8460, 24847.00
869.9780, 24829.00
871.1100, 24954.00
872.2410, 25003.00
873.3730, 24948.00
874.5050, 24946.00
875.6360, 25130.00
876.7670, 25147.85
877.8980, 25087.22
879.0290, 25299.00
880.1590, 25044.00
881.2900, 24955.00
882.4200, 25231.00
883.5500, 25337.00
884.6800, 25255.00
885.8100, 25420.00
886.9400, 25196.00
888.0690, 25586.00
889.1990, 25442.00
890.3280, 25595.00
891.4570, 25536.00
892.5860, 25437.00
893.7140, 25516.00
894.8430, 25390.00
895.9710, 25776.00
897.1000, 25814.00
898.2280, 25875.00
899.3560, 25934.00
900.4830, 25856.00
901.6110, 25859.00
902.7380, 26125.00
903.8660, 26041.00
904.9930, 26152.00
906.1200, 26165.00
907.2460, 25940.00
908.3730, 26044.00
909.5000, 26246.00
910.6260, 26445.00
911.7520, 26333.00
912.8780, 26157.00
914.0040, 26655.00
915.1290, 26675.00
916.2550, 26488.00
917.3800, 26589.00
918.5050, 26632.00
919.6300, 26745.00
920.7550, 26785.00
921.8800, 26671.00
923.0040, 26844.00
924.1290, 26645.00
925.2530, 26918.00
926.3770, 26940.50
927.5010, 27109.00
928.6250, 27068.00
929.7480, 27343.00
930.8720, 27261.00
931.9950, 27125.00
933.1180, 27585.00
934.2410, 27487.42
935.3640, 27883.00
936.4860, 27598.00
937.6090, 27725.00
938.7310, 27548.08
939.8530, 27737.85
940.9750, 27857.00
942.0970, 28103.00
943.2180, 28174.24
944.3400, 28386.00
945.4610, 28344.00
946.5820, 28456.00
947.7030, 28527.00
948.8240, 28443.00
949.9450, 28646.00
951.0650, 28684.00
952.1860, 28705.00
953.3060, 28715.00
954.4260, 28912.00
955.5460, 28970.00
956.6650, 29069.00
957.7850, 28966.00
958.9040, 29141.00
960.0230, 29080.00
961.1420, 29056.00
962.2610, 29084.00
963.3800, 29028.00
964.4990, 29368.00
965.6170, 29225.00
966.7350, 29421.00
967.8530, 29485.86
968.9710, 29493.00
970.0890, 29548.00
971.2070, 29569.00
972.3240, 29492.00
973.4410, 29428.00
974.5580, 29485.00
975.6750, 29599.00
976.7920, 29727.00
977.9090, 29873.00
979.0250, 29698.00
980.1410, 29731.00
981.2580, 29741.00
982.3740, 29917.00
983.4890, 29943.14
984.6050, 30033.00
985.7200, 30049.00
986.8360, 29970.00
987.9510, 29885.00
989.0660, 29959.00
990.1810, 29947.00
991.2950, 30096.00
992.4100, 30120.00
993.5240, 30270.00
994.6390, 30303.00
995.7530, 30272.00
996.8660, 30126.00
997.9800, 30300.00
999.0940, 29912.00
1000.207, 30044.05
1001.320, 30145.00
1002.433, 30026.00
1003.546, 30226.00
1004.659, 30084.00
1005.772, 30107.77
1006.884, 30194.00
1007.996, 30094.00
1009.108, 30159.00
1010.220, 30210.00
1011.332, 30107.00
1012.444, 30148.00
1013.555, 30109.00
1014.666, 30113.00
1015.777, 30220.00
1016.888, 30430.00
1017.999, 30498.00
1019.110, 30574.55
1020.220, 30723.00
1021.331, 30632.00
1022.441, 30707.00
1023.551, 30684.00
1024.661, 30545.00
1025.770, 30893.00
1026.880, 30961.00
1027.989, 30633.00
1029.098, 30868.00
1030.207, 31278.00
1031.316, 31026.00
1032.425, 31204.00
1033.533, 31038.00
1034.642, 31436.00
1035.750, 31399.00
1036.858, 31689.00
1037.966, 31468.00
1039.073, 31714.00
1040.181, 31996.00
1041.288, 32001.00
1042.396, 31988.00
1043.503, 32145.00
1044.610, 32168.00
1045.716, 32467.00
1046.823, 32555.00
1047.929, 32494.00
1049.036, 32884.00
1050.142, 32980.00
1051.248, 32844.00
1052.353, 32676.00
1053.459, 32926.00
1054.564, 32867.00
1055.670, 32888.00
1056.775, 32776.00
1057.880, 32700.00
1058.985, 32785.25
1060.089, 32789.00
1061.194, 33010.00
1062.298, 32943.00
1063.402, 33185.00
1064.506, 32883.00
1065.610, 32835.00
1066.713, 32613.00
1067.817, 32368.00
1068.920, 32495.00
1070.023, 32259.00
1071.126, 32433.00
1072.229, 32022.00
1073.332, 32168.00
1074.435, 32134.00
1075.537, 31933.00
1076.639, 31513.00
1077.741, 31203.00
1078.843, 31387.00
1079.945, 31117.00
1081.046, 31398.00
1082.148, 30977.00
1083.249, 30484.00
1084.350, 30656.00
1085.451, 30409.00
1086.551, 30376.00
1087.652, 30504.00
1088.752, 30600.00
1089.853, 30399.00
1090.953, 30279.00
1092.053, 30051.00
1093.152, 30230.00
1094.252, 30382.00
1095.351, 30116.00
1096.451, 30069.00
1097.550, 30105.00
1098.649, 30301.00
1099.748, 30104.00
1100.846, 29915.00
1101.945, 30357.00
1103.043, 30193.00
1104.141, 30097.00
1105.239, 30002.00
1106.337, 30026.00
1107.434, 29982.00
1108.532, 29943.87
1109.629, 29926.78
1110.726, 29904.00
1111.823, 29855.00
1112.920, 29883.00
1114.017, 29845.00
1115.113, 29774.00
1116.210, 29872.00
1117.306, 29608.00
1118.402, 29994.00
1119.498, 29503.00
1120.593, 29677.00
1121.689, 29534.00
1122.784, 29466.00
1123.879, 29330.00
1124.974, 29301.90
1126.069, 29279.00
1127.164, 29253.00
1128.259, 29156.00
1129.353, 29120.00
1130.447, 29100.54
1131.541, 29027.52
1132.635, 29051.00
1133.729, 28885.00
1134.822, 28787.00
1135.916, 28626.00
1137.009, 28681.00
1138.102, 28607.00
1139.195, 28572.56
1140.288, 28602.83
1141.380, 28521.00
1142.473, 28573.00
1143.565, 28535.00
1144.657, 28387.00
1145.749, 28518.00
1146.841, 28512.00
1147.932, 28445.00
1149.024, 28361.00
1150.115, 28437.00
1151.206, 28462.00
1152.297, 28232.00
1153.388, 28309.95
1154.479, 28614.00
1155.569, 28162.00
1156.659, 28686.00
1157.750, 28456.00
1158.839, 28188.00
1159.929, 28282.00
1161.019, 28219.00
1162.108, 28258.00
1163.198, 28276.00
1164.287, 28253.00
1165.376, 28261.00
1166.465, 28316.00
1167.553, 28524.00
1168.642, 28548.00
1169.730, 28494.00
1170.818, 28356.00
1171.906, 28279.00
1172.994, 28339.00
1174.082, 28391.00
1175.170, 28307.00
1176.257, 28029.00
1177.344, 28196.00
1178.431, 28109.00
1179.518, 28151.00
1180.605, 28185.47
1181.691, 28254.00
1182.778, 28251.84
1183.864, 28468.00
1184.950, 28291.00
1186.036, 28315.00
1187.122, 28406.00
1188.207, 28134.00
1189.292, 27910.00
1190.378, 28259.00
1191.463, 28081.00
1192.548, 28372.00
1193.632, 28348.35
1194.717, 28375.00
1195.801, 28368.00
1196.886, 28356.00
1197.970, 28434.00
1199.054, 28220.00
1200.137, 28482.00
1201.221, 28381.00
1202.305, 28726.00
1203.388, 28425.00
1204.471, 28139.00
1205.554, 28096.00
1206.637, 28179.00
1207.719, 28127.00
1208.802, 28436.00
1209.884, 28318.00
1210.966, 28466.00
1212.048, 28271.00
1213.130, 28460.00
1214.212, 28166.00
1215.293, 28198.00
1216.374, 28348.00
1217.456, 28401.00
1218.536, 28370.00
1219.617, 28348.00
1220.698, 28287.00
1221.778, 28413.00
1222.859, 28488.00
1223.939, 28687.00
1225.019, 28497.00
1226.099, 28491.53
1227.178, 28708.55
1228.258, 28839.81
1229.337, 28889.88
1230.417, 28615.66
1231.496, 28760.19
1232.574, 28736.88
1233.653, 28706.71
1234.732, 28910.18
1235.810, 28683.10
1236.888, 28882.84
1237.966, 28912.21
1239.044, 29019.55
1240.122, 28958.03
1241.199, 28948.65
1242.277, 29108.21
1243.354, 29174.21
1244.431, 29093.24
1245.508, 29205.52
1246.585, 28972.52
1247.661, 29042.49
1248.738, 29243.20
1249.814, 29170.70
1250.890, 29286.05
1251.966, 29329.85
1253.042, 29048.52
1254.117, 29332.61
1255.193, 29372.19
1256.268, 29160.66
1257.343, 29425.38
1258.418, 29248.46
1259.493, 29229.19
1260.567, 29328.52
1261.642, 29304.20
1262.716, 29474.85
1263.790, 29457.65
1264.864, 29423.68
1265.938, 29462.94
1267.011, 29294.65
1268.085, 29511.40
1269.158, 29465.12
1270.231, 29549.58
1271.304, 29663.67
1272.377, 29550.87
1273.450, 29678.28
1274.522, 29433.15
1275.594, 29499.72
1276.666, 29532.73
1277.738, 29764.96
1278.810, 29521.66
1279.882, 29579.57
1280.953, 29765.71
1282.025, 29772.42
1283.096, 29854.14
1284.167, 29713.73
1285.238, 29782.00
1286.308, 29792.72
1287.379, 30002.22
1288.449, 30054.80
1289.519, 29918.14
1290.589, 29782.29
1291.659, 30006.07
1292.729, 29888.99
1293.798, 29955.78
1294.868, 29832.66
1295.937, 29885.00
1297.006, 30057.00
1298.075, 29840.00
1299.143, 29900.00
1300.212, 29911.00
1301.280, 30049.00
1302.348, 30222.00
1303.416, 30032.00
1304.484, 30293.00
1305.552, 30156.00
1306.620, 30065.00
1307.687, 29848.00
1308.754, 29871.00
1309.821, 30034.00
1310.888, 30050.00
1311.955, 29988.00
1313.021, 29838.00
1314.088, 29895.00
1315.154, 29852.00
1316.220, 29942.00
1317.286, 30248.00
1318.352, 30161.00
1319.417, 30025.00
1320.483, 30266.00
1321.548, 29831.00
1322.613, 29944.00
1323.678, 29872.00
1324.743, 29846.00
1325.807, 29870.00
1326.872, 30113.00
1327.936, 30145.00
1329.000, 30149.00
1330.064, 30110.00
1331.128, 30101.00
1332.191, 30160.00
1333.255, 30165.00
1334.318, 30249.00
1335.381, 30017.00
1336.444, 29905.00
1337.507, 29704.00
1338.569, 29948.00
1339.632, 29844.00
1340.694, 29905.00
1341.756, 30311.00
1342.818, 29955.00
1343.880, 29843.00
1344.941, 30059.00
1346.003, 30082.00
1347.064, 30045.00
1348.125, 29796.00
1349.186, 29933.00
1350.247, 29917.00
1351.308, 29778.00
1352.368, 29794.83
1353.428, 30082.00
1354.489, 29770.00
1355.549, 29862.00
1356.608, 30134.00
1357.668, 30008.00
1358.727, 30150.00
1359.787, 30058.00
1360.846, 29872.00
1361.905, 29855.00
1362.964, 29876.00
1364.022, 29940.00
1365.081, 29875.00
1366.139, 29809.00
1367.197, 29815.00
1368.255, 29957.00
1369.313, 29978.00
1370.371, 30067.00
1371.428, 29867.00
1372.486, 29955.00
1373.543, 30004.00
1374.600, 29626.00
1375.657, 29613.00
1376.713, 29764.00
1377.770, 29964.00
1378.826, 29715.00
1379.882, 30058.00
1380.938, 30063.00
1381.994, 30207.00
1383.050, 30076.00
1384.106, 30274.00
1385.161, 29885.00
1386.216, 30169.00
1387.271, 29625.00
1388.326, 30055.00
1389.381, 29833.00
1390.435, 29797.00
1391.490, 29742.00
1392.544, 29680.00
1393.598, 29677.00
1394.652, 29813.00
1395.705, 29825.93
1396.759, 29794.57
1397.812, 30009.00
1398.866, 29740.00
1399.919, 29825.00
1400.972, 29914.00
1402.024, 29780.00
1403.077, 29705.00
1404.129, 29756.00
1405.181, 29741.00
1406.233, 29647.00
1407.285, 29866.00
1408.337, 29677.00
1409.389, 29830.00
1410.440, 30071.00
1411.491, 29729.00
1412.542, 29830.00
1413.593, 29655.00
1414.644, 29674.00
1415.695, 29863.00
1416.745, 29504.00
1417.795, 29693.00
1418.845, 29600.00
1419.895, 29793.00
1420.945, 29789.98
1421.995, 29817.43
1423.044, 29891.00
1424.093, 29861.00
1425.142, 30037.00
1426.191, 30039.00
1427.240, 29659.00
1428.289, 29762.00
1429.337, 29724.00
1430.385, 29866.00
1431.433, 29763.00
1432.481, 29576.00
1433.529, 29792.00
1434.577, 29915.00
1435.624, 30087.00
1436.672, 30013.00
1437.719, 30185.00
1438.766, 29993.00
1439.812, 29945.00
1440.859, 29877.00
1441.905, 29774.00
1442.952, 29954.00
1443.998, 29725.00
1445.044, 30193.00
1446.090, 29759.00
1447.135, 30011.00
1448.181, 30021.00
