##NAMES=Dravite
##RRUFFID=R050077
##IDEAL CHEMISTRY=NaMg_3_Al_6_(Si_6_O_18_)(BO_3_)_3_(OH)_3_OH
##LOCALITY=Yinnietharra Station, Western Australia, Australia
##OWNER=RRUFF
##SOURCE=Rock Currier
##DESCRIPTION=Dark brown euhedral prismatic single crystal
##STATUS=The identification of this mineral has been confirmed by X-ray diffraction and chemical analysis
##URL=rruff.info/R050077
##MEASURED CHEMISTRY=(Na_0.783_Ca_0.217_)(Mg_0.771_Fe^2+^_0.221_Ti^4+^_0.008_)_3_(Al_0.956_Mg_0.044_)_6_(BO_3_)_3_[Si_6_O_18_]((OH)_0.914_F_0.086_)_4_
##PIN_ID=L01436
##ORIENTATION=Laser parallel to c* (0 0 1). Fiducial mark perpendicular to laser is parallel to a [1 0 0]
118.1340, 46373.00
119.3650, 45596.00
120.5960, 45603.02
121.8270, 44519.00
123.0580, 44916.00
124.2880, 44962.00
125.5190, 44149.00
126.7490, 43868.00
127.9790, 44322.00
129.2090, 45540.00
130.4390, 45826.00
131.6680, 46313.00
132.8980, 46810.00
134.1270, 47214.93
135.3560, 47332.00
136.5850, 48250.00
137.8140, 48716.00
139.0430, 49457.39
140.2710, 49662.79
141.5000, 50430.00
142.7280, 50054.00
143.9560, 50100.00
145.1840, 50597.00
146.4120, 50642.00
147.6390, 50905.00
148.8670, 50487.00
150.0940, 51072.00
151.3210, 51662.00
152.5490, 51437.00
153.7750, 50456.00
155.0020, 50342.00
156.2290, 49868.00
157.4550, 48983.00
158.6810, 48396.00
159.9080, 48195.00
161.1340, 48000.00
162.3590, 48403.00
163.5850, 48512.00
164.8110, 48871.00
166.0360, 48356.00
167.2610, 47746.00
168.4860, 47421.00
169.7110, 47624.00
170.9360, 47436.00
172.1610, 47197.00
173.3850, 46538.00
174.6100, 46166.00
175.8340, 45901.00
177.0580, 45669.00
178.2820, 45456.00
179.5050, 45456.00
180.7290, 45342.00
181.9520, 45168.21
183.1760, 44560.00
184.3990, 44772.00
185.6220, 44505.00
186.8450, 44165.00
188.0670, 44219.00
189.2900, 43828.00
190.5120, 43443.00
191.7340, 43533.00
192.9560, 43535.00
194.1780, 43589.00
195.4000, 43317.11
196.6220, 43612.05
197.8430, 43773.45
199.0640, 43808.46
200.2860, 43338.55
201.5070, 43520.64
202.7270, 43441.45
203.9480, 43351.53
205.1690, 43625.38
206.3890, 43228.93
207.6090, 43497.02
208.8290, 43499.84
210.0490, 43624.06
211.2690, 43485.39
212.4890, 43427.91
213.7080, 43633.43
214.9280, 43693.32
216.1470, 42546.00
217.3660, 42008.00
218.5850, 41494.00
219.8030, 40676.00
221.0220, 40068.00
222.2400, 39560.00
223.4590, 38963.00
224.6770, 38755.00
225.8950, 38077.00
227.1120, 37943.00
228.3300, 37679.00
229.5480, 37138.00
230.7650, 36977.00
231.9820, 36883.00
233.1990, 36858.00
234.4160, 36907.00
235.6330, 36901.00
236.8490, 36616.00
238.0660, 36248.00
239.2820, 35914.00
240.4980, 35587.00
241.7140, 34905.00
242.9300, 34840.00
244.1460, 34451.00
245.3610, 33347.00
246.5770, 32950.00
247.7920, 32570.00
249.0070, 32199.00
250.2220, 32082.00
251.4370, 31777.00
252.6510, 31615.00
253.8660, 31387.00
255.0800, 31247.05
256.2940, 31533.46
257.5080, 31686.31
258.7220, 31712.78
259.9360, 31234.34
261.1490, 31407.90
262.3630, 31320.15
263.5760, 31221.71
264.7890, 31487.04
266.0020, 31082.05
267.2150, 31164.00
268.4270, 31705.00
269.6400, 31226.00
270.8520, 31148.00
272.0640, 31294.00
273.2760, 30920.00
274.4880, 30928.00
275.7000, 30968.00
276.9120, 30564.00
278.1230, 30639.00
279.3340, 30058.00
280.5450, 29811.00
281.7560, 29746.00
282.9670, 29511.00
284.1780, 29523.00
285.3880, 29366.00
286.5980, 29194.00
287.8090, 28903.00
289.0190, 28796.00
290.2290, 28846.00
291.4380, 28592.00
292.6480, 28552.98
293.8570, 28597.00
295.0670, 28392.00
296.2760, 28344.00
297.4850, 28397.00
298.6930, 28528.00
299.9020, 28479.92
301.1110, 28413.00
302.3190, 28514.00
303.5270, 28458.00
304.7350, 28536.00
305.9430, 28444.00
307.1510, 28593.00
308.3580, 28839.00
309.5660, 28839.00
310.7730, 28961.00
311.9800, 28925.00
313.1870, 29287.00
314.3940, 29289.00
315.6010, 29537.00
316.8070, 29602.00
318.0130, 30030.00
319.2200, 30165.00
320.4260, 30308.00
321.6310, 30622.82
322.8370, 30840.00
324.0430, 31085.00
325.2480, 31546.00
326.4540, 31745.00
327.6590, 32061.70
328.8640, 32294.77
330.0680, 32615.00
331.2730, 32768.00
332.4780, 33048.00
333.6820, 33476.00
334.8860, 33400.00
336.0900, 33364.00
337.2940, 33783.00
338.4980, 33683.00
339.7010, 33995.00
340.9050, 33897.00
342.1080, 33806.00
343.3110, 34045.41
344.5140, 34086.00
345.7170, 34292.00
346.9200, 34109.00
348.1220, 34098.29
349.3240, 34369.34
350.5270, 34394.00
351.7290, 34864.00
352.9310, 35129.00
354.1320, 35311.00
355.3340, 35535.00
356.5350, 35946.00
357.7370, 36192.00
358.9380, 36719.00
360.1390, 37166.00
361.3400, 37737.00
362.5400, 38239.00
363.7410, 39197.00
364.9410, 39512.00
366.1410, 40530.00
367.3410, 40961.14
368.5410, 41548.00
369.7410, 41781.00
370.9400, 42168.00
372.1400, 42219.00
373.3390, 42173.00
374.5380, 41624.00
375.7370, 41243.00
376.9360, 40807.00
378.1350, 39941.00
379.3330, 39388.00
380.5310, 38975.00
381.7300, 38432.00
382.9280, 38113.00
384.1260, 37523.00
385.3230, 37169.00
386.5210, 36966.00
387.7180, 36820.00
388.9160, 36450.00
390.1130, 36037.00
391.3100, 35705.00
392.5060, 35186.00
393.7030, 35210.00
394.9000, 34981.00
396.0960, 34456.00
397.2920, 34425.00
398.4880, 34286.00
399.6840, 34256.00
400.8800, 34088.00
402.0750, 33760.00
403.2710, 33560.00
404.4660, 33562.00
405.6610, 33258.00
406.8560, 33243.00
408.0510, 33230.00
409.2450, 33039.00
410.4400, 33019.00
411.6340, 33022.00
412.8280, 32593.00
414.0220, 32677.00
415.2160, 32743.00
416.4100, 32465.00
417.6030, 32280.00
418.7970, 32104.00
419.9900, 32262.00
421.1830, 32008.91
422.3760, 32161.00
423.5690, 31796.00
424.7610, 31647.00
425.9540, 31667.00
427.1460, 31617.00
428.3380, 31441.00
429.5300, 31329.00
430.7220, 31014.00
431.9140, 31012.00
433.1050, 30962.00
434.2970, 31320.00
435.4880, 30984.00
436.6790, 31112.00
437.8700, 30858.00
439.0610, 30704.00
440.2510, 30819.00
441.4420, 30804.00
442.6320, 30751.00
443.8220, 30943.00
445.0120, 30853.00
446.2020, 30695.00
447.3910, 30852.00
448.5810, 30772.00
449.7700, 30802.00
450.9600, 30785.00
452.1490, 30860.00
453.3370, 30852.00
454.5260, 30879.00
455.7150, 30838.00
456.9030, 30978.00
458.0910, 31141.00
459.2800, 31149.00
460.4670, 31399.00
461.6550, 31413.00
462.8430, 31163.00
464.0300, 31347.00
465.2180, 31494.00
466.4050, 31534.00
467.5920, 31711.00
468.7790, 31912.00
469.9650, 32047.85
471.1520, 32352.00
472.3380, 32474.00
473.5250, 32441.00
474.7110, 32755.00
475.8970, 32948.00
477.0820, 32706.00
478.2680, 32878.00
479.4540, 33037.00
480.6390, 33320.00
481.8240, 33168.00
483.0090, 33367.00
484.1940, 33388.00
485.3780, 33533.00
486.5630, 33452.00
487.7470, 33398.00
488.9320, 33632.00
490.1160, 33553.00
491.3000, 33339.00
492.4830, 33579.00
493.6670, 33701.00
494.8500, 33317.00
496.0340, 33542.74
497.2170, 33501.56
498.4000, 33612.00
499.5820, 33456.00
500.7650, 33572.00
501.9480, 33203.00
503.1300, 33075.00
504.3120, 33401.00
505.4940, 32938.00
506.6760, 33071.00
507.8580, 32872.00
509.0390, 32567.00
510.2210, 32762.00
511.4020, 32667.00
512.5830, 32611.00
513.7640, 32665.00
514.9450, 32565.00
516.1250, 32810.00
517.3060, 32892.00
518.4860, 33197.00
519.6660, 33130.00
520.8460, 33260.00
522.0260, 33529.00
523.2060, 33626.00
524.3850, 33903.00
525.5650, 34018.00
526.7440, 34458.00
527.9230, 34593.00
529.1020, 35039.00
530.2810, 34867.00
531.4590, 35282.00
532.6380, 35431.00
533.8160, 35287.00
534.9940, 35487.00
536.1720, 35465.00
537.3500, 35538.94
538.5270, 35867.00
539.7050, 35668.00
540.8820, 35764.00
542.0590, 35717.73
543.2360, 35929.00
544.4130, 35776.00
545.5900, 36141.00
546.7660, 36249.00
547.9430, 36309.00
549.1190, 36061.00
550.2950, 35831.00
551.4710, 35825.00
552.6470, 35788.00
553.8220, 35855.00
554.9980, 35619.00
556.1730, 35422.00
557.3480, 35327.00
558.5230, 35256.00
559.6980, 34934.00
560.8730, 34883.00
562.0470, 34853.00
563.2220, 34862.00
564.3960, 34763.72
565.5700, 34630.00
566.7440, 34579.00
567.9170, 34634.00
569.0910, 34524.00
570.2640, 34524.00
571.4380, 34588.00
572.6110, 34248.00
573.7840, 34294.00
574.9570, 34280.00
576.1290, 34290.00
577.3020, 34188.00
578.4740, 34497.00
579.6460, 34917.00
580.8180, 33880.00
581.9900, 34065.00
583.1620, 34876.00
584.3330, 34210.00
585.5040, 33627.00
586.6760, 33786.00
587.8470, 34186.00
589.0180, 34293.00
590.1880, 34392.00
591.3590, 33823.00
592.5290, 33767.00
593.7000, 33345.00
594.8700, 33397.00
596.0400, 33153.00
597.2090, 33306.00
598.3790, 33125.00
599.5490, 33242.00
600.7180, 33013.00
601.8870, 33315.00
603.0560, 32961.00
604.2250, 33061.00
605.3940, 32837.00
606.5620, 33146.00
607.7300, 32892.00
608.8990, 32946.00
610.0670, 33368.00
611.2350, 33116.00
612.4020, 32958.00
613.5700, 33088.00
614.7370, 33206.00
615.9050, 33284.00
617.0720, 33317.00
618.2390, 33321.12
619.4060, 33453.00
620.5720, 33214.00
621.7390, 33205.00
622.9050, 33075.00
624.0710, 33151.00
625.2370, 33026.86
626.4030, 32843.00
627.5690, 32849.00
628.7340, 32609.00
629.9000, 32501.00
631.0650, 32441.00
632.2300, 32310.00
633.3950, 31858.00
634.5600, 31995.00
635.7240, 31636.00
636.8890, 31243.00
638.0530, 31315.00
639.2170, 31222.00
640.3810, 31113.00
641.5450, 31056.00
642.7080, 31019.00
643.8720, 30976.72
645.0350, 31323.00
646.1980, 31098.00
647.3610, 31492.00
648.5240, 31914.00
649.6870, 31944.00
650.8490, 32134.00
652.0120, 32521.00
653.1740, 33045.00
654.3360, 33316.25
655.4980, 33730.05
656.6600, 33832.00
657.8210, 34431.00
658.9830, 34215.00
660.1440, 34511.00
661.3050, 34266.00
662.4660, 34692.00
663.6270, 34345.00
664.7870, 33996.00
665.9480, 34035.00
667.1080, 33781.00
668.2680, 33530.00
669.4280, 33348.00
670.5880, 33019.00
671.7480, 33037.00
672.9070, 32693.00
674.0670, 32818.00
675.2260, 32502.00
676.3850, 32391.00
677.5440, 32420.00
678.7030, 32430.00
679.8610, 32478.58
681.0200, 32606.16
682.1780, 32732.00
683.3360, 32836.00
684.4940, 33118.00
685.6520, 33092.00
686.8090, 33333.22
687.9670, 33492.00
689.1240, 33794.00
690.2810, 34010.00
691.4380, 34453.00
692.5950, 34610.00
693.7520, 35132.00
694.9080, 35148.00
696.0650, 35524.00
697.2210, 35632.00
698.3770, 36401.00
699.5330, 36595.00
700.6880, 37411.00
701.8440, 37820.73
702.9990, 38351.00
704.1550, 38782.00
705.3100, 39336.00
706.4650, 39845.00
707.6190, 40862.00
708.7740, 41176.00
709.9290, 42362.00
711.0830, 43437.00
712.2370, 44348.00
713.3910, 45234.00
714.5450, 46499.00
715.6980, 47773.00
716.8520, 48917.00
718.0050, 50079.00
719.1580, 51142.00
720.3110, 51992.00
721.4640, 52947.00
722.6170, 53204.00
723.7700, 53479.00
724.9220, 53419.00
726.0740, 53124.00
727.2260, 52899.00
728.3780, 52474.00
729.5300, 52273.00
730.6810, 52204.00
731.8330, 51625.00
732.9840, 51518.00
734.1350, 51807.00
735.2860, 51641.00
736.4370, 51773.00
737.5880, 52090.00
738.7380, 52165.00
739.8880, 52597.00
741.0390, 53161.00
742.1890, 53519.00
743.3380, 53870.00
744.4880, 54434.00
745.6380, 54569.00
746.7870, 54754.00
747.9360, 55013.20
749.0850, 55057.00
750.2340, 55239.00
751.3830, 55033.00
752.5310, 54955.00
753.6800, 55162.00
754.8280, 54938.00
755.9760, 55371.00
757.1240, 55068.00
758.2720, 55998.00
759.4190, 58147.00
760.5670, 56149.00
761.7140, 56939.00
762.8610, 55501.00
764.0080, 54705.00
765.1550, 54270.00
766.3020, 54338.00
767.4480, 54424.00
768.5950, 53715.00
769.7410, 53754.00
770.8870, 53357.00
772.0330, 53022.00
773.1780, 52514.00
774.3240, 51880.00
775.4690, 51551.00
776.6140, 51150.81
777.7590, 50821.00
778.9040, 50511.00
780.0490, 50121.00
781.1940, 49707.00
782.3380, 49391.00
783.4820, 49141.00
784.6260, 48650.00
785.7700, 48333.00
786.9140, 47704.84
788.0580, 46931.00
789.2010, 46272.00
790.3450, 45325.00
791.4880, 44349.00
792.6310, 43518.00
793.7730, 42199.00
794.9160, 41180.00
796.0590, 40209.00
797.2010, 39075.00
798.3430, 38672.00
799.4850, 37608.00
800.6270, 37192.00
801.7690, 36420.00
802.9100, 36179.00
804.0520, 35951.00
805.1930, 35903.00
806.3340, 35605.00
807.4750, 35569.00
808.6160, 35404.00
809.7560, 35118.00
810.8970, 34924.00
812.0370, 34645.00
813.1770, 34253.00
814.3170, 33918.00
815.4570, 33343.00
816.5960, 32858.00
817.7360, 32299.47
818.8750, 31691.65
820.0140, 31102.00
821.1530, 30510.00
822.2920, 29931.00
823.4310, 29471.00
824.5690, 29008.00
825.7070, 28631.16
826.8460, 28318.00
827.9840, 28022.00
829.1220, 27699.00
830.2590, 27494.00
831.3970, 27264.00
832.5340, 26692.00
833.6710, 26538.00
834.8080, 26542.00
835.9450, 26094.00
837.0820, 26120.00
838.2190, 26132.00
839.3550, 25548.00
840.4910, 25474.00
841.6270, 25504.00
842.7630, 25389.00
843.8990, 25344.76
845.0350, 25365.00
846.1700, 25246.00
847.3060, 25101.00
848.4410, 25145.00
849.5760, 25152.00
850.7100, 25287.00
851.8450, 25153.00
852.9800, 25175.00
854.1140, 25193.00
855.2480, 25046.00
856.3820, 25200.00
857.5160, 25236.00
858.6500, 25342.00
859.7830, 25163.00
860.9170, 25236.00
862.0500, 25267.00
863.1830, 25082.00
864.3160, 25265.00
865.4480, 25119.00
866.5810, 25282.00
867.7130, 25403.00
868.8460, 25434.00
869.9780, 25536.00
871.1100, 25489.00
872.2410, 25349.00
873.3730, 25401.00
874.5050, 25403.88
875.6360, 25468.50
876.7670, 25585.00
877.8980, 25634.00
879.0290, 25642.12
880.1590, 25988.82
881.2900, 26202.00
882.4200, 26288.76
883.5500, 25870.61
884.6800, 26104.45
885.8100, 26077.00
886.9400, 26038.84
888.0690, 26364.41
889.1990, 26019.70
890.3280, 26339.50
891.4570, 26394.02
892.5860, 26427.00
893.7140, 26556.00
894.8430, 26516.00
895.9710, 26636.00
897.1000, 26829.00
898.2280, 26708.00
899.3560, 26790.00
900.4830, 27142.00
901.6110, 27155.00
902.7380, 27302.00
903.8660, 27414.00
904.9930, 27644.00
906.1200, 27626.00
907.2460, 27464.00
908.3730, 27850.00
909.5000, 27746.00
910.6260, 27841.00
911.7520, 27908.00
912.8780, 28005.00
914.0040, 28063.00
915.1290, 28066.00
916.2550, 28279.00
917.3800, 28394.00
918.5050, 28269.00
919.6300, 28494.00
920.7550, 28369.00
921.8800, 28390.00
923.0040, 28500.00
924.1290, 28600.00
925.2530, 28611.00
926.3770, 28712.46
927.5010, 28714.00
928.6250, 28865.00
929.7480, 28849.00
930.8720, 28965.00
931.9950, 29235.00
933.1180, 29055.00
934.2410, 29301.00
935.3640, 29213.00
936.4860, 29400.00
937.6090, 29477.00
938.7310, 29679.00
939.8530, 29741.00
940.9750, 29704.00
942.0970, 29942.00
943.2180, 29984.00
944.3400, 30086.00
945.4610, 30512.00
946.5820, 30480.00
947.7030, 30845.00
948.8240, 30665.00
949.9450, 30968.00
951.0650, 31158.00
952.1860, 31194.00
953.3060, 31346.00
954.4260, 31409.00
955.5460, 31529.82
956.6650, 31661.00
957.7850, 31714.00
958.9040, 31821.00
960.0230, 31781.00
961.1420, 31875.00
962.2610, 32019.57
963.3800, 32182.00
964.4990, 32371.00
965.6170, 32485.13
966.7350, 32560.00
967.8530, 32722.00
968.9710, 32747.00
970.0890, 32834.00
971.2070, 32779.00
972.3240, 33015.00
973.4410, 33062.00
974.5580, 32991.00
975.6750, 33245.17
976.7920, 33110.00
977.9090, 33552.00
979.0250, 33342.00
980.1410, 33376.00
981.2580, 33363.00
982.3740, 33396.00
983.4890, 33425.87
984.6050, 33386.11
985.7200, 33473.00
986.8360, 33386.00
987.9510, 33343.00
989.0660, 33335.04
990.1810, 33386.00
991.2950, 33257.00
992.4100, 33199.00
993.5240, 33161.00
994.6390, 33273.00
995.7530, 33359.00
996.8660, 33162.00
997.9800, 33271.00
999.0940, 33084.00
1000.207, 32987.00
1001.320, 33043.00
1002.433, 33069.00
1003.546, 32959.00
1004.659, 32897.00
1005.772, 32863.00
1006.884, 32901.00
1007.996, 32900.19
1009.108, 32909.18
1010.220, 33001.00
1011.332, 32950.00
1012.444, 33040.00
1013.555, 33090.00
1014.666, 33045.00
1015.777, 33189.00
1016.888, 33364.00
1017.999, 33272.00
1019.110, 33568.00
1020.220, 33530.46
1021.331, 34000.00
1022.441, 33763.00
1023.551, 33696.00
1024.661, 34200.00
1025.770, 33801.00
1026.880, 34260.00
1027.989, 34153.00
1029.098, 34104.00
1030.207, 34353.00
1031.316, 34604.00
1032.425, 34819.00
1033.533, 34780.00
1034.642, 35003.00
1035.750, 35064.00
1036.858, 35398.00
1037.966, 35398.00
1039.073, 35637.00
1040.181, 35650.00
1041.288, 35915.00
1042.396, 35964.00
1043.503, 36098.00
1044.610, 36302.00
1045.716, 36391.00
1046.823, 36520.00
1047.929, 36455.00
1049.036, 36425.00
1050.142, 36722.00
1051.248, 36506.00
1052.353, 36775.00
1053.459, 36740.00
1054.564, 36421.00
1055.670, 36763.00
1056.775, 36471.00
1057.880, 36566.00
1058.985, 36779.00
1060.089, 36492.00
1061.194, 36612.00
1062.298, 36762.00
1063.402, 36729.00
1064.506, 36775.00
1065.610, 37309.00
1066.713, 37042.00
1067.817, 36792.00
1068.920, 37241.00
1070.023, 36562.00
1071.126, 36469.00
1072.229, 36233.00
1073.332, 35875.00
1074.435, 35985.00
1075.537, 35667.00
1076.639, 35407.00
1077.741, 35063.00
1078.843, 34911.00
1079.945, 34408.00
1081.046, 34570.00
1082.148, 34519.00
1083.249, 34110.00
1084.350, 33886.00
1085.451, 33989.00
1086.551, 33796.00
1087.652, 33743.00
1088.752, 33693.00
1089.853, 33464.00
1090.953, 33441.00
1092.053, 33178.00
1093.152, 33342.00
1094.252, 33379.00
1095.351, 33346.00
1096.451, 33282.00
1097.550, 33024.00
1098.649, 32975.00
1099.748, 33169.00
1100.846, 32889.00
1101.945, 33156.00
1103.043, 33007.00
1104.141, 32816.00
1105.239, 32734.00
1106.337, 32511.00
1107.434, 32289.00
1108.532, 32653.00
1109.629, 32085.00
1110.726, 32315.00
1111.823, 32181.00
1112.920, 32156.00
1114.017, 31916.00
1115.113, 32224.00
1116.210, 32097.00
1117.306, 32223.00
1118.402, 32167.00
1119.498, 32166.00
1120.593, 32052.00
1121.689, 31950.00
1122.784, 32047.00
1123.879, 31608.00
1124.974, 31741.00
1126.069, 31501.00
1127.164, 31370.00
1128.259, 30991.00
1129.353, 30573.00
1130.447, 30536.00
1131.541, 30015.00
1132.635, 30093.00
1133.729, 29972.97
1134.822, 29960.00
1135.916, 29944.00
1137.009, 29938.00
1138.102, 29900.00
1139.195, 29767.00
1140.288, 29760.00
1141.380, 29723.00
1142.473, 29502.00
1143.565, 29563.00
1144.657, 29474.12
1145.749, 29497.00
1146.841, 29436.00
1147.932, 29545.33
1149.024, 29581.00
1150.115, 29711.00
1151.206, 29495.00
1152.297, 29549.00
1153.388, 29423.00
1154.479, 29137.00
1155.569, 29284.00
1156.659, 29530.00
1157.750, 29381.00
1158.839, 29223.00
1159.929, 29273.00
1161.019, 28999.32
1162.108, 29598.00
1163.198, 29107.00
1164.287, 29268.00
1165.376, 29304.21
1166.465, 29168.36
1167.553, 29229.00
1168.642, 29261.00
1169.730, 29148.00
1170.818, 29393.00
1171.906, 29225.00
1172.994, 29160.00
1174.082, 29074.00
1175.170, 28934.00
1176.257, 29011.00
1177.344, 28930.08
1178.431, 29043.00
1179.518, 28895.00
1180.605, 28915.00
1181.691, 28872.65
1182.778, 28837.00
1183.864, 28953.00
1184.950, 28965.00
1186.036, 28943.00
1187.122, 29049.00
1188.207, 28769.00
1189.292, 29024.00
1190.378, 28755.00
1191.463, 28755.00
1192.548, 28802.00
1193.632, 28918.00
1194.717, 29066.00
1195.801, 28673.00
1196.886, 28788.00
1197.970, 28792.00
1199.054, 28935.00
1200.137, 28868.00
1201.221, 28866.00
1202.305, 28700.00
1203.388, 28849.00
1204.471, 28715.00
1205.554, 28886.00
1206.637, 28899.00
1207.719, 28965.00
1208.802, 28917.00
1209.884, 28955.00
1210.966, 28868.00
1212.048, 28968.00
1213.130, 29170.00
1214.212, 29011.00
1215.293, 29153.00
1216.374, 29210.00
1217.456, 29199.00
1218.536, 29348.00
1219.617, 29462.00
1220.698, 29301.00
1221.778, 29228.00
1222.859, 29401.00
1223.939, 29367.00
1225.019, 29591.00
1226.099, 29495.00
1227.178, 29604.00
1228.258, 29782.00
1229.337, 29602.00
1230.417, 29683.00
1231.496, 29818.00
1232.574, 29949.00
1233.653, 30233.00
1234.732, 29994.00
1235.810, 29892.00
1236.888, 30244.00
1237.966, 30328.00
1239.044, 30263.00
1240.122, 30373.00
1241.199, 30257.00
1242.277, 30167.00
1243.354, 30474.00
1244.431, 30629.00
1245.508, 30617.00
1246.585, 30459.00
1247.661, 30622.00
1248.738, 30523.00
1249.814, 30529.00
1250.890, 30687.00
1251.966, 30464.00
1253.042, 30593.00
1254.117, 30443.00
1255.193, 30454.00
1256.268, 30643.00
1257.343, 30371.00
1258.418, 30920.00
1259.493, 30588.00
1260.567, 30923.00
1261.642, 30507.00
1262.716, 30752.00
1263.790, 30906.00
1264.864, 30887.00
1265.938, 30607.00
1267.011, 30868.00
1268.085, 30558.00
1269.158, 30676.00
1270.231, 30634.00
1271.304, 30889.00
1272.377, 30742.00
1273.450, 30583.00
1274.522, 30462.00
1275.594, 30435.00
1276.666, 30645.00
1277.738, 30369.00
1278.810, 30313.00
1279.882, 30611.00
1280.953, 30489.00
1282.025, 30521.00
1283.096, 30542.00
1284.167, 30456.00
1285.238, 30543.00
1286.308, 30765.00
1287.379, 30818.00
1288.449, 30854.00
1289.519, 30640.00
