##NAMES=Dravite
##RRUFFID=R060280
##IDEAL CHEMISTRY=NaMg_3_Al_6_(Si_6_O_18_)(BO_3_)_3_(OH)_3_OH
##LOCALITY=near Merelani, Tanzania
##OWNER=RRUFF
##SOURCE=Herb Obodda
##DESCRIPTION=Green fragment
##STATUS=The identification of this mineral has been confirmed by X-ray diffraction and chemical analysis
##URL=rruff.info/R060280
##MEASURED CHEMISTRY=(Na_0.45_Ca_0.40_[box]_0.15_)(Mg_0.89_Al_0.07_Ti_0.04_)_3_Al_6_(BO_3_)_3_(Si_0.93_B_0.07_)_6_O_18_((OH)_0.95_O_0.05_)_4_
##PIN_ID=L00930
##ORIENTATION=Laser parallel to c* (0 0 1). Fiducial mark perpendicular to laser is parallel to -b [0 -1 0]
168.4860, 24231.00
169.7110, 24449.00
170.9360, 24594.00
172.1610, 24627.00
173.3850, 24714.00
174.6100, 24563.00
175.8340, 24839.00
177.0580, 24685.00
178.2820, 24852.00
179.5050, 24776.00
180.7290, 24981.00
181.9520, 25038.00
183.1760, 25305.00
184.3990, 25434.00
185.6220, 25653.00
186.8450, 26068.00
188.0670, 26423.00
189.2900, 26711.00
190.5120, 26856.00
191.7340, 27272.00
192.9560, 27455.00
194.1780, 27848.00
195.4000, 27864.00
196.6220, 28167.00
197.8430, 28418.00
199.0640, 28728.00
200.2860, 29114.00
201.5070, 29430.69
202.7270, 30049.00
203.9480, 30294.00
205.1690, 30699.00
206.3890, 31418.00
207.6090, 31919.00
208.8290, 33009.00
210.0490, 33585.00
211.2690, 34649.00
212.4890, 35636.00
213.7080, 36083.00
214.9280, 36830.00
216.1470, 37371.00
217.3660, 37271.00
218.5850, 36930.00
219.8030, 36269.00
221.0220, 35411.00
222.2400, 34236.00
223.4590, 33757.00
224.6770, 33158.00
225.8950, 32661.00
227.1120, 32399.00
228.3300, 32219.00
229.5480, 32122.00
230.7650, 31899.00
231.9820, 32271.00
233.1990, 32762.00
234.4160, 32784.00
235.6330, 33150.00
236.8490, 33703.00
238.0660, 33614.00
239.2820, 34046.00
240.4980, 34310.00
241.7140, 34361.00
242.9300, 34374.00
244.1460, 34093.00
245.3610, 33755.00
246.5770, 33298.00
247.7920, 32760.00
249.0070, 32092.00
250.2220, 31690.00
251.4370, 30874.00
252.6510, 30391.00
253.8660, 30050.00
255.0800, 29443.00
256.2940, 28992.00
257.5080, 29450.00
258.7220, 29745.00
259.9360, 29634.00
261.1490, 28826.00
262.3630, 28771.00
263.5760, 29159.00
264.7890, 29185.00
266.0020, 29312.00
267.2150, 29657.00
268.4270, 29729.00
269.6400, 30126.00
270.8520, 30586.00
272.0640, 30676.00
273.2760, 30796.00
274.4880, 31286.00
275.7000, 31066.00
276.9120, 31118.00
278.1230, 31006.00
279.3340, 30830.00
280.5450, 30434.00
281.7560, 30127.00
282.9670, 29982.00
284.1780, 29633.00
285.3880, 29415.00
286.5980, 29357.00
287.8090, 29210.00
289.0190, 29105.00
290.2290, 29087.00
291.4380, 28949.00
292.6480, 29061.00
293.8570, 29231.00
295.0670, 29203.00
296.2760, 29189.00
297.4850, 29354.00
298.6930, 29388.00
299.9020, 29284.00
301.1110, 29418.00
302.3190, 29437.00
303.5270, 29547.00
304.7350, 29035.00
305.9430, 29069.00
307.1510, 28806.00
308.3580, 28894.00
309.5660, 28855.00
310.7730, 28929.00
311.9800, 28977.00
313.1870, 29004.00
314.3940, 29226.00
315.6010, 29270.00
316.8070, 29751.00
318.0130, 30023.00
319.2200, 30077.00
320.4260, 30566.00
321.6310, 30925.00
322.8370, 31385.00
324.0430, 31806.00
325.2480, 32272.00
326.4540, 32506.00
327.6590, 33374.00
328.8640, 33622.00
330.0680, 34618.00
331.2730, 35066.00
332.4780, 35431.00
333.6820, 36077.00
334.8860, 36824.00
336.0900, 37227.00
337.2940, 37618.00
338.4980, 38071.00
339.7010, 38144.00
340.9050, 38218.00
342.1080, 38038.00
343.3110, 37872.00
344.5140, 37665.00
345.7170, 37340.00
346.9200, 37091.00
348.1220, 37296.00
349.3240, 37196.00
350.5270, 37532.00
351.7290, 37865.00
352.9310, 38290.00
354.1320, 38789.00
355.3340, 39514.00
356.5350, 40480.00
357.7370, 41412.00
358.9380, 42844.00
360.1390, 43958.00
361.3400, 45337.00
362.5400, 46488.00
363.7410, 48035.00
364.9410, 49685.00
366.1410, 51092.00
367.3410, 52356.00
368.5410, 53418.00
369.7410, 54527.00
370.9400, 55362.00
372.1400, 55805.00
373.3390, 55901.00
374.5380, 55397.00
375.7370, 54257.00
376.9360, 53018.00
378.1350, 51455.00
379.3330, 49620.00
380.5310, 48079.00
381.7300, 46525.00
382.9280, 44705.00
384.1260, 43580.00
385.3230, 41982.00
386.5210, 41182.00
387.7180, 40205.00
388.9160, 39390.00
390.1130, 38729.00
391.3100, 37988.56
392.5060, 37432.00
393.7030, 36785.00
394.9000, 36506.00
396.0960, 36011.00
397.2920, 35830.00
398.4880, 35508.00
399.6840, 35376.00
400.8800, 35353.00
402.0750, 34845.00
403.2710, 35099.00
404.4660, 34868.00
405.6610, 34783.00
406.8560, 34479.00
408.0510, 34452.00
409.2450, 34046.00
410.4400, 33735.65
411.6340, 33829.00
412.8280, 33095.00
414.0220, 32977.00
415.2160, 32996.00
416.4100, 32677.00
417.6030, 32427.00
418.7970, 32345.00
419.9900, 32336.00
421.1830, 32141.00
422.3760, 32106.00
423.5690, 32200.00
424.7610, 32098.00
425.9540, 32279.00
427.1460, 32452.00
428.3380, 32631.00
429.5300, 32849.00
430.7220, 33073.00
431.9140, 33238.00
433.1050, 33300.00
434.2970, 33343.00
435.4880, 33658.00
436.6790, 34226.00
437.8700, 34281.00
439.0610, 34385.00
440.2510, 33502.00
441.4420, 33621.00
442.6320, 33683.00
443.8220, 33546.00
445.0120, 33368.00
446.2020, 33581.00
447.3910, 33327.00
448.5810, 33418.00
449.7700, 33032.00
450.9600, 33058.00
452.1490, 33055.00
453.3370, 32864.00
454.5260, 32692.00
455.7150, 32617.00
456.9030, 32416.00
458.0910, 32396.00
459.2800, 32229.00
460.4670, 32063.00
461.6550, 32286.00
462.8430, 32181.00
464.0300, 31990.00
465.2180, 32200.00
466.4050, 32247.00
467.5920, 32305.00
468.7790, 32363.00
469.9650, 32618.00
471.1520, 32714.00
472.3380, 33203.00
473.5250, 33226.00
474.7110, 33464.00
475.8970, 33944.00
477.0820, 34094.00
478.2680, 34383.00
479.4540, 34928.00
480.6390, 34985.00
481.8240, 35293.00
483.0090, 35463.00
484.1940, 35712.00
485.3780, 35686.00
486.5630, 35753.00
487.7470, 36063.00
488.9320, 36047.00
490.1160, 36191.00
491.3000, 36323.00
492.4830, 36444.00
493.6670, 36475.00
494.8500, 36514.00
496.0340, 37056.00
497.2170, 37005.00
498.4000, 37223.00
499.5820, 37309.00
500.7650, 37486.00
501.9480, 37895.00
503.1300, 37841.00
504.3120, 37956.00
505.4940, 37752.00
506.6760, 37570.00
507.8580, 37327.00
509.0390, 37046.34
510.2210, 36741.00
511.4020, 36487.00
512.5830, 36152.00
513.7640, 35993.00
514.9450, 35617.00
516.1250, 35210.00
517.3060, 35175.00
518.4860, 34902.00
519.6660, 34903.00
520.8460, 34993.00
522.0260, 35017.00
523.2060, 35184.00
524.3850, 35742.00
525.5650, 36185.00
526.7440, 36821.00
527.9230, 37108.00
529.1020, 37610.00
530.2810, 38278.00
531.4590, 38758.00
532.6380, 39271.00
533.8160, 39645.00
534.9940, 39928.00
536.1720, 39857.00
537.3500, 40180.00
538.5270, 39920.00
539.7050, 39812.00
540.8820, 39757.00
542.0590, 39368.00
543.2360, 38968.00
544.4130, 38747.00
545.5900, 38886.00
546.7660, 37923.00
547.9430, 38001.00
549.1190, 38155.00
550.2950, 37293.00
551.4710, 36781.00
552.6470, 36391.00
553.8220, 36049.00
554.9980, 35910.00
556.1730, 35952.00
557.3480, 35616.00
558.5230, 35117.00
559.6980, 35107.00
560.8730, 34693.00
562.0470, 34890.00
563.2220, 34585.00
564.3960, 34341.00
565.5700, 34371.00
566.7440, 33920.88
567.9170, 33743.07
569.0910, 33453.00
570.2640, 32965.00
571.4380, 33236.00
572.6110, 32472.00
573.7840, 32467.00
574.9570, 32084.00
576.1290, 32073.00
577.3020, 31619.00
578.4740, 31397.00
579.6460, 31103.00
580.8180, 31060.00
581.9900, 30895.00
583.1620, 30701.00
584.3330, 30682.00
585.5040, 30459.00
586.6760, 30359.00
587.8470, 30416.00
589.0180, 30344.00
590.1880, 30332.00
591.3590, 30202.00
592.5290, 30152.00
593.7000, 30367.00
594.8700, 30293.00
596.0400, 30268.00
597.2090, 30157.00
598.3790, 30305.00
599.5490, 30558.00
600.7180, 30431.00
601.8870, 30443.00
603.0560, 30688.00
604.2250, 30506.00
605.3940, 30261.00
606.5620, 30627.00
607.7300, 30290.00
608.8990, 30621.00
610.0670, 30930.00
611.2350, 30694.00
612.4020, 30841.00
613.5700, 30681.00
614.7370, 30593.00
615.9050, 30791.00
617.0720, 30884.00
618.2390, 31060.00
619.4060, 31297.00
620.5720, 31338.00
621.7390, 31403.00
622.9050, 31482.00
624.0710, 31683.00
625.2370, 31725.00
626.4030, 31880.00
627.5690, 31951.00
628.7340, 32272.00
629.9000, 31982.00
631.0650, 32214.00
632.2300, 31933.00
633.3950, 31920.00
634.5600, 31744.00
635.7240, 31678.00
636.8890, 31429.00
638.0530, 30977.00
639.2170, 30982.00
640.3810, 30790.00
641.5450, 30450.00
642.7080, 30528.00
643.8720, 30460.00
645.0350, 30320.00
646.1980, 30408.00
647.3610, 30603.00
648.5240, 30724.00
649.6870, 30769.00
650.8490, 30858.00
652.0120, 31099.00
653.1740, 31289.00
654.3360, 31553.00
655.4980, 31811.07
656.6600, 32203.00
657.8210, 32358.00
658.9830, 32612.00
660.1440, 32868.00
661.3050, 33007.00
662.4660, 33336.00
663.6270, 33451.00
664.7870, 33539.00
665.9480, 33421.00
667.1080, 33640.00
668.2680, 33600.00
669.4280, 33579.00
670.5880, 33634.21
671.7480, 33522.00
672.9070, 33531.00
674.0670, 33354.00
675.2260, 33119.00
676.3850, 33333.00
677.5440, 32888.00
678.7030, 32820.00
679.8610, 32535.00
681.0200, 32555.00
682.1780, 32542.00
683.3360, 32441.00
684.4940, 32264.00
685.6520, 32304.00
686.8090, 32200.00
687.9670, 32548.00
689.1240, 32190.00
690.2810, 32636.00
691.4380, 32647.00
692.5950, 32849.00
693.7520, 33419.00
694.9080, 33450.00
696.0650, 33775.00
697.2210, 34286.00
698.3770, 34467.00
699.5330, 34730.00
700.6880, 35135.00
701.8440, 35800.00
702.9990, 36321.00
704.1550, 36676.00
705.3100, 37061.00
706.4650, 37713.00
707.6190, 38611.00
708.7740, 39672.00
709.9290, 40012.00
711.0830, 40889.00
712.2370, 41445.00
713.3910, 42688.00
714.5450, 43838.00
715.6980, 45240.00
716.8520, 46405.00
718.0050, 47754.66
719.1580, 49114.00
720.3110, 50447.00
721.4640, 52031.00
722.6170, 53427.00
723.7700, 54928.00
724.9220, 55962.00
726.0740, 56200.00
727.2260, 56676.00
728.3780, 55785.00
729.5300, 55074.00
730.6810, 53828.00
731.8330, 51987.00
732.9840, 50096.00
734.1350, 48369.00
735.2860, 46756.00
736.4370, 44995.00
737.5880, 43922.00
738.7380, 42664.00
739.8880, 41906.00
741.0390, 41114.00
742.1890, 40620.00
743.3380, 40281.00
744.4880, 40113.00
745.6380, 40164.00
746.7870, 39987.00
747.9360, 40440.00
749.0850, 40773.00
750.2340, 41549.00
751.3830, 41669.00
752.5310, 41988.00
753.6800, 42295.00
754.8280, 42791.00
755.9760, 43290.00
757.1240, 43738.00
758.2720, 43766.00
759.4190, 44131.00
760.5670, 44289.00
761.7140, 44579.00
762.8610, 44341.00
764.0080, 44220.00
765.1550, 43753.00
766.3020, 43609.00
767.4480, 43250.00
768.5950, 43160.00
769.7410, 42801.00
770.8870, 42313.00
772.0330, 42232.00
773.1780, 42131.00
774.3240, 41802.00
775.4690, 41984.00
776.6140, 41728.00
777.7590, 41373.00
778.9040, 41243.00
780.0490, 41506.00
781.1940, 41636.00
782.3380, 41620.00
783.4820, 41650.00
784.6260, 41798.00
785.7700, 41958.00
786.9140, 41995.72
788.0580, 41909.00
789.2010, 42096.00
790.3450, 42394.00
791.4880, 42389.00
792.6310, 42636.00
793.7730, 42763.00
794.9160, 42662.00
796.0590, 42386.00
797.2010, 42182.00
798.3430, 41826.00
799.4850, 41465.00
800.6270, 41282.00
801.7690, 41242.94
802.9100, 41355.88
804.0520, 41516.00
805.1930, 41914.00
806.3340, 42381.00
807.4750, 42960.26
808.6160, 43686.00
809.7560, 44463.00
810.8970, 45381.00
812.0370, 46340.00
813.1770, 47342.00
814.3170, 48208.00
815.4570, 48981.00
816.5960, 49566.00
817.7360, 49884.88
818.8750, 50323.00
820.0140, 49975.00
821.1530, 49885.00
822.2920, 49413.00
823.4310, 49115.00
824.5690, 47622.00
825.7070, 46966.00
826.8460, 45817.00
827.9840, 44773.00
829.1220, 43410.00
830.2590, 42257.00
831.3970, 41235.00
832.5340, 40300.00
833.6710, 39141.00
834.8080, 38488.00
835.9450, 37497.00
837.0820, 36475.00
838.2190, 36011.00
839.3550, 34886.00
840.4910, 34393.00
841.6270, 33640.00
842.7630, 32719.00
843.8990, 32132.00
845.0350, 31661.00
846.1700, 30897.00
847.3060, 30422.00
848.4410, 29808.00
849.5760, 29590.00
850.7100, 29522.00
851.8450, 29027.00
852.9800, 28891.00
854.1140, 28488.00
855.2480, 28327.00
856.3820, 28117.00
857.5160, 28118.00
858.6500, 28144.00
859.7830, 28042.00
860.9170, 28013.15
862.0500, 27801.00
863.1830, 27779.00
864.3160, 27741.00
865.4480, 27446.00
866.5810, 27318.00
867.7130, 27259.00
868.8460, 27160.00
869.9780, 27386.00
871.1100, 27056.00
872.2410, 27163.00
873.3730, 27279.00
874.5050, 27168.00
875.6360, 27140.00
876.7670, 27117.00
877.8980, 27087.00
879.0290, 27265.00
880.1590, 27236.00
881.2900, 27107.00
882.4200, 27372.00
883.5500, 27295.00
884.6800, 27224.00
885.8100, 27528.00
886.9400, 27389.00
888.0690, 27342.00
889.1990, 27600.00
890.3280, 27461.00
891.4570, 27619.00
892.5860, 27676.00
893.7140, 27665.00
894.8430, 27670.00
895.9710, 28113.00
897.1000, 27811.00
898.2280, 28215.00
899.3560, 28043.00
900.4830, 28281.00
901.6110, 28182.00
902.7380, 28198.00
903.8660, 28351.00
904.9930, 28296.00
906.1200, 28444.00
907.2460, 28520.00
908.3730, 28541.00
909.5000, 28485.00
910.6260, 28634.00
911.7520, 28622.00
912.8780, 28526.00
914.0040, 28760.00
915.1290, 28855.00
916.2550, 28678.00
917.3800, 28784.00
918.5050, 28812.00
919.6300, 28814.87
920.7550, 28946.00
921.8800, 28910.00
923.0040, 29007.00
924.1290, 29025.00
925.2530, 28951.00
926.3770, 28936.00
927.5010, 29210.00
928.6250, 29172.00
929.7480, 29130.00
930.8720, 29290.00
931.9950, 29216.00
933.1180, 29196.00
934.2410, 29247.00
935.3640, 29273.00
936.4860, 29311.00
937.6090, 29306.00
938.7310, 29349.00
939.8530, 29516.00
940.9750, 29553.00
942.0970, 29689.00
943.2180, 29831.00
944.3400, 29628.00
945.4610, 29801.00
946.5820, 29867.00
947.7030, 29999.00
948.8240, 30210.00
949.9450, 30230.00
951.0650, 30253.00
952.1860, 30453.00
953.3060, 30549.00
954.4260, 30580.00
955.5460, 30748.20
956.6650, 30838.00
957.7850, 30903.00
958.9040, 31024.00
960.0230, 30925.00
961.1420, 31124.00
962.2610, 30957.00
963.3800, 31346.00
964.4990, 31363.00
965.6170, 31617.00
966.7350, 31655.00
967.8530, 31743.00
968.9710, 31877.00
970.0890, 32111.00
971.2070, 32213.76
972.3240, 32610.00
973.4410, 32517.00
974.5580, 32697.00
975.6750, 32853.00
976.7920, 32656.00
977.9090, 32858.00
979.0250, 32785.00
980.1410, 33096.00
981.2580, 33030.00
982.3740, 33046.00
983.4890, 32968.00
984.6050, 33000.03
985.7200, 32961.00
986.8360, 32952.00
987.9510, 32776.00
989.0660, 32518.00
990.1810, 32299.00
991.2950, 32348.00
992.4100, 32041.00
993.5240, 32123.00
994.6390, 32080.00
995.7530, 31833.00
996.8660, 31765.00
997.9800, 31839.00
999.0940, 31565.00
1000.207, 32061.00
1001.320, 32022.00
1002.433, 32183.00
1003.546, 32067.00
1004.659, 31929.00
1005.772, 31824.00
1006.884, 31644.00
1007.996, 31618.00
1009.108, 31869.00
1010.220, 31850.00
1011.332, 32196.00
1012.444, 32261.00
1013.555, 32584.00
1014.666, 33074.00
1015.777, 33068.00
1016.888, 33242.00
1017.999, 33649.00
1019.110, 33914.00
1020.220, 34204.00
1021.331, 34587.00
1022.441, 34846.00
1023.551, 35158.00
1024.661, 35375.00
1025.770, 35661.92
1026.880, 35938.33
1027.989, 36163.00
1029.098, 36380.00
1030.207, 36559.00
1031.316, 36526.00
1032.425, 36929.00
1033.533, 37091.00
1034.642, 37721.00
1035.750, 37922.00
1036.858, 38299.00
1037.966, 38998.00
1039.073, 39143.00
1040.181, 39457.00
1041.288, 39987.00
1042.396, 40064.00
1043.503, 40792.00
1044.610, 40990.00
1045.716, 41450.00
1046.823, 41799.00
1047.929, 41896.00
1049.036, 42133.00
1050.142, 42303.00
1051.248, 42800.00
1052.353, 42776.00
1053.459, 42759.00
1054.564, 43131.00
1055.670, 43042.00
1056.775, 43402.00
1057.880, 43802.00
1058.985, 44356.00
1060.089, 44232.00
1061.194, 44682.00
1062.298, 45338.00
1063.402, 45776.00
1064.506, 46372.00
1065.610, 46579.00
1066.713, 47118.00
1067.817, 47553.00
1068.920, 47419.00
1070.023, 47489.00
1071.126, 47556.00
1072.229, 47740.00
1073.332, 47247.00
1074.435, 47010.00
1075.537, 46533.00
1076.639, 45956.97
1077.741, 45595.00
1078.843, 44649.00
1079.945, 43864.00
1081.046, 43061.00
1082.148, 42484.00
1083.249, 41553.00
1084.350, 40862.00
1085.451, 40364.00
1086.551, 39513.00
1087.652, 39034.00
1088.752, 38197.00
1089.853, 37462.00
1090.953, 36847.00
1092.053, 36374.00
1093.152, 35982.00
1094.252, 35258.00
1095.351, 35001.00
1096.451, 34679.00
1097.550, 34224.00
1098.649, 33732.00
1099.748, 33407.00
1100.846, 32933.00
1101.945, 32908.00
1103.043, 32484.00
1104.141, 32428.00
1105.239, 32140.00
1106.337, 31848.00
1107.434, 31620.00
1108.532, 31563.00
1109.629, 31367.00
1110.726, 31266.00
1111.823, 31091.00
1112.920, 31152.00
1114.017, 30834.00
1115.113, 30880.00
1116.210, 30713.00
1117.306, 30634.00
1118.402, 30466.00
1119.498, 30338.00
1120.593, 30212.00
1121.689, 30129.00
1122.784, 30002.00
1123.879, 29856.16
1124.974, 29755.28
1126.069, 29590.52
1127.164, 29498.00
1128.259, 29273.00
1129.353, 29095.00
1130.447, 28926.00
1131.541, 28688.00
1132.635, 28796.00
1133.729, 28629.00
1134.822, 28443.00
1135.916, 28584.00
1137.009, 28310.00
1138.102, 28382.00
1139.195, 28052.00
1140.288, 27868.00
1141.380, 28070.00
1142.473, 27760.00
1143.565, 27968.00
1144.657, 27781.00
1145.749, 28005.00
1146.841, 27823.00
1147.932, 27860.00
1149.024, 27786.81
1150.115, 27726.00
1151.206, 27608.00
1152.297, 27570.00
1153.388, 27591.00
1154.479, 27628.00
1155.569, 27453.00
1156.659, 27435.00
1157.750, 27802.00
1158.839, 27693.00
1159.929, 27475.00
1161.019, 27729.00
1162.108, 27439.00
1163.198, 27418.00
1164.287, 27367.00
1165.376, 27544.00
1166.465, 27499.00
1167.553, 27581.00
1168.642, 27517.00
1169.730, 27438.00
1170.818, 27495.00
1171.906, 27270.00
1172.994, 27550.00
1174.082, 27425.00
1175.170, 27432.00
1176.257, 27541.00
1177.344, 27397.00
1178.431, 27486.00
1179.518, 27300.00
1180.605, 27478.00
1181.691, 27200.00
1182.778, 27256.00
1183.864, 27369.00
1184.950, 27451.00
1186.036, 27444.00
1187.122, 27428.00
1188.207, 27434.00
1189.292, 27317.00
1190.378, 27387.00
1191.463, 27448.00
1192.548, 27483.00
1193.632, 27264.00
1194.717, 27191.00
1195.801, 27494.00
1196.886, 27680.00
1197.970, 27426.00
1199.054, 27365.00
1200.137, 27377.00
1201.221, 27293.00
1202.305, 27523.00
1203.388, 27493.00
1204.471, 27664.00
1205.554, 27587.00
1206.637, 27553.00
1207.719, 27599.00
1208.802, 27567.00
1209.884, 27715.00
1210.966, 27714.01
1212.048, 27816.00
1213.130, 27776.00
1214.212, 27770.00
1215.293, 27743.00
1216.374, 27789.00
1217.456, 27907.00
1218.536, 27933.00
1219.617, 28021.00
1220.698, 28148.00
1221.778, 28148.00
1222.859, 27916.00
1223.939, 28230.00
1225.019, 28130.00
1226.099, 28089.00
1227.178, 28268.00
1228.258, 28512.00
1229.337, 28459.00
1230.417, 28456.00
1231.496, 28791.00
1232.574, 28527.00
1233.653, 28694.00
1234.732, 28620.00
1235.810, 28911.00
1236.888, 28788.00
1237.966, 28890.00
1239.044, 28947.00
1240.122, 28977.00
1241.199, 29028.97
1242.277, 28918.00
1243.354, 29049.00
1244.431, 29028.00
1245.508, 28964.00
1246.585, 29016.00
1247.661, 28943.00
1248.738, 28969.00
1249.814, 28954.00
1250.890, 28987.00
1251.966, 28970.00
1253.042, 28950.00
1254.117, 28918.81
1255.193, 28901.00
1256.268, 28876.00
1257.343, 28810.00
1258.418, 28913.00
1259.493, 29013.00
1260.567, 28919.00
1261.642, 28865.00
1262.716, 28994.00
1263.790, 28866.00
1264.864, 29057.00
1265.938, 29142.00
1267.011, 29179.00
1268.085, 29127.00
1269.158, 29251.00
1270.231, 28972.00
1271.304, 29023.00
1272.377, 29305.00
1273.450, 29039.00
1274.522, 29076.00
1275.594, 28954.00
1276.666, 29005.00
1277.738, 29146.00
1278.810, 28816.00
1279.882, 28772.00
1280.953, 28753.00
1282.025, 28849.00
1283.096, 28954.00
1284.167, 29090.00
1285.238, 28860.00
1286.308, 28855.00
1287.379, 28869.00
1288.449, 28705.00
1289.519, 28817.00
1290.589, 28756.00
1291.659, 28782.00
1292.729, 28764.00
1293.798, 28772.68
1294.868, 28801.00
1295.937, 28792.00
1297.006, 28803.00
1298.075, 28771.00
1299.143, 28710.00
1300.212, 28626.97
1301.280, 28607.35
1302.348, 28474.00
1303.416, 28555.00
1304.484, 28658.00
1305.552, 28669.00
1306.620, 28327.00
1307.687, 28597.00
1308.754, 28417.00
1309.821, 28710.00
1310.888, 28612.00
1311.955, 28532.00
1313.021, 28757.00
1314.088, 28410.00
1315.154, 28531.00
1316.220, 28632.00
1317.286, 28704.00
1318.352, 28618.00
1319.417, 28790.00
1320.483, 28841.00
1321.548, 28698.00
1322.613, 28779.00
1323.678, 28885.00
1324.743, 28638.00
1325.807, 28430.00
1326.872, 28544.00
1327.936, 28559.00
1329.000, 28277.00
1330.064, 28440.00
1331.128, 28412.00
1332.191, 28384.00
1333.255, 28319.00
1334.318, 28474.00
1335.381, 28326.00
1336.444, 28137.00
