##NAMES=Dravite
##RRUFFID=R060280
##IDEAL CHEMISTRY=NaMg_3_Al_6_(Si_6_O_18_)(BO_3_)_3_(OH)_3_OH
##LOCALITY=near Merelani, Tanzania
##OWNER=RRUFF
##SOURCE=Herb Obodda
##DESCRIPTION=Green fragment
##STATUS=The identification of this mineral has been confirmed by X-ray diffraction and chemical analysis
##URL=rruff.info/R060280
##MEASURED CHEMISTRY=(Na_0.45_Ca_0.40_[box]_0.15_)(Mg_0.89_Al_0.07_Ti_0.04_)_3_Al_6_(BO_3_)_3_(Si_0.93_B_0.07_)_6_O_18_((OH)_0.95_O_0.05_)_4_
##PIN_ID=L00930
##ORIENTATION=Laser parallel to c* (0 0 1). Fiducial mark perpendicular to laser is parallel to -b [0 -1 0]
168.4860, 25972.00
169.7110, 26180.00
170.9360, 26066.00
172.1610, 26100.00
173.3850, 26218.00
174.6100, 26256.00
175.8340, 26262.00
177.0580, 26405.00
178.2820, 26434.00
179.5050, 26725.00
180.7290, 27016.00
181.9520, 27013.00
183.1760, 27360.00
184.3990, 27819.00
185.6220, 28033.00
186.8450, 28548.00
188.0670, 28839.00
189.2900, 29362.00
190.5120, 29741.00
191.7340, 30076.71
192.9560, 30442.00
194.1780, 30685.00
195.4000, 30921.00
196.6220, 31080.00
197.8430, 31195.00
199.0640, 31499.00
200.2860, 31776.00
201.5070, 32356.00
202.7270, 32633.00
203.9480, 33076.00
205.1690, 33510.00
206.3890, 34387.00
207.6090, 35249.00
208.8290, 36218.00
210.0490, 37405.00
211.2690, 38777.00
212.4890, 39852.00
213.7080, 40840.00
214.9280, 41641.00
216.1470, 41891.00
217.3660, 41835.00
218.5850, 41431.00
219.8030, 40338.00
221.0220, 39774.00
222.2400, 38783.00
223.4590, 37795.00
224.6770, 37050.00
225.8950, 36626.00
227.1120, 36100.00
228.3300, 35909.57
229.5480, 35822.00
230.7650, 35898.00
231.9820, 36296.00
233.1990, 36699.00
234.4160, 37037.00
235.6330, 37314.00
236.8490, 37876.00
238.0660, 38254.00
239.2820, 38260.00
240.4980, 38929.00
241.7140, 38977.00
242.9300, 38682.00
244.1460, 38408.00
245.3610, 37980.00
246.5770, 37452.00
247.7920, 36704.00
249.0070, 35879.00
250.2220, 35226.00
251.4370, 34490.00
252.6510, 33924.00
253.8660, 33472.00
255.0800, 32709.00
256.2940, 32472.00
257.5080, 32313.00
258.7220, 32539.00
259.9360, 32360.00
261.1490, 32124.00
262.3630, 31823.00
263.5760, 32100.00
264.7890, 32384.00
266.0020, 32552.00
267.2150, 32838.00
268.4270, 33133.00
269.6400, 33582.00
270.8520, 33823.00
272.0640, 34379.00
273.2760, 34705.00
274.4880, 34934.00
275.7000, 34863.00
276.9120, 34967.00
278.1230, 34633.00
279.3340, 34431.00
280.5450, 34117.00
281.7560, 33700.00
282.9670, 33208.00
284.1780, 32990.00
285.3880, 32590.00
286.5980, 32401.00
287.8090, 32373.00
289.0190, 32199.00
290.2290, 31996.00
291.4380, 32067.89
292.6480, 32026.31
293.8570, 32111.00
295.0670, 32249.00
296.2760, 32184.00
297.4850, 32457.00
298.6930, 32361.00
299.9020, 32482.00
301.1110, 32324.00
302.3190, 32259.00
303.5270, 31937.00
304.7350, 31981.00
305.9430, 31658.00
307.1510, 31555.00
308.3580, 31594.00
309.5660, 31707.00
310.7730, 31559.00
311.9800, 31575.00
313.1870, 31688.00
314.3940, 32100.00
315.6010, 32276.00
316.8070, 32364.00
318.0130, 32699.00
319.2200, 32969.00
320.4260, 33389.00
321.6310, 33959.00
322.8370, 34136.00
324.0430, 34307.00
325.2480, 34997.00
326.4540, 35343.00
327.6590, 35785.00
328.8640, 36425.00
330.0680, 36861.00
331.2730, 37413.00
332.4780, 38037.00
333.6820, 38616.00
334.8860, 38989.00
336.0900, 39541.00
337.2940, 39896.00
338.4980, 40098.00
339.7010, 40058.00
340.9050, 40075.00
342.1080, 39883.00
343.3110, 39520.00
344.5140, 39710.00
345.7170, 39475.00
346.9200, 39611.00
348.1220, 39683.00
349.3240, 39708.00
350.5270, 40073.00
351.7290, 40353.00
352.9310, 41274.00
354.1320, 41938.00
355.3340, 42745.00
356.5350, 43818.00
357.7370, 44885.00
358.9380, 46159.92
360.1390, 47685.00
361.3400, 49105.00
362.5400, 50514.00
363.7410, 52355.00
364.9410, 54131.00
366.1410, 55791.00
367.3410, 57390.00
368.5410, 58676.00
369.7410, 59972.00
370.9400, 60802.00
372.1400, 61093.00
373.3390, 61220.00
374.5380, 60598.00
375.7370, 59615.00
376.9360, 58196.00
378.1350, 56873.00
379.3330, 55156.00
380.5310, 52866.00
381.7300, 51010.00
382.9280, 49305.00
384.1260, 47711.19
385.3230, 46385.48
386.5210, 45155.00
387.7180, 44175.00
388.9160, 43280.00
390.1130, 42546.00
391.3100, 41934.00
392.5060, 41187.00
393.7030, 40940.00
394.9000, 40551.00
396.0960, 39999.00
397.2920, 39927.00
398.4880, 39955.00
399.6840, 39122.00
400.8800, 38906.00
402.0750, 39403.00
403.2710, 39054.00
404.4660, 38638.00
405.6610, 38870.00
406.8560, 38571.00
408.0510, 38467.00
409.2450, 38205.00
410.4400, 37831.00
411.6340, 37605.00
412.8280, 37271.00
414.0220, 37248.00
415.2160, 36936.00
416.4100, 36572.00
417.6030, 36165.00
418.7970, 36286.00
419.9900, 36093.00
421.1830, 35919.00
422.3760, 35908.00
423.5690, 36055.00
424.7610, 35960.00
425.9540, 35854.00
427.1460, 36213.00
428.3380, 36221.00
429.5300, 36294.00
430.7220, 36508.00
431.9140, 36863.00
433.1050, 37029.00
434.2970, 37131.00
435.4880, 36950.00
436.6790, 36898.00
437.8700, 36998.90
439.0610, 37008.00
440.2510, 37105.00
441.4420, 37209.00
442.6320, 37105.00
443.8220, 36782.00
445.0120, 37024.00
446.2020, 36873.00
447.3910, 37028.00
448.5810, 36645.00
449.7700, 36684.00
450.9600, 36757.00
452.1490, 36673.00
453.3370, 36452.00
454.5260, 36290.00
455.7150, 36306.00
456.9030, 36248.00
458.0910, 36432.00
459.2800, 36237.00
460.4670, 36321.00
461.6550, 36379.00
462.8430, 36136.00
464.0300, 36296.00
465.2180, 35984.00
466.4050, 36497.00
467.5920, 36145.00
468.7790, 36781.00
469.9650, 36816.00
471.1520, 37295.00
472.3380, 37621.00
473.5250, 37953.00
474.7110, 38292.00
475.8970, 38735.00
477.0820, 39084.00
478.2680, 39492.00
479.4540, 39797.00
480.6390, 39941.00
481.8240, 40323.00
483.0090, 40730.00
484.1940, 41031.00
485.3780, 40989.00
486.5630, 41204.00
487.7470, 41036.00
488.9320, 41498.00
490.1160, 41584.00
491.3000, 41603.00
492.4830, 41568.00
493.6670, 41491.00
494.8500, 41797.00
496.0340, 42211.00
497.2170, 42304.00
498.4000, 42259.00
499.5820, 42299.00
500.7650, 42633.00
501.9480, 42754.00
503.1300, 42589.00
504.3120, 42481.00
505.4940, 42546.00
506.6760, 42351.00
507.8580, 42270.00
509.0390, 41721.00
510.2210, 41285.00
511.4020, 40938.00
512.5830, 40660.00
513.7640, 40276.00
514.9450, 39950.00
516.1250, 39405.00
517.3060, 39110.00
518.4860, 38977.00
519.6660, 38648.00
520.8460, 38759.00
522.0260, 39005.00
523.2060, 38986.00
524.3850, 39485.00
525.5650, 39805.00
526.7440, 40529.00
527.9230, 40948.00
529.1020, 41615.00
530.2810, 42008.00
531.4590, 42422.00
532.6380, 43184.00
533.8160, 43755.00
534.9940, 43818.00
536.1720, 44166.00
537.3500, 43914.00
538.5270, 44151.00
539.7050, 43877.00
540.8820, 43428.00
542.0590, 42993.00
543.2360, 43103.00
544.4130, 42525.00
545.5900, 42338.00
546.7660, 41995.00
547.9430, 41695.00
549.1190, 41367.52
550.2950, 41059.00
551.4710, 40647.00
552.6470, 40340.00
553.8220, 39990.00
554.9980, 39527.00
556.1730, 39256.00
557.3480, 38815.00
558.5230, 38547.00
559.6980, 38160.00
560.8730, 37780.00
562.0470, 37285.00
563.2220, 36980.00
564.3960, 36727.63
565.5700, 36406.00
566.7440, 36314.00
567.9170, 35950.00
569.0910, 35655.00
570.2640, 35605.00
571.4380, 35107.00
572.6110, 34991.91
573.7840, 34730.01
574.9570, 34603.00
576.1290, 34335.00
577.3020, 34191.00
578.4740, 34182.00
579.6460, 34454.00
580.8180, 34121.00
581.9900, 34145.00
583.1620, 33825.00
584.3330, 34014.00
585.5040, 33910.00
586.6760, 34137.00
587.8470, 34158.00
589.0180, 34414.00
590.1880, 34363.00
591.3590, 34057.00
592.5290, 34479.00
593.7000, 34415.00
594.8700, 34460.00
596.0400, 34629.00
597.2090, 34776.00
598.3790, 34846.00
599.5490, 34866.00
600.7180, 34935.59
601.8870, 34938.00
603.0560, 34963.00
604.2250, 35146.00
605.3940, 35123.00
606.5620, 35291.00
607.7300, 35321.81
608.8990, 35215.00
610.0670, 35362.00
611.2350, 35267.00
612.4020, 35192.00
613.5700, 35356.00
614.7370, 35290.00
615.9050, 35379.48
617.0720, 35423.00
618.2390, 35594.00
619.4060, 35715.00
620.5720, 35966.00
621.7390, 36028.00
622.9050, 36336.00
624.0710, 36525.00
625.2370, 36880.00
626.4030, 36624.00
627.5690, 36755.00
628.7340, 37121.00
629.9000, 36941.00
631.0650, 37151.00
632.2300, 36926.00
633.3950, 36795.00
634.5600, 36686.00
635.7240, 36537.00
636.8890, 36170.00
638.0530, 35973.00
639.2170, 35490.00
640.3810, 35084.00
641.5450, 35456.00
642.7080, 35144.00
643.8720, 35155.00
645.0350, 35121.00
646.1980, 35312.00
647.3610, 35034.00
648.5240, 35357.00
649.6870, 35541.00
650.8490, 35948.00
652.0120, 35978.00
653.1740, 36064.00
654.3360, 36371.00
655.4980, 36752.00
656.6600, 36811.00
657.8210, 36936.00
658.9830, 37585.00
660.1440, 37586.00
661.3050, 38074.00
662.4660, 38048.00
663.6270, 38444.00
664.7870, 38602.00
665.9480, 38656.00
667.1080, 39073.00
668.2680, 38909.57
669.4280, 39031.00
670.5880, 38854.00
671.7480, 39034.00
672.9070, 39301.00
674.0670, 38932.00
675.2260, 38857.00
676.3850, 38959.00
677.5440, 38512.00
678.7030, 38667.00
679.8610, 38665.00
681.0200, 38586.00
682.1780, 38437.00
683.3360, 38408.00
684.4940, 38157.00
685.6520, 37995.00
686.8090, 38375.00
687.9670, 38270.00
689.1240, 38154.00
690.2810, 38591.00
691.4380, 38843.00
692.5950, 39032.00
693.7520, 39459.00
694.9080, 39541.00
696.0650, 39734.00
697.2210, 40173.00
698.3770, 40752.00
699.5330, 40861.00
700.6880, 41521.00
701.8440, 42096.00
702.9990, 42515.00
704.1550, 43261.00
705.3100, 43838.00
706.4650, 44729.00
707.6190, 45215.00
708.7740, 46003.00
709.9290, 47051.00
711.0830, 47894.00
712.2370, 48883.00
713.3910, 49909.00
714.5450, 51080.84
715.6980, 52296.00
716.8520, 53685.00
718.0050, 54995.00
719.1580, 56493.00
720.3110, 57897.00
721.4640, 59666.00
722.6170, 60860.00
723.7700, 62343.00
724.9220, 62969.00
726.0740, 63037.00
727.2260, 63276.00
728.3780, 62032.00
729.5300, 61148.00
730.6810, 59712.00
731.8330, 59098.00
732.9840, 56752.00
734.1350, 56297.00
735.2860, 53449.00
736.4370, 51407.00
737.5880, 49175.00
738.7380, 47366.00
739.8880, 46512.00
741.0390, 45867.00
742.1890, 45430.00
743.3380, 45067.00
744.4880, 44775.00
745.6380, 44844.00
746.7870, 44938.00
747.9360, 44906.00
749.0850, 45161.00
750.2340, 45529.00
751.3830, 45742.00
752.5310, 46222.00
753.6800, 46341.00
754.8280, 46961.00
755.9760, 47565.00
757.1240, 47721.00
758.2720, 48052.00
759.4190, 48276.00
760.5670, 48191.00
761.7140, 48315.00
762.8610, 48488.00
764.0080, 48317.00
765.1550, 47688.00
766.3020, 47607.00
767.4480, 47212.00
768.5950, 47114.00
769.7410, 46756.00
770.8870, 46531.00
772.0330, 46404.00
773.1780, 46317.00
774.3240, 46046.00
775.4690, 45713.00
776.6140, 45590.00
777.7590, 45860.00
778.9040, 45096.00
780.0490, 45442.00
781.1940, 45623.00
782.3380, 45422.00
783.4820, 45321.00
784.6260, 45377.00
785.7700, 45458.62
786.9140, 45550.19
788.0580, 45861.00
789.2010, 45943.00
790.3450, 46156.00
791.4880, 46276.35
792.6310, 46504.00
793.7730, 46386.00
794.9160, 46503.00
796.0590, 46377.00
797.2010, 46027.00
798.3430, 45952.00
799.4850, 45776.00
800.6270, 45746.00
801.7690, 45791.00
802.9100, 45985.00
804.0520, 46020.00
805.1930, 46586.00
806.3340, 46926.00
807.4750, 47584.00
808.6160, 48303.00
809.7560, 48989.00
810.8970, 50271.00
812.0370, 51223.00
813.1770, 52103.00
814.3170, 52706.00
815.4570, 53463.00
816.5960, 54006.00
817.7360, 54483.00
818.8750, 54704.00
820.0140, 54589.00
821.1530, 53989.00
822.2920, 53701.00
823.4310, 52973.00
824.5690, 52279.00
825.7070, 51483.00
826.8460, 50430.00
827.9840, 49245.00
829.1220, 48375.00
830.2590, 46803.00
831.3970, 46253.00
832.5340, 44894.00
833.6710, 44247.00
834.8080, 43188.00
835.9450, 42492.00
837.0820, 41747.00
838.2190, 40878.00
839.3550, 40348.00
840.4910, 39640.00
841.6270, 38877.00
842.7630, 38215.00
843.8990, 37658.00
845.0350, 37095.00
846.1700, 36389.00
847.3060, 35885.00
848.4410, 35545.00
849.5760, 35164.00
850.7100, 34850.00
851.8450, 34496.00
852.9800, 34211.00
854.1140, 33979.00
855.2480, 33793.97
856.3820, 33654.00
857.5160, 33566.00
858.6500, 33493.33
859.7830, 33640.00
860.9170, 33432.00
862.0500, 33438.00
863.1830, 33407.00
864.3160, 33202.00
865.4480, 33020.00
866.5810, 33117.00
867.7130, 33069.00
868.8460, 33040.00
869.9780, 33086.00
871.1100, 33014.00
872.2410, 32603.00
873.3730, 32955.00
874.5050, 32782.00
875.6360, 32786.00
876.7670, 32991.00
877.8980, 32919.00
879.0290, 32897.00
880.1590, 32697.00
881.2900, 32785.00
882.4200, 32830.00
883.5500, 32872.00
884.6800, 32919.00
885.8100, 32802.00
886.9400, 33143.00
888.0690, 33134.00
889.1990, 33083.00
890.3280, 33300.00
891.4570, 33300.00
892.5860, 33260.00
893.7140, 33284.00
894.8430, 33442.00
895.9710, 33552.00
897.1000, 33658.00
898.2280, 33537.00
899.3560, 33477.00
900.4830, 33657.00
901.6110, 33852.00
902.7380, 33791.00
903.8660, 34000.00
904.9930, 33868.00
906.1200, 33914.00
907.2460, 34007.00
908.3730, 33962.00
909.5000, 34167.00
910.6260, 34002.00
911.7520, 33969.00
912.8780, 34379.00
914.0040, 34094.00
915.1290, 34132.00
916.2550, 34097.00
917.3800, 34327.00
918.5050, 34351.00
919.6300, 34200.00
920.7550, 34188.00
921.8800, 34366.00
923.0040, 34201.00
924.1290, 34625.00
925.2530, 34636.00
926.3770, 34602.00
927.5010, 34346.00
928.6250, 34436.00
929.7480, 34372.00
930.8720, 34723.00
931.9950, 34676.00
933.1180, 34839.00
934.2410, 34822.00
935.3640, 34897.00
936.4860, 34896.00
937.6090, 34939.55
938.7310, 34915.00
939.8530, 35034.00
940.9750, 35092.00
942.0970, 35162.34
943.2180, 35156.00
944.3400, 35204.00
945.4610, 35440.00
946.5820, 35378.00
947.7030, 35749.00
948.8240, 35745.00
949.9450, 36032.00
951.0650, 36039.18
952.1860, 36301.00
953.3060, 36102.00
954.4260, 36162.00
955.5460, 36371.00
956.6650, 36368.00
957.7850, 36543.00
958.9040, 36778.00
960.0230, 36981.00
961.1420, 37018.00
962.2610, 37181.00
963.3800, 37447.00
964.4990, 37378.00
965.6170, 37710.00
966.7350, 37783.00
967.8530, 37755.00
968.9710, 38023.00
970.0890, 38333.00
971.2070, 38324.00
972.3240, 38383.00
973.4410, 38828.00
974.5580, 38967.00
975.6750, 39067.00
976.7920, 39169.00
977.9090, 39192.00
979.0250, 39312.66
980.1410, 39458.00
981.2580, 39456.00
982.3740, 39645.00
983.4890, 39627.00
984.6050, 39708.00
985.7200, 39392.00
986.8360, 39409.00
987.9510, 39197.00
989.0660, 39286.00
990.1810, 38882.00
991.2950, 38980.00
992.4100, 38714.00
993.5240, 38293.00
994.6390, 38180.00
995.7530, 38002.00
996.8660, 38008.00
997.9800, 37968.00
999.0940, 37920.00
1000.207, 38197.00
1001.320, 37819.00
1002.433, 38281.00
1003.546, 38161.00
1004.659, 37787.00
1005.772, 37742.00
1006.884, 37518.00
1007.996, 37736.00
1009.108, 37670.00
1010.220, 37908.00
1011.332, 37887.00
1012.444, 38262.00
1013.555, 38457.00
1014.666, 38409.00
1015.777, 38801.00
1016.888, 38947.00
1017.999, 39351.00
1019.110, 39630.00
1020.220, 39768.00
1021.331, 39936.00
1022.441, 40341.00
1023.551, 40404.00
1024.661, 40840.00
1025.770, 41015.00
1026.880, 41235.00
1027.989, 41376.00
1029.098, 41699.00
1030.207, 41959.55
1031.316, 42191.00
1032.425, 42600.00
1033.533, 42961.00
1034.642, 43300.00
1035.750, 43811.00
1036.858, 43734.00
1037.966, 44250.00
1039.073, 45255.00
1040.181, 45945.00
1041.288, 45608.00
1042.396, 45741.00
1043.503, 46126.00
1044.610, 46503.00
1045.716, 46746.00
1046.823, 47109.00
1047.929, 47226.00
1049.036, 47632.00
1050.142, 47580.00
1051.248, 47795.00
1052.353, 48123.00
1053.459, 48426.00
1054.564, 48518.00
1055.670, 48429.00
1056.775, 49049.00
1057.880, 49143.00
1058.985, 49543.00
1060.089, 49996.00
1061.194, 50554.00
1062.298, 51012.00
1063.402, 51544.00
1064.506, 51741.00
1065.610, 52550.00
1066.713, 53021.00
1067.817, 53404.00
1068.920, 53362.00
1070.023, 53703.00
1071.126, 53577.00
1072.229, 53748.00
1073.332, 53328.00
1074.435, 52899.00
1075.537, 52444.00
1076.639, 51731.00
1077.741, 51486.00
1078.843, 50462.00
1079.945, 49671.00
1081.046, 49124.00
1082.148, 48420.00
1083.249, 47867.00
1084.350, 47105.00
1085.451, 46144.00
1086.551, 45509.00
1087.652, 44685.00
1088.752, 44213.00
1089.853, 43422.86
1090.953, 42791.89
1092.053, 42156.00
1093.152, 41541.00
1094.252, 41281.00
1095.351, 40800.00
1096.451, 40364.20
1097.550, 40128.00
1098.649, 39656.00
1099.748, 39110.00
1100.846, 39034.00
1101.945, 38598.00
1103.043, 38286.00
1104.141, 38074.00
1105.239, 38137.00
1106.337, 37611.00
1107.434, 37551.00
1108.532, 37385.00
1109.629, 37046.00
1110.726, 37097.00
1111.823, 37123.00
1112.920, 36783.00
1114.017, 36438.00
1115.113, 36575.00
1116.210, 36539.00
1117.306, 36174.00
1118.402, 36132.00
1119.498, 36161.00
1120.593, 35845.00
1121.689, 35762.00
1122.784, 35816.00
1123.879, 35662.00
1124.974, 35723.00
1126.069, 35665.00
1127.164, 35520.00
1128.259, 35275.00
1129.353, 35536.00
1130.447, 35557.00
1131.541, 35244.00
1132.635, 35257.00
1133.729, 35109.00
1134.822, 35021.00
1135.916, 34810.00
1137.009, 34910.00
1138.102, 34719.00
1139.195, 35100.00
1140.288, 34600.00
1141.380, 34667.00
1142.473, 34803.00
1143.565, 34288.00
1144.657, 34617.00
1145.749, 34656.00
1146.841, 34526.00
1147.932, 34518.00
1149.024, 34541.00
1150.115, 34440.00
1151.206, 34502.00
1152.297, 34322.00
1153.388, 34443.00
1154.479, 34262.00
1155.569, 34334.00
1156.659, 34396.00
1157.750, 34481.00
1158.839, 34324.00
1159.929, 34507.00
1161.019, 34341.00
1162.108, 34476.00
1163.198, 34138.00
1164.287, 34498.00
1165.376, 34358.00
1166.465, 34354.00
1167.553, 34410.00
1168.642, 34331.00
1169.730, 34289.00
1170.818, 34308.00
1171.906, 34373.00
1172.994, 34354.52
1174.082, 34374.00
1175.170, 34381.00
1176.257, 34438.00
1177.344, 34451.00
1178.431, 34435.05
1179.518, 34342.00
1180.605, 34435.00
1181.691, 34315.00
1182.778, 34413.00
1183.864, 34319.00
1184.950, 34722.00
1186.036, 34365.00
1187.122, 34591.00
1188.207, 34435.00
1189.292, 34416.00
1190.378, 34527.00
1191.463, 34307.00
1192.548, 34420.00
1193.632, 34304.00
1194.717, 34344.00
1195.801, 34497.00
1196.886, 34535.00
1197.970, 34367.00
1199.054, 34540.00
1200.137, 34383.00
1201.221, 34341.00
1202.305, 34593.00
1203.388, 34281.00
1204.471, 34380.00
1205.554, 34522.00
1206.637, 34615.00
1207.719, 34554.00
1208.802, 34727.00
1209.884, 34636.00
1210.966, 34743.00
1212.048, 34999.00
1213.130, 34949.10
1214.212, 34787.00
1215.293, 35075.00
1216.374, 35062.00
1217.456, 35169.00
1218.536, 35132.00
1219.617, 34895.00
1220.698, 35210.00
1221.778, 35071.00
1222.859, 35229.00
1223.939, 35193.00
1225.019, 35298.00
1226.099, 35205.00
1227.178, 35451.00
1228.258, 35205.00
1229.337, 35562.00
1230.417, 35560.00
1231.496, 35460.00
1232.574, 35664.00
1233.653, 35727.00
1234.732, 35673.00
1235.810, 35976.00
1236.888, 35828.00
1237.966, 36025.00
1239.044, 35832.00
1240.122, 35897.00
1241.199, 35744.00
1242.277, 36048.00
1243.354, 35870.00
1244.431, 35972.00
1245.508, 35881.00
1246.585, 35819.00
1247.661, 35839.00
1248.738, 35864.93
1249.814, 36010.00
1250.890, 35936.00
1251.966, 35947.00
1253.042, 35799.00
1254.117, 36008.00
1255.193, 35966.83
1256.268, 35814.00
1257.343, 36004.00
1258.418, 35976.00
1259.493, 35847.00
1260.567, 35838.00
1261.642, 35995.00
1262.716, 35985.00
1263.790, 36028.00
1264.864, 36291.00
1265.938, 35880.00
1267.011, 35999.00
1268.085, 35866.00
1269.158, 36127.00
1270.231, 35806.00
1271.304, 35839.00
1272.377, 36146.00
1273.450, 35793.00
1274.522, 36164.00
1275.594, 35750.00
1276.666, 35800.00
1277.738, 36072.00
1278.810, 36052.00
1279.882, 36031.00
1280.953, 35802.00
1282.025, 36054.00
1283.096, 36142.00
1284.167, 35922.00
1285.238, 35570.00
1286.308, 35619.00
1287.379, 35841.00
1288.449, 35982.00
1289.519, 35871.00
1290.589, 35668.00
1291.659, 35801.00
1292.729, 35882.00
1293.798, 35821.00
1294.868, 35904.00
1295.937, 35960.00
1297.006, 35627.00
1298.075, 35968.00
1299.143, 35780.00
1300.212, 35743.00
1301.280, 35800.00
1302.348, 35693.00
1303.416, 35743.00
1304.484, 35883.00
1305.552, 35776.00
1306.620, 35892.00
1307.687, 35799.00
1308.754, 35813.00
1309.821, 35997.00
1310.888, 36052.00
1311.955, 36021.84
1313.021, 35850.00
1314.088, 35901.00
1315.154, 36021.00
1316.220, 35923.00
1317.286, 35982.00
1318.352, 35927.00
1319.417, 35900.00
1320.483, 36022.00
1321.548, 35919.00
1322.613, 35838.00
1323.678, 35961.00
1324.743, 35778.00
1325.807, 35605.00
1326.872, 35893.00
1327.936, 35834.00
1329.000, 35657.00
1330.064, 35578.00
1331.128, 35748.00
1332.191, 35570.00
1333.255, 35482.00
1334.318, 35994.00
1335.381, 35826.00
1336.444, 35742.00
