##NAMES=Dravite
##RRUFFID=R050077
##IDEAL CHEMISTRY=NaMg_3_Al_6_(Si_6_O_18_)(BO_3_)_3_(OH)_3_OH
##LOCALITY=Yinnietharra Station, Western Australia, Australia
##OWNER=RRUFF
##SOURCE=Rock Currier
##DESCRIPTION=Dark brown euhedral prismatic single crystal
##STATUS=The identification of this mineral has been confirmed by X-ray diffraction and chemical analysis
##URL=rruff.info/R050077
##MEASURED CHEMISTRY=(Na_0.783_Ca_0.217_)(Mg_0.771_Fe^2+^_0.221_Ti^4+^_0.008_)_3_(Al_0.956_Mg_0.044_)_6_(BO_3_)_3_[Si_6_O_18_]((OH)_0.914_F_0.086_)_4_
##PIN_ID=L00540
##ORIENTATION=Laser parallel to -a* (-1 0 0). Fiducial mark perpendicular to laser is parallel to c [0 0 1]
118.1340, 42682.00
119.3650, 41952.00
120.5960, 42449.00
121.8270, 43049.00
123.0580, 42885.29
124.2880, 44543.00
125.5190, 43395.00
126.7490, 43326.00
127.9790, 43794.00
129.2090, 44687.00
130.4390, 45194.00
131.6680, 46501.00
132.8980, 46111.00
134.1270, 46096.00
135.3560, 46682.00
136.5850, 47454.00
137.8140, 48391.00
139.0430, 48849.13
140.2710, 49294.60
141.5000, 49822.00
142.7280, 49763.00
143.9560, 49963.00
145.1840, 50077.00
146.4120, 50536.00
147.6390, 51045.00
148.8670, 50732.00
150.0940, 50860.00
151.3210, 51730.00
152.5490, 51287.00
153.7750, 50498.00
155.0020, 50242.00
156.2290, 51412.00
157.4550, 48533.00
158.6810, 50064.00
159.9080, 48943.49
161.1340, 47902.00
162.3590, 47958.00
163.5850, 48199.00
164.8110, 48305.00
166.0360, 47764.00
167.2610, 47448.00
168.4860, 47366.00
169.7110, 47893.00
170.9360, 47752.00
172.1610, 47203.00
173.3850, 47090.00
174.6100, 46626.00
175.8340, 46340.00
177.0580, 46288.00
178.2820, 46371.00
179.5050, 46270.00
180.7290, 46259.00
181.9520, 45900.00
183.1760, 45572.00
184.3990, 46109.00
185.6220, 45662.00
186.8450, 46084.00
188.0670, 45811.00
189.2900, 45663.00
190.5120, 45502.00
191.7340, 45640.00
192.9560, 45849.00
194.1780, 45863.00
195.4000, 46014.00
196.6220, 46638.00
197.8430, 46706.00
199.0640, 47266.00
200.2860, 47928.00
201.5070, 48942.00
202.7270, 49184.00
203.9480, 48736.00
205.1690, 47874.00
206.3890, 47567.00
207.6090, 47269.00
208.8290, 47625.00
210.0490, 47466.00
211.2690, 47263.00
212.4890, 46881.00
213.7080, 46241.00
214.9280, 45395.00
216.1470, 44370.00
217.3660, 43446.00
218.5850, 42886.00
219.8030, 42076.52
221.0220, 41749.00
222.2400, 40728.00
223.4590, 40248.00
224.6770, 39382.00
225.8950, 39385.00
227.1120, 38864.00
228.3300, 38566.00
229.5480, 38268.00
230.7650, 37995.00
231.9820, 37588.00
233.1990, 37499.00
234.4160, 37385.00
235.6330, 37712.00
236.8490, 37192.00
238.0660, 37207.00
239.2820, 36669.00
240.4980, 36308.00
241.7140, 35782.00
242.9300, 35265.00
244.1460, 34413.00
245.3610, 33899.00
246.5770, 33368.00
247.7920, 32748.00
249.0070, 32220.66
250.2220, 32474.82
251.4370, 32565.54
252.6510, 32501.70
253.8660, 31819.88
255.0800, 31936.03
256.2940, 31732.42
257.5080, 31515.71
258.7220, 31744.15
259.9360, 31152.30
261.1490, 31373.78
262.3630, 31270.53
263.5760, 31315.96
264.7890, 31039.66
266.0020, 30862.73
267.2150, 31007.63
268.4270, 30974.43
269.6400, 30661.10
270.8520, 30716.06
272.0640, 30113.17
273.2760, 30087.56
274.4880, 30311.02
275.7000, 30013.96
276.9120, 30074.81
278.1230, 29999.45
279.3340, 29304.61
280.5450, 29687.10
281.7560, 29603.68
282.9670, 29041.88
284.1780, 29041.00
285.3880, 28958.00
286.5980, 28765.00
287.8090, 28678.44
289.0190, 28480.00
290.2290, 28443.00
291.4380, 28114.00
292.6480, 27926.00
293.8570, 27910.00
295.0670, 28005.00
296.2760, 27605.00
297.4850, 27813.00
298.6930, 27758.00
299.9020, 27907.00
301.1110, 28208.00
302.3190, 27862.00
303.5270, 27844.00
304.7350, 27887.00
305.9430, 28297.00
307.1510, 28193.00
308.3580, 28439.00
309.5660, 28404.00
310.7730, 28652.00
311.9800, 28887.00
313.1870, 29125.00
314.3940, 29344.00
315.6010, 29179.00
316.8070, 29459.00
318.0130, 29743.00
319.2200, 29930.00
320.4260, 30286.00
321.6310, 30426.00
322.8370, 30637.00
324.0430, 31218.00
325.2480, 31432.00
326.4540, 31809.00
327.6590, 32041.00
328.8640, 32497.00
330.0680, 32859.00
331.2730, 33112.00
332.4780, 33373.00
333.6820, 33783.00
334.8860, 33955.00
336.0900, 34037.00
337.2940, 34537.00
338.4980, 34340.00
339.7010, 34640.00
340.9050, 34747.00
342.1080, 34526.00
343.3110, 35058.00
344.5140, 34883.00
345.7170, 35362.00
346.9200, 35363.00
348.1220, 35454.00
349.3240, 35837.00
350.5270, 36109.00
351.7290, 36655.00
352.9310, 36719.00
354.1320, 37259.00
355.3340, 37632.00
356.5350, 38133.00
357.7370, 38593.00
358.9380, 39648.00
360.1390, 40498.00
361.3400, 41264.00
362.5400, 42498.00
363.7410, 43386.00
364.9410, 44374.00
366.1410, 44563.00
367.3410, 44734.00
368.5410, 44673.00
369.7410, 44007.00
370.9400, 43581.00
372.1400, 42907.37
373.3390, 42658.00
374.5380, 41401.00
375.7370, 40738.00
376.9360, 40142.00
378.1350, 39723.00
379.3330, 39516.00
380.5310, 38823.00
381.7300, 38709.00
382.9280, 38150.00
384.1260, 37768.00
385.3230, 37534.15
386.5210, 37334.00
387.7180, 36934.00
388.9160, 36899.00
390.1130, 36514.00
391.3100, 36570.00
392.5060, 36020.00
393.7030, 35593.00
394.9000, 35273.00
396.0960, 35132.00
397.2920, 34860.00
398.4880, 34706.00
399.6840, 35204.00
400.8800, 35528.00
402.0750, 34330.00
403.2710, 34862.00
404.4660, 35278.00
405.6610, 33769.00
406.8560, 33541.00
408.0510, 33392.00
409.2450, 33441.00
410.4400, 33104.00
411.6340, 33057.26
412.8280, 32930.88
414.0220, 32756.00
415.2160, 32782.00
416.4100, 32581.00
417.6030, 32699.00
418.7970, 32383.00
419.9900, 32327.84
421.1830, 32268.18
422.3760, 32056.00
423.5690, 32026.00
424.7610, 31879.00
425.9540, 31556.00
427.1460, 31535.00
428.3380, 31677.00
429.5300, 31355.00
430.7220, 31399.86
431.9140, 31121.00
433.1050, 31137.00
434.2970, 31386.00
435.4880, 31083.00
436.6790, 30854.00
437.8700, 30925.00
439.0610, 31063.00
440.2510, 31434.00
441.4420, 31056.00
442.6320, 31381.00
443.8220, 31619.00
445.0120, 31483.00
446.2020, 31741.00
447.3910, 31972.00
448.5810, 31936.00
449.7700, 32447.00
450.9600, 32940.00
452.1490, 33124.00
453.3370, 33929.00
454.5260, 34461.00
455.7150, 35796.00
456.9030, 37268.00
458.0910, 39029.00
459.2800, 40802.00
460.4670, 41846.00
461.6550, 41818.00
462.8430, 40843.00
464.0300, 39574.00
465.2180, 38135.00
466.4050, 36984.00
467.5920, 36257.00
468.7790, 35531.00
469.9650, 35031.00
471.1520, 34515.00
472.3380, 34643.00
473.5250, 34360.00
474.7110, 34106.00
475.8970, 34324.00
477.0820, 33998.00
478.2680, 34057.00
479.4540, 33949.00
480.6390, 33934.00
481.8240, 33781.00
483.0090, 34151.00
484.1940, 33840.00
485.3780, 34329.00
486.5630, 34879.00
487.7470, 34415.00
488.9320, 34258.00
490.1160, 34206.00
491.3000, 34238.00
492.4830, 34142.00
493.6670, 34105.46
494.8500, 34093.74
496.0340, 34115.00
497.2170, 33924.00
498.4000, 33947.07
499.5820, 33886.00
500.7650, 33847.00
501.9480, 33780.69
503.1300, 33704.00
504.3120, 33572.00
505.4940, 33264.00
506.6760, 33265.00
507.8580, 32969.00
509.0390, 32799.00
510.2210, 32954.00
511.4020, 32874.00
512.5830, 32741.00
513.7640, 32812.00
514.9450, 32765.00
516.1250, 32979.00
517.3060, 33028.25
518.4860, 33174.00
519.6660, 33235.00
520.8460, 33570.00
522.0260, 33626.00
523.2060, 34055.00
524.3850, 34047.00
525.5650, 34409.00
526.7440, 34446.00
527.9230, 34689.00
529.1020, 34942.00
530.2810, 34918.00
531.4590, 35173.04
532.6380, 35282.00
533.8160, 35403.00
534.9940, 35409.00
536.1720, 35335.00
537.3500, 35399.00
538.5270, 35370.91
539.7050, 35470.00
540.8820, 35372.00
542.0590, 35460.00
543.2360, 35461.00
544.4130, 35384.00
545.5900, 35465.00
546.7660, 35471.00
547.9430, 35290.00
549.1190, 35066.00
550.2950, 35689.00
551.4710, 35528.00
552.6470, 36069.00
553.8220, 35488.00
554.9980, 35596.00
556.1730, 35588.00
557.3480, 35044.00
558.5230, 34923.00
559.6980, 34830.00
560.8730, 34641.00
562.0470, 34808.00
563.2220, 34406.00
564.3960, 34624.00
565.5700, 34285.00
566.7440, 34603.00
567.9170, 34414.00
569.0910, 34319.00
570.2640, 34273.00
571.4380, 34062.00
572.6110, 34181.00
573.7840, 34079.38
574.9570, 34215.00
576.1290, 34029.00
577.3020, 34170.00
578.4740, 34139.00
579.6460, 34212.00
580.8180, 34187.00
581.9900, 34134.00
583.1620, 33859.00
584.3330, 33937.00
585.5040, 33890.00
586.6760, 33769.00
587.8470, 33880.00
589.0180, 33857.00
590.1880, 33841.00
591.3590, 33677.00
592.5290, 33717.00
593.7000, 33624.00
594.8700, 33492.00
596.0400, 33527.00
597.2090, 33735.00
598.3790, 33590.00
599.5490, 33628.00
600.7180, 33666.52
601.8870, 33557.25
603.0560, 33566.00
604.2250, 33437.00
605.3940, 33109.00
606.5620, 33055.00
607.7300, 33170.00
608.8990, 33180.00
610.0670, 33393.00
611.2350, 33496.00
612.4020, 33517.00
613.5700, 33535.00
614.7370, 33391.00
615.9050, 33909.00
617.0720, 33857.00
618.2390, 33734.00
619.4060, 34205.00
620.5720, 33958.00
621.7390, 34023.00
622.9050, 34382.00
624.0710, 34328.00
625.2370, 34090.00
626.4030, 34121.00
627.5690, 34084.00
628.7340, 33597.00
629.9000, 33200.00
631.0650, 33145.00
632.2300, 32717.00
633.3950, 32189.00
634.5600, 31991.29
635.7240, 31753.45
636.8890, 31361.00
638.0530, 31482.00
639.2170, 31268.00
640.3810, 31023.00
641.5450, 31139.00
642.7080, 31196.00
643.8720, 31191.00
645.0350, 31277.00
646.1980, 31381.27
647.3610, 31542.00
648.5240, 31732.00
649.6870, 32126.00
650.8490, 32513.00
652.0120, 32755.00
653.1740, 33440.00
654.3360, 33877.00
655.4980, 34425.00
656.6600, 34631.00
657.8210, 34887.00
658.9830, 35235.00
660.1440, 35381.00
661.3050, 35541.00
662.4660, 35649.00
663.6270, 35577.00
664.7870, 35527.00
665.9480, 35392.09
667.1080, 35202.00
668.2680, 34870.00
669.4280, 34783.00
670.5880, 34247.00
671.7480, 34104.00
672.9070, 33995.00
674.0670, 33721.17
675.2260, 33663.67
676.3850, 33495.00
677.5440, 33487.00
678.7030, 33530.00
679.8610, 33506.42
681.0200, 33889.00
682.1780, 33703.00
683.3360, 34219.00
684.4940, 34182.00
685.6520, 34473.00
686.8090, 35265.00
687.9670, 35544.00
689.1240, 35707.00
690.2810, 36503.00
691.4380, 37093.00
692.5950, 37693.00
693.7520, 38422.00
694.9080, 39040.00
696.0650, 40130.00
697.2210, 40823.00
698.3770, 41592.00
699.5330, 42097.05
700.6880, 42408.23
701.8440, 42674.00
702.9990, 42707.00
704.1550, 42587.00
705.3100, 42576.00
706.4650, 42602.34
707.6190, 42703.41
708.7740, 42707.00
709.9290, 43133.00
711.0830, 43296.00
712.2370, 43722.00
713.3910, 44315.00
714.5450, 44837.00
715.6980, 45589.00
716.8520, 45853.00
718.0050, 46550.00
719.1580, 47148.00
720.3110, 47466.00
721.4640, 48267.00
722.6170, 48697.00
723.7700, 49174.00
724.9220, 49221.00
726.0740, 49594.00
727.2260, 49920.00
728.3780, 50234.00
729.5300, 50537.00
730.6810, 51458.00
731.8330, 51891.00
732.9840, 52834.00
734.1350, 53382.00
735.2860, 53771.00
736.4370, 54635.00
737.5880, 55430.00
738.7380, 56093.00
739.8880, 57030.00
741.0390, 57752.00
742.1890, 58499.00
743.3380, 59121.00
744.4880, 59890.00
745.6380, 60779.00
746.7870, 61159.00
747.9360, 61900.00
749.0850, 62369.00
750.2340, 62922.00
751.3830, 63108.00
752.5310, 63557.00
753.6800, 63354.00
754.8280, 63616.00
755.9760, 63505.00
757.1240, 63436.00
758.2720, 62656.00
759.4190, 62245.00
760.5670, 62206.00
761.7140, 61857.00
762.8610, 61571.00
764.0080, 61278.00
765.1550, 61230.00
766.3020, 61213.00
767.4480, 60677.00
768.5950, 60788.00
769.7410, 60498.00
770.8870, 59719.00
772.0330, 59794.00
773.1780, 59300.00
774.3240, 58701.00
775.4690, 58677.00
776.6140, 58405.00
777.7590, 58119.00
778.9040, 58159.00
780.0490, 58058.00
781.1940, 57668.00
782.3380, 57627.00
783.4820, 56861.00
784.6260, 56439.00
785.7700, 55726.00
786.9140, 54835.00
788.0580, 53685.00
789.2010, 52601.96
790.3450, 51310.00
791.4880, 49929.00
792.6310, 48659.00
793.7730, 47005.00
794.9160, 45857.00
796.0590, 44351.00
797.2010, 43311.00
798.3430, 41893.00
799.4850, 41257.00
800.6270, 40870.00
801.7690, 40073.00
802.9100, 39852.00
804.0520, 39837.00
805.1930, 39729.00
806.3340, 39570.00
807.4750, 39437.00
808.6160, 39270.00
809.7560, 39056.00
810.8970, 38505.00
812.0370, 38296.00
813.1770, 37438.02
814.3170, 36928.00
815.4570, 35643.00
816.5960, 34872.00
817.7360, 33920.00
818.8750, 33062.00
820.0140, 32270.00
821.1530, 31519.00
822.2920, 30719.00
823.4310, 30118.00
824.5690, 29482.00
825.7070, 29024.00
826.8460, 28529.00
827.9840, 27946.00
829.1220, 27530.00
830.2590, 27191.00
831.3970, 26897.00
832.5340, 26376.00
833.6710, 26055.00
834.8080, 25717.00
835.9450, 25512.00
837.0820, 25324.00
838.2190, 24856.00
839.3550, 24635.00
840.4910, 24661.00
841.6270, 24555.00
842.7630, 24173.00
843.8990, 23961.00
845.0350, 24147.00
846.1700, 24076.00
847.3060, 24105.00
848.4410, 23779.00
849.5760, 23846.00
850.7100, 23888.00
851.8450, 23785.00
852.9800, 23862.00
854.1140, 23819.00
855.2480, 23768.00
856.3820, 23668.72
857.5160, 24015.03
858.6500, 24197.90
859.7830, 24226.13
860.9170, 23636.47
862.0500, 23844.69
863.1830, 23733.16
864.3160, 23608.52
865.4480, 23929.05
866.5810, 24065.00
867.7130, 23977.00
868.8460, 24106.00
869.9780, 24096.93
871.1100, 24191.00
872.2410, 24004.00
873.3730, 23989.00
874.5050, 24000.36
875.6360, 24283.00
876.7670, 24400.00
877.8980, 24373.00
879.0290, 24449.00
880.1590, 24414.00
881.2900, 24654.00
882.4200, 24584.00
883.5500, 24738.00
884.6800, 24757.00
885.8100, 24720.00
886.9400, 24693.00
888.0690, 25007.00
889.1990, 25048.00
890.3280, 25207.00
891.4570, 25122.00
892.5860, 25391.00
893.7140, 25278.00
894.8430, 25414.00
895.9710, 25651.00
897.1000, 25700.00
898.2280, 25776.00
899.3560, 25833.00
900.4830, 25967.00
901.6110, 26015.00
902.7380, 26375.00
903.8660, 26654.00
904.9930, 26214.00
906.1200, 26555.00
907.2460, 26531.00
908.3730, 26798.00
909.5000, 26759.00
910.6260, 27115.00
911.7520, 26876.00
912.8780, 27193.00
914.0040, 27089.00
915.1290, 27264.00
916.2550, 27540.00
917.3800, 27390.00
918.5050, 27660.00
919.6300, 27542.00
920.7550, 27728.00
921.8800, 27698.00
923.0040, 27690.00
924.1290, 27761.00
925.2530, 27753.15
926.3770, 27969.00
927.5010, 27866.00
928.6250, 28073.00
929.7480, 28263.00
930.8720, 28180.00
931.9950, 28236.00
933.1180, 28385.00
934.2410, 28542.00
935.3640, 28853.00
936.4860, 28635.00
937.6090, 29019.00
938.7310, 28962.00
939.8530, 29273.00
940.9750, 29158.00
942.0970, 29330.00
943.2180, 29591.00
944.3400, 29835.00
945.4610, 29981.01
946.5820, 29938.00
947.7030, 30284.00
948.8240, 30354.00
949.9450, 30484.00
951.0650, 30797.00
952.1860, 30775.00
953.3060, 30756.00
954.4260, 31012.00
955.5460, 31181.00
956.6650, 31416.00
957.7850, 31378.00
958.9040, 31468.00
960.0230, 31502.00
961.1420, 31845.00
962.2610, 31954.00
963.3800, 32101.00
964.4990, 32433.00
965.6170, 32231.00
966.7350, 32719.00
967.8530, 32468.00
968.9710, 32660.00
970.0890, 32588.00
971.2070, 32838.00
972.3240, 32599.00
973.4410, 32768.00
974.5580, 32866.00
975.6750, 33115.00
976.7920, 32936.00
977.9090, 33301.00
979.0250, 33184.00
980.1410, 33238.00
981.2580, 33393.00
982.3740, 33276.00
983.4890, 33341.00
984.6050, 33081.00
985.7200, 33005.00
986.8360, 33118.00
987.9510, 33118.00
989.0660, 33254.00
990.1810, 33211.15
991.2950, 33186.00
992.4100, 33139.00
993.5240, 32915.00
994.6390, 32861.00
995.7530, 32830.00
996.8660, 32765.00
997.9800, 32462.00
999.0940, 32766.00
1000.207, 32508.00
1001.320, 32454.00
1002.433, 32852.00
1003.546, 32579.00
1004.659, 32340.00
1005.772, 32317.00
1006.884, 32450.00
1007.996, 32567.00
1009.108, 32355.00
1010.220, 32351.00
1011.332, 32670.00
1012.444, 32513.00
1013.555, 32599.00
1014.666, 32599.00
1015.777, 32667.00
1016.888, 32770.20
1017.999, 32973.00
1019.110, 32955.00
1020.220, 32936.00
1021.331, 32930.00
1022.441, 33163.00
1023.551, 33720.00
1024.661, 33332.00
1025.770, 33388.00
1026.880, 33789.00
1027.989, 33659.00
1029.098, 33927.00
1030.207, 34173.00
1031.316, 34151.00
1032.425, 34077.00
1033.533, 34263.00
1034.642, 34638.00
1035.750, 34617.00
1036.858, 34916.00
1037.966, 34976.00
1039.073, 35248.00
1040.181, 35500.00
1041.288, 35488.00
1042.396, 36142.00
1043.503, 35889.00
1044.610, 36129.00
1045.716, 35997.00
1046.823, 36177.00
1047.929, 36291.00
1049.036, 36234.00
1050.142, 36386.00
1051.248, 36488.00
1052.353, 36685.00
1053.459, 36222.00
1054.564, 36575.00
1055.670, 36391.00
1056.775, 36316.00
1057.880, 36604.00
1058.985, 36177.00
1060.089, 36465.00
1061.194, 36466.00
1062.298, 36444.00
1063.402, 36752.00
1064.506, 36408.00
1065.610, 36579.00
1066.713, 36536.00
1067.817, 36426.00
1068.920, 36101.00
1070.023, 36125.00
1071.126, 35993.00
1072.229, 35858.00
1073.332, 35746.00
1074.435, 35226.00
1075.537, 34940.00
1076.639, 34703.00
1077.741, 34206.00
1078.843, 34358.00
1079.945, 33931.59
1081.046, 33701.00
1082.148, 33490.00
1083.249, 33320.00
1084.350, 33292.00
1085.451, 32912.00
1086.551, 32929.00
1087.652, 32432.00
1088.752, 32602.00
1089.853, 32689.00
1090.953, 32359.00
1092.053, 32201.00
1093.152, 31935.00
1094.252, 32128.00
1095.351, 32287.00
1096.451, 32010.00
1097.550, 32058.00
1098.649, 32045.00
1099.748, 31970.00
1100.846, 31896.00
1101.945, 31859.00
1103.043, 31804.00
1104.141, 31750.00
1105.239, 31539.00
1106.337, 31536.00
1107.434, 31257.00
1108.532, 31328.00
1109.629, 31204.00
1110.726, 30829.00
1111.823, 30852.00
1112.920, 30782.00
1114.017, 30634.00
1115.113, 30616.00
1116.210, 30638.00
1117.306, 30586.00
1118.402, 30596.00
1119.498, 30239.00
1120.593, 29824.00
1121.689, 30585.00
1122.784, 30118.00
1123.879, 29924.00
1124.974, 30167.00
1126.069, 29663.00
1127.164, 29558.00
1128.259, 29299.00
1129.353, 29245.00
1130.447, 29063.59
1131.541, 29023.00
1132.635, 28835.00
1133.729, 28759.00
1134.822, 28791.00
1135.916, 28719.00
1137.009, 28665.97
1138.102, 28664.00
1139.195, 28521.00
1140.288, 28492.00
1141.380, 28396.00
1142.473, 28486.00
1143.565, 28216.00
1144.657, 28467.00
1145.749, 28353.00
1146.841, 28476.00
1147.932, 28213.00
1149.024, 28401.00
1150.115, 28278.00
1151.206, 28321.00
1152.297, 28150.00
1153.388, 28260.00
1154.479, 28233.00
1155.569, 28196.00
1156.659, 28278.00
1157.750, 28407.00
1158.839, 28330.00
1159.929, 28337.00
1161.019, 28523.00
1162.108, 28052.00
1163.198, 27953.00
1164.287, 28126.00
1165.376, 27890.00
1166.465, 28042.00
1167.553, 27810.00
1168.642, 27930.00
1169.730, 27809.00
1170.818, 27913.00
1171.906, 27839.00
1172.994, 27900.00
1174.082, 27917.00
1175.170, 27767.00
1176.257, 27843.00
1177.344, 27788.00
1178.431, 27836.00
1179.518, 27697.00
1180.605, 27735.75
1181.691, 27704.00
1182.778, 27750.00
1183.864, 27764.00
1184.950, 27790.89
1186.036, 27654.00
1187.122, 27688.00
1188.207, 27520.00
1189.292, 27371.00
1190.378, 27617.00
1191.463, 27563.00
1192.548, 27590.00
1193.632, 27538.00
1194.717, 27505.00
1195.801, 27586.00
1196.886, 27602.00
1197.970, 27560.00
1199.054, 27302.00
1200.137, 27405.00
1201.221, 27433.00
1202.305, 27554.00
1203.388, 27331.00
1204.471, 27398.00
1205.554, 27370.00
1206.637, 27502.00
1207.719, 27437.00
1208.802, 27579.00
1209.884, 27547.00
1210.966, 27531.00
1212.048, 27536.00
1213.130, 27516.00
1214.212, 27593.99
1215.293, 27629.86
1216.374, 27765.00
1217.456, 27794.00
1218.536, 27877.00
1219.617, 28008.00
1220.698, 27952.00
1221.778, 28171.00
1222.859, 28129.00
1223.939, 28386.00
1225.019, 28156.00
1226.099, 28373.00
1227.178, 28232.00
1228.258, 28339.00
1229.337, 28372.25
1230.417, 28452.88
1231.496, 28444.00
1232.574, 28677.00
1233.653, 28765.00
1234.732, 28785.00
1235.810, 29059.00
1236.888, 28966.00
1237.966, 29088.00
1239.044, 29118.00
1240.122, 29047.00
1241.199, 29113.00
1242.277, 28986.00
1243.354, 29030.00
1244.431, 29418.00
1245.508, 29286.00
1246.585, 29602.00
1247.661, 29425.00
1248.738, 29309.00
1249.814, 29427.00
1250.890, 29602.00
1251.966, 29697.00
1253.042, 29701.00
1254.117, 29708.42
1255.193, 29578.00
1256.268, 29632.00
1257.343, 29435.00
1258.418, 29496.00
1259.493, 29539.00
1260.567, 29384.00
1261.642, 29597.00
1262.716, 29280.00
1263.790, 29314.00
1264.864, 29518.00
1265.938, 29470.00
1267.011, 29414.00
1268.085, 29439.13
1269.158, 29465.00
1270.231, 29322.00
1271.304, 29403.00
1272.377, 29330.00
1273.450, 29231.00
1274.522, 29416.00
1275.594, 29442.00
1276.666, 29386.00
1277.738, 29395.68
1278.810, 29397.00
1279.882, 29188.00
1280.953, 29293.00
1282.025, 29084.00
1283.096, 29266.00
1284.167, 29187.00
1285.238, 29355.00
1286.308, 29407.00
1287.379, 29437.00
1288.449, 29431.00
