##NAMES=Dravite
##RRUFFID=R060286
##IDEAL CHEMISTRY=NaMg_3_Al_6_(Si_6_O_18_)(BO_3_)_3_(OH)_3_OH
##LOCALITY=Badakshan Province, Afghanistan
##OWNER=RRUFF
##SOURCE=Herb Obodda
##DESCRIPTION=Brown prismatic tourmaline crystal
##STATUS=The identification of this mineral has been confirmed by X-ray diffraction and chemical analysis
##URL=rruff.info/R060286
##MEASURED CHEMISTRY=(Na_0.48_Ca_0.38_[box]_0.14_)_Σ=1_(Mg_2.90_Ti_0.10_)_Σ=3_Al_6.00_(B_1.00_O_3_)_3_(Si_5.56_B_0.44_)_Σ=6_O_18_(OH)_4_; (OH) assumed from stoichiometry; B estimated by difference and charge balance
##PIN_ID=L01259
##ORIENTATION=Laser parallel to c* (0 0 1). Fiducial mark perpendicular to laser is parallel to a [1 0 0]
118.1340, 12801.00
119.3650, 12875.00
120.5960, 13023.00
121.8270, 13479.00
123.0580, 13914.00
124.2880, 14343.00
125.5190, 14227.00
126.7490, 14375.00
127.9790, 14657.00
129.2090, 14917.00
130.4390, 15224.00
131.6680, 15506.00
132.8980, 15784.00
134.1270, 15711.00
135.3560, 15849.00
136.5850, 16014.00
137.8140, 16391.00
139.0430, 16549.00
140.2710, 16778.00
141.5000, 16685.00
142.7280, 16715.00
143.9560, 16583.00
145.1840, 16748.00
146.4120, 16502.00
147.6390, 16420.00
148.8670, 16330.00
150.0940, 16055.00
151.3210, 15872.33
152.5490, 15835.00
153.7750, 15235.00
155.0020, 15032.00
156.2290, 14491.00
157.4550, 14269.00
158.6810, 13904.55
159.9080, 13683.00
161.1340, 13384.00
162.3590, 13390.00
163.5850, 13221.36
164.8110, 13161.55
166.0360, 13145.00
167.2610, 13091.00
168.4860, 13169.00
169.7110, 13125.00
170.9360, 13209.82
172.1610, 13207.00
173.3850, 13420.00
174.6100, 13563.00
175.8340, 13761.00
177.0580, 13871.00
178.2820, 14148.00
179.5050, 14366.00
180.7290, 14799.00
181.9520, 15005.00
183.1760, 15459.00
184.3990, 16061.00
185.6220, 16475.00
186.8450, 16986.00
188.0670, 17503.00
189.2900, 17926.00
190.5120, 18371.00
191.7340, 18770.06
192.9560, 19221.00
194.1780, 19535.00
195.4000, 20018.00
196.6220, 20451.00
197.8430, 20792.00
199.0640, 21488.00
200.2860, 22195.00
201.5070, 23507.00
202.7270, 24884.00
203.9480, 25947.00
205.1690, 27571.00
206.3890, 29271.00
207.6090, 31675.00
208.8290, 33714.00
210.0490, 36216.00
211.2690, 38122.00
212.4890, 39215.00
213.7080, 40239.00
214.9280, 40229.00
216.1470, 39535.00
217.3660, 37880.00
218.5850, 36752.00
219.8030, 34696.00
221.0220, 33061.00
222.2400, 31534.00
223.4590, 29946.00
224.6770, 28737.00
225.8950, 27816.00
227.1120, 27186.00
228.3300, 26836.00
229.5480, 26856.00
230.7650, 27067.00
231.9820, 27321.00
233.1990, 28125.00
234.4160, 28460.00
235.6330, 29217.00
236.8490, 30258.00
238.0660, 30801.00
239.2820, 31412.00
240.4980, 31779.00
241.7140, 31822.00
242.9300, 31392.00
244.1460, 30549.00
245.3610, 29673.00
246.5770, 28246.00
247.7920, 27037.00
249.0070, 25266.00
250.2220, 23730.00
251.4370, 22626.00
252.6510, 21365.00
253.8660, 20442.00
255.0800, 19514.00
256.2940, 18970.00
257.5080, 19090.00
258.7220, 18622.41
259.9360, 18412.18
261.1490, 18635.00
262.3630, 18043.00
263.5760, 18394.00
264.7890, 18532.00
266.0020, 18847.00
267.2150, 19312.00
268.4270, 19607.00
269.6400, 19873.00
270.8520, 20522.00
272.0640, 20941.00
273.2760, 21048.00
274.4880, 21220.00
275.7000, 21148.00
276.9120, 21053.00
278.1230, 20868.00
279.3340, 20565.00
280.5450, 20344.00
281.7560, 20009.00
282.9670, 19504.00
284.1780, 19339.00
285.3880, 18880.00
286.5980, 18435.00
287.8090, 18591.00
289.0190, 18419.00
290.2290, 18485.00
291.4380, 18241.00
292.6480, 18377.00
293.8570, 18446.00
295.0670, 18440.00
296.2760, 18286.00
297.4850, 18403.00
298.6930, 18363.00
299.9020, 17960.00
301.1110, 17838.00
302.3190, 17572.00
303.5270, 17458.00
304.7350, 17346.00
305.9430, 17226.00
307.1510, 17181.00
308.3580, 17222.00
309.5660, 17440.00
310.7730, 17422.00
311.9800, 17758.00
313.1870, 17958.00
314.3940, 18356.00
315.6010, 18651.00
316.8070, 19195.00
318.0130, 19546.00
319.2200, 19805.00
320.4260, 20533.00
321.6310, 21015.00
322.8370, 21550.00
324.0430, 22267.00
325.2480, 22680.00
326.4540, 23521.00
327.6590, 24166.00
328.8640, 25092.00
330.0680, 25752.00
331.2730, 26687.00
332.4780, 27249.00
333.6820, 27851.00
334.8860, 28286.00
336.0900, 28427.00
337.2940, 29018.00
338.4980, 28700.00
339.7010, 29067.00
340.9050, 28790.00
342.1080, 29010.00
343.3110, 28613.00
344.5140, 28745.00
345.7170, 28839.00
346.9200, 28818.00
348.1220, 29045.00
349.3240, 29478.00
350.5270, 30258.00
351.7290, 31057.00
352.9310, 31970.00
354.1320, 33040.00
355.3340, 34274.00
356.5350, 35957.00
357.7370, 37367.00
358.9380, 39448.00
360.1390, 41423.00
361.3400, 43873.00
362.5400, 46247.00
363.7410, 49225.00
364.9410, 52190.00
366.1410, 55264.00
367.3410, 57706.00
368.5410, 60286.00
369.7410, 61987.00
370.9400, 63061.00
372.1400, 63507.00
373.3390, 62933.00
374.5380, 61732.00
375.7370, 59465.00
376.9360, 56989.00
378.1350, 53951.00
379.3330, 50831.00
380.5310, 47767.00
381.7300, 44640.00
382.9280, 41804.00
384.1260, 39478.00
385.3230, 37412.00
386.5210, 35702.00
387.7180, 34116.00
388.9160, 32794.21
390.1130, 31739.00
391.3100, 30724.00
392.5060, 30073.00
393.7030, 29389.00
394.9000, 29102.00
396.0960, 28483.72
397.2920, 27918.00
398.4880, 27706.00
399.6840, 27328.00
400.8800, 27312.00
402.0750, 27098.00
403.2710, 26720.00
404.4660, 26614.00
405.6610, 26377.00
406.8560, 25966.00
408.0510, 25538.00
409.2450, 25327.00
410.4400, 24859.00
411.6340, 24447.00
412.8280, 23874.00
414.0220, 23399.00
415.2160, 22961.00
416.4100, 22536.00
417.6030, 22189.00
418.7970, 21832.00
419.9900, 21446.00
421.1830, 21494.00
422.3760, 21144.00
423.5690, 21013.00
424.7610, 20781.00
425.9540, 20820.00
427.1460, 20704.00
428.3380, 20483.00
429.5300, 20509.00
430.7220, 20749.00
431.9140, 20615.00
433.1050, 20448.00
434.2970, 20667.00
435.4880, 20610.00
436.6790, 20546.00
437.8700, 20635.00
439.0610, 20699.00
440.2510, 20685.00
441.4420, 20576.00
442.6320, 20832.00
443.8220, 20855.00
445.0120, 20697.00
446.2020, 20996.00
447.3910, 20845.00
448.5810, 20901.00
449.7700, 20896.00
450.9600, 20893.00
452.1490, 21011.00
453.3370, 20935.00
454.5260, 21117.00
455.7150, 21048.00
456.9030, 20965.00
458.0910, 21313.00
459.2800, 21420.00
460.4670, 21372.00
461.6550, 21875.00
462.8430, 21961.38
464.0300, 22419.00
465.2180, 22543.00
466.4050, 23326.00
467.5920, 23812.00
468.7790, 24537.00
469.9650, 25444.00
471.1520, 26285.00
472.3380, 27218.00
473.5250, 28054.00
474.7110, 28754.00
475.8970, 29545.00
477.0820, 30133.00
478.2680, 30569.59
479.4540, 31042.00
480.6390, 31196.00
481.8240, 31251.00
483.0090, 31395.00
484.1940, 31405.00
485.3780, 31457.00
486.5630, 31401.00
487.7470, 31161.00
488.9320, 30989.00
490.1160, 30936.00
491.3000, 30845.00
492.4830, 30647.00
493.6670, 30305.00
494.8500, 30069.03
496.0340, 29633.15
497.2170, 29389.00
498.4000, 28859.00
499.5820, 28458.00
500.7650, 28011.20
501.9480, 27628.00
503.1300, 27054.00
504.3120, 26538.00
505.4940, 26079.00
506.6760, 25477.00
507.8580, 24809.00
509.0390, 24329.00
510.2210, 23797.00
511.4020, 23464.00
512.5830, 22957.00
513.7640, 22726.00
514.9450, 22427.00
516.1250, 22055.00
517.3060, 22110.00
518.4860, 22196.00
519.6660, 22443.00
520.8460, 22595.00
522.0260, 22899.00
523.2060, 23163.00
524.3850, 23696.00
525.5650, 24205.00
526.7440, 24515.00
527.9230, 25019.00
529.1020, 25130.00
530.2810, 25611.00
531.4590, 25686.00
532.6380, 25746.00
533.8160, 25923.00
534.9940, 25880.00
536.1720, 25690.76
537.3500, 25110.00
538.5270, 25109.00
539.7050, 24761.00
540.8820, 24409.00
542.0590, 24360.00
543.2360, 23899.00
544.4130, 23652.00
545.5900, 23239.00
546.7660, 23139.00
547.9430, 22791.00
549.1190, 22582.00
550.2950, 22308.00
551.4710, 22046.00
552.6470, 21626.00
553.8220, 21357.04
554.9980, 21009.00
556.1730, 20723.00
557.3480, 20468.00
558.5230, 20188.00
559.6980, 19722.00
560.8730, 19476.00
562.0470, 19100.00
563.2220, 18876.00
564.3960, 18673.00
565.5700, 18149.00
566.7440, 17919.00
567.9170, 17590.00
569.0910, 17462.00
570.2640, 17416.00
571.4380, 16899.00
572.6110, 16786.00
573.7840, 16841.00
574.9570, 16540.00
576.1290, 16436.00
577.3020, 16205.00
578.4740, 16249.00
579.6460, 16249.00
580.8180, 16076.00
581.9900, 15949.00
583.1620, 16020.00
584.3330, 16057.00
585.5040, 16152.00
586.6760, 16064.00
587.8470, 15999.00
589.0180, 15977.00
590.1880, 16045.00
591.3590, 16179.00
592.5290, 16318.00
593.7000, 16164.00
594.8700, 16315.00
596.0400, 16191.00
597.2090, 16199.00
598.3790, 16437.00
599.5490, 16446.00
600.7180, 16528.00
601.8870, 16644.00
603.0560, 16489.00
604.2250, 16785.00
605.3940, 16712.00
606.5620, 16716.00
607.7300, 16831.00
608.8990, 16908.00
610.0670, 16978.60
611.2350, 17030.00
612.4020, 17178.00
613.5700, 17288.00
614.7370, 17440.00
615.9050, 17583.29
617.0720, 17892.00
618.2390, 17883.00
619.4060, 18086.00
620.5720, 18238.00
621.7390, 18279.00
622.9050, 18840.00
624.0710, 18940.00
625.2370, 19168.00
626.4030, 19372.00
627.5690, 19602.00
628.7340, 19928.00
629.9000, 20102.00
631.0650, 19977.00
632.2300, 19819.00
633.3950, 19734.00
634.5600, 19524.00
635.7240, 19071.00
636.8890, 18896.00
638.0530, 18648.00
639.2170, 18127.00
640.3810, 17798.00
641.5450, 17660.00
642.7080, 17618.00
643.8720, 17601.00
645.0350, 17746.00
646.1980, 17714.00
647.3610, 17877.00
648.5240, 18128.00
649.6870, 18286.00
650.8490, 18671.00
652.0120, 18969.00
653.1740, 19416.00
654.3360, 19925.00
655.4980, 20621.00
656.6600, 20768.00
657.8210, 21418.00
658.9830, 22024.00
660.1440, 22349.00
661.3050, 22942.00
662.4660, 23388.00
663.6270, 23783.00
664.7870, 24202.00
665.9480, 24575.28
667.1080, 24823.00
668.2680, 25231.00
669.4280, 25441.00
670.5880, 25608.00
671.7480, 25367.00
672.9070, 25476.00
674.0670, 25137.00
675.2260, 25052.00
676.3850, 24707.00
677.5440, 24621.00
678.7030, 24224.00
679.8610, 24015.00
681.0200, 23759.00
682.1780, 23443.00
683.3360, 23507.00
684.4940, 23205.00
685.6520, 23243.00
686.8090, 23237.00
687.9670, 23116.00
689.1240, 23591.00
690.2810, 23923.00
691.4380, 24095.00
692.5950, 24439.00
693.7520, 24728.00
694.9080, 25637.00
696.0650, 26162.00
697.2210, 26958.00
698.3770, 27602.00
699.5330, 28479.00
700.6880, 29634.00
701.8440, 30377.00
702.9990, 31631.00
704.1550, 32948.00
705.3100, 34256.00
706.4650, 35763.70
707.6190, 37301.00
708.7740, 39020.00
709.9290, 40677.00
711.0830, 42651.00
712.2370, 44780.00
713.3910, 47389.00
714.5450, 49481.00
715.6980, 51679.00
716.8520, 53989.00
718.0050, 56342.00
719.1580, 57598.00
720.3110, 58974.00
721.4640, 59475.00
722.6170, 59629.00
723.7700, 58574.00
724.9220, 57238.00
726.0740, 55136.00
727.2260, 52912.00
728.3780, 50167.00
729.5300, 47555.00
730.6810, 44652.00
731.8330, 42383.00
732.9840, 39958.00
734.1350, 38015.00
735.2860, 36571.00
736.4370, 35268.00
737.5880, 34217.00
738.7380, 33477.00
739.8880, 33061.00
741.0390, 32680.00
742.1890, 32659.00
743.3380, 32860.00
744.4880, 33207.00
745.6380, 33667.00
746.7870, 34111.00
747.9360, 34839.00
749.0850, 35653.00
750.2340, 36233.00
751.3830, 37477.00
752.5310, 37950.00
753.6800, 38925.00
754.8280, 39780.00
755.9760, 41032.00
757.1240, 41630.00
758.2720, 42391.00
759.4190, 42929.00
760.5670, 43336.00
761.7140, 43504.00
762.8610, 43646.00
764.0080, 43051.00
765.1550, 42543.00
766.3020, 41981.00
767.4480, 41419.00
768.5950, 40958.56
769.7410, 40450.06
770.8870, 40055.00
772.0330, 39539.00
773.1780, 39142.00
774.3240, 38729.00
775.4690, 38240.00
776.6140, 37852.00
777.7590, 37592.00
778.9040, 37128.00
780.0490, 36742.00
781.1940, 36571.00
782.3380, 36592.00
783.4820, 36432.00
784.6260, 36550.73
785.7700, 36488.00
786.9140, 36913.00
788.0580, 37123.00
789.2010, 37538.00
790.3450, 37711.00
791.4880, 37746.00
792.6310, 37763.00
793.7730, 37912.00
794.9160, 37699.00
796.0590, 37211.00
797.2010, 37094.00
798.3430, 36516.00
799.4850, 36386.00
800.6270, 35852.00
801.7690, 35088.00
802.9100, 34861.00
804.0520, 34060.00
805.1930, 34069.00
806.3340, 33538.00
807.4750, 33176.00
808.6160, 33230.00
809.7560, 33298.00
810.8970, 33206.00
812.0370, 33595.00
813.1770, 33435.00
814.3170, 33463.00
815.4570, 33880.00
816.5960, 33754.00
817.7360, 33654.00
818.8750, 33130.00
820.0140, 33035.00
821.1530, 32080.00
822.2920, 31408.00
823.4310, 30243.00
824.5690, 29326.00
825.7070, 28417.00
826.8460, 27080.00
827.9840, 25770.00
829.1220, 24695.00
830.2590, 23468.90
831.3970, 22466.00
832.5340, 21292.00
833.6710, 20403.00
834.8080, 19467.00
835.9450, 18486.00
837.0820, 17943.00
838.2190, 16993.00
839.3550, 16410.00
840.4910, 15852.00
841.6270, 15203.00
842.7630, 14600.00
843.8990, 14107.00
845.0350, 13673.00
846.1700, 13252.20
847.3060, 12810.00
848.4410, 12637.00
849.5760, 12361.00
850.7100, 12255.00
851.8450, 12088.00
852.9800, 11745.00
854.1140, 11824.00
855.2480, 11543.00
856.3820, 11538.00
857.5160, 11361.00
858.6500, 11407.00
859.7830, 11219.00
860.9170, 11229.00
862.0500, 11297.00
863.1830, 11225.00
864.3160, 11219.20
865.4480, 11139.00
866.5810, 11155.00
867.7130, 11092.00
868.8460, 11125.00
869.9780, 11094.00
871.1100, 11062.00
872.2410, 10992.00
873.3730, 11232.00
874.5050, 11139.00
875.6360, 11160.00
876.7670, 11084.00
877.8980, 11362.00
879.0290, 11296.00
880.1590, 11435.00
881.2900, 11408.00
882.4200, 11432.98
883.5500, 11497.00
884.6800, 11512.00
885.8100, 11483.00
886.9400, 11613.00
888.0690, 11528.00
889.1990, 11561.00
890.3280, 11657.00
891.4570, 11808.00
892.5860, 11916.00
893.7140, 11929.00
894.8430, 11933.00
895.9710, 11935.00
897.1000, 12131.00
898.2280, 12211.00
899.3560, 12280.00
900.4830, 12332.00
901.6110, 12394.00
902.7380, 12527.00
903.8660, 12508.00
904.9930, 12561.00
906.1200, 12709.00
907.2460, 12776.00
908.3730, 12836.00
909.5000, 12981.00
910.6260, 12977.00
911.7520, 13027.00
912.8780, 13051.00
914.0040, 13065.83
915.1290, 13190.00
916.2550, 13179.00
917.3800, 13227.00
918.5050, 13448.00
919.6300, 13454.00
920.7550, 13434.00
921.8800, 13689.00
923.0040, 13773.00
924.1290, 13636.00
925.2530, 13720.00
926.3770, 13789.00
927.5010, 13851.00
928.6250, 13937.00
929.7480, 14040.00
930.8720, 14100.54
931.9950, 14010.00
933.1180, 14233.00
934.2410, 14303.00
935.3640, 14346.00
936.4860, 14562.00
937.6090, 14571.00
938.7310, 14756.00
939.8530, 14949.00
940.9750, 14975.00
942.0970, 15195.00
943.2180, 15312.00
944.3400, 15349.00
945.4610, 15592.00
946.5820, 15605.00
947.7030, 15839.00
948.8240, 15970.00
949.9450, 16255.00
951.0650, 16402.63
952.1860, 16633.08
953.3060, 16763.00
954.4260, 17012.00
955.5460, 17232.00
956.6650, 17273.00
957.7850, 17431.00
958.9040, 17926.00
960.0230, 18185.00
961.1420, 18286.00
962.2610, 18408.00
963.3800, 18648.00
964.4990, 18857.00
965.6170, 19078.00
966.7350, 19343.00
967.8530, 19724.00
968.9710, 19817.00
970.0890, 20051.00
971.2070, 20548.00
972.3240, 20619.00
973.4410, 21048.00
974.5580, 21490.00
975.6750, 21593.00
976.7920, 22154.00
977.9090, 22310.98
979.0250, 22641.00
980.1410, 22639.00
981.2580, 22991.00
982.3740, 22925.00
983.4890, 22740.00
984.6050, 22707.00
985.7200, 22396.00
986.8360, 22092.00
987.9510, 22119.00
989.0660, 21781.00
990.1810, 21364.00
991.2950, 20951.00
992.4100, 20583.00
993.5240, 20239.63
994.6390, 20187.00
995.7530, 19705.00
996.8660, 19453.00
997.9800, 19402.00
999.0940, 18992.00
1000.207, 18833.00
1001.320, 18874.00
1002.433, 18594.00
1003.546, 18459.00
1004.659, 18463.00
1005.772, 18388.00
1006.884, 18389.00
1007.996, 18500.00
1009.108, 18609.00
1010.220, 18717.00
1011.332, 18937.00
1012.444, 19197.00
1013.555, 19440.85
1014.666, 19706.01
1015.777, 20084.00
1016.888, 20333.00
1017.999, 20747.00
1019.110, 21245.00
1020.220, 21327.00
1021.331, 22013.00
1022.441, 22469.00
1023.551, 22659.00
1024.661, 23025.00
1025.770, 23623.00
1026.880, 24052.00
1027.989, 24554.00
1029.098, 24944.00
1030.207, 25760.00
1031.316, 26047.00
1032.425, 26554.00
1033.533, 27373.00
1034.642, 27890.00
1035.750, 28509.00
1036.858, 29051.00
1037.966, 29935.00
1039.073, 30357.00
1040.181, 31208.00
1041.288, 31700.00
1042.396, 32287.00
1043.503, 32905.00
1044.610, 33163.00
1045.716, 33878.00
1046.823, 34088.00
1047.929, 34642.00
1049.036, 34746.00
1050.142, 35113.00
1051.248, 35380.00
1052.353, 35323.00
1053.459, 35552.00
1054.564, 35913.00
1055.670, 36341.00
1056.775, 36597.00
1057.880, 36774.00
1058.985, 37117.00
1060.089, 37864.00
1061.194, 38481.00
1062.298, 39427.00
1063.402, 39604.00
1064.506, 40537.00
1065.610, 40819.00
1066.713, 41590.00
1067.817, 41481.00
1068.920, 41489.00
1070.023, 41439.00
1071.126, 41086.00
1072.229, 40578.00
1073.332, 39850.00
1074.435, 39181.00
1075.537, 37846.00
1076.639, 36892.00
1077.741, 35694.00
1078.843, 34490.00
1079.945, 33280.00
1081.046, 32171.65
1082.148, 31137.00
1083.249, 30019.00
1084.350, 28966.00
1085.451, 27997.01
1086.551, 27134.00
1087.652, 26109.00
1088.752, 25093.00
1089.853, 24494.00
1090.953, 23768.00
1092.053, 23088.00
1093.152, 22263.00
1094.252, 21719.00
1095.351, 21144.00
1096.451, 20782.00
1097.550, 20275.00
1098.649, 19822.00
1099.748, 19427.00
1100.846, 19214.00
1101.945, 18861.00
1103.043, 18573.00
1104.141, 18160.00
1105.239, 18145.00
1106.337, 18022.00
1107.434, 17848.00
1108.532, 17550.00
1109.629, 17438.00
1110.726, 17234.00
1111.823, 17436.00
1112.920, 17074.00
1114.017, 17264.00
1115.113, 17479.00
1116.210, 17543.00
1117.306, 17606.00
1118.402, 17905.00
1119.498, 18033.00
1120.593, 18271.00
1121.689, 18600.00
1122.784, 18770.00
1123.879, 18798.00
1124.974, 19033.00
1126.069, 18940.00
1127.164, 18764.00
1128.259, 18460.00
1129.353, 18502.00
1130.447, 18374.00
1131.541, 18092.00
1132.635, 17793.00
1133.729, 17650.00
1134.822, 17480.00
1135.916, 16975.00
1137.009, 16509.00
1138.102, 16175.00
1139.195, 15723.00
1140.288, 15363.00
1141.380, 14924.00
1142.473, 14693.00
1143.565, 14354.00
1144.657, 14054.00
1145.749, 13917.00
1146.841, 13797.00
1147.932, 13720.00
1149.024, 13592.38
1150.115, 13428.00
1151.206, 13387.00
1152.297, 13354.00
1153.388, 13276.00
1154.479, 13097.00
1155.569, 13142.00
1156.659, 13131.00
1157.750, 13174.85
1158.839, 12975.00
1159.929, 13031.00
1161.019, 12991.71
1162.108, 13207.00
1163.198, 12937.00
1164.287, 13001.00
1165.376, 12886.00
1166.465, 13069.00
1167.553, 12759.00
1168.642, 12906.00
1169.730, 12964.00
1170.818, 12842.00
1171.906, 12914.00
1172.994, 12878.64
1174.082, 12872.00
1175.170, 12868.00
1176.257, 12762.00
1177.344, 12780.00
1178.431, 12825.00
1179.518, 12753.00
1180.605, 12862.00
1181.691, 12879.00
1182.778, 12726.00
1183.864, 12741.00
1184.950, 12850.00
1186.036, 12675.00
1187.122, 12790.00
1188.207, 12778.00
1189.292, 12844.00
1190.378, 12794.00
1191.463, 12800.00
1192.548, 12727.00
1193.632, 12783.00
1194.717, 12923.00
1195.801, 12658.00
1196.886, 12701.00
1197.970, 12842.00
1199.054, 12930.00
1200.137, 12956.50
1201.221, 12758.00
1202.305, 13003.00
1203.388, 12928.00
1204.471, 12935.00
1205.554, 13043.00
1206.637, 12906.00
1207.719, 12941.00
1208.802, 13199.00
1209.884, 13142.00
1210.966, 13170.00
1212.048, 13195.00
1213.130, 13277.00
1214.212, 13288.00
1215.293, 13480.00
1216.374, 13640.00
1217.456, 13664.00
1218.536, 13629.00
1219.617, 13649.00
1220.698, 13899.00
1221.778, 13879.00
1222.859, 14041.00
1223.939, 14138.00
1225.019, 14271.00
1226.099, 14249.00
1227.178, 14103.00
1228.258, 14290.00
1229.337, 14268.00
1230.417, 14437.00
1231.496, 14571.00
1232.574, 14497.00
1233.653, 14646.00
1234.732, 14649.00
1235.810, 14691.00
1236.888, 14668.00
1237.966, 14657.00
1239.044, 14593.00
1240.122, 14860.00
1241.199, 14755.00
1242.277, 14879.00
1243.354, 14899.00
1244.431, 14892.00
1245.508, 14919.00
1246.585, 14863.00
1247.661, 14993.00
1248.738, 15086.00
1249.814, 15039.00
1250.890, 14951.00
1251.966, 14963.00
1253.042, 15059.00
1254.117, 15079.00
1255.193, 14839.00
1256.268, 14986.00
1257.343, 14854.00
1258.418, 14993.00
1259.493, 14943.00
1260.567, 15067.00
1261.642, 14955.00
1262.716, 14887.00
1263.790, 15036.00
1264.864, 14980.00
1265.938, 15059.00
1267.011, 15100.00
1268.085, 14955.00
1269.158, 15073.00
1270.231, 14952.00
1271.304, 14943.00
1272.377, 14980.00
1273.450, 14777.00
1274.522, 15121.00
1275.594, 14967.00
1276.666, 14990.00
1277.738, 14866.00
1278.810, 14961.00
1279.882, 14941.00
1280.953, 14896.00
1282.025, 14932.92
1283.096, 14862.00
1284.167, 14874.00
1285.238, 14940.00
1286.308, 14805.00
1287.379, 14940.00
