##NAMES=Dravite
##RRUFFID=R050077
##IDEAL CHEMISTRY=NaMg_3_Al_6_(Si_6_O_18_)(BO_3_)_3_(OH)_3_OH
##LOCALITY=Yinnietharra Station, Western Australia, Australia
##OWNER=RRUFF
##SOURCE=Rock Currier
##DESCRIPTION=Dark brown euhedral prismatic single crystal
##STATUS=The identification of this mineral has been confirmed by X-ray diffraction and chemical analysis
##URL=rruff.info/R050077
##MEASURED CHEMISTRY=(Na_0.783_Ca_0.217_)(Mg_0.771_Fe^2+^_0.221_Ti^4+^_0.008_)_3_(Al_0.956_Mg_0.044_)_6_(BO_3_)_3_[Si_6_O_18_]((OH)_0.914_F_0.086_)_4_
##PIN_ID=L01436
##ORIENTATION=Laser parallel to c* (0 0 1). Fiducial mark perpendicular to laser is parallel to a [1 0 0]
118.1340, 47251.00
119.3650, 47081.00
120.5960, 46647.00
121.8270, 46437.00
123.0580, 46209.24
124.2880, 46946.00
125.5190, 46051.00
126.7490, 45827.00
127.9790, 46293.00
129.2090, 47570.00
130.4390, 48283.00
131.6680, 48722.00
132.8980, 48591.00
134.1270, 48773.00
135.3560, 49330.00
136.5850, 50125.00
137.8140, 51216.00
139.0430, 51538.62
140.2710, 52806.00
141.5000, 52515.00
142.7280, 52453.00
143.9560, 53054.00
145.1840, 53358.00
146.4120, 52876.00
147.6390, 53302.00
148.8670, 52927.00
150.0940, 53431.00
151.3210, 53163.43
152.5490, 53115.76
153.7750, 52579.00
155.0020, 52283.14
156.2290, 52033.00
157.4550, 51387.00
158.6810, 50992.00
159.9080, 50491.00
161.1340, 50362.00
162.3590, 50657.00
163.5850, 50481.00
164.8110, 50355.82
166.0360, 50699.00
167.2610, 49850.00
168.4860, 50114.00
169.7110, 49722.99
170.9360, 49318.34
172.1610, 49633.00
173.3850, 48631.00
174.6100, 48471.00
175.8340, 48217.00
177.0580, 48107.00
178.2820, 47846.00
179.5050, 47656.00
180.7290, 47356.00
181.9520, 47196.00
183.1760, 47118.00
184.3990, 46942.00
185.6220, 46732.00
186.8450, 46572.00
188.0670, 46181.00
189.2900, 45994.00
190.5120, 45797.00
191.7340, 45907.00
192.9560, 45651.62
194.1780, 45985.16
195.4000, 46185.14
196.6220, 46258.75
197.8430, 45827.41
199.0640, 46048.06
200.2860, 46007.45
201.5070, 45956.11
202.7270, 46268.50
203.9480, 45910.60
205.1690, 46217.25
206.3890, 46258.61
207.6090, 46645.00
208.8290, 46633.00
210.0490, 46727.00
211.2690, 46593.00
212.4890, 46692.00
213.7080, 46390.00
214.9280, 45723.00
216.1470, 45448.00
217.3660, 44285.00
218.5850, 43618.00
219.8030, 43011.00
221.0220, 42155.00
222.2400, 41757.45
223.4590, 41260.00
224.6770, 40849.00
225.8950, 40650.00
227.1120, 40169.00
228.3300, 39901.12
229.5480, 39606.00
230.7650, 39333.00
231.9820, 39471.00
233.1990, 39337.00
234.4160, 39260.00
235.6330, 38935.00
236.8490, 38939.00
238.0660, 38758.00
239.2820, 38457.00
240.4980, 37953.00
241.7140, 37520.00
242.9300, 37038.66
244.1460, 36376.00
245.3610, 36031.00
246.5770, 35395.00
247.7920, 34950.00
249.0070, 34677.00
250.2220, 34154.00
251.4370, 34125.00
252.6510, 33729.90
253.8660, 34015.13
255.0800, 34166.81
256.2940, 34192.11
257.5080, 33712.50
258.7220, 33884.88
259.9360, 33795.97
261.1490, 33696.37
262.3630, 33960.51
263.5760, 33554.36
264.7890, 33812.74
266.0020, 33598.00
267.2150, 33676.00
268.4270, 33487.00
269.6400, 33673.00
270.8520, 33474.00
272.0640, 33552.00
273.2760, 33348.00
274.4880, 33279.18
275.7000, 33195.00
276.9120, 33080.00
278.1230, 32665.00
279.3340, 32538.00
280.5450, 32395.00
281.7560, 32358.00
282.9670, 31849.00
284.1780, 31866.00
285.3880, 31653.00
286.5980, 31377.00
287.8090, 31536.00
289.0190, 30924.00
290.2290, 31188.00
291.4380, 31028.00
292.6480, 30854.79
293.8570, 30938.78
295.0670, 30619.00
296.2760, 30901.00
297.4850, 30710.00
298.6930, 30731.00
299.9020, 30692.00
301.1110, 30601.00
302.3190, 30512.00
303.5270, 30555.93
304.7350, 30764.00
305.9430, 30658.00
307.1510, 30900.00
308.3580, 30996.00
309.5660, 31015.00
310.7730, 31208.00
311.9800, 31321.79
313.1870, 31490.18
314.3940, 31691.00
315.6010, 31836.00
316.8070, 32105.00
318.0130, 32194.00
319.2200, 32468.00
320.4260, 32584.00
321.6310, 32884.00
322.8370, 33343.00
324.0430, 33366.00
325.2480, 33761.00
326.4540, 34199.00
327.6590, 34374.00
328.8640, 34680.00
330.0680, 35045.00
331.2730, 35055.00
332.4780, 35455.00
333.6820, 35568.00
334.8860, 35702.00
336.0900, 36066.00
337.2940, 36097.00
338.4980, 36048.00
339.7010, 35959.00
340.9050, 36421.00
342.1080, 36388.00
343.3110, 36625.00
344.5140, 36405.00
345.7170, 36827.00
346.9200, 36692.00
348.1220, 36530.00
349.3240, 37109.00
350.5270, 36944.00
351.7290, 37427.00
352.9310, 37742.00
354.1320, 37923.00
355.3340, 38232.00
356.5350, 38422.00
357.7370, 38772.00
358.9380, 39183.00
360.1390, 39757.00
361.3400, 40197.00
362.5400, 41046.00
363.7410, 41523.00
364.9410, 42198.00
366.1410, 43094.00
367.3410, 43468.00
368.5410, 44003.00
369.7410, 44380.00
370.9400, 44644.00
372.1400, 44705.00
373.3390, 44599.68
374.5380, 44191.00
375.7370, 43929.00
376.9360, 43194.00
378.1350, 42517.00
379.3330, 42053.00
380.5310, 41551.00
381.7300, 40933.00
382.9280, 40472.00
384.1260, 40042.00
385.3230, 39446.00
386.5210, 39139.00
387.7180, 38788.00
388.9160, 38566.00
390.1130, 38475.00
391.3100, 38298.00
392.5060, 37881.00
393.7030, 37805.00
394.9000, 37513.00
396.0960, 37296.00
397.2920, 36949.00
398.4880, 36854.00
399.6840, 36461.00
400.8800, 36255.00
402.0750, 36057.00
403.2710, 36278.00
404.4660, 35891.00
405.6610, 35859.00
406.8560, 35943.00
408.0510, 35699.00
409.2450, 35694.80
410.4400, 35500.00
411.6340, 35469.00
412.8280, 35328.13
414.0220, 35148.00
415.2160, 35127.00
416.4100, 35133.00
417.6030, 34870.00
418.7970, 34727.71
419.9900, 34642.00
421.1830, 34407.00
422.3760, 34388.00
423.5690, 34182.30
424.7610, 34116.00
425.9540, 33955.00
427.1460, 33802.00
428.3380, 33939.00
429.5300, 33659.00
430.7220, 33763.00
431.9140, 33746.00
433.1050, 33482.00
434.2970, 33590.00
435.4880, 33374.00
436.6790, 33276.00
437.8700, 33401.00
439.0610, 33267.00
440.2510, 33556.00
441.4420, 33390.00
442.6320, 33183.00
443.8220, 33348.00
445.0120, 33505.00
446.2020, 33522.00
447.3910, 33379.00
448.5810, 33290.00
449.7700, 33483.00
450.9600, 33529.00
452.1490, 33316.00
453.3370, 33292.00
454.5260, 33318.00
455.7150, 33291.00
456.9030, 33320.38
458.0910, 33569.00
459.2800, 33423.00
460.4670, 33759.00
461.6550, 33941.00
462.8430, 33808.00
464.0300, 34173.00
465.2180, 34094.00
466.4050, 34236.00
467.5920, 34197.00
468.7790, 34616.00
469.9650, 34786.00
471.1520, 34909.00
472.3380, 35215.00
473.5250, 35192.00
474.7110, 35298.00
475.8970, 35391.00
477.0820, 35316.00
478.2680, 35703.00
479.4540, 35978.00
480.6390, 35737.00
481.8240, 35880.00
483.0090, 36129.00
484.1940, 36183.00
485.3780, 36123.00
486.5630, 36290.00
487.7470, 36139.00
488.9320, 36206.00
490.1160, 36444.00
491.3000, 36180.00
492.4830, 36400.00
493.6670, 36301.00
494.8500, 36343.00
496.0340, 36250.00
497.2170, 36210.96
498.4000, 36027.00
499.5820, 36075.00
500.7650, 36063.00
501.9480, 35931.00
503.1300, 36022.00
504.3120, 35955.00
505.4940, 35568.00
506.6760, 35485.00
507.8580, 35288.00
509.0390, 35683.00
510.2210, 35257.00
511.4020, 35496.00
512.5830, 35495.00
513.7640, 35383.00
514.9450, 35306.00
516.1250, 35425.33
517.3060, 35507.00
518.4860, 35692.00
519.6660, 35759.00
520.8460, 35925.00
522.0260, 36317.00
523.2060, 36571.00
524.3850, 36957.00
525.5650, 37076.44
526.7440, 37067.00
527.9230, 37336.00
529.1020, 37409.00
530.2810, 37641.00
531.4590, 37950.00
532.6380, 38223.00
533.8160, 38126.00
534.9940, 38231.00
536.1720, 38398.00
537.3500, 38396.00
538.5270, 38607.00
539.7050, 38811.00
540.8820, 38878.02
542.0590, 38924.00
543.2360, 39056.00
544.4130, 38959.00
545.5900, 38909.00
546.7660, 38886.00
547.9430, 38909.00
549.1190, 38967.00
550.2950, 38822.00
551.4710, 38717.00
552.6470, 38482.00
553.8220, 38588.00
554.9980, 38335.00
556.1730, 38046.00
557.3480, 38086.00
558.5230, 38111.00
559.6980, 37914.00
560.8730, 37691.00
562.0470, 37457.00
563.2220, 37631.00
564.3960, 37395.00
565.5700, 37546.00
566.7440, 37024.00
567.9170, 37085.00
569.0910, 37093.00
570.2640, 37269.00
571.4380, 37254.00
572.6110, 37309.00
573.7840, 37054.00
574.9570, 36792.00
576.1290, 36974.00
577.3020, 36906.00
578.4740, 36851.00
579.6460, 36676.00
580.8180, 36627.00
581.9900, 36378.00
583.1620, 36539.00
584.3330, 36514.00
585.5040, 36611.00
586.6760, 36405.00
587.8470, 36368.00
589.0180, 36310.00
590.1880, 36402.00
591.3590, 36087.00
592.5290, 36262.00
593.7000, 36034.00
594.8700, 36332.00
596.0400, 35967.00
597.2090, 35964.00
598.3790, 35797.00
599.5490, 35920.00
600.7180, 35709.00
601.8870, 35797.00
603.0560, 35460.00
604.2250, 35676.00
605.3940, 35692.00
606.5620, 35732.00
607.7300, 35556.00
608.8990, 35501.00
610.0670, 35549.00
611.2350, 35809.00
612.4020, 35729.00
613.5700, 35780.21
614.7370, 35795.52
615.9050, 35829.00
617.0720, 35872.17
618.2390, 35957.00
619.4060, 35905.00
620.5720, 35969.00
621.7390, 35880.00
622.9050, 35880.00
624.0710, 35795.00
625.2370, 35832.00
626.4030, 35288.00
627.5690, 35663.00
628.7340, 35238.00
629.9000, 35253.00
631.0650, 35083.00
632.2300, 35035.00
633.3950, 34435.00
634.5600, 34332.00
635.7240, 34053.00
636.8890, 33835.00
638.0530, 33916.00
639.2170, 33705.00
640.3810, 33774.00
641.5450, 33860.00
642.7080, 33881.00
643.8720, 33986.00
645.0350, 34169.13
646.1980, 34180.00
647.3610, 34516.00
648.5240, 34473.00
649.6870, 34455.00
650.8490, 34965.00
652.0120, 35178.00
653.1740, 35531.00
654.3360, 36004.00
655.4980, 36495.00
656.6600, 36320.00
657.8210, 36923.00
658.9830, 37118.00
660.1440, 37059.00
661.3050, 37292.00
662.4660, 37159.00
663.6270, 36921.00
664.7870, 36989.00
665.9480, 36695.00
667.1080, 36319.00
668.2680, 36367.00
669.4280, 36212.00
670.5880, 35952.00
671.7480, 35840.62
672.9070, 35385.00
674.0670, 35386.00
675.2260, 35320.00
676.3850, 35041.00
677.5440, 35091.00
678.7030, 35111.00
679.8610, 35208.00
681.0200, 35262.00
682.1780, 35397.00
683.3360, 35452.00
684.4940, 35607.00
685.6520, 35969.00
686.8090, 35996.00
687.9670, 36168.00
689.1240, 36450.00
690.2810, 36563.00
691.4380, 36999.00
692.5950, 37269.92
693.7520, 37547.00
694.9080, 38006.00
696.0650, 38364.00
697.2210, 38792.00
698.3770, 39294.00
699.5330, 39533.00
700.6880, 40094.00
701.8440, 40563.00
702.9990, 40824.00
704.1550, 41781.00
705.3100, 42060.00
706.4650, 42669.00
707.6190, 43573.62
708.7740, 44739.00
709.9290, 45498.00
711.0830, 46112.00
712.2370, 47404.00
713.3910, 48308.00
714.5450, 49196.00
715.6980, 50631.00
716.8520, 51780.00
718.0050, 52901.00
719.1580, 54017.00
720.3110, 54926.00
721.4640, 55818.00
722.6170, 55983.00
723.7700, 56257.00
724.9220, 56639.00
726.0740, 55856.00
727.2260, 56104.00
728.3780, 55204.00
729.5300, 55069.00
730.6810, 54577.00
731.8330, 54693.00
732.9840, 54422.00
734.1350, 54304.00
735.2860, 54705.00
736.4370, 54386.00
737.5880, 54946.00
738.7380, 55466.00
739.8880, 55689.00
741.0390, 56102.00
742.1890, 56553.00
743.3380, 56652.00
744.4880, 57007.00
745.6380, 57314.00
746.7870, 57472.00
747.9360, 57683.64
749.0850, 57825.74
750.2340, 57849.71
751.3830, 57818.00
752.5310, 57693.00
753.6800, 57611.00
754.8280, 57527.00
755.9760, 57684.00
757.1240, 57585.00
758.2720, 57747.00
759.4190, 57530.00
760.5670, 57411.00
761.7140, 57924.00
762.8610, 57335.00
764.0080, 57377.00
765.1550, 57089.00
766.3020, 57270.00
767.4480, 56742.00
768.5950, 56664.00
769.7410, 56577.00
770.8870, 55971.00
772.0330, 55986.00
773.1780, 55096.00
774.3240, 54712.89
775.4690, 54327.00
776.6140, 53780.00
777.7590, 53348.00
778.9040, 53299.00
780.0490, 53291.00
781.1940, 52713.00
782.3380, 52434.00
783.4820, 52138.00
784.6260, 51637.00
785.7700, 51237.00
786.9140, 50565.00
788.0580, 49880.00
789.2010, 49184.00
790.3450, 48108.00
791.4880, 46990.00
792.6310, 46217.00
793.7730, 44859.00
794.9160, 44053.00
796.0590, 43063.00
797.2010, 42163.00
798.3430, 41223.00
799.4850, 40302.00
800.6270, 39800.00
801.7690, 39331.00
802.9100, 38864.00
804.0520, 39024.00
805.1930, 38786.00
806.3340, 38543.00
807.4750, 38361.00
808.6160, 38158.00
809.7560, 37955.00
810.8970, 37790.00
812.0370, 37451.00
813.1770, 36705.00
814.3170, 36482.00
815.4570, 35601.00
816.5960, 35318.00
817.7360, 34720.00
818.8750, 34210.00
820.0140, 33910.00
821.1530, 33161.00
822.2920, 32613.00
823.4310, 32144.00
824.5690, 31690.00
825.7070, 31255.00
826.8460, 31153.00
827.9840, 30920.00
829.1220, 30580.00
830.2590, 30085.00
831.3970, 30071.00
832.5340, 29447.00
833.6710, 29343.00
834.8080, 29206.00
835.9450, 28806.00
837.0820, 28611.00
838.2190, 28513.00
839.3550, 28375.00
840.4910, 28432.00
841.6270, 28418.00
842.7630, 28231.00
843.8990, 28057.00
845.0350, 27941.00
846.1700, 27940.00
847.3060, 28094.00
848.4410, 27851.00
849.5760, 27837.00
850.7100, 27761.00
851.8450, 27657.00
852.9800, 27713.00
854.1140, 27899.00
855.2480, 27961.00
856.3820, 27732.00
857.5160, 27936.00
858.6500, 27707.00
859.7830, 27787.00
860.9170, 27881.00
862.0500, 27772.00
863.1830, 27815.10
864.3160, 27927.00
865.4480, 27769.00
866.5810, 27914.00
867.7130, 27952.00
868.8460, 28112.00
869.9780, 28054.00
871.1100, 28226.00
872.2410, 27952.00
873.3730, 28258.00
874.5050, 28283.00
875.6360, 28382.00
876.7670, 28166.00
877.8980, 28276.00
879.0290, 28341.00
880.1590, 28410.00
881.2900, 28437.00
882.4200, 28787.00
883.5500, 28562.00
884.6800, 28917.00
885.8100, 28855.00
886.9400, 28788.00
888.0690, 29199.00
889.1990, 29218.00
890.3280, 28936.00
891.4570, 28943.00
892.5860, 29349.00
893.7140, 29222.00
894.8430, 29311.00
895.9710, 29342.00
897.1000, 29520.00
898.2280, 29713.00
899.3560, 29737.00
900.4830, 29953.00
901.6110, 30032.00
902.7380, 29951.00
903.8660, 30198.00
904.9930, 29922.00
906.1200, 30060.00
907.2460, 30150.00
908.3730, 30430.00
909.5000, 30478.00
910.6260, 30740.00
911.7520, 30426.00
912.8780, 30777.00
914.0040, 30762.00
915.1290, 30953.00
916.2550, 30892.00
917.3800, 30847.00
918.5050, 30833.00
919.6300, 31230.00
920.7550, 31103.00
921.8800, 31576.00
923.0040, 31236.00
924.1290, 31397.00
925.2530, 31445.00
926.3770, 31603.00
927.5010, 31536.00
928.6250, 31687.00
929.7480, 31711.00
930.8720, 31849.00
931.9950, 31741.00
933.1180, 31957.00
934.2410, 31869.00
935.3640, 32255.00
936.4860, 32329.00
937.6090, 32391.00
938.7310, 32512.00
939.8530, 32556.00
940.9750, 32657.00
942.0970, 33059.00
943.2180, 32974.00
944.3400, 33312.00
945.4610, 33812.00
946.5820, 33513.00
947.7030, 33534.00
948.8240, 33620.00
949.9450, 33845.00
951.0650, 33782.00
952.1860, 33855.00
953.3060, 34044.00
954.4260, 34071.81
955.5460, 34316.00
956.6650, 34344.00
957.7850, 34463.00
958.9040, 34710.00
960.0230, 34934.00
961.1420, 34988.00
962.2610, 35036.00
963.3800, 35161.00
964.4990, 35211.48
965.6170, 35242.00
966.7350, 35396.00
967.8530, 35481.00
968.9710, 35638.00
970.0890, 35511.00
971.2070, 35836.00
972.3240, 35763.00
973.4410, 35952.00
974.5580, 36028.00
975.6750, 36116.00
976.7920, 35994.00
977.9090, 36079.00
979.0250, 36242.00
980.1410, 36455.00
981.2580, 36437.00
982.3740, 36234.00
983.4890, 36183.00
984.6050, 36472.00
985.7200, 36262.00
986.8360, 36294.00
987.9510, 36447.00
989.0660, 36308.00
990.1810, 36675.00
991.2950, 36232.00
992.4100, 36615.00
993.5240, 36276.00
994.6390, 36275.00
995.7530, 36133.00
996.8660, 36144.00
997.9800, 36105.00
999.0940, 35888.00
1000.207, 35787.00
1001.320, 35843.00
1002.433, 35897.00
1003.546, 35998.00
1004.659, 36039.00
1005.772, 35981.54
1006.884, 35802.00
1007.996, 35836.00
1009.108, 35723.00
1010.220, 35696.00
1011.332, 35813.00
1012.444, 35996.00
1013.555, 35909.00
1014.666, 35788.00
1015.777, 36241.00
1016.888, 36180.00
1017.999, 36484.00
1019.110, 36303.00
1020.220, 36607.00
1021.331, 36539.00
1022.441, 36840.00
1023.551, 36766.00
1024.661, 36769.00
1025.770, 36906.00
1026.880, 37051.00
1027.989, 37066.00
1029.098, 37224.00
1030.207, 37437.00
1031.316, 37384.00
1032.425, 37639.00
1033.533, 37916.00
1034.642, 38056.00
1035.750, 37807.00
1036.858, 38387.00
1037.966, 38519.00
1039.073, 38459.00
1040.181, 38835.00
1041.288, 38697.00
1042.396, 39126.00
1043.503, 39254.00
1044.610, 39524.00
1045.716, 39236.00
1046.823, 39765.00
1047.929, 39599.00
1049.036, 39575.00
1050.142, 39662.00
1051.248, 39871.00
1052.353, 39703.00
1053.459, 39758.00
1054.564, 39882.00
1055.670, 39629.00
1056.775, 39471.00
1057.880, 39745.00
1058.985, 39639.00
1060.089, 39812.00
1061.194, 40002.00
1062.298, 39976.51
1063.402, 40030.00
1064.506, 40089.00
1065.610, 39799.00
1066.713, 39859.00
1067.817, 39775.00
1068.920, 39928.00
1070.023, 39624.00
1071.126, 39357.00
1072.229, 39164.00
1073.332, 39084.00
1074.435, 38997.00
1075.537, 38637.00
1076.639, 38403.00
1077.741, 38026.00
1078.843, 37988.00
1079.945, 37688.00
1081.046, 37598.00
1082.148, 37414.00
1083.249, 36869.00
1084.350, 37057.00
1085.451, 37009.00
1086.551, 37105.00
1087.652, 36673.00
1088.752, 36409.00
1089.853, 36463.00
1090.953, 36168.00
1092.053, 36196.00
1093.152, 36149.00
1094.252, 36170.00
1095.351, 36173.00
1096.451, 36016.00
1097.550, 36072.00
1098.649, 35793.00
1099.748, 35843.00
1100.846, 35809.93
1101.945, 35776.00
1103.043, 35869.00
1104.141, 35580.00
1105.239, 35676.00
1106.337, 35354.00
1107.434, 35355.00
1108.532, 35452.00
1109.629, 35301.00
1110.726, 35093.00
1111.823, 35033.00
1112.920, 34862.00
1114.017, 35034.00
1115.113, 35148.00
1116.210, 35517.00
1117.306, 35524.00
1118.402, 35499.58
1119.498, 35726.00
1120.593, 35202.00
1121.689, 35228.00
1122.784, 34982.00
1123.879, 34571.00
1124.974, 34757.00
1126.069, 34479.00
1127.164, 34160.00
1128.259, 33809.00
1129.353, 33593.00
1130.447, 33125.00
1131.541, 33308.00
1132.635, 32768.00
1133.729, 32866.00
1134.822, 33051.00
1135.916, 32637.00
1137.009, 32791.00
1138.102, 32584.00
1139.195, 32473.00
1140.288, 32815.00
1141.380, 32683.00
1142.473, 32521.00
1143.565, 32441.00
1144.657, 32351.00
1145.749, 32335.00
1146.841, 32255.00
1147.932, 32309.00
1149.024, 32360.00
1150.115, 32626.00
1151.206, 32388.00
1152.297, 32326.00
1153.388, 32015.00
1154.479, 32251.00
1155.569, 32280.00
1156.659, 32144.00
1157.750, 32264.00
1158.839, 32143.00
1159.929, 32190.00
1161.019, 32012.00
1162.108, 32081.00
1163.198, 32308.00
1164.287, 32235.00
1165.376, 32085.00
1166.465, 32236.00
1167.553, 31796.00
1168.642, 31833.00
1169.730, 32180.00
1170.818, 31737.00
1171.906, 31841.00
1172.994, 31880.00
1174.082, 31887.00
1175.170, 32005.00
1176.257, 32157.00
1177.344, 31880.00
1178.431, 31899.00
1179.518, 31955.00
1180.605, 31766.00
1181.691, 31934.00
1182.778, 31723.00
1183.864, 31779.00
1184.950, 31879.00
1186.036, 31868.00
1187.122, 31695.00
1188.207, 31809.00
1189.292, 31697.00
1190.378, 32110.00
1191.463, 31808.00
1192.548, 31513.00
1193.632, 32306.00
1194.717, 31625.00
1195.801, 31621.00
1196.886, 31735.00
1197.970, 31887.00
1199.054, 31643.00
1200.137, 31900.00
1201.221, 31621.00
1202.305, 31533.00
1203.388, 31824.00
1204.471, 31714.00
1205.554, 31649.00
1206.637, 31739.00
1207.719, 31859.00
1208.802, 31891.00
1209.884, 31774.00
1210.966, 31961.00
1212.048, 31712.00
1213.130, 31920.00
1214.212, 31828.00
1215.293, 32142.00
1216.374, 32104.00
1217.456, 32123.00
1218.536, 32146.00
1219.617, 32256.00
1220.698, 32191.00
1221.778, 32279.00
1222.859, 32352.00
1223.939, 32327.00
1225.019, 32408.11
1226.099, 32640.00
1227.178, 32451.00
1228.258, 32478.00
1229.337, 32415.00
1230.417, 32714.00
1231.496, 32664.00
1232.574, 32821.00
1233.653, 33076.00
1234.732, 32988.78
1235.810, 33102.00
1236.888, 32746.81
1237.966, 33066.21
1239.044, 33252.05
1240.122, 33311.52
1241.199, 32866.06
1242.277, 33072.60
1243.354, 33017.84
1244.431, 32952.36
1245.508, 33250.65
1246.585, 32878.63
1247.661, 33171.14
1248.738, 33198.39
1249.814, 33347.03
1250.890, 33232.77
1251.966, 33199.72
1253.042, 33429.65
1254.117, 33513.95
1255.193, 33369.43
1256.268, 33525.77
1257.343, 33144.54
1258.418, 33235.04
1259.493, 33529.08
1260.567, 33397.75
1261.642, 33558.90
1262.716, 33608.66
1263.790, 33152.19
1264.864, 33576.09
1265.938, 33619.26
1267.011, 33271.49
1268.085, 33665.22
1269.158, 33371.35
1270.231, 33322.91
1271.304, 33459.16
1272.377, 33402.87
1273.450, 33650.15
1274.522, 33604.97
1275.594, 33533.66
1276.666, 33576.38
1277.738, 33295.97
1278.810, 33615.02
1279.882, 33524.59
1280.953, 33637.69
1282.025, 33796.94
1283.096, 33602.92
1284.167, 33782.88
1285.238, 33382.88
1286.308, 33468.15
1287.379, 33501.17
1288.449, 33844.36
1289.519, 33447.17
