##NAMES=Dravite
##RRUFFID=R060534
##IDEAL CHEMISTRY=NaMg_3_Al_6_(Si_6_O_18_)(BO_3_)_3_(OH)_3_OH
##LOCALITY=Sri Lanka
##OWNER=RRUFF
##SOURCE=Gemological Institute of America
##DESCRIPTION=Black trigonal prism
##STATUS=The identification of this mineral has been confirmed by X-ray diffraction and chemical analysis
##URL=rruff.info/R060534
##MEASURED CHEMISTRY=(Na_0.79_Ca_0.21_)(Mg_0.68_Fe^2+^_0.29_Ti_0.02_Al_0.01_)_3_Al_6.00_(BO_3_)_3_(Si_0.95_Al_005_)_6.00_O_18_(OH)_4_
##PIN_ID=L01032
##ORIENTATION=Laser parallel to c* (0 0 1). Fiducial mark perpendicular to laser is parallel to a [1 0 0]
297.4850, 25955.00
298.6930, 25866.00
299.9020, 25866.00
301.1110, 25842.00
302.3190, 25873.00
303.5270, 25973.00
304.7350, 25778.00
305.9430, 26051.00
307.1510, 26175.00
308.3580, 26035.19
309.5660, 26201.35
310.7730, 25929.00
311.9800, 26193.00
313.1870, 26333.00
314.3940, 26217.00
315.6010, 26422.00
316.8070, 26458.00
318.0130, 26590.00
319.2200, 26829.00
320.4260, 27064.00
321.6310, 27200.00
322.8370, 27426.00
324.0430, 27667.00
325.2480, 27719.00
326.4540, 28119.00
327.6590, 28085.00
328.8640, 28592.00
330.0680, 28683.00
331.2730, 28837.00
332.4780, 29335.00
333.6820, 29579.00
334.8860, 29237.00
336.0900, 29205.00
337.2940, 29418.00
338.4980, 29376.00
339.7010, 29418.00
340.9050, 29325.00
342.1080, 29447.00
343.3110, 29643.00
344.5140, 29617.00
345.7170, 29746.00
346.9200, 29555.00
348.1220, 29694.00
349.3240, 29862.00
350.5270, 29593.00
351.7290, 29561.00
352.9310, 29893.00
354.1320, 29946.00
355.3340, 30135.00
356.5350, 30317.00
357.7370, 30486.00
358.9380, 30692.00
360.1390, 31230.00
361.3400, 31578.00
362.5400, 31875.00
363.7410, 32465.00
364.9410, 32564.00
366.1410, 33156.00
367.3410, 33711.00
368.5410, 33779.00
369.7410, 33956.00
370.9400, 33961.00
372.1400, 33878.00
373.3390, 33607.00
374.5380, 33496.00
375.7370, 32884.00
376.9360, 32590.00
378.1350, 32477.00
379.3330, 32165.00
380.5310, 31887.00
381.7300, 31690.97
382.9280, 31448.09
384.1260, 31369.00
385.3230, 30940.00
386.5210, 31080.00
387.7180, 30609.00
388.9160, 30419.00
390.1130, 30209.00
391.3100, 29980.90
392.5060, 30053.11
393.7030, 30039.44
394.9000, 29944.59
396.0960, 29525.54
397.2920, 29525.26
398.4880, 29357.15
399.6840, 29182.17
400.8800, 29240.83
402.0750, 28869.05
403.2710, 28924.01
404.4660, 28808.68
405.6610, 28771.33
406.8560, 28565.13
408.0510, 28411.08
409.2450, 28426.04
410.4400, 28197.00
411.6340, 27948.00
412.8280, 27885.00
414.0220, 27723.00
415.2160, 27748.00
416.4100, 27563.00
417.6030, 27441.00
418.7970, 27531.00
419.9900, 27397.00
421.1830, 27392.00
422.3760, 27203.00
423.5690, 26974.00
424.7610, 27215.00
425.9540, 27050.00
427.1460, 27072.00
428.3380, 26946.00
429.5300, 26796.00
430.7220, 26803.00
431.9140, 26940.00
433.1050, 26566.00
434.2970, 26914.00
435.4880, 26669.00
436.6790, 26439.00
437.8700, 26662.62
439.0610, 26778.00
440.2510, 26718.00
441.4420, 26616.00
442.6320, 26357.00
443.8220, 26454.00
445.0120, 26481.07
446.2020, 26673.71
447.3910, 26780.57
448.5810, 26806.25
449.7700, 26507.63
450.9600, 26627.78
452.1490, 26580.10
453.3370, 26525.55
454.5260, 26704.64
455.7150, 26453.20
456.9030, 26462.00
458.0910, 26689.00
459.2800, 26647.98
460.4670, 26655.65
461.6550, 26773.00
462.8430, 26665.00
464.0300, 26738.00
465.2180, 26751.00
466.4050, 27130.00
467.5920, 26851.00
468.7790, 26894.00
469.9650, 27220.00
471.1520, 27182.00
472.3380, 27115.00
473.5250, 27278.00
474.7110, 27270.35
475.8970, 27335.00
477.0820, 27445.00
478.2680, 27618.00
479.4540, 27765.00
480.6390, 27843.00
481.8240, 27762.00
483.0090, 27920.00
484.1940, 28019.00
485.3780, 27982.00
486.5630, 28196.00
487.7470, 28268.00
488.9320, 28208.00
490.1160, 28261.05
491.3000, 28465.00
492.4830, 28133.00
493.6670, 28399.00
494.8500, 28282.00
496.0340, 28333.00
497.2170, 28403.00
498.4000, 28432.00
499.5820, 28438.00
500.7650, 28392.85
501.9480, 28359.00
503.1300, 28242.59
504.3120, 28209.72
505.4940, 28145.00
506.6760, 28147.00
507.8580, 28135.00
509.0390, 28114.00
510.2210, 27851.00
511.4020, 27930.00
512.5830, 28027.00
513.7640, 28230.00
514.9450, 27800.00
516.1250, 27956.00
517.3060, 27803.00
518.4860, 28002.00
519.6660, 28186.00
520.8460, 28110.00
522.0260, 28046.00
523.2060, 28295.00
524.3850, 28557.00
525.5650, 28569.00
526.7440, 28580.00
527.9230, 28655.00
529.1020, 28749.00
530.2810, 28832.30
531.4590, 28956.65
532.6380, 29025.00
533.8160, 29195.00
534.9940, 29226.00
536.1720, 29288.00
537.3500, 29200.00
538.5270, 29349.00
539.7050, 29258.00
540.8820, 29334.00
542.0590, 29565.00
543.2360, 29266.00
544.4130, 29476.00
545.5900, 29405.00
546.7660, 29381.00
547.9430, 29263.00
549.1190, 29199.00
550.2950, 29328.00
551.4710, 29271.00
552.6470, 29283.00
553.8220, 29060.00
554.9980, 29121.00
556.1730, 28851.00
557.3480, 28920.00
558.5230, 28798.00
559.6980, 28756.00
560.8730, 28532.00
562.0470, 28564.00
563.2220, 28509.00
564.3960, 28521.00
565.5700, 28487.00
566.7440, 28449.21
567.9170, 28262.00
569.0910, 28333.00
570.2640, 28187.00
571.4380, 28037.00
572.6110, 28077.00
573.7840, 28016.00
574.9570, 27940.00
576.1290, 27902.00
577.3020, 27778.00
578.4740, 27623.00
579.6460, 27617.07
580.8180, 27427.00
581.9900, 27508.00
583.1620, 27511.00
584.3330, 27359.00
585.5040, 27415.00
586.6760, 27498.00
587.8470, 27487.00
589.0180, 27372.00
590.1880, 27459.00
591.3590, 27132.00
592.5290, 27104.00
593.7000, 26973.00
594.8700, 27181.00
596.0400, 27172.00
597.2090, 26937.00
598.3790, 26796.00
599.5490, 26884.00
600.7180, 26885.00
601.8870, 26762.00
603.0560, 26595.00
604.2250, 26529.00
605.3940, 26634.00
606.5620, 26587.00
607.7300, 26714.00
608.8990, 26524.00
610.0670, 26689.00
611.2350, 26468.00
612.4020, 26576.00
613.5700, 26526.00
614.7370, 26361.00
615.9050, 26320.00
617.0720, 26407.00
618.2390, 26453.00
619.4060, 26464.00
620.5720, 26387.00
621.7390, 26493.00
622.9050, 26302.00
624.0710, 26278.00
625.2370, 26255.00
626.4030, 26105.00
627.5690, 25956.00
628.7340, 25892.00
629.9000, 25933.00
631.0650, 25779.00
632.2300, 25658.00
633.3950, 25796.00
634.5600, 25569.00
635.7240, 25323.00
636.8890, 25328.00
638.0530, 25288.00
639.2170, 25314.00
640.3810, 25308.36
641.5450, 25204.00
642.7080, 25315.00
643.8720, 25339.00
645.0350, 25323.00
646.1980, 25191.00
647.3610, 25321.00
648.5240, 25383.00
649.6870, 25516.00
650.8490, 25521.00
652.0120, 25621.00
653.1740, 25558.00
654.3360, 25778.00
655.4980, 25940.00
656.6600, 25820.00
657.8210, 26033.00
658.9830, 26178.00
660.1440, 26317.00
661.3050, 26333.00
662.4660, 26541.00
663.6270, 26303.00
664.7870, 26592.00
665.9480, 26572.00
667.1080, 26360.00
668.2680, 26374.00
669.4280, 26209.00
670.5880, 25786.00
671.7480, 25893.00
672.9070, 25692.00
674.0670, 25848.00
675.2260, 25751.00
676.3850, 25562.00
677.5440, 25399.00
678.7030, 25592.00
679.8610, 25350.00
681.0200, 25234.00
682.1780, 25438.00
683.3360, 25503.00
684.4940, 25697.00
685.6520, 25732.97
686.8090, 25735.00
687.9670, 25855.00
689.1240, 25700.00
690.2810, 25862.00
691.4380, 25948.00
692.5950, 26192.00
693.7520, 26372.00
694.9080, 26769.00
696.0650, 26745.00
697.2210, 26900.00
698.3770, 26900.00
699.5330, 27110.00
700.6880, 27693.00
701.8440, 28111.00
702.9990, 28055.00
704.1550, 28210.00
705.3100, 28246.00
706.4650, 28560.78
707.6190, 29194.00
708.7740, 29319.00
709.9290, 29783.00
711.0830, 30247.00
712.2370, 30575.00
713.3910, 30955.00
714.5450, 31176.00
715.6980, 31832.00
716.8520, 31937.00
718.0050, 32342.00
719.1580, 32771.00
720.3110, 32905.00
721.4640, 32894.00
722.6170, 33178.00
723.7700, 33210.00
724.9220, 33129.00
726.0740, 33194.00
727.2260, 33167.00
728.3780, 33064.00
729.5300, 33165.00
730.6810, 33224.00
731.8330, 33389.00
732.9840, 33457.00
734.1350, 33723.15
735.2860, 34007.72
736.4370, 34313.00
737.5880, 34773.00
738.7380, 35154.00
739.8880, 35666.00
741.0390, 36054.00
742.1890, 36370.00
743.3380, 36726.65
744.4880, 37001.55
745.6380, 37226.00
746.7870, 37421.00
747.9360, 37513.00
749.0850, 37490.00
750.2340, 37695.00
751.3830, 37538.00
752.5310, 38004.00
753.6800, 37978.00
754.8280, 37812.00
755.9760, 38306.00
757.1240, 38366.00
758.2720, 38414.00
759.4190, 38774.00
760.5670, 38917.00
761.7140, 39029.00
762.8610, 39243.00
764.0080, 39318.00
765.1550, 39204.00
766.3020, 39366.00
767.4480, 39128.00
768.5950, 39187.00
769.7410, 38755.00
770.8870, 38643.00
772.0330, 38825.00
773.1780, 39009.00
774.3240, 39181.00
775.4690, 39455.00
776.6140, 39836.00
777.7590, 39592.00
778.9040, 39621.00
780.0490, 39139.00
781.1940, 39085.00
782.3380, 38323.00
783.4820, 37659.00
784.6260, 36742.00
785.7700, 36017.00
786.9140, 34962.00
788.0580, 33882.00
789.2010, 32850.87
790.3450, 31704.00
791.4880, 30728.00
792.6310, 29741.00
793.7730, 29061.00
794.9160, 28306.84
796.0590, 27854.00
797.2010, 27212.00
798.3430, 26942.00
799.4850, 26712.00
800.6270, 26345.00
801.7690, 26205.00
802.9100, 26160.00
804.0520, 25952.00
805.1930, 25883.00
806.3340, 25778.00
807.4750, 25574.00
808.6160, 25616.00
809.7560, 25493.00
810.8970, 25225.00
812.0370, 25047.00
813.1770, 24803.00
814.3170, 24462.00
815.4570, 24470.00
816.5960, 24119.00
817.7360, 23754.00
818.8750, 23804.00
820.0140, 23723.00
821.1530, 23580.00
822.2920, 23448.00
823.4310, 23346.00
824.5690, 23350.00
825.7070, 23184.00
826.8460, 23063.00
827.9840, 23107.00
829.1220, 23223.00
830.2590, 23078.00
831.3970, 22806.00
832.5340, 23143.00
833.6710, 22985.00
834.8080, 23117.00
835.9450, 23099.00
837.0820, 23116.00
838.2190, 22965.00
839.3550, 22968.00
840.4910, 22903.00
841.6270, 22967.00
842.7630, 22813.00
843.8990, 22922.00
845.0350, 22850.00
846.1700, 22716.00
847.3060, 22716.00
848.4410, 22768.00
849.5760, 22565.00
850.7100, 23022.00
851.8450, 23082.00
852.9800, 22826.00
854.1140, 22749.00
855.2480, 22816.00
856.3820, 22638.00
857.5160, 22913.00
858.6500, 22947.00
859.7830, 22714.00
860.9170, 22739.00
862.0500, 22752.00
863.1830, 22704.00
864.3160, 22822.00
865.4480, 22899.00
866.5810, 22864.00
867.7130, 22780.00
868.8460, 23145.00
869.9780, 23084.00
871.1100, 23289.00
872.2410, 23021.00
873.3730, 23089.00
874.5050, 23043.00
875.6360, 22916.00
876.7670, 23033.00
877.8980, 23171.00
879.0290, 22959.00
880.1590, 23174.00
881.2900, 23112.00
882.4200, 23297.00
883.5500, 23165.00
884.6800, 23226.00
885.8100, 23256.00
886.9400, 23152.00
888.0690, 23193.00
889.1990, 23473.00
890.3280, 23392.00
891.4570, 23263.00
892.5860, 23499.00
893.7140, 23412.00
894.8430, 23555.00
895.9710, 23658.00
897.1000, 23725.00
898.2280, 23712.86
899.3560, 23788.94
900.4830, 23676.00
901.6110, 23810.00
902.7380, 23957.00
903.8660, 23868.00
904.9930, 23947.00
906.1200, 24049.00
907.2460, 23924.00
908.3730, 24009.00
909.5000, 23963.00
910.6260, 24045.00
911.7520, 23967.00
912.8780, 24191.00
914.0040, 24072.00
915.1290, 24324.00
916.2550, 24184.00
917.3800, 24321.00
918.5050, 24348.00
919.6300, 24237.00
920.7550, 24641.00
921.8800, 24611.00
923.0040, 24515.00
924.1290, 24550.00
925.2530, 24664.00
926.3770, 24656.00
927.5010, 24710.00
928.6250, 24839.00
929.7480, 24799.00
930.8720, 25050.00
931.9950, 25074.00
933.1180, 24931.00
934.2410, 25172.00
935.3640, 25156.00
936.4860, 25266.00
937.6090, 25259.00
938.7310, 25370.84
939.8530, 25394.00
940.9750, 25588.00
942.0970, 25626.00
943.2180, 25719.00
944.3400, 25737.00
945.4610, 25647.00
946.5820, 26156.00
947.7030, 26220.00
948.8240, 26105.00
949.9450, 26098.00
951.0650, 26205.00
952.1860, 26364.00
953.3060, 26444.00
954.4260, 26513.00
955.5460, 26412.00
956.6650, 26341.00
957.7850, 26481.00
958.9040, 26444.00
960.0230, 26550.00
961.1420, 26690.00
962.2610, 26679.00
963.3800, 26706.00
964.4990, 26690.00
965.6170, 26737.77
966.7350, 26582.00
967.8530, 26847.00
968.9710, 26805.00
970.0890, 26884.00
971.2070, 27165.00
972.3240, 27167.00
973.4410, 27065.00
974.5580, 27049.88
975.6750, 27008.16
976.7920, 26947.00
977.9090, 26865.00
979.0250, 27236.00
980.1410, 27049.00
981.2580, 27361.00
982.3740, 27190.00
983.4890, 27168.00
984.6050, 27448.00
985.7200, 27302.00
986.8360, 27376.00
987.9510, 27450.99
989.0660, 27647.19
990.1810, 27757.60
991.2950, 27786.83
992.4100, 27491.77
993.5240, 27615.47
994.6390, 27571.35
995.7530, 27520.35
996.8660, 27702.99
997.9800, 27455.09
999.0940, 27634.03
1000.207, 27642.58
1001.320, 27729.11
1002.433, 27646.79
1003.546, 27616.61
1004.659, 27755.36
1005.772, 27800.57
1006.884, 27698.80
1007.996, 27723.00
1009.108, 27667.49
1010.220, 27645.00
1011.332, 27720.23
1012.444, 27756.27
1013.555, 27844.00
1014.666, 27895.00
1015.777, 27994.00
1016.888, 27973.00
1017.999, 28044.00
1019.110, 27927.00
1020.220, 28152.00
1021.331, 28033.00
1022.441, 27784.00
1023.551, 28230.00
1024.661, 28242.00
1025.770, 28152.00
1026.880, 28418.00
1027.989, 28050.00
1029.098, 28329.00
1030.207, 28301.00
1031.316, 28519.00
1032.425, 28494.00
1033.533, 28639.00
1034.642, 28592.00
1035.750, 28543.00
1036.858, 28852.00
1037.966, 28886.00
1039.073, 28952.00
1040.181, 29292.00
1041.288, 29110.00
1042.396, 29426.00
1043.503, 29666.00
1044.610, 29697.00
1045.716, 29589.00
1046.823, 29903.00
1047.929, 29691.00
1049.036, 29958.00
1050.142, 29935.00
1051.248, 30034.00
1052.353, 30119.00
1053.459, 30073.00
1054.564, 30137.00
1055.670, 29994.00
1056.775, 30118.00
1057.880, 30374.00
1058.985, 30184.56
1060.089, 30264.00
1061.194, 30062.00
1062.298, 30302.00
1063.402, 30397.00
1064.506, 30089.00
1065.610, 30212.00
1066.713, 30069.00
1067.817, 30126.00
1068.920, 29990.86
1070.023, 29885.00
1071.126, 29677.00
1072.229, 29573.00
1073.332, 29385.00
1074.435, 29179.00
1075.537, 29019.00
1076.639, 28896.00
1077.741, 28761.21
1078.843, 28651.67
1079.945, 28550.00
1081.046, 28431.00
1082.148, 28311.00
1083.249, 28154.00
1084.350, 28168.00
1085.451, 27995.11
1086.551, 28239.00
1087.652, 27901.00
1088.752, 27656.00
1089.853, 27928.00
1090.953, 27695.00
1092.053, 27787.00
1093.152, 27724.00
1094.252, 27549.00
1095.351, 27633.00
1096.451, 27461.00
1097.550, 27505.00
1098.649, 27643.00
1099.748, 27536.00
1100.846, 27619.87
1101.945, 27797.00
1103.043, 27565.00
1104.141, 27698.00
1105.239, 27487.00
1106.337, 27437.00
1107.434, 27496.00
1108.532, 27427.00
1109.629, 27460.00
1110.726, 27178.00
1111.823, 27231.00
1112.920, 27126.00
1114.017, 27204.00
1115.113, 27226.00
1116.210, 27055.77
1117.306, 27191.72
1118.402, 27241.89
1119.498, 27210.88
1120.593, 26855.63
1121.689, 26919.10
1122.784, 26814.78
1123.879, 26703.60
1124.974, 26826.05
1126.069, 26517.97
1127.164, 26636.72
1128.259, 26585.08
1129.353, 26611.48
1130.447, 26469.02
1131.541, 26378.72
1132.635, 26457.33
1133.729, 26448.00
1134.822, 26291.00
1135.916, 26313.00
1137.009, 26355.00
1138.102, 26138.00
1139.195, 25982.00
1140.288, 26010.00
1141.380, 26043.00
1142.473, 26161.00
1143.565, 25946.00
1144.657, 25989.00
1145.749, 26036.00
1146.841, 25930.00
1147.932, 25982.81
1149.024, 26071.29
1150.115, 25907.00
1151.206, 26196.00
1152.297, 26027.66
1153.388, 25815.00
1154.479, 25920.00
1155.569, 25952.00
1156.659, 25803.00
1157.750, 25911.60
1158.839, 25845.37
1159.929, 26029.00
1161.019, 25707.00
1162.108, 25872.00
1163.198, 25611.00
1164.287, 25552.00
1165.376, 25853.00
1166.465, 25857.00
1167.553, 25719.00
1168.642, 25755.00
1169.730, 25568.00
1170.818, 25494.00
1171.906, 25704.00
1172.994, 25892.00
1174.082, 25858.00
1175.170, 25840.00
1176.257, 25959.11
1177.344, 25858.00
1178.431, 25986.00
1179.518, 26004.00
1180.605, 25769.00
1181.691, 25565.00
1182.778, 25621.00
1183.864, 25435.00
1184.950, 25604.00
1186.036, 25704.00
1187.122, 25644.00
1188.207, 25585.00
1189.292, 25631.00
1190.378, 25674.00
1191.463, 25771.00
1192.548, 25775.00
1193.632, 25745.51
1194.717, 25516.00
1195.801, 25658.00
1196.886, 25573.00
1197.970, 25605.00
1199.054, 25638.00
1200.137, 25559.00
1201.221, 25622.00
1202.305, 25641.38
1203.388, 25567.71
1204.471, 25576.25
1205.554, 25474.00
1206.637, 25504.00
1207.719, 25520.00
1208.802, 25513.00
1209.884, 25682.00
1210.966, 25729.00
1212.048, 25755.00
1213.130, 25711.00
1214.212, 25575.00
1215.293, 25714.00
1216.374, 25658.00
1217.456, 25575.00
1218.536, 25722.00
1219.617, 25800.00
1220.698, 25823.00
1221.778, 25883.00
1222.859, 25760.00
1223.939, 25931.00
1225.019, 25641.00
1226.099, 26254.00
1227.178, 25982.51
1228.258, 25986.00
1229.337, 25861.00
1230.417, 25918.00
1231.496, 25989.00
1232.574, 26054.00
1233.653, 26114.00
1234.732, 26028.00
1235.810, 26204.00
1236.888, 25967.00
1237.966, 26230.00
1239.044, 26389.00
1240.122, 26238.00
1241.199, 26197.00
1242.277, 26351.00
1243.354, 26410.00
1244.431, 26433.00
1245.508, 26370.00
1246.585, 26428.00
1247.661, 26380.00
1248.738, 26428.86
1249.814, 26602.00
1250.890, 26502.00
1251.966, 26578.58
1253.042, 26565.00
1254.117, 26491.00
1255.193, 26660.00
1256.268, 26591.00
1257.343, 26943.00
1258.418, 26587.00
1259.493, 26724.00
1260.567, 26486.00
1261.642, 26740.00
1262.716, 26575.00
1263.790, 26761.00
1264.864, 26806.00
1265.938, 26622.00
1267.011, 26700.00
1268.085, 26965.00
1269.158, 26630.00
1270.231, 27170.00
1271.304, 26728.00
1272.377, 26896.00
1273.450, 26912.00
1274.522, 26690.00
1275.594, 26795.00
1276.666, 26928.00
1277.738, 26747.00
1278.810, 27003.00
1279.882, 26897.00
1280.953, 27392.00
1282.025, 26830.00
1283.096, 26582.00
1284.167, 26767.00
1285.238, 26874.00
1286.308, 26954.00
1287.379, 26952.00
1288.449, 27063.47
1289.519, 27086.47
1290.589, 27150.00
1291.659, 27172.00
1292.729, 27070.00
1293.798, 27109.00
1294.868, 27074.00
1295.937, 26929.00
1297.006, 27222.00
1298.075, 27052.00
1299.143, 27299.00
1300.212, 27125.00
1301.280, 27153.00
1302.348, 27172.00
1303.416, 26983.00
1304.484, 27062.00
1305.552, 27053.20
1306.620, 27187.00
1307.687, 27151.00
1308.754, 27142.00
1309.821, 27208.00
1310.888, 27092.00
1311.955, 27187.00
1313.021, 27077.00
1314.088, 27314.00
1315.154, 27128.00
1316.220, 27102.00
1317.286, 27400.00
1318.352, 27204.00
1319.417, 27085.00
1320.483, 27299.00
1321.548, 27395.00
1322.613, 27134.00
1323.678, 27242.00
1324.743, 27115.00
1325.807, 27059.00
1326.872, 27291.00
1327.936, 27185.00
1329.000, 27295.00
1330.064, 27276.00
1331.128, 27351.00
1332.191, 27374.62
1333.255, 27293.00
1334.318, 27377.00
1335.381, 27320.36
1336.444, 27231.00
1337.507, 27325.00
1338.569, 27153.00
1339.632, 27126.00
1340.694, 27302.00
1341.756, 27162.00
1342.818, 27042.00
1343.880, 27348.00
1344.941, 27231.00
1346.003, 27167.00
1347.064, 27137.00
1348.125, 27118.00
1349.186, 27283.00
1350.247, 27261.99
1351.308, 27239.00
1352.368, 27344.00
1353.428, 27213.00
1354.489, 27198.00
1355.549, 26854.78
1356.608, 27045.67
1357.668, 27150.77
1358.727, 27174.69
1359.787, 26874.31
1360.846, 26992.70
1361.905, 26943.27
1362.964, 26886.96
1364.022, 27064.30
1365.081, 26811.09
1366.139, 26984.72
1367.197, 26987.97
1368.255, 27069.20
1369.313, 26981.57
1370.371, 26946.09
1371.428, 27079.54
1372.486, 27119.44
1373.543, 27012.38
1374.600, 27098.57
1375.657, 26839.47
1376.713, 26883.37
1377.770, 27058.00
1378.826, 26959.43
1379.882, 27048.71
1380.938, 27066.45
1381.994, 26759.05
1383.050, 27017.10
1384.106, 27030.61
1385.161, 26793.03
1386.216, 27031.71
1387.271, 26828.75
1388.326, 26783.43
1389.381, 26856.74
1390.435, 26806.39
1391.490, 26951.01
1392.544, 26907.79
1393.598, 26847.80
1394.652, 26861.04
1395.705, 26666.76
1396.759, 26857.49
1397.812, 26785.22
1398.866, 26843.68
1399.919, 26931.78
1400.972, 26792.98
1402.024, 26894.40
1403.077, 26623.30
1404.129, 26663.90
1405.181, 26827.00
1406.233, 26914.00
1407.285, 26865.00
1408.337, 26818.00
1409.389, 26995.00
1410.440, 26649.06
1411.491, 26866.82
1412.542, 26998.80
1413.593, 27049.60
1414.644, 26776.10
1415.695, 26921.36
1416.745, 26898.79
1417.795, 26869.33
1418.845, 27073.52
1419.895, 26847.16
1420.945, 27047.64
1421.995, 27077.74
1423.044, 27185.80
1424.093, 27125.00
1425.142, 27116.35
1426.191, 27276.62
1427.240, 27343.35
1428.289, 27263.11
1429.337, 27376.11
1430.385, 27143.81
1431.433, 27214.51
1432.481, 27103.00
1433.529, 27122.00
1434.577, 27173.00
1435.624, 27057.00
1436.672, 27069.00
1437.719, 27058.00
1438.766, 27115.00
1439.812, 26960.00
1440.859, 27102.00
1441.905, 27192.00
1442.952, 27254.00
1443.998, 27095.00
1445.044, 27211.00
1446.090, 27248.00
1447.135, 27066.00
1448.181, 27166.00
