##NAMES=Dravite
##RRUFFID=R060534
##IDEAL CHEMISTRY=NaMg_3_Al_6_(Si_6_O_18_)(BO_3_)_3_(OH)_3_OH
##LOCALITY=Sri Lanka
##OWNER=RRUFF
##SOURCE=Gemological Institute of America
##DESCRIPTION=Black trigonal prism
##STATUS=The identification of this mineral has been confirmed by X-ray diffraction and chemical analysis
##URL=rruff.info/R060534
##MEASURED CHEMISTRY=(Na_0.79_Ca_0.21_)(Mg_0.68_Fe^2+^_0.29_Ti_0.02_Al_0.01_)_3_Al_6.00_(BO_3_)_3_(Si_0.95_Al_005_)_6.00_O_18_(OH)_4_
##PIN_ID=L01264
##ORIENTATION=Laser parallel to a* (1 0 0). Fiducial mark perpendicular to laser is parallel to -c [0 0 -1]
168.4860, 44957.00
169.7110, 44812.00
170.9360, 45014.00
172.1610, 44815.00
173.3850, 44023.00
174.6100, 43668.00
175.8340, 43947.00
177.0580, 43736.00
178.2820, 43909.00
179.5050, 44066.00
180.7290, 43905.00
181.9520, 43827.00
183.1760, 43915.31
184.3990, 43780.00
185.6220, 44108.00
186.8450, 44307.00
188.0670, 44638.00
189.2900, 44567.00
190.5120, 44438.00
191.7340, 44465.00
192.9560, 45042.00
194.1780, 45289.00
195.4000, 45263.00
196.6220, 45757.00
197.8430, 45565.00
199.0640, 46016.00
200.2860, 46859.00
201.5070, 47796.00
202.7270, 48076.00
203.9480, 47420.00
205.1690, 46041.00
206.3890, 44460.00
207.6090, 43936.00
208.8290, 43991.00
210.0490, 44333.00
211.2690, 44669.00
212.4890, 45007.00
213.7080, 45310.00
214.9280, 45143.00
216.1470, 44275.00
217.3660, 43295.00
218.5850, 43046.00
219.8030, 42753.00
221.0220, 41877.00
222.2400, 41708.00
223.4590, 41198.00
224.6770, 40741.00
225.8950, 40519.00
227.1120, 39971.00
228.3300, 39620.00
229.5480, 39368.00
230.7650, 39135.00
231.9820, 38879.20
233.1990, 38756.00
234.4160, 38438.00
235.6330, 38261.00
236.8490, 38025.00
238.0660, 37996.00
239.2820, 37552.00
240.4980, 37407.00
241.7140, 37359.00
242.9300, 36914.00
244.1460, 36586.00
245.3610, 36493.00
246.5770, 36049.00
247.7920, 35825.29
249.0070, 35932.12
250.2220, 35953.16
251.4370, 35893.03
252.6510, 35508.67
253.8660, 35543.01
255.0800, 35409.59
256.2940, 35269.30
257.5080, 35362.65
258.7220, 35025.46
259.9360, 35115.10
261.1490, 35034.44
262.3630, 35031.68
263.5760, 34860.13
264.7890, 34740.74
266.0020, 34790.26
267.2150, 34746.26
268.4270, 34555.34
269.6400, 34557.61
270.8520, 34214.68
272.0640, 34174.73
273.2760, 34265.50
274.4880, 34083.08
275.7000, 34088.51
276.9120, 34022.40
278.1230, 33631.22
279.3340, 33805.49
280.5450, 33735.22
281.7560, 33413.87
282.9670, 33568.76
284.1780, 33282.02
285.3880, 33152.99
286.5980, 33221.00
287.8090, 33294.00
289.0190, 32923.00
290.2290, 33018.00
291.4380, 32821.00
292.6480, 32973.00
293.8570, 32571.00
295.0670, 32453.00
296.2760, 32594.00
297.4850, 32232.00
298.6930, 32259.00
299.9020, 32178.85
301.1110, 32079.25
302.3190, 32231.00
303.5270, 32249.00
304.7350, 32686.00
305.9430, 32628.56
307.1510, 32857.00
308.3580, 32756.00
309.5660, 33092.00
310.7730, 33267.00
311.9800, 33175.00
313.1870, 33003.00
314.3940, 33387.00
315.6010, 33212.00
316.8070, 33428.00
318.0130, 33382.00
319.2200, 33590.00
320.4260, 33660.00
321.6310, 33675.00
322.8370, 33875.00
324.0430, 34183.00
325.2480, 34248.00
326.4540, 34487.00
327.6590, 34686.00
328.8640, 34740.00
330.0680, 35181.00
331.2730, 35417.00
332.4780, 35552.38
333.6820, 35670.00
334.8860, 35858.00
336.0900, 36038.00
337.2940, 36206.00
338.4980, 36477.00
339.7010, 36561.00
340.9050, 36635.00
342.1080, 36964.00
343.3110, 36938.32
344.5140, 37441.00
345.7170, 37094.00
346.9200, 37511.00
348.1220, 37727.00
349.3240, 37648.00
350.5270, 37632.00
351.7290, 38165.00
352.9310, 38009.00
354.1320, 38226.00
355.3340, 38170.00
356.5350, 38502.00
357.7370, 38391.00
358.9380, 38540.00
360.1390, 38703.00
361.3400, 38934.66
362.5400, 39808.00
363.7410, 39714.00
364.9410, 40200.00
366.1410, 40841.00
367.3410, 40697.00
368.5410, 41328.00
369.7410, 41719.00
370.9400, 41671.00
372.1400, 42093.00
373.3390, 41823.00
374.5380, 41781.00
375.7370, 41771.00
376.9360, 41593.00
378.1350, 41394.00
379.3330, 41160.00
380.5310, 40852.00
381.7300, 40831.00
382.9280, 40663.00
384.1260, 40444.00
385.3230, 40493.00
386.5210, 40083.00
387.7180, 40123.00
388.9160, 39795.00
390.1130, 39813.00
391.3100, 39695.00
392.5060, 39686.00
393.7030, 39345.00
394.9000, 39344.00
396.0960, 39367.00
397.2920, 39139.00
398.4880, 38615.00
399.6840, 38483.00
400.8800, 38484.00
402.0750, 38777.00
403.2710, 38394.00
404.4660, 38525.00
405.6610, 38292.00
406.8560, 38375.00
408.0510, 38346.00
409.2450, 38069.00
410.4400, 38025.00
411.6340, 38036.00
412.8280, 38033.00
414.0220, 38161.00
415.2160, 38027.00
416.4100, 38181.00
417.6030, 37898.00
418.7970, 37880.00
419.9900, 38341.00
421.1830, 37859.00
422.3760, 37718.00
423.5690, 38017.00
424.7610, 37952.00
425.9540, 37912.00
427.1460, 37998.68
428.3380, 37597.00
429.5300, 38048.00
430.7220, 37274.00
431.9140, 37366.00
433.1050, 37386.00
434.2970, 37256.00
435.4880, 37153.00
436.6790, 36987.00
437.8700, 36887.00
439.0610, 36962.00
440.2510, 36799.00
441.4420, 36709.00
442.6320, 36645.41
443.8220, 36887.35
445.0120, 37043.51
446.2020, 37118.50
447.3910, 36869.15
448.5810, 37038.60
449.7700, 37040.19
450.9600, 37034.94
452.1490, 37263.30
453.3370, 37061.07
454.5260, 37285.72
455.7150, 37339.99
456.9030, 37472.20
458.0910, 37435.54
459.2800, 37451.08
460.4670, 37635.46
461.6550, 37726.35
462.8430, 37670.26
464.0300, 37807.38
465.2180, 37599.26
466.4050, 37694.10
467.5920, 37919.66
468.7790, 37872.02
469.9650, 38012.19
471.1520, 38080.86
472.3380, 37824.35
473.5250, 38133.33
474.7110, 38197.73
475.8970, 38011.05
477.0820, 38300.57
478.2680, 38148.50
479.4540, 38154.07
480.6390, 38278.23
481.8240, 38278.72
483.0090, 38474.19
484.1940, 38481.82
485.3780, 38481.00
486.5630, 38391.86
487.7470, 38623.00
488.9320, 38370.00
490.1160, 38399.00
491.3000, 38577.00
492.4830, 38589.00
493.6670, 38943.00
494.8500, 38721.00
496.0340, 38831.00
497.2170, 39151.00
498.4000, 38966.00
499.5820, 38712.00
500.7650, 38920.00
501.9480, 38887.00
503.1300, 38877.00
504.3120, 38930.00
505.4940, 39023.00
506.6760, 38734.00
507.8580, 38796.00
509.0390, 39050.00
510.2210, 38899.00
511.4020, 39111.00
512.5830, 38743.00
513.7640, 39060.00
514.9450, 38946.00
516.1250, 39161.00
517.3060, 38844.00
518.4860, 39091.78
519.6660, 39217.00
520.8460, 39345.00
522.0260, 39139.00
523.2060, 39071.00
524.3850, 39151.00
525.5650, 39436.00
526.7440, 39563.00
527.9230, 39614.00
529.1020, 39880.97
530.2810, 39975.66
531.4590, 40224.00
532.6380, 40324.00
533.8160, 40348.00
534.9940, 40594.00
536.1720, 40822.00
537.3500, 40806.00
538.5270, 41038.00
539.7050, 41054.00
540.8820, 41049.90
542.0590, 41274.89
543.2360, 41414.09
544.4130, 41472.12
545.5900, 41205.84
546.7660, 41358.31
547.9430, 41342.98
549.1190, 41320.75
550.2950, 41532.16
551.4710, 41313.03
552.6470, 41520.73
553.8220, 41558.03
554.9980, 41673.33
556.1730, 41619.74
557.3480, 41618.32
558.5230, 41785.80
559.6980, 41859.75
560.8730, 41786.73
562.0470, 41906.94
563.2220, 41681.89
564.3960, 41759.80
565.5700, 41866.00
566.7440, 42114.00
567.9170, 41858.00
569.0910, 41960.00
570.2640, 42038.00
571.4380, 41887.00
572.6110, 42241.00
573.7840, 42588.00
574.9570, 41913.00
576.1290, 41753.00
577.3020, 41981.00
578.4740, 42213.00
579.6460, 41687.00
580.8180, 42150.00
581.9900, 41966.00
583.1620, 42035.00
584.3330, 42231.00
585.5040, 42049.00
586.6760, 41986.00
587.8470, 42205.00
589.0180, 42117.00
590.1880, 42102.00
591.3590, 41895.00
592.5290, 41878.00
593.7000, 41982.00
594.8700, 42056.00
596.0400, 41960.00
597.2090, 42027.00
598.3790, 41828.00
599.5490, 41616.00
600.7180, 41789.00
601.8870, 41481.00
603.0560, 41578.00
604.2250, 41375.00
605.3940, 41338.00
606.5620, 41360.00
607.7300, 41358.00
608.8990, 41300.00
610.0670, 41468.23
611.2350, 41268.00
612.4020, 41730.00
613.5700, 41493.00
614.7370, 41461.00
615.9050, 41201.00
617.0720, 41075.00
618.2390, 41118.00
619.4060, 41245.00
620.5720, 41126.00
621.7390, 41100.00
622.9050, 41019.00
624.0710, 41176.00
625.2370, 41155.00
626.4030, 41029.00
627.5690, 40919.00
628.7340, 40765.00
629.9000, 40753.00
631.0650, 40543.19
632.2300, 40578.00
633.3950, 40187.00
634.5600, 40012.00
635.7240, 39838.00
636.8890, 39728.00
638.0530, 39616.98
639.2170, 39367.00
640.3810, 39418.00
641.5450, 39223.00
642.7080, 39026.00
643.8720, 39344.00
645.0350, 39090.00
646.1980, 39154.00
647.3610, 39060.00
648.5240, 39000.00
649.6870, 38901.00
650.8490, 39216.00
652.0120, 39151.00
653.1740, 39431.00
654.3360, 39639.00
655.4980, 39702.00
656.6600, 40002.00
657.8210, 40394.00
658.9830, 40221.00
660.1440, 40756.00
661.3050, 41286.00
662.4660, 41348.00
663.6270, 41348.00
664.7870, 41388.00
665.9480, 41405.03
667.1080, 41553.00
668.2680, 41435.00
669.4280, 41389.00
670.5880, 41406.00
671.7480, 41158.00
672.9070, 40810.00
674.0670, 40768.00
675.2260, 40678.00
676.3850, 40660.00
677.5440, 40441.00
678.7030, 40438.00
679.8610, 40166.00
681.0200, 40206.00
682.1780, 40471.00
683.3360, 40384.00
684.4940, 40644.00
685.6520, 40859.00
686.8090, 40867.00
687.9670, 41097.00
689.1240, 41327.00
690.2810, 41658.00
691.4380, 41957.00
692.5950, 42233.27
693.7520, 42602.00
694.9080, 42786.00
696.0650, 43268.00
697.2210, 43497.00
698.3770, 43926.90
699.5330, 44304.49
700.6880, 44858.00
701.8440, 45051.00
702.9990, 45653.00
704.1550, 45988.00
705.3100, 46210.00
706.4650, 46883.00
707.6190, 46739.00
708.7740, 47204.00
709.9290, 47287.00
711.0830, 47986.00
712.2370, 48284.00
713.3910, 48415.00
714.5450, 48970.00
715.6980, 49412.00
716.8520, 50214.00
718.0050, 50805.50
719.1580, 51382.20
720.3110, 52153.00
721.4640, 52768.00
722.6170, 53296.00
723.7700, 53960.59
724.9220, 54537.00
726.0740, 55047.00
727.2260, 55508.00
728.3780, 55854.00
729.5300, 56231.00
730.6810, 56349.00
731.8330, 56749.79
732.9840, 56915.00
734.1350, 57434.00
735.2860, 57705.00
736.4370, 58145.00
737.5880, 58344.00
738.7380, 58371.00
739.8880, 59071.00
741.0390, 59654.00
742.1890, 59922.00
743.3380, 60683.00
744.4880, 60811.00
745.6380, 61082.00
746.7870, 61620.00
747.9360, 61775.00
749.0850, 62602.00
750.2340, 62922.00
751.3830, 63635.00
752.5310, 63576.00
753.6800, 63676.00
754.8280, 63962.22
755.9760, 64257.00
757.1240, 64156.00
758.2720, 64218.00
759.4190, 64161.00
760.5670, 64236.00
761.7140, 64309.00
762.8610, 64465.00
764.0080, 64605.00
765.1550, 64594.62
766.3020, 64638.17
767.4480, 64562.00
768.5950, 64520.00
769.7410, 64472.46
770.8870, 64285.60
772.0330, 64130.00
773.1780, 63707.00
774.3240, 63387.00
775.4690, 62955.00
776.6140, 62551.98
777.7590, 62016.00
778.9040, 61664.00
780.0490, 61174.00
781.1940, 60624.00
782.3380, 60211.00
783.4820, 59739.00
784.6260, 59577.00
785.7700, 59317.00
786.9140, 58833.00
788.0580, 58250.00
789.2010, 58036.00
790.3450, 57376.00
791.4880, 56563.00
792.6310, 55741.00
793.7730, 54822.00
794.9160, 53823.00
796.0590, 52814.00
797.2010, 51618.00
798.3430, 50604.00
799.4850, 49563.00
800.6270, 48651.00
801.7690, 47734.00
802.9100, 46852.49
804.0520, 46290.00
805.1930, 45318.00
806.3340, 44905.00
807.4750, 44470.00
808.6160, 44166.00
809.7560, 43890.00
810.8970, 43663.00
812.0370, 43589.00
813.1770, 43224.00
814.3170, 42965.00
815.4570, 42778.00
816.5960, 42181.88
817.7360, 41697.00
818.8750, 41143.00
820.0140, 40665.88
821.1530, 40228.07
822.2920, 39804.00
823.4310, 39289.00
824.5690, 38998.00
825.7070, 38317.00
826.8460, 37932.00
827.9840, 37637.00
829.1220, 37148.00
830.2590, 36668.00
831.3970, 36468.00
832.5340, 36221.00
833.6710, 35960.00
834.8080, 35772.00
835.9450, 35498.00
837.0820, 35527.00
838.2190, 35217.00
839.3550, 35195.00
840.4910, 34888.00
841.6270, 35101.00
842.7630, 34825.00
843.8990, 34608.00
845.0350, 34707.00
846.1700, 34607.00
847.3060, 34495.00
848.4410, 34581.32
849.5760, 34578.00
850.7100, 34688.00
851.8450, 34643.00
852.9800, 34750.00
854.1140, 34417.00
855.2480, 34705.00
856.3820, 34260.00
857.5160, 34328.00
858.6500, 35204.00
859.7830, 35335.00
860.9170, 34751.00
862.0500, 34626.00
863.1830, 34788.00
864.3160, 34863.00
865.4480, 35577.91
866.5810, 35316.99
867.7130, 35463.24
868.8460, 35082.00
869.9780, 35332.00
871.1100, 35150.00
872.2410, 35109.00
873.3730, 35396.00
874.5050, 35474.00
875.6360, 35456.00
876.7670, 35353.00
877.8980, 35533.00
879.0290, 35294.00
880.1590, 35556.00
881.2900, 35767.00
882.4200, 35558.00
883.5500, 35831.00
884.6800, 35908.00
885.8100, 35786.00
886.9400, 35804.00
888.0690, 36029.00
889.1990, 36042.19
890.3280, 36331.00
891.4570, 36326.00
892.5860, 36275.00
893.7140, 36427.00
894.8430, 36521.00
895.9710, 36766.00
897.1000, 36705.00
898.2280, 37019.00
899.3560, 36919.00
900.4830, 37065.00
901.6110, 36974.00
902.7380, 37335.00
903.8660, 37380.00
904.9930, 37459.00
906.1200, 37509.00
907.2460, 37597.40
908.3730, 37736.00
909.5000, 37846.00
910.6260, 37933.00
911.7520, 38203.00
912.8780, 37888.00
914.0040, 38306.00
915.1290, 38407.00
916.2550, 38202.00
917.3800, 38412.00
918.5050, 38669.00
919.6300, 38899.00
920.7550, 38976.00
921.8800, 39121.00
923.0040, 38997.00
924.1290, 38890.00
925.2530, 39241.00
926.3770, 39185.00
927.5010, 39381.00
928.6250, 39504.00
929.7480, 39474.28
930.8720, 39672.00
931.9950, 39588.00
933.1180, 39541.00
934.2410, 39843.00
935.3640, 39777.00
936.4860, 39874.00
937.6090, 39983.60
938.7310, 40051.00
939.8530, 40180.00
940.9750, 40177.00
942.0970, 40392.00
943.2180, 40425.00
944.3400, 40845.00
945.4610, 40975.00
946.5820, 41252.00
947.7030, 41188.00
948.8240, 41538.00
949.9450, 41668.00
951.0650, 41609.00
952.1860, 42027.00
953.3060, 42098.00
954.4260, 42034.00
955.5460, 42173.00
956.6650, 42421.00
957.7850, 42502.00
958.9040, 42606.00
960.0230, 42718.00
961.1420, 42832.00
962.2610, 42937.57
963.3800, 43022.00
964.4990, 43169.50
965.6170, 43286.00
966.7350, 43436.00
967.8530, 43460.00
968.9710, 43723.00
970.0890, 43618.00
971.2070, 43973.00
972.3240, 43770.00
973.4410, 43974.00
974.5580, 43917.00
975.6750, 44254.00
976.7920, 44237.97
977.9090, 44168.00
979.0250, 44375.00
980.1410, 44382.00
981.2580, 44535.00
982.3740, 44584.60
983.4890, 44651.24
984.6050, 44659.00
985.7200, 44843.00
986.8360, 44870.00
987.9510, 45090.00
989.0660, 45071.00
990.1810, 45147.00
991.2950, 45178.00
992.4100, 44931.00
993.5240, 45007.00
994.6390, 44977.00
995.7530, 45440.00
996.8660, 45179.00
997.9800, 45249.00
999.0940, 45783.00
1000.207, 45332.00
1001.320, 45665.00
1002.433, 45440.00
1003.546, 45103.00
1004.659, 44834.00
1005.772, 44859.00
1006.884, 44756.00
1007.996, 44504.00
1009.108, 44629.00
1010.220, 44672.00
1011.332, 44552.52
1012.444, 44599.64
1013.555, 44521.00
1014.666, 44482.00
1015.777, 44636.00
1016.888, 44512.00
1017.999, 44726.00
1019.110, 44727.00
1020.220, 44806.00
1021.331, 44574.00
1022.441, 44844.00
1023.551, 44814.00
1024.661, 45154.00
1025.770, 44894.00
1026.880, 44948.00
1027.989, 45025.00
1029.098, 45054.20
1030.207, 45359.00
1031.316, 45264.00
1032.425, 45300.00
1033.533, 45249.00
1034.642, 45156.00
1035.750, 45272.43
1036.858, 45563.00
1037.966, 45576.00
1039.073, 45597.00
1040.181, 45994.00
1041.288, 45781.00
1042.396, 46045.00
1043.503, 45934.00
1044.610, 46192.00
1045.716, 46228.00
1046.823, 46159.00
1047.929, 46316.00
1049.036, 46597.00
1050.142, 46675.00
1051.248, 46650.00
1052.353, 46599.00
1053.459, 46652.00
1054.564, 46774.00
1055.670, 47096.00
1056.775, 46749.00
1057.880, 47350.00
1058.985, 47336.00
1060.089, 47195.00
1061.194, 47471.00
1062.298, 47231.00
1063.402, 46833.00
1064.506, 46752.00
1065.610, 46700.00
1066.713, 46785.00
1067.817, 46742.07
1068.920, 46702.00
1070.023, 46786.00
1071.126, 46738.00
1072.229, 46768.79
1073.332, 46712.00
1074.435, 46629.00
1075.537, 46529.00
1076.639, 46367.22
1077.741, 46309.03
1078.843, 46215.50
1079.945, 46158.00
1081.046, 46080.00
1082.148, 46030.00
1083.249, 45961.00
1084.350, 45671.00
1085.451, 45732.00
1086.551, 45235.00
1087.652, 45627.00
1088.752, 45170.00
1089.853, 45288.00
1090.953, 45482.00
1092.053, 45215.00
1093.152, 45352.00
1094.252, 45346.00
1095.351, 45212.00
1096.451, 45235.00
1097.550, 45357.00
1098.649, 45081.00
1099.748, 45228.00
1100.846, 45201.00
1101.945, 45121.00
1103.043, 45583.00
1104.141, 45362.00
1105.239, 45546.00
1106.337, 44979.00
1107.434, 45043.00
1108.532, 44907.00
1109.629, 44675.00
1110.726, 44785.00
1111.823, 44865.00
1112.920, 44635.00
1114.017, 44666.20
1115.113, 44534.00
1116.210, 44543.00
1117.306, 44455.00
1118.402, 44557.40
1119.498, 44458.00
1120.593, 44390.00
1121.689, 44399.00
1122.784, 44205.00
1123.879, 44123.59
1124.974, 43939.64
1126.069, 43840.00
1127.164, 43528.00
1128.259, 43374.00
1129.353, 43185.00
1130.447, 43046.00
1131.541, 42871.00
1132.635, 42765.00
1133.729, 42716.00
1134.822, 42619.00
1135.916, 42410.00
1137.009, 42394.00
1138.102, 42350.00
1139.195, 42636.00
1140.288, 42445.00
1141.380, 42222.00
1142.473, 42127.00
1143.565, 42589.00
1144.657, 41951.00
1145.749, 42366.00
1146.841, 41884.00
1147.932, 42020.00
1149.024, 41870.00
1150.115, 41911.00
1151.206, 41995.00
1152.297, 42003.00
1153.388, 41941.00
1154.479, 41598.00
1155.569, 42153.00
1156.659, 42495.00
1157.750, 41658.00
1158.839, 41971.00
1159.929, 41759.00
1161.019, 41714.00
1162.108, 41731.04
1163.198, 41771.00
1164.287, 41681.00
1165.376, 41675.56
1166.465, 41610.00
1167.553, 41596.00
1168.642, 41640.00
1169.730, 41659.00
1170.818, 41613.00
1171.906, 41807.00
1172.994, 41702.00
1174.082, 41362.00
1175.170, 41541.00
1176.257, 41324.00
1177.344, 41394.00
1178.431, 41328.27
1179.518, 41390.00
1180.605, 41276.00
1181.691, 41395.00
1182.778, 41583.00
1183.864, 41319.00
1184.950, 41209.00
1186.036, 41388.00
1187.122, 41352.00
1188.207, 41335.00
1189.292, 41473.00
1190.378, 41124.00
1191.463, 41088.00
1192.548, 41567.00
1193.632, 41236.00
1194.717, 41008.00
1195.801, 41010.00
1196.886, 41375.00
1197.970, 41479.00
1199.054, 41034.00
1200.137, 41324.00
1201.221, 41187.00
1202.305, 41159.00
1203.388, 41272.00
1204.471, 41228.00
1205.554, 41261.00
1206.637, 41321.00
1207.719, 41309.00
1208.802, 41421.00
1209.884, 41437.00
1210.966, 41487.00
1212.048, 41608.00
1213.130, 41448.00
1214.212, 41495.00
1215.293, 41463.00
1216.374, 41648.00
1217.456, 41674.00
1218.536, 41690.00
1219.617, 41612.00
1220.698, 41939.00
1221.778, 41774.00
1222.859, 41542.00
1223.939, 41871.00
1225.019, 41974.00
1226.099, 41795.00
1227.178, 42123.00
1228.258, 41667.00
1229.337, 42328.00
1230.417, 42185.00
1231.496, 42381.00
1232.574, 41992.00
1233.653, 42358.00
1234.732, 42493.00
1235.810, 42411.00
1236.888, 42459.00
1237.966, 42604.00
1239.044, 42765.00
1240.122, 42482.00
1241.199, 42668.00
1242.277, 42578.00
1243.354, 42476.00
1244.431, 42938.00
1245.508, 42729.00
1246.585, 43039.00
1247.661, 42882.00
1248.738, 42775.00
1249.814, 42769.00
1250.890, 42891.00
1251.966, 43032.00
1253.042, 42893.00
1254.117, 42609.00
1255.193, 43113.00
1256.268, 43226.00
1257.343, 42727.00
1258.418, 43137.00
1259.493, 43040.00
1260.567, 43139.00
1261.642, 43050.00
1262.716, 42847.00
1263.790, 42983.00
1264.864, 42987.00
1265.938, 42892.00
1267.011, 43136.00
1268.085, 43128.21
1269.158, 43267.00
1270.231, 43234.00
1271.304, 43205.00
1272.377, 43064.00
1273.450, 43163.00
1274.522, 43418.00
1275.594, 43155.00
1276.666, 43260.00
1277.738, 43331.00
1278.810, 43161.00
1279.882, 43218.00
1280.953, 43012.00
1282.025, 43284.00
1283.096, 42961.00
1284.167, 43571.00
1285.238, 43201.00
1286.308, 43478.00
1287.379, 43245.00
1288.449, 43303.00
1289.519, 43423.00
1290.589, 43383.00
1291.659, 43311.00
1292.729, 43388.93
1293.798, 43082.60
1294.868, 43557.00
1295.937, 42740.00
1297.006, 42994.00
1298.075, 43382.00
1299.143, 43187.00
1300.212, 43206.00
1301.280, 43074.00
1302.348, 43305.00
1303.416, 43145.64
1304.484, 43352.05
1305.552, 43472.66
1306.620, 43512.11
1307.687, 43227.24
1308.754, 43361.14
1309.821, 43327.22
1310.888, 43286.41
1311.955, 43479.25
1313.021, 43241.55
1314.088, 43430.68
1315.154, 43449.42
1316.220, 43546.14
1317.286, 43474.00
1318.352, 43454.02
1319.417, 43602.94
1320.483, 43658.34
1321.548, 43566.75
1322.613, 43668.42
1323.678, 43424.80
1324.743, 43484.18
1325.807, 43674.27
1326.872, 43591.17
1327.936, 43695.92
1329.000, 43729.12
1330.064, 43536.00
1331.128, 43627.00
1332.191, 43650.00
1333.255, 43522.00
1334.318, 43616.00
1335.381, 43587.00
1336.444, 43413.00
