##NAMES=Eckermannite
##RRUFFID=R060320
##IDEAL CHEMISTRY=NaNa_2_(Mg_4_Al)Si_8_O_22_(OH)_2_
##LOCALITY=Norra Karr Complex, near Granna, Ostergotsland, Sweden
##OWNER=RRUFF
##SOURCE=Michael Scott
##DESCRIPTION=Parallel aggregate of blue elongated bladed crystals
##STATUS=The identification of this mineral is confirmed by single-crystal X-ray diffraction and chemical analysis.
##URL=rruff.info/R060320
##MEASURED CHEMISTRY=(Na_2.50_K_0.30_[box]_0.20_)_Σ=3_(Mg_2.35_Fe^2+^_1.35_Al_1.20_Mn_0.10_)_Σ=5_Si_8.00_O_22_((OH)_1.18_F_0.82_)_Σ=2_; OH estimated by charge balance, dark material
##PIN_ID=M01072
##ORIENTATION=Laser parallel to -c* (0 0 -1). Fiducial mark perpendicular to laser is parallel to -a [-1 0 0]
102.8230, 9663.000
104.0530, 9716.000
105.2840, 9827.000
106.5140, 10314.00
107.7440, 10760.00
108.9730, 10638.00
110.2030, 10828.00
111.4320, 10896.00
112.6620, 11214.00
113.8910, 11692.00
115.1200, 12216.00
116.3490, 12424.00
117.5780, 12474.00
118.8060, 12309.00
120.0350, 12283.00
121.2630, 12429.00
122.4920, 12625.00
123.7200, 12452.00
124.9480, 12045.00
126.1750, 11464.00
127.4030, 10786.00
128.6310, 10716.00
129.8580, 10669.00
131.0850, 10458.00
132.3120, 10509.00
133.5390, 10389.00
134.7660, 10574.00
135.9930, 10868.00
137.2200, 11006.00
138.4460, 11329.00
139.6720, 11720.00
140.8980, 12548.00
142.1240, 13140.00
143.3500, 14122.00
144.5760, 15269.00
145.8020, 17055.00
147.0270, 18830.00
148.2520, 20954.00
149.4780, 23627.00
150.7030, 26176.00
151.9270, 29356.00
153.1520, 32370.00
154.3770, 34626.00
155.6010, 35874.00
156.8260, 36054.00
158.0500, 34643.00
159.2740, 32401.00
160.4980, 29713.00
161.7210, 27317.00
162.9450, 25455.00
164.1690, 24633.00
165.3920, 24131.00
166.6150, 24333.00
167.8380, 25639.00
169.0610, 26950.00
170.2840, 28764.00
171.5070, 30659.00
172.7290, 32857.00
173.9510, 35226.00
175.1740, 37792.00
176.3960, 40380.00
177.6180, 42578.00
178.8390, 44846.00
180.0610, 46624.00
181.2830, 47486.00
182.5040, 47682.00
183.7250, 46927.00
184.9460, 45130.00
186.1670, 42912.00
187.3880, 39965.00
188.6090, 36930.00
189.8290, 34113.00
191.0500, 31173.00
192.2700, 28882.00
193.4900, 27011.00
194.7100, 25936.00
195.9300, 25065.00
197.1490, 24764.00
198.3690, 24567.00
199.5880, 25002.00
200.8080, 25952.00
202.0270, 26853.00
203.2460, 28200.00
204.4650, 29894.00
205.6830, 31496.00
206.9020, 33440.00
208.1200, 35472.00
209.3380, 38026.00
210.5570, 39895.00
211.7750, 41803.00
212.9920, 44198.00
214.2100, 46190.00
215.4280, 48778.00
216.6450, 50669.00
217.8620, 53199.00
219.0790, 56087.00
220.2960, 58760.00
221.5130, 62332.00
222.7300, 65927.00
223.9460, 69443.00
225.1630, 73018.00
226.3790, 75815.00
227.5950, 77601.00
228.8110, 78037.00
230.0270, 76642.00
231.2430, 73902.00
232.4580, 70150.00
233.6740, 65700.00
234.8890, 60926.00
236.1040, 56368.00
237.3190, 52788.00
238.5340, 49535.00
239.7490, 46575.00
240.9630, 44431.00
242.1780, 42408.00
243.3920, 40870.00
244.6060, 39719.00
245.8200, 38218.00
247.0340, 36991.00
248.2470, 35728.00
249.4610, 35149.00
250.6740, 33930.00
251.8880, 33196.00
253.1010, 32101.00
254.3140, 31202.00
255.5270, 30435.00
256.7390, 29255.00
257.9520, 28552.00
259.1640, 27404.00
260.3760, 26067.00
261.5880, 25239.00
262.8000, 24261.00
264.0120, 23584.00
265.2240, 22574.30
266.4350, 21427.00
267.6470, 20909.00
268.8580, 19828.00
270.0690, 19497.00
271.2800, 18617.00
272.4910, 18333.00
273.7020, 17811.00
274.9120, 17589.00
276.1230, 17032.00
277.3330, 16830.00
278.5430, 16594.00
279.7530, 16430.00
280.9630, 16251.70
282.1720, 15970.00
283.3820, 15919.00
284.5910, 15918.00
285.8000, 15719.00
287.0090, 15401.00
288.2180, 15583.00
289.4270, 15322.00
290.6360, 15180.00
291.8440, 15179.00
293.0530, 15059.00
294.2610, 15266.00
295.4690, 15341.00
296.6770, 15472.00
297.8850, 15911.00
299.0920, 15937.00
300.3000, 16414.00
301.5070, 16918.00
302.7140, 17586.00
303.9210, 18222.00
305.1280, 18941.00
306.3350, 19926.00
307.5420, 20641.00
308.7480, 21799.00
309.9540, 23022.00
311.1600, 23870.00
312.3660, 24930.00
313.5720, 25411.00
314.7780, 25766.00
315.9840, 25539.00
317.1890, 25463.00
318.3940, 24699.00
319.6000, 23760.00
320.8050, 22550.00
322.0090, 21530.00
323.2140, 20375.00
324.4190, 19386.00
325.6230, 18558.00
326.8270, 17724.00
328.0320, 16933.00
329.2360, 16303.00
330.4390, 15862.00
331.6430, 15440.00
332.8470, 15137.00
334.0500, 15025.00
335.2530, 14587.00
336.4560, 14479.00
337.6590, 14208.00
338.8620, 14149.00
340.0650, 14066.00
341.2670, 13827.00
342.4700, 13752.00
343.6720, 13587.56
344.8740, 13528.09
346.0760, 13428.50
347.2780, 13290.96
348.4790, 13001.92
349.6810, 12908.55
350.8820, 12736.84
352.0830, 12561.91
353.2840, 12742.00
354.4850, 12608.00
355.6860, 12423.00
356.8870, 12385.00
358.0870, 12386.00
359.2870, 12269.00
360.4880, 12267.00
361.6880, 12426.00
362.8870, 12280.00
364.0870, 12414.00
365.2870, 12456.00
366.4860, 12500.00
367.6850, 12591.00
368.8850, 12572.49
370.0840, 12696.59
371.2820, 12780.55
372.4810, 12826.58
373.6800, 12720.99
374.8780, 12811.16
376.0760, 12822.87
377.2740, 12831.36
378.4720, 12949.09
379.6700, 13054.00
380.8680, 13196.00
382.0650, 13394.00
383.2630, 13531.00
384.4600, 13903.00
385.6570, 14105.00
386.8540, 14360.00
388.0510, 14586.00
389.2470, 14948.00
390.4440, 15258.00
391.6400, 15437.00
392.8360, 15767.00
394.0320, 15866.00
395.2280, 15894.00
396.4240, 15999.00
397.6190, 16292.00
398.8150, 16279.00
400.0100, 16392.00
401.2050, 16332.00
402.4000, 16597.00
403.5950, 16910.00
404.7900, 17024.00
405.9840, 17291.00
407.1790, 17794.00
408.3730, 18243.00
409.5670, 18864.00
410.7610, 19499.00
411.9550, 20378.00
413.1480, 21229.00
414.3420, 22124.00
415.5350, 23139.00
416.7280, 24071.00
417.9220, 25039.00
419.1140, 25622.00
420.3070, 25766.00
421.5000, 25102.00
422.6920, 24315.00
423.8850, 22756.00
425.0770, 21008.00
426.2690, 19449.00
427.4610, 17749.00
428.6520, 16350.00
429.8440, 14769.00
431.0350, 13650.00
432.2260, 12918.00
433.4180, 12082.00
434.6090, 11559.00
435.7990, 11040.00
436.9900, 10630.00
438.1800, 10217.00
439.3710, 10126.00
440.5610, 9887.000
441.7510, 9757.000
442.9410, 9672.000
444.1310, 9514.000
445.3200, 9625.000
446.5100, 9462.000
447.6990, 9394.000
448.8880, 9238.000
450.0770, 9166.000
451.2660, 9023.000
452.4550, 8964.000
453.6430, 8949.000
454.8320, 8827.000
456.0200, 8836.000
457.2080, 8629.000
458.3960, 8662.000
459.5840, 8670.000
460.7720, 8632.000
461.9590, 8664.000
463.1460, 8523.000
464.3340, 8451.000
465.5210, 8495.000
466.7080, 8443.000
467.8940, 8482.000
469.0810, 8571.000
470.2670, 8550.000
471.4540, 8571.000
472.6400, 8557.000
473.8260, 8647.000
475.0120, 8686.000
476.1970, 8683.000
477.3830, 8696.000
478.5680, 8819.000
479.7540, 8794.000
480.9390, 8816.000
482.1240, 9042.000
483.3080, 9089.000
484.4930, 9321.000
485.6780, 9417.000
486.8620, 9417.000
488.0460, 9630.000
489.2300, 9701.000
490.4140, 9908.000
491.5980, 9942.000
492.7810, 10049.00
493.9650, 10180.00
495.1480, 10285.00
496.3310, 10426.00
497.5140, 10512.00
498.6970, 10605.00
499.8800, 10867.07
501.0620, 11183.00
502.2440, 11410.00
503.4270, 11884.00
504.6090, 12185.00
505.7910, 12480.00
506.9720, 13036.00
508.1540, 13378.00
509.3350, 13866.00
510.5170, 14177.00
511.6980, 14451.00
512.8790, 14713.00
514.0600, 14761.00
515.2400, 14559.00
516.4210, 14346.00
517.6010, 14182.00
518.7810, 13944.00
519.9620, 13705.00
521.1410, 13514.00
522.3210, 13361.00
523.5010, 13361.00
524.6800, 13415.00
525.8600, 13430.00
527.0390, 13644.00
528.2180, 13913.00
529.3970, 14268.00
530.5750, 14668.00
531.7540, 15162.43
532.9320, 15758.00
534.1110, 16355.00
535.2890, 17069.00
536.4670, 17845.00
537.6440, 18969.00
538.8220, 20271.00
540.0000, 21609.00
541.1770, 22884.00
542.3540, 24465.00
543.5310, 25999.00
544.7080, 27440.00
545.8850, 29216.00
547.0610, 30904.00
548.2380, 32628.00
549.4140, 33692.00
550.5900, 34627.00
551.7660, 35787.00
552.9420, 36118.00
554.1170, 36510.00
555.2930, 35944.00
556.4680, 35453.00
557.6430, 34387.00
558.8180, 32959.00
559.9930, 31242.00
561.1680, 29606.00
562.3430, 27463.00
563.5170, 25884.00
564.6910, 23906.51
565.8650, 22042.00
567.0390, 20235.00
568.2130, 18917.00
569.3870, 17479.00
570.5600, 16346.00
571.7340, 15237.00
572.9070, 14478.00
574.0800, 13617.00
575.2530, 12993.00
576.4250, 12405.00
577.5980, 11917.00
578.7700, 11464.32
579.9430, 11061.00
581.1150, 10745.00
582.2870, 10448.00
583.4590, 10211.00
584.6300, 9999.000
585.8020, 9722.000
586.9730, 9566.000
588.1440, 9335.000
589.3150, 9210.000
590.4860, 9076.000
591.6570, 9014.000
592.8270, 8896.000
593.9980, 8653.000
595.1680, 8534.000
596.3380, 8384.000
597.5080, 8273.000
598.6780, 8217.000
599.8480, 8133.000
601.0170, 8069.000
602.1860, 7975.223
603.3550, 7865.536
604.5240, 7772.000
605.6930, 7623.000
606.8620, 7497.000
608.0310, 7369.000
609.1990, 7303.000
610.3670, 7289.000
611.5350, 7261.000
612.7030, 7108.000
613.8710, 7165.000
615.0390, 7095.000
616.2060, 7000.000
617.3730, 7206.000
618.5410, 6986.000
619.7080, 6968.000
620.8740, 7062.000
622.0410, 7189.000
623.2080, 7173.000
624.3740, 7207.000
625.5400, 7134.000
626.7060, 7262.000
627.8720, 7291.000
629.0380, 7246.000
630.2040, 7417.000
631.3690, 7538.000
632.5340, 7481.000
633.6990, 7545.000
634.8640, 7618.000
636.0290, 7601.000
637.1940, 7807.000
638.3580, 7815.000
639.5230, 7985.000
640.6870, 8095.000
641.8510, 8131.000
643.0150, 8179.000
644.1790, 8380.000
645.3420, 8511.000
646.5060, 8526.000
647.6690, 8848.000
648.8320, 8829.000
649.9950, 9193.000
651.1580, 9224.000
652.3200, 9498.000
653.4830, 9692.000
654.6450, 10075.00
655.8070, 10127.00
656.9690, 10388.00
658.1310, 10867.00
659.2930, 11195.00
660.4540, 11565.00
661.6160, 11972.00
662.7770, 12548.76
663.9380, 13215.00
665.0990, 13929.00
666.2600, 14798.00
667.4200, 15763.00
668.5810, 16991.00
669.7410, 18186.00
670.9010, 19878.00
672.0610, 22113.00
673.2210, 24582.00
674.3810, 27609.00
675.5400, 31332.00
676.6990, 36060.00
677.8590, 41484.00
679.0180, 48084.00
680.1760, 56502.00
681.3350, 65691.00
682.4940, 75657.00
683.6520, 87157.00
684.8100, 97656.00
685.9680, 107778.0
687.1260, 115527.0
688.2840, 118621.0
689.4420, 117451.0
690.5990, 110789.0
691.7560, 100271.0
692.9140, 88050.00
694.0710, 75505.00
695.2270, 63756.00
696.3840, 53948.00
697.5410, 45885.00
698.6970, 39011.00
699.8530, 34148.00
701.0090, 30011.00
702.1650, 26820.00
703.3210, 24381.00
704.4760, 22385.00
705.6320, 20926.00
706.7870, 19840.00
707.9420, 18618.00
709.0970, 17849.00
710.2520, 17505.00
711.4060, 17017.00
712.5610, 16741.00
713.7150, 16238.00
714.8690, 16163.00
716.0230, 15698.00
717.1770, 15738.00
718.3310, 15171.00
719.4840, 14998.00
720.6380, 14489.00
721.7910, 13679.00
722.9440, 13363.00
724.0970, 12695.00
725.2490, 12010.00
726.4020, 11370.00
727.5540, 10627.00
728.7070, 10149.42
729.8590, 9619.170
731.0110, 9269.000
732.1620, 8839.000
733.3140, 8574.000
734.4650, 8410.000
735.6170, 8108.000
736.7680, 8033.000
737.9190, 8057.000
739.0700, 7902.000
740.2200, 7819.000
741.3710, 7762.000
742.5210, 7769.000
743.6710, 7698.000
744.8210, 7694.741
745.9710, 7738.000
747.1210, 7681.000
748.2700, 7782.000
749.4200, 7807.000
750.5690, 7921.000
751.7180, 7995.198
752.8670, 8125.000
754.0160, 8228.000
755.1640, 8329.000
756.3130, 8568.000
757.4610, 8628.000
758.6090, 9101.000
759.7570, 8986.922
760.9050, 8973.772
762.0530, 8831.000
763.2000, 8645.000
764.3470, 8405.000
765.4940, 8190.000
766.6410, 8195.000
767.7880, 7871.182
768.9350, 7820.000
770.0810, 7393.000
771.2280, 7413.000
772.3740, 7234.000
773.5200, 7107.000
774.6660, 6973.000
775.8120, 6887.000
776.9570, 6791.000
778.1030, 6680.000
779.2480, 6650.000
780.3930, 6597.150
781.5380, 6581.000
782.6830, 6585.000
783.8270, 6520.000
784.9720, 6572.000
786.1160, 6403.000
787.2600, 6456.000
788.4040, 6372.000
789.5480, 6408.000
790.6910, 6414.000
791.8350, 6441.000
792.9780, 6360.000
794.1210, 6379.000
795.2640, 6469.000
796.4070, 6339.000
797.5500, 6237.000
798.6920, 6285.000
799.8350, 6261.000
800.9770, 6293.000
802.1190, 6360.000
803.2610, 6330.000
804.4030, 6237.000
805.5440, 6354.000
806.6850, 6173.000
807.8270, 6281.000
808.9680, 6458.000
810.1090, 6200.000
811.2490, 6333.000
812.3900, 6328.648
813.5300, 6293.741
814.6710, 6358.000
815.8110, 6350.000
816.9510, 6307.000
818.0910, 6350.000
819.2300, 6381.000
820.3700, 6400.000
821.5090, 6415.590
822.6480, 6360.000
823.7870, 6416.000
824.9260, 6388.000
826.0640, 6364.000
827.2030, 6565.000
828.3410, 6470.000
829.4790, 6622.000
830.6170, 6627.000
831.7550, 6574.000
832.8930, 6631.000
834.0310, 6539.000
835.1680, 6730.000
836.3050, 6702.000
837.4420, 6733.000
838.5790, 6870.000
839.7160, 6916.000
840.8520, 6893.000
841.9890, 6917.000
843.1250, 7043.000
844.2610, 7120.000
845.3970, 7190.000
846.5330, 7187.000
847.6680, 7141.000
848.8040, 7175.000
849.9390, 7171.000
851.0740, 7193.000
852.2090, 7309.000
853.3440, 7258.000
854.4780, 7359.000
855.6130, 7233.000
856.7470, 7307.000
857.8810, 7229.000
859.0150, 7257.000
860.1490, 7211.000
861.2830, 7180.000
862.4160, 7179.000
863.5490, 7164.000
864.6830, 7144.162
865.8160, 7233.000
866.9480, 7161.000
868.0810, 7120.000
869.2140, 7237.000
870.3460, 7215.000
871.4780, 7234.000
872.6100, 7256.000
873.7420, 7247.000
874.8740, 7250.000
876.0050, 7304.000
877.1370, 7272.000
878.2680, 7397.000
879.3990, 7458.000
880.5300, 7458.000
881.6600, 7494.000
882.7910, 7513.000
883.9210, 7569.000
885.0520, 7562.000
886.1820, 7737.000
887.3120, 7895.000
888.4410, 7915.000
889.5710, 8094.000
890.7000, 8341.000
891.8300, 8289.000
892.9590, 8521.000
894.0880, 8673.000
895.2160, 8964.000
896.3450, 9659.000
897.4730, 9346.000
898.6020, 9400.000
899.7300, 9850.648
900.8580, 10468.00
901.9860, 10524.00
903.1130, 10836.00
904.2410, 11125.00
905.3680, 11544.67
906.4950, 11976.99
907.6220, 12592.00
908.7490, 12905.00
909.8760, 13470.00
911.0020, 13824.00
912.1280, 14399.00
913.2550, 14855.00
914.3810, 15134.00
915.5060, 15458.00
916.6320, 15585.00
917.7580, 15660.00
918.8830, 15858.00
920.0080, 15724.00
921.1330, 15715.00
922.2580, 15466.00
923.3830, 15183.00
924.5070, 15069.00
925.6310, 14619.00
926.7560, 14357.00
927.8800, 14155.00
929.0040, 13699.00
930.1270, 13385.00
931.2510, 12912.00
932.3740, 12857.00
933.4970, 12348.00
934.6200, 12141.00
935.7430, 11874.00
936.8660, 11558.00
937.9890, 11310.00
939.1110, 11204.00
940.2330, 10950.00
941.3550, 10949.00
942.4770, 10782.00
943.5990, 10429.00
944.7200, 10449.00
945.8420, 10273.00
946.9630, 10201.00
948.0840, 10127.00
949.2050, 10190.00
950.3260, 10179.58
951.4460, 10259.00
952.5670, 10289.00
953.6870, 10291.00
954.8070, 10372.00
955.9270, 10540.00
957.0470, 10591.00
958.1660, 10869.00
959.2860, 10936.66
960.4050, 11154.72
961.5240, 11208.00
962.6430, 11570.00
963.7620, 11816.00
964.8810, 12024.00
965.9990, 12208.00
967.1170, 12495.00
968.2350, 12770.00
969.3530, 13104.00
970.4710, 13301.00
971.5890, 13558.00
972.7060, 13969.00
973.8240, 14107.00
974.9410, 14343.00
976.0580, 14792.00
977.1740, 15109.00
978.2910, 15432.52
979.4080, 15670.00
980.5240, 16124.00
981.6400, 16489.00
982.7560, 16906.00
983.8720, 17478.00
984.9870, 17761.00
986.1030, 18108.00
987.2180, 18276.00
988.3330, 18378.00
989.4480, 18503.00
990.5630, 18405.00
991.6780, 18437.00
992.7920, 18287.00
993.9070, 18046.00
995.0210, 17887.00
996.1350, 17645.00
997.2490, 17427.00
998.3620, 16915.00
999.4760, 16624.00
1000.589, 16181.00
1001.702, 15899.00
1002.815, 15523.00
1003.928, 15262.00
1005.041, 14919.69
1006.153, 14585.00
1007.266, 14230.00
1008.378, 13868.00
1009.490, 13584.56
1010.602, 13260.00
1011.713, 12995.00
1012.825, 12771.00
1013.936, 12434.00
1015.047, 12252.00
1016.158, 12110.00
1017.269, 11897.00
1018.380, 11781.00
1019.490, 11505.00
1020.601, 11125.00
1021.711, 11094.00
1022.821, 11171.00
1023.931, 10971.00
1025.040, 11064.00
1026.150, 10670.00
1027.259, 10786.00
1028.368, 10762.00
1029.477, 10657.00
1030.586, 10630.00
1031.695, 10729.00
1032.803, 10630.00
1033.912, 10602.00
1035.020, 10541.00
1036.128, 10492.00
1037.236, 10529.00
1038.343, 10512.00
1039.451, 10551.00
1040.558, 10543.00
1041.665, 10558.84
1042.772, 10572.00
1043.879, 10577.00
1044.986, 10589.00
1046.093, 10576.00
1047.199, 10575.00
1048.305, 10540.00
1049.411, 10790.00
1050.517, 10635.00
1051.623, 10730.00
1052.728, 10932.00
1053.833, 10835.00
1054.939, 11033.00
1056.044, 11231.00
1057.148, 11391.00
1058.253, 11422.00
1059.358, 11725.00
1060.462, 12157.00
1061.566, 12226.00
1062.670, 12633.00
1063.774, 12822.00
1064.878, 13314.00
1065.981, 13632.00
1067.085, 14119.00
1068.188, 14744.00
1069.291, 15311.00
1070.394, 16268.00
1071.496, 17169.00
1072.599, 18147.00
1073.701, 19383.00
1074.803, 21015.00
1075.905, 22301.00
1077.007, 24091.00
1078.109, 26159.00
1079.210, 28531.00
1080.312, 31107.00
1081.413, 33739.00
1082.514, 36220.00
1083.615, 38967.00
1084.715, 41311.00
1085.816, 43119.00
1086.916, 44234.00
1088.016, 43454.00
1089.116, 41831.00
1090.216, 39327.00
1091.316, 36281.00
1092.415, 32844.00
1093.515, 29814.00
1094.614, 26724.00
1095.713, 24346.00
1096.812, 22287.00
1097.910, 20592.00
1099.009, 19340.00
1100.107, 18122.00
1101.205, 17196.00
1102.303, 16393.00
1103.401, 15849.00
1104.499, 15274.00
1105.596, 14855.00
1106.693, 14437.00
1107.791, 14085.79
1108.888, 13927.00
1109.984, 13581.00
1111.081, 13424.00
1112.177, 13345.00
1113.274, 13219.00
1114.370, 13095.00
1115.466, 13055.00
1116.562, 12912.54
1117.657, 12778.00
1118.753, 12728.00
1119.848, 12619.00
1120.943, 12616.00
1122.038, 12365.00
1123.133, 12385.00
1124.228, 12242.00
1125.322, 12046.00
1126.416, 11870.00
1127.510, 11951.00
1128.604, 11836.00
1129.698, 11774.00
1130.792, 11677.01
1131.885, 11492.00
1132.978, 11393.00
1134.071, 11309.00
1135.164, 11165.00
1136.257, 11084.49
1137.350, 10988.50
1138.442, 10890.00
1139.534, 10818.00
1140.627, 10723.00
1141.718, 10642.00
1142.810, 10544.63
1143.902, 10363.00
1144.993, 10320.00
1146.084, 10142.00
1147.176, 9971.000
1148.266, 9867.000
1149.357, 9708.000
1150.448, 9536.000
1151.538, 9451.000
1152.628, 9377.000
1153.718, 9352.000
1154.808, 9179.000
1155.898, 9175.000
1156.988, 9107.000
1158.077, 8851.000
1159.166, 8790.000
1160.255, 8711.000
1161.344, 8668.000
1162.433, 8523.000
1163.521, 8405.000
1164.610, 8276.000
1165.698, 8166.000
1166.786, 8101.000
1167.874, 7980.006
1168.961, 7799.000
1170.049, 7780.000
1171.136, 7664.000
1172.224, 7560.000
1173.311, 7532.000
1174.397, 7408.000
1175.484, 7511.000
1176.571, 7257.000
1177.657, 7273.000
1178.743, 7293.000
1179.829, 7181.932
1180.915, 7192.044
1182.001, 7173.000
1183.086, 7088.000
1184.171, 7213.000
1185.256, 7116.000
1186.341, 7135.000
1187.426, 7105.000
1188.511, 7015.000
1189.595, 7016.000
1190.680, 6990.000
1191.764, 7014.000
1192.848, 7062.000
1193.932, 6969.000
1195.015, 6977.000
1196.099, 7004.000
1197.182, 6903.000
1198.265, 6991.000
1199.348, 6948.805
1200.431, 6974.000
1201.513, 6936.000
1202.596, 6938.000
1203.678, 6937.000
1204.760, 6898.000
1205.842, 6878.000
1206.924, 6902.413
1208.005, 6953.000
1209.087, 6916.000
1210.168, 6930.000
1211.249, 6850.000
1212.330, 6909.000
1213.411, 6871.000
1214.491, 7003.000
1215.572, 6936.000
1216.652, 6941.000
1217.732, 6808.000
1218.812, 6897.000
1219.891, 6912.000
1220.971, 6920.000
1222.050, 6859.000
1223.129, 6869.000
1224.208, 6797.000
1225.287, 6884.000
1226.366, 6861.000
1227.444, 6946.000
1228.523, 6966.000
1229.601, 6923.000
1230.679, 6942.000
1231.757, 6830.000
1232.834, 6825.000
1233.912, 6762.000
1234.989, 6816.000
1236.066, 6892.000
1237.143, 6857.000
1238.220, 6988.000
1239.297, 6992.000
1240.373, 7041.000
1241.449, 6809.000
1242.526, 6903.000
1243.601, 6928.000
1244.677, 6925.000
1245.753, 7050.000
1246.828, 6883.000
1247.904, 6844.000
1248.979, 6876.000
1250.054, 6939.000
1251.128, 6927.000
1252.203, 6944.257
1253.277, 6984.000
1254.351, 6930.000
1255.426, 6938.000
1256.499, 6927.000
1257.573, 6922.377
1258.647, 6999.000
1259.720, 6958.000
1260.793, 7009.000
1261.866, 7075.000
1262.939, 6971.000
1264.012, 6981.000
1265.084, 7018.000
1266.157, 6974.000
1267.229, 7032.000
1268.301, 7098.000
1269.373, 7121.000
1270.444, 7005.000
1271.516, 7094.000
1272.587, 7070.000
