##NAMES=Eckermannite
##RRUFFID=R060320
##IDEAL CHEMISTRY=NaNa_2_(Mg_4_Al)Si_8_O_22_(OH)_2_
##LOCALITY=Norra Karr Complex, near Granna, Ostergotsland, Sweden
##OWNER=RRUFF
##SOURCE=Michael Scott
##DESCRIPTION=Parallel aggregate of blue elongated bladed crystals
##STATUS=The identification of this mineral is confirmed by single-crystal X-ray diffraction and chemical analysis.
##URL=rruff.info/R060320
##MEASURED CHEMISTRY=(Na_2.50_K_0.30_[box]_0.20_)_Σ=3_(Mg_2.35_Fe^2+^_1.35_Al_1.20_Mn_0.10_)_Σ=5_Si_8.00_O_22_((OH)_1.18_F_0.82_)_Σ=2_; OH estimated by charge balance, dark material
##PIN_ID=M01619
##ORIENTATION=Laser parallel to b* (0 1 0). Fiducial mark perpendicular to laser is parallel to -c [0 0 -1]
136.6840, 47123.00
137.9110, 46406.00
139.1380, 46823.00
140.3650, 46972.00
141.5920, 47621.00
142.8190, 47537.00
144.0460, 47507.00
145.2720, 47686.00
146.4990, 48146.00
147.7250, 48878.00
148.9510, 49758.00
150.1770, 51371.00
151.4020, 52790.00
152.6280, 53982.00
153.8530, 55629.00
155.0790, 57182.00
156.3040, 58627.00
157.5290, 59230.00
158.7530, 59018.00
159.9780, 58210.00
161.2030, 57299.00
162.4270, 56017.00
163.6510, 54650.00
164.8750, 53969.56
166.0990, 53072.00
167.3230, 52883.00
168.5470, 52760.00
169.7700, 53196.00
170.9930, 53984.00
172.2160, 54905.00
173.4390, 56240.00
174.6620, 58188.00
175.8850, 59499.00
177.1080, 61363.00
178.3300, 62836.00
179.5520, 64850.00
180.7740, 67217.00
181.9960, 68484.00
183.2180, 69644.00
184.4400, 70425.00
185.6610, 70793.00
186.8820, 70530.00
188.1040, 69950.00
189.3250, 68468.00
190.5450, 67129.00
191.7660, 65708.00
192.9870, 64378.00
194.2070, 62732.00
195.4270, 61869.00
196.6480, 60936.00
197.8680, 61041.00
199.0870, 61335.00
200.3070, 61319.00
201.5270, 62001.00
202.7460, 63408.00
203.9650, 64520.00
205.1840, 65957.00
206.4030, 67483.00
207.6220, 69598.00
208.8400, 71181.00
210.0590, 73254.00
211.2770, 74712.00
212.4950, 77079.00
213.7130, 78533.00
214.9310, 79887.00
216.1490, 80116.00
217.3660, 80315.00
218.5840, 80366.00
219.8010, 79781.00
221.0180, 79818.00
222.2350, 79748.00
223.4520, 79935.00
224.6680, 80151.00
225.8850, 80345.00
227.1010, 80742.00
228.3170, 81448.00
229.5330, 81559.00
230.7490, 81740.00
231.9650, 80711.00
233.1810, 79563.00
234.3960, 77815.00
235.6110, 75664.00
236.8260, 73567.00
238.0410, 70732.00
239.2560, 68793.00
240.4710, 66477.00
241.6850, 64823.00
242.9000, 63467.00
244.1140, 62458.00
245.3280, 60997.00
246.5420, 60149.00
247.7550, 59669.00
248.9690, 59009.00
250.1820, 58434.00
251.3960, 57703.00
252.6090, 57139.42
253.8220, 56601.00
255.0350, 55978.00
256.2470, 55499.00
257.4600, 54974.00
258.6720, 54881.18
259.8840, 55226.00
261.0960, 54265.00
262.3080, 52737.00
263.5200, 51037.00
264.7320, 50244.00
265.9430, 49490.00
267.1540, 49103.00
268.3650, 48522.00
269.5760, 47758.00
270.7870, 47037.00
271.9980, 46884.00
273.2080, 46087.00
274.4190, 45277.00
275.6290, 44948.00
276.8390, 44796.00
278.0490, 44719.00
279.2590, 44535.00
280.4680, 44514.96
281.6780, 44381.00
282.8870, 44495.00
284.0960, 44648.00
285.3050, 44727.83
286.5140, 44757.14
287.7230, 44753.00
288.9310, 44693.00
290.1400, 44430.00
291.3480, 44240.00
292.5560, 44021.00
293.7640, 44054.60
294.9720, 44189.00
296.1790, 44229.00
297.3870, 44231.00
298.5940, 44362.00
299.8010, 44833.00
301.0080, 45378.00
302.2150, 45785.00
303.4220, 46518.00
304.6290, 47429.00
305.8350, 48339.00
307.0410, 49500.00
308.2470, 51189.00
309.4530, 52734.00
310.6590, 53910.00
311.8650, 55350.00
313.0700, 56746.00
314.2750, 58114.00
315.4810, 59468.00
316.6860, 60618.00
317.8900, 60919.00
319.0950, 60789.00
320.3000, 60493.00
321.5040, 59547.00
322.7080, 59118.00
323.9120, 57404.00
325.1160, 56078.00
326.3200, 54850.00
327.5240, 53542.00
328.7270, 52112.00
329.9310, 51163.00
331.1340, 50080.00
332.3370, 49325.00
333.5400, 48547.00
334.7420, 47786.00
335.9450, 47073.00
337.1470, 46465.00
338.3500, 46437.00
339.5520, 46507.00
340.7540, 46083.00
341.9550, 46282.00
343.1570, 46297.00
344.3590, 46094.00
345.5600, 46159.00
346.7610, 46437.00
347.9620, 46405.00
349.1630, 46810.00
350.3640, 46879.00
351.5640, 46979.00
352.7650, 46897.00
353.9650, 46881.00
355.1650, 47304.00
356.3650, 47583.00
357.5650, 48016.00
358.7640, 48230.00
359.9640, 48634.00
361.1630, 49225.00
362.3620, 49672.00
363.5610, 49988.00
364.7600, 50410.00
365.9590, 51047.00
367.1580, 51510.00
368.3560, 51842.00
369.5540, 52444.00
370.7520, 52872.00
371.9500, 52878.00
373.1480, 53343.00
374.3460, 53095.00
375.5430, 52964.00
376.7410, 52589.00
377.9380, 52239.00
379.1350, 52170.00
380.3320, 51902.00
381.5280, 51345.00
382.7250, 51270.00
383.9210, 50874.00
385.1180, 51099.00
386.3140, 51258.00
387.5100, 51831.00
388.7050, 52063.26
389.9010, 52575.00
391.0960, 52772.00
392.2920, 53185.00
393.4870, 53464.00
394.6820, 53481.00
395.8770, 53633.00
397.0720, 53788.00
398.2660, 53432.00
399.4610, 53425.00
400.6550, 52921.00
401.8490, 52695.00
403.0430, 52588.00
404.2370, 52644.00
405.4300, 52447.00
406.6240, 52564.00
407.8170, 52488.00
409.0100, 52779.00
410.2030, 52730.00
411.3960, 53267.00
412.5890, 53731.00
413.7810, 54495.00
414.9740, 55388.00
416.1660, 57093.00
417.3580, 57342.00
418.5500, 58371.00
419.7420, 59649.00
420.9330, 59923.00
422.1250, 60073.00
423.3160, 59396.00
424.5070, 58507.00
425.6980, 57084.00
426.8890, 54963.00
428.0800, 52706.00
429.2700, 50188.00
430.4610, 48272.00
431.6510, 46419.00
432.8410, 44775.00
434.0310, 43334.00
435.2210, 42431.00
436.4100, 41436.00
437.6000, 41057.00
438.7890, 40077.00
439.9780, 39860.00
441.1670, 39496.00
442.3560, 39203.00
443.5450, 39091.00
444.7330, 39044.00
445.9210, 38783.00
447.1100, 39144.00
448.2980, 39178.00
449.4860, 39898.00
450.6730, 39455.00
451.8610, 39613.61
453.0480, 39660.00
454.2360, 39382.00
455.4230, 39528.00
456.6100, 39427.00
457.7970, 39213.00
458.9830, 39452.00
460.1700, 39449.00
461.3560, 39156.00
462.5420, 39034.00
463.7280, 39177.00
464.9140, 39484.00
466.1000, 39500.00
467.2850, 39755.00
468.4710, 39945.00
469.6560, 40193.00
470.8410, 40732.00
472.0260, 41019.00
473.2110, 41584.00
474.3960, 42275.00
475.5800, 42784.00
476.7640, 43164.00
477.9490, 43604.00
479.1330, 43999.00
480.3160, 44435.00
481.5000, 44265.00
482.6840, 44096.00
483.8670, 44458.00
485.0500, 44677.00
486.2330, 44878.00
487.4160, 44849.00
488.5990, 44837.00
489.7820, 44478.00
490.9640, 44171.00
492.1470, 43742.00
493.3290, 43488.00
494.5110, 43286.00
495.6930, 42935.00
496.8740, 42697.00
498.0560, 42733.00
499.2370, 42756.00
500.4180, 43002.00
501.5990, 43317.00
502.7800, 43701.00
503.9610, 44125.00
505.1420, 44356.00
506.3220, 44996.00
507.5020, 45830.00
508.6820, 47253.00
509.8620, 48134.00
511.0420, 48891.00
512.2220, 49396.00
513.4010, 50056.00
514.5810, 50278.00
515.7600, 50365.00
516.9390, 50354.00
518.1180, 49494.00
519.2970, 48929.00
520.4750, 48123.00
521.6540, 47500.00
522.8320, 46816.00
524.0100, 46378.00
525.1880, 46324.00
526.3660, 46119.00
527.5430, 46474.00
528.7210, 46655.00
529.8980, 46904.13
531.0750, 46973.00
532.2520, 47614.00
533.4290, 48071.00
534.6060, 48421.00
535.7820, 49103.00
536.9590, 50076.00
538.1350, 50737.00
539.3110, 52013.00
540.4870, 53935.00
541.6630, 55000.00
542.8380, 56408.00
544.0140, 58218.00
545.1890, 59834.00
546.3640, 61307.00
547.5390, 63012.00
548.7140, 64288.00
549.8890, 65283.68
551.0630, 66505.00
552.2380, 66826.00
553.4120, 67180.00
554.5860, 67683.00
555.7600, 67249.00
556.9330, 67164.00
558.1070, 66105.00
559.2800, 65217.00
560.4540, 64214.00
561.6270, 62175.00
562.8000, 60894.00
563.9730, 59383.00
565.1450, 57238.00
566.3180, 56085.00
567.4900, 54119.00
568.6620, 53063.00
569.8340, 51661.00
571.0060, 50091.00
572.1780, 49141.00
573.3490, 48116.00
574.5210, 47065.00
575.6920, 46827.00
576.8630, 45897.00
578.0340, 45470.00
579.2050, 45346.00
580.3750, 44254.00
581.5460, 43839.00
582.7160, 43687.00
583.8860, 43350.00
585.0560, 42924.00
586.2260, 42780.00
587.3960, 42233.00
588.5650, 41839.00
589.7340, 41868.00
590.9040, 41244.00
592.0730, 41508.00
593.2410, 41044.00
594.4100, 40828.00
595.5790, 40799.00
596.7470, 40612.00
597.9150, 40231.00
599.0840, 40083.03
600.2510, 39864.00
601.4190, 39610.00
602.5870, 39496.00
603.7540, 39405.00
604.9220, 38931.00
606.0890, 38953.00
607.2560, 38739.00
608.4230, 38463.00
609.5890, 38564.00
610.7560, 38381.00
611.9220, 38359.00
613.0880, 38281.00
614.2540, 38102.00
615.4200, 38076.00
616.5860, 38073.00
617.7520, 37975.00
618.9170, 37967.73
620.0820, 38043.00
621.2480, 37929.00
622.4120, 38027.00
623.5770, 38087.00
624.7420, 38337.00
625.9060, 38252.00
627.0710, 38510.00
628.2350, 38602.00
629.3990, 38411.00
630.5630, 38638.00
631.7260, 38710.00
632.8900, 38890.00
634.0530, 38724.00
635.2170, 38930.00
636.3800, 39170.00
637.5430, 39467.00
638.7050, 39754.00
639.8680, 39948.00
641.0300, 40277.00
642.1930, 40365.00
643.3550, 40454.66
644.5170, 40573.00
645.6790, 40463.00
646.8400, 40657.00
648.0020, 40629.00
649.1630, 40701.00
650.3240, 40723.00
651.4850, 40983.00
652.6460, 41399.00
653.8070, 41683.00
654.9670, 41963.00
656.1280, 41823.00
657.2880, 42033.00
658.4480, 42345.00
659.6080, 42850.00
660.7680, 43100.00
661.9270, 43140.00
663.0870, 43831.00
664.2460, 44124.00
665.4050, 44897.00
666.5640, 45337.00
667.7230, 45986.00
668.8820, 46951.00
670.0400, 47735.00
671.1990, 49081.00
672.3570, 50539.00
673.5150, 52174.00
674.6730, 54450.00
675.8310, 56954.00
676.9880, 59963.00
678.1450, 63682.00
679.3030, 68900.00
680.4600, 74615.00
681.6170, 81415.00
682.7740, 89594.00
683.9300, 99173.00
685.0870, 109563.0
686.2430, 120555.0
687.3990, 130197.0
688.5550, 137986.0
689.7110, 143196.0
690.8670, 144414.0
692.0220, 136977.0
693.1770, 128409.0
694.3330, 117825.0
695.4880, 106789.0
696.6430, 95272.00
697.7970, 85973.00
698.9520, 77720.00
700.1060, 71317.00
701.2600, 66497.00
702.4150, 62170.00
703.5690, 59551.00
704.7220, 57201.00
705.8760, 55125.35
707.0290, 53875.00
708.1830, 52729.00
709.3360, 52048.00
710.4890, 51504.00
711.6420, 50837.00
712.7940, 51226.00
713.9470, 51226.00
715.0990, 51087.00
716.2510, 51135.00
717.4030, 51043.00
718.5550, 50822.00
719.7070, 51032.00
720.8590, 50265.00
722.0100, 50230.00
723.1610, 49597.00
724.3120, 48969.00
725.4630, 48120.00
726.6140, 47380.00
727.7650, 46790.00
728.9150, 45835.00
730.0650, 45130.00
731.2160, 44483.00
732.3660, 44007.35
733.5150, 43810.00
734.6650, 43392.00
735.8150, 43258.00
736.9640, 43114.00
738.1130, 42680.00
739.2620, 42815.00
740.4110, 42673.00
741.5600, 42658.00
742.7080, 42936.00
743.8570, 42637.00
745.0050, 42949.00
746.1530, 42775.00
747.3010, 43030.00
748.4490, 43390.00
749.5960, 43499.00
750.7440, 43686.00
751.8910, 43733.00
753.0380, 43781.00
754.1850, 44163.00
755.3320, 44406.00
756.4790, 44423.00
757.6250, 44498.00
758.7720, 44976.00
759.9180, 45246.00
761.0640, 45252.00
762.2100, 45362.00
763.3550, 45039.00
764.5010, 44736.00
765.6460, 44619.00
766.7920, 44504.00
767.9370, 43916.00
769.0820, 43332.00
770.2260, 43220.00
771.3710, 42890.00
772.5150, 42323.00
773.6600, 42393.00
774.8040, 42176.00
775.9480, 42065.00
777.0910, 41679.00
778.2350, 41652.00
779.3790, 41460.00
780.5220, 41537.00
781.6650, 41540.00
782.8080, 41324.00
783.9510, 41014.00
785.0940, 41269.00
786.2360, 40981.00
787.3790, 41122.00
788.5210, 40796.00
789.6630, 41330.00
790.8050, 41017.00
791.9470, 41109.00
793.0880, 41300.00
794.2300, 41502.00
795.3710, 41394.00
796.5120, 41573.00
797.6530, 41696.00
798.7940, 41790.00
799.9340, 41715.00
801.0750, 42103.00
802.2150, 41770.00
803.3550, 42111.00
804.4950, 42112.00
805.6350, 42170.00
806.7750, 42423.11
807.9140, 42438.23
809.0540, 42812.00
810.1930, 42679.00
811.3320, 42853.00
812.4710, 43063.00
813.6100, 43451.00
814.7480, 43328.00
815.8870, 43317.00
817.0250, 43473.00
818.1630, 43096.00
819.3010, 43207.00
820.4390, 43436.00
821.5760, 43299.00
822.7140, 43320.00
823.8510, 43695.00
824.9880, 43424.00
826.1250, 43636.00
827.2620, 44024.00
828.3990, 43913.00
829.5350, 44122.00
830.6710, 44086.00
831.8080, 44180.00
832.9440, 44363.00
834.0800, 44503.00
835.2150, 44704.00
836.3510, 44744.00
837.4860, 44955.00
838.6210, 45124.00
839.7560, 45170.00
840.8910, 45353.00
842.0260, 45346.46
843.1610, 45593.00
844.2950, 45449.00
845.4290, 45461.00
846.5640, 45748.00
847.6980, 45843.00
848.8310, 45927.00
849.9650, 46122.00
851.0980, 46239.00
852.2320, 46295.00
853.3650, 46283.00
854.4980, 46330.00
855.6310, 46592.00
856.7630, 46556.00
857.8960, 46708.00
859.0280, 46729.00
860.1610, 46933.00
861.2930, 47141.00
862.4240, 47075.00
863.5560, 47032.00
864.6880, 47140.69
865.8190, 47016.00
866.9500, 47187.00
868.0820, 47143.00
869.2120, 47052.00
870.3430, 47085.68
871.4740, 47102.30
872.6040, 47095.00
873.7350, 47173.00
874.8650, 47403.00
875.9950, 47344.00
877.1250, 47674.00
878.2540, 47893.00
879.3840, 48051.00
880.5130, 48115.00
881.6420, 48200.00
882.7710, 48341.00
883.9000, 48491.00
885.0290, 48756.68
886.1570, 49312.00
887.2860, 49480.00
888.4140, 49916.00
889.5420, 50538.00
890.6700, 50608.00
891.7980, 51425.00
892.9250, 51482.00
894.0530, 52398.00
895.1800, 52879.00
896.3070, 53430.00
897.4340, 54148.00
898.5610, 54666.40
899.6870, 55309.00
900.8140, 55801.00
901.9400, 56404.00
903.0660, 56991.29
904.1920, 57716.00
905.3180, 58147.00
906.4440, 58732.00
907.5690, 59256.35
908.6950, 59619.50
909.8200, 60055.00
910.9450, 60392.00
912.0700, 60596.00
913.1940, 61064.00
914.3190, 61374.00
915.4430, 61740.00
916.5680, 61891.00
917.6920, 61994.57
918.8150, 62050.00
919.9390, 61881.00
921.0630, 61744.00
922.1860, 61391.00
923.3100, 61119.00
924.4330, 60554.00
925.5560, 60167.45
926.6780, 59791.00
927.8010, 59125.00
928.9230, 58611.00
930.0460, 57921.00
931.1680, 57207.00
932.2900, 56852.00
933.4120, 56197.77
934.5330, 55584.00
935.6550, 55195.00
936.7760, 54436.00
937.8970, 54002.00
939.0180, 53750.00
940.1390, 53190.00
941.2600, 53019.00
942.3810, 52767.00
943.5010, 52600.00
944.6210, 52460.00
945.7410, 52471.05
946.8610, 52506.65
947.9810, 52736.00
949.1010, 52811.00
950.2200, 53203.00
951.3390, 53504.00
952.4580, 54477.00
953.5770, 54490.00
954.6960, 55521.00
955.8150, 55893.00
956.9330, 56335.00
958.0520, 57450.00
959.1700, 57960.00
960.2880, 58937.00
961.4050, 60126.00
962.5230, 61067.00
963.6410, 62344.00
964.7580, 63194.00
965.8750, 64295.00
966.9920, 64938.00
968.1090, 65737.00
969.2260, 65732.00
970.3420, 66221.00
971.4590, 65914.00
972.5750, 65342.00
973.6910, 64957.00
974.8070, 64479.00
975.9230, 64009.88
977.0380, 63572.00
978.1540, 63150.00
979.2690, 62867.00
980.3840, 62545.00
981.4990, 62890.00
982.6140, 63375.00
983.7280, 63675.00
984.8430, 63637.00
985.9570, 63921.00
987.0710, 64389.00
988.1850, 64915.00
989.2990, 65194.00
990.4130, 65978.00
991.5260, 66081.00
992.6400, 66935.00
993.7530, 67133.00
994.8660, 67793.00
995.9790, 68413.00
997.0910, 68803.00
998.2040, 69186.00
999.3160, 69625.67
1000.429, 70217.52
1001.541, 70475.03
1002.652, 70405.13
1003.764, 69673.48
1004.876, 69301.31
1005.987, 68483.22
1007.098, 67439.99
1008.210, 66281.00
1009.320, 65446.00
1010.431, 64643.00
1011.542, 63986.00
1012.652, 63519.00
1013.763, 62920.52
1014.873, 62369.00
1015.983, 61998.00
1017.093, 61454.00
1018.202, 61033.00
1019.312, 60462.00
1020.421, 60120.00
1021.530, 59755.00
1022.639, 59273.00
1023.748, 58969.53
1024.857, 58526.00
1025.965, 58174.00
1027.074, 57766.00
1028.182, 57144.00
1029.290, 56947.00
1030.398, 56851.00
1031.505, 56889.00
1032.613, 56271.00
1033.720, 56397.00
1034.828, 55978.00
1035.935, 56206.00
1037.042, 56009.00
1038.148, 56084.00
1039.255, 55930.00
1040.361, 56104.00
1041.468, 56340.00
1042.574, 56299.00
1043.680, 56633.00
1044.786, 56715.00
1045.891, 56698.00
1046.997, 56895.00
1048.102, 57016.00
1049.207, 56474.00
1050.312, 56813.00
1051.417, 56230.00
1052.522, 56074.00
1053.626, 56023.00
1054.730, 56175.00
1055.835, 55792.00
1056.939, 55703.00
1058.043, 55765.00
1059.146, 55599.00
1060.250, 55401.00
1061.353, 55587.00
1062.456, 56078.00
1063.559, 55556.00
1064.662, 56117.00
1065.765, 56119.00
1066.868, 56319.00
1067.970, 56348.00
1069.072, 57014.00
1070.174, 56781.00
1071.276, 57603.00
1072.378, 58176.00
1073.480, 58606.00
1074.581, 59396.00
1075.682, 60246.73
1076.784, 61210.00
1077.885, 62367.00
1078.985, 63696.00
1080.086, 65087.00
1081.187, 66641.00
1082.287, 68011.00
1083.387, 69766.00
1084.487, 71341.00
1085.587, 72738.00
1086.687, 73996.00
1087.786, 74215.00
1088.885, 74602.00
1089.985, 73624.00
1091.084, 71854.00
1092.182, 70300.00
1093.281, 68363.00
1094.380, 66094.00
1095.478, 64435.00
1096.576, 63060.00
1097.674, 61818.00
1098.772, 61061.00
1099.870, 60254.00
1100.968, 59462.00
1102.065, 59133.00
1103.162, 58703.00
1104.259, 58710.00
1105.356, 58613.00
1106.453, 58301.00
1107.550, 58119.00
1108.646, 58315.00
1109.743, 58247.00
1110.839, 58450.00
1111.935, 58615.66
1113.030, 58851.00
1114.126, 58854.00
1115.222, 58854.41
1116.317, 58870.00
1117.412, 58628.00
1118.507, 58321.00
1119.602, 58099.00
1120.697, 58103.00
1121.791, 57951.00
1122.885, 57691.00
1123.980, 57569.00
1125.074, 57328.00
1126.168, 57247.67
1127.261, 56941.00
1128.355, 56956.00
1129.448, 56794.00
1130.541, 56329.00
1131.635, 56430.00
1132.727, 56264.00
1133.820, 56300.00
1134.913, 56075.00
1136.005, 56020.25
1137.097, 55946.00
1138.190, 55767.00
1139.281, 55258.00
1140.373, 54963.00
1141.465, 54886.24
1142.556, 54665.46
1143.648, 54709.00
1144.739, 54572.00
1145.830, 54323.00
1146.921, 54314.00
1148.011, 54046.00
1149.102, 54014.00
1150.192, 54127.00
1151.282, 53897.00
1152.372, 54074.00
1153.462, 53760.00
1154.552, 53700.00
1155.641, 53566.00
1156.731, 53704.00
1157.820, 53700.00
1158.909, 53556.00
1159.998, 53851.00
1161.086, 53433.00
1162.175, 53496.00
1163.263, 53476.00
1164.351, 53237.00
1165.440, 53124.00
1166.527, 53075.00
1167.615, 53067.00
1168.703, 53080.00
1169.790, 52974.25
1170.877, 52881.00
1171.965, 52760.00
1173.051, 52663.00
1174.138, 52511.00
1175.225, 52547.00
1176.311, 52594.00
1177.398, 52926.00
1178.484, 52745.00
1179.570, 52537.00
1180.655, 52665.00
1181.741, 53241.00
1182.827, 53012.00
1183.912, 53411.00
1184.997, 53180.00
1186.082, 53413.00
1187.167, 53512.00
1188.251, 53740.00
1189.336, 53819.00
1190.420, 53433.00
1191.505, 53419.00
1192.589, 53167.00
1193.672, 53068.00
1194.756, 53314.00
1195.840, 52923.00
1196.923, 52794.00
1198.006, 52517.00
1199.089, 52886.00
1200.172, 52425.00
1201.255, 52639.00
1202.337, 52228.00
1203.420, 52731.00
1204.502, 53052.00
1205.584, 53107.00
1206.666, 52858.00
1207.748, 52825.00
1208.829, 52691.00
1209.911, 52673.00
1210.992, 52953.00
1212.073, 52930.00
1213.154, 53169.00
1214.235, 53182.00
1215.316, 53534.00
1216.396, 53591.00
1217.476, 53709.00
1218.556, 53712.00
1219.636, 53841.00
1220.716, 54336.00
1221.796, 54587.00
1222.875, 54569.00
1223.955, 54484.00
1225.034, 54739.00
1226.113, 55015.00
1227.192, 55117.00
1228.270, 55210.00
1229.349, 55018.00
1230.427, 55444.00
1231.505, 55367.00
1232.583, 55476.00
1233.661, 55189.00
1234.739, 55238.00
1235.817, 55245.00
1236.894, 55047.00
1237.971, 54942.00
1239.048, 55013.00
1240.125, 55194.00
1241.202, 55150.00
1242.278, 55016.00
1243.355, 54985.00
1244.431, 54973.00
1245.507, 55024.29
1246.583, 55106.00
1247.659, 55154.00
1248.734, 55303.00
1249.810, 55208.00
1250.885, 55148.00
1251.960, 55304.76
1253.035, 55286.88
1254.110, 55546.00
1255.185, 55487.00
1256.259, 55594.00
1257.333, 55785.00
1258.408, 55767.00
1259.482, 55729.00
1260.555, 55710.00
1261.629, 55212.95
1262.702, 55483.88
1263.776, 55636.91
1264.849, 55678.38
1265.922, 55274.15
1266.995, 55445.45
1268.068, 55386.11
1269.140, 55317.30
1270.212, 55569.60
1271.285, 55230.20
1272.357, 55477.41
1273.428, 55608.00
1274.500, 55860.00
1275.572, 55997.00
1276.643, 56130.00
1277.714, 55880.00
1278.785, 56206.00
1279.856, 56066.00
1280.927, 56656.00
1281.998, 56543.00
1283.068, 56636.00
1284.138, 56492.00
1285.208, 56759.00
1286.278, 57134.00
1287.348, 57518.00
1288.418, 57327.00
1289.487, 57317.00
1290.556, 57453.00
1291.625, 57846.00
1292.694, 57827.00
1293.763, 57796.00
1294.832, 57868.00
1295.900, 57965.00
1296.969, 57656.00
1298.037, 58031.00
1299.105, 57931.00
1300.172, 57758.00
1301.240, 57928.00
