##NAMES=Eckermannite
##RRUFFID=R060320
##IDEAL CHEMISTRY=NaNa_2_(Mg_4_Al)Si_8_O_22_(OH)_2_
##LOCALITY=Norra Karr Complex, near Granna, Ostergotsland, Sweden
##OWNER=RRUFF
##SOURCE=Michael Scott
##DESCRIPTION=Parallel aggregate of blue elongated bladed crystals
##STATUS=The identification of this mineral is confirmed by single-crystal X-ray diffraction and chemical analysis.
##URL=rruff.info/R060320
##MEASURED CHEMISTRY=(Na_2.50_K_0.30_[box]_0.20_)_Σ=3_(Mg_2.35_Fe^2+^_1.35_Al_1.20_Mn_0.10_)_Σ=5_Si_8.00_O_22_((OH)_1.18_F_0.82_)_Σ=2_; OH estimated by charge balance, dark material
##PIN_ID=M01072
##ORIENTATION=Laser parallel to -c* (0 0 -1). Fiducial mark perpendicular to laser is parallel to -a [-1 0 0]
102.8230, 7208.000
104.0530, 7365.000
105.2840, 7590.000
106.5140, 7876.000
107.7440, 8214.000
108.9730, 8316.019
110.2030, 8534.297
111.4320, 8694.000
112.6620, 8899.000
113.8910, 9398.000
115.1200, 9822.000
116.3490, 10181.00
117.5780, 10391.00
118.8060, 10531.34
120.0350, 10502.00
121.2630, 10501.00
122.4920, 10581.00
123.7200, 10351.00
124.9480, 10006.00
126.1750, 9530.000
127.4030, 9069.000
128.6310, 8852.545
129.8580, 8635.129
131.0850, 8452.991
132.3120, 8307.012
133.5390, 8150.965
134.7660, 8126.119
135.9930, 8120.956
137.2200, 8166.072
138.4460, 8307.086
139.6720, 8417.753
140.8980, 8520.000
142.1240, 8909.000
143.3500, 9271.099
144.5760, 9816.000
145.8020, 10279.00
147.0270, 11140.00
148.2520, 11904.75
149.4780, 13000.00
150.7030, 14038.00
151.9270, 15283.00
153.1520, 16461.00
154.3770, 17559.00
155.6010, 17850.00
156.8260, 18071.00
158.0500, 17560.00
159.2740, 16637.00
160.4980, 15554.00
161.7210, 14604.00
162.9450, 14094.00
164.1690, 13606.00
165.3920, 13516.00
166.6150, 13674.00
167.8380, 14206.00
169.0610, 14778.00
170.2840, 15440.00
171.5070, 16368.00
172.7290, 17417.00
173.9510, 18468.00
175.1740, 19660.00
176.3960, 20733.00
177.6180, 21817.00
178.8390, 23076.00
180.0610, 23946.00
181.2830, 24745.00
182.5040, 24943.00
183.7250, 25096.00
184.9460, 24360.00
186.1670, 23782.00
187.3880, 22416.00
188.6090, 20894.00
189.8290, 19509.00
191.0500, 18559.00
192.2700, 17225.00
193.4900, 16373.00
194.7100, 15796.00
195.9300, 15460.00
197.1490, 15478.00
198.3690, 15632.00
199.5880, 15899.00
200.8080, 16828.00
202.0270, 17352.00
203.2460, 18367.00
204.4650, 19268.00
205.6830, 20347.00
206.9020, 21283.00
208.1200, 22590.00
209.3380, 23623.00
210.5570, 24514.00
211.7750, 25251.00
212.9920, 25840.00
214.2100, 26420.00
215.4280, 26982.00
216.6450, 27433.00
217.8620, 27824.00
219.0790, 28400.00
220.2960, 29094.00
221.5130, 30058.00
222.7300, 30806.00
223.9460, 31672.00
225.1630, 32376.00
226.3790, 32835.00
227.5950, 33315.00
228.8110, 32930.00
230.0270, 32466.00
231.2430, 31136.00
232.4580, 29679.00
233.6740, 27845.00
234.8890, 26325.00
236.1040, 24783.00
237.3190, 23284.00
238.5340, 22064.00
239.7490, 21042.00
240.9630, 20031.00
242.1780, 19584.00
243.3920, 18851.00
244.6060, 18473.00
245.8200, 18186.00
247.0340, 17809.00
248.2470, 17375.00
249.4610, 17125.00
250.6740, 16602.00
251.8880, 16654.00
253.1010, 16163.00
254.3140, 15884.00
255.5270, 15502.00
256.7390, 15019.32
257.9520, 14515.68
259.1640, 14089.00
260.3760, 13390.00
261.5880, 12952.00
262.8000, 12521.00
264.0120, 12165.00
265.2240, 11565.00
266.4350, 11189.00
267.6470, 10950.00
268.8580, 10744.00
270.0690, 10351.00
271.2800, 10137.00
272.4910, 9935.000
273.7020, 9721.000
274.9120, 9611.000
276.1230, 9340.000
277.3330, 9403.000
278.5430, 9245.000
279.7530, 9334.000
280.9630, 9165.000
282.1720, 9197.000
283.3820, 9106.000
284.5910, 9036.000
285.8000, 8999.000
287.0090, 9024.000
288.2180, 8872.000
289.4270, 8937.000
290.6360, 8871.000
291.8440, 8969.000
293.0530, 9069.000
294.2610, 8989.000
295.4690, 9090.000
296.6770, 9142.000
297.8850, 9293.509
299.0920, 9437.000
300.3000, 9723.000
301.5070, 10072.00
302.7140, 10362.00
303.9210, 10615.00
305.1280, 11054.00
306.3350, 11450.00
307.5420, 11982.00
308.7480, 12458.21
309.9540, 12901.00
311.1600, 13248.30
312.3660, 13634.00
313.5720, 13809.00
314.7780, 13942.00
315.9840, 13927.70
317.1890, 13877.00
318.3940, 13581.00
319.6000, 13381.00
320.8050, 12990.00
322.0090, 12606.00
323.2140, 12007.00
324.4190, 11583.00
325.6230, 11304.00
326.8270, 10877.00
328.0320, 10641.00
329.2360, 10372.00
330.4390, 10235.00
331.6430, 10057.00
332.8470, 10059.00
334.0500, 9974.000
335.2530, 9827.000
336.4560, 10007.00
337.6590, 9929.000
338.8620, 9776.000
340.0650, 9825.000
341.2670, 9902.000
342.4700, 9856.000
343.6720, 9857.411
344.8740, 9835.567
346.0760, 9748.000
347.2780, 9717.000
348.4790, 9619.000
349.6810, 9482.000
350.8820, 9342.000
352.0830, 9361.000
353.2840, 9321.000
354.4850, 9210.000
355.6860, 9210.000
356.8870, 9165.324
358.0870, 9127.000
359.2870, 9143.000
360.4880, 9126.000
361.6880, 9148.000
362.8870, 9152.000
364.0870, 9234.000
365.2870, 9093.000
366.4860, 9264.000
367.6850, 9358.000
368.8850, 9261.806
370.0840, 9218.000
371.2820, 9189.000
372.4810, 9145.000
373.6800, 9187.000
374.8780, 9292.000
376.0760, 9279.789
377.2740, 9257.000
378.4720, 9325.000
379.6700, 9222.000
380.8680, 9189.000
382.0650, 9346.000
383.2630, 9485.000
384.4600, 9679.000
385.6570, 9644.000
386.8540, 9789.000
388.0510, 9896.000
389.2470, 10004.00
390.4440, 10231.00
391.6400, 10269.00
392.8360, 10413.00
394.0320, 10523.00
395.2280, 10540.00
396.4240, 10599.00
397.6190, 10465.00
398.8150, 10723.00
400.0100, 10705.73
401.2050, 10961.00
402.4000, 10815.00
403.5950, 11029.00
404.7900, 10994.00
405.9840, 11318.00
407.1790, 11568.00
408.3730, 11663.00
409.5670, 12232.00
410.7610, 12550.00
411.9550, 12811.00
413.1480, 13208.00
414.3420, 13803.00
415.5350, 14359.00
416.7280, 14679.00
417.9220, 14989.00
419.1140, 15228.00
420.3070, 15217.00
421.5000, 14831.00
422.6920, 14314.00
423.8850, 13547.00
425.0770, 13401.00
426.2690, 12532.00
427.4610, 11912.00
428.6520, 10120.00
429.8440, 9279.000
431.0350, 8826.000
432.2260, 8180.000
433.4180, 7780.000
434.6090, 7495.000
435.7990, 7187.000
436.9900, 7029.000
438.1800, 6834.000
439.3710, 6647.000
440.5610, 6594.000
441.7510, 6499.000
442.9410, 6422.000
444.1310, 6327.000
445.3200, 6382.000
446.5100, 6305.000
447.6990, 6285.000
448.8880, 6211.000
450.0770, 6259.000
451.2660, 6268.000
452.4550, 6143.000
453.6430, 6088.000
454.8320, 6181.000
456.0200, 6112.000
457.2080, 6038.000
458.3960, 5974.000
459.5840, 6024.000
460.7720, 5961.000
461.9590, 5867.000
463.1460, 6027.000
464.3340, 5942.000
465.5210, 5929.000
466.7080, 5924.000
467.8940, 5940.000
469.0810, 5960.000
470.2670, 6027.000
471.4540, 5926.000
472.6400, 5981.000
473.8260, 5947.000
475.0120, 6020.000
476.1970, 6144.000
477.3830, 6301.000
478.5680, 6281.627
479.7540, 6114.000
480.9390, 6252.000
482.1240, 6157.000
483.3080, 6107.000
484.4930, 6222.000
485.6780, 6351.000
486.8620, 6368.000
488.0460, 6461.000
489.2300, 6460.000
490.4140, 6503.000
491.5980, 6436.000
492.7810, 6487.000
493.9650, 6557.000
495.1480, 6608.000
496.3310, 6664.004
497.5140, 6678.000
498.6970, 6816.000
499.8800, 6891.000
501.0620, 7065.000
502.2440, 7118.000
503.4270, 7294.000
504.6090, 7408.000
505.7910, 7626.000
506.9720, 7764.000
508.1540, 8095.000
509.3350, 8206.000
510.5170, 8197.000
511.6980, 8486.000
512.8790, 8490.000
514.0600, 8595.000
515.2400, 8548.000
516.4210, 8592.000
517.6010, 8485.000
518.7810, 8505.000
519.9620, 8398.000
521.1410, 8407.000
522.3210, 8453.000
523.5010, 8576.000
524.6800, 8436.000
525.8600, 8518.000
527.0390, 8538.000
528.2180, 8797.000
529.3970, 8906.000
530.5750, 8971.000
531.7540, 9238.000
532.9320, 9459.000
534.1110, 9835.000
535.2890, 10062.00
536.4670, 10362.00
537.6440, 10904.00
538.8220, 11321.38
540.0000, 11981.00
541.1770, 12531.00
542.3540, 13241.00
543.5310, 14111.00
544.7080, 14791.00
545.8850, 15497.53
547.0610, 16173.28
548.2380, 16831.00
549.4140, 17232.00
550.5900, 17867.00
551.7660, 18002.00
552.9420, 18240.00
554.1170, 18292.00
555.2930, 18147.00
556.4680, 17705.00
557.6430, 17404.00
558.8180, 17019.00
559.9930, 16046.00
561.1680, 15015.00
562.3430, 14454.00
563.5170, 13317.00
564.6910, 12742.00
565.8650, 11910.00
567.0390, 11109.00
568.2130, 10450.00
569.3870, 9847.000
570.5600, 9361.000
571.7340, 8951.000
572.9070, 8468.000
574.0800, 8303.000
575.2530, 7785.000
576.4250, 7765.000
577.5980, 7394.000
578.7700, 7187.000
579.9430, 7026.000
581.1150, 6915.000
582.2870, 6744.618
583.4590, 6608.932
584.6300, 6486.000
585.8020, 6363.000
586.9730, 6271.000
588.1440, 6243.000
589.3150, 6244.000
590.4860, 6000.000
591.6570, 5892.000
592.8270, 5893.000
593.9980, 5774.000
595.1680, 5888.000
596.3380, 5790.000
597.5080, 5731.000
598.6780, 5614.000
599.8480, 5613.000
601.0170, 5674.000
602.1860, 5690.000
603.3550, 5586.386
604.5240, 5491.000
605.6930, 5330.000
606.8620, 5345.000
608.0310, 5195.000
609.1990, 5182.000
610.3670, 5130.000
611.5350, 5120.000
612.7030, 5094.000
613.8710, 5093.000
615.0390, 5029.000
616.2060, 5002.000
617.3730, 5056.000
618.5410, 5006.000
619.7080, 5019.380
620.8740, 4999.000
622.0410, 5013.000
623.2080, 5033.000
624.3740, 5032.000
625.5400, 4972.000
626.7060, 5074.000
627.8720, 4944.000
629.0380, 5023.000
630.2040, 5141.000
631.3690, 5121.000
632.5340, 5123.000
633.6990, 5288.000
634.8640, 5256.000
636.0290, 5169.000
637.1940, 5289.000
638.3580, 5415.000
639.5230, 5376.000
640.6870, 5444.202
641.8510, 5560.000
643.0150, 5423.000
644.1790, 5577.000
645.3420, 5526.000
646.5060, 5623.000
647.6690, 5783.000
648.8320, 5854.000
649.9950, 5940.000
651.1580, 6019.000
652.3200, 6011.000
653.4830, 6178.000
654.6450, 6204.000
655.8070, 6318.862
656.9690, 6510.000
658.1310, 6583.000
659.2930, 6832.000
660.4540, 7051.000
661.6160, 7216.000
662.7770, 7520.000
663.9380, 7856.000
665.0990, 8128.000
666.2600, 8501.000
667.4200, 8968.000
668.5810, 9426.000
669.7410, 10150.00
670.9010, 10874.00
672.0610, 11778.00
673.2210, 13023.00
674.3810, 14536.00
675.5400, 16135.00
676.6990, 18570.00
677.8590, 20963.00
679.0180, 24143.00
680.1760, 27853.00
681.3350, 32200.00
682.4940, 36846.00
683.6520, 42236.00
684.8100, 47233.00
685.9680, 51749.00
687.1260, 55159.00
688.2840, 56566.00
689.4420, 55525.00
690.5990, 52116.00
691.7560, 47169.00
692.9140, 41702.00
694.0710, 36116.00
695.2270, 30787.00
696.3840, 26229.00
697.5410, 22693.00
698.6970, 19708.00
699.8530, 17392.00
701.0090, 15412.00
702.1650, 14102.00
703.3210, 12932.00
704.4760, 12030.00
705.6320, 11278.00
706.7870, 10808.00
707.9420, 10244.00
709.0970, 9758.000
710.2520, 9714.000
711.4060, 9298.000
712.5610, 9131.000
713.7150, 8865.000
714.8690, 8915.000
716.0230, 8704.000
717.1770, 8552.000
718.3310, 8434.000
719.4840, 8257.000
720.6380, 8042.000
721.7910, 7766.000
722.9440, 7486.000
724.0970, 7294.000
725.2490, 6999.000
726.4020, 6788.000
727.5540, 6402.000
728.7070, 6329.000
729.8590, 5987.000
731.0110, 5803.000
732.1620, 5676.000
733.3140, 5622.000
734.4650, 5434.000
735.6170, 5375.000
736.7680, 5372.000
737.9190, 5309.000
739.0700, 5346.000
740.2200, 5253.000
741.3710, 5342.000
742.5210, 5214.000
743.6710, 5295.000
744.8210, 5336.000
745.9710, 5344.000
747.1210, 5422.000
748.2700, 5461.601
749.4200, 5536.175
750.5690, 5568.000
751.7180, 5692.000
752.8670, 5728.000
754.0160, 5779.000
755.1640, 5826.000
756.3130, 6024.000
757.4610, 6008.000
758.6090, 6113.000
759.7570, 6055.000
760.9050, 6037.000
762.0530, 5942.000
763.2000, 5881.000
764.3470, 5776.000
765.4940, 5577.000
766.6410, 5482.000
767.7880, 5359.000
768.9350, 5247.000
770.0810, 5225.000
771.2280, 5177.000
772.3740, 5164.000
773.5200, 4920.000
774.6660, 4986.000
775.8120, 4847.000
776.9570, 4853.000
778.1030, 4856.000
779.2480, 4791.000
780.3930, 4794.000
781.5380, 4841.000
782.6830, 4718.000
783.8270, 4785.000
784.9720, 4681.000
786.1160, 4705.000
787.2600, 4724.000
788.4040, 4746.000
789.5480, 4780.000
790.6910, 4705.000
791.8350, 4726.000
792.9780, 4690.000
794.1210, 4710.268
795.2640, 4696.773
796.4070, 4736.000
797.5500, 4686.000
798.6920, 4614.000
799.8350, 4618.000
800.9770, 4616.000
802.1190, 4667.000
803.2610, 4587.000
804.4030, 4700.000
805.5440, 4626.000
806.6850, 4562.000
807.8270, 4558.000
808.9680, 4546.000
810.1090, 4616.000
811.2490, 4591.000
812.3900, 4626.000
813.5300, 4691.000
814.6710, 4692.000
815.8110, 4649.000
816.9510, 4651.000
818.0910, 4724.000
819.2300, 4725.000
820.3700, 4754.000
821.5090, 4798.837
822.6480, 4771.000
823.7870, 4842.000
824.9260, 4824.000
826.0640, 4776.000
827.2030, 4806.000
828.3410, 4777.000
829.4790, 4867.000
830.6170, 4923.000
831.7550, 4881.000
832.8930, 5015.000
834.0310, 4974.000
835.1680, 5003.000
836.3050, 5023.000
837.4420, 4984.000
838.5790, 4948.000
839.7160, 5079.000
840.8520, 4956.000
841.9890, 5096.000
843.1250, 5105.000
844.2610, 5037.000
845.3970, 5142.000
846.5330, 5065.000
847.6680, 5022.000
848.8040, 5086.000
849.9390, 5189.000
851.0740, 5169.000
852.2090, 5257.000
853.3440, 5212.000
854.4780, 5210.076
855.6130, 5063.000
856.7470, 5164.000
857.8810, 5139.000
859.0150, 5131.000
860.1490, 5159.000
861.2830, 5132.349
862.4160, 5128.109
863.5490, 5119.000
864.6830, 5113.000
865.8160, 5121.000
866.9480, 5154.000
868.0810, 5260.000
869.2140, 5205.000
870.3460, 5157.000
871.4780, 5143.000
872.6100, 5291.000
873.7420, 5220.000
874.8740, 5273.000
876.0050, 5291.001
877.1370, 5293.372
878.2680, 5330.000
879.3990, 5311.000
880.5300, 5403.000
881.6600, 5351.000
882.7910, 5472.000
883.9210, 5497.000
885.0520, 5578.000
886.1820, 5754.000
887.3120, 5756.000
888.4410, 5813.000
889.5710, 5828.000
890.7000, 5986.000
891.8300, 6088.000
892.9590, 6280.000
894.0880, 6414.000
895.2160, 6546.000
896.3450, 6598.000
897.4730, 6804.000
898.6020, 7002.000
899.7300, 7136.157
900.8580, 7347.154
901.9860, 7519.000
903.1130, 7711.000
904.2410, 7981.000
905.3680, 8151.000
906.4950, 8349.000
907.6220, 8712.000
908.7490, 9080.000
909.8760, 9247.000
911.0020, 9513.000
912.1280, 9721.000
913.2550, 9996.000
914.3810, 10147.00
915.5060, 10394.00
916.6320, 10409.00
917.7580, 10447.00
918.8830, 10522.00
920.0080, 10418.00
921.1330, 10289.00
922.2580, 10263.00
923.3830, 10019.00
924.5070, 10052.00
925.6310, 9717.000
926.7560, 9566.000
927.8800, 9277.000
929.0040, 9206.000
930.1270, 8916.000
931.2510, 8616.000
932.3740, 8539.000
933.4970, 8457.000
934.6200, 8327.000
935.7430, 8172.000
936.8660, 8061.000
937.9890, 8017.000
939.1110, 7914.000
940.2330, 7840.000
941.3550, 7749.000
942.4770, 7688.095
943.5990, 7518.000
944.7200, 7561.000
945.8420, 7534.000
946.9630, 7440.000
948.0840, 7514.000
949.2050, 7471.000
950.3260, 7612.000
951.4460, 7617.000
952.5670, 7771.000
953.6870, 7969.000
954.8070, 7938.000
955.9270, 8158.000
957.0470, 8295.000
958.1660, 8525.000
959.2860, 8715.000
960.4050, 8922.000
961.5240, 8936.000
962.6430, 9113.000
963.7620, 9392.000
964.8810, 9481.000
965.9990, 9797.000
967.1170, 9976.000
968.2350, 10381.00
969.3530, 10687.00
970.4710, 10978.00
971.5890, 11376.00
972.7060, 11743.84
973.8240, 12299.00
974.9410, 12596.00
976.0580, 13119.00
977.1740, 13614.00
978.2910, 14026.00
979.4080, 14512.00
980.5240, 15461.00
981.6400, 16617.00
982.7560, 17069.00
983.8720, 17627.88
984.9870, 18022.00
986.1030, 18168.00
987.2180, 18425.00
988.3330, 18599.00
989.4480, 19146.00
990.5630, 18965.00
991.6780, 19031.00
992.7920, 18717.00
993.9070, 18489.00
995.0210, 18348.00
996.1350, 18059.00
997.2490, 17603.00
998.3620, 17151.00
999.4760, 16792.00
1000.589, 16303.00
1001.702, 16070.00
1002.815, 15788.00
1003.928, 15285.00
1005.041, 14801.00
1006.153, 14513.00
1007.266, 14209.00
1008.378, 13964.00
1009.490, 13586.00
1010.602, 13418.00
1011.713, 13385.00
1012.825, 12908.00
1013.936, 12631.00
1015.047, 12490.00
1016.158, 12119.00
1017.269, 11810.00
1018.380, 11603.00
1019.490, 11279.74
1020.601, 10951.00
1021.711, 10745.00
1022.821, 10484.00
1023.931, 10214.00
1025.040, 10028.00
1026.150, 9732.000
1027.259, 9535.000
1028.368, 9340.000
1029.477, 9087.000
1030.586, 8793.000
1031.695, 8814.000
1032.803, 8636.000
1033.912, 8423.000
1035.020, 8203.000
1036.128, 8037.000
1037.236, 8009.000
1038.343, 7960.000
1039.451, 8248.000
1040.558, 8133.293
1041.665, 8006.367
1042.772, 8166.000
1043.879, 7602.000
1044.986, 7664.000
1046.093, 7545.000
1047.199, 7648.000
1048.305, 7727.000
1049.411, 7660.000
1050.517, 7702.000
1051.623, 7669.000
1052.728, 7652.000
1053.833, 7611.000
1054.939, 7749.000
1056.044, 7759.000
1057.148, 7879.000
1058.253, 7940.000
1059.358, 8012.667
1060.462, 8209.000
1061.566, 8167.000
1062.670, 8159.000
1063.774, 8210.000
1064.878, 8529.000
1065.981, 8629.000
1067.085, 8845.000
1068.188, 9107.000
1069.291, 9371.277
1070.394, 9657.000
1071.496, 10073.00
1072.599, 10494.00
1073.701, 10959.00
1074.803, 11602.00
1075.905, 12173.00
1077.007, 12949.00
1078.109, 13696.00
1079.210, 14910.00
1080.312, 15776.00
1081.413, 16942.00
1082.514, 18173.00
1083.615, 19086.00
1084.715, 20270.00
1085.816, 20655.00
1086.916, 21172.00
1088.016, 20991.00
1089.116, 20233.00
1090.216, 18941.00
1091.316, 18000.00
1092.415, 16376.00
1093.515, 15128.00
1094.614, 13984.00
1095.713, 12773.00
1096.812, 12014.00
1097.910, 11370.00
1099.009, 10617.00
1100.107, 10284.00
1101.205, 9834.000
1102.303, 9389.000
1103.401, 9184.000
1104.499, 9019.000
1105.596, 8724.000
1106.693, 8611.000
1107.791, 8487.000
1108.888, 8448.000
1109.984, 8093.000
1111.081, 8168.000
1112.177, 8029.000
1113.274, 8082.000
1114.370, 7853.000
1115.466, 7902.000
1116.562, 7841.000
1117.657, 7766.000
1118.753, 7631.000
1119.848, 7623.000
1120.943, 7650.000
1122.038, 7643.000
1123.133, 7495.000
1124.228, 7482.000
1125.322, 7460.000
1126.416, 7400.000
1127.510, 7350.493
1128.604, 7261.393
1129.698, 7215.000
1130.792, 7120.000
1131.885, 7060.000
1132.978, 7125.000
1134.071, 7009.000
1135.164, 7022.000
1136.257, 6904.000
1137.350, 6869.000
1138.442, 6813.000
1139.534, 6871.000
1140.627, 6751.000
1141.718, 6701.000
1142.810, 6566.000
1143.902, 6478.000
1144.993, 6501.000
1146.084, 6305.000
1147.176, 6410.000
1148.266, 6285.000
1149.357, 6163.000
1150.448, 6190.000
1151.538, 6111.000
1152.628, 6080.000
1153.718, 6043.000
1154.808, 5940.000
1155.898, 5934.624
1156.988, 5842.000
1158.077, 5853.000
1159.166, 5820.000
1160.255, 5723.000
1161.344, 5697.700
1162.433, 5582.000
1163.521, 5566.000
1164.610, 5568.000
1165.698, 5494.000
1166.786, 5399.000
1167.874, 5465.000
1168.961, 5407.000
1170.049, 5307.000
1171.136, 5272.000
1172.224, 5180.000
1173.311, 5140.000
1174.397, 5063.000
1175.484, 5169.000
1176.571, 5060.000
1177.657, 5057.000
1178.743, 4980.000
1179.829, 5037.000
1180.915, 4924.000
1182.001, 5026.000
1183.086, 5011.000
1184.171, 4909.000
1185.256, 4985.000
1186.341, 5002.000
1187.426, 5045.000
1188.511, 5037.447
1189.595, 4879.000
1190.680, 4971.000
1191.764, 4922.213
1192.848, 4833.000
1193.932, 4980.000
1195.015, 4853.000
1196.099, 4881.000
1197.182, 4874.000
1198.265, 4827.000
1199.348, 4946.000
1200.431, 4869.000
1201.513, 4896.000
1202.596, 4907.000
1203.678, 4822.000
1204.760, 4789.000
1205.842, 4866.000
1206.924, 4900.000
1208.005, 4863.000
1209.087, 4887.000
1210.168, 4834.000
1211.249, 4804.000
1212.330, 4861.000
1213.411, 4859.000
1214.491, 4888.000
1215.572, 4885.000
1216.652, 4775.000
1217.732, 4837.000
1218.812, 4751.000
1219.891, 4843.000
1220.971, 4931.000
1222.050, 4815.000
1223.129, 4819.000
1224.208, 4779.000
1225.287, 4818.000
1226.366, 4777.000
1227.444, 4796.000
1228.523, 4840.000
1229.601, 4734.000
1230.679, 4875.000
1231.757, 4902.000
1232.834, 4837.000
1233.912, 4905.000
1234.989, 4785.000
1236.066, 4908.000
1237.143, 4909.000
1238.220, 4910.000
1239.297, 4904.000
1240.373, 4922.509
1241.449, 4911.000
1242.526, 4943.000
1243.601, 4861.000
1244.677, 4829.000
1245.753, 4859.000
1246.828, 4862.000
1247.904, 4865.516
1248.979, 4876.623
1250.054, 4887.000
1251.128, 4876.000
1252.203, 4884.463
1253.277, 4869.000
1254.351, 4855.000
1255.426, 4878.000
1256.499, 4859.000
1257.573, 4935.000
1258.647, 4921.000
1259.720, 4945.000
1260.793, 4827.000
1261.866, 4833.000
1262.939, 4839.000
1264.012, 4954.000
1265.084, 4934.000
1266.157, 4895.000
1267.229, 4875.000
1268.301, 4871.940
1269.373, 4840.000
1270.444, 4891.000
1271.516, 4858.000
1272.587, 4896.000
