##NAMES=Eckermannite
##RRUFFID=R060320
##IDEAL CHEMISTRY=NaNa_2_(Mg_4_Al)Si_8_O_22_(OH)_2_
##LOCALITY=Norra Karr Complex, near Granna, Ostergotsland, Sweden
##OWNER=RRUFF
##SOURCE=Michael Scott
##DESCRIPTION=Parallel aggregate of blue elongated bladed crystals
##STATUS=The identification of this mineral is confirmed by single-crystal X-ray diffraction and chemical analysis.
##URL=rruff.info/R060320
##MEASURED CHEMISTRY=(Na_2.50_K_0.30_[box]_0.20_)_Σ=3_(Mg_2.35_Fe^2+^_1.35_Al_1.20_Mn_0.10_)_Σ=5_Si_8.00_O_22_((OH)_1.18_F_0.82_)_Σ=2_; OH estimated by charge balance, dark material
##PIN_ID=M00815
##ORIENTATION=Laser parallel to a* (1 0 0). Fiducial mark perpendicular to laser is parallel to b [0 1 0]
136.6840, 39180.00
137.9110, 38925.00
139.1380, 38638.71
140.3650, 38937.62
141.5920, 39130.31
142.8190, 39224.73
144.0460, 38800.91
145.2720, 39142.26
146.4990, 39235.75
147.7250, 39359.12
148.9510, 39927.93
150.1770, 39794.94
151.4020, 40440.81
152.6280, 40834.51
153.8530, 41404.41
155.0790, 41724.84
156.3040, 42157.00
157.5290, 42726.00
158.7530, 43080.00
159.9780, 43317.00
161.2030, 43879.00
162.4270, 44251.34
163.6510, 44445.00
164.8750, 45129.00
166.0990, 45919.00
167.3230, 46248.00
168.5470, 46523.00
169.7700, 46879.00
170.9930, 47191.26
172.2160, 47609.00
173.4390, 47876.00
174.6620, 48255.00
175.8850, 48659.00
177.1080, 49733.00
178.3300, 50620.00
179.5520, 51661.00
180.7740, 53315.00
181.9960, 54140.00
183.2180, 55669.00
184.4400, 56550.00
185.6610, 56768.00
186.8820, 56878.00
188.1040, 56782.00
189.3250, 56519.00
190.5450, 55965.00
191.7660, 55074.00
192.9870, 54759.00
194.2070, 54667.00
195.4270, 54786.00
196.6480, 55134.00
197.8680, 56169.00
199.0870, 57230.00
200.3070, 58831.00
201.5270, 60981.00
202.7460, 63672.00
203.9650, 66442.00
205.1840, 70214.00
206.4030, 72539.00
207.6220, 75343.00
208.8400, 77925.00
210.0590, 80407.00
211.2770, 82237.00
212.4950, 83158.00
213.7130, 83156.00
214.9310, 82485.00
216.1490, 81216.00
217.3660, 78971.00
218.5840, 76494.00
219.8010, 73093.00
221.0180, 70573.00
222.2350, 67786.00
223.4520, 64717.00
224.6680, 62241.00
225.8850, 59656.00
227.1010, 57580.00
228.3170, 55587.22
229.5330, 53980.00
230.7490, 52342.00
231.9650, 50819.00
233.1810, 49830.00
234.3960, 48515.00
235.6110, 47686.00
236.8260, 47042.00
238.0410, 46142.00
239.2560, 45764.00
240.4710, 45213.00
241.6850, 44868.00
242.9000, 44567.29
244.1140, 44007.00
245.3280, 44019.00
246.5420, 43752.00
247.7550, 43375.00
248.9690, 43874.00
250.1820, 44042.00
251.3960, 43826.00
252.6090, 43771.00
253.8220, 43425.00
255.0350, 42888.00
256.2470, 42678.00
257.4600, 42365.00
258.6720, 42318.00
259.8840, 41825.00
261.0960, 41569.00
262.3080, 40496.00
263.5200, 39682.28
264.7320, 38680.00
265.9430, 37875.00
267.1540, 37538.00
268.3650, 37573.00
269.5760, 36793.00
270.7870, 36722.00
271.9980, 36731.00
273.2080, 36638.00
274.4190, 36573.86
275.6290, 36541.83
276.8390, 36362.00
278.0490, 36407.00
279.2590, 36220.00
280.4680, 36056.00
281.6780, 35929.00
282.8870, 36109.00
284.0960, 35813.00
285.3050, 35707.00
286.5140, 35463.00
287.7230, 35334.20
288.9310, 35254.54
290.1400, 35100.00
291.3480, 35149.00
292.5560, 35056.00
293.7640, 35041.00
294.9720, 35012.00
296.1790, 35173.00
297.3870, 35165.00
298.5940, 35358.00
299.8010, 35936.00
301.0080, 36117.00
302.2150, 36724.00
303.4220, 37163.00
304.6290, 38277.00
305.8350, 38938.00
307.0410, 40044.00
308.2470, 41186.00
309.4530, 41919.00
310.6590, 43246.00
311.8650, 44541.00
313.0700, 46008.00
314.2750, 46999.00
315.4810, 47681.22
316.6860, 47962.00
317.8900, 48210.00
319.0950, 48199.00
320.3000, 47568.00
321.5040, 46943.00
322.7080, 46340.00
323.9120, 45280.00
325.1160, 44282.00
326.3200, 43451.00
327.5240, 42553.00
328.7270, 41562.00
329.9310, 40673.00
331.1340, 39811.00
332.3370, 39014.00
333.5400, 38414.00
334.7420, 37825.00
335.9450, 37003.00
337.1470, 36432.00
338.3500, 36296.00
339.5520, 35782.00
340.7540, 35674.00
341.9550, 35380.00
343.1570, 35320.00
344.3590, 35247.00
345.5600, 35306.00
346.7610, 35080.00
347.9620, 35329.00
349.1630, 35394.00
350.3640, 35395.00
351.5640, 35657.00
352.7650, 35779.00
353.9650, 36328.00
355.1650, 36540.00
356.3650, 37009.00
357.5650, 37397.00
358.7640, 38128.00
359.9640, 38351.00
361.1630, 39133.00
362.3620, 39658.00
363.5610, 40384.00
364.7600, 40855.00
365.9590, 41227.00
367.1580, 41360.00
368.3560, 41273.00
369.5540, 41490.00
370.7520, 41363.00
371.9500, 41451.00
373.1480, 41340.00
374.3460, 41391.00
375.5430, 41540.00
376.7410, 41578.00
377.9380, 41684.00
379.1350, 41709.00
380.3320, 41808.00
381.5280, 42219.00
382.7250, 42451.00
383.9210, 42947.00
385.1180, 43327.00
386.3140, 44146.00
387.5100, 44765.00
388.7050, 45608.00
389.9010, 46192.00
391.0960, 46796.00
392.2920, 47243.00
393.4870, 47381.00
394.6820, 47946.00
395.8770, 47722.00
397.0720, 48213.00
398.2660, 47882.00
399.4610, 48031.00
400.6550, 47799.00
401.8490, 47796.00
403.0430, 47634.00
404.2370, 47634.00
405.4300, 47673.00
406.6240, 47957.00
407.8170, 48154.00
409.0100, 48595.39
410.2030, 49283.00
411.3960, 49711.00
412.5890, 50375.00
413.7810, 51147.00
414.9740, 52601.00
416.1660, 54455.00
417.3580, 55829.00
418.5500, 56641.00
419.7420, 57889.00
420.9330, 58244.00
422.1250, 57730.00
423.3160, 56871.00
424.5070, 55507.00
425.6980, 53475.00
426.8890, 51074.00
428.0800, 48494.00
429.2700, 45872.00
430.4610, 43371.00
431.6510, 41313.00
432.8410, 39886.00
434.0310, 38219.00
435.2210, 37135.00
436.4100, 35938.00
437.6000, 35505.00
438.7890, 34787.00
439.9780, 33979.00
441.1670, 33883.00
442.3560, 33293.00
443.5450, 33291.00
444.7330, 33170.00
445.9210, 32899.00
447.1100, 32704.00
448.2980, 32745.00
449.4860, 32529.00
450.6730, 32212.00
451.8610, 32329.00
453.0480, 32223.00
454.2360, 32482.00
455.4230, 32052.00
456.6100, 32287.00
457.7970, 32327.00
458.9830, 32580.00
460.1700, 32237.00
461.3560, 32236.00
462.5420, 32327.00
463.7280, 32388.00
464.9140, 32266.00
466.1000, 32522.00
467.2850, 32408.00
468.4710, 32717.00
469.6560, 32712.00
470.8410, 32812.00
472.0260, 32778.00
473.2110, 33103.00
474.3960, 33299.00
475.5800, 33547.00
476.7640, 33664.00
477.9490, 33919.00
479.1330, 34251.00
480.3160, 34835.00
481.5000, 34925.00
482.6840, 35370.00
483.8670, 35512.00
485.0500, 35403.00
486.2330, 35822.00
487.4160, 35740.92
488.5990, 36040.00
489.7820, 35776.00
490.9640, 35653.00
492.1470, 35586.00
493.3290, 35577.00
494.5110, 34806.00
495.6930, 34899.00
496.8740, 34611.00
498.0560, 34650.00
499.2370, 34708.00
500.4180, 34539.00
501.5990, 34709.00
502.7800, 34674.00
503.9610, 34828.00
505.1420, 35130.00
506.3220, 35358.00
507.5020, 35298.00
508.6820, 35959.00
509.8620, 36373.00
511.0420, 36468.00
512.2220, 37477.00
513.4010, 37332.00
514.5810, 37759.00
515.7600, 38188.00
516.9390, 38905.00
518.1180, 39419.00
519.2970, 39882.00
520.4750, 40027.00
521.6540, 40377.00
522.8320, 40781.00
524.0100, 41427.00
525.1880, 41788.00
526.3660, 42060.00
527.5430, 42327.00
528.7210, 42881.00
529.8980, 43066.00
531.0750, 43636.00
532.2520, 43977.00
533.4290, 44432.00
534.6060, 44928.00
535.7820, 45384.00
536.9590, 45650.00
538.1350, 46118.00
539.3110, 46865.00
540.4870, 47458.00
541.6630, 48306.00
542.8380, 49013.00
544.0140, 50193.00
545.1890, 51127.00
546.3640, 52058.51
547.5390, 53031.00
548.7140, 54001.00
549.8890, 54522.00
551.0630, 55475.00
552.2380, 55998.00
553.4120, 56490.00
554.5860, 56467.95
555.7600, 56241.51
556.9330, 55783.00
558.1070, 54914.00
559.2800, 54105.00
560.4540, 52792.00
561.6270, 51778.64
562.8000, 50439.73
563.9730, 49439.00
565.1450, 47844.00
566.3180, 46795.00
567.4900, 45961.00
568.6620, 44745.00
569.8340, 43932.00
571.0060, 43293.00
572.1780, 42802.00
573.3490, 41686.00
574.5210, 41432.80
575.6920, 40888.00
576.8630, 40584.00
578.0340, 40385.00
579.2050, 39895.00
580.3750, 39473.00
581.5460, 39219.00
582.7160, 39006.00
583.8860, 38649.00
585.0560, 38405.00
586.2260, 38217.00
587.3960, 37902.00
588.5650, 37853.00
589.7340, 37640.00
590.9040, 37186.00
592.0730, 37046.00
593.2410, 36601.00
594.4100, 36491.00
595.5790, 36175.46
596.7470, 36137.00
597.9150, 35522.00
599.0840, 35463.00
600.2510, 34941.00
601.4190, 34602.00
602.5870, 34569.00
603.7540, 33777.00
604.9220, 33669.00
606.0890, 33572.00
607.2560, 33315.00
608.4230, 32891.00
609.5890, 32467.00
610.7560, 32062.00
611.9220, 32123.00
613.0880, 31907.00
614.2540, 31670.00
615.4200, 31580.00
616.5860, 31294.00
617.7520, 31097.00
618.9170, 31202.00
620.0820, 30987.00
621.2480, 30915.00
622.4120, 30742.00
623.5770, 30734.00
624.7420, 30578.00
625.9060, 31041.00
627.0710, 30859.00
628.2350, 30766.00
629.3990, 30949.00
630.5630, 30708.00
631.7260, 30946.00
632.8900, 31079.00
634.0530, 31359.00
635.2170, 31412.21
636.3800, 31387.00
637.5430, 31596.00
638.7050, 31366.00
639.8680, 31559.00
641.0300, 31609.00
642.1930, 31629.00
643.3550, 31761.00
644.5170, 31767.00
645.6790, 31833.00
646.8400, 31874.00
648.0020, 32279.00
649.1630, 32315.05
650.3240, 32465.40
651.4850, 32653.00
652.6460, 32712.00
653.8070, 32903.00
654.9670, 33121.00
656.1280, 33377.00
657.2880, 33622.00
658.4480, 33855.00
659.6080, 33983.00
660.7680, 34306.00
661.9270, 34493.00
663.0870, 34910.00
664.2460, 35280.00
665.4050, 35794.00
666.5640, 36370.00
667.7230, 37040.90
668.8820, 37727.00
670.0400, 38739.00
671.1990, 39761.00
672.3570, 41006.00
673.5150, 42198.00
674.6730, 44062.00
675.8310, 46126.00
676.9880, 48481.00
678.1450, 51694.00
679.3030, 55809.00
680.4600, 60849.78
681.6170, 66871.00
682.7740, 73676.00
683.9300, 81889.00
685.0870, 90730.00
686.2430, 99408.00
687.3990, 107162.0
688.5550, 112045.0
689.7110, 114729.0
690.8670, 112404.0
692.0220, 107503.0
693.1770, 100416.0
694.3330, 91105.00
695.4880, 82520.00
696.6430, 74003.00
697.7970, 66992.00
698.9520, 60955.00
700.1060, 56186.00
701.2600, 52299.00
702.4150, 49873.00
703.5690, 46938.00
704.7220, 45129.00
705.8760, 44032.00
707.0290, 42299.00
708.1830, 41553.00
709.3360, 40672.00
710.4890, 40096.00
711.6420, 39769.00
712.7940, 39174.00
713.9470, 38877.00
715.0990, 38611.00
716.2510, 38220.00
717.4030, 38155.00
718.5550, 37693.00
719.7070, 37292.00
720.8590, 37116.00
722.0100, 36466.96
723.1610, 36458.41
724.3120, 36301.68
725.4630, 36004.75
726.6140, 35147.64
727.7650, 35013.88
728.9150, 34590.54
730.0650, 34155.31
731.2160, 34111.00
732.3660, 33810.00
733.5150, 33596.00
734.6650, 33643.00
735.8150, 33859.00
736.9640, 33751.00
738.1130, 33898.00
739.2620, 33806.00
740.4110, 33758.00
741.5600, 33692.00
742.7080, 33920.00
743.8570, 34196.00
745.0050, 34332.00
746.1530, 34275.00
747.3010, 34888.00
748.4490, 35368.00
749.5960, 35544.00
750.7440, 36176.00
751.8910, 36488.00
753.0380, 37200.00
754.1850, 37827.00
755.3320, 38683.00
756.4790, 39022.00
757.6250, 39370.00
758.7720, 39836.00
759.9180, 39969.00
761.0640, 39605.00
762.2100, 39454.00
763.3550, 38947.00
764.5010, 38222.00
765.6460, 37802.00
766.7920, 37222.00
767.9370, 36603.00
769.0820, 35935.00
770.2260, 35379.00
771.3710, 35289.00
772.5150, 35163.00
773.6600, 34634.00
774.8040, 34453.00
775.9480, 34173.00
777.0910, 33905.00
778.2350, 33643.00
779.3790, 33418.00
780.5220, 33371.00
781.6650, 33279.00
782.8080, 33258.00
783.9510, 33207.32
785.0940, 33180.98
786.2360, 33176.00
787.3790, 33159.00
788.5210, 33224.00
789.6630, 33234.00
790.8050, 33089.00
791.9470, 33172.00
793.0880, 33132.00
794.2300, 33171.00
795.3710, 32743.43
796.5120, 33091.74
797.6530, 33291.87
798.7940, 33351.79
799.9340, 32851.54
801.0750, 33074.63
802.2150, 33007.83
803.3550, 32929.15
804.4950, 33108.00
805.6350, 33112.00
806.7750, 32764.00
807.9140, 33073.00
809.0540, 32989.00
810.1930, 33210.00
811.3320, 33381.00
812.4710, 33208.00
813.6100, 33180.00
814.7480, 33082.00
815.8870, 33262.00
817.0250, 33444.00
818.1630, 33319.00
819.3010, 34003.00
820.4390, 33342.00
821.5760, 33735.00
822.7140, 33718.00
823.8510, 33555.00
824.9880, 33871.00
826.1250, 33808.00
827.2620, 34027.00
828.3990, 34022.00
829.5350, 34060.00
830.6710, 34463.00
831.8080, 34621.00
832.9440, 34285.00
834.0800, 34534.00
835.2150, 34457.00
836.3510, 34586.00
837.4860, 34785.00
838.6210, 34625.00
839.7560, 34825.00
840.8910, 34759.00
842.0260, 34719.00
843.1610, 34886.00
844.2950, 34819.00
845.4290, 34847.00
846.5640, 34807.00
847.6980, 34663.00
848.8310, 34632.00
849.9650, 34677.00
851.0980, 34667.00
852.2320, 34645.48
853.3650, 34749.00
854.4980, 34546.00
855.6310, 34473.00
856.7630, 34313.00
857.8960, 34395.00
859.0280, 34493.00
860.1610, 34465.00
861.2930, 34303.00
862.4240, 34387.00
863.5560, 34615.00
864.6880, 34241.00
865.8190, 34408.00
866.9500, 34373.00
868.0820, 34189.00
869.2120, 34418.00
870.3430, 34621.00
871.4740, 34490.00
872.6040, 34527.00
873.7350, 34702.00
874.8650, 34877.00
875.9950, 35022.00
877.1250, 35007.00
878.2540, 35075.00
879.3840, 35203.00
880.5130, 35538.00
881.6420, 35434.00
882.7710, 35595.00
883.9000, 36040.00
885.0290, 36043.00
886.1570, 36300.00
887.2860, 36524.00
888.4140, 36725.00
889.5420, 36968.00
890.6700, 37172.00
891.7980, 37416.00
892.9250, 37746.00
894.0530, 37756.00
895.1800, 38283.00
896.3070, 38486.00
897.4340, 38348.00
898.5610, 38621.00
899.6870, 39317.00
900.8140, 39075.00
901.9400, 39447.00
903.0660, 39340.00
904.1920, 39733.00
905.3180, 39939.00
906.4440, 40265.00
907.5690, 39888.00
908.6950, 39493.00
909.8200, 39722.00
910.9450, 39952.00
912.0700, 39679.00
913.1940, 39878.00
914.3190, 39477.00
915.4430, 39849.00
916.5680, 39823.00
917.6920, 39434.00
918.8150, 39351.00
919.9390, 39440.00
921.0630, 39364.00
922.1860, 39223.00
923.3100, 38740.00
924.4330, 38904.00
925.5560, 38758.00
926.6780, 38846.00
927.8010, 38413.00
928.9230, 38123.00
930.0460, 38584.00
931.1680, 38093.00
932.2900, 38236.00
933.4120, 37906.00
934.5330, 37950.00
935.6550, 37826.00
936.7760, 37871.00
937.8970, 37655.00
939.0180, 37536.00
940.1390, 37630.00
941.2600, 37589.00
942.3810, 37971.00
943.5010, 37619.00
944.6210, 38027.00
945.7410, 37454.00
946.8610, 37619.00
947.9810, 37728.00
949.1010, 37537.00
950.2200, 37663.00
951.3390, 37739.00
952.4580, 37822.00
953.5770, 38118.00
954.6960, 38268.00
955.8150, 38583.00
956.9330, 38582.00
958.0520, 39045.00
959.1700, 39111.00
960.2880, 39175.00
961.4050, 39388.00
962.5230, 39325.00
963.6410, 39651.00
964.7580, 39792.00
965.8750, 39812.00
966.9920, 39966.00
968.1090, 40080.00
969.2260, 40361.00
970.3420, 40384.00
971.4590, 40622.00
972.5750, 40815.00
973.6910, 41226.00
974.8070, 41247.00
975.9230, 41501.00
977.0380, 42042.00
978.1540, 42310.00
979.2690, 43029.00
980.3840, 43229.00
981.4990, 43630.00
982.6140, 44123.00
983.7280, 44456.00
984.8430, 44649.00
985.9570, 45030.00
987.0710, 45423.00
988.1850, 45598.00
989.2990, 45600.00
990.4130, 45619.00
991.5260, 45584.00
992.6400, 45696.00
993.7530, 45464.00
994.8660, 45691.00
995.9790, 45030.00
997.0910, 44969.00
998.2040, 44930.00
999.3160, 44934.00
1000.429, 44642.00
1001.541, 44649.00
1002.652, 44620.00
1003.764, 44349.32
1004.876, 44344.00
1005.987, 43919.00
1007.098, 43661.00
1008.210, 43461.00
1009.320, 43075.00
1010.431, 43363.00
1011.542, 43306.00
1012.652, 43101.00
1013.763, 42938.00
1014.873, 43094.00
1015.983, 43157.03
1017.093, 43526.00
1018.202, 43574.00
1019.312, 43794.00
1020.421, 43937.00
1021.530, 44059.00
1022.639, 44041.00
1023.748, 43810.00
1024.857, 43891.00
1025.965, 43779.00
1027.074, 43760.00
1028.182, 43748.00
1029.290, 43607.00
1030.398, 43233.00
1031.505, 43208.00
1032.613, 43014.00
1033.720, 43086.00
1034.828, 42985.71
1035.935, 43146.00
1037.042, 42930.00
1038.148, 43027.62
1039.255, 43091.00
1040.361, 43056.00
1041.468, 43211.00
1042.574, 43385.00
1043.680, 42969.00
1044.786, 42634.00
1045.891, 42854.00
1046.997, 42285.00
1048.102, 42226.00
1049.207, 41919.00
1050.312, 41851.58
1051.417, 41741.00
1052.522, 41888.00
1053.626, 42071.00
1054.730, 42140.00
1055.835, 41596.00
1056.939, 41792.00
1058.043, 42084.00
1059.146, 41688.00
1060.250, 42013.00
1061.353, 42062.00
1062.456, 42117.00
1063.559, 42233.84
1064.662, 41868.00
1065.765, 42244.00
1066.868, 42160.00
1067.970, 42024.00
1069.072, 42211.00
1070.174, 42335.00
1071.276, 42562.00
1072.378, 42404.00
1073.480, 42695.00
1074.581, 43108.00
1075.682, 43457.00
1076.784, 43308.00
1077.885, 43761.00
1078.985, 44528.00
1080.086, 44600.00
1081.187, 45648.00
1082.287, 46104.00
1083.387, 46805.00
1084.487, 47430.00
1085.587, 47731.00
1086.687, 48121.00
1087.786, 47717.00
1088.885, 47439.00
1089.985, 47266.00
1091.084, 46562.00
1092.182, 46171.00
1093.281, 45682.00
1094.380, 45077.44
1095.478, 44684.69
1096.576, 44057.00
1097.674, 43911.00
1098.772, 43664.19
1099.870, 43591.00
1100.968, 43214.00
1102.065, 43211.00
1103.162, 43128.00
1104.259, 43002.00
1105.356, 42974.88
1106.453, 42902.72
1107.550, 42812.00
1108.646, 42808.12
1109.743, 42651.00
1110.839, 42576.00
1111.935, 42642.00
1113.030, 42519.00
1114.126, 42540.00
1115.222, 42503.00
1116.317, 42454.00
1117.412, 42055.00
1118.507, 42029.00
1119.602, 41939.00
1120.697, 41849.00
1121.791, 41787.32
1122.885, 41644.00
1123.980, 41578.00
1125.074, 41307.00
1126.168, 41078.00
1127.261, 41095.00
1128.355, 40665.00
1129.448, 40333.00
1130.541, 40497.00
1131.635, 40685.00
1132.727, 40421.00
1133.820, 40200.00
1134.913, 40251.00
1136.005, 40109.00
1137.097, 40067.00
1138.190, 39943.37
1139.281, 39745.00
1140.373, 39627.00
1141.465, 39575.00
1142.556, 39384.00
1143.648, 39443.00
1144.739, 39031.00
1145.830, 39011.00
1146.921, 38988.00
1148.011, 38866.00
1149.102, 38825.00
1150.192, 38809.00
1151.282, 38883.00
1152.372, 38855.00
1153.462, 38785.00
1154.552, 38867.19
1155.641, 38693.97
1156.731, 38864.00
1157.820, 38508.00
1158.909, 38266.00
1159.998, 38383.00
1161.086, 38519.00
1162.175, 38500.00
1163.263, 38080.00
1164.351, 38079.00
1165.440, 37968.00
1166.527, 38020.00
1167.615, 38080.00
1168.703, 37844.00
1169.790, 37753.00
1170.877, 37581.00
1171.965, 37535.00
1173.051, 37400.43
1174.138, 37356.00
1175.225, 37202.00
1176.311, 37331.00
1177.398, 37299.00
1178.484, 37303.00
1179.570, 37541.00
1180.655, 37632.00
1181.741, 37460.00
1182.827, 37772.00
1183.912, 37357.00
1184.997, 37784.00
1186.082, 37520.00
1187.167, 37558.38
1188.251, 37529.61
1189.336, 37596.00
1190.420, 37318.00
1191.505, 37332.00
1192.589, 37287.00
1193.672, 37316.00
1194.756, 37107.00
1195.840, 37062.00
1196.923, 37011.00
1198.006, 37038.00
1199.089, 37133.00
1200.172, 37142.00
1201.255, 37030.00
1202.337, 36992.00
1203.420, 36863.00
1204.502, 37250.00
1205.584, 37094.00
1206.666, 37076.00
1207.748, 37173.00
1208.829, 37009.00
1209.911, 36982.00
1210.992, 37269.00
1212.073, 37372.00
1213.154, 37327.28
1214.235, 36958.00
1215.316, 37257.00
1216.396, 37136.00
1217.476, 37159.00
1218.556, 37296.00
1219.636, 37155.00
1220.716, 37347.00
1221.796, 37527.00
1222.875, 37293.00
1223.955, 37247.00
1225.034, 37464.00
1226.113, 37437.00
1227.192, 37470.00
1228.270, 37371.00
1229.349, 37519.00
1230.427, 37132.00
1231.505, 37549.00
1232.583, 37648.00
1233.661, 37395.00
1234.739, 37316.00
1235.817, 37459.00
1236.894, 37602.00
1237.971, 37493.00
1239.048, 37577.95
1240.125, 37493.00
1241.202, 37578.00
1242.278, 37502.00
1243.355, 37564.00
1244.431, 37700.00
1245.507, 37646.00
1246.583, 37718.00
1247.659, 37655.00
1248.734, 37756.00
1249.810, 37914.00
1250.885, 37643.00
1251.960, 37890.00
1253.035, 37701.00
1254.110, 38072.00
1255.185, 37706.00
1256.259, 37843.00
1257.333, 37960.00
1258.408, 37648.00
1259.482, 38048.00
1260.555, 37759.00
1261.629, 37977.00
1262.702, 37807.00
1263.776, 37938.00
1264.849, 38022.00
1265.922, 37910.00
1266.995, 37983.00
1268.068, 37980.00
1269.140, 37897.00
1270.212, 37946.00
1271.285, 38178.00
1272.357, 38031.00
1273.428, 38059.00
1274.500, 38252.00
1275.572, 38036.00
1276.643, 38069.00
1277.714, 38030.00
1278.785, 37962.00
1279.856, 38094.00
1280.927, 38052.00
1281.998, 37996.00
1283.068, 37985.00
1284.138, 38232.00
1285.208, 37887.00
1286.278, 38023.00
1287.348, 38145.00
1288.418, 37956.00
1289.487, 38017.00
1290.556, 38108.00
1291.625, 38259.00
1292.694, 38309.00
1293.763, 38365.00
1294.832, 38169.00
1295.900, 38449.00
1296.969, 38301.00
1298.037, 38420.00
1299.105, 38350.00
1300.172, 38584.00
1301.240, 38269.00
