##NAMES=Eckermannite
##RRUFFID=R060320
##IDEAL CHEMISTRY=NaNa_2_(Mg_4_Al)Si_8_O_22_(OH)_2_
##LOCALITY=Norra Karr Complex, near Granna, Ostergotsland, Sweden
##OWNER=RRUFF
##SOURCE=Michael Scott
##DESCRIPTION=Parallel aggregate of blue elongated bladed crystals
##STATUS=The identification of this mineral is confirmed by single-crystal X-ray diffraction and chemical analysis.
##URL=rruff.info/R060320
##MEASURED CHEMISTRY=(Na_2.50_K_0.30_[box]_0.20_)_Σ=3_(Mg_2.35_Fe^2+^_1.35_Al_1.20_Mn_0.10_)_Σ=5_Si_8.00_O_22_((OH)_1.18_F_0.82_)_Σ=2_; OH estimated by charge balance, dark material
##PIN_ID=M01673
##ORIENTATION=Laser parallel to (1 0 1). Fiducial mark perpendicular to laser is parallel to b [0 1 0]
103.0850, 23225.00
104.3220, 23518.00
105.5590, 23948.00
106.7950, 24114.00
108.0320, 24327.00
109.2680, 24636.00
110.5040, 24928.00
111.7400, 25095.00
112.9760, 25834.00
114.2120, 26532.00
115.4470, 26645.00
116.6820, 26998.00
117.9170, 26704.00
119.1520, 26329.00
120.3870, 25938.00
121.6220, 25318.00
122.8560, 24595.00
124.0900, 24269.00
125.3240, 23716.00
126.5580, 23300.00
127.7920, 22551.00
129.0260, 22462.00
130.2590, 21975.00
131.4920, 21850.00
132.7250, 21660.00
133.9580, 21487.35
135.1910, 21983.00
136.4230, 21397.00
137.6560, 21803.00
138.8880, 21957.00
140.1200, 21926.00
141.3520, 22100.00
142.5830, 22544.00
143.8150, 22917.00
145.0460, 23444.00
146.2770, 24492.00
147.5080, 25189.00
148.7390, 26166.00
149.9700, 27180.00
151.2000, 28854.00
152.4310, 30665.58
153.6610, 31934.50
154.8910, 33187.18
156.1210, 34196.00
157.3500, 33889.00
158.5800, 33168.00
159.8090, 32139.00
161.0380, 30604.00
162.2670, 29723.00
163.4960, 29076.00
164.7240, 28915.00
165.9530, 28936.57
167.1810, 29405.00
168.4090, 30037.00
169.6370, 31260.00
170.8650, 32680.00
172.0920, 34147.00
173.3200, 35960.00
174.5470, 37690.00
175.7740, 39978.00
177.0010, 42224.00
178.2280, 44011.00
179.4540, 46291.00
180.6810, 48253.00
181.9070, 49259.00
183.1330, 50152.00
184.3590, 50194.00
185.5850, 49676.00
186.8100, 48411.00
188.0350, 46126.00
189.2610, 43784.00
190.4860, 41270.00
191.7110, 38931.00
192.9350, 37440.00
194.1600, 36119.00
195.3840, 34963.00
196.6080, 34690.00
197.8320, 34666.00
199.0560, 35212.00
200.2800, 35852.00
201.5030, 37105.00
202.7270, 38224.00
203.9500, 39752.00
205.1730, 41696.00
206.3950, 43609.00
207.6180, 45647.00
208.8410, 47469.00
210.0630, 49285.00
211.2850, 50642.00
212.5070, 51967.00
213.7290, 52960.00
214.9500, 53916.00
216.1720, 54655.00
217.3930, 54999.00
218.6140, 55224.00
219.8350, 56094.00
221.0560, 56871.00
222.2770, 58229.00
223.4970, 59586.00
224.7170, 60933.00
225.9370, 63123.00
227.1570, 64423.00
228.3770, 65712.00
229.5970, 65608.00
230.8160, 64770.00
232.0350, 62854.00
233.2540, 60497.00
234.4730, 57221.00
235.6920, 53600.00
236.9110, 50362.00
238.1290, 47356.00
239.3470, 45086.00
240.5650, 42540.00
241.7830, 41152.00
243.0010, 39613.00
244.2180, 38378.00
245.4360, 37292.00
246.6530, 36101.00
247.8700, 35367.00
249.0870, 34766.00
250.3040, 34172.00
251.5200, 33543.71
252.7370, 33132.00
253.9530, 32390.00
255.1690, 31981.00
256.3850, 31453.00
257.6000, 30632.00
258.8160, 29878.00
260.0310, 29319.00
261.2460, 28767.00
262.4610, 27755.00
263.6760, 27212.00
264.8910, 26273.00
266.1050, 25512.00
267.3200, 24935.00
268.5340, 24404.00
269.7480, 23816.00
270.9620, 23343.00
272.1750, 22992.00
273.3890, 22589.53
274.6020, 22216.00
275.8150, 22026.00
277.0280, 21830.00
278.2410, 21679.00
279.4540, 21641.00
280.6660, 21497.42
281.8790, 21415.00
283.0910, 21367.00
284.3030, 21236.34
285.5140, 21194.35
286.7260, 21006.00
287.9380, 21051.00
289.1490, 20899.00
290.3600, 20771.00
291.5710, 20987.00
292.7820, 20773.00
293.9920, 20873.12
295.2030, 21027.83
296.4130, 21085.00
297.6230, 21304.00
298.8330, 21703.00
300.0430, 21705.00
301.2520, 22152.00
302.4620, 22436.00
303.6710, 23107.00
304.8800, 23444.00
306.0890, 23917.00
307.2980, 24750.00
308.5070, 25497.00
309.7150, 26283.00
310.9230, 27194.00
312.1310, 27775.00
313.3390, 28547.00
314.5470, 28949.00
315.7550, 28793.00
316.9620, 28797.00
318.1690, 28318.00
319.3760, 28028.00
320.5830, 27514.00
321.7900, 27513.00
322.9960, 26400.00
324.2030, 24767.00
325.4090, 24252.00
326.6150, 23706.00
327.8210, 23134.00
329.0270, 22874.00
330.2320, 22575.00
331.4380, 22558.00
332.6430, 22322.00
333.8480, 22201.00
335.0530, 22246.00
336.2580, 21943.00
337.4620, 21859.00
338.6670, 21744.00
339.8710, 21774.00
341.0750, 21743.00
342.2790, 21780.00
343.4820, 21561.00
344.6860, 21580.11
345.8890, 21261.00
347.0920, 21513.00
348.2960, 21346.21
349.4980, 21396.00
350.7010, 21332.00
351.9040, 21499.00
353.1060, 21418.00
354.3080, 21571.00
355.5100, 21657.00
356.7120, 21924.00
357.9140, 22072.00
359.1150, 21996.00
360.3170, 21999.00
361.5180, 22326.00
362.7190, 22378.00
363.9200, 22416.00
365.1200, 22700.00
366.3210, 22995.00
367.5210, 23269.00
368.7210, 23333.00
369.9210, 23658.00
371.1210, 23949.00
372.3210, 24325.00
373.5200, 24397.00
374.7200, 24584.00
375.9190, 24558.00
377.1180, 24543.00
378.3170, 24492.00
379.5150, 24301.00
380.7140, 24216.00
381.9120, 24250.00
383.1110, 23907.00
384.3090, 24041.00
385.5060, 23935.00
386.7040, 23952.00
387.9020, 24055.00
389.0990, 24097.00
390.2960, 24305.00
391.4930, 24694.00
392.6900, 25007.00
393.8860, 25272.00
395.0830, 25073.00
396.2790, 25377.00
397.4750, 25243.00
398.6710, 25231.00
399.8670, 25254.00
401.0630, 25068.00
402.2580, 25218.00
403.4540, 25184.00
404.6490, 25145.00
405.8440, 25176.00
407.0390, 25417.00
408.2330, 25902.00
409.4280, 26142.00
410.6220, 26913.00
411.8160, 27320.00
413.0100, 28331.00
414.2040, 28941.00
415.3980, 29849.00
416.5910, 30820.00
417.7850, 31694.00
418.9780, 32490.00
420.1710, 32610.00
421.3640, 32612.00
422.5560, 31921.00
423.7490, 31128.00
424.9410, 29844.00
426.1330, 28200.00
427.3250, 26496.00
428.5170, 25029.00
429.7090, 23758.00
430.9000, 22778.00
432.0910, 21742.00
433.2820, 20887.00
434.4730, 20497.00
435.6640, 20045.00
436.8550, 20842.00
438.0450, 19537.00
439.2360, 19199.00
440.4260, 20030.00
441.6160, 18889.00
442.8060, 18690.00
443.9950, 18493.00
445.1850, 18631.00
446.3740, 18584.00
447.5630, 18512.00
448.7520, 18383.00
449.9410, 18316.00
451.1300, 18167.00
452.3180, 18132.00
453.5060, 17814.00
454.6950, 17876.00
455.8830, 17754.00
457.0700, 17586.00
458.2580, 17596.00
459.4450, 17449.00
460.6330, 17069.00
461.8200, 17265.00
463.0070, 17100.00
464.1940, 17162.00
465.3800, 16862.00
466.5670, 16846.00
467.7530, 17031.00
468.9390, 17520.00
470.1250, 17223.00
471.3110, 17266.66
472.4970, 17108.00
473.6820, 16898.00
474.8680, 16882.00
476.0530, 16790.00
477.2380, 16869.00
478.4230, 16869.00
479.6070, 16920.00
480.7920, 17053.00
481.9760, 16989.00
483.1600, 16994.00
484.3440, 17020.00
485.5280, 17290.00
486.7120, 17462.00
487.8950, 17393.00
489.0780, 17424.00
490.2620, 17576.00
491.4450, 17636.00
492.6270, 18128.00
493.8100, 18040.00
494.9920, 18395.00
496.1750, 18245.00
497.3570, 18486.00
498.5390, 18788.00
499.7210, 18968.00
500.9020, 19038.00
502.0840, 19095.00
503.2650, 19182.00
504.4460, 19326.00
505.6270, 19350.00
506.8080, 19514.00
507.9890, 19609.00
509.1690, 19659.00
510.3500, 19824.00
511.5300, 19786.00
512.7100, 19912.00
513.8900, 20018.00
515.0690, 19897.00
516.2490, 19827.00
517.4280, 19999.00
518.6070, 20321.00
519.7860, 20276.60
520.9650, 20186.00
522.1440, 20523.00
523.3220, 20468.00
524.5010, 20833.00
525.6790, 21010.00
526.8570, 21271.00
528.0350, 21568.00
529.2130, 21891.00
530.3900, 22067.00
531.5670, 22309.00
532.7450, 22868.00
533.9220, 23327.00
535.0980, 23834.00
536.2750, 24464.00
537.4520, 25065.00
538.6280, 25667.00
539.8040, 26647.00
540.9800, 27344.00
542.1560, 28231.00
543.3320, 29406.00
544.5070, 30668.00
545.6830, 31756.00
546.8580, 32800.00
548.0330, 33886.00
549.2080, 35179.00
550.3830, 36441.00
551.5570, 37140.00
552.7310, 38117.00
553.9060, 38648.00
555.0800, 38766.00
556.2540, 38864.00
557.4270, 38517.00
558.6010, 37971.20
559.7740, 37167.00
560.9470, 36108.00
562.1210, 34790.00
563.2930, 33245.00
564.4660, 31771.00
565.6390, 30158.00
566.8110, 28932.00
567.9830, 27590.00
569.1550, 26360.95
570.3270, 25364.00
571.4990, 24329.00
572.6710, 23357.00
573.8420, 22901.00
575.0130, 21867.00
576.1840, 21617.00
577.3550, 21020.00
578.5260, 20749.00
579.6970, 20407.00
580.8670, 20104.00
582.0370, 19826.72
583.2070, 19577.05
584.3770, 19314.00
585.5470, 19146.00
586.7170, 18993.00
587.8860, 18804.00
589.0550, 18560.00
590.2240, 18504.00
591.3930, 18448.00
592.5620, 18233.00
593.7310, 18316.00
594.8990, 18249.00
596.0670, 18301.00
597.2350, 18274.63
598.4030, 18208.00
599.5710, 18204.00
600.7390, 17989.00
601.9060, 17903.00
603.0740, 18058.00
604.2410, 17786.00
605.4080, 17797.00
606.5740, 17668.00
607.7410, 17604.00
608.9080, 17555.00
610.0740, 17461.00
611.2400, 17534.00
612.4060, 17524.00
613.5720, 17305.00
614.7370, 17396.00
615.9030, 17446.00
617.0680, 17234.00
618.2330, 17283.00
619.3980, 17334.00
620.5630, 17266.00
621.7280, 17512.00
622.8920, 17500.00
624.0570, 17684.00
625.2210, 17490.00
626.3850, 17453.00
627.5490, 17531.00
628.7120, 17621.00
629.8760, 17531.00
631.0390, 17621.00
632.2020, 17761.00
633.3650, 17794.00
634.5280, 17893.30
635.6910, 17702.00
636.8530, 17972.00
638.0160, 18093.00
639.1780, 18000.00
640.3400, 18222.00
641.5020, 18209.00
642.6640, 18524.00
643.8250, 18491.00
644.9870, 18716.00
646.1480, 18745.00
647.3090, 18912.00
648.4700, 18993.00
649.6300, 19030.00
650.7910, 19325.00
651.9510, 19301.00
653.1120, 19859.00
654.2720, 20057.00
655.4320, 20194.00
656.5910, 19984.00
657.7510, 20325.00
658.9100, 20557.00
660.0690, 21132.00
661.2290, 21253.00
662.3880, 21813.00
663.5460, 22032.00
664.7050, 22897.00
665.8630, 23318.00
667.0220, 24125.00
668.1800, 24852.00
669.3380, 25861.00
670.4950, 26861.00
671.6530, 28236.00
672.8100, 29896.00
673.9680, 32087.00
675.1250, 34414.00
676.2820, 37931.00
677.4390, 41675.00
678.5950, 46379.61
679.7520, 52029.00
680.9080, 58264.00
682.0640, 66029.00
683.2200, 74774.00
684.3760, 83957.00
685.5320, 93539.00
686.6870, 102019.0
687.8420, 108165.0
688.9980, 110870.0
690.1530, 109058.0
691.3070, 102294.0
692.4620, 92934.00
693.6170, 81885.00
694.7710, 71234.00
695.9250, 61996.00
697.0790, 54150.00
698.2330, 48036.00
699.3870, 43132.00
700.5400, 39111.00
701.6940, 36117.00
702.8470, 33934.00
704.0000, 32026.00
705.1530, 31660.00
706.3050, 29595.00
707.4580, 29464.00
708.6100, 28487.49
709.7630, 27982.00
710.9150, 27282.00
712.0660, 27217.00
713.2180, 27038.00
714.3700, 26884.00
715.5210, 27090.00
716.6720, 27025.00
717.8240, 26963.00
718.9740, 26687.00
720.1250, 26577.00
721.2760, 25921.00
722.4260, 25563.00
723.5770, 25025.00
724.7270, 24084.00
725.8770, 23720.00
727.0260, 22860.00
728.1760, 21974.00
729.3250, 21295.00
730.4750, 20916.00
731.6240, 20170.00
732.7730, 19928.00
733.9220, 19841.00
735.0700, 19355.00
736.2190, 19240.00
737.3670, 19037.00
738.5150, 18974.00
739.6630, 18823.00
740.8110, 18637.00
741.9590, 18819.00
743.1060, 18539.00
744.2540, 18702.00
745.4010, 18554.00
746.5480, 18667.00
747.6950, 18827.00
748.8410, 18757.00
749.9880, 18953.00
751.1340, 18829.00
752.2800, 18999.00
753.4260, 19187.00
754.5720, 19008.00
755.7180, 19245.00
756.8640, 19382.00
758.0090, 19745.00
759.1540, 19398.00
760.2990, 19610.00
761.4440, 19395.00
762.5890, 19502.00
763.7340, 19402.00
764.8780, 19370.00
766.0220, 19244.00
767.1660, 18921.00
768.3100, 18871.00
769.4540, 18839.00
770.5980, 18567.33
771.7410, 18528.87
772.8840, 18282.00
774.0280, 18178.00
775.1700, 18298.00
776.3130, 17914.00
777.4560, 18071.00
778.5980, 17837.00
779.7410, 17985.00
780.8830, 17930.00
782.0250, 17909.00
783.1670, 17935.00
784.3080, 17882.34
785.4500, 17833.85
786.5910, 17786.00
787.7320, 17732.00
788.8730, 17595.00
790.0140, 17626.00
791.1550, 17717.00
792.2950, 17491.00
793.4360, 17661.56
794.5760, 17830.00
795.7160, 17819.00
796.8560, 17820.00
797.9960, 17872.00
799.1350, 17808.00
800.2750, 17993.00
801.4140, 18108.00
802.5530, 18087.93
803.6920, 18198.00
804.8310, 18157.00
805.9690, 18204.00
807.1080, 18342.00
808.2460, 18321.00
809.3840, 18701.00
810.5220, 18787.00
811.6600, 18853.00
812.7970, 18898.00
813.9350, 18869.00
815.0720, 18606.00
816.2090, 18728.00
817.3460, 18599.00
818.4830, 18453.00
819.6200, 18454.00
820.7560, 18380.00
821.8930, 18323.00
823.0290, 18469.00
824.1650, 18454.00
825.3010, 18551.00
826.4360, 18714.00
827.5720, 18615.00
828.7070, 18684.90
829.8420, 18791.00
830.9770, 18626.00
832.1120, 18722.00
833.2470, 18648.00
834.3820, 18640.77
835.5160, 18852.00
836.6500, 18742.00
837.7840, 18899.00
838.9180, 19163.00
840.0520, 19160.00
841.1860, 19075.00
842.3190, 19165.00
843.4520, 19209.00
844.5850, 19307.71
845.7180, 19412.85
846.8510, 19615.00
847.9840, 19706.00
849.1160, 19909.00
850.2490, 20186.00
851.3810, 20544.00
852.5130, 20528.00
853.6450, 20867.00
854.7760, 21020.00
855.9080, 21170.00
857.0390, 21334.00
858.1700, 21339.00
859.3010, 21519.00
860.4320, 21323.40
861.5630, 21282.00
862.6930, 21020.00
863.8240, 20898.00
864.9540, 21000.00
866.0840, 20703.00
867.2140, 20564.00
868.3440, 20475.00
869.4730, 20323.00
870.6030, 20323.00
871.7320, 20207.00
872.8610, 20318.00
873.9900, 20139.00
875.1190, 20451.00
876.2470, 20430.00
877.3760, 20446.00
878.5040, 20452.00
879.6320, 20647.00
880.7600, 20592.00
881.8880, 20968.00
883.0150, 20830.00
884.1430, 21302.00
885.2700, 21368.00
886.3970, 21535.00
887.5240, 21918.00
888.6510, 21969.00
889.7780, 22400.00
890.9040, 22742.00
892.0310, 23081.00
893.1570, 23485.56
894.2830, 23802.00
895.4090, 24330.00
896.5350, 24680.00
897.6600, 25273.00
898.7860, 25726.00
899.9110, 26248.00
901.0360, 26520.00
902.1610, 27335.00
903.2860, 28024.00
904.4100, 28299.00
905.5350, 29203.00
906.6590, 29690.00
907.7830, 30431.00
908.9070, 31230.00
910.0310, 32110.00
911.1540, 32786.00
912.2780, 33191.00
913.4010, 34274.00
914.5240, 34710.00
915.6470, 35277.00
916.7700, 35389.00
917.8930, 35803.00
919.0150, 35545.00
920.1380, 35566.00
921.2600, 35297.00
922.3820, 34688.00
923.5040, 34352.00
924.6260, 33433.00
925.7470, 32671.00
926.8690, 32165.00
927.9900, 31229.00
929.1110, 30443.00
930.2320, 29826.00
931.3530, 28961.00
932.4730, 28237.00
933.5940, 27368.00
934.7140, 26574.00
935.8340, 25915.00
936.9540, 25393.00
938.0740, 24834.52
939.1930, 24393.83
940.3130, 23977.00
941.4320, 23652.00
942.5510, 23325.00
943.6700, 23077.00
944.7890, 22626.00
945.9080, 22560.88
947.0260, 22470.32
948.1450, 22417.00
949.2630, 22544.00
950.3810, 22571.00
951.4990, 22636.00
952.6170, 22894.00
953.7340, 23137.00
954.8520, 23352.00
955.9690, 23648.00
957.0860, 24163.00
958.2030, 24631.00
959.3200, 25199.88
960.4360, 25841.00
961.5530, 26573.00
962.6690, 27226.00
963.7850, 28151.00
964.9010, 28785.00
966.0170, 29489.00
967.1330, 29419.00
968.2480, 29744.00
969.3630, 30257.00
970.4790, 28796.00
971.5940, 28678.00
972.7080, 28331.00
973.8230, 27868.00
974.9380, 27327.00
976.0520, 27010.00
977.1660, 27000.00
978.2800, 26768.00
979.3940, 26698.00
980.5080, 26671.00
981.6220, 26821.00
982.7350, 27050.00
983.8480, 27239.00
984.9610, 27202.00
986.0740, 27555.00
987.1870, 27488.00
988.3000, 27699.00
989.4120, 28160.00
990.5250, 28131.00
991.6370, 28079.00
992.7490, 28182.00
993.8610, 28174.00
994.9720, 28202.00
996.0840, 28410.00
997.1950, 28316.00
998.3060, 28420.00
999.4170, 28239.00
1000.528, 28389.00
1001.639, 28353.00
1002.750, 28159.00
1003.860, 27982.00
1004.970, 27887.00
1006.080, 27731.00
1007.190, 27701.00
1008.300, 27468.00
1009.410, 27256.00
1010.519, 27384.00
1011.628, 27313.00
1012.738, 27683.00
1013.846, 27602.00
1014.955, 27525.00
1016.064, 27534.00
1017.172, 27263.00
1018.281, 27219.00
1019.389, 27033.58
1020.497, 26905.00
1021.605, 26701.00
1022.713, 26397.00
1023.820, 26296.00
1024.928, 25978.00
1026.035, 26070.00
1027.142, 25749.00
1028.249, 25715.00
1029.356, 25690.00
1030.462, 25580.43
1031.569, 25473.00
1032.675, 25518.00
1033.781, 25447.00
1034.887, 25364.00
1035.993, 25404.00
1037.098, 25288.00
1038.204, 25562.00
1039.309, 25375.00
1040.415, 25421.00
1041.520, 25421.00
1042.624, 25157.00
1043.729, 25429.00
1044.834, 25317.00
1045.938, 25175.00
1047.042, 25115.00
1048.146, 24978.00
1049.250, 24947.46
1050.354, 24899.00
1051.458, 24937.00
1052.561, 25038.00
1053.664, 25141.00
1054.767, 25195.00
1055.870, 25293.00
1056.973, 25111.00
1058.076, 25175.00
1059.178, 25224.00
1060.281, 25421.00
1061.383, 25310.00
1062.485, 25524.00
1063.587, 25511.00
1064.688, 25827.00
1065.790, 26045.00
1066.891, 26271.00
1067.993, 26659.00
1069.094, 26945.00
1070.195, 27261.00
1071.295, 27555.00
1072.396, 28213.32
1073.496, 28860.32
1074.597, 29751.00
1075.697, 30649.00
1076.797, 31714.00
1077.897, 32951.00
1078.996, 34254.00
1080.096, 35571.00
1081.195, 37171.00
1082.294, 38709.00
1083.393, 40340.00
1084.492, 41599.00
1085.591, 42811.00
1086.689, 43305.00
1087.788, 42943.00
1088.886, 42107.00
1089.984, 40550.00
1091.082, 38535.00
1092.180, 36881.00
1093.277, 35182.00
1094.375, 33552.00
1095.472, 31945.00
1096.569, 31156.00
1097.666, 30128.00
1098.763, 29345.00
1099.860, 29100.00
1100.956, 28394.00
1102.053, 28181.00
1103.149, 27919.00
1104.245, 27578.00
1105.341, 27355.00
1106.436, 27191.00
1107.532, 27210.00
1108.627, 27323.00
1109.723, 27081.00
1110.818, 27320.00
1111.913, 27236.00
1113.007, 27170.00
1114.102, 27266.00
1115.197, 27110.00
1116.291, 26999.06
1117.385, 26970.00
1118.479, 26574.00
1119.573, 26402.00
1120.666, 26035.00
1121.760, 25869.41
1122.853, 25712.11
1123.947, 25551.00
1125.040, 25473.00
1126.132, 25334.00
1127.225, 25220.00
1128.318, 25031.00
1129.410, 24810.00
1130.502, 24582.00
1131.595, 24595.00
1132.687, 24450.00
1133.778, 24689.00
1134.870, 24248.00
1135.961, 24269.00
1137.053, 24088.00
1138.144, 23850.00
1139.235, 24112.00
1140.326, 23850.00
1141.416, 23596.00
1142.507, 23630.00
1143.597, 23590.00
1144.688, 23322.00
1145.778, 23209.00
1146.868, 23108.00
1147.957, 23071.00
1149.047, 23105.00
1150.136, 23139.00
1151.226, 23061.00
1152.315, 22901.00
1153.404, 23012.00
1154.493, 22859.00
1155.581, 22738.00
1156.670, 22825.00
1157.758, 22669.00
1158.846, 22616.57
1159.934, 22580.00
1161.022, 22407.00
1162.110, 22301.00
1163.198, 22134.44
1164.285, 22100.00
1165.372, 21980.00
1166.459, 21984.00
1167.546, 21868.08
1168.633, 21844.00
1169.720, 21691.00
1170.806, 21675.00
1171.892, 21634.00
1172.979, 21659.00
1174.065, 21507.00
1175.150, 21385.00
1176.236, 21619.00
1177.322, 21669.00
1178.407, 21462.00
1179.492, 21457.00
1180.577, 21467.00
1181.662, 21569.00
1182.747, 21427.00
1183.832, 21399.00
1184.916, 21392.00
1186.000, 21524.00
1187.084, 21476.00
1188.168, 21444.00
1189.252, 21321.00
1190.336, 21334.32
1191.419, 21245.00
1192.503, 21308.00
1193.586, 21261.00
1194.669, 21228.00
1195.752, 21362.00
1196.835, 21000.00
1197.917, 21387.00
1199.000, 21188.00
1200.082, 21128.45
1201.164, 21146.09
1202.246, 21147.46
1203.328, 21133.41
1204.409, 21057.82
1205.491, 21061.71
1206.572, 21033.76
1207.653, 21354.00
1208.734, 21272.00
1209.815, 21514.00
1210.896, 21399.00
1211.976, 21283.00
1213.057, 21396.00
1214.137, 21756.00
1215.217, 21233.66
1216.297, 21279.78
1217.377, 21309.62
1218.456, 21324.04
1219.536, 21276.91
1220.615, 21309.26
1221.694, 21309.75
1222.773, 21308.94
1223.852, 21352.48
1224.931, 21576.00
1226.009, 21521.00
1227.088, 21588.00
1228.166, 21588.00
1229.244, 21522.00
1230.322, 21580.00
1231.400, 21571.54
1232.477, 21592.32
1233.555, 21618.00
1234.632, 21648.00
1235.709, 21674.00
1236.786, 21680.00
1237.863, 21707.00
1238.939, 21876.00
1240.016, 21820.74
1241.092, 21986.00
1242.168, 21816.00
1243.245, 21826.00
1244.320, 21841.00
1245.396, 21875.00
1246.472, 21983.00
1247.547, 21788.00
1248.622, 21997.00
1249.697, 21800.00
1250.772, 21931.00
1251.847, 21902.00
1252.922, 21908.00
1253.996, 21939.00
1255.071, 21891.00
1256.145, 21982.00
1257.219, 22008.00
1258.293, 22165.00
1259.366, 22121.00
1260.440, 22133.53
1261.513, 22145.00
1262.587, 22094.00
1263.660, 22120.00
1264.733, 22177.00
1265.805, 22077.00
1266.878, 22139.44
1267.951, 22273.00
1269.023, 22226.00
1270.095, 22196.00
1271.167, 22355.00
1272.239, 22320.00
