##NAMES=Eckermannite
##RRUFFID=R060320
##IDEAL CHEMISTRY=NaNa_2_(Mg_4_Al)Si_8_O_22_(OH)_2_
##LOCALITY=Norra Karr Complex, near Granna, Ostergotsland, Sweden
##OWNER=RRUFF
##SOURCE=Michael Scott
##DESCRIPTION=Parallel aggregate of blue elongated bladed crystals
##STATUS=The identification of this mineral is confirmed by single-crystal X-ray diffraction and chemical analysis.
##URL=rruff.info/R060320
##MEASURED CHEMISTRY=(Na_2.50_K_0.30_[box]_0.20_)_Σ=3_(Mg_2.35_Fe^2+^_1.35_Al_1.20_Mn_0.10_)_Σ=5_Si_8.00_O_22_((OH)_1.18_F_0.82_)_Σ=2_; OH estimated by charge balance, dark material
##PIN_ID=M00815
##ORIENTATION=Laser parallel to a* (1 0 0). Fiducial mark perpendicular to laser is parallel to b [0 1 0]
136.6840, 35452.00
137.9110, 36028.00
139.1380, 35879.00
140.3650, 36571.00
141.5920, 36706.00
142.8190, 37080.00
144.0460, 36796.00
145.2720, 37198.00
146.4990, 37693.00
147.7250, 37985.00
148.9510, 39007.00
150.1770, 40170.00
151.4020, 41751.00
152.6280, 43511.00
153.8530, 45500.00
155.0790, 47322.00
156.3040, 48248.00
157.5290, 48929.00
158.7530, 48646.00
159.9780, 48780.00
161.2030, 47164.67
162.4270, 45087.00
163.6510, 43748.00
164.8750, 42582.00
166.0990, 41979.00
167.3230, 41189.00
168.5470, 41196.00
169.7700, 40976.00
170.9930, 41268.00
172.2160, 42110.00
173.4390, 42639.00
174.6620, 43636.00
175.8850, 44431.00
177.1080, 45691.00
178.3300, 46491.00
179.5520, 48435.00
180.7740, 49429.00
181.9960, 51014.00
183.2180, 52294.00
184.4400, 53251.00
185.6610, 53771.92
186.8820, 53927.00
188.1040, 53915.00
189.3250, 53637.00
190.5450, 53102.00
191.7660, 52485.00
192.9870, 52335.00
194.2070, 52557.00
195.4270, 53063.00
196.6480, 53935.00
197.8680, 55128.00
199.0870, 56919.00
200.3070, 59233.00
201.5270, 62078.00
202.7460, 65095.00
203.9650, 68504.00
205.1840, 72220.00
206.4030, 76063.00
207.6220, 79758.00
208.8400, 82697.00
210.0590, 85462.00
211.2770, 86914.00
212.4950, 88058.00
213.7130, 87922.00
214.9310, 86807.00
216.1490, 84640.00
217.3660, 81803.00
218.5840, 78824.00
219.8010, 75128.00
221.0180, 71711.00
222.2350, 68132.00
223.4520, 64651.00
224.6680, 61338.00
225.8850, 58860.00
227.1010, 56062.00
228.3170, 53762.00
229.5330, 51575.00
230.7490, 49759.00
231.9650, 48107.00
233.1810, 46382.00
234.3960, 44808.00
235.6110, 43600.00
236.8260, 42362.62
238.0410, 41423.00
239.2560, 40432.00
240.4710, 39450.00
241.6850, 38674.00
242.9000, 37900.17
244.1140, 37341.00
245.3280, 36684.00
246.5420, 36206.21
247.7550, 36134.00
248.9690, 35476.00
250.1820, 35223.00
251.3960, 35160.00
252.6090, 34771.00
253.8220, 34464.00
255.0350, 34061.00
256.2470, 33808.00
257.4600, 34021.00
258.6720, 34043.00
259.8840, 33704.86
261.0960, 34047.00
262.3080, 33065.00
263.5200, 32431.00
264.7320, 32099.00
265.9430, 31747.00
267.1540, 31529.00
268.3650, 31513.00
269.5760, 31104.00
270.7870, 31215.73
271.9980, 31653.00
273.2080, 31250.00
274.4190, 31025.00
275.6290, 30879.00
276.8390, 30562.00
278.0490, 30500.00
279.2590, 30506.00
280.4680, 30607.00
281.6780, 30500.00
282.8870, 30372.00
284.0960, 30379.00
285.3050, 30429.00
286.5140, 30510.00
287.7230, 30530.00
288.9310, 30303.00
290.1400, 30414.00
291.3480, 30082.00
292.5560, 30275.00
293.7640, 30317.00
294.9720, 30304.00
296.1790, 30459.00
297.3870, 30537.00
298.5940, 30728.00
299.8010, 30920.00
301.0080, 31113.00
302.2150, 31738.00
303.4220, 31831.00
304.6290, 33245.00
305.8350, 32938.00
307.0410, 33683.00
308.2470, 34322.00
309.4530, 36358.00
310.6590, 36230.00
311.8650, 37237.00
313.0700, 37772.00
314.2750, 38933.00
315.4810, 39375.00
316.6860, 39860.00
317.8900, 39922.00
319.0950, 39810.00
320.3000, 39513.00
321.5040, 39177.00
322.7080, 38649.60
323.9120, 38101.00
325.1160, 37551.00
326.3200, 37029.00
327.5240, 36304.44
328.7270, 35284.00
329.9310, 34823.00
331.1340, 34190.00
332.3370, 33441.00
333.5400, 33038.00
334.7420, 32712.00
335.9450, 32397.00
337.1470, 32071.20
338.3500, 31633.00
339.5520, 31506.00
340.7540, 31140.00
341.9550, 30909.00
343.1570, 30793.00
344.3590, 30687.00
345.5600, 30991.00
346.7610, 30886.00
347.9620, 30807.00
349.1630, 30825.00
350.3640, 30746.00
351.5640, 30819.00
352.7650, 31041.00
353.9650, 30860.00
355.1650, 31288.00
356.3650, 31151.00
357.5650, 31305.00
358.7640, 31473.00
359.9640, 31438.00
361.1630, 31878.00
362.3620, 31866.00
363.5610, 32279.00
364.7600, 32220.00
365.9590, 32360.00
367.1580, 32596.00
368.3560, 32906.00
369.5540, 33205.00
370.7520, 33312.00
371.9500, 33499.00
373.1480, 33790.00
374.3460, 33819.00
375.5430, 34310.00
376.7410, 34536.00
377.9380, 34867.00
379.1350, 35484.00
380.3320, 35555.00
381.5280, 36201.00
382.7250, 36759.00
383.9210, 37333.00
385.1180, 37820.00
386.3140, 38546.00
387.5100, 38713.00
388.7050, 39992.00
389.9010, 40302.00
391.0960, 40856.00
392.2920, 41175.00
393.4870, 41814.00
394.6820, 42246.00
395.8770, 42619.00
397.0720, 42989.00
398.2660, 43548.00
399.4610, 43744.00
400.6550, 44186.00
401.8490, 44117.00
403.0430, 45017.00
404.2370, 45537.00
405.4300, 45997.00
406.6240, 46921.00
407.8170, 47179.00
409.0100, 47943.00
410.2030, 48578.00
411.3960, 49654.00
412.5890, 50386.00
413.7810, 51481.00
414.9740, 52963.00
416.1660, 53911.00
417.3580, 55101.00
418.5500, 56253.00
419.7420, 56912.00
420.9330, 57221.00
422.1250, 56621.00
423.3160, 55530.00
424.5070, 53774.00
425.6980, 51565.00
426.8890, 49248.00
428.0800, 46409.00
429.2700, 43899.00
430.4610, 41411.00
431.6510, 38941.00
432.8410, 37507.00
434.0310, 35743.00
435.2210, 34763.00
436.4100, 33641.00
437.6000, 33003.00
438.7890, 32204.00
439.9780, 31686.24
441.1670, 31208.00
442.3560, 30894.00
443.5450, 30697.00
444.7330, 30338.00
445.9210, 30343.00
447.1100, 30118.00
448.2980, 30121.00
449.4860, 29906.00
450.6730, 29845.00
451.8610, 29712.00
453.0480, 29563.00
454.2360, 29578.00
455.4230, 29595.00
456.6100, 29666.00
457.7970, 29776.00
458.9830, 29803.00
460.1700, 29646.00
461.3560, 29744.00
462.5420, 29943.00
463.7280, 29807.00
464.9140, 30090.00
466.1000, 29969.00
467.2850, 29916.00
468.4710, 30031.00
469.6560, 29938.00
470.8410, 30038.69
472.0260, 30278.00
473.2110, 30218.00
474.3960, 30392.00
475.5800, 30540.00
476.7640, 30462.00
477.9490, 30559.00
479.1330, 30736.00
480.3160, 30879.00
481.5000, 30840.00
482.6840, 31000.00
483.8670, 31204.00
485.0500, 30839.00
486.2330, 31224.00
487.4160, 30855.00
488.5990, 30972.00
489.7820, 30978.00
490.9640, 30845.00
492.1470, 30858.00
493.3290, 30863.39
494.5110, 30732.00
495.6930, 30934.00
496.8740, 30865.00
498.0560, 30912.00
499.2370, 31082.00
500.4180, 31240.00
501.5990, 31465.00
502.7800, 31575.00
503.9610, 31895.00
505.1420, 32039.00
506.3220, 32318.00
507.5020, 32724.00
508.6820, 32937.00
509.8620, 33153.00
511.0420, 33480.00
512.2220, 33990.00
513.4010, 34189.00
514.5810, 34549.00
515.7600, 34727.00
516.9390, 34848.00
518.1180, 35243.00
519.2970, 35607.00
520.4750, 35830.00
521.6540, 36016.00
522.8320, 35796.00
524.0100, 36125.00
525.1880, 36089.00
526.3660, 36304.00
527.5430, 36547.00
528.7210, 36527.00
529.8980, 36838.93
531.0750, 36822.00
532.2520, 37273.00
533.4290, 37719.00
534.6060, 37887.00
535.7820, 38402.00
536.9590, 38952.00
538.1350, 39289.00
539.3110, 40185.00
540.4870, 40964.00
541.6630, 41955.00
542.8380, 42937.00
544.0140, 44064.00
545.1890, 45237.00
546.3640, 46223.00
547.5390, 47681.00
548.7140, 48577.00
549.8890, 49831.00
551.0630, 50697.00
552.2380, 51152.00
553.4120, 51346.00
554.5860, 51463.00
555.7600, 51274.00
556.9330, 51323.00
558.1070, 50191.00
559.2800, 49805.00
560.4540, 48308.00
561.6270, 46899.00
562.8000, 45839.00
563.9730, 44525.00
565.1450, 43262.00
566.3180, 41771.00
567.4900, 40905.00
568.6620, 40067.00
569.8340, 38856.00
571.0060, 38196.00
572.1780, 37359.00
573.3490, 36608.00
574.5210, 36219.00
575.6920, 35640.19
576.8630, 35538.00
578.0340, 34931.00
579.2050, 34717.00
580.3750, 34548.00
581.5460, 34081.00
582.7160, 33941.00
583.8860, 33430.00
585.0560, 33431.00
586.2260, 33214.00
587.3960, 33224.00
588.5650, 32758.00
589.7340, 32980.00
590.9040, 32450.00
592.0730, 32408.00
593.2410, 32345.00
594.4100, 32125.00
595.5790, 31966.00
596.7470, 31734.00
597.9150, 31538.00
599.0840, 31530.00
600.2510, 31332.00
601.4190, 31174.00
602.5870, 31129.00
603.7540, 30969.00
604.9220, 30962.00
606.0890, 30812.00
607.2560, 30581.30
608.4230, 30266.00
609.5890, 29981.00
610.7560, 29722.00
611.9220, 29254.00
613.0880, 29098.00
614.2540, 28870.00
615.4200, 28703.00
616.5860, 28636.00
617.7520, 28481.00
618.9170, 28420.00
620.0820, 28241.00
621.2480, 28307.00
622.4120, 28268.00
623.5770, 28227.00
624.7420, 28427.00
625.9060, 28229.00
627.0710, 27999.00
628.2350, 28270.00
629.3990, 28318.00
630.5630, 28360.00
631.7260, 28323.00
632.8900, 28373.09
634.0530, 28344.14
635.2170, 28510.00
636.3800, 28335.00
637.5430, 28595.00
638.7050, 28689.00
639.8680, 28544.00
641.0300, 28855.00
642.1930, 28846.00
643.3550, 29002.00
644.5170, 29158.00
645.6790, 29324.00
646.8400, 29309.00
648.0020, 29435.00
649.1630, 29609.00
650.3240, 29756.00
651.4850, 29956.00
652.6460, 30019.37
653.8070, 30102.27
654.9670, 30150.00
656.1280, 30338.00
657.2880, 30422.00
658.4480, 30672.09
659.6080, 30992.00
660.7680, 31208.00
661.9270, 31660.00
663.0870, 31951.00
664.2460, 32644.00
665.4050, 33045.97
666.5640, 33505.00
667.7230, 34188.00
668.8820, 34717.00
670.0400, 35546.00
671.1990, 36533.00
672.3570, 37565.00
673.5150, 39223.00
674.6730, 41073.00
675.8310, 43267.00
676.9880, 45668.00
678.1450, 49379.00
679.3030, 53674.00
680.4600, 59091.00
681.6170, 65181.00
682.7740, 72629.00
683.9300, 81061.00
685.0870, 89986.00
686.2430, 98388.00
687.3990, 106207.0
688.5550, 111229.0
689.7110, 112523.0
690.8670, 110505.0
692.0220, 105736.0
693.1770, 97673.00
694.3330, 88991.00
695.4880, 79846.00
696.6430, 71706.00
697.7970, 64425.00
698.9520, 58620.00
700.1060, 53344.00
701.2600, 49721.00
702.4150, 46526.00
703.5690, 44175.00
704.7220, 42162.00
705.8760, 40539.00
707.0290, 39037.90
708.1830, 38267.00
709.3360, 36912.00
710.4890, 36380.00
711.6420, 35870.00
712.7940, 35177.00
713.9470, 34541.00
715.0990, 34336.00
716.2510, 33808.00
717.4030, 33370.00
718.5550, 32968.00
719.7070, 33001.00
720.8590, 32564.00
722.0100, 32358.00
723.1610, 31980.00
724.3120, 31620.00
725.4630, 31402.00
726.6140, 31266.43
727.7650, 31118.00
728.9150, 30939.04
730.0650, 31120.43
731.2160, 31153.52
732.3660, 31046.52
733.5150, 30379.49
734.6650, 30435.68
735.8150, 30201.98
736.9640, 29956.53
738.1130, 29941.00
739.2620, 30094.00
740.4110, 30075.00
741.5600, 29842.00
742.7080, 30142.00
743.8570, 30016.00
745.0050, 30143.00
746.1530, 30247.00
747.3010, 30403.00
748.4490, 30504.00
749.5960, 30681.00
750.7440, 30876.19
751.8910, 31023.00
753.0380, 31339.00
754.1850, 31586.00
755.3320, 31882.00
756.4790, 32013.62
757.6250, 32209.94
758.7720, 32152.00
759.9180, 32381.00
761.0640, 32276.00
762.2100, 32111.00
763.3550, 32203.00
764.5010, 32293.00
765.6460, 31884.00
766.7920, 31757.00
767.9370, 31463.00
769.0820, 31490.00
770.2260, 31251.00
771.3710, 31181.00
772.5150, 31059.00
773.6600, 30953.00
774.8040, 30854.00
775.9480, 31004.00
777.0910, 30862.00
778.2350, 30930.00
779.3790, 30848.00
780.5220, 31104.00
781.6650, 30926.00
782.8080, 31075.00
783.9510, 31244.00
785.0940, 31287.00
786.2360, 31433.54
787.3790, 31535.41
788.5210, 31589.00
789.6630, 31713.00
790.8050, 31681.00
791.9470, 31686.00
793.0880, 31684.00
794.2300, 31504.00
795.3710, 31400.00
796.5120, 31411.00
797.6530, 31111.00
798.7940, 31082.00
799.9340, 31060.00
801.0750, 30906.00
802.2150, 30782.00
803.3550, 30944.00
804.4950, 30942.00
805.6350, 30986.00
806.7750, 30889.00
807.9140, 31188.00
809.0540, 31088.00
810.1930, 30975.00
811.3320, 31285.00
812.4710, 31214.00
813.6100, 31648.00
814.7480, 31484.00
815.8870, 31382.00
817.0250, 31490.00
818.1630, 31696.00
819.3010, 31701.00
820.4390, 31665.00
821.5760, 31886.00
822.7140, 31828.00
823.8510, 32367.00
824.9880, 32449.00
826.1250, 32496.00
827.2620, 32711.00
828.3990, 32561.00
829.5350, 32657.00
830.6710, 32852.00
831.8080, 33126.00
832.9440, 33394.00
834.0800, 33352.00
835.2150, 33394.00
836.3510, 33531.00
837.4860, 33496.00
838.6210, 33686.00
839.7560, 33634.00
840.8910, 33608.00
842.0260, 33604.00
843.1610, 33645.00
844.2950, 33345.00
845.4290, 33319.00
846.5640, 33027.00
847.6980, 33391.00
848.8310, 33020.00
849.9650, 33345.00
851.0980, 32743.00
852.2320, 32521.00
853.3650, 32521.00
854.4980, 32635.00
855.6310, 32074.00
856.7630, 32305.00
857.8960, 32287.00
859.0280, 32031.00
860.1610, 32378.00
861.2930, 31977.00
862.4240, 31931.00
863.5560, 31949.00
864.6880, 31728.00
865.8190, 31595.00
866.9500, 31740.00
868.0820, 31675.00
869.2120, 31619.00
870.3430, 31672.00
871.4740, 31510.00
872.6040, 31460.00
873.7350, 31568.00
874.8650, 31475.00
875.9950, 31789.00
877.1250, 31701.00
878.2540, 31684.00
879.3840, 32123.00
880.5130, 32000.00
881.6420, 32198.00
882.7710, 32259.00
883.9000, 32241.00
885.0290, 32604.00
886.1570, 32852.00
887.2860, 32936.23
888.4140, 33370.00
889.5420, 33256.00
890.6700, 33753.00
891.7980, 34057.00
892.9250, 34167.00
894.0530, 34561.00
895.1800, 34819.00
896.3070, 35303.00
897.4340, 35526.00
898.5610, 35674.00
899.6870, 36043.00
900.8140, 36196.00
901.9400, 36383.00
903.0660, 36467.00
904.1920, 36655.00
905.3180, 36810.00
906.4440, 36722.00
907.5690, 36893.00
908.6950, 36692.00
909.8200, 36670.00
910.9450, 36899.00
912.0700, 36805.00
913.1940, 36864.00
914.3190, 36781.00
915.4430, 36696.00
916.5680, 36710.00
917.6920, 36534.00
918.8150, 36436.00
919.9390, 36474.00
921.0630, 36342.00
922.1860, 36017.00
923.3100, 36236.00
924.4330, 36068.00
925.5560, 35792.00
926.6780, 35826.00
927.8010, 35480.00
928.9230, 35891.00
930.0460, 35552.00
931.1680, 35503.00
932.2900, 35153.00
933.4120, 35000.00
934.5330, 34955.00
935.6550, 34539.00
936.7760, 34397.00
937.8970, 34407.00
939.0180, 34311.00
940.1390, 34018.00
941.2600, 34109.00
942.3810, 33887.00
943.5010, 33573.00
944.6210, 33742.00
945.7410, 34081.00
946.8610, 33897.00
947.9810, 33958.00
949.1010, 33788.00
950.2200, 33823.00
951.3390, 33794.00
952.4580, 33927.00
953.5770, 34028.00
954.6960, 34322.00
955.8150, 34482.00
956.9330, 34604.00
958.0520, 34651.00
959.1700, 34608.00
960.2880, 34667.32
961.4050, 35181.00
962.5230, 34782.00
963.6410, 35178.00
964.7580, 35503.00
965.8750, 35525.00
966.9920, 35736.00
968.1090, 35877.00
969.2260, 35981.00
970.3420, 36129.30
971.4590, 36234.60
972.5750, 36329.00
973.6910, 36466.00
974.8070, 36515.00
975.9230, 36652.00
977.0380, 37114.00
978.1540, 37217.00
979.2690, 37446.00
980.3840, 37396.00
981.4990, 38025.00
982.6140, 38161.00
983.7280, 38788.00
984.8430, 39297.00
985.9570, 39550.00
987.0710, 39841.00
988.1850, 40231.00
989.2990, 40547.00
990.4130, 41180.00
991.5260, 41318.00
992.6400, 41868.00
993.7530, 41971.00
994.8660, 42501.00
995.9790, 43231.00
997.0910, 43501.00
998.2040, 44040.00
999.3160, 44771.00
1000.429, 45155.00
1001.541, 45673.00
1002.652, 46144.00
1003.764, 46566.00
1004.876, 46642.00
1005.987, 46602.00
1007.098, 46639.00
1008.210, 46541.00
1009.320, 47114.00
1010.431, 47346.00
1011.542, 47678.00
1012.652, 48488.00
1013.763, 48738.00
1014.873, 49605.00
1015.983, 50413.00
1017.093, 51193.00
1018.202, 51820.00
1019.312, 52314.00
1020.421, 52634.00
1021.530, 52521.00
1022.639, 53185.00
1023.748, 52617.00
1024.857, 52063.00
1025.965, 52050.00
1027.074, 51089.00
1028.182, 50144.00
1029.290, 49475.00
1030.398, 48371.00
1031.505, 47425.00
1032.613, 46414.00
1033.720, 45717.00
1034.828, 44931.00
1035.935, 44471.00
1037.042, 43627.00
1038.148, 43347.00
1039.255, 42890.00
1040.361, 42102.00
1041.468, 42140.00
1042.574, 41654.00
1043.680, 41300.00
1044.786, 41081.00
1045.891, 40886.00
1046.997, 40781.00
1048.102, 40266.00
1049.207, 40510.00
1050.312, 40122.00
1051.417, 40240.00
1052.522, 40207.00
1053.626, 40272.00
1054.730, 40412.00
1055.835, 40304.00
1056.939, 40105.00
1058.043, 40447.00
1059.146, 40358.00
1060.250, 40177.00
1061.353, 40227.00
1062.456, 40094.00
1063.559, 39979.00
1064.662, 39982.00
1065.765, 40390.00
1066.868, 40072.00
1067.970, 40344.00
1069.072, 40331.00
1070.174, 40413.00
1071.276, 40801.00
1072.378, 40580.00
1073.480, 41203.00
1074.581, 41560.00
1075.682, 42479.00
1076.784, 42294.00
1077.885, 43312.00
1078.985, 43821.00
1080.086, 44692.00
1081.187, 45788.00
1082.287, 46799.00
1083.387, 47895.00
1084.487, 48744.00
1085.587, 49645.00
1086.687, 50261.00
1087.786, 50141.00
1088.885, 49981.00
1089.985, 49277.00
1091.084, 48060.00
1092.182, 47057.00
1093.281, 45532.18
1094.380, 44910.29
1095.478, 44235.01
1096.576, 43513.41
1097.674, 42325.61
1098.772, 41954.97
1099.870, 41388.34
1100.968, 40903.71
1102.065, 40898.00
1103.162, 40286.00
1104.259, 40207.00
1105.356, 40324.00
1106.453, 40121.00
1107.550, 39983.00
1108.646, 39866.00
1109.743, 39846.00
1110.839, 39891.00
1111.935, 39858.00
1113.030, 39768.00
1114.126, 39655.00
1115.222, 39602.00
1116.317, 39361.00
1117.412, 39099.00
1118.507, 39093.00
1119.602, 38813.00
1120.697, 38580.00
1121.791, 38713.00
1122.885, 38466.00
1123.980, 38255.00
1125.074, 38164.00
1126.168, 38083.00
1127.261, 38152.00
1128.355, 37784.00
1129.448, 37800.00
1130.541, 37650.00
1131.635, 37491.46
1132.727, 37563.00
1133.820, 37296.00
1134.913, 37228.00
1136.005, 37204.00
1137.097, 37168.00
1138.190, 37114.00
1139.281, 36623.00
1140.373, 36848.00
1141.465, 36856.00
1142.556, 36415.00
1143.648, 36633.00
1144.739, 36646.00
1145.830, 36351.00
1146.921, 36154.00
1148.011, 36139.00
1149.102, 36114.00
1150.192, 36038.00
1151.282, 36029.00
1152.372, 35959.80
1153.462, 35726.00
1154.552, 35803.00
1155.641, 35682.00
1156.731, 35522.00
1157.820, 35545.00
1158.909, 35861.00
1159.998, 35436.00
1161.086, 35328.00
1162.175, 35095.00
1163.263, 35452.00
1164.351, 35143.00
1165.440, 34850.00
1166.527, 35289.00
1167.615, 34994.00
1168.703, 34798.00
1169.790, 34871.00
1170.877, 34481.00
1171.965, 34563.00
1173.051, 34625.00
1174.138, 34308.00
1175.225, 34546.00
1176.311, 34366.00
1177.398, 34338.00
1178.484, 34441.00
1179.570, 34336.00
1180.655, 34208.00
1181.741, 34455.00
1182.827, 34514.00
1183.912, 34557.00
1184.997, 34580.72
1186.082, 34498.00
1187.167, 34492.00
1188.251, 34483.05
1189.336, 34463.38
1190.420, 34470.74
1191.505, 34437.96
1192.589, 34403.39
1193.672, 34366.00
1194.756, 34305.00
1195.840, 34232.00
1196.923, 34165.55
1198.006, 34175.00
1199.089, 34070.00
1200.172, 34034.00
1201.255, 34046.00
1202.337, 34076.00
1203.420, 34080.00
1204.502, 34214.00
1205.584, 33941.00
1206.666, 34123.00
1207.748, 33958.00
1208.829, 34318.00
1209.911, 34183.00
1210.992, 34026.00
1212.073, 34407.00
1213.154, 34170.00
1214.235, 34469.00
1215.316, 34474.00
1216.396, 34321.00
1217.476, 34598.00
1218.556, 34390.00
1219.636, 34557.00
1220.716, 34796.00
1221.796, 34526.00
1222.875, 34680.00
1223.955, 34767.00
1225.034, 34527.00
1226.113, 34490.00
1227.192, 34670.00
1228.270, 34560.00
1229.349, 34699.00
1230.427, 34704.59
1231.505, 34822.00
1232.583, 34720.00
1233.661, 34802.00
1234.739, 34781.00
1235.817, 34833.00
1236.894, 34897.00
1237.971, 34764.00
1239.048, 34828.00
1240.125, 34669.00
1241.202, 34668.00
1242.278, 34757.00
1243.355, 34736.70
1244.431, 34896.00
1245.507, 34969.00
1246.583, 34941.00
1247.659, 35276.00
1248.734, 35149.15
1249.810, 35261.49
1250.885, 35004.00
1251.960, 35306.00
1253.035, 35117.00
1254.110, 35069.00
1255.185, 34848.00
1256.259, 35040.00
1257.333, 34880.00
1258.408, 35173.00
1259.482, 34971.00
1260.555, 34937.00
1261.629, 35079.56
1262.702, 35177.00
1263.776, 35234.00
1264.849, 35140.00
1265.922, 35176.00
1266.995, 35138.00
1268.068, 35103.00
1269.140, 35114.00
1270.212, 35136.00
1271.285, 35126.00
1272.357, 35057.00
1273.428, 35117.00
1274.500, 35015.00
1275.572, 35294.00
1276.643, 35191.00
1277.714, 34957.00
1278.785, 35269.00
1279.856, 34955.00
1280.927, 35134.00
1281.998, 34777.00
1283.068, 35271.00
1284.138, 35057.00
1285.208, 35073.00
1286.278, 35056.00
1287.348, 35090.00
1288.418, 35113.00
1289.487, 35217.00
1290.556, 35417.00
1291.625, 35287.00
1292.694, 35439.00
1293.763, 35653.00
1294.832, 35561.00
1295.900, 35487.00
1296.969, 35646.78
1298.037, 35534.00
1299.105, 35729.00
1300.172, 35616.00
1301.240, 35403.00
