##NAMES=Eckermannite
##RRUFFID=R060320
##IDEAL CHEMISTRY=NaNa_2_(Mg_4_Al)Si_8_O_22_(OH)_2_
##LOCALITY=Norra Karr Complex, near Granna, Ostergotsland, Sweden
##OWNER=RRUFF
##SOURCE=Michael Scott
##DESCRIPTION=Parallel aggregate of blue elongated bladed crystals
##STATUS=The identification of this mineral is confirmed by single-crystal X-ray diffraction and chemical analysis.
##URL=rruff.info/R060320
##MEASURED CHEMISTRY=(Na_2.50_K_0.30_[box]_0.20_)_Σ=3_(Mg_2.35_Fe^2+^_1.35_Al_1.20_Mn_0.10_)_Σ=5_Si_8.00_O_22_((OH)_1.18_F_0.82_)_Σ=2_; OH estimated by charge balance, dark material
##PIN_ID=M00815
##ORIENTATION=Laser parallel to a* (1 0 0). Fiducial mark perpendicular to laser is parallel to b [0 1 0]
136.6840, 29009.00
137.9110, 28534.86
139.1380, 28934.16
140.3650, 29185.29
141.5920, 29296.20
142.8190, 28846.94
144.0460, 29121.02
145.2720, 29105.17
146.4990, 29077.48
147.7250, 29453.32
148.9510, 29513.00
150.1770, 29538.00
151.4020, 29719.00
152.6280, 29822.00
153.8530, 29704.00
155.0790, 29741.00
156.3040, 29726.00
157.5290, 29701.55
158.7530, 29773.00
159.9780, 29766.00
161.2030, 29940.00
162.4270, 30124.00
163.6510, 30038.00
164.8750, 30650.00
166.0990, 31052.00
167.3230, 31463.00
168.5470, 32361.00
169.7700, 31925.00
170.9930, 32165.00
172.2160, 32676.00
173.4390, 33159.00
174.6620, 33628.00
175.8850, 34030.00
177.1080, 34588.00
178.3300, 35241.00
179.5520, 35965.00
180.7740, 36669.00
181.9960, 37864.00
183.2180, 38238.00
184.4400, 38283.00
185.6610, 38886.00
186.8820, 38771.02
188.1040, 38763.17
189.3250, 38879.00
190.5450, 38738.08
191.7660, 38820.00
192.9870, 38634.00
194.2070, 38645.00
195.4270, 38704.00
196.6480, 39192.00
197.8680, 39819.00
199.0870, 40652.00
200.3070, 41730.00
201.5270, 43058.00
202.7460, 44530.00
203.9650, 46248.00
205.1840, 47916.00
206.4030, 49822.00
207.6220, 51134.00
208.8400, 52778.00
210.0590, 54834.00
211.2770, 55835.00
212.4950, 55935.00
213.7130, 56205.00
214.9310, 55787.00
216.1490, 54399.00
217.3660, 53736.00
218.5840, 52372.00
219.8010, 50659.00
221.0180, 49262.00
222.2350, 47332.00
223.4520, 46594.00
224.6680, 44870.74
225.8850, 43137.00
227.1010, 42038.00
228.3170, 41190.00
229.5330, 39897.00
230.7490, 39164.00
231.9650, 38575.00
233.1810, 37741.00
234.3960, 37124.00
235.6110, 36669.00
236.8260, 36107.00
238.0410, 35644.00
239.2560, 35477.00
240.4710, 35096.00
241.6850, 34703.00
242.9000, 34445.00
244.1140, 33845.00
245.3280, 33830.00
246.5420, 33574.00
247.7550, 33529.00
248.9690, 33121.00
250.1820, 33067.00
251.3960, 32755.00
252.6090, 32555.00
253.8220, 32485.00
255.0350, 32197.00
256.2470, 32250.00
257.4600, 31722.00
258.6720, 31849.00
259.8840, 32319.00
261.0960, 32114.00
262.3080, 31362.00
263.5200, 30327.00
264.7320, 30020.00
265.9430, 29710.00
267.1540, 29584.20
268.3650, 29711.49
269.5760, 29723.54
270.7870, 29626.53
271.9980, 29093.83
273.2080, 29123.85
274.4190, 28928.29
275.6290, 28723.60
276.8390, 28578.00
278.0490, 28688.00
279.2590, 28464.00
280.4680, 28312.00
281.6780, 28418.00
282.8870, 28269.00
284.0960, 28393.00
285.3050, 28264.00
286.5140, 28229.00
287.7230, 28266.00
288.9310, 28335.00
290.1400, 28326.00
291.3480, 28313.00
292.5560, 28234.00
293.7640, 28327.00
294.9720, 28538.00
296.1790, 28771.00
297.3870, 29009.00
298.5940, 29252.47
299.8010, 29344.00
301.0080, 29827.00
302.2150, 30179.00
303.4220, 30617.00
304.6290, 31215.00
305.8350, 31857.00
307.0410, 32719.00
308.2470, 33624.00
309.4530, 34588.00
310.6590, 35359.00
311.8650, 36293.00
313.0700, 37270.00
314.2750, 37790.00
315.4810, 38465.00
316.6860, 38906.00
317.8900, 38643.00
319.0950, 38529.00
320.3000, 38197.00
321.5040, 37586.00
322.7080, 37158.00
323.9120, 36320.00
325.1160, 35535.00
326.3200, 35182.00
327.5240, 33901.00
328.7270, 33445.00
329.9310, 32876.00
331.1340, 32152.00
332.3370, 31560.00
333.5400, 31337.00
334.7420, 30812.00
335.9450, 30499.00
337.1470, 30273.00
338.3500, 30144.00
339.5520, 30051.00
340.7540, 30035.00
341.9550, 29767.00
343.1570, 29883.00
344.3590, 30065.00
345.5600, 29969.00
346.7610, 30359.00
347.9620, 30280.00
349.1630, 30765.00
350.3640, 30927.00
351.5640, 31417.00
352.7650, 31695.00
353.9650, 32048.00
355.1650, 32825.00
356.3650, 33358.00
357.5650, 34186.00
358.7640, 34774.00
359.9640, 35395.00
361.1630, 36163.00
362.3620, 36736.00
363.5610, 37370.00
364.7600, 37720.00
365.9590, 37775.00
367.1580, 37899.00
368.3560, 37969.00
369.5540, 37418.00
370.7520, 37436.00
371.9500, 37116.00
373.1480, 36950.00
374.3460, 36690.00
375.5430, 36554.00
376.7410, 36123.00
377.9380, 36030.00
379.1350, 35480.00
380.3320, 35408.00
381.5280, 35457.00
382.7250, 35757.00
383.9210, 35810.00
385.1180, 36400.00
386.3140, 36598.00
387.5100, 37067.00
388.7050, 37479.00
389.9010, 37996.00
391.0960, 38309.00
392.2920, 38848.00
393.4870, 39210.00
394.6820, 39096.00
395.8770, 38991.00
397.0720, 39086.00
398.2660, 38882.00
399.4610, 38397.00
400.6550, 38326.00
401.8490, 38117.00
403.0430, 37910.00
404.2370, 37659.00
405.4300, 37625.00
406.6240, 37587.00
407.8170, 37678.00
409.0100, 37654.00
410.2030, 38029.00
411.3960, 38662.00
412.5890, 38807.00
413.7810, 39656.00
414.9740, 40284.00
416.1660, 40971.00
417.3580, 41886.00
418.5500, 42809.00
419.7420, 43374.00
420.9330, 43897.00
422.1250, 44034.00
423.3160, 42995.00
424.5070, 42154.00
425.6980, 40956.00
426.8890, 39139.00
428.0800, 37615.00
429.2700, 35659.00
430.4610, 34429.00
431.6510, 33019.00
432.8410, 32184.00
434.0310, 31451.00
435.2210, 30429.00
436.4100, 29856.00
437.6000, 29541.00
438.7890, 28976.00
439.9780, 28631.00
441.1670, 28234.00
442.3560, 28200.00
443.5450, 27951.63
444.7330, 27952.00
445.9210, 27781.00
447.1100, 27937.00
448.2980, 27991.00
449.4860, 27830.00
450.6730, 27515.00
451.8610, 27532.00
453.0480, 27531.00
454.2360, 27727.00
455.4230, 27442.00
456.6100, 27726.00
457.7970, 27706.00
458.9830, 27667.00
460.1700, 27743.00
461.3560, 27567.00
462.5420, 27418.00
463.7280, 27380.00
464.9140, 27695.00
466.1000, 27657.00
467.2850, 27903.00
468.4710, 27869.00
469.6560, 27793.00
470.8410, 27724.00
472.0260, 28083.00
473.2110, 28393.00
474.3960, 28316.00
475.5800, 28764.00
476.7640, 28728.00
477.9490, 29245.00
479.1330, 29373.00
480.3160, 29712.00
481.5000, 29721.00
482.6840, 30085.00
483.8670, 30262.00
485.0500, 30306.00
486.2330, 30761.00
487.4160, 30719.00
488.5990, 30680.00
489.7820, 30675.00
490.9640, 30836.00
492.1470, 30300.00
493.3290, 29956.00
494.5110, 29955.00
495.6930, 29602.00
496.8740, 29478.00
498.0560, 29309.00
499.2370, 28951.00
500.4180, 28867.00
501.5990, 28767.00
502.7800, 28979.00
503.9610, 28965.00
505.1420, 28997.00
506.3220, 29091.00
507.5020, 28936.00
508.6820, 29285.00
509.8620, 29293.00
511.0420, 29496.00
512.2220, 29962.00
513.4010, 29805.00
514.5810, 30417.00
515.7600, 30242.00
516.9390, 30594.00
518.1180, 30687.00
519.2970, 30899.00
520.4750, 30972.00
521.6540, 31329.00
522.8320, 31261.00
524.0100, 31613.54
525.1880, 32083.00
526.3660, 32170.00
527.5430, 32644.00
528.7210, 32890.00
529.8980, 32981.00
531.0750, 33345.00
532.2520, 33938.00
533.4290, 34076.00
534.6060, 34503.00
535.7820, 34680.00
536.9590, 35088.00
538.1350, 35724.00
539.3110, 36067.00
540.4870, 36785.00
541.6630, 37083.00
542.8380, 37667.00
544.0140, 38544.00
545.1890, 39072.00
546.3640, 40152.00
547.5390, 40621.00
548.7140, 41454.00
549.8890, 42136.00
551.0630, 42291.00
552.2380, 42936.00
553.4120, 42892.00
554.5860, 43147.00
555.7600, 43265.00
556.9330, 42699.00
558.1070, 42357.00
559.2800, 41915.00
560.4540, 41045.00
561.6270, 40368.00
562.8000, 39595.00
563.9730, 38961.00
565.1450, 38210.00
566.3180, 37621.00
567.4900, 36894.00
568.6620, 36395.00
569.8340, 35983.00
571.0060, 35206.00
572.1780, 34736.00
573.3490, 34492.00
574.5210, 34088.00
575.6920, 33841.00
576.8630, 33785.00
578.0340, 33472.00
579.2050, 33035.00
580.3750, 32600.00
581.5460, 32513.00
582.7160, 32657.00
583.8860, 32293.00
585.0560, 32202.00
586.2260, 32044.00
587.3960, 32070.00
588.5650, 31866.00
589.7340, 31532.00
590.9040, 31630.00
592.0730, 31032.93
593.2410, 31232.09
594.4100, 31282.97
595.5790, 31193.62
596.7470, 30544.22
597.9150, 30618.17
599.0840, 30402.11
600.2510, 30174.40
601.4190, 29958.00
602.5870, 29577.00
603.7540, 29644.00
604.9220, 29440.00
606.0890, 29187.00
607.2560, 29323.00
608.4230, 28954.07
609.5890, 28674.00
610.7560, 28524.00
611.9220, 28383.00
613.0880, 28353.00
614.2540, 28034.00
615.4200, 28150.00
616.5860, 28253.00
617.7520, 28326.00
618.9170, 28069.00
620.0820, 28047.00
621.2480, 27897.00
622.4120, 27909.00
623.5770, 27993.47
624.7420, 28020.94
625.9060, 28159.00
627.0710, 28192.00
628.2350, 28058.00
629.3990, 28017.00
630.5630, 28375.00
631.7260, 28080.00
632.8900, 28425.00
634.0530, 28197.00
635.2170, 28402.00
636.3800, 28322.00
637.5430, 28669.00
638.7050, 28615.00
639.8680, 28837.00
641.0300, 28986.00
642.1930, 29058.00
643.3550, 28967.00
644.5170, 29095.00
645.6790, 29119.60
646.8400, 29148.00
648.0020, 29297.00
649.1630, 29290.00
650.3240, 29470.00
651.4850, 29535.47
652.6460, 29711.00
653.8070, 29774.00
654.9670, 29846.00
656.1280, 30081.00
657.2880, 30197.00
658.4480, 30112.00
659.6080, 30250.00
660.7680, 30469.00
661.9270, 31097.00
663.0870, 31184.00
664.2460, 31588.00
665.4050, 31670.00
666.5640, 32352.00
667.7230, 32724.00
668.8820, 33149.00
670.0400, 33582.00
671.1990, 34567.00
672.3570, 34950.00
673.5150, 35920.00
674.6730, 37328.00
675.8310, 38885.00
676.9880, 40452.00
678.1450, 42813.00
679.3030, 45222.00
680.4600, 48696.00
681.6170, 52773.00
682.7740, 57380.00
683.9300, 63305.00
685.0870, 68798.00
686.2430, 74327.00
687.3990, 79598.00
688.5550, 82932.00
689.7110, 84391.00
690.8670, 82713.00
692.0220, 79107.00
693.1770, 74022.00
694.3330, 68151.00
695.4880, 62349.00
696.6430, 56739.00
697.7970, 52110.00
698.9520, 48789.00
700.1060, 45398.00
701.2600, 42875.00
702.4150, 41156.00
703.5690, 39606.00
704.7220, 38545.00
705.8760, 37389.00
707.0290, 36618.00
708.1830, 36273.00
709.3360, 36316.00
710.4890, 35562.15
711.6420, 35973.25
712.7940, 36236.10
713.9470, 36358.80
715.0990, 35921.27
716.2510, 36207.08
717.4030, 35826.00
718.5550, 35447.00
719.7070, 35703.00
720.8590, 35219.00
722.0100, 34968.00
723.1610, 34691.30
724.3120, 34645.00
725.4630, 33828.00
726.6140, 33673.00
727.7650, 33174.00
728.9150, 32666.00
730.0650, 32343.00
731.2160, 31774.00
732.3660, 31746.00
733.5150, 31447.00
734.6650, 31238.00
735.8150, 31325.00
736.9640, 31117.77
738.1130, 30983.00
739.2620, 30972.00
740.4110, 31131.00
741.5600, 31054.00
742.7080, 30966.00
743.8570, 30850.00
745.0050, 31070.00
746.1530, 30973.00
747.3010, 31118.00
748.4490, 31203.00
749.5960, 31318.24
750.7440, 31480.00
751.8910, 31668.00
753.0380, 31862.00
754.1850, 32060.00
755.3320, 32246.00
756.4790, 32623.00
757.6250, 32797.00
758.7720, 32754.00
759.9180, 32818.00
761.0640, 33175.00
762.2100, 32959.00
763.3550, 33024.00
764.5010, 32944.00
765.6460, 32709.00
766.7920, 32368.00
767.9370, 32151.00
769.0820, 32272.00
770.2260, 31897.00
771.3710, 31497.00
772.5150, 31601.00
773.6600, 31220.00
774.8040, 31313.00
775.9480, 31107.00
777.0910, 30740.00
778.2350, 30834.00
779.3790, 30580.00
780.5220, 30510.00
781.6650, 30389.00
782.8080, 30411.00
783.9510, 30552.00
785.0940, 30400.00
786.2360, 30383.00
787.3790, 30400.00
788.5210, 30335.51
789.6630, 30540.00
790.8050, 30399.00
791.9470, 30256.00
793.0880, 30468.00
794.2300, 30780.00
795.3710, 30786.00
796.5120, 30703.00
797.6530, 30691.00
798.7940, 30694.00
799.9340, 30864.00
801.0750, 30825.00
802.2150, 30850.00
803.3550, 30594.00
804.4950, 30996.00
805.6350, 30822.00
806.7750, 31032.00
807.9140, 31119.00
809.0540, 31054.00
810.1930, 31217.00
811.3320, 31283.00
812.4710, 31230.00
813.6100, 31232.00
814.7480, 31243.00
815.8870, 31083.00
817.0250, 31166.00
818.1630, 31130.00
819.3010, 31246.00
820.4390, 31309.00
821.5760, 31434.00
822.7140, 31353.00
823.8510, 31621.00
824.9880, 31543.67
826.1250, 31418.00
827.2620, 31673.00
828.3990, 31399.00
829.5350, 31789.00
830.6710, 31480.00
831.8080, 31624.00
832.9440, 31826.00
834.0800, 31885.00
835.2150, 31926.86
836.3510, 32147.00
837.4860, 31975.00
838.6210, 31863.00
839.7560, 32033.00
840.8910, 32047.00
842.0260, 32144.00
843.1610, 32006.00
844.2950, 32165.00
845.4290, 31987.00
846.5640, 32045.00
847.6980, 32207.00
848.8310, 32049.00
849.9650, 32022.00
851.0980, 32062.00
852.2320, 32128.00
853.3650, 32074.03
854.4980, 31816.00
855.6310, 32031.00
856.7630, 31920.00
857.8960, 31945.00
859.0280, 32030.00
860.1610, 32086.00
861.2930, 32098.49
862.4240, 32012.00
863.5560, 32068.00
864.6880, 32063.00
865.8190, 31927.00
866.9500, 32080.00
868.0820, 32202.00
869.2120, 32004.00
870.3430, 31788.00
871.4740, 32376.00
872.6040, 32208.00
873.7350, 32037.00
874.8650, 32282.00
875.9950, 32631.00
877.1250, 32616.00
878.2540, 32699.00
879.3840, 33173.00
880.5130, 33118.00
881.6420, 33127.00
882.7710, 33370.00
883.9000, 33623.00
885.0290, 33577.00
886.1570, 33915.00
887.2860, 34109.00
888.4140, 34303.00
889.5420, 34525.00
890.6700, 34922.00
891.7980, 34988.00
892.9250, 35125.00
894.0530, 35533.00
895.1800, 35876.00
896.3070, 35966.00
897.4340, 36258.00
898.5610, 36650.00
899.6870, 36760.00
900.8140, 37023.00
901.9400, 37203.00
903.0660, 37081.00
904.1920, 37603.00
905.3180, 37832.00
906.4440, 37627.00
907.5690, 37993.00
908.6950, 37725.00
909.8200, 38063.00
910.9450, 38111.00
912.0700, 38192.00
913.1940, 38248.00
914.3190, 38253.20
915.4430, 38271.72
916.5680, 38223.00
917.6920, 38191.00
918.8150, 38120.00
919.9390, 37959.00
921.0630, 37871.00
922.1860, 37720.00
923.3100, 37542.00
924.4330, 37359.00
925.5560, 37224.00
926.6780, 36971.00
927.8010, 36767.00
928.9230, 36621.00
930.0460, 36388.00
931.1680, 36074.00
932.2900, 36033.00
933.4120, 35802.00
934.5330, 35693.00
935.6550, 35230.00
936.7760, 35311.00
937.8970, 35112.00
939.0180, 34766.00
940.1390, 34735.00
941.2600, 34679.00
942.3810, 34598.00
943.5010, 34540.10
944.6210, 34478.00
945.7410, 34406.00
946.8610, 34342.00
947.9810, 34313.00
949.1010, 34211.00
950.2200, 33984.00
951.3390, 34129.00
952.4580, 34085.45
953.5770, 34223.00
954.6960, 34223.00
955.8150, 34415.00
956.9330, 34464.00
958.0520, 34600.00
959.1700, 34764.00
960.2880, 34873.00
961.4050, 35014.85
962.5230, 35193.00
963.6410, 35208.00
964.7580, 35433.00
965.8750, 35416.17
966.9920, 35658.80
968.1090, 35836.61
969.2260, 35953.07
970.3420, 35824.38
971.4590, 36012.23
972.5750, 36073.18
973.6910, 36128.91
974.8070, 36361.22
975.9230, 36354.00
977.0380, 36416.00
978.1540, 36738.36
979.2690, 36736.00
980.3840, 37156.00
981.4990, 37235.00
982.6140, 37238.00
983.7280, 37340.00
984.8430, 37347.00
985.9570, 37810.00
987.0710, 38066.00
988.1850, 38435.00
989.2990, 38649.40
990.4130, 38838.00
991.5260, 38975.00
992.6400, 39137.00
993.7530, 39216.00
994.8660, 39240.00
995.9790, 39439.62
997.0910, 39562.55
998.2040, 39737.00
999.3160, 39954.00
1000.429, 40029.00
1001.541, 40274.00
1002.652, 40383.00
1003.764, 40288.00
1004.876, 39959.00
1005.987, 39874.00
1007.098, 39592.00
1008.210, 39385.00
1009.320, 39546.00
1010.431, 39296.00
1011.542, 38892.00
1012.652, 38963.00
1013.763, 38651.00
1014.873, 38802.00
1015.983, 38575.00
1017.093, 38954.00
1018.202, 38815.00
1019.312, 39043.00
1020.421, 38373.00
1021.530, 38646.00
1022.639, 38391.00
1023.748, 38283.00
1024.857, 38243.00
1025.965, 37995.00
1027.074, 37940.37
1028.182, 37870.66
1029.290, 37794.00
1030.398, 37745.00
1031.505, 37838.00
1032.613, 37710.00
1033.720, 37454.00
1034.828, 37436.00
1035.935, 37804.00
1037.042, 37646.00
1038.148, 37833.00
1039.255, 37590.00
1040.361, 37556.00
1041.468, 37655.00
1042.574, 37652.00
1043.680, 37496.00
1044.786, 37492.00
1045.891, 37658.00
1046.997, 37304.00
1048.102, 37438.00
1049.207, 37497.00
1050.312, 37318.00
1051.417, 37351.00
1052.522, 37458.00
1053.626, 37126.00
1054.730, 37530.00
1055.835, 37467.00
1056.939, 37403.00
1058.043, 37545.00
1059.146, 37537.00
1060.250, 37730.00
1061.353, 37692.00
1062.456, 37388.00
1063.559, 37840.00
1064.662, 37855.00
1065.765, 38035.00
1066.868, 38475.00
1067.970, 38119.00
1069.072, 38367.59
1070.174, 38221.22
1071.276, 38495.00
1072.378, 38027.00
1073.480, 38252.00
1074.581, 38463.00
1075.682, 38382.00
1076.784, 38621.00
1077.885, 38660.00
1078.985, 39341.00
1080.086, 39219.00
1081.187, 39527.00
1082.287, 39646.00
1083.387, 39854.00
1084.487, 40116.00
1085.587, 39959.00
1086.687, 40129.00
1087.786, 40289.00
1088.885, 39914.00
1089.985, 39997.00
1091.084, 39785.00
1092.182, 39938.00
1093.281, 39712.00
1094.380, 39123.00
1095.478, 38888.00
1096.576, 38690.00
1097.674, 39205.00
1098.772, 38979.00
1099.870, 39013.00
1100.968, 38900.00
1102.065, 38975.00
1103.162, 39005.00
1104.259, 39095.00
1105.356, 38858.00
1106.453, 39384.00
1107.550, 38989.00
1108.646, 39070.00
1109.743, 39235.00
1110.839, 39169.76
1111.935, 39679.00
1113.030, 39535.00
1114.126, 39325.00
1115.222, 39809.00
1116.317, 39432.00
1117.412, 39341.00
1118.507, 39115.00
1119.602, 38862.00
1120.697, 38760.00
1121.791, 38574.00
1122.885, 38456.00
1123.980, 38311.00
1125.074, 38160.00
1126.168, 38092.77
1127.261, 38004.00
1128.355, 37946.00
1129.448, 37936.00
1130.541, 37847.00
1131.635, 37807.00
1132.727, 37752.00
1133.820, 37760.00
1134.913, 37704.73
1136.005, 37584.00
1137.097, 37581.00
1138.190, 37455.00
1139.281, 37279.00
1140.373, 37173.00
1141.465, 37518.00
1142.556, 37301.00
1143.648, 37079.00
1144.739, 37088.00
1145.830, 36808.00
1146.921, 36982.00
1148.011, 36857.00
1149.102, 36750.00
1150.192, 36988.00
1151.282, 36905.00
1152.372, 37101.00
1153.462, 36866.00
1154.552, 37051.00
1155.641, 36753.00
1156.731, 36848.00
1157.820, 36882.00
1158.909, 36875.00
1159.998, 36931.00
1161.086, 36726.00
1162.175, 36751.00
1163.263, 36664.68
1164.351, 36838.00
1165.440, 36506.00
1166.527, 36525.00
1167.615, 36427.00
1168.703, 36610.00
1169.790, 36307.00
1170.877, 36508.00
1171.965, 36249.00
1173.051, 36529.00
1174.138, 36608.00
1175.225, 36494.00
1176.311, 36238.00
1177.398, 36390.00
1178.484, 36462.00
1179.570, 36484.00
1180.655, 36558.49
1181.741, 36610.90
1182.827, 36610.00
1183.912, 36793.00
1184.997, 36815.00
1186.082, 37040.00
1187.167, 36862.00
1188.251, 37102.00
1189.336, 36744.00
1190.420, 36849.00
1191.505, 36546.00
1192.589, 36765.00
1193.672, 36708.00
1194.756, 36576.00
1195.840, 36118.00
1196.923, 36383.00
1198.006, 36317.00
1199.089, 36516.00
1200.172, 36189.00
1201.255, 36386.00
1202.337, 36445.00
1203.420, 36066.00
1204.502, 36480.00
1205.584, 36392.00
1206.666, 36440.00
1207.748, 36573.00
1208.829, 36347.00
1209.911, 36409.00
1210.992, 36539.00
1212.073, 36446.34
1213.154, 36539.00
1214.235, 36602.00
1215.316, 36435.00
1216.396, 36793.00
1217.476, 36704.21
1218.556, 36762.00
1219.636, 36781.00
1220.716, 37034.00
1221.796, 37089.00
1222.875, 36853.00
1223.955, 37090.00
1225.034, 37016.00
1226.113, 37163.00
1227.192, 37210.00
1228.270, 37049.00
1229.349, 37023.00
1230.427, 37279.00
1231.505, 37196.00
1232.583, 37264.00
1233.661, 37317.00
1234.739, 37250.00
1235.817, 37257.00
1236.894, 37128.00
1237.971, 37413.00
1239.048, 37156.00
1240.125, 37235.00
1241.202, 37293.00
1242.278, 37088.00
1243.355, 37277.00
1244.431, 37481.00
1245.507, 37322.00
1246.583, 37576.00
1247.659, 37671.00
1248.734, 37384.00
1249.810, 37499.00
1250.885, 37443.00
1251.960, 37672.00
1253.035, 37665.00
1254.110, 37540.00
1255.185, 37513.00
1256.259, 37682.00
1257.333, 37890.00
1258.408, 37749.00
1259.482, 37738.00
1260.555, 37498.00
1261.629, 37483.30
1262.702, 37763.00
1263.776, 37445.00
1264.849, 37530.00
1265.922, 37683.00
1266.995, 37564.00
1268.068, 37489.00
1269.140, 37505.00
1270.212, 37623.00
1271.285, 37668.00
1272.357, 37331.00
1273.428, 37496.00
1274.500, 37498.00
1275.572, 37679.00
1276.643, 37449.00
1277.714, 37822.00
1278.785, 37407.00
1279.856, 37627.00
1280.927, 37351.00
1281.998, 37426.00
1283.068, 37507.00
1284.138, 37587.00
1285.208, 37543.91
1286.278, 37559.16
1287.348, 37610.54
1288.418, 37621.00
1289.487, 37706.00
1290.556, 37744.24
1291.625, 37807.77
1292.694, 37889.00
1293.763, 37914.00
1294.832, 37956.00
1295.900, 38136.00
1296.969, 38307.00
1298.037, 38515.00
1299.105, 38106.00
1300.172, 38016.00
1301.240, 37954.00
