##NAMES=Eckermannite
##RRUFFID=R060320
##IDEAL CHEMISTRY=NaNa_2_(Mg_4_Al)Si_8_O_22_(OH)_2_
##LOCALITY=Norra Karr Complex, near Granna, Ostergotsland, Sweden
##OWNER=RRUFF
##SOURCE=Michael Scott
##DESCRIPTION=Parallel aggregate of blue elongated bladed crystals
##STATUS=The identification of this mineral is confirmed by single-crystal X-ray diffraction and chemical analysis.
##URL=rruff.info/R060320
##MEASURED CHEMISTRY=(Na_2.50_K_0.30_[box]_0.20_)_Σ=3_(Mg_2.35_Fe^2+^_1.35_Al_1.20_Mn_0.10_)_Σ=5_Si_8.00_O_22_((OH)_1.18_F_0.82_)_Σ=2_; OH estimated by charge balance, dark material
##PIN_ID=M01619
##ORIENTATION=Laser parallel to b* (0 1 0). Fiducial mark perpendicular to laser is parallel to -c [0 0 -1]
136.6840, 36886.00
137.9110, 36686.00
139.1380, 36625.00
140.3650, 36603.00
141.5920, 37294.00
142.8190, 37674.00
144.0460, 37562.00
145.2720, 37532.00
146.4990, 38404.00
147.7250, 38516.00
148.9510, 39889.00
150.1770, 40733.00
151.4020, 41766.00
152.6280, 43194.00
153.8530, 44822.00
155.0790, 46209.00
156.3040, 47496.00
157.5290, 48601.00
158.7530, 48894.00
159.9780, 48610.00
161.2030, 47689.00
162.4270, 46922.00
163.6510, 46072.00
164.8750, 46047.00
166.0990, 46022.00
167.3230, 46457.00
168.5470, 46800.00
169.7700, 47473.00
170.9930, 48459.00
172.2160, 50116.00
173.4390, 51992.00
174.6620, 54299.00
175.8850, 56598.11
177.1080, 59280.00
178.3300, 62002.00
179.5520, 65156.00
180.7740, 68406.00
181.9960, 71254.00
183.2180, 73872.00
184.4400, 76361.00
185.6610, 77375.00
186.8820, 77644.00
188.1040, 76619.00
189.3250, 75440.00
190.5450, 73247.00
191.7660, 71661.00
192.9870, 70568.00
194.2070, 67652.00
195.4270, 65699.00
196.6480, 64478.00
197.8680, 64292.00
199.0870, 64717.00
200.3070, 65264.00
201.5270, 66996.00
202.7460, 69047.00
203.9650, 71758.00
205.1840, 75028.00
206.4030, 78155.00
207.6220, 81847.00
208.8400, 85193.00
210.0590, 88312.00
211.2770, 91818.00
212.4950, 93867.00
213.7130, 95632.00
214.9310, 96299.00
216.1490, 96055.00
217.3660, 94918.00
218.5840, 93755.00
219.8010, 91336.00
221.0180, 89982.00
222.2350, 88440.00
223.4520, 86995.00
224.6680, 86005.00
225.8850, 86004.00
227.1010, 85306.00
228.3170, 85121.00
229.5330, 84744.00
230.7490, 83775.00
231.9650, 82046.00
233.1810, 79845.00
234.3960, 77097.00
235.6110, 73892.00
236.8260, 71087.00
238.0410, 67959.00
239.2560, 65362.00
240.4710, 62666.00
241.6850, 60567.00
242.9000, 58931.00
244.1140, 57615.00
245.3280, 56371.00
246.5420, 55547.00
247.7550, 54485.00
248.9690, 53910.00
250.1820, 53055.00
251.3960, 52134.00
252.6090, 52046.00
253.8220, 51052.00
255.0350, 50614.00
256.2470, 50093.00
257.4600, 49256.00
258.6720, 49209.00
259.8840, 49039.00
261.0960, 49010.00
262.3080, 47020.00
263.5200, 45497.00
264.7320, 44665.00
265.9430, 43742.00
267.1540, 42238.00
268.3650, 42007.00
269.5760, 41236.00
270.7870, 40719.00
271.9980, 39990.00
273.2080, 39307.00
274.4190, 38994.00
275.6290, 38265.00
276.8390, 38252.00
278.0490, 38038.00
279.2590, 37852.00
280.4680, 37715.00
281.6780, 37531.00
282.8870, 37719.00
284.0960, 37706.00
285.3050, 37963.00
286.5140, 37566.00
287.7230, 37716.00
288.9310, 37508.00
290.1400, 37659.00
291.3480, 37713.00
292.5560, 37523.00
293.7640, 37619.00
294.9720, 37182.00
296.1790, 37496.00
297.3870, 37340.00
298.5940, 37647.00
299.8010, 37987.00
301.0080, 38392.00
302.2150, 38546.00
303.4220, 39110.00
304.6290, 39791.00
305.8350, 40808.00
307.0410, 41829.00
308.2470, 42964.00
309.4530, 44393.00
310.6590, 45766.00
311.8650, 46962.00
313.0700, 48185.00
314.2750, 49234.00
315.4810, 50081.00
316.6860, 50347.00
317.8900, 50677.00
319.0950, 49982.00
320.3000, 49183.00
321.5040, 48200.00
322.7080, 47384.00
323.9120, 45862.00
325.1160, 44887.00
326.3200, 43913.00
327.5240, 42890.00
328.7270, 42259.49
329.9310, 41431.00
331.1340, 41122.00
332.3370, 40544.00
333.5400, 40132.00
334.7420, 40190.00
335.9450, 40194.00
337.1470, 39802.00
338.3500, 39592.00
339.5520, 39838.00
340.7540, 39847.00
341.9550, 39691.00
343.1570, 39800.00
344.3590, 39563.00
345.5600, 39850.00
346.7610, 40135.00
347.9620, 40032.00
349.1630, 39741.00
350.3640, 39911.00
351.5640, 40224.00
352.7650, 40571.00
353.9650, 40511.00
355.1650, 40739.00
356.3650, 40753.00
357.5650, 41433.00
358.7640, 42135.00
359.9640, 42322.00
361.1630, 43007.00
362.3620, 43585.00
363.5610, 44309.00
364.7600, 44987.00
365.9590, 45657.70
367.1580, 46321.43
368.3560, 47165.00
369.5540, 47645.00
370.7520, 48629.00
371.9500, 49396.00
373.1480, 50037.00
374.3460, 50215.00
375.5430, 50739.00
376.7410, 50255.00
377.9380, 50679.00
379.1350, 50045.00
380.3320, 49669.00
381.5280, 48998.00
382.7250, 48222.00
383.9210, 47604.00
385.1180, 47645.00
386.3140, 47547.00
387.5100, 47808.00
388.7050, 47827.00
389.9010, 48218.00
391.0960, 48832.00
392.2920, 49194.00
393.4870, 49676.00
394.6820, 50230.00
395.8770, 50219.00
397.0720, 50684.00
398.2660, 50530.00
399.4610, 50101.00
400.6550, 50050.00
401.8490, 49615.00
403.0430, 49224.00
404.2370, 48925.00
405.4300, 48816.85
406.6240, 48730.91
407.8170, 48910.00
409.0100, 48920.00
410.2030, 49270.00
411.3960, 49614.00
412.5890, 50349.00
413.7810, 51367.00
414.9740, 52888.00
416.1660, 54356.00
417.3580, 57614.00
418.5500, 57315.00
419.7420, 58634.00
420.9330, 59238.00
422.1250, 59051.78
423.3160, 58670.98
424.5070, 57437.71
425.6980, 56075.00
426.8890, 53549.00
428.0800, 51004.00
429.2700, 47947.00
430.4610, 45417.00
431.6510, 43197.00
432.8410, 40659.00
434.0310, 39246.00
435.2210, 38047.00
436.4100, 36651.00
437.6000, 36060.00
438.7890, 35292.00
439.9780, 34785.00
441.1670, 34345.00
442.3560, 34077.00
443.5450, 34085.00
444.7330, 33811.00
445.9210, 33707.00
447.1100, 33617.00
448.2980, 33558.00
449.4860, 33478.00
450.6730, 33567.00
451.8610, 32896.00
453.0480, 33145.00
454.2360, 32813.00
455.4230, 33238.00
456.6100, 32720.00
457.7970, 32638.00
458.9830, 32185.00
460.1700, 32222.00
461.3560, 31772.00
462.5420, 31563.00
463.7280, 31791.00
464.9140, 31302.00
466.1000, 31470.00
467.2850, 31765.00
468.4710, 31668.00
469.6560, 31898.00
470.8410, 31703.00
472.0260, 32212.00
473.2110, 32320.00
474.3960, 32493.00
475.5800, 32523.00
476.7640, 32539.00
477.9490, 32433.00
479.1330, 32639.00
480.3160, 32480.00
481.5000, 32304.00
482.6840, 31888.00
483.8670, 31989.00
485.0500, 32018.00
486.2330, 32122.00
487.4160, 32267.00
488.5990, 32044.00
489.7820, 32085.00
490.9640, 31847.00
492.1470, 32125.00
493.3290, 32204.00
494.5110, 32497.00
495.6930, 32468.00
496.8740, 32622.00
498.0560, 32588.00
499.2370, 33159.00
500.4180, 33183.00
501.5990, 33418.00
502.7800, 33722.00
503.9610, 33891.00
505.1420, 34371.94
506.3220, 35140.00
507.5020, 35482.00
508.6820, 36008.00
509.8620, 36904.00
511.0420, 37100.00
512.2220, 37960.00
513.4010, 38115.00
514.5810, 38375.00
515.7600, 38473.00
516.9390, 38585.00
518.1180, 38467.00
519.2970, 38321.00
520.4750, 38430.00
521.6540, 38548.00
522.8320, 38718.00
524.0100, 38815.00
525.1880, 39391.00
526.3660, 39677.00
527.5430, 40047.00
528.7210, 40865.00
529.8980, 40922.00
531.0750, 41373.00
532.2520, 42166.00
533.4290, 42786.00
534.6060, 43475.00
535.7820, 44038.00
536.9590, 44738.00
538.1350, 45655.00
539.3110, 46700.00
540.4870, 47892.00
541.6630, 49137.00
542.8380, 50472.52
544.0140, 51918.00
545.1890, 53425.00
546.3640, 55106.00
547.5390, 56835.00
548.7140, 58011.00
549.8890, 59989.00
551.0630, 61058.00
552.2380, 62538.00
553.4120, 63747.00
554.5860, 64813.00
555.7600, 64700.00
556.9330, 64691.00
558.1070, 64552.00
559.2800, 63494.00
560.4540, 62149.00
561.6270, 60792.00
562.8000, 58900.00
563.9730, 56927.00
565.1450, 54937.00
566.3180, 52939.00
567.4900, 51066.00
568.6620, 49393.00
569.8340, 47673.00
571.0060, 45872.00
572.1780, 44535.00
573.3490, 43401.00
574.5210, 42479.00
575.6920, 41630.00
576.8630, 40694.00
578.0340, 39920.00
579.2050, 39250.00
580.3750, 38648.00
581.5460, 38125.96
582.7160, 37822.00
583.8860, 37378.00
585.0560, 36999.00
586.2260, 36928.00
587.3960, 36204.00
588.5650, 36106.00
589.7340, 35923.00
590.9040, 35515.00
592.0730, 35424.00
593.2410, 35349.00
594.4100, 35068.00
595.5790, 34777.00
596.7470, 34636.00
597.9150, 34576.00
599.0840, 34071.00
600.2510, 34029.00
601.4190, 33499.00
602.5870, 33587.00
603.7540, 33464.00
604.9220, 33199.00
606.0890, 33131.00
607.2560, 32920.14
608.4230, 32631.00
609.5890, 32566.00
610.7560, 32320.00
611.9220, 32143.00
613.0880, 32200.00
614.2540, 31966.00
615.4200, 32007.00
616.5860, 32296.00
617.7520, 31984.00
618.9170, 32269.00
620.0820, 32291.00
621.2480, 32263.00
622.4120, 32326.00
623.5770, 32507.00
624.7420, 32687.00
625.9060, 32519.00
627.0710, 32847.00
628.2350, 33012.00
629.3990, 32969.00
630.5630, 32833.00
631.7260, 33140.00
632.8900, 33049.00
634.0530, 33112.00
635.2170, 33353.00
636.3800, 33335.00
637.5430, 33765.00
638.7050, 33894.00
639.8680, 34094.00
641.0300, 34431.00
642.1930, 34525.08
643.3550, 34471.00
644.5170, 34877.00
645.6790, 34789.00
646.8400, 35034.00
648.0020, 35296.00
649.1630, 35530.00
650.3240, 35796.00
651.4850, 35888.00
652.6460, 36607.00
653.8070, 36311.00
654.9670, 36854.00
656.1280, 37070.00
657.2880, 37127.00
658.4480, 37715.00
659.6080, 37965.00
660.7680, 38251.00
661.9270, 38735.00
663.0870, 39043.00
664.2460, 39881.00
665.4050, 40338.00
666.5640, 41231.00
667.7230, 42450.00
668.8820, 43027.00
670.0400, 44423.00
671.1990, 46098.00
672.3570, 47552.00
673.5150, 49904.00
674.6730, 52501.00
675.8310, 55508.00
676.9880, 59239.00
678.1450, 64152.00
679.3030, 70150.00
680.4600, 77532.00
681.6170, 86826.00
682.7740, 97381.00
683.9300, 109420.0
685.0870, 122998.0
686.2430, 137096.0
687.3990, 150005.0
688.5550, 159748.0
689.7110, 164457.0
690.8670, 164460.0
692.0220, 158190.0
693.1770, 147873.0
694.3330, 133782.0
695.4880, 119417.0
696.6430, 105093.0
697.7970, 93259.00
698.9520, 83019.00
700.1060, 74892.00
701.2600, 68653.00
702.4150, 63682.00
703.5690, 59794.00
704.7220, 56451.00
705.8760, 54177.00
707.0290, 52586.00
708.1830, 51399.00
709.3360, 50361.00
710.4890, 49715.00
711.6420, 49001.00
712.7940, 48620.00
713.9470, 48688.00
715.0990, 48594.00
716.2510, 48539.92
717.4030, 48447.00
718.5550, 48371.00
719.7070, 48542.00
720.8590, 48022.00
722.0100, 47684.00
723.1610, 46707.00
724.3120, 45750.00
725.4630, 44510.00
726.6140, 43644.00
727.7650, 42381.00
728.9150, 40990.00
730.0650, 40087.00
731.2160, 39043.00
732.3660, 38429.00
733.5150, 37345.00
734.6650, 37049.00
735.8150, 36534.00
736.9640, 36492.00
738.1130, 36166.00
739.2620, 36204.00
740.4110, 35870.00
741.5600, 35846.00
742.7080, 35777.00
743.8570, 35926.00
745.0050, 35947.00
746.1530, 36035.07
747.3010, 36292.00
748.4490, 36212.00
749.5960, 36261.00
750.7440, 36271.00
751.8910, 36657.00
753.0380, 36973.00
754.1850, 37141.00
755.3320, 37304.00
756.4790, 37527.00
757.6250, 37661.00
758.7720, 37686.00
759.9180, 38122.00
761.0640, 38217.00
762.2100, 37919.00
763.3550, 38258.00
764.5010, 37782.00
765.6460, 37668.00
766.7920, 37302.00
767.9370, 36996.00
769.0820, 36528.00
770.2260, 36195.00
771.3710, 35977.00
772.5150, 35586.00
773.6600, 35505.00
774.8040, 35211.00
775.9480, 34892.00
777.0910, 34714.00
778.2350, 34483.00
779.3790, 34258.00
780.5220, 33957.00
781.6650, 34084.00
782.8080, 33938.00
783.9510, 33868.00
785.0940, 33640.00
786.2360, 33323.00
787.3790, 33355.00
788.5210, 33515.00
789.6630, 33284.00
790.8050, 33540.00
791.9470, 33538.00
793.0880, 33362.00
794.2300, 33816.00
795.3710, 33684.00
796.5120, 33650.00
797.6530, 33638.00
798.7940, 33657.00
799.9340, 33645.00
801.0750, 33843.00
802.2150, 33784.00
803.3550, 33867.23
804.4950, 33820.00
805.6350, 33942.00
806.7750, 33942.00
807.9140, 33949.00
809.0540, 33951.00
810.1930, 34218.00
811.3320, 34348.00
812.4710, 34211.00
813.6100, 34429.00
814.7480, 34374.00
815.8870, 34141.00
817.0250, 34637.00
818.1630, 34460.32
819.3010, 34469.00
820.4390, 34536.00
821.5760, 34521.00
822.7140, 34541.00
823.8510, 34817.00
824.9880, 34813.00
826.1250, 34876.19
827.2620, 34810.00
828.3990, 34833.00
829.5350, 35042.00
830.6710, 34867.00
831.8080, 35323.00
832.9440, 35103.00
834.0800, 35369.00
835.2150, 35707.00
836.3510, 35552.00
837.4860, 35911.00
838.6210, 35816.00
839.7560, 35902.00
840.8910, 36007.00
842.0260, 36392.00
843.1610, 36542.00
844.2950, 36438.00
845.4290, 36372.00
846.5640, 36610.00
847.6980, 36860.00
848.8310, 36845.00
849.9650, 37139.00
851.0980, 37152.89
852.2320, 37431.00
853.3650, 37420.00
854.4980, 37263.00
855.6310, 37765.00
856.7630, 37791.00
857.8960, 37707.00
859.0280, 38037.00
860.1610, 38034.00
861.2930, 38139.00
862.4240, 38150.00
863.5560, 38350.00
864.6880, 38574.00
865.8190, 38733.00
866.9500, 38769.00
868.0820, 38983.00
869.2120, 39004.00
870.3430, 39292.00
871.4740, 39123.00
872.6040, 39450.00
873.7350, 39545.00
874.8650, 40238.00
875.9950, 40594.00
877.1250, 40780.00
878.2540, 41075.00
879.3840, 41525.00
880.5130, 41727.00
881.6420, 41950.00
882.7710, 42945.00
883.9000, 42895.00
885.0290, 43527.00
886.1570, 43819.00
887.2860, 44519.00
888.4140, 44869.00
889.5420, 45224.00
890.6700, 45757.00
891.7980, 46622.00
892.9250, 47492.00
894.0530, 48224.00
895.1800, 48935.00
896.3070, 49639.00
897.4340, 50831.00
898.5610, 51803.00
899.6870, 52665.00
900.8140, 53306.00
901.9400, 54742.00
903.0660, 55300.00
904.1920, 56288.00
905.3180, 57002.00
906.4440, 57911.00
907.5690, 58764.00
908.6950, 59994.00
909.8200, 60513.00
910.9450, 61902.00
912.0700, 62710.00
913.1940, 63770.00
914.3190, 64425.00
915.4430, 65139.00
916.5680, 65832.00
917.6920, 66234.00
918.8150, 66508.00
919.9390, 66280.00
921.0630, 66138.00
922.1860, 65704.58
923.3100, 65023.68
924.4330, 64315.00
925.5560, 63253.00
926.6780, 62091.00
927.8010, 60933.00
928.9230, 59526.00
930.0460, 58507.00
931.1680, 57090.00
932.2900, 55544.00
933.4120, 54025.00
934.5330, 52735.00
935.6550, 51204.00
936.7760, 50182.00
937.8970, 49107.00
939.0180, 47909.00
940.1390, 47429.00
941.2600, 46390.00
942.3810, 45559.00
943.5010, 45348.00
944.6210, 44771.00
945.7410, 44398.00
946.8610, 44346.00
947.9810, 44109.00
949.1010, 43925.00
950.2200, 44133.00
951.3390, 44259.00
952.4580, 44424.00
953.5770, 44635.00
954.6960, 45211.00
955.8150, 45490.00
956.9330, 45998.00
958.0520, 46550.00
959.1700, 47511.00
960.2880, 48261.00
961.4050, 49245.00
962.5230, 50548.00
963.6410, 51525.00
964.7580, 52973.00
965.8750, 54224.00
966.9920, 54938.00
968.1090, 55141.00
969.2260, 54698.00
970.3420, 54571.00
971.4590, 54335.00
972.5750, 53357.00
973.6910, 52521.00
974.8070, 51815.00
975.9230, 51253.95
977.0380, 50694.03
978.1540, 50263.89
979.2690, 49943.00
980.3840, 49681.00
981.4990, 49616.00
982.6140, 49664.00
983.7280, 49898.00
984.8430, 50097.52
985.9570, 50614.00
987.0710, 50829.00
988.1850, 51483.00
989.2990, 52050.00
990.4130, 52592.00
991.5260, 52772.00
992.6400, 53323.00
993.7530, 54396.00
994.8660, 55257.00
995.9790, 55461.00
997.0910, 56043.00
998.2040, 56665.00
999.3160, 57286.00
1000.429, 57845.00
1001.541, 58301.00
1002.652, 58457.00
1003.764, 58440.00
1004.876, 58423.00
1005.987, 58009.00
1007.098, 57280.00
1008.210, 56853.27
1009.320, 56641.00
1010.431, 55714.00
1011.542, 55403.00
1012.652, 55325.00
1013.763, 55368.00
1014.873, 55127.00
1015.983, 55273.00
1017.093, 55167.00
1018.202, 55077.00
1019.312, 54772.14
1020.421, 54019.00
1021.530, 53842.00
1022.639, 53435.00
1023.748, 52726.00
1024.857, 52483.00
1025.965, 52042.00
1027.074, 51319.00
1028.182, 50770.00
1029.290, 50419.00
1030.398, 50089.00
1031.505, 49730.32
1032.613, 49372.00
1033.720, 49169.00
1034.828, 48912.00
1035.935, 48656.00
1037.042, 48586.00
1038.148, 48710.00
1039.255, 48658.00
1040.361, 48439.00
1041.468, 48425.00
1042.574, 48267.00
1043.680, 48456.00
1044.786, 48288.00
1045.891, 48417.00
1046.997, 47907.00
1048.102, 47976.00
1049.207, 47914.00
1050.312, 47856.00
1051.417, 47789.00
1052.522, 47690.92
1053.626, 47590.00
1054.730, 47496.00
1055.835, 47422.00
1056.939, 47360.00
1058.043, 47327.00
1059.146, 46923.00
1060.250, 47512.00
1061.353, 47326.00
1062.456, 47107.00
1063.559, 47350.00
1064.662, 47267.00
1065.765, 47320.00
1066.868, 47819.00
1067.970, 47996.00
1069.072, 48366.00
1070.174, 48496.00
1071.276, 48837.00
1072.378, 49111.00
1073.480, 49615.51
1074.581, 50272.00
1075.682, 50840.00
1076.784, 51578.01
1077.885, 52382.00
1078.985, 53421.00
1080.086, 54292.00
1081.187, 56065.00
1082.287, 57509.00
1083.387, 58983.00
1084.487, 60278.00
1085.587, 61435.00
1086.687, 62926.00
1087.786, 63031.00
1088.885, 63167.00
1089.985, 62583.00
1091.084, 60939.00
1092.182, 60890.00
1093.281, 57884.00
1094.380, 55478.00
1095.478, 54289.00
1096.576, 53890.00
1097.674, 52262.00
1098.772, 51522.00
1099.870, 50534.00
1100.968, 50104.00
1102.065, 49432.00
1103.162, 49600.00
1104.259, 49393.00
1105.356, 49461.00
1106.453, 49156.00
1107.550, 49297.00
1108.646, 49240.00
1109.743, 49242.00
1110.839, 49291.00
1111.935, 49654.00
1113.030, 49368.00
1114.126, 49564.00
1115.222, 49885.00
1116.317, 49677.00
1117.412, 49675.00
1118.507, 49462.00
1119.602, 49330.00
1120.697, 49272.00
1121.791, 49402.00
1122.885, 48946.00
1123.980, 49145.00
1125.074, 48695.00
1126.168, 48330.00
1127.261, 48087.00
1128.355, 47818.00
1129.448, 47477.00
1130.541, 47293.00
1131.635, 46943.61
1132.727, 46083.00
1133.820, 46264.00
1134.913, 45726.00
1136.005, 45267.00
1137.097, 45198.00
1138.190, 45039.00
1139.281, 44428.00
1140.373, 44413.00
1141.465, 43988.00
1142.556, 43930.00
1143.648, 43600.00
1144.739, 43486.00
1145.830, 43068.00
1146.921, 43357.00
1148.011, 42830.00
1149.102, 43145.00
1150.192, 42580.00
1151.282, 42575.00
1152.372, 42792.00
1153.462, 42377.00
1154.552, 42094.00
1155.641, 42104.00
1156.731, 42081.00
1157.820, 41960.00
1158.909, 41955.16
1159.998, 42056.00
1161.086, 41824.00
1162.175, 41741.00
1163.263, 41605.00
1164.351, 41740.00
1165.440, 41396.00
1166.527, 41329.00
1167.615, 41396.00
1168.703, 41189.00
1169.790, 40912.00
1170.877, 41190.00
1171.965, 40911.00
1173.051, 40684.00
1174.138, 40613.00
1175.225, 40535.00
1176.311, 40913.00
1177.398, 40546.00
1178.484, 40372.00
1179.570, 40692.00
1180.655, 40466.00
1181.741, 40665.00
1182.827, 40523.00
1183.912, 40611.00
1184.997, 40576.00
1186.082, 40610.00
1187.167, 40809.00
1188.251, 40660.00
1189.336, 40673.00
1190.420, 40530.00
1191.505, 40739.00
1192.589, 40645.00
1193.672, 40540.00
1194.756, 40344.00
1195.840, 40464.00
1196.923, 40364.00
1198.006, 39975.00
1199.089, 40232.00
1200.172, 40043.00
1201.255, 40333.00
1202.337, 40293.00
1203.420, 40421.00
1204.502, 40344.00
1205.584, 39951.00
1206.666, 40474.00
1207.748, 40810.00
1208.829, 40782.00
1209.911, 40456.00
1210.992, 40428.00
1212.073, 40340.00
1213.154, 40590.00
1214.235, 40617.00
1215.316, 40761.00
1216.396, 40797.94
1217.476, 40990.00
1218.556, 40695.00
1219.636, 41089.00
1220.716, 40819.00
1221.796, 41178.00
1222.875, 41159.00
1223.955, 41214.00
1225.034, 41172.00
1226.113, 41195.00
1227.192, 41215.00
1228.270, 41242.51
1229.349, 41526.00
1230.427, 41376.00
1231.505, 41446.00
1232.583, 41592.00
1233.661, 41469.00
1234.739, 41511.00
1235.817, 41764.00
1236.894, 41312.00
1237.971, 41874.00
1239.048, 41517.00
1240.125, 41613.00
1241.202, 41669.00
1242.278, 41673.00
1243.355, 41752.00
1244.431, 41879.00
1245.507, 41877.25
1246.583, 41910.00
1247.659, 41913.00
1248.734, 41879.00
1249.810, 41836.00
1250.885, 41957.00
1251.960, 42041.00
1253.035, 42087.00
1254.110, 42091.00
1255.185, 42159.84
1256.259, 42263.88
1257.333, 42132.00
1258.408, 42496.00
1259.482, 42263.00
1260.555, 42303.00
1261.629, 42359.00
1262.702, 42534.00
1263.776, 42233.00
1264.849, 42429.00
1265.922, 42429.00
1266.995, 42588.00
1268.068, 42494.00
1269.140, 42636.00
1270.212, 42798.00
1271.285, 42779.00
1272.357, 42536.00
1273.428, 42635.00
1274.500, 42538.00
1275.572, 42927.00
1276.643, 42911.00
1277.714, 42857.00
1278.785, 42800.00
1279.856, 42932.00
1280.927, 42953.00
1281.998, 42888.00
1283.068, 43140.00
1284.138, 43008.00
1285.208, 43405.00
1286.278, 43307.00
1287.348, 43345.00
1288.418, 43342.00
1289.487, 43644.00
1290.556, 43751.00
1291.625, 43406.00
1292.694, 43746.00
1293.763, 43921.00
1294.832, 43728.00
1295.900, 44128.00
1296.969, 44084.00
1298.037, 43906.00
1299.105, 44363.00
1300.172, 44039.82
1301.240, 44098.77
