##NAMES=Eckermannite
##RRUFFID=R060320
##IDEAL CHEMISTRY=NaNa_2_(Mg_4_Al)Si_8_O_22_(OH)_2_
##LOCALITY=Norra Karr Complex, near Granna, Ostergotsland, Sweden
##OWNER=RRUFF
##SOURCE=Michael Scott
##DESCRIPTION=Parallel aggregate of blue elongated bladed crystals
##STATUS=The identification of this mineral is confirmed by single-crystal X-ray diffraction and chemical analysis.
##URL=rruff.info/R060320
##MEASURED CHEMISTRY=(Na_2.50_K_0.30_[box]_0.20_)_Σ=3_(Mg_2.35_Fe^2+^_1.35_Al_1.20_Mn_0.10_)_Σ=5_Si_8.00_O_22_((OH)_1.18_F_0.82_)_Σ=2_; OH estimated by charge balance, dark material
##PIN_ID=M01673
##ORIENTATION=Laser parallel to (1 0 1). Fiducial mark perpendicular to laser is parallel to b [0 1 0]
103.0850, 14528.00
104.3220, 14987.00
105.5590, 15542.00
106.7950, 16246.00
108.0320, 16549.00
109.2680, 16673.00
110.5040, 17011.00
111.7400, 17228.00
112.9760, 18029.00
114.2120, 18872.00
115.4470, 19635.00
116.6820, 19944.00
117.9170, 20136.00
119.1520, 20300.00
120.3870, 20453.00
121.6220, 20745.00
122.8560, 20612.00
124.0900, 19859.22
125.3240, 19022.00
126.5580, 18054.00
127.7920, 17507.00
129.0260, 17042.00
130.2590, 16506.00
131.4920, 15872.00
132.7250, 15443.00
133.9580, 15138.00
135.1910, 14901.00
136.4230, 15098.00
137.6560, 15002.00
138.8880, 15349.00
140.1200, 15260.00
141.3520, 15348.00
142.5830, 15478.00
143.8150, 15851.00
145.0460, 16225.00
146.2770, 16650.35
147.5080, 17320.00
148.7390, 17754.00
149.9700, 18367.00
151.2000, 19092.00
152.4310, 19737.00
153.6610, 20420.00
154.8910, 20712.17
156.1210, 21021.00
157.3500, 20960.00
158.5800, 20774.00
159.8090, 20387.00
161.0380, 19789.00
162.2670, 19650.00
163.4960, 19337.00
164.7240, 19369.00
165.9530, 19428.00
167.1810, 20109.00
168.4090, 20622.00
169.6370, 21181.00
170.8650, 22096.00
172.0920, 22570.00
173.3200, 23619.00
174.5470, 24569.00
175.7740, 25790.00
177.0010, 26830.00
178.2280, 27858.00
179.4540, 29042.00
180.6810, 30069.00
181.9070, 30609.00
183.1330, 31131.00
184.3590, 31194.00
185.5850, 31124.00
186.8100, 30387.00
188.0350, 29469.00
189.2610, 28223.00
190.4860, 26694.00
191.7110, 25650.00
192.9350, 24748.00
194.1600, 24159.00
195.3840, 23987.00
196.6080, 23817.00
197.8320, 23998.00
199.0560, 24786.00
200.2800, 25553.00
201.5030, 26668.00
202.7270, 27814.00
203.9500, 29071.00
205.1730, 30603.00
206.3950, 31648.00
207.6180, 32883.00
208.8410, 34083.00
210.0630, 34650.00
211.2850, 35451.00
212.5070, 35541.00
213.7290, 35562.00
214.9500, 35373.00
216.1720, 35439.00
217.3930, 34882.00
218.6140, 34622.86
219.8350, 34730.00
221.0560, 33843.00
222.2770, 33297.00
223.4970, 33138.00
224.7170, 32995.00
225.9370, 33052.00
227.1570, 32931.00
228.3770, 33102.00
229.5970, 32668.00
230.8160, 31793.00
232.0350, 30917.00
233.2540, 30032.00
234.4730, 28586.00
235.6920, 27405.00
236.9110, 26015.00
238.1290, 25009.00
239.3470, 24294.00
240.5650, 23203.00
241.7830, 22488.00
243.0010, 22182.00
244.2180, 21780.00
245.4360, 21455.00
246.6530, 20985.00
247.8700, 20682.00
249.0870, 20605.00
250.3040, 20087.00
251.5200, 19923.00
252.7370, 19865.00
253.9530, 19287.00
255.1690, 19133.00
256.3850, 18741.00
257.6000, 18514.00
258.8160, 18131.00
260.0310, 17627.00
261.2460, 17522.00
262.4610, 17079.00
263.6760, 16676.00
264.8910, 16457.00
266.1050, 16252.00
267.3200, 16046.00
268.5340, 15763.00
269.7480, 15467.00
270.9620, 15280.00
272.1750, 15142.00
273.3890, 14878.00
274.6020, 14961.00
275.8150, 14651.00
277.0280, 14828.00
278.2410, 14715.00
279.4540, 14740.00
280.6660, 14540.00
281.8790, 14723.00
283.0910, 14572.00
284.3030, 14549.00
285.5140, 14599.00
286.7260, 14635.00
287.9380, 14669.00
289.1490, 14472.00
290.3600, 14564.00
291.5710, 14409.00
292.7820, 14552.00
293.9920, 14731.00
295.2030, 14635.00
296.4130, 14745.00
297.6230, 14916.00
298.8330, 15125.00
300.0430, 15250.00
301.2520, 15471.60
302.4620, 15699.39
303.6710, 15997.00
304.8800, 16288.00
306.0890, 16806.00
307.2980, 17319.00
308.5070, 17679.00
309.7150, 18081.00
310.9230, 18626.00
312.1310, 18857.00
313.3390, 19135.00
314.5470, 19343.27
315.7550, 19412.00
316.9620, 19393.00
318.1690, 19387.00
319.3760, 19002.00
320.5830, 18650.00
321.7900, 18443.00
322.9960, 18029.00
324.2030, 17797.00
325.4090, 17276.00
326.6150, 17032.00
327.8210, 16748.00
329.0270, 16709.00
330.2320, 16568.00
331.4380, 16335.00
332.6430, 16362.00
333.8480, 16290.00
335.0530, 16337.00
336.2580, 16335.00
337.4620, 16426.00
338.6670, 16354.13
339.8710, 16320.00
341.0750, 16245.00
342.2790, 16254.00
343.4820, 16240.00
344.6860, 16091.00
345.8890, 16254.00
347.0920, 16012.00
348.2960, 16016.00
349.4980, 16177.00
350.7010, 16171.00
351.9040, 16327.00
353.1060, 16280.00
354.3080, 16130.00
355.5100, 16401.00
356.7120, 16373.00
357.9140, 16344.25
359.1150, 16479.52
360.3170, 16598.60
361.5180, 16702.18
362.7190, 16744.21
363.9200, 16865.72
365.1200, 16955.30
366.3210, 17043.65
367.5210, 17176.27
368.7210, 17147.00
369.9210, 17278.00
371.1210, 17337.00
372.3210, 17643.97
373.5200, 17560.04
374.7200, 17565.47
375.9190, 17554.64
377.1180, 17528.40
378.3170, 17440.61
379.5150, 17432.33
380.7140, 17392.17
381.9120, 17452.00
383.1110, 17576.00
384.3090, 17487.00
385.5060, 17571.00
386.7040, 17749.00
387.9020, 18001.00
389.0990, 18136.86
390.2960, 18174.00
391.4930, 18440.00
392.6900, 18603.00
393.8860, 18591.00
395.0830, 18783.00
396.2790, 18921.00
397.4750, 18749.00
398.6710, 18972.00
399.8670, 18863.00
401.0630, 19050.00
402.2580, 19145.00
403.4540, 19179.00
404.6490, 19331.00
405.8440, 19587.00
407.0390, 20048.00
408.2330, 19959.00
409.4280, 20604.00
410.6220, 20636.00
411.8160, 21012.00
413.0100, 21774.00
414.2040, 22065.00
415.3980, 22655.00
416.5910, 23103.00
417.7850, 23362.00
418.9780, 23619.00
420.1710, 23702.00
421.3640, 23522.00
422.5560, 23007.00
423.7490, 22375.00
424.9410, 21239.00
426.1330, 20469.00
427.3250, 19273.00
428.5170, 18125.00
429.7090, 17374.00
430.9000, 16575.00
432.0910, 15940.00
433.2820, 15452.00
434.4730, 14994.00
435.6640, 14762.00
436.8550, 14471.00
438.0450, 14332.00
439.2360, 14145.98
440.4260, 13971.00
441.6160, 13890.00
442.8060, 13762.92
443.9950, 13764.00
445.1850, 13636.00
446.3740, 13633.00
447.5630, 13658.00
448.7520, 13747.00
449.9410, 13636.00
451.1300, 13686.83
452.3180, 13626.00
453.5060, 13625.00
454.6950, 13485.00
455.8830, 13339.00
457.0700, 13335.00
458.2580, 13467.00
459.4450, 13266.00
460.6330, 13383.00
461.8200, 13149.00
463.0070, 13224.00
464.1940, 13170.00
465.3800, 13226.00
466.5670, 13218.00
467.7530, 13192.00
468.9390, 13168.29
470.1250, 13179.00
471.3110, 13055.00
472.4970, 13337.00
473.6820, 13296.00
474.8680, 13145.00
476.0530, 13241.00
477.2380, 13172.00
478.4230, 13308.00
479.6070, 13306.00
480.7920, 13442.00
481.9760, 13468.00
483.1600, 13414.00
484.3440, 13297.00
485.5280, 13408.00
486.7120, 13442.00
487.8950, 13306.00
489.0780, 13542.00
490.2620, 13688.00
491.4450, 13704.00
492.6270, 13592.00
493.8100, 13769.28
494.9920, 13883.85
496.1750, 13982.19
497.3570, 14065.06
498.5390, 14086.38
499.7210, 14187.18
500.9020, 14256.06
502.0840, 14323.71
503.2650, 14435.63
504.4460, 14465.83
505.6270, 14577.05
506.8080, 14699.00
507.9890, 14813.00
509.1690, 15090.00
510.3500, 15196.00
511.5300, 15298.00
512.7100, 15412.15
513.8900, 15499.20
515.0690, 15505.00
516.2490, 15711.00
517.4280, 15726.00
518.6070, 15901.00
519.7860, 16059.00
520.9650, 16021.00
522.1440, 16249.00
523.3220, 16367.00
524.5010, 16368.00
525.6790, 16611.00
526.8570, 16774.00
528.0350, 16768.00
529.2130, 17073.00
530.3900, 17247.00
531.5670, 17412.00
532.7450, 17524.00
533.9220, 18097.00
535.0980, 18093.00
536.2750, 18637.00
537.4520, 18642.00
538.6280, 19109.00
539.8040, 20004.00
540.9800, 20309.00
542.1560, 20770.00
543.3320, 21339.00
544.5070, 22031.00
545.6830, 22581.00
546.8580, 23283.00
548.0330, 23646.00
549.2080, 24448.00
550.3830, 24497.00
551.5570, 24805.00
552.7310, 25173.00
553.9060, 25212.00
555.0800, 25089.00
556.2540, 25052.00
557.4270, 24775.00
558.6010, 24341.00
559.7740, 23789.00
560.9470, 22967.00
562.1210, 22213.00
563.2930, 21633.00
564.4660, 20850.00
565.6390, 20153.00
566.8110, 19480.37
567.9830, 18677.81
569.1550, 18187.00
570.3270, 17646.00
571.4990, 17217.00
572.6710, 16874.89
573.8420, 16807.00
575.0130, 16249.00
576.1840, 16096.00
577.3550, 15706.00
578.5260, 15566.00
579.6970, 15428.00
580.8670, 15264.00
582.0370, 15187.26
583.2070, 15075.00
584.3770, 15047.00
585.5470, 14997.00
586.7170, 14962.65
587.8860, 14719.00
589.0550, 14769.00
590.2240, 14479.00
591.3930, 14365.00
592.5620, 14425.00
593.7310, 14423.00
594.8990, 14278.00
596.0670, 14308.00
597.2350, 14217.00
598.4030, 14297.00
599.5710, 14072.00
600.7390, 14115.00
601.9060, 13914.00
603.0740, 13980.00
604.2410, 13856.00
605.4080, 13920.00
606.5740, 13775.00
607.7410, 13622.00
608.9080, 13681.00
610.0740, 13556.00
611.2400, 13647.00
612.4060, 13422.00
613.5720, 13465.00
614.7370, 13525.00
615.9030, 13443.00
617.0680, 13455.00
618.2330, 13360.00
619.3980, 13386.00
620.5630, 13555.00
621.7280, 13554.00
622.8920, 13529.45
624.0570, 13470.00
625.2210, 13402.00
626.3850, 13519.00
627.5490, 13473.00
628.7120, 13558.00
629.8760, 13483.00
631.0390, 13631.00
632.2020, 13728.00
633.3650, 13549.00
634.5280, 13822.00
635.6910, 13715.00
636.8530, 13851.00
638.0160, 14053.00
639.1780, 13962.00
640.3400, 14117.00
641.5020, 14006.00
642.6640, 14234.00
643.8250, 14082.00
644.9870, 14218.00
646.1480, 14282.04
647.3090, 14617.00
648.4700, 14475.00
649.6300, 14519.00
650.7910, 14721.00
651.9510, 14639.00
653.1120, 14677.00
654.2720, 14767.00
655.4320, 14974.00
656.5910, 15172.00
657.7510, 15186.00
658.9100, 15266.00
660.0690, 15637.00
661.2290, 15603.00
662.3880, 16081.00
663.5460, 16308.00
664.7050, 16551.00
665.8630, 16874.00
667.0220, 17361.00
668.1800, 17914.00
669.3380, 18366.00
670.4950, 18883.00
671.6530, 19893.00
672.8100, 21068.00
673.9680, 22189.00
675.1250, 23799.00
676.2820, 25494.00
677.4390, 27947.00
678.5950, 30762.32
679.7520, 33925.00
680.9080, 37763.00
682.0640, 41905.00
683.2200, 46483.00
684.3760, 51447.00
685.5320, 56207.00
686.6870, 60131.00
687.8420, 62647.00
688.9980, 62636.86
690.1530, 61995.00
691.3070, 58513.00
692.4620, 53222.00
693.6170, 47594.00
694.7710, 42565.00
695.9250, 37477.00
697.0790, 33464.00
698.2330, 30073.00
699.3870, 27526.00
700.5400, 25684.00
701.6940, 24010.00
702.8470, 22702.00
704.0000, 21728.00
705.1530, 20945.00
706.3050, 20120.00
707.4580, 19742.00
708.6100, 19196.00
709.7630, 19150.00
710.9150, 18782.00
712.0660, 18824.00
713.2180, 18458.00
714.3700, 18384.00
715.5210, 18477.00
716.6720, 18204.00
717.8240, 18250.00
718.9740, 18166.00
720.1250, 17981.00
721.2760, 17636.00
722.4260, 17525.00
723.5770, 17282.00
724.7270, 16844.00
725.8770, 16630.00
727.0260, 16317.00
728.1760, 15976.00
729.3250, 15658.00
730.4750, 15493.00
731.6240, 15327.00
732.7730, 15012.00
733.9220, 15171.00
735.0700, 15036.00
736.2190, 14736.00
737.3670, 14849.00
738.5150, 14742.00
739.6630, 14807.00
740.8110, 14899.00
741.9590, 14663.00
743.1060, 14659.00
744.2540, 14795.00
745.4010, 14861.00
746.5480, 14907.00
747.6950, 15024.00
748.8410, 15173.00
749.9880, 15319.00
751.1340, 15455.53
752.2800, 15591.00
753.4260, 15762.00
754.5720, 15900.00
755.7180, 16090.00
756.8640, 16074.00
758.0090, 16199.00
759.1540, 16199.00
760.2990, 16244.00
761.4440, 16156.00
762.5890, 16266.00
763.7340, 15947.00
764.8780, 15759.00
766.0220, 15774.00
767.1660, 15360.63
768.3100, 15282.00
769.4540, 15050.00
770.5980, 14819.00
771.7410, 14817.77
772.8840, 14771.00
774.0280, 14806.00
775.1700, 14518.00
776.3130, 14562.00
777.4560, 14521.00
778.5980, 14633.00
779.7410, 14369.00
780.8830, 14442.00
782.0250, 14487.00
783.1670, 14354.00
784.3080, 14468.00
785.4500, 14446.00
786.5910, 14591.00
787.7320, 14659.00
788.8730, 14447.00
790.0140, 14524.00
791.1550, 14458.00
792.2950, 14568.00
793.4360, 14531.00
794.5760, 14496.00
795.7160, 14520.55
796.8560, 14482.31
797.9960, 14501.00
799.1350, 14491.00
800.2750, 14508.00
801.4140, 14602.00
802.5530, 14596.84
803.6920, 14773.00
804.8310, 14678.00
805.9690, 14816.00
807.1080, 14913.00
808.2460, 14747.00
809.3840, 14870.00
810.5220, 14972.00
811.6600, 14801.00
812.7970, 15027.00
813.9350, 15216.00
815.0720, 15052.00
816.2090, 15050.00
817.3460, 14908.00
818.4830, 15078.00
819.6200, 15119.00
820.7560, 15102.00
821.8930, 15204.00
823.0290, 15175.00
824.1650, 14960.00
825.3010, 15258.00
826.4360, 15403.00
827.5720, 15150.00
828.7070, 15482.00
829.8420, 15224.00
830.9770, 15513.00
832.1120, 15515.00
833.2470, 15446.00
834.3820, 15494.00
835.5160, 15580.00
836.6500, 15403.00
837.7840, 15500.00
838.9180, 15551.00
840.0520, 15534.00
841.1860, 15634.33
842.3190, 15633.00
843.4520, 15726.00
844.5850, 15720.00
845.7180, 15673.00
846.8510, 15697.00
847.9840, 15596.00
849.1160, 15803.00
850.2490, 15823.00
851.3810, 16073.00
852.5130, 15999.00
853.6450, 16197.00
854.7760, 16107.00
855.9080, 16037.00
857.0390, 16379.00
858.1700, 16115.00
859.3010, 16369.00
860.4320, 16246.00
861.5630, 16303.00
862.6930, 16125.00
863.8240, 16039.00
864.9540, 16138.00
866.0840, 15909.00
867.2140, 16011.00
868.3440, 15901.00
869.4730, 15795.00
870.6030, 15921.00
871.7320, 16010.00
872.8610, 16079.00
873.9900, 16267.00
875.1190, 16140.00
876.2470, 16210.00
877.3760, 16327.00
878.5040, 16173.00
879.6320, 16297.00
880.7600, 16448.00
881.8880, 16570.00
883.0150, 16716.76
884.1430, 16860.00
885.2700, 16988.00
886.3970, 17137.00
887.5240, 17235.00
888.6510, 17372.00
889.7780, 17481.00
890.9040, 17833.00
892.0310, 18063.00
893.1570, 18137.00
894.2830, 18582.00
895.4090, 18913.00
896.5350, 19087.00
897.6600, 19452.00
898.7860, 19794.00
899.9110, 19962.00
901.0360, 20302.00
902.1610, 20522.00
903.2860, 20905.00
904.4100, 21090.00
905.5350, 21650.03
906.6590, 21912.69
907.7830, 22264.39
908.9070, 22504.00
910.0310, 23012.11
911.1540, 23109.00
912.2780, 23606.00
913.4010, 23810.00
914.5240, 24026.00
915.6470, 24304.00
916.7700, 24308.00
917.8930, 24617.00
919.0150, 24333.00
920.1380, 24344.00
921.2600, 24254.00
922.3820, 24009.90
923.5040, 23771.29
924.6260, 23512.00
925.7470, 23064.00
926.8690, 22651.79
927.9900, 22269.00
929.1110, 21913.00
930.2320, 21699.00
931.3530, 21335.00
932.4730, 21097.23
933.5940, 20764.91
934.7140, 20552.00
935.8340, 20125.00
936.9540, 19736.00
938.0740, 19461.00
939.1930, 19292.00
940.3130, 18926.00
941.4320, 18916.00
942.5510, 18773.93
943.6700, 18659.76
944.7890, 18662.00
945.9080, 18562.00
947.0260, 18466.00
948.1450, 18451.00
949.2630, 18529.00
950.3810, 18522.00
951.4990, 18562.00
952.6170, 18850.00
953.7340, 19028.00
954.8520, 19308.00
955.9690, 19579.07
957.0860, 19715.00
958.2030, 20137.00
959.3200, 20437.00
960.4360, 20696.00
961.5530, 21137.00
962.6690, 21592.00
963.7850, 21908.10
964.9010, 22269.00
966.0170, 22646.00
967.1330, 22752.00
968.2480, 23111.00
969.3630, 23154.00
970.4790, 22928.00
971.5940, 23308.00
972.7080, 23528.00
973.8230, 23619.00
974.9380, 23956.00
976.0520, 23934.00
977.1660, 24367.00
978.2800, 24637.00
979.3940, 25174.00
980.5080, 25425.00
981.6220, 26275.00
982.7350, 26638.00
983.8480, 27164.00
984.9610, 27395.00
986.0740, 27987.00
987.1870, 28153.00
988.3000, 28465.00
989.4120, 28687.00
990.5250, 28861.00
991.6370, 28821.00
992.7490, 28893.65
993.8610, 28714.00
994.9720, 28765.00
996.0840, 28545.00
997.1950, 28341.00
998.3060, 28340.00
999.4170, 27958.00
1000.528, 27712.00
1001.639, 27601.00
1002.750, 27356.00
1003.860, 27040.00
1004.970, 26867.00
1006.080, 26354.00
1007.190, 26148.00
1008.300, 26085.00
1009.410, 26000.00
1010.519, 25954.00
1011.628, 26026.00
1012.738, 25888.00
1013.846, 25658.00
1014.955, 25811.00
1016.064, 25545.00
1017.172, 25337.00
1018.281, 25348.00
1019.389, 25065.00
1020.497, 24706.00
1021.605, 24620.00
1022.713, 24342.00
1023.820, 24009.00
1024.928, 23811.00
1026.035, 23249.00
1027.142, 22857.00
1028.249, 23074.00
1029.356, 22553.00
1030.462, 22249.00
1031.569, 22065.00
1032.675, 21857.00
1033.781, 21616.00
1034.887, 21504.00
1035.993, 21441.00
1037.098, 21103.00
1038.204, 20884.00
1039.309, 20827.00
1040.415, 20948.00
1041.520, 20743.00
1042.624, 20724.00
1043.729, 20569.00
1044.834, 20535.85
1045.938, 20469.19
1047.042, 20462.00
1048.146, 20409.00
1049.250, 20415.11
1050.354, 20387.00
1051.458, 20441.00
1052.561, 20464.00
1053.664, 20487.73
1054.767, 20623.00
1055.870, 20440.00
1056.973, 20723.00
1058.076, 20616.00
1059.178, 20719.00
1060.281, 20663.00
1061.383, 20720.00
1062.485, 20801.00
1063.587, 20776.00
1064.688, 20929.42
1065.790, 20845.00
1066.891, 21169.00
1067.993, 21239.00
1069.094, 21304.00
1070.195, 21619.00
1071.295, 21765.00
1072.396, 22018.00
1073.496, 22296.00
1074.597, 22835.00
1075.697, 23189.00
1076.797, 23616.00
1077.897, 24336.00
1078.996, 24958.00
1080.096, 25744.00
1081.195, 26449.00
1082.294, 27293.00
1083.393, 27967.00
1084.492, 28572.00
1085.591, 28836.00
1086.689, 29128.00
1087.788, 28881.00
1088.886, 28416.00
1089.984, 27732.00
1091.082, 27110.00
1092.180, 26266.46
1093.277, 25622.00
1094.375, 24577.00
1095.472, 23735.00
1096.569, 23192.00
1097.666, 22644.00
1098.763, 22513.00
1099.860, 22316.00
1100.956, 22031.00
1102.053, 21916.00
1103.149, 21655.00
1104.245, 21645.00
1105.341, 21448.00
1106.436, 21417.00
1107.532, 21534.00
1108.627, 21255.00
1109.723, 21389.00
1110.818, 21231.00
1111.913, 21332.00
1113.007, 21080.00
1114.102, 21179.00
1115.197, 21175.00
1116.291, 21065.00
1117.385, 20964.00
1118.479, 21008.00
1119.573, 20648.00
1120.666, 20724.00
1121.760, 20691.00
1122.853, 20459.00
1123.947, 20185.00
1125.040, 20395.00
1126.132, 20333.00
1127.225, 20387.00
1128.318, 20021.00
1129.410, 20081.00
1130.502, 20145.00
1131.595, 19829.00
1132.687, 20038.00
1133.778, 19803.00
1134.870, 19632.00
1135.961, 19705.00
1137.053, 19805.00
1138.144, 19618.00
1139.235, 19455.00
1140.326, 19580.00
1141.416, 19344.00
1142.507, 19544.00
1143.597, 19188.00
1144.688, 19358.00
1145.778, 19382.00
1146.868, 19254.00
1147.957, 19239.00
1149.047, 19128.00
1150.136, 19176.00
1151.226, 19054.00
1152.315, 19009.00
1153.404, 18969.00
1154.493, 18965.00
1155.581, 18931.18
1156.670, 18863.12
1157.758, 18890.00
1158.846, 18736.00
1159.934, 18693.00
1161.022, 18682.00
1162.110, 18679.00
1163.198, 18581.00
1164.285, 18607.00
1165.372, 18390.00
1166.459, 18545.00
1167.546, 18488.00
1168.633, 18377.00
1169.720, 18420.67
1170.806, 18201.00
1171.892, 18315.00
1172.979, 18287.00
1174.065, 18155.00
1175.150, 18241.00
1176.236, 18174.00
1177.322, 18182.00
1178.407, 18263.00
1179.492, 18229.00
1180.577, 18244.66
1181.662, 18291.80
1182.747, 18202.00
1183.832, 18319.00
1184.916, 18263.47
1186.000, 18167.00
1187.084, 18169.00
1188.168, 18275.00
1189.252, 18292.00
1190.336, 18250.00
1191.419, 18029.76
1192.503, 18086.90
1193.586, 18127.75
1194.669, 18153.18
1195.752, 18117.06
1196.835, 18160.43
1197.917, 18171.93
1199.000, 18182.14
1200.082, 18254.00
1201.164, 18172.00
1202.246, 18093.00
1203.328, 18203.00
1204.409, 18034.00
1205.491, 18203.00
1206.572, 18255.00
1207.653, 18156.00
1208.734, 18196.00
1209.815, 18119.00
1210.896, 18332.00
1211.976, 18186.00
1213.057, 18336.00
1214.137, 18274.00
1215.217, 18267.00
1216.297, 18108.00
1217.377, 18250.00
1218.456, 18201.44
1219.536, 18330.00
1220.615, 18281.00
1221.694, 18447.00
1222.773, 18557.00
1223.852, 18434.72
1224.931, 18495.00
1226.009, 18246.00
1227.088, 18443.00
1228.166, 18432.00
1229.244, 18414.00
1230.322, 18514.00
1231.400, 18454.00
1232.477, 18617.00
1233.555, 18498.00
1234.632, 18474.00
1235.709, 18501.00
1236.786, 18623.00
1237.863, 18604.00
1238.939, 18512.00
1240.016, 18590.00
1241.092, 18563.00
1242.168, 18732.00
1243.245, 18718.00
1244.320, 18681.66
1245.396, 18811.00
1246.472, 18634.00
1247.547, 18673.00
1248.622, 18833.00
1249.697, 18752.00
1250.772, 18806.00
1251.847, 18753.00
1252.922, 18627.00
1253.996, 18796.00
1255.071, 18783.00
1256.145, 18874.00
1257.219, 18756.00
1258.293, 18748.00
1259.366, 18983.00
1260.440, 18877.00
1261.513, 18977.00
1262.587, 18971.00
1263.660, 18784.00
1264.733, 18867.00
1265.805, 19171.00
1266.878, 19023.00
1267.951, 18887.00
1269.023, 19086.00
1270.095, 18968.00
1271.167, 18912.00
1272.239, 19151.00
