##NAMES=Eckermannite
##RRUFFID=R060320
##IDEAL CHEMISTRY=NaNa_2_(Mg_4_Al)Si_8_O_22_(OH)_2_
##LOCALITY=Norra Karr Complex, near Granna, Ostergotsland, Sweden
##OWNER=RRUFF
##SOURCE=Michael Scott
##DESCRIPTION=Parallel aggregate of blue elongated bladed crystals
##STATUS=The identification of this mineral is confirmed by single-crystal X-ray diffraction and chemical analysis.
##URL=rruff.info/R060320
##MEASURED CHEMISTRY=(Na_2.50_K_0.30_[box]_0.20_)_Σ=3_(Mg_2.35_Fe^2+^_1.35_Al_1.20_Mn_0.10_)_Σ=5_Si_8.00_O_22_((OH)_1.18_F_0.82_)_Σ=2_; OH estimated by charge balance, dark material
##PIN_ID=M00815
##ORIENTATION=Laser parallel to a* (1 0 0). Fiducial mark perpendicular to laser is parallel to b [0 1 0]
136.6840, 49098.00
137.9110, 49178.00
139.1380, 49299.00
140.3650, 49358.00
141.5920, 49625.00
142.8190, 49779.50
144.0460, 49965.00
145.2720, 50206.00
146.4990, 50288.00
147.7250, 50448.00
148.9510, 50673.00
150.1770, 51243.00
151.4020, 51578.00
152.6280, 52644.00
153.8530, 53527.00
155.0790, 54746.00
156.3040, 55074.00
157.5290, 55612.00
158.7530, 55858.00
159.9780, 55641.00
161.2030, 55364.00
162.4270, 54880.00
163.6510, 54606.00
164.8750, 54713.00
166.0990, 55298.00
167.3230, 55281.00
168.5470, 55384.00
169.7700, 55705.00
170.9930, 55924.00
172.2160, 56387.00
173.4390, 56761.00
174.6620, 57321.00
175.8850, 58273.00
177.1080, 58737.00
178.3300, 60017.00
179.5520, 61240.00
180.7740, 62802.00
181.9960, 63524.00
183.2180, 64577.00
184.4400, 65647.00
185.6610, 65859.00
186.8820, 66127.00
188.1040, 66188.00
189.3250, 66052.00
190.5450, 65393.00
191.7660, 64856.00
192.9870, 64537.00
194.2070, 64459.00
195.4270, 64277.00
196.6480, 65013.00
197.8680, 65879.00
199.0870, 67431.00
200.3070, 68814.00
201.5270, 70659.00
202.7460, 73160.00
203.9650, 76007.00
205.1840, 79069.00
206.4030, 82112.00
207.6220, 85737.00
208.8400, 88055.00
210.0590, 89691.00
211.2770, 91421.00
212.4950, 92655.00
213.7130, 92656.00
214.9310, 92025.00
216.1490, 90749.00
217.3660, 88610.00
218.5840, 86027.00
219.8010, 83605.00
221.0180, 80593.00
222.2350, 77727.00
223.4520, 75027.00
224.6680, 72570.14
225.8850, 70326.99
227.1010, 68238.00
228.3170, 66395.00
229.5330, 64819.00
230.7490, 63209.00
231.9650, 61820.00
233.1810, 60535.00
234.3960, 59550.00
235.6110, 58684.00
236.8260, 57739.00
238.0410, 57128.00
239.2560, 56559.00
240.4710, 55789.00
241.6850, 55232.00
242.9000, 55050.00
244.1140, 54365.00
245.3280, 54235.00
246.5420, 54198.00
247.7550, 53761.00
248.9690, 53654.00
250.1820, 53371.00
251.3960, 53268.00
252.6090, 53392.00
253.8220, 52944.00
255.0350, 52903.00
256.2470, 52445.00
257.4600, 52591.00
258.6720, 52428.00
259.8840, 51994.67
261.0960, 51643.10
262.3080, 51033.00
263.5200, 50470.00
264.7320, 49715.00
265.9430, 49079.00
267.1540, 49071.00
268.3650, 49039.00
269.5760, 48823.00
270.7870, 48453.00
271.9980, 48125.00
273.2080, 48430.00
274.4190, 47960.00
275.6290, 48232.00
276.8390, 48058.00
278.0490, 48151.00
279.2590, 48299.00
280.4680, 47928.00
281.6780, 47931.00
282.8870, 47740.00
284.0960, 47763.00
285.3050, 47692.00
286.5140, 47909.00
287.7230, 47953.00
288.9310, 47900.00
290.1400, 47618.00
291.3480, 47691.00
292.5560, 47523.00
293.7640, 47615.00
294.9720, 47385.00
296.1790, 47737.00
297.3870, 47778.66
298.5940, 47988.00
299.8010, 48262.00
301.0080, 48633.00
302.2150, 49137.00
303.4220, 49899.00
304.6290, 50338.00
305.8350, 51504.00
307.0410, 52061.00
308.2470, 52788.00
309.4530, 53706.00
310.6590, 55055.00
311.8650, 55908.00
313.0700, 56979.00
314.2750, 57843.00
315.4810, 58611.00
316.6860, 58931.00
317.8900, 59538.00
319.0950, 59092.00
320.3000, 58852.00
321.5040, 58584.00
322.7080, 57575.00
323.9120, 56737.00
325.1160, 56266.00
326.3200, 55612.00
327.5240, 54674.00
328.7270, 53743.00
329.9310, 52936.00
331.1340, 52560.00
332.3370, 52400.00
333.5400, 51308.00
334.7420, 50716.00
335.9450, 50443.00
337.1470, 49692.00
338.3500, 49529.00
339.5520, 49301.00
340.7540, 49227.00
341.9550, 49130.00
343.1570, 48785.00
344.3590, 48922.00
345.5600, 49332.00
346.7610, 49100.00
347.9620, 49183.00
349.1630, 49331.00
350.3640, 49407.00
351.5640, 49649.00
352.7650, 49745.00
353.9650, 50129.00
355.1650, 50587.00
356.3650, 50855.00
357.5650, 51282.00
358.7640, 51759.00
359.9640, 52222.00
361.1630, 52742.00
362.3620, 53160.00
363.5610, 53665.00
364.7600, 54054.00
365.9590, 54122.00
367.1580, 54505.00
368.3560, 54443.00
369.5540, 54515.00
370.7520, 54524.00
371.9500, 54646.00
373.1480, 54696.71
374.3460, 54813.00
375.5430, 54865.00
376.7410, 54913.00
377.9380, 55026.00
379.1350, 55501.00
380.3320, 55241.00
381.5280, 55567.00
382.7250, 56219.00
383.9210, 56392.00
385.1180, 56697.00
386.3140, 57479.00
387.5100, 58189.00
388.7050, 58699.00
389.9010, 59303.00
391.0960, 59791.80
392.2920, 60130.00
393.4870, 60642.00
394.6820, 60963.00
395.8770, 61252.00
397.0720, 61517.00
398.2660, 61568.00
399.4610, 61310.00
400.6550, 61461.00
401.8490, 61261.00
403.0430, 61729.00
404.2370, 61767.00
405.4300, 61763.00
406.6240, 62186.00
407.8170, 62358.00
409.0100, 62587.00
410.2030, 63086.00
411.3960, 63678.30
412.5890, 64641.00
413.7810, 65401.00
414.9740, 66463.00
416.1660, 67796.00
417.3580, 68959.00
418.5500, 69791.00
419.7420, 70902.00
420.9330, 71270.00
422.1250, 71597.00
423.3160, 70845.00
424.5070, 69452.00
425.6980, 67465.00
426.8890, 65233.00
428.0800, 62780.00
429.2700, 60512.00
430.4610, 58051.00
431.6510, 56240.00
432.8410, 54652.00
434.0310, 53376.00
435.2210, 52835.00
436.4100, 51847.00
437.6000, 50927.00
438.7890, 50319.00
439.9780, 49582.00
441.1670, 49702.00
442.3560, 49199.00
443.5450, 49080.00
444.7330, 48853.00
445.9210, 48645.00
447.1100, 48330.00
448.2980, 48737.00
449.4860, 48417.00
450.6730, 48233.00
451.8610, 48442.00
453.0480, 48055.00
454.2360, 48079.00
455.4230, 48124.00
456.6100, 48084.00
457.7970, 48175.79
458.9830, 48156.00
460.1700, 48331.00
461.3560, 48379.00
462.5420, 48473.00
463.7280, 48328.00
464.9140, 48220.00
466.1000, 48697.00
467.2850, 48561.00
468.4710, 48738.00
469.6560, 49021.00
470.8410, 48918.00
472.0260, 49139.00
473.2110, 49284.00
474.3960, 49126.00
475.5800, 49449.00
476.7640, 49740.00
477.9490, 49894.00
479.1330, 50083.00
480.3160, 50579.00
481.5000, 50407.00
482.6840, 51047.00
483.8670, 50806.00
485.0500, 50786.00
486.2330, 51513.00
487.4160, 51580.00
488.5990, 51338.00
489.7820, 51542.00
490.9640, 51415.00
492.1470, 51251.00
493.3290, 51180.51
494.5110, 50841.00
495.6930, 50726.00
496.8740, 50849.00
498.0560, 50477.00
499.2370, 50748.00
500.4180, 50982.00
501.5990, 50459.00
502.7800, 50798.00
503.9610, 50839.00
505.1420, 50999.00
506.3220, 51089.00
507.5020, 51447.07
508.6820, 52019.00
509.8620, 52270.00
511.0420, 52646.00
512.2220, 53118.00
513.4010, 53213.00
514.5810, 53641.00
515.7600, 53812.00
516.9390, 54249.00
518.1180, 54699.00
519.2970, 55170.00
520.4750, 55488.38
521.6540, 55663.00
522.8320, 56078.00
524.0100, 56365.00
525.1880, 56576.00
526.3660, 57059.00
527.5430, 57501.00
528.7210, 57570.00
529.8980, 57731.00
531.0750, 57836.00
532.2520, 58504.00
533.4290, 58682.00
534.6060, 59313.00
535.7820, 59672.00
536.9590, 60106.00
538.1350, 60686.28
539.3110, 61259.97
540.4870, 61908.00
541.6630, 62664.00
542.8380, 63573.00
544.0140, 64430.00
545.1890, 65265.00
546.3640, 66510.00
547.5390, 67379.00
548.7140, 68196.00
549.8890, 69058.00
551.0630, 69944.00
552.2380, 70367.00
553.4120, 70672.00
554.5860, 70787.19
555.7600, 70813.00
556.9330, 70297.00
558.1070, 69552.00
559.2800, 68726.00
560.4540, 68220.00
561.6270, 66836.00
562.8000, 66114.00
563.9730, 65278.00
565.1450, 64276.00
566.3180, 62775.00
567.4900, 61832.00
568.6620, 60531.00
569.8340, 60188.00
571.0060, 59284.00
572.1780, 58851.00
573.3490, 58357.00
574.5210, 57633.00
575.6920, 57614.00
576.8630, 56874.00
578.0340, 56273.00
579.2050, 56427.00
580.3750, 56100.00
581.5460, 56109.00
582.7160, 55881.00
583.8860, 55539.00
585.0560, 55216.00
586.2260, 55038.00
587.3960, 55082.00
588.5650, 54788.00
589.7340, 55012.00
590.9040, 54694.00
592.0730, 54371.00
593.2410, 54388.00
594.4100, 53597.00
595.5790, 53967.00
596.7470, 53430.00
597.9150, 53219.00
599.0840, 53165.00
600.2510, 52861.00
601.4190, 53017.00
602.5870, 52305.00
603.7540, 52049.00
604.9220, 52341.00
606.0890, 51692.00
607.2560, 51456.00
608.4230, 51482.00
609.5890, 51333.00
610.7560, 50747.00
611.9220, 50864.00
613.0880, 50524.00
614.2540, 50584.00
615.4200, 50628.00
616.5860, 50162.00
617.7520, 49754.00
618.9170, 49844.00
620.0820, 50007.00
621.2480, 50023.00
622.4120, 49697.00
623.5770, 49723.00
624.7420, 49729.00
625.9060, 49887.00
627.0710, 49945.00
628.2350, 50018.00
629.3990, 50069.89
630.5630, 50097.00
631.7260, 50157.00
632.8900, 50109.00
634.0530, 50233.00
635.2170, 50507.00
636.3800, 50370.00
637.5430, 50917.00
638.7050, 50779.00
639.8680, 51066.00
641.0300, 51166.00
642.1930, 51166.00
643.3550, 51172.00
644.5170, 51559.00
645.6790, 51642.00
646.8400, 52072.00
648.0020, 52080.23
649.1630, 51582.00
650.3240, 52045.00
651.4850, 52211.00
652.6460, 52019.00
653.8070, 52691.00
654.9670, 52674.00
656.1280, 52610.00
657.2880, 53006.00
658.4480, 53177.00
659.6080, 53494.00
660.7680, 53588.00
661.9270, 54028.00
663.0870, 54156.00
664.2460, 54735.00
665.4050, 55161.00
666.5640, 55954.00
667.7230, 56553.00
668.8820, 57030.00
670.0400, 57664.00
671.1990, 58862.00
672.3570, 59574.00
673.5150, 61199.00
674.6730, 62794.00
675.8310, 64613.00
676.9880, 67136.00
678.1450, 69971.00
679.3030, 73521.00
680.4600, 78252.00
681.6170, 83859.00
682.7740, 90020.00
683.9300, 99418.00
685.0870, 105244.0
686.2430, 113359.0
687.3990, 120445.0
688.5550, 124669.0
689.7110, 126647.0
690.8670, 126114.0
692.0220, 121536.0
693.1770, 115855.0
694.3330, 107204.0
695.4880, 99569.00
696.6430, 91391.00
697.7970, 84886.00
698.9520, 79180.00
700.1060, 74770.00
701.2600, 71557.00
702.4150, 68707.00
703.5690, 67042.00
704.7220, 64665.00
705.8760, 63237.00
707.0290, 62001.00
708.1830, 61568.00
709.3360, 60423.00
710.4890, 60166.00
711.6420, 59485.00
712.7940, 59198.00
713.9470, 58721.00
715.0990, 58866.00
716.2510, 58441.00
717.4030, 58096.00
718.5550, 57787.00
719.7070, 57574.31
720.8590, 57616.00
722.0100, 57225.00
723.1610, 56786.68
724.3120, 56786.46
725.4630, 56671.00
726.6140, 56446.48
727.7650, 55786.27
728.9150, 55688.91
730.0650, 55366.06
731.2160, 55033.75
732.3660, 55015.56
733.5150, 54419.20
734.6650, 54396.04
735.8150, 54338.00
736.9640, 54331.00
738.1130, 54482.00
739.2620, 54489.00
740.4110, 54506.00
741.5600, 54402.00
742.7080, 54334.00
743.8570, 54644.00
745.0050, 54603.00
746.1530, 54885.00
747.3010, 55325.00
748.4490, 55430.00
749.5960, 55356.00
750.7440, 56069.00
751.8910, 56811.00
753.0380, 56809.00
754.1850, 57252.00
755.3320, 58071.00
756.4790, 58040.00
757.6250, 58415.00
758.7720, 58396.00
759.9180, 58978.00
761.0640, 59038.00
762.2100, 58875.00
763.3550, 58490.00
764.5010, 58118.00
765.6460, 57860.00
766.7920, 57772.00
767.9370, 57169.27
769.0820, 56580.00
770.2260, 56196.00
771.3710, 55799.61
772.5150, 55876.00
773.6600, 55353.00
774.8040, 55327.77
775.9480, 55419.00
777.0910, 55049.00
778.2350, 55181.00
779.3790, 55107.00
780.5220, 54872.00
781.6650, 54900.00
782.8080, 54767.00
783.9510, 55017.00
785.0940, 54881.00
786.2360, 55093.00
787.3790, 55095.00
788.5210, 55430.00
789.6630, 55459.39
790.8050, 55216.00
791.9470, 55490.00
793.0880, 55469.00
794.2300, 55172.00
795.3710, 55519.00
796.5120, 55275.00
797.6530, 55702.00
798.7940, 55536.00
799.9340, 55611.00
801.0750, 55601.00
802.2150, 55336.00
803.3550, 55300.00
804.4950, 55616.00
805.6350, 55574.00
806.7750, 55499.00
807.9140, 55837.00
809.0540, 56131.00
810.1930, 55926.00
811.3320, 56252.00
812.4710, 56197.00
813.6100, 56199.00
814.7480, 56088.00
815.8870, 56065.00
817.0250, 56376.00
818.1630, 56360.00
819.3010, 56155.00
820.4390, 56204.00
821.5760, 56773.00
822.7140, 56694.00
823.8510, 56797.00
824.9880, 56724.00
826.1250, 56826.00
827.2620, 56873.29
828.3990, 57441.00
829.5350, 57053.00
830.6710, 57362.00
831.8080, 57563.00
832.9440, 57382.00
834.0800, 57723.00
835.2150, 57691.00
836.3510, 57779.00
837.4860, 58139.00
838.6210, 57996.00
839.7560, 57934.00
840.8910, 57989.00
842.0260, 57860.00
843.1610, 57866.00
844.2950, 58267.00
845.4290, 57983.00
846.5640, 57817.00
847.6980, 58140.00
848.8310, 58008.00
849.9650, 57775.00
851.0980, 57657.00
852.2320, 57817.00
853.3650, 57781.00
854.4980, 57664.00
855.6310, 57814.00
856.7630, 57525.00
857.8960, 57785.00
859.0280, 57596.00
860.1610, 57703.00
861.2930, 57737.00
862.4240, 57453.00
863.5560, 57600.00
864.6880, 57593.00
865.8190, 57511.00
866.9500, 57284.00
868.0820, 57418.00
869.2120, 57609.00
870.3430, 57213.00
871.4740, 57584.00
872.6040, 57537.00
873.7350, 57977.00
874.8650, 57897.00
875.9950, 57865.00
877.1250, 58078.33
878.2540, 58074.00
879.3840, 58394.00
880.5130, 58402.00
881.6420, 58822.00
882.7710, 58809.00
883.9000, 58817.00
885.0290, 59282.00
886.1570, 59481.00
887.2860, 59655.00
888.4140, 59681.00
889.5420, 59761.00
890.6700, 60018.00
891.7980, 60687.00
892.9250, 60723.00
894.0530, 61125.00
895.1800, 61626.00
896.3070, 61674.00
897.4340, 61875.00
898.5610, 62382.00
899.6870, 62466.00
900.8140, 62942.00
901.9400, 62726.00
903.0660, 63133.00
904.1920, 63263.00
905.3180, 63331.00
906.4440, 63255.00
907.5690, 63563.00
908.6950, 63692.00
909.8200, 63676.00
910.9450, 63727.00
912.0700, 64041.00
913.1940, 63864.00
914.3190, 63677.00
915.4430, 64010.00
916.5680, 64025.00
917.6920, 63954.00
918.8150, 63741.00
919.9390, 63903.00
921.0630, 63628.00
922.1860, 63893.00
923.3100, 63069.00
924.4330, 63213.29
925.5560, 63101.00
926.6780, 63224.00
927.8010, 62744.00
928.9230, 63142.00
930.0460, 62634.00
931.1680, 62305.00
932.2900, 62565.00
933.4120, 62277.00
934.5330, 62398.00
935.6550, 62254.00
936.7760, 62042.00
937.8970, 62106.00
939.0180, 61685.00
940.1390, 61791.00
941.2600, 61694.00
942.3810, 61715.00
943.5010, 61766.00
944.6210, 61663.00
945.7410, 61647.00
946.8610, 61593.00
947.9810, 61576.74
949.1010, 61624.78
950.2200, 61594.00
951.3390, 61708.00
952.4580, 61769.00
953.5770, 61722.00
954.6960, 61925.00
955.8150, 62168.00
956.9330, 62478.00
958.0520, 62642.00
959.1700, 62900.08
960.2880, 62939.00
961.4050, 63215.00
962.5230, 63325.00
963.6410, 63206.00
964.7580, 63605.00
965.8750, 63823.00
966.9920, 63603.00
968.1090, 63906.00
969.2260, 64130.00
970.3420, 64351.00
971.4590, 64801.00
972.5750, 64650.00
973.6910, 65094.00
974.8070, 65047.00
975.9230, 65468.00
977.0380, 65481.00
978.1540, 65487.00
979.2690, 66552.00
980.3840, 66793.00
981.4990, 66868.00
982.6140, 67301.00
983.7280, 67700.00
984.8430, 67822.00
985.9570, 68252.32
987.0710, 68527.00
988.1850, 68810.00
989.2990, 68923.00
990.4130, 69006.00
991.5260, 69689.00
992.6400, 69435.00
993.7530, 69757.00
994.8660, 69867.00
995.9790, 69765.00
997.0910, 69967.00
998.2040, 70045.00
999.3160, 70631.00
1000.429, 70308.00
1001.541, 70474.00
1002.652, 71135.00
1003.764, 70678.61
1004.876, 70972.00
1005.987, 70536.00
1007.098, 70257.00
1008.210, 70682.00
1009.320, 70174.00
1010.431, 70343.00
1011.542, 70656.00
1012.652, 70682.00
1013.763, 71135.00
1014.873, 70686.00
1015.983, 71652.00
1017.093, 71386.00
1018.202, 71955.00
1019.312, 72263.00
1020.421, 71759.00
1021.530, 72483.00
1022.639, 72309.00
1023.748, 72252.00
1024.857, 72514.00
1025.965, 72329.00
1027.074, 72019.00
1028.182, 72111.00
1029.290, 71492.00
1030.398, 70999.00
1031.505, 70616.00
1032.613, 70339.00
1033.720, 70064.00
1034.828, 70060.00
1035.935, 69730.00
1037.042, 69516.00
1038.148, 69269.00
1039.255, 69065.86
1040.361, 69307.00
1041.468, 68900.00
1042.574, 69050.00
1043.680, 69390.00
1044.786, 68856.00
1045.891, 68463.00
1046.997, 68341.00
1048.102, 68424.00
1049.207, 67869.00
1050.312, 68109.00
1051.417, 67714.00
1052.522, 68032.00
1053.626, 67894.00
1054.730, 68098.00
1055.835, 67748.00
1056.939, 68074.00
1058.043, 68178.00
1059.146, 68281.00
1060.250, 68449.00
1061.353, 68453.77
1062.456, 68503.00
1063.559, 68421.00
1064.662, 68431.00
1065.765, 68275.00
1066.868, 68364.00
1067.970, 69051.00
1069.072, 68843.00
1070.174, 69000.55
1071.276, 69072.00
1072.378, 68992.00
1073.480, 69386.00
1074.581, 69577.00
1075.682, 69966.00
1076.784, 70245.00
1077.885, 70540.00
1078.985, 71181.00
1080.086, 71837.00
1081.187, 72284.00
1082.287, 73248.00
1083.387, 73848.00
1084.487, 74529.00
1085.587, 74804.00
1086.687, 75221.00
1087.786, 75188.00
1088.885, 75307.00
1089.985, 74790.00
1091.084, 74561.00
1092.182, 73400.00
1093.281, 73141.00
1094.380, 72524.15
1095.478, 71063.00
1096.576, 71622.00
1097.674, 71325.00
1098.772, 71209.00
1099.870, 70430.00
1100.968, 70199.00
1102.065, 69760.00
1103.162, 70099.00
1104.259, 70057.00
1105.356, 70100.00
1106.453, 70143.00
1107.550, 70123.00
1108.646, 70441.00
1109.743, 70318.00
1110.839, 70377.00
1111.935, 69993.00
1113.030, 70263.00
1114.126, 70193.00
1115.222, 70574.00
1116.317, 71401.00
1117.412, 71438.00
1118.507, 70864.00
1119.602, 69743.00
1120.697, 69287.00
1121.791, 69281.00
1122.885, 69173.00
1123.980, 68585.00
1125.074, 69056.00
1126.168, 68711.00
1127.261, 68907.00
1128.355, 68456.00
1129.448, 68526.00
1130.541, 68447.00
1131.635, 68328.00
1132.727, 68115.00
1133.820, 68173.00
1134.913, 68252.00
1136.005, 68055.00
1137.097, 67906.00
1138.190, 68110.00
1139.281, 67715.00
1140.373, 67833.00
1141.465, 67835.00
1142.556, 67556.00
1143.648, 67373.00
1144.739, 67431.00
1145.830, 67283.00
1146.921, 67432.00
1148.011, 67156.00
1149.102, 67179.46
1150.192, 67408.30
1151.282, 67521.88
1152.372, 67526.41
1153.462, 67095.26
1154.552, 67226.70
1155.641, 67132.72
1156.731, 67029.45
1157.820, 67240.12
1158.909, 66906.00
1159.998, 66809.00
1161.086, 67037.00
1162.175, 66753.00
1163.263, 67053.00
1164.351, 66729.00
1165.440, 66819.00
1166.527, 66885.00
1167.615, 66442.00
1168.703, 66715.00
1169.790, 66360.00
1170.877, 66564.00
1171.965, 66520.00
1173.051, 66447.00
1174.138, 66717.00
1175.225, 66283.00
1176.311, 66636.00
1177.398, 66401.00
1178.484, 66322.00
1179.570, 66276.00
1180.655, 66315.69
1181.741, 66419.07
1182.827, 66564.00
1183.912, 66725.00
1184.997, 66875.00
1186.082, 66975.00
1187.167, 66998.55
1188.251, 67111.00
1189.336, 66918.00
1190.420, 66978.00
1191.505, 66834.00
1192.589, 66698.00
1193.672, 67092.00
1194.756, 66912.00
1195.840, 66523.00
1196.923, 66721.00
1198.006, 66530.00
1199.089, 66500.00
1200.172, 66155.00
1201.255, 66565.00
1202.337, 66767.00
1203.420, 66513.00
1204.502, 66677.00
1205.584, 66531.00
1206.666, 66854.00
1207.748, 67166.00
1208.829, 66715.00
1209.911, 66835.00
1210.992, 66667.00
1212.073, 67393.00
1213.154, 67246.00
1214.235, 67521.00
1215.316, 67108.00
1216.396, 67295.00
1217.476, 67101.00
1218.556, 67227.00
1219.636, 67391.00
1220.716, 67512.00
1221.796, 67193.00
1222.875, 67582.00
1223.955, 67524.00
1225.034, 67890.00
1226.113, 67790.00
1227.192, 68028.00
1228.270, 67497.00
1229.349, 67873.00
1230.427, 67869.00
1231.505, 68145.00
1232.583, 68231.00
1233.661, 67798.00
1234.739, 68229.00
1235.817, 67996.00
1236.894, 67916.00
1237.971, 68124.00
1239.048, 68509.00
1240.125, 68178.00
1241.202, 68185.00
1242.278, 67718.00
1243.355, 68091.00
1244.431, 68341.00
1245.507, 67926.00
1246.583, 68690.00
1247.659, 68206.00
1248.734, 68372.00
1249.810, 68626.00
1250.885, 68570.00
1251.960, 68741.00
1253.035, 68678.00
1254.110, 69027.00
1255.185, 68975.00
1256.259, 68900.00
1257.333, 68794.00
1258.408, 68354.00
1259.482, 69056.00
1260.555, 69150.00
1261.629, 68858.00
1262.702, 69065.88
1263.776, 68920.45
1264.849, 68970.00
1265.922, 68725.00
1266.995, 68989.00
1268.068, 68803.00
1269.140, 68889.00
1270.212, 68864.00
1271.285, 69007.00
1272.357, 68980.00
1273.428, 69048.00
1274.500, 69097.00
1275.572, 69222.00
1276.643, 68891.00
1277.714, 69051.00
1278.785, 68944.00
1279.856, 69173.00
1280.927, 69109.24
1281.998, 68933.00
1283.068, 69091.00
1284.138, 69175.00
1285.208, 69234.00
1286.278, 68982.00
1287.348, 69001.00
1288.418, 69183.00
1289.487, 69347.00
1290.556, 69478.00
1291.625, 69179.00
1292.694, 69695.00
1293.763, 69298.00
1294.832, 69411.00
1295.900, 69612.00
1296.969, 69678.00
1298.037, 69886.00
1299.105, 69410.00
1300.172, 69709.00
1301.240, 69986.00
