##NAMES=Eckermannite
##RRUFFID=R060320
##IDEAL CHEMISTRY=NaNa_2_(Mg_4_Al)Si_8_O_22_(OH)_2_
##LOCALITY=Norra Karr Complex, near Granna, Ostergotsland, Sweden
##OWNER=RRUFF
##SOURCE=Michael Scott
##DESCRIPTION=Parallel aggregate of blue elongated bladed crystals
##STATUS=The identification of this mineral is confirmed by single-crystal X-ray diffraction and chemical analysis.
##URL=rruff.info/R060320
##MEASURED CHEMISTRY=(Na_2.50_K_0.30_[box]_0.20_)_Σ=3_(Mg_2.35_Fe^2+^_1.35_Al_1.20_Mn_0.10_)_Σ=5_Si_8.00_O_22_((OH)_1.18_F_0.82_)_Σ=2_; OH estimated by charge balance, dark material
##PIN_ID=M01673
##ORIENTATION=Laser parallel to (1 0 1). Fiducial mark perpendicular to laser is parallel to b [0 1 0]
103.0850, 22706.00
104.3220, 23415.00
105.5590, 23873.00
106.7950, 24733.00
108.0320, 24713.00
109.2680, 24926.00
110.5040, 25555.00
111.7400, 26205.00
112.9760, 27588.00
114.2120, 29466.00
115.4470, 30118.00
116.6820, 30998.00
117.9170, 31393.00
119.1520, 32214.00
120.3870, 32849.00
121.6220, 32947.00
122.8560, 32547.00
124.0900, 31671.00
125.3240, 30502.00
126.5580, 29377.00
127.7920, 27951.00
129.0260, 26820.00
130.2590, 25581.00
131.4920, 24649.00
132.7250, 23568.00
133.9580, 23250.00
135.1910, 22716.00
136.4230, 22225.00
137.6560, 22169.00
138.8880, 22272.00
140.1200, 22209.00
141.3520, 22113.00
142.5830, 22026.00
143.8150, 22367.00
145.0460, 22418.00
146.2770, 22691.44
147.5080, 23326.00
148.7390, 23453.00
149.9700, 24065.00
151.2000, 24817.00
152.4310, 25234.00
153.6610, 25872.00
154.8910, 26347.00
156.1210, 26512.00
157.3500, 26702.00
158.5800, 26452.00
159.8090, 25970.00
161.0380, 25762.00
162.2670, 25663.00
163.4960, 25666.80
164.7240, 25910.00
165.9530, 26100.00
167.1810, 26450.00
168.4090, 26915.00
169.6370, 27425.00
170.8650, 28249.00
172.0920, 28697.00
173.3200, 28835.00
174.5470, 29743.00
175.7740, 30683.95
177.0010, 31611.95
178.2280, 33088.00
179.4540, 33920.00
180.6810, 34994.00
181.9070, 35943.00
183.1330, 36940.00
184.3590, 37018.00
185.5850, 36806.00
186.8100, 36233.00
188.0350, 35107.00
189.2610, 33611.00
190.4860, 32217.00
191.7110, 30356.00
192.9350, 29310.00
194.1600, 28400.00
195.3840, 28001.00
196.6080, 27598.00
197.8320, 27820.00
199.0560, 28286.00
200.2800, 28861.00
201.5030, 29843.00
202.7270, 30277.00
203.9500, 31149.00
205.1730, 32468.00
206.3950, 32977.00
207.6180, 34027.00
208.8410, 35049.00
210.0630, 35460.00
211.2850, 35694.00
212.5070, 35987.00
213.7290, 35867.00
214.9500, 35419.00
216.1720, 35177.00
217.3930, 34685.00
218.6140, 34285.00
219.8350, 33578.00
221.0560, 33169.00
222.2770, 32963.00
223.4970, 32756.00
224.7170, 32371.00
225.9370, 32538.00
227.1570, 32234.00
228.3770, 32141.00
229.5970, 32002.00
230.8160, 31193.00
232.0350, 30561.00
233.2540, 29787.00
234.4730, 28934.00
235.6920, 28190.00
236.9110, 27373.00
238.1290, 26763.69
239.3470, 26120.00
240.5650, 25563.00
241.7830, 25145.00
243.0010, 24484.00
244.2180, 24445.00
245.4360, 24186.00
246.6530, 24157.00
247.8700, 23858.00
249.0870, 23829.00
250.3040, 23657.00
251.5200, 23428.00
252.7370, 23277.00
253.9530, 23094.00
255.1690, 22932.00
256.3850, 22584.00
257.6000, 22574.00
258.8160, 22173.00
260.0310, 21817.00
261.2460, 21772.00
262.4610, 21331.00
263.6760, 20941.00
264.8910, 21021.00
266.1050, 20658.00
267.3200, 20466.00
268.5340, 20242.00
269.7480, 20046.00
270.9620, 20025.00
272.1750, 19849.71
273.3890, 19861.00
274.6020, 19738.00
275.8150, 19686.00
277.0280, 19817.00
278.2410, 19798.00
279.4540, 19755.00
280.6660, 19512.00
281.8790, 19619.00
283.0910, 19708.00
284.3030, 19649.00
285.5140, 19816.00
286.7260, 19629.00
287.9380, 19753.00
289.1490, 19603.00
290.3600, 19662.00
291.5710, 19609.00
292.7820, 19576.00
293.9920, 19927.00
295.2030, 19834.00
296.4130, 19984.00
297.6230, 19943.00
298.8330, 20212.00
300.0430, 20546.00
301.2520, 20617.00
302.4620, 20892.00
303.6710, 21143.00
304.8800, 21241.00
306.0890, 21648.00
307.2980, 21802.00
308.5070, 22256.00
309.7150, 22464.19
310.9230, 22981.00
312.1310, 22976.00
313.3390, 23365.00
314.5470, 23694.00
315.7550, 23658.00
316.9620, 23618.00
318.1690, 23592.00
319.3760, 23302.00
320.5830, 23130.00
321.7900, 22895.00
322.9960, 22802.00
324.2030, 22621.00
325.4090, 22534.00
326.6150, 22166.00
327.8210, 22042.00
329.0270, 22098.00
330.2320, 22051.00
331.4380, 22173.00
332.6430, 22261.00
333.8480, 22351.00
335.0530, 22420.07
336.2580, 22482.17
337.4620, 22540.00
338.6670, 22554.00
339.8710, 22627.00
341.0750, 22598.00
342.2790, 22783.00
343.4820, 22678.00
344.6860, 22656.47
345.8890, 22649.00
347.0920, 22495.00
348.2960, 22510.00
349.4980, 22450.00
350.7010, 22208.00
351.9040, 22542.00
353.1060, 22486.00
354.3080, 22313.00
355.5100, 22313.00
356.7120, 22339.00
357.9140, 22368.00
359.1150, 22518.00
360.3170, 22315.00
361.5180, 22543.00
362.7190, 22227.00
363.9200, 22434.00
365.1200, 22520.00
366.3210, 22449.00
367.5210, 22332.00
368.7210, 22353.00
369.9210, 22323.00
371.1210, 22482.00
372.3210, 22444.00
373.5200, 22486.00
374.7200, 22465.71
375.9190, 22408.00
377.1180, 22350.00
378.3170, 22236.00
379.5150, 22157.00
380.7140, 22055.00
381.9120, 22287.00
383.1110, 22115.00
384.3090, 22228.00
385.5060, 22085.00
386.7040, 22185.00
387.9020, 22377.00
389.0990, 22347.00
390.2960, 22583.00
391.4930, 22679.00
392.6900, 22664.00
393.8860, 22949.00
395.0830, 22863.00
396.2790, 22888.00
397.4750, 22876.00
398.6710, 23056.00
399.8670, 23019.00
401.0630, 22855.00
402.2580, 23060.00
403.4540, 23014.00
404.6490, 23412.00
405.8440, 23458.00
407.0390, 23683.00
408.2330, 23847.00
409.4280, 24049.00
410.6220, 24487.00
411.8160, 24765.00
413.0100, 25081.00
414.2040, 25558.00
415.3980, 25832.00
416.5910, 26254.00
417.7850, 26544.00
418.9780, 26709.00
420.1710, 26765.00
421.3640, 26505.00
422.5560, 26215.00
423.7490, 25551.00
424.9410, 24598.00
426.1330, 23702.00
427.3250, 23047.00
428.5170, 22256.83
429.7090, 21541.00
430.9000, 20951.00
432.0910, 20458.00
433.2820, 19887.00
434.4730, 19663.01
435.6640, 19383.00
436.8550, 19369.00
438.0450, 19088.00
439.2360, 19102.00
440.4260, 19038.00
441.6160, 18805.00
442.8060, 18991.00
443.9950, 18914.00
445.1850, 18921.00
446.3740, 18772.00
447.5630, 19023.00
448.7520, 18757.00
449.9410, 18877.00
451.1300, 18887.00
452.3180, 18815.00
453.5060, 19075.00
454.6950, 18750.00
455.8830, 18860.00
457.0700, 18706.00
458.2580, 18818.00
459.4450, 18855.00
460.6330, 18792.00
461.8200, 18790.00
463.0070, 18761.00
464.1940, 18764.00
465.3800, 18653.00
466.5670, 18854.00
467.7530, 18758.00
468.9390, 18746.00
470.1250, 18906.00
471.3110, 18683.00
472.4970, 18517.00
473.6820, 18766.00
474.8680, 18722.00
476.0530, 18957.00
477.2380, 19057.00
478.4230, 18800.00
479.6070, 19000.00
480.7920, 18944.00
481.9760, 18959.00
483.1600, 18983.00
484.3440, 18957.92
485.5280, 18985.73
486.7120, 18976.00
487.8950, 19053.00
489.0780, 19121.00
490.2620, 19247.00
491.4450, 19321.00
492.6270, 19492.00
493.8100, 19235.00
494.9920, 19357.00
496.1750, 19558.00
497.3570, 19358.00
498.5390, 19645.00
499.7210, 19725.00
500.9020, 19913.00
502.0840, 19923.00
503.2650, 20168.00
504.4460, 20321.00
505.6270, 20452.00
506.8080, 20529.00
507.9890, 20593.00
509.1690, 20747.00
510.3500, 21037.00
511.5300, 21055.00
512.7100, 21361.00
513.8900, 21474.00
515.0690, 21632.88
516.2490, 21807.00
517.4280, 21890.00
518.6070, 22029.00
519.7860, 22000.00
520.9650, 22155.00
522.1440, 22456.00
523.3220, 22498.00
524.5010, 22429.00
525.6790, 22732.00
526.8570, 22787.00
528.0350, 23060.00
529.2130, 23154.00
530.3900, 23297.00
531.5670, 23224.00
532.7450, 23299.00
533.9220, 23655.00
535.0980, 23803.00
536.2750, 24007.00
537.4520, 24260.00
538.6280, 24516.06
539.8040, 24740.00
540.9800, 25118.00
542.1560, 25543.00
543.3320, 25861.00
544.5070, 26333.01
545.6830, 26782.16
546.8580, 27230.00
548.0330, 27652.00
549.2080, 28074.00
550.3830, 28280.00
551.5570, 28588.00
552.7310, 28653.00
553.9060, 28703.00
555.0800, 28564.00
556.2540, 28508.00
557.4270, 28355.00
558.6010, 27984.00
559.7740, 27355.00
560.9470, 27110.00
562.1210, 26461.26
563.2930, 26318.00
564.4660, 25391.00
565.6390, 24786.00
566.8110, 24507.00
567.9830, 23677.00
569.1550, 23386.00
570.3270, 22828.00
571.4990, 22558.32
572.6710, 22467.00
573.8420, 22174.00
575.0130, 21894.00
576.1840, 21668.00
577.3550, 21489.00
578.5260, 21308.00
579.6970, 21185.30
580.8670, 21074.51
582.0370, 21004.00
583.2070, 20902.00
584.3770, 20854.00
585.5470, 20748.00
586.7170, 20744.00
587.8860, 20700.00
589.0550, 20450.00
590.2240, 20431.00
591.3930, 20504.00
592.5620, 20542.00
593.7310, 20361.00
594.8990, 20366.00
596.0670, 20246.00
597.2350, 20062.00
598.4030, 20292.00
599.5710, 20195.00
600.7390, 20266.00
601.9060, 20076.00
603.0740, 20278.00
604.2410, 20218.00
605.4080, 20105.00
606.5740, 20113.00
607.7410, 20089.00
608.9080, 20070.00
610.0740, 19956.00
611.2400, 19890.00
612.4060, 19923.00
613.5720, 20042.00
614.7370, 19989.00
615.9030, 19983.00
617.0680, 19917.00
618.2330, 19732.00
619.3980, 19684.00
620.5630, 19664.65
621.7280, 19938.00
622.8920, 19772.00
624.0570, 19792.00
625.2210, 20022.00
626.3850, 19902.00
627.5490, 19907.00
628.7120, 19924.00
629.8760, 20175.00
631.0390, 19981.00
632.2020, 20256.00
633.3650, 20111.00
634.5280, 20052.00
635.6910, 20232.00
636.8530, 20708.00
638.0160, 20492.00
639.1780, 20411.00
640.3400, 20618.00
641.5020, 20419.00
642.6640, 20487.00
643.8250, 20490.00
644.9870, 20666.00
646.1480, 20633.80
647.3090, 20694.34
648.4700, 20715.00
649.6300, 20768.00
650.7910, 20962.00
651.9510, 21057.00
653.1120, 21040.00
654.2720, 21251.00
655.4320, 21379.00
656.5910, 21338.00
657.7510, 21556.00
658.9100, 21662.00
660.0690, 21820.00
661.2290, 21999.00
662.3880, 22228.00
663.5460, 22301.00
664.7050, 22621.00
665.8630, 22980.00
667.0220, 23051.00
668.1800, 23723.00
669.3380, 24589.00
670.4950, 24537.00
671.6530, 24985.00
672.8100, 26159.00
673.9680, 27176.00
675.1250, 28455.00
676.2820, 29843.00
677.4390, 31469.00
678.5950, 33688.00
679.7520, 36548.00
680.9080, 39327.00
682.0640, 42810.00
683.2200, 46226.00
684.3760, 49936.89
685.5320, 54512.00
686.6870, 56542.00
687.8420, 57964.00
688.9980, 58282.00
690.1530, 57307.00
691.3070, 54111.00
692.4620, 50354.00
693.6170, 46085.00
694.7710, 42324.00
695.9250, 38432.00
697.0790, 35480.00
698.2330, 33013.35
699.3870, 30984.85
700.5400, 29349.00
701.6940, 28425.00
702.8470, 27324.00
704.0000, 26665.00
705.1530, 26124.00
706.3050, 25729.00
707.4580, 25205.00
708.6100, 25038.00
709.7630, 24803.00
710.9150, 24533.00
712.0660, 24160.00
713.2180, 24049.00
714.3700, 24111.00
715.5210, 24226.00
716.6720, 24145.00
717.8240, 24285.00
718.9740, 24231.00
720.1250, 24030.15
721.2760, 23907.87
722.4260, 23617.00
723.5770, 23285.00
724.7270, 23223.00
725.8770, 22664.00
727.0260, 22560.00
728.1760, 22358.00
729.3250, 22442.00
730.4750, 22242.00
731.6240, 22113.00
732.7730, 22113.00
733.9220, 21943.00
735.0700, 21911.00
736.2190, 21825.52
737.3670, 21817.87
738.5150, 21812.48
739.6630, 21810.23
740.8110, 21764.97
741.9590, 21817.75
743.1060, 21857.18
744.2540, 21913.88
745.4010, 22033.40
746.5480, 22089.71
747.6950, 22245.57
748.8410, 22508.00
749.9880, 22866.00
751.1340, 23176.00
752.2800, 23446.00
753.4260, 23527.00
754.5720, 23859.00
755.7180, 23953.00
756.8640, 24179.00
758.0090, 24327.00
759.1540, 24302.29
760.2990, 24378.00
761.4440, 24196.00
762.5890, 23976.00
763.7340, 23857.00
764.8780, 23566.00
766.0220, 23281.00
767.1660, 23097.23
768.3100, 22781.00
769.4540, 22649.00
770.5980, 22424.00
771.7410, 22205.00
772.8840, 22071.00
774.0280, 22003.00
775.1700, 22029.00
776.3130, 21840.00
777.4560, 21688.00
778.5980, 21810.00
779.7410, 21687.00
780.8830, 21764.00
782.0250, 21790.00
783.1670, 21985.00
784.3080, 21964.00
785.4500, 22094.00
786.5910, 21943.00
787.7320, 22267.00
788.8730, 22148.00
790.0140, 22021.00
791.1550, 21994.00
792.2950, 22164.00
793.4360, 22186.00
794.5760, 22220.00
795.7160, 22119.00
796.8560, 22055.00
797.9960, 22185.00
799.1350, 22234.00
800.2750, 22215.00
801.4140, 22382.00
802.5530, 22175.00
803.6920, 22310.00
804.8310, 22278.00
805.9690, 22342.00
807.1080, 22414.44
808.2460, 22462.00
809.3840, 22560.00
810.5220, 22604.00
811.6600, 22706.00
812.7970, 22781.00
813.9350, 22652.00
815.0720, 22725.00
816.2090, 22593.00
817.3460, 22716.00
818.4830, 22652.00
819.6200, 22790.00
820.7560, 22788.88
821.8930, 22753.00
823.0290, 22801.00
824.1650, 22802.00
825.3010, 22750.00
826.4360, 22910.00
827.5720, 22961.00
828.7070, 23222.00
829.8420, 23125.00
830.9770, 23297.00
832.1120, 23189.00
833.2470, 23445.00
834.3820, 23114.00
835.5160, 23460.00
836.6500, 23420.00
837.7840, 23242.00
838.9180, 23405.00
840.0520, 23247.00
841.1860, 23661.00
842.3190, 23550.00
843.4520, 23494.00
844.5850, 23593.00
845.7180, 23494.00
846.8510, 23597.00
847.9840, 23636.00
849.1160, 23705.09
850.2490, 23824.00
851.3810, 23931.00
852.5130, 24096.00
853.6450, 24233.00
854.7760, 24263.00
855.9080, 24193.00
857.0390, 24374.00
858.1700, 24254.00
859.3010, 24276.00
860.4320, 24257.00
861.5630, 24226.00
862.6930, 24353.00
863.8240, 24344.00
864.9540, 24308.00
866.0840, 24124.00
867.2140, 24077.00
868.3440, 24217.00
869.4730, 24157.00
870.6030, 24248.00
871.7320, 24289.00
872.8610, 24410.00
873.9900, 24235.00
875.1190, 24423.00
876.2470, 24207.00
877.3760, 24492.00
878.5040, 24507.00
879.6320, 24721.00
880.7600, 24503.00
881.8880, 24750.00
883.0150, 24833.00
884.1430, 24891.03
885.2700, 25146.00
886.3970, 25187.00
887.5240, 25508.00
888.6510, 25756.00
889.7780, 25919.00
890.9040, 26046.00
892.0310, 26243.00
893.1570, 26304.00
894.2830, 26777.00
895.4090, 26980.00
896.5350, 27161.00
897.6600, 27579.00
898.7860, 27770.00
899.9110, 28075.00
901.0360, 28372.00
902.1610, 28475.00
903.2860, 29010.00
904.4100, 29155.00
905.5350, 29530.00
906.6590, 29864.00
907.7830, 30158.00
908.9070, 30482.00
910.0310, 30780.78
911.1540, 31113.00
912.2780, 31354.00
913.4010, 31584.21
914.5240, 31695.00
915.6470, 31948.00
916.7700, 32098.00
917.8930, 32221.22
919.0150, 32211.00
920.1380, 32222.00
921.2600, 32296.00
922.3820, 31965.00
923.5040, 31529.00
924.6260, 31371.00
925.7470, 31187.00
926.8690, 30986.00
927.9900, 30621.00
929.1110, 30246.00
930.2320, 29903.00
931.3530, 29413.00
932.4730, 29408.00
933.5940, 28981.00
934.7140, 28970.00
935.8340, 28915.00
936.9540, 28529.00
938.0740, 28465.00
939.1930, 28232.00
940.3130, 28169.00
941.4320, 28043.00
942.5510, 27996.50
943.6700, 28104.00
944.7890, 27906.00
945.9080, 27975.00
947.0260, 27790.00
948.1450, 27851.20
949.2630, 27971.00
950.3810, 27949.00
951.4990, 28066.00
952.6170, 28093.00
953.7340, 28354.58
954.8520, 28687.00
955.9690, 28911.00
957.0860, 29415.00
958.2030, 29648.00
959.3200, 30043.00
960.4360, 30228.00
961.5530, 30603.00
962.6690, 31143.00
963.7850, 31179.00
964.9010, 31573.00
966.0170, 32142.00
967.1330, 32303.00
968.2480, 32877.00
969.3630, 33348.00
970.4790, 33360.00
971.5940, 33909.00
972.7080, 34144.00
973.8230, 34674.00
974.9380, 35015.00
976.0520, 35397.00
977.1660, 36175.00
978.2800, 36712.00
979.3940, 37409.00
980.5080, 38434.00
981.6220, 39064.00
982.7350, 39747.00
983.8480, 40642.00
984.9610, 41038.00
986.0740, 41411.00
987.1870, 42185.00
988.3000, 42620.00
989.4120, 42678.00
990.5250, 42462.00
991.6370, 42937.00
992.7490, 42839.00
993.8610, 42850.00
994.9720, 42382.00
996.0840, 41994.00
997.1950, 41776.00
998.3060, 41381.00
999.4170, 40980.00
1000.528, 40456.29
1001.639, 40139.31
1002.750, 39806.02
1003.860, 39457.65
1004.970, 39047.73
1006.080, 38717.26
1007.190, 38354.95
1008.300, 38444.00
1009.410, 37988.00
1010.519, 38057.00
1011.628, 37738.00
1012.738, 37826.00
1013.846, 37603.00
1014.955, 37418.00
1016.064, 37136.00
1017.172, 36648.00
1018.281, 36357.00
1019.389, 35855.00
1020.497, 35449.00
1021.605, 35016.00
1022.713, 34776.00
1023.820, 34320.00
1024.928, 34071.00
1026.035, 33713.21
1027.142, 33333.00
1028.249, 33022.00
1029.356, 32544.00
1030.462, 32166.00
1031.569, 31953.00
1032.675, 31673.00
1033.781, 31385.17
1034.887, 31238.00
1035.993, 30945.00
1037.098, 30972.05
1038.204, 30978.00
1039.309, 30837.00
1040.415, 30869.00
1041.520, 30687.00
1042.624, 30765.00
1043.729, 30450.00
1044.834, 30577.00
1045.938, 30696.00
1047.042, 30585.00
1048.146, 30666.00
1049.250, 30244.00
1050.354, 30506.00
1051.458, 30378.00
1052.561, 30330.00
1053.664, 30633.00
1054.767, 30645.00
1055.870, 30583.00
1056.973, 30519.00
1058.076, 30605.00
1059.178, 30706.00
1060.281, 30811.00
1061.383, 30828.00
1062.485, 30740.00
1063.587, 30819.00
1064.688, 30822.09
1065.790, 30872.00
1066.891, 30952.00
1067.993, 31246.00
1069.094, 31433.00
1070.195, 31417.00
1071.295, 31742.00
1072.396, 31841.00
1073.496, 32198.00
1074.597, 32559.00
1075.697, 32906.00
1076.797, 33234.00
1077.897, 33803.00
1078.996, 34230.00
1080.096, 35250.00
1081.195, 35710.00
1082.294, 36303.00
1083.393, 36985.00
1084.492, 37408.00
1085.591, 37829.00
1086.689, 37958.00
1087.788, 37730.00
1088.886, 37259.00
1089.984, 36482.00
1091.082, 36104.00
1092.180, 35184.00
1093.277, 34584.00
1094.375, 34009.00
1095.472, 33550.00
1096.569, 33163.00
1097.666, 32618.00
1098.763, 32430.00
1099.860, 32039.00
1100.956, 32144.00
1102.053, 32024.00
1103.149, 31713.00
1104.245, 31885.00
1105.341, 31572.00
1106.436, 31663.00
1107.532, 31562.00
1108.627, 31616.00
1109.723, 31635.00
1110.818, 31517.00
1111.913, 31679.00
1113.007, 31423.00
1114.102, 31476.00
1115.197, 31491.00
1116.291, 31463.00
1117.385, 31422.01
1118.479, 31144.00
1119.573, 31291.00
1120.666, 31129.00
1121.760, 31104.00
1122.853, 31112.00
1123.947, 30887.00
1125.040, 31011.00
1126.132, 30695.00
1127.225, 30924.00
1128.318, 30931.00
1129.410, 30697.00
1130.502, 30660.00
1131.595, 30680.00
1132.687, 30403.00
1133.778, 30565.00
1134.870, 30599.00
1135.961, 30338.00
1137.053, 30375.00
1138.144, 30288.00
1139.235, 30278.00
1140.326, 30255.00
1141.416, 30268.00
1142.507, 30303.00
1143.597, 30210.00
1144.688, 30042.00
1145.778, 30119.00
1146.868, 30169.00
1147.957, 30322.00
1149.047, 30098.00
1150.136, 30102.00
1151.226, 30194.00
1152.315, 30022.00
1153.404, 29832.00
1154.493, 30089.00
1155.581, 30106.00
1156.670, 30080.19
1157.758, 30192.00
1158.846, 30000.00
1159.934, 30032.00
1161.022, 29829.00
1162.110, 29865.00
1163.198, 29797.00
1164.285, 29842.00
1165.372, 29752.00
1166.459, 29723.00
1167.546, 29642.00
1168.633, 29626.00
1169.720, 29634.00
1170.806, 29654.45
1171.892, 29502.00
1172.979, 29811.00
1174.065, 29330.00
1175.150, 29460.00
1176.236, 29716.00
1177.322, 29560.00
1178.407, 29464.00
1179.492, 29646.00
1180.577, 29655.00
1181.662, 29660.00
1182.747, 29733.00
1183.832, 29560.00
1184.916, 29505.00
1186.000, 29566.00
1187.084, 29716.00
1188.168, 29595.00
1189.252, 29818.00
1190.336, 29685.00
1191.419, 29674.00
1192.503, 29654.00
1193.586, 29534.00
1194.669, 29703.00
1195.752, 29734.00
1196.835, 29781.00
1197.917, 29772.00
1199.000, 30102.00
1200.082, 29544.00
1201.164, 29501.00
1202.246, 29754.00
1203.328, 29923.00
1204.409, 29928.00
1205.491, 30024.00
1206.572, 29898.00
1207.653, 29786.00
1208.734, 29921.00
1209.815, 29866.79
1210.896, 29896.00
1211.976, 30003.00
1213.057, 29885.00
1214.137, 30020.00
1215.217, 30009.00
1216.297, 29879.00
1217.377, 30012.00
1218.456, 30102.00
1219.536, 30104.00
1220.615, 30045.00
1221.694, 30041.00
1222.773, 30130.00
1223.852, 30372.00
1224.931, 30366.00
1226.009, 30371.00
1227.088, 30604.00
1228.166, 30511.16
1229.244, 30495.00
1230.322, 30548.00
1231.400, 30355.00
1232.477, 30511.00
1233.555, 30527.00
1234.632, 30615.00
1235.709, 30671.10
1236.786, 30790.00
1237.863, 30730.96
1238.939, 30774.93
1240.016, 30757.00
1241.092, 30815.00
1242.168, 30845.00
1243.245, 30900.00
1244.320, 30880.00
1245.396, 30866.21
1246.472, 30925.00
1247.547, 30839.00
1248.622, 30790.00
1249.697, 30897.00
1250.772, 30838.00
1251.847, 30952.00
1252.922, 30987.00
1253.996, 31079.00
1255.071, 31000.00
1256.145, 31234.00
1257.219, 31171.00
1258.293, 31426.00
1259.366, 31256.00
1260.440, 31220.00
1261.513, 31306.00
1262.587, 31233.00
1263.660, 31240.00
1264.733, 31324.00
1265.805, 31345.00
1266.878, 31343.00
1267.951, 31335.00
1269.023, 31288.00
1270.095, 31181.00
1271.167, 31536.00
1272.239, 31297.00
