##NAMES=Eckermannite
##RRUFFID=R060320
##IDEAL CHEMISTRY=NaNa_2_(Mg_4_Al)Si_8_O_22_(OH)_2_
##LOCALITY=Norra Karr Complex, near Granna, Ostergotsland, Sweden
##OWNER=RRUFF
##SOURCE=Michael Scott
##DESCRIPTION=Parallel aggregate of blue elongated bladed crystals
##STATUS=The identification of this mineral is confirmed by single-crystal X-ray diffraction and chemical analysis.
##URL=rruff.info/R060320
##MEASURED CHEMISTRY=(Na_2.50_K_0.30_[box]_0.20_)_Σ=3_(Mg_2.35_Fe^2+^_1.35_Al_1.20_Mn_0.10_)_Σ=5_Si_8.00_O_22_((OH)_1.18_F_0.82_)_Σ=2_; OH estimated by charge balance, dark material
##PIN_ID=M01619
##ORIENTATION=Laser parallel to b* (0 1 0). Fiducial mark perpendicular to laser is parallel to -c [0 0 -1]
136.6840, 40912.00
137.9110, 40779.00
139.1380, 40350.00
140.3650, 40298.00
141.5920, 40523.00
142.8190, 41352.00
144.0460, 41430.00
145.2720, 41348.00
146.4990, 42641.00
147.7250, 43104.00
148.9510, 44727.00
150.1770, 46699.00
151.4020, 48761.00
152.6280, 51170.00
153.8530, 53331.00
155.0790, 56037.00
156.3040, 58412.00
157.5290, 60320.00
158.7530, 60557.00
159.9780, 61143.00
161.2030, 59335.16
162.4270, 59378.00
163.6510, 54679.00
164.8750, 51893.00
166.0990, 50253.00
167.3230, 49200.00
168.5470, 49094.00
169.7700, 49012.59
170.9930, 49225.00
172.2160, 50625.00
173.4390, 51757.00
174.6620, 53545.00
175.8850, 55607.00
177.1080, 57693.00
178.3300, 59766.00
179.5520, 61764.00
180.7740, 64171.00
181.9960, 66218.00
183.2180, 67516.00
184.4400, 68842.00
185.6610, 68624.00
186.8820, 68105.00
188.1040, 67757.00
189.3250, 65932.00
190.5450, 64571.00
191.7660, 63052.00
192.9870, 61438.00
194.2070, 60574.30
195.4270, 59701.00
196.6480, 58944.00
197.8680, 58472.00
199.0870, 57919.00
200.3070, 57743.00
201.5270, 57599.00
202.7460, 57725.00
203.9650, 58366.00
205.1840, 60212.00
206.4030, 61167.00
207.6220, 62900.00
208.8400, 64259.00
210.0590, 66455.00
211.2770, 68526.00
212.4950, 70892.00
213.7130, 73132.00
214.9310, 74781.00
216.1490, 75615.00
217.3660, 76411.00
218.5840, 77033.00
219.8010, 77079.00
221.0180, 77334.00
222.2350, 78005.00
223.4520, 78983.00
224.6680, 79618.00
225.8850, 80760.00
227.1010, 82409.00
228.3170, 83834.00
229.5330, 84666.00
230.7490, 84633.00
231.9650, 83958.00
233.1810, 82607.00
234.3960, 80120.00
235.6110, 76971.00
236.8260, 73812.00
238.0410, 71153.30
239.2560, 68347.00
240.4710, 65777.00
241.6850, 62924.00
242.9000, 60802.00
244.1140, 58417.00
245.3280, 57270.00
246.5420, 55715.00
247.7550, 54728.00
248.9690, 54004.00
250.1820, 53017.00
251.3960, 52483.00
252.6090, 51585.00
253.8220, 50907.00
255.0350, 50414.00
256.2470, 49647.00
257.4600, 49048.00
258.6720, 48921.00
259.8840, 48329.00
261.0960, 47878.00
262.3080, 46527.00
263.5200, 45482.00
264.7320, 44406.00
265.9430, 43505.00
267.1540, 42754.00
268.3650, 41934.00
269.5760, 41275.00
270.7870, 40733.00
271.9980, 39778.00
273.2080, 39370.00
274.4190, 38891.00
275.6290, 38851.00
276.8390, 38314.00
278.0490, 38076.00
279.2590, 37995.00
280.4680, 38224.00
281.6780, 37968.00
282.8870, 38090.00
284.0960, 38214.00
285.3050, 38318.00
286.5140, 38595.00
287.7230, 38611.00
288.9310, 38655.00
290.1400, 38439.00
291.3480, 38457.00
292.5560, 37963.00
293.7640, 38237.00
294.9720, 38038.00
296.1790, 37887.00
297.3870, 38177.00
298.5940, 38376.00
299.8010, 39152.00
301.0080, 39663.00
302.2150, 40320.00
303.4220, 40660.00
304.6290, 41855.00
305.8350, 43106.00
307.0410, 44329.00
308.2470, 45913.00
309.4530, 47893.00
310.6590, 49718.00
311.8650, 51485.60
313.0700, 53501.00
314.2750, 54983.00
315.4810, 56216.00
316.6860, 57630.00
317.8900, 58636.00
319.0950, 59245.00
320.3000, 57756.00
321.5040, 57147.00
322.7080, 55567.00
323.9120, 54445.00
325.1160, 52751.00
326.3200, 51551.00
327.5240, 49567.00
328.7270, 48123.00
329.9310, 46599.00
331.1340, 45164.00
332.3370, 44221.00
333.5400, 43675.00
334.7420, 43093.00
335.9450, 42745.00
337.1470, 42222.00
338.3500, 42035.00
339.5520, 42631.00
340.7540, 42421.00
341.9550, 43044.00
343.1570, 43643.00
344.3590, 43929.00
345.5600, 44429.00
346.7610, 44976.00
347.9620, 45106.00
349.1630, 44680.00
350.3640, 44913.00
351.5640, 44523.00
352.7650, 44449.00
353.9650, 44577.00
355.1650, 44097.00
356.3650, 43742.00
357.5650, 43934.00
358.7640, 44114.00
359.9640, 44574.00
361.1630, 44922.00
362.3620, 45452.00
363.5610, 46156.00
364.7600, 46645.00
365.9590, 47228.00
367.1580, 47733.25
368.3560, 48165.00
369.5540, 48633.00
370.7520, 48917.00
371.9500, 49263.00
373.1480, 48817.00
374.3460, 48583.00
375.5430, 48358.00
376.7410, 47363.00
377.9380, 46965.00
379.1350, 46735.00
380.3320, 45915.00
381.5280, 45766.00
382.7250, 45725.00
383.9210, 45601.00
385.1180, 45882.82
386.3140, 45932.00
387.5100, 46692.00
388.7050, 47083.00
389.9010, 47821.00
391.0960, 48052.00
392.2920, 48477.00
393.4870, 48489.00
394.6820, 48302.00
395.8770, 47952.00
397.0720, 47710.00
398.2660, 47238.00
399.4610, 46763.00
400.6550, 45919.00
401.8490, 45559.05
403.0430, 45224.00
404.2370, 44542.00
405.4300, 44500.00
406.6240, 43919.00
407.8170, 43897.00
409.0100, 43789.00
410.2030, 43980.00
411.3960, 44298.39
412.5890, 44725.00
413.7810, 45314.00
414.9740, 46116.00
416.1660, 46882.00
417.3580, 47925.00
418.5500, 48768.00
419.7420, 49657.00
420.9330, 50532.00
422.1250, 50704.00
423.3160, 50065.00
424.5070, 49360.00
425.6980, 47782.00
426.8890, 45781.00
428.0800, 43203.00
429.2700, 40821.00
430.4610, 38555.00
431.6510, 36119.00
432.8410, 34579.00
434.0310, 32974.00
435.2210, 31938.00
436.4100, 30966.00
437.6000, 29972.00
438.7890, 29422.00
439.9780, 28705.00
441.1670, 28596.00
442.3560, 28080.00
443.5450, 27914.00
444.7330, 27983.00
445.9210, 27927.00
447.1100, 27858.00
448.2980, 27860.00
449.4860, 28018.00
450.6730, 28081.00
451.8610, 28327.00
453.0480, 28378.00
454.2360, 28474.00
455.4230, 28668.00
456.6100, 28554.00
457.7970, 28582.00
458.9830, 28634.00
460.1700, 28564.00
461.3560, 28257.00
462.5420, 28317.00
463.7280, 28517.00
464.9140, 28775.00
466.1000, 28883.00
467.2850, 29250.00
468.4710, 29361.00
469.6560, 29811.00
470.8410, 30416.00
472.0260, 30748.00
473.2110, 31483.00
474.3960, 32048.00
475.5800, 32730.00
476.7640, 33363.00
477.9490, 33823.00
479.1330, 34410.00
480.3160, 34787.00
481.5000, 35194.00
482.6840, 35596.24
483.8670, 35513.00
485.0500, 36153.00
486.2330, 36471.00
487.4160, 36455.00
488.5990, 36355.00
489.7820, 35950.00
490.9640, 35757.00
492.1470, 35362.00
493.3290, 34843.00
494.5110, 34418.00
495.6930, 33982.00
496.8740, 34066.00
498.0560, 34203.00
499.2370, 34639.00
500.4180, 34290.00
501.5990, 34896.00
502.7800, 35049.98
503.9610, 35805.00
505.1420, 35932.00
506.3220, 36328.00
507.5020, 37340.00
508.6820, 38076.00
509.8620, 39218.00
511.0420, 40046.00
512.2220, 41102.00
513.4010, 41812.00
514.5810, 42225.00
515.7600, 42196.00
516.9390, 41558.00
518.1180, 40836.00
519.2970, 39637.00
520.4750, 38634.00
521.6540, 37831.00
522.8320, 37018.00
524.0100, 36572.00
525.1880, 36296.00
526.3660, 36322.00
527.5430, 36273.00
528.7210, 36522.00
529.8980, 36885.00
531.0750, 37201.00
532.2520, 37917.00
533.4290, 38836.00
534.6060, 39623.00
535.7820, 40674.00
536.9590, 42228.00
538.1350, 43533.00
539.3110, 45772.00
540.4870, 47704.00
541.6630, 49817.00
542.8380, 52170.00
544.0140, 54567.00
545.1890, 56709.00
546.3640, 58749.00
547.5390, 60299.00
548.7140, 61942.00
549.8890, 63015.48
551.0630, 63762.65
552.2380, 64302.00
553.4120, 64403.00
554.5860, 63948.00
555.7600, 63618.00
556.9330, 62304.00
558.1070, 61867.00
559.2800, 59982.00
560.4540, 58802.00
561.6270, 56650.00
562.8000, 54952.00
563.9730, 52748.00
565.1450, 50515.00
566.3180, 48554.00
567.4900, 46578.00
568.6620, 44336.00
569.8340, 42897.00
571.0060, 41291.00
572.1780, 39543.00
573.3490, 38577.00
574.5210, 37160.00
575.6920, 36427.00
576.8630, 35377.00
578.0340, 34516.00
579.2050, 33824.00
580.3750, 33449.00
581.5460, 32918.00
582.7160, 32210.00
583.8860, 31892.00
585.0560, 31487.00
586.2260, 31135.00
587.3960, 30547.00
588.5650, 30347.00
589.7340, 29852.00
590.9040, 29722.00
592.0730, 29229.00
593.2410, 28949.00
594.4100, 28619.00
595.5790, 28049.00
596.7470, 28014.00
597.9150, 27638.00
599.0840, 27226.00
600.2510, 26823.00
601.4190, 26700.00
602.5870, 26225.00
603.7540, 26231.00
604.9220, 25612.00
606.0890, 25428.00
607.2560, 25290.00
608.4230, 25029.00
609.5890, 24732.00
610.7560, 24516.02
611.9220, 24170.00
613.0880, 24019.00
614.2540, 23857.00
615.4200, 23686.00
616.5860, 23886.00
617.7520, 23514.00
618.9170, 23540.00
620.0820, 23244.00
621.2480, 23475.00
622.4120, 23301.00
623.5770, 23609.00
624.7420, 23482.00
625.9060, 23488.00
627.0710, 23521.00
628.2350, 23575.00
629.3990, 23543.00
630.5630, 23742.00
631.7260, 23868.00
632.8900, 23687.00
634.0530, 23621.00
635.2170, 23979.00
636.3800, 23661.00
637.5430, 24047.00
638.7050, 24197.00
639.8680, 24547.00
641.0300, 24470.00
642.1930, 24607.00
643.3550, 24640.00
644.5170, 24810.00
645.6790, 25088.00
646.8400, 25346.00
648.0020, 25575.00
649.1630, 25838.00
650.3240, 26024.32
651.4850, 25996.00
652.6460, 26457.00
653.8070, 26448.71
654.9670, 26788.00
656.1280, 26873.00
657.2880, 27062.00
658.4480, 27515.00
659.6080, 27635.00
660.7680, 27955.00
661.9270, 28431.00
663.0870, 29024.00
664.2460, 29373.00
665.4050, 29924.00
666.5640, 30655.00
667.7230, 31608.00
668.8820, 32346.00
670.0400, 33812.00
671.1990, 35013.00
672.3570, 36566.00
673.5150, 38514.00
674.6730, 40979.00
675.8310, 43932.00
676.9880, 47187.00
678.1450, 51541.00
679.3030, 56964.00
680.4600, 63051.00
681.6170, 70583.00
682.7740, 79203.00
683.9300, 89665.00
685.0870, 100473.0
686.2430, 112188.0
687.3990, 123291.0
688.5550, 131556.0
689.7110, 136845.0
690.8670, 136687.0
692.0220, 131583.0
693.1770, 122774.0
694.3330, 110547.0
695.4880, 98620.00
696.6430, 85345.00
697.7970, 74929.00
698.9520, 65547.00
700.1060, 58312.00
701.2600, 52696.00
702.4150, 48453.00
703.5690, 44698.00
704.7220, 42186.00
705.8760, 39905.00
707.0290, 38100.00
708.1830, 37036.00
709.3360, 36114.00
710.4890, 35211.00
711.6420, 34653.00
712.7940, 34216.00
713.9470, 33945.00
715.0990, 33487.00
716.2510, 33433.00
717.4030, 33355.00
718.5550, 33106.00
719.7070, 32767.00
720.8590, 32708.00
722.0100, 32409.00
723.1610, 31786.00
724.3120, 30916.00
725.4630, 30333.00
726.6140, 29605.00
727.7650, 28966.93
728.9150, 28439.00
730.0650, 27815.00
731.2160, 27261.00
732.3660, 26805.00
733.5150, 26341.00
734.6650, 26207.00
735.8150, 25797.00
736.9640, 25635.00
738.1130, 25448.00
739.2620, 25647.00
740.4110, 25317.00
741.5600, 25486.00
742.7080, 25461.00
743.8570, 25494.00
745.0050, 25668.00
746.1530, 25630.00
747.3010, 26100.00
748.4490, 26115.00
749.5960, 26108.00
750.7440, 26351.00
751.8910, 26992.00
753.0380, 27222.00
754.1850, 27352.00
755.3320, 27676.00
756.4790, 27876.00
757.6250, 28229.00
758.7720, 28630.00
759.9180, 28698.00
761.0640, 28774.00
762.2100, 29053.00
763.3550, 28583.00
764.5010, 28524.00
765.6460, 27930.00
766.7920, 27460.00
767.9370, 26964.00
769.0820, 26496.00
770.2260, 26118.00
771.3710, 25616.00
772.5150, 25384.00
773.6600, 25013.40
774.8040, 24624.93
775.9480, 24418.00
777.0910, 24095.00
778.2350, 23785.00
779.3790, 23973.00
780.5220, 23778.00
781.6650, 23727.00
782.8080, 23624.00
783.9510, 23541.00
785.0940, 23525.00
786.2360, 23539.00
787.3790, 23370.00
788.5210, 23362.00
789.6630, 23194.00
790.8050, 23317.00
791.9470, 23247.00
793.0880, 23319.00
794.2300, 23364.00
795.3710, 23354.78
796.5120, 23329.00
797.6530, 23403.00
798.7940, 23481.00
799.9340, 23537.00
801.0750, 23534.62
802.2150, 23555.54
803.3550, 23530.00
804.4950, 23550.00
805.6350, 23624.00
806.7750, 23670.00
807.9140, 23742.00
809.0540, 23799.00
810.1930, 23983.00
811.3320, 24243.00
812.4710, 24159.00
813.6100, 24464.00
814.7480, 24389.00
815.8870, 24409.00
817.0250, 24354.00
818.1630, 24243.00
819.3010, 24285.00
820.4390, 24268.00
821.5760, 24026.00
822.7140, 24280.00
823.8510, 24456.00
824.9880, 24738.00
826.1250, 24427.00
827.2620, 24312.00
828.3990, 24582.00
829.5350, 24749.00
830.6710, 24799.00
831.8080, 24962.00
832.9440, 25095.00
834.0800, 25247.00
835.2150, 25469.00
836.3510, 25718.00
837.4860, 25739.00
838.6210, 26013.00
839.7560, 25943.00
840.8910, 26114.00
842.0260, 26360.00
843.1610, 26549.00
844.2950, 26744.00
845.4290, 26986.10
846.5640, 27192.87
847.6980, 27440.00
848.8310, 27659.00
849.9650, 27863.00
851.0980, 28117.00
852.2320, 28297.00
853.3650, 28439.00
854.4980, 28611.00
855.6310, 28831.00
856.7630, 28947.00
857.8960, 29124.00
859.0280, 29169.00
860.1610, 29295.00
861.2930, 29732.00
862.4240, 29797.00
863.5560, 29910.00
864.6880, 30278.00
865.8190, 30164.00
866.9500, 30292.00
868.0820, 30412.00
869.2120, 30231.00
870.3430, 30405.57
871.4740, 30409.28
872.6040, 30474.00
873.7350, 30578.00
874.8650, 30473.00
875.9950, 30655.00
877.1250, 30789.00
878.2540, 30322.00
879.3840, 30783.00
880.5130, 30585.00
881.6420, 30323.00
882.7710, 30646.00
883.9000, 30718.00
885.0290, 30773.00
886.1570, 31225.00
887.2860, 31463.00
888.4140, 31795.82
889.5420, 32063.00
890.6700, 32567.00
891.7980, 32920.00
892.9250, 33367.00
894.0530, 34001.00
895.1800, 34617.00
896.3070, 35155.00
897.4340, 35802.00
898.5610, 36317.87
899.6870, 36960.00
900.8140, 37400.00
901.9400, 37815.00
903.0660, 38405.00
904.1920, 38782.00
905.3180, 38764.00
906.4440, 38945.00
907.5690, 39559.00
908.6950, 39728.00
909.8200, 40172.00
910.9450, 40219.00
912.0700, 40587.00
913.1940, 40805.00
914.3190, 40751.00
915.4430, 40994.00
916.5680, 41092.00
917.6920, 40936.00
918.8150, 41059.00
919.9390, 40572.00
921.0630, 40524.00
922.1860, 40114.00
923.3100, 39764.00
924.4330, 39504.00
925.5560, 39117.00
926.6780, 38767.00
927.8010, 38331.00
928.9230, 37839.00
930.0460, 37653.00
931.1680, 36902.00
932.2900, 36459.00
933.4120, 35968.00
934.5330, 35710.00
935.6550, 35278.00
936.7760, 35136.00
937.8970, 34689.00
939.0180, 34613.00
940.1390, 34838.00
941.2600, 35042.00
942.3810, 35062.57
943.5010, 35133.00
944.6210, 35489.00
945.7410, 35605.00
946.8610, 36360.00
947.9810, 36734.00
949.1010, 37613.00
950.2200, 38065.00
951.3390, 39208.00
952.4580, 39984.00
953.5770, 41095.00
954.6960, 42239.00
955.8150, 43072.00
956.9330, 44088.00
958.0520, 44581.00
959.1700, 45869.00
960.2880, 46589.00
961.4050, 48153.00
962.5230, 49398.00
963.6410, 50942.00
964.7580, 52233.00
965.8750, 53309.00
966.9920, 54578.00
968.1090, 55704.00
969.2260, 56234.00
970.3420, 56402.00
971.4590, 56599.00
972.5750, 56365.00
973.6910, 55457.00
974.8070, 54765.00
975.9230, 53544.00
977.0380, 52746.00
978.1540, 51625.00
979.2690, 50603.00
980.3840, 49642.00
981.4990, 49219.00
982.6140, 48635.00
983.7280, 48278.00
984.8430, 48176.00
985.9570, 48141.69
987.0710, 48468.00
988.1850, 48599.00
989.2990, 49040.00
990.4130, 49514.00
991.5260, 49837.32
992.6400, 50105.00
993.7530, 50586.00
994.8660, 51073.00
995.9790, 51240.00
997.0910, 51700.00
998.2040, 52073.00
999.3160, 52140.00
1000.429, 52266.25
1001.541, 52216.00
1002.652, 52035.00
1003.764, 51676.00
1004.876, 51241.00
1005.987, 50031.00
1007.098, 49176.00
1008.210, 48229.00
1009.320, 47125.00
1010.431, 46149.00
1011.542, 45243.00
1012.652, 44526.00
1013.763, 43754.00
1014.873, 43096.35
1015.983, 42541.55
1017.093, 41912.00
1018.202, 41431.00
1019.312, 40915.00
1020.421, 40136.00
1021.530, 39548.00
1022.639, 38806.00
1023.748, 38634.00
1024.857, 37948.00
1025.965, 37422.00
1027.074, 36793.00
1028.182, 36683.00
1029.290, 36462.00
1030.398, 36041.00
1031.505, 35910.00
1032.613, 35672.00
1033.720, 35523.00
1034.828, 35585.00
1035.935, 35654.00
1037.042, 35864.00
1038.148, 36068.00
1039.255, 36442.00
1040.361, 36910.00
1041.468, 37392.00
1042.574, 38041.00
1043.680, 38894.00
1044.786, 39357.00
1045.891, 39597.00
1046.997, 39885.00
1048.102, 39831.00
1049.207, 39246.00
1050.312, 38940.00
1051.417, 38064.00
1052.522, 37647.00
1053.626, 36760.00
1054.730, 36258.00
1055.835, 35916.00
1056.939, 35684.00
1058.043, 35386.00
1059.146, 35481.00
1060.250, 35094.00
1061.353, 35207.00
1062.456, 34907.00
1063.559, 35430.00
1064.662, 35681.00
1065.765, 35449.00
1066.868, 35871.00
1067.970, 36099.00
1069.072, 36635.00
1070.174, 36862.00
1071.276, 37274.00
1072.378, 38214.00
1073.480, 38988.00
1074.581, 39420.00
1075.682, 40677.00
1076.784, 41647.00
1077.885, 43445.00
1078.985, 44894.00
1080.086, 46441.00
1081.187, 48637.00
1082.287, 50587.00
1083.387, 52530.00
1084.487, 54771.00
1085.587, 56667.00
1086.687, 58170.00
1087.786, 58898.00
1088.885, 58885.00
1089.985, 57558.00
1091.084, 55677.00
1092.182, 53123.00
1093.281, 50403.00
1094.380, 47457.00
1095.478, 44955.00
1096.576, 43364.00
1097.674, 41530.00
1098.772, 40310.00
1099.870, 39018.00
1100.968, 38321.00
1102.065, 37657.00
1103.162, 36721.00
1104.259, 36019.00
1105.356, 35749.00
1106.453, 35750.00
1107.550, 35154.00
1108.646, 35086.00
1109.743, 34889.00
1110.839, 34723.00
1111.935, 34804.00
1113.030, 34428.00
1114.126, 34557.00
1115.222, 34591.00
1116.317, 34291.00
1117.412, 34538.20
1118.507, 34446.13
1119.602, 34770.00
1120.697, 34381.00
1121.791, 34441.00
1122.885, 34163.00
1123.980, 34202.00
1125.074, 33866.00
1126.168, 33709.00
1127.261, 33592.00
1128.355, 33226.00
1129.448, 33191.00
1130.541, 32878.00
1131.635, 32792.00
1132.727, 32403.00
1133.820, 32509.00
1134.913, 32279.00
1136.005, 32268.00
1137.097, 32099.00
1138.190, 32078.00
1139.281, 31808.00
1140.373, 31440.00
1141.465, 31316.00
1142.556, 30991.00
1143.648, 30774.00
1144.739, 30666.00
1145.830, 30519.00
1146.921, 30211.00
1148.011, 30163.00
1149.102, 30276.00
1150.192, 29492.00
1151.282, 29704.00
1152.372, 29622.00
1153.462, 29262.00
1154.552, 29221.00
1155.641, 29178.00
1156.731, 28770.00
1157.820, 28787.00
1158.909, 28684.00
1159.998, 28698.00
1161.086, 28612.52
1162.175, 28546.16
1163.263, 28383.00
1164.351, 28360.00
1165.440, 28101.00
1166.527, 27912.00
1167.615, 27790.00
1168.703, 27674.29
1169.790, 27331.00
1170.877, 27484.00
1171.965, 27485.00
1173.051, 27237.00
1174.138, 27243.00
1175.225, 26924.00
1176.311, 27234.00
1177.398, 26854.00
1178.484, 27167.00
1179.570, 27005.00
1180.655, 27046.00
1181.741, 27075.00
1182.827, 27013.89
1183.912, 26871.00
1184.997, 27032.00
1186.082, 26973.00
1187.167, 27063.00
1188.251, 27002.05
1189.336, 27076.00
1190.420, 26845.00
1191.505, 26871.00
1192.589, 26805.00
1193.672, 26692.00
1194.756, 26785.00
1195.840, 26675.00
1196.923, 26542.00
1198.006, 26509.00
1199.089, 26515.00
1200.172, 26478.00
1201.255, 26574.00
1202.337, 26646.00
1203.420, 26662.00
1204.502, 26537.00
1205.584, 26717.00
1206.666, 26535.00
1207.748, 26681.00
1208.829, 26568.00
1209.911, 26572.00
1210.992, 26522.00
1212.073, 26694.00
1213.154, 26347.00
1214.235, 26626.00
1215.316, 26816.00
1216.396, 26657.00
1217.476, 26889.00
1218.556, 26733.00
1219.636, 26812.00
1220.716, 26817.00
1221.796, 26916.00
1222.875, 26866.00
1223.955, 27089.00
1225.034, 27122.00
1226.113, 26997.00
1227.192, 27245.00
1228.270, 27229.00
1229.349, 27235.00
1230.427, 27140.00
1231.505, 27158.00
1232.583, 27257.00
1233.661, 27105.00
1234.739, 27207.00
1235.817, 27148.00
1236.894, 27124.00
1237.971, 27292.00
1239.048, 27079.00
1240.125, 26833.00
1241.202, 27198.00
1242.278, 27052.00
1243.355, 27173.00
1244.431, 27172.00
1245.507, 27240.00
1246.583, 27096.00
1247.659, 27389.00
1248.734, 27209.00
1249.810, 27309.00
1250.885, 27293.00
1251.960, 27189.00
1253.035, 27402.00
1254.110, 27464.00
1255.185, 27349.00
1256.259, 27343.00
1257.333, 27475.00
1258.408, 27553.00
1259.482, 27190.00
1260.555, 27525.00
1261.629, 27402.00
1262.702, 27470.00
1263.776, 27572.00
1264.849, 27504.00
1265.922, 27506.00
1266.995, 27472.00
1268.068, 27686.00
1269.140, 27372.00
1270.212, 27462.69
1271.285, 27686.00
1272.357, 27428.00
1273.428, 27479.00
1274.500, 27556.00
1275.572, 27799.00
1276.643, 27581.00
1277.714, 27574.00
1278.785, 27648.00
1279.856, 27691.00
1280.927, 27726.37
1281.998, 27794.37
1283.068, 27830.00
1284.138, 27916.00
1285.208, 27996.00
1286.278, 28070.65
1287.348, 28126.38
1288.418, 28195.00
1289.487, 28213.00
1290.556, 28294.00
1291.625, 28317.00
1292.694, 28281.00
1293.763, 28333.00
1294.832, 28369.67
1295.900, 28537.00
1296.969, 28474.00
1298.037, 28381.00
1299.105, 28392.00
1300.172, 28669.00
1301.240, 28415.00
