##NAMES=Edenite
##RRUFFID=R050415
##IDEAL CHEMISTRY=NaCa_2_Mg_5_(Si_7_Al)O_22_(OH)_2_
##LOCALITY=Mogok, Burma
##OWNER=RRUFF
##SOURCE=Marcus Origlieri
##DESCRIPTION=Transparent pale green water worn fragment
##STATUS=The identification of this mineral has been confirmed by X-ray diffraction and chemical analysis
##URL=rruff.info/R050415
##MEASURED CHEMISTRY=(Na_0.83_K_0.17_)(Ca_1.76_Na_0.24_)_&#931;=2_(Mg_4.54_Al_0.40_Fe^3+^_0.06_)_&#931;=5_(Si_6.74_Al_1.26_)O_22_((OH)_0.52_F_0.48_)_2_
##PIN_ID=L01355
##ORIENTATION=Laser parallel to -a* (-1 0 0). Fiducial mark perpendicular to laser is parallel to -b [0 -1 0]
93.48000, 18043.00
94.71400, 18638.00
95.94800, 19297.00
97.18200, 20093.00
98.41600, 20766.00
99.64900, 21331.00
100.8830, 22454.00
102.1160, 22994.00
103.3490, 23627.00
104.5820, 24774.00
105.8150, 25442.00
107.0470, 26742.00
108.2800, 27484.92
109.5120, 28236.99
110.7440, 29019.00
111.9760, 29598.00
113.2080, 30089.00
114.4400, 30724.00
115.6710, 30862.00
116.9030, 30933.00
118.1340, 30943.00
119.3650, 30372.00
120.5960, 29906.00
121.8270, 28889.00
123.0580, 28038.00
124.2880, 27264.00
125.5190, 26034.00
126.7490, 25131.00
127.9790, 24714.00
129.2090, 23880.00
130.4390, 23448.00
131.6680, 23126.00
132.8980, 22733.00
134.1270, 22529.00
135.3560, 22296.00
136.5850, 22215.00
137.8140, 22112.00
139.0430, 22044.00
140.2710, 22100.00
141.5000, 21830.00
142.7280, 21855.00
143.9560, 21812.00
145.1840, 21672.00
146.4120, 21786.00
147.6390, 21766.00
148.8670, 21683.00
150.0940, 22023.00
151.3210, 22083.00
152.5490, 21968.00
153.7750, 22076.00
155.0020, 22143.00
156.2290, 22337.00
157.4550, 22290.00
158.6810, 22442.00
159.9080, 22626.00
161.1340, 22573.00
162.3590, 22835.00
163.5850, 23127.00
164.8110, 23111.00
166.0360, 23165.00
167.2610, 23275.00
168.4860, 23301.95
169.7110, 23402.63
170.9360, 23444.00
172.1610, 23598.00
173.3850, 23691.00
174.6100, 23833.00
175.8340, 24011.46
177.0580, 24288.00
178.2820, 24387.00
179.5050, 24530.00
180.7290, 24717.00
181.9520, 24773.00
183.1760, 24890.00
184.3990, 24947.47
185.6220, 25008.00
186.8450, 24976.00
188.0670, 24921.00
189.2900, 24832.00
190.5120, 24621.00
191.7340, 24508.00
192.9560, 24338.09
194.1780, 24015.00
195.4000, 24048.00
196.6220, 23784.00
197.8430, 23734.00
199.0640, 23689.00
200.2860, 23832.00
201.5070, 24068.00
202.7270, 24026.00
203.9480, 24103.00
205.1690, 24056.00
206.3890, 24013.00
207.6090, 24153.00
208.8290, 24183.00
210.0490, 24392.00
211.2690, 24612.00
212.4890, 24847.00
213.7080, 25045.00
214.9280, 25223.00
216.1470, 25551.00
217.3660, 25770.00
218.5850, 25945.00
219.8030, 26137.00
221.0220, 26373.00
222.2400, 26569.00
223.4590, 26907.00
224.6770, 27292.00
225.8950, 27665.00
227.1120, 28201.00
228.3300, 28388.00
229.5480, 28543.00
230.7650, 29011.00
231.9820, 29174.00
233.1990, 29467.00
234.4160, 30035.00
235.6330, 30227.00
236.8490, 30319.00
238.0660, 30737.00
239.2820, 30812.00
240.4980, 30532.00
241.7140, 30621.00
242.9300, 30566.00
244.1460, 30294.00
245.3610, 30118.00
246.5770, 29645.00
247.7920, 29651.00
249.0070, 29235.00
250.2220, 28990.00
251.4370, 28405.00
252.6510, 28508.00
253.8660, 27907.00
255.0800, 27789.00
256.2940, 27292.00
257.5080, 27335.00
258.7220, 27062.00
259.9360, 26620.00
261.1490, 26374.00
262.3630, 26043.00
263.5760, 25867.00
264.7890, 25682.00
266.0020, 25575.00
267.2150, 25432.00
268.4270, 25408.51
269.6400, 25345.50
270.8520, 25434.00
272.0640, 25359.00
273.2760, 25421.00
274.4880, 25552.00
275.7000, 25300.00
276.9120, 25536.00
278.1230, 25294.00
279.3340, 25440.00
280.5450, 25347.00
281.7560, 25658.00
282.9670, 25606.00
284.1780, 25576.00
285.3880, 25744.00
286.5980, 25973.00
287.8090, 25888.00
289.0190, 26099.00
290.2290, 26312.00
291.4380, 26311.00
292.6480, 26432.00
293.8570, 26596.00
295.0670, 26822.00
296.2760, 26824.00
297.4850, 26791.00
298.6930, 26752.00
299.9020, 26796.00
301.1110, 26795.89
302.3190, 26735.00
303.5270, 26887.00
304.7350, 26861.00
305.9430, 26953.00
307.1510, 26972.52
308.3580, 26900.00
309.5660, 26990.00
310.7730, 26965.00
311.9800, 26967.00
313.1870, 27036.00
314.3940, 27283.00
315.6010, 27300.00
316.8070, 27505.00
318.0130, 27313.00
319.2200, 27410.00
320.4260, 27482.00
321.6310, 27540.00
322.8370, 27547.00
324.0430, 27700.00
325.2480, 27303.00
326.4540, 27216.00
327.6590, 27301.00
328.8640, 26962.00
330.0680, 26922.00
331.2730, 27010.00
332.4780, 26936.00
333.6820, 26918.51
334.8860, 26820.00
336.0900, 26788.00
337.2940, 26748.00
338.4980, 26610.00
339.7010, 26783.00
340.9050, 26725.00
342.1080, 26598.00
343.3110, 26627.00
344.5140, 26918.00
345.7170, 26536.00
346.9200, 26843.00
348.1220, 26705.00
349.3240, 26837.00
350.5270, 27158.00
351.7290, 26918.00
352.9310, 27054.00
354.1320, 27214.00
355.3340, 27126.00
356.5350, 27207.00
357.7370, 27463.00
358.9380, 27305.00
360.1390, 27557.00
361.3400, 27772.00
362.5400, 28149.00
363.7410, 28046.00
364.9410, 28000.00
366.1410, 28336.00
367.3410, 28330.00
368.5410, 28481.00
369.7410, 28490.00
370.9400, 28935.00
372.1400, 28925.00
373.3390, 28853.00
374.5380, 29279.00
375.7370, 29335.00
376.9360, 29505.00
378.1350, 29592.00
379.3330, 29840.39
380.5310, 30088.00
381.7300, 30378.00
382.9280, 30660.20
384.1260, 31126.00
385.3230, 31298.00
386.5210, 31669.00
387.7180, 32066.00
388.9160, 32351.00
390.1130, 32642.00
391.3100, 32820.00
392.5060, 32747.00
393.7030, 32535.00
394.9000, 32215.00
396.0960, 32058.00
397.2920, 31758.00
398.4880, 31420.00
399.6840, 31353.00
400.8800, 30759.00
402.0750, 30689.00
403.2710, 30271.00
404.4660, 29934.00
405.6610, 29848.00
406.8560, 29494.00
408.0510, 29577.00
409.2450, 29533.00
410.4400, 29276.00
411.6340, 29442.00
412.8280, 29409.00
414.0220, 29291.00
415.2160, 29374.00
416.4100, 29373.14
417.6030, 29416.00
418.7970, 29523.00
419.9900, 29574.00
421.1830, 29712.00
422.3760, 29530.00
423.5690, 29645.00
424.7610, 29431.00
425.9540, 29392.00
427.1460, 29333.00
428.3380, 29201.00
429.5300, 29075.71
430.7220, 28949.55
431.9140, 28766.00
433.1050, 28615.00
434.2970, 28515.00
435.4880, 28266.00
436.6790, 28297.00
437.8700, 28215.00
439.0610, 28046.00
440.2510, 27973.00
441.4420, 27925.00
442.6320, 28005.00
443.8220, 27852.00
445.0120, 27936.00
446.2020, 27893.00
447.3910, 27742.00
448.5810, 27681.00
449.7700, 27999.00
450.9600, 27707.00
452.1490, 27974.00
453.3370, 27623.00
454.5260, 27976.00
455.7150, 27982.00
456.9030, 28084.00
458.0910, 28131.00
459.2800, 27972.00
460.4670, 27983.00
461.6550, 27914.00
462.8430, 28014.00
464.0300, 28087.00
465.2180, 27863.00
466.4050, 28180.00
467.5920, 28188.00
468.7790, 28049.00
469.9650, 28224.00
471.1520, 28493.00
472.3380, 28325.00
473.5250, 28371.00
474.7110, 28606.00
475.8970, 28327.00
477.0820, 28103.00
478.2680, 28413.00
479.4540, 28329.00
480.6390, 28275.00
481.8240, 28506.00
483.0090, 28573.00
484.1940, 28844.00
485.3780, 28620.00
486.5630, 28786.00
487.7470, 28569.00
488.9320, 28676.00
490.1160, 28870.00
491.3000, 28723.00
492.4830, 28723.00
493.6670, 28791.00
494.8500, 28896.00
496.0340, 28801.00
497.2170, 28751.00
498.4000, 28723.00
499.5820, 28543.00
500.7650, 28553.00
501.9480, 28745.00
503.1300, 28563.00
504.3120, 28685.00
505.4940, 28901.00
506.6760, 28851.00
507.8580, 28940.00
509.0390, 28980.00
510.2210, 29078.00
511.4020, 29095.75
512.5830, 29193.00
513.7640, 29148.00
514.9450, 29086.00
516.1250, 29131.07
517.3060, 29101.00
518.4860, 29304.00
519.6660, 29410.00
520.8460, 29508.00
522.0260, 29440.00
523.2060, 29358.00
524.3850, 29323.00
525.5650, 29534.00
526.7440, 29475.00
527.9230, 29466.00
529.1020, 29673.00
530.2810, 29662.00
531.4590, 29703.00
532.6380, 29715.00
533.8160, 29765.00
534.9940, 29960.00
536.1720, 29647.00
537.3500, 29896.00
538.5270, 29618.00
539.7050, 29767.00
540.8820, 29739.00
542.0590, 29994.00
543.2360, 29839.00
544.4130, 30142.00
545.5900, 29789.00
546.7660, 30024.00
547.9430, 30112.00
549.1190, 30109.00
550.2950, 30096.00
551.4710, 30028.00
552.6470, 30018.00
553.8220, 30115.00
554.9980, 30163.00
556.1730, 30135.00
557.3480, 30002.00
558.5230, 30162.00
559.6980, 30129.00
560.8730, 30217.00
562.0470, 30100.00
563.2220, 30246.00
564.3960, 30272.00
565.5700, 30210.00
566.7440, 30451.00
567.9170, 30384.00
569.0910, 30594.00
570.2640, 30421.00
571.4380, 30227.00
572.6110, 30462.00
573.7840, 30362.00
574.9570, 30340.00
576.1290, 30623.00
577.3020, 30784.00
578.4740, 30687.00
579.6460, 30797.00
580.8180, 30882.00
581.9900, 30619.00
583.1620, 30639.00
584.3330, 30645.00
585.5040, 30877.00
586.6760, 30925.00
587.8470, 31059.00
589.0180, 31076.84
590.1880, 30993.00
591.3590, 31031.00
592.5290, 30942.00
593.7000, 30881.00
594.8700, 31092.00
596.0400, 30866.00
597.2090, 31181.00
598.3790, 31076.00
599.5490, 31011.00
600.7180, 31300.00
601.8870, 31189.00
603.0560, 31319.00
604.2250, 31524.00
605.3940, 31453.00
606.5620, 31317.00
607.7300, 31437.00
608.8990, 31284.00
610.0670, 31498.00
611.2350, 31717.00
612.4020, 31796.00
613.5700, 32020.00
614.7370, 32103.00
615.9050, 32373.00
617.0720, 32400.00
618.2390, 32638.00
619.4060, 32453.00
620.5720, 32780.00
621.7390, 32879.00
622.9050, 32885.00
624.0710, 33307.00
625.2370, 33440.00
626.4030, 33123.00
627.5690, 33255.00
628.7340, 33437.00
629.9000, 33475.00
631.0650, 33744.00
632.2300, 33540.00
633.3950, 33794.00
634.5600, 33982.00
635.7240, 34010.00
636.8890, 34423.00
638.0530, 34643.00
639.2170, 34786.00
640.3810, 34968.00
641.5450, 35569.00
642.7080, 35588.00
643.8720, 36361.00
645.0350, 36583.00
646.1980, 36739.00
647.3610, 36964.00
648.5240, 37402.00
649.6870, 37890.00
650.8490, 38141.00
652.0120, 38562.00
653.1740, 39023.00
654.3360, 39610.00
655.4980, 40271.00
656.6600, 40753.00
657.8210, 41681.00
658.9830, 42535.00
660.1440, 43535.00
661.3050, 44753.00
662.4660, 45773.00
663.6270, 47209.00
664.7870, 48872.00
665.9480, 50765.00
667.1080, 52397.00
668.2680, 54143.00
669.4280, 55665.00
670.5880, 57296.00
671.7480, 57806.00
672.9070, 58876.00
674.0670, 58840.00
675.2260, 58655.00
676.3850, 58378.00
677.5440, 57078.00
678.7030, 55956.00
679.8610, 54108.00
681.0200, 52407.00
682.1780, 50851.00
683.3360, 48859.00
684.4940, 47178.00
685.6520, 45924.00
686.8090, 44396.00
687.9670, 43276.00
689.1240, 42135.00
690.2810, 41449.00
691.4380, 40670.00
692.5950, 40395.00
693.7520, 39695.00
694.9080, 39155.00
696.0650, 38568.00
697.2210, 38167.51
698.3770, 37916.00
699.5330, 37513.00
700.6880, 37157.00
701.8440, 36913.00
702.9990, 36554.00
704.1550, 36286.00
705.3100, 36037.00
706.4650, 35855.00
707.6190, 35759.43
708.7740, 35747.00
709.9290, 35676.00
711.0830, 35709.00
712.2370, 35688.00
713.3910, 35519.05
714.5450, 35292.00
715.6980, 35229.00
716.8520, 35157.00
718.0050, 35170.00
719.1580, 35194.00
720.3110, 35209.00
721.4640, 35227.50
722.6170, 35081.00
723.7700, 35308.00
724.9220, 35209.00
726.0740, 35334.00
727.2260, 35298.00
728.3780, 35184.00
729.5300, 35168.00
730.6810, 35282.00
731.8330, 35138.00
732.9840, 35202.00
734.1350, 35050.00
735.2860, 35029.00
736.4370, 35406.00
737.5880, 35031.00
738.7380, 35274.00
739.8880, 35027.00
741.0390, 34959.00
742.1890, 34960.00
743.3380, 34902.61
744.4880, 34978.00
745.6380, 35034.00
746.7870, 35026.00
747.9360, 35245.00
749.0850, 35351.00
750.2340, 35240.00
751.3830, 35348.00
752.5310, 35170.00
753.6800, 35198.00
754.8280, 35038.00
755.9760, 35208.00
757.1240, 35303.00
758.2720, 35124.00
759.4190, 35216.00
760.5670, 35444.00
761.7140, 35227.00
762.8610, 35439.00
764.0080, 35058.00
765.1550, 35304.00
766.3020, 35525.00
767.4480, 35487.00
768.5950, 35439.00
769.7410, 35354.00
770.8870, 35470.00
772.0330, 35289.00
773.1780, 35513.00
774.3240, 35845.00
775.4690, 35807.00
776.6140, 35815.00
777.7590, 35688.00
778.9040, 35887.00
780.0490, 35988.00
781.1940, 36006.00
782.3380, 36014.00
783.4820, 35923.00
784.6260, 35936.00
785.7700, 35922.00
786.9140, 36152.00
788.0580, 36146.00
789.2010, 36169.00
790.3450, 36313.00
791.4880, 36214.00
792.6310, 36269.00
793.7730, 36115.00
794.9160, 36241.00
796.0590, 36192.44
797.2010, 36182.00
798.3430, 36231.00
799.4850, 36417.00
800.6270, 36540.00
801.7690, 36554.00
802.9100, 36618.00
804.0520, 36603.00
805.1930, 36646.08
806.3340, 36733.00
807.4750, 36677.00
808.6160, 36856.00
809.7560, 36831.00
810.8970, 36797.00
812.0370, 36718.00
813.1770, 37003.00
814.3170, 37203.00
815.4570, 36990.00
816.5960, 36955.00
817.7360, 37082.00
818.8750, 37070.00
820.0140, 37162.00
821.1530, 37325.00
822.2920, 37228.00
823.4310, 37529.00
824.5690, 37327.00
825.7070, 37478.00
826.8460, 37569.00
827.9840, 37466.00
829.1220, 37356.00
830.2590, 37742.00
831.3970, 37670.00
832.5340, 37785.00
833.6710, 37489.00
834.8080, 37652.00
835.9450, 37648.00
837.0820, 37848.00
838.2190, 37784.00
839.3550, 38062.00
840.4910, 38105.00
841.6270, 38243.00
842.7630, 38249.00
843.8990, 38265.00
845.0350, 38257.00
846.1700, 38203.00
847.3060, 38372.00
848.4410, 38171.00
849.5760, 38390.00
850.7100, 38452.00
851.8450, 38685.00
852.9800, 38739.00
854.1140, 38868.00
855.2480, 38986.00
856.3820, 39040.00
857.5160, 39054.00
858.6500, 39120.65
859.7830, 39146.00
860.9170, 39131.00
862.0500, 39143.00
863.1830, 39031.00
864.3160, 39035.00
865.4480, 38941.00
866.5810, 39040.00
867.7130, 39208.00
868.8460, 39307.00
869.9780, 39120.00
871.1100, 38998.00
872.2410, 39125.00
873.3730, 39208.00
874.5050, 39408.00
875.6360, 39375.00
876.7670, 39540.00
877.8980, 39594.84
879.0290, 39672.61
880.1590, 39672.00
881.2900, 39863.00
882.4200, 39814.00
883.5500, 39911.00
884.6800, 39773.00
885.8100, 39860.00
886.9400, 39906.52
888.0690, 40346.00
889.1990, 40135.00
890.3280, 40292.00
891.4570, 40582.00
892.5860, 40402.00
893.7140, 40395.00
894.8430, 40602.00
895.9710, 40350.00
897.1000, 40657.00
898.2280, 40926.00
899.3560, 40902.00
900.4830, 40812.00
901.6110, 40704.00
902.7380, 40980.00
903.8660, 41131.00
904.9930, 40877.00
906.1200, 41189.00
907.2460, 41379.00
908.3730, 41383.00
909.5000, 41628.00
910.6260, 41598.00
911.7520, 41456.00
912.8780, 42115.00
914.0040, 41730.00
915.1290, 42021.00
916.2550, 41662.00
917.3800, 41932.00
918.5050, 42275.00
919.6300, 42059.00
920.7550, 42344.00
921.8800, 42071.00
923.0040, 42428.00
924.1290, 42258.00
925.2530, 42454.00
926.3770, 42340.00
927.5010, 42045.00
928.6250, 42141.00
929.7480, 42412.00
930.8720, 42238.00
931.9950, 42267.00
933.1180, 42000.00
934.2410, 42262.00
935.3640, 42050.00
936.4860, 42088.00
937.6090, 42506.00
938.7310, 41842.00
939.8530, 42238.00
940.9750, 42289.00
942.0970, 41942.00
943.2180, 42069.00
944.3400, 42342.00
945.4610, 41976.00
946.5820, 42398.00
947.7030, 42483.00
948.8240, 42480.00
949.9450, 42438.00
951.0650, 42410.00
952.1860, 42571.00
953.3060, 42642.00
954.4260, 42807.00
955.5460, 42370.00
956.6650, 42568.00
957.7850, 42809.00
958.9040, 42502.00
960.0230, 42977.00
961.1420, 42769.00
962.2610, 42885.00
963.3800, 43122.00
964.4990, 42969.00
965.6170, 42794.00
966.7350, 43077.00
967.8530, 42689.00
968.9710, 42386.00
970.0890, 42635.00
971.2070, 42865.00
972.3240, 43059.00
973.4410, 42708.00
974.5580, 42908.00
975.6750, 42978.00
976.7920, 43023.00
977.9090, 43072.00
979.0250, 43268.00
980.1410, 43282.00
981.2580, 43307.00
982.3740, 43198.00
983.4890, 43319.00
984.6050, 43378.00
985.7200, 43613.00
986.8360, 43579.00
987.9510, 43619.00
989.0660, 43578.00
990.1810, 43711.07
991.2950, 44042.00
992.4100, 44011.00
993.5240, 44346.00
994.6390, 44557.00
995.7530, 44644.81
996.8660, 44692.00
997.9800, 44965.00
999.0940, 45031.00
1000.207, 45303.00
1001.320, 45642.00
1002.433, 45725.00
1003.546, 45696.00
1004.659, 45637.00
1005.772, 45610.00
1006.884, 45675.00
1007.996, 45697.00
1009.108, 45396.00
1010.220, 45447.00
1011.332, 45233.00
1012.444, 45617.00
1013.555, 45576.00
1014.666, 45679.00
1015.777, 46036.00
1016.888, 46218.00
1017.999, 46000.00
1019.110, 46410.00
1020.220, 46155.00
1021.331, 46007.00
1022.441, 46029.00
1023.551, 46152.00
1024.661, 46174.00
1025.770, 46414.00
1026.880, 46318.00
1027.989, 46189.00
1029.098, 46366.00
1030.207, 46594.00
1031.316, 46670.00
1032.425, 46641.00
1033.533, 46662.00
1034.642, 46730.00
1035.750, 46721.00
1036.858, 46815.00
1037.966, 46922.00
1039.073, 46979.00
1040.181, 47025.25
1041.288, 47262.00
1042.396, 47092.00
1043.503, 47285.00
1044.610, 47371.00
1045.716, 47339.00
1046.823, 47467.00
1047.929, 47250.00
1049.036, 47253.00
1050.142, 46962.00
1051.248, 46886.00
1052.353, 47107.00
1053.459, 47069.00
1054.564, 46834.00
1055.670, 47065.00
1056.775, 47123.00
1057.880, 47144.00
1058.985, 46712.00
1060.089, 46891.00
1061.194, 46810.00
1062.298, 46926.00
1063.402, 46916.25
1064.506, 46854.00
1065.610, 46884.00
1066.713, 46883.00
1067.817, 46861.00
1068.920, 47122.00
1070.023, 47167.00
1071.126, 46966.00
1072.229, 47053.00
1073.332, 46930.00
1074.435, 47049.00
1075.537, 47026.00
1076.639, 46990.00
1077.741, 47043.00
1078.843, 47039.00
1079.945, 47036.00
1081.046, 46816.00
1082.148, 47052.00
1083.249, 46862.00
1084.350, 47234.00
1085.451, 46950.00
1086.551, 47172.00
1087.652, 46842.00
1088.752, 47050.00
1089.853, 46852.00
1090.953, 46992.00
1092.053, 47083.00
1093.152, 47063.00
1094.252, 47165.71
1095.351, 47118.00
1096.451, 47280.00
1097.550, 47286.00
1098.649, 47384.00
1099.748, 47081.00
1100.846, 47206.00
1101.945, 46981.00
1103.043, 47112.00
1104.141, 47475.00
1105.239, 47546.00
1106.337, 47457.00
1107.434, 47561.00
1108.532, 47525.38
1109.629, 47798.00
1110.726, 47476.00
1111.823, 47659.00
1112.920, 47591.00
1114.017, 47566.00
1115.113, 47817.00
1116.210, 47891.00
1117.306, 48044.00
1118.402, 48158.74
1119.498, 48222.00
1120.593, 48410.00
1121.689, 48375.00
1122.784, 48642.00
1123.879, 48740.00
1124.974, 48428.00
1126.069, 48475.00
1127.164, 48340.00
1128.259, 48329.00
1129.353, 48107.00
1130.447, 48154.00
1131.541, 47816.00
1132.635, 48032.00
1133.729, 48322.00
1134.822, 48226.00
1135.916, 48269.00
1137.009, 48495.00
1138.102, 48624.00
1139.195, 48546.35
1140.288, 48711.00
1141.380, 48427.00
1142.473, 48463.00
1143.565, 48548.00
1144.657, 48538.00
1145.749, 48167.00
1146.841, 48485.00
1147.932, 48358.00
1149.024, 48826.00
1150.115, 48782.00
1151.206, 48984.00
1152.297, 48721.00
1153.388, 48984.00
1154.479, 48684.00
1155.569, 48899.00
1156.659, 49008.00
1157.750, 49065.00
1158.839, 49274.00
1159.929, 49179.00
1161.019, 49249.00
1162.108, 49139.00
1163.198, 49213.12
1164.287, 49071.00
1165.376, 49410.00
1166.465, 49473.00
1167.553, 49723.00
1168.642, 49941.00
1169.730, 49414.00
1170.818, 49732.00
1171.906, 49505.00
1172.994, 49680.00
1174.082, 49921.00
1175.170, 49723.00
1176.257, 50337.00
1177.344, 50011.00
1178.431, 50067.00
1179.518, 50125.00
1180.605, 50212.00
1181.691, 50159.00
1182.778, 49977.00
1183.864, 50165.00
1184.950, 50119.00
1186.036, 50362.00
1187.122, 50295.00
1188.207, 50399.00
1189.292, 50297.00
1190.378, 50508.00
1191.463, 50705.00
1192.548, 50694.00
1193.632, 50791.00
1194.717, 51110.00
1195.801, 50651.00
1196.886, 50844.00
1197.970, 50376.00
1199.054, 50615.00
1200.137, 50793.00
1201.221, 50866.00
1202.305, 51201.00
1203.388, 51260.00
1204.471, 50993.00
1205.554, 51083.00
1206.637, 51262.00
1207.719, 51174.00
1208.802, 51554.00
1209.884, 51414.00
1210.966, 51279.00
1212.048, 51496.00
1213.130, 51450.00
1214.212, 51662.00
1215.293, 51842.00
1216.374, 51906.00
1217.456, 51997.86
1218.536, 51877.00
1219.617, 52046.00
1220.698, 51908.00
1221.778, 51905.00
1222.859, 52090.00
1223.939, 51842.00
1225.019, 51879.00
1226.099, 52036.00
1227.178, 52137.00
1228.258, 52357.00
1229.337, 52427.00
1230.417, 52723.00
1231.496, 52582.00
1232.574, 52800.00
1233.653, 52811.00
1234.732, 52692.00
1235.810, 52963.00
1236.888, 52811.00
1237.966, 52790.00
1239.044, 52983.00
1240.122, 52797.00
1241.199, 52936.00
1242.277, 53022.42
1243.354, 53135.00
1244.431, 53255.00
1245.508, 53199.00
1246.585, 53307.00
1247.661, 53394.00
1248.738, 53331.00
1249.814, 53339.00
1250.890, 53615.00
1251.966, 53456.00
1253.042, 53450.00
1254.117, 53773.00
1255.193, 53702.00
1256.268, 53880.00
1257.343, 54023.00
1258.418, 53944.00
1259.493, 54151.00
1260.567, 54212.00
1261.642, 54156.00
1262.716, 54301.00
1263.790, 54248.00
1264.864, 54569.00
1265.938, 54559.00
1267.011, 54692.00
1268.085, 54554.00
1269.158, 54657.00
1270.231, 54854.00
