##NAMES=Edenite
##RRUFFID=R060029
##IDEAL CHEMISTRY=NaCa_2_Mg_5_(Si_7_Al)O_22_(OH)_2_
##LOCALITY=Renfrew County, Ontario, Canada
##OWNER=RRUFF
##SOURCE=University of Arizona Mineral Museum
##DESCRIPTION=Black prismatic
##STATUS=The identification of this mineral has been confirmed by X-ray diffraction and chemical analysis
##URL=rruff.info/R060029
##MEASURED CHEMISTRY=(Na_0.62_K_0.34_[box]_0.04_)(Ca_0.86_Na_0.14_)_2_(Mg_0.57_Fe^2+^_0.30_Fe^3+^_0.07_Al_0.05_Ti_0.01_Mn_0.01_)_5_(Si_6.61_Al_1.39_)O_22_((OH)_0.69_F_0.31_)_2_
##PIN_ID=L01054
##ORIENTATION=Laser parallel to -a* (-1 0 0). Fiducial mark perpendicular to laser is parallel to b [0 1 0]
192.9560, 13011.39
194.1780, 13152.12
195.4000, 13204.28
196.6220, 13172.61
197.8430, 12806.09
199.0640, 12872.02
200.2860, 12764.60
201.5070, 12650.12
202.7270, 12776.96
203.9480, 12459.16
205.1690, 12582.12
206.3890, 12529.20
207.6090, 12556.79
208.8290, 12410.02
210.0490, 12573.00
211.2690, 12706.00
212.4890, 12866.00
213.7080, 13094.15
214.9280, 13259.94
216.1470, 13573.00
217.3660, 13641.00
218.5850, 13915.00
219.8030, 14068.00
221.0220, 14610.00
222.2400, 14508.00
223.4590, 14741.33
224.6770, 14927.00
225.8950, 14846.00
227.1120, 15053.00
228.3300, 14973.00
229.5480, 14928.00
230.7650, 14787.00
231.9820, 14681.00
233.1990, 14470.00
234.4160, 14319.00
235.6330, 13863.00
236.8490, 13743.00
238.0660, 13469.00
239.2820, 13333.00
240.4980, 13107.82
241.7140, 12655.00
242.9300, 12649.00
244.1460, 12428.00
245.3610, 12155.00
246.5770, 12069.00
247.7920, 11961.00
249.0070, 11811.00
250.2220, 11684.00
251.4370, 11674.00
252.6510, 11638.00
253.8660, 11351.75
255.0800, 11510.18
256.2940, 11580.04
257.5080, 11566.07
258.7220, 11217.21
259.9360, 11300.79
261.1490, 11211.10
262.3630, 11114.27
263.5760, 11258.75
264.7890, 10958.64
266.0020, 11238.00
267.2150, 11194.00
268.4270, 11251.00
269.6400, 11134.00
270.8520, 11285.00
272.0640, 11248.00
273.2760, 10991.79
274.4880, 11274.64
275.7000, 11468.91
276.9120, 11579.36
278.1230, 11354.84
279.3340, 11562.77
280.5450, 11597.40
281.7560, 11624.92
282.9670, 11893.72
284.1780, 11791.00
285.3880, 11899.00
286.5980, 11886.00
287.8090, 11864.00
289.0190, 11964.00
290.2290, 11936.00
291.4380, 12102.00
292.6480, 12039.00
293.8570, 11967.00
295.0670, 12099.00
296.2760, 12261.00
297.4850, 12157.00
298.6930, 11853.00
299.9020, 11929.00
301.1110, 12020.00
302.3190, 11883.00
303.5270, 11906.00
304.7350, 11858.00
305.9430, 11818.00
307.1510, 11774.47
308.3580, 11710.05
309.5660, 11668.00
310.7730, 11587.00
311.9800, 11577.00
313.1870, 11540.00
314.3940, 11555.00
315.6010, 11582.00
316.8070, 11437.00
318.0130, 11503.00
319.2200, 11413.00
320.4260, 11410.00
321.6310, 11340.00
322.8370, 11272.00
324.0430, 11289.00
325.2480, 11342.00
326.4540, 11291.00
327.6590, 11141.00
328.8640, 11193.00
330.0680, 11232.00
331.2730, 11263.00
332.4780, 11314.00
333.6820, 11327.00
334.8860, 11231.00
336.0900, 11390.00
337.2940, 11451.00
338.4980, 11402.00
339.7010, 11278.00
340.9050, 11376.00
342.1080, 11184.00
343.3110, 11536.00
344.5140, 11416.00
345.7170, 11573.00
346.9200, 11513.00
348.1220, 11489.00
349.3240, 11681.00
350.5270, 11838.00
351.7290, 11938.00
352.9310, 11877.00
354.1320, 11906.00
355.3340, 12037.00
356.5350, 12171.00
357.7370, 12154.00
358.9380, 12293.00
360.1390, 12212.00
361.3400, 12155.00
362.5400, 12323.00
363.7410, 12257.00
364.9410, 12269.00
366.1410, 12415.00
367.3410, 12446.00
368.5410, 12281.00
369.7410, 12526.00
370.9400, 12466.00
372.1400, 12584.00
373.3390, 12488.00
374.5380, 12659.00
375.7370, 12595.27
376.9360, 12581.32
378.1350, 12517.00
379.3330, 12461.00
380.5310, 12390.00
381.7300, 12220.00
382.9280, 12169.00
384.1260, 12072.50
385.3230, 11980.78
386.5210, 11898.00
387.7180, 11855.00
388.9160, 11723.00
390.1130, 11703.00
391.3100, 11550.00
392.5060, 11497.40
393.7030, 11368.00
394.9000, 11364.00
396.0960, 11337.00
397.2920, 11282.00
398.4880, 11289.00
399.6840, 11191.00
400.8800, 11117.00
402.0750, 11021.00
403.2710, 11115.00
404.4660, 11070.00
405.6610, 11170.00
406.8560, 11121.00
408.0510, 11029.00
409.2450, 11104.00
410.4400, 11161.00
411.6340, 11190.00
412.8280, 11234.67
414.0220, 11324.00
415.2160, 11295.00
416.4100, 11313.00
417.6030, 11357.00
418.7970, 11491.00
419.9900, 11607.00
421.1830, 11692.00
422.3760, 11826.00
423.5690, 11916.00
424.7610, 11985.00
425.9540, 12026.25
427.1460, 12278.00
428.3380, 12078.00
429.5300, 12108.00
430.7220, 12192.00
431.9140, 12007.00
433.1050, 11972.00
434.2970, 11963.00
435.4880, 11702.00
436.6790, 11684.00
437.8700, 11581.00
439.0610, 11425.00
440.2510, 11485.00
441.4420, 11432.00
442.6320, 11438.00
443.8220, 11206.00
445.0120, 11204.00
446.2020, 11058.00
447.3910, 11172.00
448.5810, 11088.00
449.7700, 10995.00
450.9600, 11029.00
452.1490, 10795.00
453.3370, 10856.00
454.5260, 10597.00
455.7150, 10628.00
456.9030, 10689.00
458.0910, 10662.00
459.2800, 10552.00
460.4670, 10550.00
461.6550, 10483.66
462.8430, 10419.00
464.0300, 10389.00
465.2180, 10273.00
466.4050, 10225.00
467.5920, 10177.00
468.7790, 10118.00
469.9650, 10123.00
471.1520, 10025.00
472.3380, 10215.00
473.5250, 9978.000
474.7110, 10180.00
475.8970, 10226.00
477.0820, 10171.00
478.2680, 10173.00
479.4540, 10272.00
480.6390, 10324.00
481.8240, 10307.00
483.0090, 10336.00
484.1940, 10396.00
485.3780, 10368.00
486.5630, 10460.71
487.7470, 10654.00
488.9320, 10622.00
490.1160, 10763.00
491.3000, 10875.00
492.4830, 10962.00
493.6670, 11070.00
494.8500, 11166.00
496.0340, 11318.00
497.2170, 11479.00
498.4000, 11625.00
499.5820, 11730.00
500.7650, 11760.00
501.9480, 11939.00
503.1300, 11944.00
504.3120, 12081.00
505.4940, 12291.00
506.6760, 12199.00
507.8580, 12343.00
509.0390, 12544.00
510.2210, 12499.58
511.4020, 12629.00
512.5830, 12640.00
513.7640, 12778.00
514.9450, 13023.00
516.1250, 13154.00
517.3060, 13247.23
518.4860, 13389.00
519.6660, 13354.27
520.8460, 13426.00
522.0260, 13420.00
523.2060, 13646.00
524.3850, 13690.00
525.5650, 13832.00
526.7440, 13862.00
527.9230, 14060.00
529.1020, 14013.00
530.2810, 14124.00
531.4590, 14060.00
532.6380, 14113.00
533.8160, 14318.00
534.9940, 14190.00
536.1720, 14253.00
537.3500, 14110.00
538.5270, 14157.00
539.7050, 14055.00
540.8820, 14167.00
542.0590, 13921.00
543.2360, 13954.00
544.4130, 13967.00
545.5900, 13804.00
546.7660, 13704.00
547.9430, 13679.00
549.1190, 13568.00
550.2950, 13477.00
551.4710, 13466.00
552.6470, 13395.00
553.8220, 13352.00
554.9980, 13414.00
556.1730, 13234.00
557.3480, 13162.00
558.5230, 13022.00
559.6980, 13080.00
560.8730, 12850.00
562.0470, 12737.00
563.2220, 12597.00
564.3960, 12679.00
565.5700, 12542.00
566.7440, 12348.00
567.9170, 12329.00
569.0910, 12185.00
570.2640, 12033.00
571.4380, 11906.00
572.6110, 11751.36
573.7840, 11686.00
574.9570, 11435.00
576.1290, 11300.00
577.3020, 11101.00
578.4740, 11063.00
579.6460, 10777.00
580.8180, 10725.00
581.9900, 10511.00
583.1620, 10447.00
584.3330, 10167.00
585.5040, 10001.00
586.6760, 10007.00
587.8470, 9988.000
589.0180, 9996.000
590.1880, 9731.000
591.3590, 9538.000
592.5290, 9605.000
593.7000, 9565.000
594.8700, 9625.000
596.0400, 9575.000
597.2090, 9545.378
598.3790, 9516.507
599.5490, 9443.000
600.7180, 9447.000
601.8870, 9388.000
603.0560, 9441.000
604.2250, 9467.000
605.3940, 9537.000
606.5620, 9566.000
607.7300, 9376.000
608.8990, 9464.000
610.0670, 9478.000
611.2350, 9588.000
612.4020, 9568.000
613.5700, 9763.000
614.7370, 9618.000
615.9050, 9757.000
617.0720, 9600.000
618.2390, 9628.000
619.4060, 9814.000
620.5720, 9937.000
621.7390, 9971.000
622.9050, 10024.00
624.0710, 10013.00
625.2370, 10095.00
626.4030, 10123.00
627.5690, 10254.00
628.7340, 10332.00
629.9000, 10483.00
631.0650, 10490.00
632.2300, 10556.00
633.3950, 10585.00
634.5600, 10708.00
635.7240, 10647.00
636.8890, 11000.00
638.0530, 11069.00
639.2170, 11092.00
640.3810, 11256.00
641.5450, 11365.00
642.7080, 11524.00
643.8720, 11679.00
645.0350, 11880.00
646.1980, 11929.00
647.3610, 12269.00
648.5240, 12281.00
649.6870, 12498.00
650.8490, 12812.00
652.0120, 13133.00
653.1740, 13363.00
654.3360, 13758.00
655.4980, 14022.00
656.6600, 14331.00
657.8210, 14793.00
658.9830, 15262.00
660.1440, 15745.00
661.3050, 16402.00
662.4660, 16770.00
663.6270, 17329.00
664.7870, 17920.00
665.9480, 18125.00
667.1080, 18203.00
668.2680, 18377.00
669.4280, 18289.00
670.5880, 18074.00
671.7480, 17680.00
672.9070, 17356.33
674.0670, 16909.05
675.2260, 16538.00
676.3850, 15908.00
677.5440, 15641.00
678.7030, 15104.00
679.8610, 14729.00
681.0200, 14432.00
682.1780, 14095.00
683.3360, 13887.00
684.4940, 13545.00
685.6520, 13230.00
686.8090, 13146.00
687.9670, 12944.00
689.1240, 12879.00
690.2810, 12762.00
691.4380, 12792.00
692.5950, 12613.00
693.7520, 12468.00
694.9080, 12555.00
696.0650, 12512.00
697.2210, 12686.00
698.3770, 12517.00
699.5330, 12475.00
700.6880, 12455.00
701.8440, 12791.00
702.9990, 12725.00
704.1550, 12766.00
705.3100, 12978.00
706.4650, 13001.00
707.6190, 13212.00
708.7740, 13376.00
709.9290, 13483.00
711.0830, 13759.00
712.2370, 13783.00
713.3910, 13814.00
714.5450, 13973.00
715.6980, 14137.00
716.8520, 14388.03
718.0050, 14340.81
719.1580, 14455.00
720.3110, 14323.00
721.4640, 14418.00
722.6170, 14554.00
723.7700, 14400.00
724.9220, 14535.00
726.0740, 14523.00
727.2260, 14544.00
728.3780, 14519.68
729.5300, 14454.00
730.6810, 14363.00
731.8330, 14365.00
732.9840, 14225.00
734.1350, 14368.00
735.2860, 14206.00
736.4370, 14085.00
737.5880, 14056.00
738.7380, 13765.00
739.8880, 13705.00
741.0390, 13546.00
742.1890, 13482.00
743.3380, 13331.99
744.4880, 13095.00
745.6380, 13005.00
746.7870, 12839.00
747.9360, 12602.00
749.0850, 12572.00
750.2340, 12429.00
751.3830, 12209.00
752.5310, 12257.00
753.6800, 12066.00
754.8280, 12055.00
755.9760, 11938.00
757.1240, 11909.00
758.2720, 11745.00
759.4190, 11621.00
760.5670, 11675.00
761.7140, 11584.15
762.8610, 11635.00
764.0080, 11547.00
765.1550, 11602.00
766.3020, 11541.00
767.4480, 11629.00
768.5950, 11520.00
769.7410, 11596.00
770.8870, 11622.00
772.0330, 11500.00
773.1780, 11564.00
774.3240, 11531.00
775.4690, 11607.00
776.6140, 11655.00
777.7590, 11493.00
778.9040, 11398.00
780.0490, 11398.00
781.1940, 11448.00
782.3380, 11374.44
783.4820, 11528.00
784.6260, 11328.00
785.7700, 11481.00
786.9140, 11514.00
788.0580, 11328.00
789.2010, 11357.00
790.3450, 11318.00
791.4880, 11318.00
792.6310, 11283.00
793.7730, 11306.00
794.9160, 11111.00
796.0590, 11157.00
797.2010, 11043.00
798.3430, 10904.00
799.4850, 10878.00
800.6270, 10925.00
801.7690, 10819.00
802.9100, 10941.00
804.0520, 10809.00
805.1930, 10662.00
806.3340, 10754.00
807.4750, 10600.00
808.6160, 10626.00
809.7560, 10497.00
810.8970, 10640.00
812.0370, 10480.00
813.1770, 10432.00
814.3170, 10515.00
815.4570, 10423.00
816.5960, 10454.00
817.7360, 10377.00
818.8750, 10330.00
820.0140, 10334.00
821.1530, 10299.00
822.2920, 10203.00
823.4310, 10364.00
824.5690, 10233.60
825.7070, 10195.00
826.8460, 10098.00
827.9840, 10184.00
829.1220, 10095.00
830.2590, 10161.00
831.3970, 10072.00
832.5340, 10019.00
833.6710, 9994.000
834.8080, 9965.103
835.9450, 9978.131
837.0820, 9995.000
838.2190, 10011.00
839.3550, 10106.53
840.4910, 10089.00
841.6270, 10166.00
842.7630, 10347.00
843.8990, 10138.00
845.0350, 10263.00
846.1700, 10230.00
847.3060, 10027.00
848.4410, 10228.00
849.5760, 10249.00
850.7100, 10320.00
851.8450, 10327.00
852.9800, 10419.00
854.1140, 10247.00
855.2480, 10353.00
856.3820, 10354.00
857.5160, 10400.00
858.6500, 10443.00
859.7830, 10421.00
860.9170, 10468.00
862.0500, 10448.00
863.1830, 10434.00
864.3160, 10556.00
865.4480, 10377.00
866.5810, 10597.00
867.7130, 10678.00
868.8460, 10567.00
869.9780, 10648.00
871.1100, 10667.00
872.2410, 10656.00
873.3730, 10709.00
874.5050, 10774.00
875.6360, 10695.00
876.7670, 10796.00
877.8980, 10854.00
879.0290, 10852.00
880.1590, 10948.00
881.2900, 10985.00
882.4200, 11025.00
883.5500, 11059.80
884.6800, 11068.38
885.8100, 11092.00
886.9400, 11088.00
888.0690, 11103.00
889.1990, 11140.00
890.3280, 11302.00
891.4570, 11190.00
892.5860, 11317.00
893.7140, 11183.00
894.8430, 11298.00
895.9710, 11211.00
897.1000, 11275.00
898.2280, 11119.00
899.3560, 11329.00
900.4830, 11309.00
901.6110, 11387.00
902.7380, 11251.00
903.8660, 11277.00
904.9930, 11333.00
906.1200, 11201.00
907.2460, 11244.00
908.3730, 11270.00
909.5000, 11220.00
910.6260, 11388.00
911.7520, 11432.00
912.8780, 11342.00
914.0040, 11304.00
915.1290, 11363.00
916.2550, 11303.00
917.3800, 11490.00
918.5050, 11468.85
919.6300, 11493.24
920.7550, 11506.00
921.8800, 11529.00
923.0040, 11474.00
924.1290, 11524.00
925.2530, 11369.00
926.3770, 11511.00
927.5010, 11397.00
928.6250, 11409.00
929.7480, 11586.00
930.8720, 11482.00
931.9950, 11425.00
933.1180, 11433.00
934.2410, 11461.00
935.3640, 11518.00
936.4860, 11563.00
937.6090, 11582.37
938.7310, 11460.00
939.8530, 11603.00
940.9750, 11534.00
942.0970, 11496.00
943.2180, 11634.00
944.3400, 11358.25
945.4610, 11597.99
946.5820, 11749.14
947.7030, 11816.47
948.8240, 11548.91
949.9450, 11713.79
951.0650, 11705.34
952.1860, 11689.81
953.3060, 11915.52
954.4260, 11696.63
955.5460, 11918.52
956.6650, 11828.00
957.7850, 11821.00
958.9040, 11809.00
960.0230, 11810.20
961.1420, 11837.90
962.2610, 11855.00
963.3800, 11911.00
964.4990, 11945.00
965.6170, 11984.00
966.7350, 11971.00
967.8530, 11870.00
968.9710, 11948.00
970.0890, 11979.00
971.2070, 11934.00
972.3240, 12041.00
973.4410, 11983.00
974.5580, 12037.00
975.6750, 11927.00
976.7920, 12125.00
977.9090, 11995.00
979.0250, 12007.00
980.1410, 12105.00
981.2580, 12162.00
982.3740, 12277.00
983.4890, 12279.88
984.6050, 12322.00
985.7200, 12287.00
986.8360, 12381.00
987.9510, 12391.00
989.0660, 12408.00
990.1810, 12489.00
991.2950, 12755.00
992.4100, 12710.00
993.5240, 12760.00
994.6390, 12589.00
995.7530, 12692.00
996.8660, 12894.00
997.9800, 12982.00
999.0940, 13007.00
1000.207, 13073.00
1001.320, 13137.04
1002.433, 13180.89
1003.546, 13242.49
1004.659, 13261.70
1005.772, 13266.00
1006.884, 13244.00
1007.996, 13201.00
1009.108, 13306.00
1010.220, 13246.00
1011.332, 13302.00
1012.444, 13461.00
1013.555, 13188.00
1014.666, 13346.00
1015.777, 13417.00
1016.888, 13429.00
1017.999, 13432.00
1019.110, 13466.33
1020.220, 13326.00
1021.331, 13453.00
1022.441, 13418.00
1023.551, 13318.00
1024.661, 13440.00
1025.770, 13301.00
1026.880, 13385.32
1027.989, 13483.00
1029.098, 13426.00
1030.207, 13442.00
1031.316, 13302.00
1032.425, 13345.00
1033.533, 13306.00
1034.642, 13281.00
1035.750, 13229.00
1036.858, 13210.58
1037.966, 13211.00
1039.073, 13180.00
1040.181, 13177.00
1041.288, 13196.00
1042.396, 13073.00
1043.503, 12917.00
1044.610, 13007.00
1045.716, 13001.00
1046.823, 12844.00
1047.929, 12938.00
1049.036, 12937.00
1050.142, 12750.00
1051.248, 12867.00
1052.353, 12783.00
1053.459, 12750.00
1054.564, 12804.00
1055.670, 12702.00
1056.775, 12702.00
1057.880, 12797.00
1058.985, 12621.00
1060.089, 12564.00
1061.194, 12630.00
1062.298, 12580.00
1063.402, 12539.00
1064.506, 12590.00
1065.610, 12469.00
1066.713, 12388.00
1067.817, 12355.00
1068.920, 12318.00
1070.023, 12260.00
1071.126, 12211.00
1072.229, 12269.00
1073.332, 12339.00
1074.435, 12082.00
1075.537, 11992.00
1076.639, 12136.00
1077.741, 12054.00
1078.843, 11826.00
1079.945, 12075.00
1081.046, 11973.00
1082.148, 11804.00
1083.249, 11988.00
1084.350, 11898.00
1085.451, 11786.00
1086.551, 11827.00
1087.652, 11768.00
1088.752, 11683.00
1089.853, 11707.00
1090.953, 11641.00
1092.053, 11586.00
1093.152, 11539.00
1094.252, 11565.00
1095.351, 11432.00
1096.451, 11481.00
1097.550, 11453.00
1098.649, 11544.00
1099.748, 11316.00
1100.846, 11340.00
1101.945, 11088.00
1103.043, 11265.00
1104.141, 11207.00
1105.239, 11138.00
1106.337, 11168.00
1107.434, 10901.59
1108.532, 11071.38
1109.629, 11152.61
1110.726, 11150.03
1111.823, 10812.54
1112.920, 10907.50
1114.017, 10829.16
1115.113, 10743.74
1116.210, 10899.57
1117.306, 10610.83
1118.402, 10762.86
1119.498, 10738.94
1120.593, 10795.58
1121.689, 10677.82
1122.784, 10613.94
1123.879, 10724.49
1124.974, 10738.46
1126.069, 10600.65
1127.164, 10662.41
1128.259, 10367.60
1129.353, 10385.72
1130.447, 10538.83
1131.541, 10409.82
1132.635, 10474.79
1133.729, 10465.88
1134.822, 10121.25
1135.916, 10360.50
1137.009, 10253.00
1138.102, 10211.00
1139.195, 10107.00
1140.288, 10227.00
1141.380, 10242.00
1142.473, 10191.00
1143.565, 10101.00
1144.657, 10102.00
1145.749, 10041.00
1146.841, 10087.00
1147.932, 10129.00
1149.024, 10202.00
1150.115, 10163.00
1151.206, 10161.00
1152.297, 10147.95
1153.388, 10090.00
1154.479, 10066.00
1155.569, 10002.00
1156.659, 9926.000
1157.750, 10034.00
1158.839, 10062.00
1159.929, 9988.000
1161.019, 9952.000
1162.108, 10027.00
1163.198, 9925.000
1164.287, 9960.000
1165.376, 9794.000
1166.465, 9792.000
1167.553, 9863.000
1168.642, 9853.000
1169.730, 9924.000
1170.818, 9885.000
1171.906, 9916.000
1172.994, 9904.000
1174.082, 9952.000
1175.170, 9992.000
1176.257, 9983.000
1177.344, 9952.000
1178.431, 9808.000
1179.518, 9894.000
1180.605, 9886.000
1181.691, 10002.00
1182.778, 9878.000
1183.864, 9750.000
1184.950, 9952.000
1186.036, 9758.000
1187.122, 9963.000
1188.207, 9842.000
1189.292, 9737.000
1190.378, 9917.000
1191.463, 9748.000
1192.548, 9794.000
1193.632, 9775.000
1194.717, 9893.000
1195.801, 9797.000
1196.886, 9887.000
1197.970, 9928.000
1199.054, 9863.000
1200.137, 9925.000
1201.221, 9883.000
1202.305, 9785.000
1203.388, 9868.000
1204.471, 9828.000
1205.554, 9830.000
1206.637, 9808.000
1207.719, 9857.000
1208.802, 9824.000
1209.884, 9854.393
1210.966, 9895.019
1212.048, 9870.000
1213.130, 9942.000
1214.212, 9896.000
1215.293, 9815.000
1216.374, 9903.000
1217.456, 9881.000
1218.536, 9889.000
1219.617, 9822.000
1220.698, 9851.000
1221.778, 9912.000
1222.859, 9888.000
1223.939, 9858.000
1225.019, 9922.000
1226.099, 9889.000
1227.178, 9943.000
1228.258, 10014.00
1229.337, 9957.000
1230.417, 9884.000
1231.496, 9876.000
1232.574, 9860.401
1233.653, 9856.936
1234.732, 9888.000
1235.810, 9870.000
1236.888, 9896.000
1237.966, 9863.000
1239.044, 9812.000
1240.122, 9932.000
1241.199, 9932.000
1242.277, 9906.000
1243.354, 9944.000
1244.431, 9889.000
1245.508, 10005.00
1246.585, 9967.000
1247.661, 9879.000
1248.738, 9953.000
1249.814, 9992.000
1250.890, 9897.000
1251.966, 9861.000
1253.042, 9953.000
1254.117, 9873.000
1255.193, 9862.000
1256.268, 9959.000
1257.343, 9887.000
1258.418, 10024.00
1259.493, 9975.000
1260.567, 9977.000
1261.642, 9766.000
1262.716, 9930.000
1263.790, 9830.000
1264.864, 9831.000
1265.938, 10018.00
1267.011, 9905.000
1268.085, 9938.000
1269.158, 9837.000
1270.231, 9892.000
1271.304, 9808.000
1272.377, 9818.000
1273.450, 9841.000
1274.522, 9783.000
1275.594, 9873.000
1276.666, 9939.000
1277.738, 9797.000
1278.810, 9798.000
1279.882, 9931.000
1280.953, 9883.000
1282.025, 9964.000
1283.096, 9842.000
1284.167, 9966.000
1285.238, 9851.000
1286.308, 9863.000
1287.379, 9852.000
1288.449, 9927.000
1289.519, 9945.000
1290.589, 9828.000
1291.659, 9923.000
1292.729, 9965.000
1293.798, 9824.000
1294.868, 10032.00
1295.937, 10012.00
1297.006, 9871.000
1298.075, 9867.000
1299.143, 9853.000
1300.212, 9780.000
1301.280, 9899.000
1302.348, 9992.000
1303.416, 9898.000
1304.484, 9902.000
1305.552, 10039.00
1306.620, 9970.000
1307.687, 9957.000
1308.754, 10000.09
1309.821, 9968.000
1310.888, 9998.000
1311.955, 9966.000
1313.021, 9917.000
1314.088, 9949.673
1315.154, 9890.726
1316.220, 9907.189
1317.286, 9838.000
1318.352, 9940.000
1319.417, 9965.000
1320.483, 10020.00
1321.548, 10019.00
1322.613, 9905.000
1323.678, 9928.000
1324.743, 9960.000
1325.807, 9963.444
1326.872, 10046.00
1327.936, 10021.00
1329.000, 9976.000
1330.064, 9906.000
1331.128, 9982.000
1332.191, 9956.344
1333.255, 9956.146
1334.318, 10006.00
1335.381, 9969.000
1336.444, 9985.000
1337.507, 10015.00
1338.569, 9998.303
1339.632, 10013.00
1340.694, 9990.000
1341.756, 9975.000
1342.818, 9943.000
1343.880, 9910.000
1344.941, 9891.000
1346.003, 9844.000
1347.064, 9941.000
1348.125, 10024.00
1349.186, 9973.000
1350.247, 10039.00
1351.308, 9914.000
1352.368, 9949.000
1353.428, 9748.156
1354.489, 9953.472
