##NAMES=Edenite
##RRUFFID=R060029
##IDEAL CHEMISTRY=NaCa_2_Mg_5_(Si_7_Al)O_22_(OH)_2_
##LOCALITY=Renfrew County, Ontario, Canada
##OWNER=RRUFF
##SOURCE=University of Arizona Mineral Museum
##DESCRIPTION=Black prismatic
##STATUS=The identification of this mineral has been confirmed by X-ray diffraction and chemical analysis
##URL=rruff.info/R060029
##MEASURED CHEMISTRY=(Na_0.62_K_0.34_[box]_0.04_)(Ca_0.86_Na_0.14_)_2_(Mg_0.57_Fe^2+^_0.30_Fe^3+^_0.07_Al_0.05_Ti_0.01_Mn_0.01_)_5_(Si_6.61_Al_1.39_)O_22_((OH)_0.69_F_0.31_)_2_
##PIN_ID=M00412
##ORIENTATION=Laser parallel to c* (0 0 1). Fiducial mark perpendicular to laser is parallel to a [1 0 0]
132.8980, 13119.00
134.1270, 12781.00
135.3560, 13000.00
136.5850, 13193.00
137.8140, 13742.00
139.0430, 14450.00
140.2710, 14972.00
141.5000, 14909.00
142.7280, 15238.00
143.9560, 16017.00
145.1840, 17286.00
146.4120, 18833.00
147.6390, 20960.00
148.8670, 23855.00
150.0940, 26886.00
151.3210, 31349.00
152.5490, 35490.00
153.7750, 37417.00
155.0020, 37226.00
156.2290, 35372.00
157.4550, 31913.00
158.6810, 28687.00
159.9080, 25774.00
161.1340, 23293.00
162.3590, 21893.00
163.5850, 20883.00
164.8110, 20267.00
166.0360, 19632.00
167.2610, 19244.27
168.4860, 18998.66
169.7110, 18953.00
170.9360, 18860.00
172.1610, 19107.00
173.3850, 19247.00
174.6100, 19511.00
175.8340, 19799.00
177.0580, 20313.00
178.2820, 20618.00
179.5050, 20664.00
180.7290, 20851.00
181.9520, 20463.00
183.1760, 20257.00
184.3990, 20026.00
185.6220, 19651.00
186.8450, 19902.00
188.0670, 18914.00
189.2900, 18596.00
190.5120, 18567.00
191.7340, 18596.00
192.9560, 18573.00
194.1780, 18568.00
195.4000, 19026.00
196.6220, 19140.00
197.8430, 19553.00
199.0640, 19649.00
200.2860, 20394.00
201.5070, 21409.00
202.7270, 22021.00
203.9480, 22206.00
205.1690, 21974.00
206.3890, 22159.00
207.6090, 22886.00
208.8290, 24146.00
210.0490, 25266.00
211.2690, 27233.00
212.4890, 29301.00
213.7080, 31802.00
214.9280, 34210.00
216.1470, 36745.00
217.3660, 39750.00
218.5850, 42081.00
219.8030, 44723.00
221.0220, 46572.00
222.2400, 47510.00
223.4590, 47439.00
224.6770, 46623.00
225.8950, 45694.00
227.1120, 43644.00
228.3300, 41980.00
229.5480, 40092.00
230.7650, 38295.00
231.9820, 36557.00
233.1990, 34937.00
234.4160, 33272.00
235.6330, 32185.00
236.8490, 30814.00
238.0660, 29457.00
239.2820, 28581.00
240.4980, 27537.00
241.7140, 26643.00
242.9300, 25663.00
244.1460, 24852.00
245.3610, 24282.00
246.5770, 23677.00
247.7920, 23072.00
249.0070, 22709.00
250.2220, 22234.00
251.4370, 21794.00
252.6510, 21631.00
253.8660, 21103.00
255.0800, 20861.00
256.2940, 20594.00
257.5080, 20658.00
258.7220, 22086.00
259.9360, 20975.59
261.1490, 21271.00
262.3630, 19833.00
263.5760, 19249.00
264.7890, 18994.00
266.0020, 19086.00
267.2150, 18806.00
268.4270, 18844.00
269.6400, 18876.00
270.8520, 18936.00
272.0640, 19148.00
273.2760, 19353.00
274.4880, 19592.00
275.7000, 19782.00
276.9120, 20133.00
278.1230, 20512.00
279.3340, 20685.00
280.5450, 21050.00
281.7560, 21445.62
282.9670, 21765.00
284.1780, 22292.00
285.3880, 22810.00
286.5980, 23228.02
287.8090, 23390.00
289.0190, 23921.00
290.2290, 24124.00
291.4380, 24327.00
292.6480, 24625.00
293.8570, 24653.00
295.0670, 24793.00
296.2760, 24744.00
297.4850, 24593.00
298.6930, 24701.00
299.9020, 24325.00
301.1110, 24166.00
302.3190, 23841.00
303.5270, 23654.00
304.7350, 23104.00
305.9430, 22655.00
307.1510, 22393.00
308.3580, 22084.00
309.5660, 21708.00
310.7730, 21213.00
311.9800, 20759.00
313.1870, 20351.00
314.3940, 19943.60
315.6010, 19628.00
316.8070, 19198.00
318.0130, 18985.00
319.2200, 18617.00
320.4260, 18435.00
321.6310, 18251.00
322.8370, 18516.00
324.0430, 17577.00
325.2480, 17491.00
326.4540, 17728.00
327.6590, 17036.00
328.8640, 16820.00
330.0680, 16769.00
331.2730, 16795.00
332.4780, 16594.00
333.6820, 16493.00
334.8860, 16624.00
336.0900, 17006.00
337.2940, 18300.00
338.4980, 17745.00
339.7010, 17805.00
340.9050, 17306.34
342.1080, 17243.88
343.3110, 17139.00
344.5140, 17108.00
345.7170, 17308.00
346.9200, 17314.00
348.1220, 17427.00
349.3240, 17724.00
350.5270, 17776.00
351.7290, 18049.00
352.9310, 18126.00
354.1320, 18371.00
355.3340, 18393.00
356.5350, 18406.00
357.7370, 18683.00
358.9380, 18629.00
360.1390, 18506.00
361.3400, 18471.00
362.5400, 18531.00
363.7410, 18472.00
364.9410, 18292.00
366.1410, 18495.00
367.3410, 17771.00
368.5410, 17733.00
369.7410, 17680.00
370.9400, 17536.00
372.1400, 17464.00
373.3390, 17452.00
374.5380, 17122.00
375.7370, 17172.00
376.9360, 17050.00
378.1350, 17011.00
379.3330, 16889.00
380.5310, 16416.00
381.7300, 16302.00
382.9280, 15915.00
384.1260, 15837.00
385.3230, 15452.00
386.5210, 15148.00
387.7180, 15027.00
388.9160, 14576.00
390.1130, 14312.00
391.3100, 14101.00
392.5060, 14008.00
393.7030, 13624.00
394.9000, 13637.00
396.0960, 13398.00
397.2920, 13242.00
398.4880, 13245.00
399.6840, 12928.00
400.8800, 12869.00
402.0750, 12825.00
403.2710, 12672.00
404.4660, 12679.00
405.6610, 12536.00
406.8560, 12343.00
408.0510, 12568.00
409.2450, 12354.00
410.4400, 12337.00
411.6340, 12432.00
412.8280, 12387.00
414.0220, 12398.94
415.2160, 12494.55
416.4100, 12420.00
417.6030, 12662.00
418.7970, 12795.00
419.9900, 12865.00
421.1830, 13023.00
422.3760, 13170.00
423.5690, 13744.00
424.7610, 14001.00
425.9540, 14099.00
427.1460, 14319.00
428.3380, 14505.00
429.5300, 14726.00
430.7220, 14812.00
431.9140, 14769.00
433.1050, 14592.00
434.2970, 14526.00
435.4880, 14554.00
436.6790, 14435.00
437.8700, 14338.00
439.0610, 14251.58
440.2510, 14140.48
441.4420, 14037.00
442.6320, 13966.00
443.8220, 13931.00
445.0120, 13911.00
446.2020, 13815.64
447.3910, 13751.43
448.5810, 13644.00
449.7700, 13564.00
450.9600, 13477.00
452.1490, 13379.39
453.3370, 13281.74
454.5260, 13223.00
455.7150, 13010.00
456.9030, 12869.00
458.0910, 12599.00
459.2800, 12604.00
460.4670, 12542.00
461.6550, 12260.00
462.8430, 12220.00
464.0300, 12215.00
465.2180, 12068.00
466.4050, 12026.00
467.5920, 11834.00
468.7790, 11895.00
469.9650, 11669.00
471.1520, 11714.00
472.3380, 11753.00
473.5250, 11550.00
474.7110, 11569.00
475.8970, 11583.00
477.0820, 11533.00
478.2680, 11546.00
479.4540, 11584.00
480.6390, 11639.00
481.8240, 11502.00
483.0090, 11469.00
484.1940, 11421.00
485.3780, 11504.00
486.5630, 11515.00
487.7470, 11551.00
488.9320, 11459.00
490.1160, 11503.00
491.3000, 11604.98
492.4830, 11946.00
493.6670, 11888.00
494.8500, 12060.00
496.0340, 12236.00
497.2170, 12113.00
498.4000, 12350.00
499.5820, 12548.00
500.7650, 12697.00
501.9480, 12949.00
503.1300, 13100.00
504.3120, 12959.00
505.4940, 13165.00
506.6760, 13263.00
507.8580, 13407.00
509.0390, 13539.77
510.2210, 13537.00
511.4020, 13778.00
512.5830, 13943.00
513.7640, 14070.00
514.9450, 14907.00
516.1250, 15330.00
517.3060, 15604.00
518.4860, 15334.00
519.6660, 15188.00
520.8460, 15514.00
522.0260, 16081.00
523.2060, 16396.00
524.3850, 16857.00
525.5650, 17461.00
526.7440, 17969.00
527.9230, 18228.00
529.1020, 18669.00
530.2810, 19066.00
531.4590, 19036.00
532.6380, 19319.00
533.8160, 19143.00
534.9940, 19295.00
536.1720, 19021.00
537.3500, 18863.63
538.5270, 18691.75
539.7050, 18436.00
540.8820, 18061.00
542.0590, 17969.00
543.2360, 17421.00
544.4130, 17391.00
545.5900, 17117.00
546.7660, 16691.00
547.9430, 16790.00
549.1190, 16199.00
550.2950, 16019.00
551.4710, 15627.00
552.6470, 15715.00
553.8220, 15000.00
554.9980, 14774.00
556.1730, 14303.00
557.3480, 14065.00
558.5230, 14017.00
559.6980, 13625.00
560.8730, 13422.00
562.0470, 13268.00
563.2220, 12932.00
564.3960, 12922.00
565.5700, 12550.00
566.7440, 12447.00
567.9170, 12350.00
569.0910, 12087.00
570.2640, 12031.00
571.4380, 11949.00
572.6110, 11886.00
573.7840, 11664.00
574.9570, 11598.00
576.1290, 11474.00
577.3020, 11446.00
578.4740, 11270.00
579.6460, 11206.00
580.8180, 10998.25
581.9900, 10802.17
583.1620, 10594.00
584.3330, 10351.00
585.5040, 10222.00
586.6760, 10018.00
587.8470, 9854.000
589.0180, 9582.000
590.1880, 9444.000
591.3590, 9197.000
592.5290, 9111.000
593.7000, 8969.000
594.8700, 8906.000
596.0400, 8875.000
597.2090, 8841.957
598.3790, 8857.000
599.5490, 8893.000
600.7180, 8895.000
601.8870, 8991.000
603.0560, 9086.000
604.2250, 9086.000
605.3940, 9239.000
606.5620, 9433.000
607.7300, 9550.000
608.8990, 9652.000
610.0670, 9921.000
611.2350, 10045.00
612.4020, 10212.00
613.5700, 10310.00
614.7370, 10718.00
615.9050, 10799.00
617.0720, 11224.00
618.2390, 11256.00
619.4060, 11877.00
620.5720, 12047.00
621.7390, 12411.00
622.9050, 12703.00
624.0710, 13082.00
625.2370, 13458.00
626.4030, 13893.00
627.5690, 14353.00
628.7340, 14628.00
629.9000, 15137.00
631.0650, 15766.00
632.2300, 16052.00
633.3950, 16552.00
634.5600, 16901.00
635.7240, 17371.00
636.8890, 17820.00
638.0530, 18348.01
639.2170, 18783.00
640.3810, 19551.00
641.5450, 20080.00
642.7080, 20822.00
643.8720, 21460.00
645.0350, 22455.00
646.1980, 23336.00
647.3610, 24144.75
648.5240, 25393.00
649.6870, 26061.00
650.8490, 26866.00
652.0120, 28231.00
653.1740, 29681.00
654.3360, 31085.00
655.4980, 33094.00
656.6600, 34666.00
657.8210, 37218.00
658.9830, 39592.00
660.1440, 42172.00
661.3050, 44853.00
662.4660, 47695.00
663.6270, 50231.00
664.7870, 52664.00
665.9480, 54196.00
667.1080, 55452.00
668.2680, 55740.00
669.4280, 55634.00
670.5880, 54379.00
671.7480, 52507.00
672.9070, 50432.00
674.0670, 47238.00
675.2260, 44245.00
676.3850, 41151.00
677.5440, 37960.00
678.7030, 35089.00
679.8610, 32302.00
681.0200, 30232.00
682.1780, 27917.00
683.3360, 25868.00
684.4940, 24343.00
685.6520, 22620.00
686.8090, 21334.00
687.9670, 20130.24
689.1240, 19120.00
690.2810, 18045.00
691.4380, 17191.00
692.5950, 16163.00
693.7520, 15584.00
694.9080, 14836.00
696.0650, 14103.00
697.2210, 13607.00
698.3770, 13118.00
699.5330, 12691.00
700.6880, 12128.00
701.8440, 11942.00
702.9990, 11654.00
704.1550, 11357.00
705.3100, 11273.00
706.4650, 11167.00
707.6190, 11014.00
708.7740, 10903.00
709.9290, 10855.00
711.0830, 10785.00
712.2370, 10816.00
713.3910, 10717.00
714.5450, 10904.00
715.6980, 10750.00
716.8520, 10800.00
718.0050, 10711.00
719.1580, 10533.39
720.3110, 10654.69
721.4640, 10700.65
722.6170, 10675.35
723.7700, 10365.27
724.9220, 10422.96
726.0740, 10333.28
727.2260, 10237.56
728.3780, 10347.00
729.5300, 10078.39
730.6810, 10184.62
731.8330, 10141.19
732.9840, 10166.29
734.1350, 10043.11
735.2860, 9965.722
736.4370, 10036.66
737.5880, 10025.47
738.7380, 9885.265
739.8880, 9914.752
741.0390, 9641.008
742.1890, 9633.359
743.3380, 9530.000
744.4880, 9481.000
745.6380, 9471.000
746.7870, 9372.000
747.9360, 9250.000
749.0850, 9096.000
750.2340, 9043.941
751.3830, 8959.494
752.5310, 8887.000
753.6800, 8895.000
754.8280, 8755.000
755.9760, 8785.000
757.1240, 8797.000
758.2720, 8790.000
759.4190, 8805.000
760.5670, 8706.000
761.7140, 8717.000
762.8610, 8694.000
764.0080, 8848.000
765.1550, 8882.000
766.3020, 8910.000
767.4480, 8972.791
768.5950, 9006.063
769.7410, 9032.000
770.8870, 9072.000
772.0330, 9126.000
773.1780, 9109.000
774.3240, 9176.000
775.4690, 9238.000
776.6140, 9324.000
777.7590, 9326.000
778.9040, 9416.000
780.0490, 9421.000
781.1940, 9369.000
782.3380, 9426.000
783.4820, 9418.000
784.6260, 9590.000
785.7700, 9492.409
786.9140, 9509.861
788.0580, 9408.000
789.2010, 9438.000
790.3450, 9497.000
791.4880, 9495.000
792.6310, 9466.000
793.7730, 9357.000
794.9160, 9362.281
796.0590, 9342.000
797.2010, 9321.000
798.3430, 9303.000
799.4850, 9319.000
800.6270, 9185.000
801.7690, 9196.000
802.9100, 9187.000
804.0520, 9203.000
805.1930, 9229.000
806.3340, 9219.000
807.4750, 9011.000
808.6160, 9191.000
809.7560, 9297.000
810.8970, 9426.000
812.0370, 9089.000
813.1770, 9050.000
814.3170, 9049.000
815.4570, 8955.000
816.5960, 9007.000
817.7360, 9045.000
818.8750, 8947.000
820.0140, 8966.000
821.1530, 8927.000
822.2920, 8918.000
823.4310, 8806.000
824.5690, 8748.000
825.7070, 8711.000
826.8460, 8649.000
827.9840, 8638.000
829.1220, 8522.000
830.2590, 8466.000
831.3970, 8354.000
832.5340, 8438.000
833.6710, 8361.000
834.8080, 8306.000
835.9450, 8240.000
837.0820, 8217.000
838.2190, 8111.000
839.3550, 8229.000
840.4910, 8242.000
841.6270, 8086.000
842.7630, 8227.000
843.8990, 8193.000
845.0350, 8201.000
846.1700, 8208.000
847.3060, 8238.266
848.4410, 8276.000
849.5760, 8339.417
850.7100, 8373.000
851.8450, 8439.000
852.9800, 8333.000
854.1140, 8378.000
855.2480, 8373.000
856.3820, 8390.000
857.5160, 8479.000
858.6500, 8423.000
859.7830, 8528.000
860.9170, 8613.000
862.0500, 8544.000
863.1830, 8660.000
864.3160, 8692.000
865.4480, 8797.000
866.5810, 8972.000
867.7130, 8988.000
868.8460, 9067.000
869.9780, 9245.000
871.1100, 9396.000
872.2410, 9373.000
873.3730, 9472.000
874.5050, 9751.000
875.6360, 9646.000
876.7670, 9916.000
877.8980, 9849.000
879.0290, 10015.00
880.1590, 10199.00
881.2900, 10404.00
882.4200, 10544.40
883.5500, 10734.00
884.6800, 10881.00
885.8100, 11048.00
886.9400, 11302.00
888.0690, 11532.00
889.1990, 11692.00
890.3280, 11915.00
891.4570, 12183.00
892.5860, 12292.00
893.7140, 12507.00
894.8430, 12760.00
895.9710, 12834.00
897.1000, 13192.00
898.2280, 13337.00
899.3560, 13451.00
900.4830, 13716.00
901.6110, 13894.00
902.7380, 14107.39
903.8660, 14321.00
904.9930, 14534.00
906.1200, 14674.00
907.2460, 14830.00
908.3730, 15024.00
909.5000, 15190.78
910.6260, 15418.00
911.7520, 15600.00
912.8780, 15815.00
914.0040, 16095.00
915.1290, 16210.00
916.2550, 16277.00
917.3800, 16525.00
918.5050, 16632.00
919.6300, 16627.00
920.7550, 16627.00
921.8800, 16614.00
923.0040, 16683.00
924.1290, 16585.00
925.2530, 16307.00
926.3770, 16312.00
927.5010, 16222.00
928.6250, 16058.00
929.7480, 16077.00
930.8720, 16123.00
931.9950, 15861.00
933.1180, 15962.00
934.2410, 15973.00
935.3640, 15763.00
936.4860, 15662.00
937.6090, 15637.00
938.7310, 15529.00
939.8530, 15513.06
940.9750, 15419.00
942.0970, 15499.00
943.2180, 15571.00
944.3400, 15628.00
945.4610, 15650.00
946.5820, 15596.00
947.7030, 15580.00
948.8240, 15538.00
949.9450, 15683.00
951.0650, 15554.00
952.1860, 15714.00
953.3060, 15623.22
954.4260, 15570.00
955.5460, 15555.00
956.6650, 15532.00
957.7850, 15657.00
958.9040, 15614.00
960.0230, 15617.00
961.1420, 15573.00
962.2610, 15493.00
963.3800, 15621.00
964.4990, 15633.00
965.6170, 15584.00
966.7350, 15401.00
967.8530, 15419.00
968.9710, 15402.00
970.0890, 15246.00
971.2070, 15254.00
972.3240, 15179.00
973.4410, 15021.00
974.5580, 15120.00
975.6750, 15000.00
976.7920, 14915.00
977.9090, 14944.00
979.0250, 14981.00
980.1410, 14875.00
981.2580, 14950.04
982.3740, 15009.00
983.4890, 15003.00
984.6050, 15091.00
985.7200, 15109.00
986.8360, 15166.00
987.9510, 15456.00
989.0660, 15426.66
990.1810, 15682.00
991.2950, 15534.00
992.4100, 15865.00
993.5240, 15919.00
994.6390, 16232.00
995.7530, 16566.00
996.8660, 16622.00
997.9800, 17013.00
999.0940, 17129.00
1000.207, 17433.00
1001.320, 17550.00
1002.433, 18005.00
1003.546, 18219.00
1004.659, 18340.00
1005.772, 18703.00
1006.884, 19008.00
1007.996, 19379.00
1009.108, 19446.00
1010.220, 19634.00
1011.332, 20046.00
1012.444, 20347.00
1013.555, 20344.00
1014.666, 20680.00
1015.777, 20866.00
1016.888, 21163.00
1017.999, 21144.00
1019.110, 21534.00
1020.220, 21496.00
1021.331, 21674.00
1022.441, 21505.00
1023.551, 21729.00
1024.661, 21853.00
1025.770, 21738.00
1026.880, 21871.00
1027.989, 21792.00
1029.098, 22064.00
1030.207, 21945.00
1031.316, 22013.00
1032.425, 21880.00
1033.533, 21862.00
1034.642, 21716.00
1035.750, 21831.00
1036.858, 21883.00
1037.966, 21803.00
1039.073, 21681.00
1040.181, 21806.00
1041.288, 21595.00
1042.396, 21659.00
1043.503, 21498.00
1044.610, 21634.00
1045.716, 21821.00
1046.823, 22062.00
1047.929, 22209.00
1049.036, 21519.00
1050.142, 21479.00
1051.248, 21686.00
1052.353, 21192.00
1053.459, 21227.00
1054.564, 21184.00
1055.670, 21337.00
1056.775, 20872.00
1057.880, 20500.00
1058.985, 20209.00
1060.089, 19911.00
1061.194, 19537.00
1062.298, 18904.00
1063.402, 18915.00
1064.506, 18374.00
1065.610, 17802.00
1066.713, 17542.00
1067.817, 16958.00
1068.920, 16732.00
1070.023, 16283.00
1071.126, 15918.00
1072.229, 15475.00
1073.332, 15179.00
1074.435, 14732.00
1075.537, 14181.00
1076.639, 13995.00
1077.741, 13793.00
1078.843, 13504.00
1079.945, 13411.00
1081.046, 13089.00
1082.148, 12786.00
1083.249, 12654.00
1084.350, 12502.00
1085.451, 12259.00
1086.551, 12182.00
1087.652, 11830.00
1088.752, 11758.00
1089.853, 11681.00
1090.953, 11371.00
1092.053, 11259.00
1093.152, 11220.00
1094.252, 10941.00
1095.351, 10917.00
1096.451, 10745.00
1097.550, 10715.00
1098.649, 10676.00
1099.748, 10429.00
1100.846, 10281.00
1101.945, 10137.00
1103.043, 9983.635
1104.141, 9887.000
1105.239, 9725.000
1106.337, 9666.000
1107.434, 9500.000
1108.532, 9430.000
1109.629, 9280.000
1110.726, 9119.000
1111.823, 9013.000
1112.920, 8765.000
1114.017, 8771.000
1115.113, 8621.000
1116.210, 8583.000
1117.306, 8550.000
1118.402, 8406.324
1119.498, 8648.000
1120.593, 8323.000
1121.689, 8197.000
1122.784, 8481.000
1123.879, 8097.000
1124.974, 8048.000
1126.069, 7846.000
1127.164, 7752.000
1128.259, 7502.000
1129.353, 7575.000
1130.447, 7524.000
1131.541, 7337.000
1132.635, 7209.000
1133.729, 7184.000
1134.822, 7115.000
1135.916, 6966.000
1137.009, 6947.000
1138.102, 6888.000
1139.195, 6881.000
1140.288, 6845.563
1141.380, 6787.000
1142.473, 6770.000
1143.565, 6778.000
1144.657, 6695.000
1145.749, 6735.000
1146.841, 6694.000
1147.932, 6685.000
1149.024, 6557.000
1150.115, 6640.000
1151.206, 6624.000
1152.297, 6583.000
1153.388, 6624.000
1154.479, 6441.000
1155.569, 6465.000
1156.659, 6408.000
1157.750, 6400.172
1158.839, 6396.000
1159.929, 6473.000
1161.019, 6287.000
1162.108, 6345.000
1163.198, 6283.000
1164.287, 6388.000
1165.376, 6324.000
1166.465, 6319.000
1167.553, 6232.000
1168.642, 6222.909
1169.730, 6286.000
1170.818, 6223.000
1171.906, 6237.000
1172.994, 6327.000
1174.082, 6161.000
1175.170, 6189.000
1176.257, 6271.000
1177.344, 6194.000
1178.431, 6199.000
1179.518, 6130.000
1180.605, 6211.000
1181.691, 6135.000
1182.778, 6179.000
1183.864, 6235.000
1184.950, 6193.000
1186.036, 6224.000
1187.122, 6207.000
1188.207, 6188.000
1189.292, 6175.000
1190.378, 6151.000
1191.463, 6195.000
1192.548, 6213.000
1193.632, 6147.000
1194.717, 6130.000
1195.801, 6084.000
1196.886, 6136.000
1197.970, 6139.000
1199.054, 6129.000
1200.137, 6217.000
1201.221, 6243.000
1202.305, 6048.000
1203.388, 6140.000
1204.471, 6161.000
1205.554, 6100.434
1206.637, 6184.312
1207.719, 6061.000
1208.802, 6196.000
1209.884, 6149.000
1210.966, 6010.000
1212.048, 6095.000
1213.130, 6146.000
1214.212, 6164.000
1215.293, 6066.000
1216.374, 6191.000
1217.456, 6177.000
1218.536, 6100.000
1219.617, 6142.000
1220.698, 6117.163
1221.778, 6206.000
1222.859, 6119.000
1223.939, 6156.000
1225.019, 6143.000
1226.099, 6099.000
1227.178, 6124.000
1228.258, 6199.000
1229.337, 6164.000
1230.417, 6156.000
1231.496, 6131.000
1232.574, 6112.000
1233.653, 6126.000
1234.732, 6113.000
1235.810, 6129.000
1236.888, 6116.110
1237.966, 6113.170
1239.044, 6107.000
1240.122, 6100.000
1241.199, 6124.000
1242.277, 6119.000
1243.354, 6190.000
1244.431, 6197.919
1245.508, 6154.000
1246.585, 6219.000
1247.661, 6215.000
1248.738, 6148.000
1249.814, 6111.000
1250.890, 6132.073
1251.966, 6081.509
1253.042, 6195.000
1254.117, 6068.000
1255.193, 6126.000
1256.268, 6186.000
1257.343, 6153.000
1258.418, 6160.000
1259.493, 6252.000
1260.567, 6102.000
1261.642, 6087.000
1262.716, 6150.000
1263.790, 6085.000
1264.864, 6053.000
1265.938, 6112.000
1267.011, 6114.000
1268.085, 6153.000
1269.158, 6018.000
1270.231, 6062.000
1271.304, 6075.000
1272.377, 6190.000
1273.450, 6111.000
1274.522, 6121.000
1275.594, 6080.000
1276.666, 6089.639
1277.738, 6069.000
1278.810, 6111.000
1279.882, 6071.000
1280.953, 6035.000
1282.025, 6073.000
1283.096, 6167.000
1284.167, 6160.000
1285.238, 6101.000
1286.308, 6041.000
1287.379, 6199.000
1288.449, 6090.000
1289.519, 6080.000
1290.589, 6018.000
1291.659, 6152.000
1292.729, 6135.000
1293.798, 6124.000
1294.868, 6055.000
1295.937, 6150.000
1297.006, 6136.000
1298.075, 6164.000
1299.143, 6120.000
1300.212, 6106.000
1301.280, 6137.000
1302.348, 6061.000
