##NAMES=Edenite
##RRUFFID=R060029
##IDEAL CHEMISTRY=NaCa_2_Mg_5_(Si_7_Al)O_22_(OH)_2_
##LOCALITY=Renfrew County, Ontario, Canada
##OWNER=RRUFF
##SOURCE=University of Arizona Mineral Museum
##DESCRIPTION=Black prismatic
##STATUS=The identification of this mineral has been confirmed by X-ray diffraction and chemical analysis
##URL=rruff.info/R060029
##MEASURED CHEMISTRY=(Na_0.62_K_0.34_[box]_0.04_)(Ca_0.86_Na_0.14_)_2_(Mg_0.57_Fe^2+^_0.30_Fe^3+^_0.07_Al_0.05_Ti_0.01_Mn_0.01_)_5_(Si_6.61_Al_1.39_)O_22_((OH)_0.69_F_0.31_)_2_
##PIN_ID=M00412
##ORIENTATION=Laser parallel to c* (0 0 1). Fiducial mark perpendicular to laser is parallel to a [1 0 0]
132.8980, 22546.00
134.1270, 21218.00
135.3560, 21083.00
136.5850, 21236.00
137.8140, 22125.00
139.0430, 22073.50
140.2710, 23681.00
141.5000, 22774.00
142.7280, 22697.00
143.9560, 23270.00
145.1840, 24262.00
146.4120, 26410.00
147.6390, 28559.00
148.8670, 29987.00
150.0940, 33033.00
151.3210, 38084.00
152.5490, 41809.00
153.7750, 44371.00
155.0020, 45831.00
156.2290, 43679.00
157.4550, 40560.00
158.6810, 36474.00
159.9080, 33158.00
161.1340, 30722.00
162.3590, 29268.00
163.5850, 28566.00
164.8110, 28099.00
166.0360, 26763.00
167.2610, 27183.00
168.4860, 25762.00
169.7110, 26244.00
170.9360, 26604.00
172.1610, 26326.00
173.3850, 26027.00
174.6100, 26544.00
175.8340, 26706.00
177.0580, 27468.00
178.2820, 28264.00
179.5050, 28197.00
180.7290, 28427.00
181.9520, 27916.00
183.1760, 27679.00
184.3990, 27437.00
185.6220, 27285.00
186.8450, 26999.00
188.0670, 26324.00
189.2900, 25913.00
190.5120, 25793.55
191.7340, 26077.99
192.9560, 26265.04
194.1780, 26359.94
195.4000, 26086.64
196.6220, 26288.78
197.8430, 26300.34
199.0640, 26304.08
200.2860, 26573.14
201.5070, 26353.34
202.7270, 26618.09
203.9480, 26689.45
205.1690, 26849.34
206.3890, 26817.46
207.6090, 27195.00
208.8290, 28566.00
210.0490, 29991.00
211.2690, 31549.00
212.4890, 33418.00
213.7080, 36050.00
214.9280, 38030.00
216.1470, 40677.00
217.3660, 43134.00
218.5850, 45599.00
219.8030, 47818.00
221.0220, 49300.00
222.2400, 50540.00
223.4590, 51289.00
224.6770, 51204.00
225.8950, 50078.00
227.1120, 49427.00
228.3300, 47952.85
229.5480, 46310.00
230.7650, 44835.00
231.9820, 43182.00
233.1990, 42185.00
234.4160, 40895.00
235.6330, 39456.00
236.8490, 38281.00
238.0660, 37449.00
239.2820, 36239.00
240.4980, 35229.33
241.7140, 34251.00
242.9300, 33271.00
244.1460, 32662.00
245.3610, 32057.00
246.5770, 31530.00
247.7920, 30776.00
249.0070, 30760.00
250.2220, 30015.00
251.4370, 29767.00
252.6510, 29049.00
253.8660, 28676.00
255.0800, 28570.00
256.2940, 29041.00
257.5080, 29566.00
258.7220, 29047.06
259.9360, 28450.89
261.1490, 28185.00
262.3630, 26465.00
263.5760, 25929.00
264.7890, 25470.00
266.0020, 25369.00
267.2150, 25311.00
268.4270, 25197.00
269.6400, 25158.00
270.8520, 25199.00
272.0640, 25261.00
273.2760, 25413.00
274.4880, 25823.00
275.7000, 25989.77
276.9120, 26251.58
278.1230, 26542.00
279.3340, 26789.00
280.5450, 26984.00
281.7560, 27376.00
282.9670, 27619.00
284.1780, 27958.00
285.3880, 28561.00
286.5980, 28762.00
287.8090, 29262.00
289.0190, 29506.00
290.2290, 29775.00
291.4380, 30088.00
292.6480, 30435.00
293.8570, 30363.00
295.0670, 30640.00
296.2760, 30519.00
297.4850, 30289.00
298.6930, 30222.00
299.9020, 30111.00
301.1110, 29914.00
302.3190, 29460.00
303.5270, 29496.00
304.7350, 28842.00
305.9430, 28684.00
307.1510, 28237.74
308.3580, 28267.00
309.5660, 27447.00
310.7730, 27243.00
311.9800, 27174.00
313.1870, 26628.66
314.3940, 26355.00
315.6010, 25929.00
316.8070, 25535.00
318.0130, 25109.00
319.2200, 24805.56
320.4260, 24476.00
321.6310, 24282.00
322.8370, 23971.00
324.0430, 23842.00
325.2480, 23888.00
326.4540, 23643.00
327.6590, 23494.00
328.8640, 23247.00
330.0680, 23595.00
331.2730, 23283.00
332.4780, 23656.00
333.6820, 24103.00
334.8860, 23598.00
336.0900, 23734.00
337.2940, 23874.00
338.4980, 24081.00
339.7010, 24117.00
340.9050, 24572.00
342.1080, 24671.00
343.3110, 25027.00
344.5140, 25096.00
345.7170, 25628.00
346.9200, 26151.00
348.1220, 26376.00
349.3240, 26788.00
350.5270, 27330.00
351.7290, 27323.00
352.9310, 27758.00
354.1320, 28369.00
355.3340, 28688.00
356.5350, 28836.00
357.7370, 28870.00
358.9380, 28851.61
360.1390, 28676.77
361.3400, 28565.00
362.5400, 28063.00
363.7410, 27869.00
364.9410, 27361.00
366.1410, 27009.00
367.3410, 26450.00
368.5410, 26270.00
369.7410, 25795.00
370.9400, 25529.00
372.1400, 25207.00
373.3390, 24819.85
374.5380, 24496.00
375.7370, 24164.00
376.9360, 24027.00
378.1350, 23827.00
379.3330, 23473.00
380.5310, 23193.00
381.7300, 22936.00
382.9280, 22533.00
384.1260, 22308.00
385.3230, 21913.96
386.5210, 21439.00
387.7180, 21216.00
388.9160, 20776.00
390.1130, 20536.00
391.3100, 20010.00
392.5060, 19914.00
393.7030, 19774.00
394.9000, 19346.00
396.0960, 19406.00
397.2920, 19122.00
398.4880, 19253.00
399.6840, 19042.76
400.8800, 19029.00
402.0750, 18760.00
403.2710, 18469.00
404.4660, 18405.00
405.6610, 18428.00
406.8560, 18369.00
408.0510, 18310.00
409.2450, 18149.00
410.4400, 18273.00
411.6340, 18251.00
412.8280, 18240.00
414.0220, 18392.00
415.2160, 18204.00
416.4100, 18550.00
417.6030, 19378.00
418.7970, 19638.00
419.9900, 19309.00
421.1830, 18703.00
422.3760, 19092.00
423.5690, 19425.00
424.7610, 19751.00
425.9540, 20102.00
427.1460, 20468.00
428.3380, 20749.00
429.5300, 20851.00
430.7220, 21000.36
431.9140, 21042.05
433.1050, 20985.96
434.2970, 20862.00
435.4880, 20647.00
436.6790, 20597.00
437.8700, 20449.00
439.0610, 20288.41
440.2510, 20249.00
441.4420, 20012.00
442.6320, 19864.00
443.8220, 19802.00
445.0120, 19677.00
446.2020, 19756.00
447.3910, 19610.00
448.5810, 19528.00
449.7700, 19393.00
450.9600, 19357.00
452.1490, 19471.00
453.3370, 19574.69
454.5260, 19587.00
455.7150, 19585.00
456.9030, 19293.00
458.0910, 19005.71
459.2800, 18207.00
460.4670, 18254.00
461.6550, 17789.00
462.8430, 17666.00
464.0300, 17519.00
465.2180, 17657.00
466.4050, 17371.40
467.5920, 17486.00
468.7790, 17059.00
469.9650, 17071.00
471.1520, 17145.00
472.3380, 17175.00
473.5250, 17100.00
474.7110, 17105.00
475.8970, 17203.00
477.0820, 17190.00
478.2680, 17320.00
479.4540, 17456.00
480.6390, 17276.00
481.8240, 17070.00
483.0090, 17321.00
484.1940, 17444.00
485.3780, 17053.00
486.5630, 16902.00
487.7470, 17028.00
488.9320, 16959.80
490.1160, 17109.44
491.3000, 17261.00
492.4830, 17396.00
493.6670, 17658.00
494.8500, 17681.00
496.0340, 17713.00
497.2170, 17905.00
498.4000, 18215.00
499.5820, 18470.00
500.7650, 18661.00
501.9480, 18784.00
503.1300, 19102.00
504.3120, 19250.00
505.4940, 19627.00
506.6760, 19531.00
507.8580, 19759.00
509.0390, 20043.00
510.2210, 20019.00
511.4020, 20357.00
512.5830, 20375.00
513.7640, 20558.00
514.9450, 20567.00
516.1250, 20821.00
517.3060, 21242.00
518.4860, 21113.00
519.6660, 21396.00
520.8460, 21865.00
522.0260, 22136.00
523.2060, 22584.00
524.3850, 22959.00
525.5650, 23525.00
526.7440, 23746.00
527.9230, 24160.00
529.1020, 24356.00
530.2810, 24571.00
531.4590, 24892.00
532.6380, 24886.00
533.8160, 25205.00
534.9940, 24920.00
536.1720, 24825.00
537.3500, 24809.00
538.5270, 24573.00
539.7050, 24414.52
540.8820, 24080.00
542.0590, 23948.00
543.2360, 23568.00
544.4130, 23315.00
545.5900, 22863.00
546.7660, 22547.00
547.9430, 22498.00
549.1190, 22389.00
550.2950, 21842.00
551.4710, 21628.00
552.6470, 21164.00
553.8220, 21060.00
554.9980, 20503.00
556.1730, 20292.00
557.3480, 19821.00
558.5230, 19494.00
559.6980, 19214.00
560.8730, 18895.00
562.0470, 18581.00
563.2220, 18485.00
564.3960, 18354.00
565.5700, 18178.00
566.7440, 17751.00
567.9170, 17817.00
569.0910, 17890.00
570.2640, 17360.00
571.4380, 17283.00
572.6110, 17227.33
573.7840, 17126.01
574.9570, 16897.00
576.1290, 16683.64
577.3020, 16420.00
578.4740, 16171.00
579.6460, 15894.00
580.8180, 15783.00
581.9900, 15589.00
583.1620, 15380.00
584.3330, 15135.98
585.5040, 14919.00
586.6760, 14543.00
587.8470, 14388.00
589.0180, 14047.00
590.1880, 13896.00
591.3590, 13767.00
592.5290, 13684.00
593.7000, 13398.00
594.8700, 13570.00
596.0400, 13443.00
597.2090, 13287.00
598.3790, 13417.00
599.5490, 13362.00
600.7180, 13306.00
601.8870, 13464.00
603.0560, 13582.00
604.2250, 13717.00
605.3940, 13868.57
606.5620, 13964.61
607.7300, 14157.00
608.8990, 14203.00
610.0670, 14319.00
611.2350, 14509.00
612.4020, 14870.00
613.5700, 14894.00
614.7370, 15287.00
615.9050, 15556.00
617.0720, 15588.00
618.2390, 15954.00
619.4060, 16315.00
620.5720, 16496.00
621.7390, 17127.00
622.9050, 17293.00
624.0710, 17953.37
625.2370, 18207.02
626.4030, 18549.40
627.5690, 18861.00
628.7340, 19214.00
629.9000, 19693.00
631.0650, 20107.00
632.2300, 20413.00
633.3950, 20941.00
634.5600, 21482.00
635.7240, 21940.00
636.8890, 22567.22
638.0530, 23058.05
639.2170, 23627.26
640.3810, 24162.00
641.5450, 24795.00
642.7080, 25450.00
643.8720, 26110.00
645.0350, 26967.00
646.1980, 27901.00
647.3610, 28810.00
648.5240, 29713.00
649.6870, 30452.00
650.8490, 31848.00
652.0120, 32707.00
653.1740, 34006.00
654.3360, 35283.00
655.4980, 37186.00
656.6600, 39053.00
657.8210, 41101.00
658.9830, 43658.00
660.1440, 46186.00
661.3050, 49333.00
662.4660, 51819.00
663.6270, 54492.00
664.7870, 56428.00
665.9480, 58661.00
667.1080, 60120.00
668.2680, 61483.00
669.4280, 60718.00
670.5880, 59799.00
671.7480, 58887.00
672.9070, 56194.00
674.0670, 53576.00
675.2260, 49919.00
676.3850, 47194.00
677.5440, 44066.00
678.7030, 40551.00
679.8610, 38066.00
681.0200, 35378.00
682.1780, 33060.00
683.3360, 31105.00
684.4940, 29331.00
685.6520, 27892.00
686.8090, 26380.00
687.9670, 24988.00
689.1240, 23958.00
690.2810, 22947.00
691.4380, 21957.00
692.5950, 20978.00
693.7520, 19905.00
694.9080, 19353.00
696.0650, 18747.00
697.2210, 18254.00
698.3770, 17957.00
699.5330, 17088.00
700.6880, 17412.00
701.8440, 16801.94
702.9990, 16911.00
704.1550, 16194.00
705.3100, 16206.00
706.4650, 16027.00
707.6190, 16017.00
708.7740, 15973.00
709.9290, 15822.00
711.0830, 15920.66
712.2370, 15848.85
713.3910, 16056.00
714.5450, 15829.00
715.6980, 15880.00
716.8520, 15854.00
718.0050, 15831.00
719.1580, 15865.00
720.3110, 15870.00
721.4640, 16043.25
722.6170, 16293.00
723.7700, 16409.00
724.9220, 15848.00
726.0740, 15897.00
727.2260, 16166.00
728.3780, 15793.03
729.5300, 15948.00
730.6810, 15558.00
731.8330, 15514.00
732.9840, 15508.00
734.1350, 15479.00
735.2860, 15428.34
736.4370, 15214.00
737.5880, 15298.00
738.7380, 15150.00
739.8880, 15021.00
741.0390, 14993.00
742.1890, 14933.00
743.3380, 14801.00
744.4880, 14638.57
745.6380, 14585.00
746.7870, 14355.00
747.9360, 14191.00
749.0850, 14357.00
750.2340, 14132.67
751.3830, 14061.64
752.5310, 13958.00
753.6800, 13825.00
754.8280, 13736.00
755.9760, 13695.00
757.1240, 13630.00
758.2720, 13689.00
759.4190, 13492.00
760.5670, 13685.00
761.7140, 13603.00
762.8610, 13752.00
764.0080, 13763.41
765.1550, 13735.00
766.3020, 13803.00
767.4480, 13802.00
768.5950, 13832.00
769.7410, 13818.00
770.8870, 13939.00
772.0330, 13957.69
773.1780, 14016.00
774.3240, 14089.00
775.4690, 14140.23
776.6140, 14264.82
777.7590, 14344.45
778.9040, 14381.56
780.0490, 14248.73
781.1940, 14335.33
782.3380, 14333.97
783.4820, 14329.01
784.6260, 14446.48
785.7700, 14338.35
786.9140, 14453.87
788.0580, 14480.12
789.2010, 14547.21
790.3450, 14502.19
791.4880, 14546.00
792.6310, 14461.00
793.7730, 14393.56
794.9160, 14694.00
796.0590, 14310.00
797.2010, 14261.00
798.3430, 14531.00
799.4850, 14151.00
800.6270, 13870.00
801.7690, 13935.00
802.9100, 13852.45
804.0520, 13988.00
805.1930, 13979.00
806.3340, 13945.00
807.4750, 13823.94
808.6160, 13784.00
809.7560, 13761.15
810.8970, 13931.00
812.0370, 13751.00
813.1770, 13807.00
814.3170, 13826.00
815.4570, 13650.00
816.5960, 13693.00
817.7360, 13638.00
818.8750, 13843.00
820.0140, 13676.00
821.1530, 13523.00
822.2920, 13687.00
823.4310, 13637.00
824.5690, 13405.00
825.7070, 13479.00
826.8460, 13310.00
827.9840, 13261.00
829.1220, 12868.04
830.2590, 13122.96
831.3970, 13280.51
832.5340, 13345.87
833.6710, 13043.04
834.8080, 13215.65
835.9450, 13197.73
837.0820, 13171.99
838.2190, 13411.52
839.3550, 13162.21
840.4910, 13397.50
841.6270, 13439.35
842.7630, 13569.74
843.8990, 13508.41
845.0350, 13506.29
846.1700, 13695.93
847.3060, 13779.40
848.4410, 13695.97
849.5760, 13831.96
850.7100, 13575.90
851.8450, 13663.86
852.9800, 13900.25
854.1140, 13826.43
855.2480, 13965.89
856.3820, 14024.13
857.5160, 13713.22
858.6500, 13936.12
859.7830, 14339.00
860.9170, 14325.00
862.0500, 14070.00
863.1830, 14154.30
864.3160, 14367.00
865.4480, 14473.00
866.5810, 14565.00
867.7130, 14578.00
868.8460, 14846.00
869.9780, 14953.00
871.1100, 15313.00
872.2410, 15455.40
873.3730, 15695.00
874.5050, 15892.00
875.6360, 16068.34
876.7670, 16162.00
877.8980, 16479.00
879.0290, 16587.00
880.1590, 16873.00
881.2900, 17094.00
882.4200, 17383.00
883.5500, 17655.00
884.6800, 18077.00
885.8100, 18275.00
886.9400, 18755.00
888.0690, 19112.00
889.1990, 19519.00
890.3280, 19876.00
891.4570, 20201.51
892.5860, 20502.00
893.7140, 20826.00
894.8430, 21205.00
895.9710, 21518.00
897.1000, 21949.00
898.2280, 22342.00
899.3560, 22348.00
900.4830, 22895.00
901.6110, 23056.00
902.7380, 23733.00
903.8660, 23897.16
904.9930, 23732.00
906.1200, 24346.00
907.2460, 24371.00
908.3730, 24568.00
909.5000, 25176.00
910.6260, 25190.00
911.7520, 25435.00
912.8780, 25918.00
914.0040, 26129.00
915.1290, 26146.00
916.2550, 26634.00
917.3800, 26811.00
918.5050, 27075.00
919.6300, 27259.00
920.7550, 27352.49
921.8800, 27436.00
923.0040, 27382.00
924.1290, 27352.00
925.2530, 27116.00
926.3770, 27181.00
927.5010, 28709.00
928.6250, 27739.00
929.7480, 28268.00
930.8720, 27160.00
931.9950, 26782.00
933.1180, 27619.00
934.2410, 27136.00
935.3640, 27017.00
936.4860, 26690.00
937.6090, 26826.00
938.7310, 26636.00
939.8530, 26591.00
940.9750, 26770.00
942.0970, 26572.00
943.2180, 26849.00
944.3400, 26810.73
945.4610, 27053.00
946.5820, 26868.00
947.7030, 26948.00
948.8240, 26966.00
949.9450, 27130.00
951.0650, 26862.00
952.1860, 26905.00
953.3060, 26976.00
954.4260, 26840.00
955.5460, 26924.00
956.6650, 27001.00
957.7850, 26903.00
958.9040, 27015.00
960.0230, 27051.00
961.1420, 27154.00
962.2610, 26966.00
963.3800, 27032.00
964.4990, 26897.00
965.6170, 27209.00
966.7350, 27484.00
967.8530, 27021.00
968.9710, 27254.00
970.0890, 26962.00
971.2070, 26815.00
972.3240, 26141.00
973.4410, 25864.00
974.5580, 25784.00
975.6750, 25413.00
976.7920, 25418.06
977.9090, 25234.00
979.0250, 25377.00
980.1410, 25272.00
981.2580, 25269.00
982.3740, 25143.00
983.4890, 25061.00
984.6050, 24949.00
985.7200, 25040.00
986.8360, 25038.00
987.9510, 24816.00
989.0660, 24948.00
990.1810, 25537.00
991.2950, 25447.00
992.4100, 25485.00
993.5240, 25437.00
994.6390, 25560.00
995.7530, 25898.00
996.8660, 26148.00
997.9800, 26499.00
999.0940, 26643.62
1000.207, 27087.00
1001.320, 26949.00
1002.433, 27350.00
1003.546, 27582.00
1004.659, 27986.00
1005.772, 28020.00
1006.884, 28239.00
1007.996, 28115.00
1009.108, 28440.00
1010.220, 28957.00
1011.332, 29002.00
1012.444, 29373.00
1013.555, 29140.00
1014.666, 29549.00
1015.777, 29762.00
1016.888, 29872.00
1017.999, 30104.00
1019.110, 30100.86
1020.220, 30204.00
1021.331, 30047.00
1022.441, 30110.00
1023.551, 30002.00
1024.661, 30189.00
1025.770, 30070.00
1026.880, 30136.00
1027.989, 30105.00
1029.098, 30205.00
1030.207, 30092.00
1031.316, 30212.00
1032.425, 30076.00
1033.533, 29933.00
1034.642, 29894.00
1035.750, 29820.16
1036.858, 29855.00
1037.966, 29861.00
1039.073, 29729.84
1040.181, 29695.00
1041.288, 29498.00
1042.396, 29326.00
1043.503, 29252.00
1044.610, 29219.00
1045.716, 29172.00
1046.823, 29195.00
1047.929, 29008.38
1049.036, 29087.00
1050.142, 28947.00
1051.248, 28660.00
1052.353, 29273.00
1053.459, 28433.00
1054.564, 28509.00
1055.670, 28818.58
1056.775, 28148.82
1057.880, 28031.86
1058.985, 27426.00
1060.089, 27059.00
1061.194, 26745.00
1062.298, 26138.00
1063.402, 26055.63
1064.506, 25755.00
1065.610, 25399.00
1066.713, 25346.75
1067.817, 24235.94
1068.920, 24692.00
1070.023, 23057.00
1071.126, 22810.00
1072.229, 22333.00
1073.332, 21884.00
1074.435, 21439.00
1075.537, 21230.00
1076.639, 20735.00
1077.741, 20453.00
1078.843, 20200.00
1079.945, 19868.00
1081.046, 19562.00
1082.148, 19307.65
1083.249, 19018.00
1084.350, 18815.00
1085.451, 18631.00
1086.551, 18455.00
1087.652, 18320.00
1088.752, 17983.00
1089.853, 17960.00
1090.953, 17719.00
1092.053, 17604.00
1093.152, 17469.00
1094.252, 17399.00
1095.351, 17251.00
1096.451, 16861.00
1097.550, 16881.00
1098.649, 16649.00
1099.748, 16419.00
1100.846, 16403.00
1101.945, 16058.00
1103.043, 16037.00
1104.141, 15860.00
1105.239, 15548.00
1106.337, 15555.11
1107.434, 15385.00
1108.532, 15394.85
1109.629, 15109.00
1110.726, 14974.00
1111.823, 14699.00
1112.920, 14564.00
1114.017, 14258.00
1115.113, 14084.00
1116.210, 14159.00
1117.306, 14198.00
1118.402, 14107.00
1119.498, 13894.00
1120.593, 13876.00
1121.689, 13855.00
1122.784, 13526.00
1123.879, 13623.00
1124.974, 13445.00
1126.069, 13345.00
1127.164, 12990.00
1128.259, 12886.00
1129.353, 12705.00
1130.447, 12578.00
1131.541, 12585.00
1132.635, 12463.00
1133.729, 12342.00
1134.822, 12140.00
1135.916, 12319.00
1137.009, 12118.96
1138.102, 12414.00
1139.195, 12004.00
1140.288, 11897.00
1141.380, 11959.00
1142.473, 11878.00
1143.565, 11834.00
1144.657, 11765.00
1145.749, 11670.00
1146.841, 11649.00
1147.932, 11579.00
1149.024, 11559.00
1150.115, 11566.00
1151.206, 11619.00
1152.297, 11566.30
1153.388, 11599.00
1154.479, 11477.00
1155.569, 11505.00
1156.659, 11421.00
1157.750, 11363.00
1158.839, 11447.00
1159.929, 11298.00
1161.019, 11320.00
1162.108, 11094.00
1163.198, 11161.00
1164.287, 11149.00
1165.376, 11109.00
1166.465, 11046.00
1167.553, 11105.00
1168.642, 11073.00
1169.730, 11036.00
1170.818, 10975.00
1171.906, 11012.00
1172.994, 11017.00
1174.082, 11099.00
1175.170, 11071.60
1176.257, 11008.00
1177.344, 11055.00
1178.431, 10998.00
1179.518, 11009.00
1180.605, 10985.00
1181.691, 10819.10
1182.778, 10916.97
1183.864, 10969.89
1184.950, 10980.28
1186.036, 10820.73
1187.122, 10880.61
1188.207, 10852.56
1189.292, 10820.91
1190.378, 10911.68
1191.463, 10776.85
1192.548, 10865.69
1193.632, 10865.24
1194.717, 10905.66
1195.801, 10857.59
1196.886, 10836.85
1197.970, 10904.63
1199.054, 10923.39
1200.137, 10865.15
1201.221, 10908.16
1202.305, 10885.00
1203.388, 10813.00
1204.471, 10876.00
1205.554, 10773.00
1206.637, 10767.00
1207.719, 10796.00
1208.802, 10741.00
1209.884, 10778.00
1210.966, 10838.00
1212.048, 10882.00
1213.130, 10929.00
1214.212, 10966.00
1215.293, 10791.00
1216.374, 10931.00
1217.456, 10817.00
1218.536, 10844.00
1219.617, 10835.00
1220.698, 10813.00
1221.778, 10707.00
1222.859, 10840.00
1223.939, 10853.00
1225.019, 10822.00
1226.099, 10914.00
1227.178, 10919.00
1228.258, 10760.61
1229.337, 10866.87
1230.417, 10928.18
1231.496, 10946.95
1232.574, 10795.79
1233.653, 10864.06
1234.732, 10844.40
1235.810, 10821.12
1236.888, 10920.28
1237.966, 10793.83
1239.044, 10891.05
1240.122, 10898.98
1241.199, 10947.77
1242.277, 10908.08
1243.354, 10895.72
1244.431, 10971.87
1245.508, 10999.01
1246.585, 10901.00
1247.661, 10975.00
1248.738, 10931.00
1249.814, 10987.25
1250.890, 10915.00
1251.966, 10920.00
1253.042, 10806.00
1254.117, 10856.00
1255.193, 10782.00
1256.268, 10953.00
1257.343, 10811.00
1258.418, 10763.00
1259.493, 10865.00
1260.567, 10790.00
1261.642, 10854.00
1262.716, 10894.00
1263.790, 10845.00
1264.864, 10899.00
1265.938, 10789.00
1267.011, 10754.00
1268.085, 10943.00
1269.158, 10784.00
1270.231, 10998.00
1271.304, 10887.00
1272.377, 10851.00
1273.450, 10888.00
1274.522, 10836.77
1275.594, 10877.00
1276.666, 10834.00
1277.738, 10791.00
1278.810, 10785.00
1279.882, 10753.00
1280.953, 10681.00
1282.025, 10637.00
1283.096, 10665.36
1284.167, 10681.68
1285.238, 10743.00
1286.308, 10794.00
1287.379, 10837.00
1288.449, 10875.00
1289.519, 10728.00
1290.589, 10757.00
1291.659, 10824.00
1292.729, 10753.00
1293.798, 10851.00
1294.868, 10962.00
1295.937, 10804.00
1297.006, 10853.00
1298.075, 10847.00
1299.143, 10759.00
1300.212, 10846.00
1301.280, 10878.00
1302.348, 10789.00
