##NAMES=Edenite
##RRUFFID=R060029
##IDEAL CHEMISTRY=NaCa_2_Mg_5_(Si_7_Al)O_22_(OH)_2_
##LOCALITY=Renfrew County, Ontario, Canada
##OWNER=RRUFF
##SOURCE=University of Arizona Mineral Museum
##DESCRIPTION=Black prismatic
##STATUS=The identification of this mineral has been confirmed by X-ray diffraction and chemical analysis
##URL=rruff.info/R060029
##MEASURED CHEMISTRY=(Na_0.62_K_0.34_[box]_0.04_)(Ca_0.86_Na_0.14_)_2_(Mg_0.57_Fe^2+^_0.30_Fe^3+^_0.07_Al_0.05_Ti_0.01_Mn_0.01_)_5_(Si_6.61_Al_1.39_)O_22_((OH)_0.69_F_0.31_)_2_
##PIN_ID=M00412
##ORIENTATION=Laser parallel to c* (0 0 1). Fiducial mark perpendicular to laser is parallel to a [1 0 0]
129.2090, 28966.00
130.4390, 29653.00
131.6680, 29510.00
132.8980, 28927.00
134.1270, 28721.00
135.3560, 28723.00
136.5850, 29252.00
137.8140, 30504.00
139.0430, 31847.00
140.2710, 32568.00
141.5000, 31478.00
142.7280, 31080.00
143.9560, 31450.00
145.1840, 32518.00
146.4120, 34368.00
147.6390, 36282.00
148.8670, 38815.00
150.0940, 41777.00
151.3210, 46200.00
152.5490, 48569.00
153.7750, 49505.00
155.0020, 47694.00
156.2290, 44790.00
157.4550, 40963.00
158.6810, 38217.00
159.9080, 36031.00
161.1340, 34683.00
162.3590, 34175.00
163.5850, 34356.00
164.8110, 34631.00
166.0360, 33579.00
167.2610, 33378.00
168.4860, 35091.00
169.7110, 34075.14
170.9360, 35323.00
172.1610, 34066.00
173.3850, 33418.00
174.6100, 33894.00
175.8340, 34100.00
177.0580, 34060.10
178.2820, 34171.10
179.5050, 34211.00
180.7290, 33843.00
181.9520, 33470.00
183.1760, 32930.00
184.3990, 32797.00
185.6220, 33107.00
186.8450, 32702.00
188.0670, 33073.00
189.2900, 31736.54
190.5120, 31921.07
191.7340, 32019.89
192.9560, 32037.60
194.1780, 31731.30
195.4000, 31843.40
196.6220, 31787.82
197.8430, 31725.37
199.0640, 31896.37
200.2860, 31637.19
201.5070, 31804.48
202.7270, 31801.54
203.9480, 31876.51
205.1690, 31782.77
206.3890, 31741.14
207.6090, 31753.00
208.8290, 32272.00
210.0490, 33149.00
211.2690, 34274.00
212.4890, 35284.00
213.7080, 36923.00
214.9280, 37335.00
216.1470, 37874.00
217.3660, 39574.00
218.5850, 40675.00
219.8030, 41983.00
221.0220, 43106.00
222.2400, 43996.00
223.4590, 45124.00
224.6770, 46133.00
225.8950, 47504.00
227.1120, 47021.00
228.3300, 47453.00
229.5480, 47152.00
230.7650, 46686.00
231.9820, 46173.00
233.1990, 45501.00
234.4160, 44342.00
235.6330, 42884.00
236.8490, 41908.00
238.0660, 40486.00
239.2820, 39281.00
240.4980, 38395.00
241.7140, 36961.00
242.9300, 36284.00
244.1460, 35519.00
245.3610, 34523.00
246.5770, 34263.00
247.7920, 33128.00
249.0070, 32867.00
250.2220, 32465.00
251.4370, 32097.00
252.6510, 31363.00
253.8660, 30982.00
255.0800, 30890.00
256.2940, 30855.00
257.5080, 32559.00
258.7220, 32066.94
259.9360, 31470.63
261.1490, 32067.00
262.3630, 29705.00
263.5760, 29014.00
264.7890, 29185.00
266.0020, 29250.00
267.2150, 29009.00
268.4270, 28802.00
269.6400, 29155.00
270.8520, 29483.00
272.0640, 29364.00
273.2760, 29316.00
274.4880, 29708.00
275.7000, 30270.00
276.9120, 30499.00
278.1230, 30731.00
279.3340, 31031.00
280.5450, 31017.00
281.7560, 31454.00
282.9670, 31866.00
284.1780, 31872.00
285.3880, 32299.30
286.5980, 33041.00
287.8090, 32676.00
289.0190, 33364.00
290.2290, 33235.00
291.4380, 33195.00
292.6480, 33113.00
293.8570, 33163.00
295.0670, 33228.00
296.2760, 33084.64
297.4850, 33302.00
298.6930, 32906.00
299.9020, 32768.00
301.1110, 32801.00
302.3190, 32476.00
303.5270, 31992.00
304.7350, 32025.00
305.9430, 31844.00
307.1510, 31663.00
308.3580, 31667.00
309.5660, 31164.00
310.7730, 31053.00
311.9800, 30813.07
313.1870, 30592.20
314.3940, 30541.00
315.6010, 30123.00
316.8070, 30376.00
318.0130, 29821.00
319.2200, 29874.00
320.4260, 29865.00
321.6310, 29631.00
322.8370, 29221.00
324.0430, 29286.00
325.2480, 29271.00
326.4540, 29058.00
327.6590, 29238.00
328.8640, 29280.00
330.0680, 29208.00
331.2730, 29062.00
332.4780, 29259.00
333.6820, 29268.00
334.8860, 29273.00
336.0900, 29470.00
337.2940, 30188.00
338.4980, 30059.09
339.7010, 30590.00
340.9050, 30239.00
342.1080, 29957.00
343.3110, 30030.00
344.5140, 30196.00
345.7170, 30286.00
346.9200, 30307.00
348.1220, 30332.00
349.3240, 30634.00
350.5270, 30874.00
351.7290, 30835.00
352.9310, 31263.00
354.1320, 31143.00
355.3340, 31312.00
356.5350, 31533.00
357.7370, 31732.00
358.9380, 31925.00
360.1390, 32231.00
361.3400, 31929.00
362.5400, 31981.00
363.7410, 32270.00
364.9410, 32258.00
366.1410, 32296.00
367.3410, 32554.00
368.5410, 32660.00
369.7410, 32941.00
370.9400, 33254.00
372.1400, 33571.00
373.3390, 33919.00
374.5380, 33914.00
375.7370, 34166.00
376.9360, 34361.00
378.1350, 34014.00
379.3330, 34178.00
380.5310, 33960.00
381.7300, 34151.00
382.9280, 33432.00
384.1260, 33013.00
385.3230, 32873.00
386.5210, 32130.00
387.7180, 31953.00
388.9160, 31539.00
390.1130, 31163.00
391.3100, 31146.00
392.5060, 30544.00
393.7030, 30302.00
394.9000, 29981.00
396.0960, 30038.00
397.2920, 29730.00
398.4880, 29405.00
399.6840, 29529.00
400.8800, 29328.80
402.0750, 29541.00
403.2710, 29248.00
404.4660, 29616.00
405.6610, 29538.00
406.8560, 29506.00
408.0510, 29516.00
409.2450, 29591.00
410.4400, 29956.00
411.6340, 30133.00
412.8280, 30170.00
414.0220, 30213.00
415.2160, 30850.00
416.4100, 31230.00
417.6030, 32203.00
418.7970, 31805.00
419.9900, 32296.00
421.1830, 33068.00
422.3760, 33333.02
423.5690, 34054.00
424.7610, 34667.00
425.9540, 35239.00
427.1460, 36030.00
428.3380, 36201.00
429.5300, 36370.00
430.7220, 36212.00
431.9140, 36076.00
433.1050, 35725.93
434.2970, 35352.47
435.4880, 34835.00
436.6790, 34348.00
437.8700, 34029.00
439.0610, 33425.00
440.2510, 33110.00
441.4420, 32985.00
442.6320, 32360.00
443.8220, 32179.00
445.0120, 31873.00
446.2020, 31750.00
447.3910, 30907.00
448.5810, 30387.00
449.7700, 30863.00
450.9600, 30819.00
452.1490, 29606.00
453.3370, 29135.00
454.5260, 28722.00
455.7150, 28451.00
456.9030, 28047.00
458.0910, 27750.00
459.2800, 27308.00
460.4670, 27113.00
461.6550, 26772.00
462.8430, 26351.00
464.0300, 26199.00
465.2180, 25969.00
466.4050, 26327.00
467.5920, 25998.00
468.7790, 25262.00
469.9650, 25690.00
471.1520, 25578.00
472.3380, 25073.00
473.5250, 25056.00
474.7110, 25273.00
475.8970, 25151.00
477.0820, 25108.00
478.2680, 25390.00
479.4540, 25268.00
480.6390, 25460.00
481.8240, 25471.00
483.0090, 25569.00
484.1940, 25776.00
485.3780, 25957.00
486.5630, 26147.00
487.7470, 26362.00
488.9320, 26545.00
490.1160, 26927.00
491.3000, 26931.00
492.4830, 27474.00
493.6670, 27764.00
494.8500, 27982.00
496.0340, 28570.00
497.2170, 28889.69
498.4000, 29297.29
499.5820, 29719.00
500.7650, 30169.00
501.9480, 30590.22
503.1300, 30993.00
504.3120, 31509.00
505.4940, 31909.00
506.6760, 32464.00
507.8580, 32790.00
509.0390, 33422.00
510.2210, 33853.00
511.4020, 33998.00
512.5830, 34425.00
513.7640, 34718.00
514.9450, 35172.00
516.1250, 35000.00
517.3060, 35317.00
518.4860, 35360.00
519.6660, 35706.00
520.8460, 35812.00
522.0260, 35799.00
523.2060, 36127.00
524.3850, 36181.28
525.5650, 36267.03
526.7440, 36410.00
527.9230, 36552.00
529.1020, 36516.00
530.2810, 36650.56
531.4590, 36649.24
532.6380, 36803.00
533.8160, 36636.00
534.9940, 36730.00
536.1720, 36673.00
537.3500, 36124.00
538.5270, 36473.00
539.7050, 36144.00
540.8820, 35895.00
542.0590, 35900.00
543.2360, 35163.00
544.4130, 35053.00
545.5900, 34615.00
546.7660, 34203.00
547.9430, 34022.81
549.1190, 33912.00
550.2950, 33467.00
551.4710, 33127.00
552.6470, 32710.00
553.8220, 32123.00
554.9980, 32016.00
556.1730, 31525.00
557.3480, 31275.00
558.5230, 31177.00
559.6980, 30685.00
560.8730, 30495.00
562.0470, 29960.00
563.2220, 29750.00
564.3960, 29456.00
565.5700, 29075.55
566.7440, 28981.00
567.9170, 28476.00
569.0910, 28030.00
570.2640, 27827.00
571.4380, 27625.00
572.6110, 27355.00
573.7840, 26798.00
574.9570, 26436.00
576.1290, 26245.00
577.3020, 25551.00
578.4740, 25325.00
579.6460, 25052.00
580.8180, 24568.00
581.9900, 24095.00
583.1620, 23551.00
584.3330, 23283.00
585.5040, 23383.00
586.6760, 22398.00
587.8470, 22218.00
589.0180, 21491.00
590.1880, 21477.00
591.3590, 21327.00
592.5290, 20858.00
593.7000, 20669.00
594.8700, 20504.00
596.0400, 20167.00
597.2090, 20358.00
598.3790, 20061.00
599.5490, 20188.00
600.7180, 20106.00
601.8870, 20086.00
603.0560, 20225.00
604.2250, 20239.00
605.3940, 20260.00
606.5620, 20274.00
607.7300, 20250.00
608.8990, 20511.00
610.0670, 20437.00
611.2350, 20681.00
612.4020, 20777.00
613.5700, 20803.00
614.7370, 20844.00
615.9050, 21169.00
617.0720, 21380.00
618.2390, 21516.00
619.4060, 21833.00
620.5720, 21924.11
621.7390, 21904.00
622.9050, 22246.00
624.0710, 22379.00
625.2370, 22684.00
626.4030, 22990.00
627.5690, 23089.00
628.7340, 23664.00
629.9000, 23860.00
631.0650, 24081.00
632.2300, 24436.00
633.3950, 24615.00
634.5600, 24953.00
635.7240, 25423.00
636.8890, 25666.00
638.0530, 26197.00
639.2170, 26592.19
640.3810, 27022.12
641.5450, 27517.00
642.7080, 28065.00
643.8720, 28609.00
645.0350, 29388.00
646.1980, 29825.00
647.3610, 30681.00
648.5240, 31440.00
649.6870, 32138.00
650.8490, 33062.00
652.0120, 33742.00
653.1740, 34973.00
654.3360, 36174.00
655.4980, 37561.00
656.6600, 39150.00
657.8210, 40817.54
658.9830, 42857.00
660.1440, 44618.00
661.3050, 46553.00
662.4660, 48720.00
663.6270, 50324.00
664.7870, 52988.00
665.9480, 53838.00
667.1080, 54178.00
668.2680, 54270.00
669.4280, 54019.00
670.5880, 52994.00
671.7480, 51838.00
672.9070, 49916.00
674.0670, 48263.00
675.2260, 45807.00
676.3850, 43587.00
677.5440, 41319.00
678.7030, 39324.00
679.8610, 37533.00
681.0200, 35750.89
682.1780, 34687.00
683.3360, 32800.00
684.4940, 31763.00
685.6520, 30819.00
686.8090, 29612.00
687.9670, 29000.00
689.1240, 28060.00
690.2810, 27424.00
691.4380, 27174.00
692.5950, 26463.00
693.7520, 26248.00
694.9080, 26223.00
696.0650, 25895.80
697.2210, 25777.00
698.3770, 25786.00
699.5330, 25658.00
700.6880, 25819.00
701.8440, 26503.00
702.9990, 25986.00
704.1550, 26120.00
705.3100, 26667.00
706.4650, 26254.00
707.6190, 27028.00
708.7740, 27065.00
709.9290, 27319.00
711.0830, 27795.00
712.2370, 28034.00
713.3910, 28130.00
714.5450, 28547.00
715.6980, 28813.00
716.8520, 29036.00
718.0050, 29302.02
719.1580, 29444.61
720.3110, 29632.00
721.4640, 29702.00
722.6170, 29842.84
723.7700, 29930.77
724.9220, 30002.00
726.0740, 30067.00
727.2260, 30028.00
728.3780, 30047.02
729.5300, 29968.00
730.6810, 29855.00
731.8330, 29811.00
732.9840, 29607.00
734.1350, 29571.00
735.2860, 29315.00
736.4370, 29315.00
737.5880, 29095.00
738.7380, 28592.00
739.8880, 28546.00
741.0390, 28157.00
742.1890, 27746.00
743.3380, 27647.00
744.4880, 27497.00
745.6380, 27301.00
746.7870, 26893.00
747.9360, 26474.00
749.0850, 26309.00
750.2340, 25961.00
751.3830, 25804.00
752.5310, 25398.00
753.6800, 25144.00
754.8280, 25011.00
755.9760, 24746.00
757.1240, 24578.00
758.2720, 24318.00
759.4190, 24339.00
760.5670, 24269.00
761.7140, 24134.00
762.8610, 24150.00
764.0080, 24170.00
765.1550, 24172.00
766.3020, 24206.00
767.4480, 24061.00
768.5950, 24159.50
769.7410, 24118.61
770.8870, 24148.00
772.0330, 24237.00
773.1780, 23991.00
774.3240, 24271.00
775.4690, 24183.01
776.6140, 24432.00
777.7590, 24183.00
778.9040, 23984.00
780.0490, 23901.68
781.1940, 24047.00
782.3380, 23888.00
783.4820, 23919.00
784.6260, 23909.00
785.7700, 23815.00
786.9140, 23720.00
788.0580, 23758.00
789.2010, 23541.00
790.3450, 23532.15
791.4880, 23483.00
792.6310, 23416.00
793.7730, 23070.00
794.9160, 23017.00
796.0590, 23092.00
797.2010, 23189.00
798.3430, 22693.00
799.4850, 22564.00
800.6270, 22663.00
801.7690, 22279.00
802.9100, 22568.00
804.0520, 22263.00
805.1930, 22321.00
806.3340, 22212.00
807.4750, 22140.00
808.6160, 22086.49
809.7560, 21974.56
810.8970, 21945.00
812.0370, 21749.00
813.1770, 21745.00
814.3170, 21576.00
815.4570, 21511.00
816.5960, 21656.00
817.7360, 21420.00
818.8750, 21521.00
820.0140, 21219.00
821.1530, 21164.00
822.2920, 21157.47
823.4310, 21106.00
824.5690, 21117.00
825.7070, 21063.09
826.8460, 20778.62
827.9840, 20904.00
829.1220, 20833.00
830.2590, 20454.69
831.3970, 20682.51
832.5340, 20824.60
833.6710, 20885.58
834.8080, 20622.55
835.9450, 20777.92
837.0820, 20765.61
838.2190, 20746.42
839.3550, 20960.65
840.4910, 20744.71
841.6270, 20955.24
842.7630, 20995.53
843.8990, 21113.73
845.0350, 21077.00
846.1700, 21146.00
847.3060, 21145.00
848.4410, 21223.00
849.5760, 21275.38
850.7100, 21383.00
851.8450, 21479.00
852.9800, 21447.54
854.1140, 21771.13
855.2480, 22009.00
856.3820, 22165.77
857.5160, 21998.52
858.6500, 22249.67
859.7830, 22333.03
860.9170, 22409.63
862.0500, 22719.55
863.1830, 22599.32
864.3160, 22905.54
865.4480, 23041.42
866.5810, 23255.33
867.7130, 23300.41
868.8460, 23555.00
869.9780, 23651.00
871.1100, 23695.00
872.2410, 24125.00
873.3730, 24188.00
874.5050, 24452.00
875.6360, 24312.00
876.7670, 24416.00
877.8980, 24566.59
879.0290, 24606.00
880.1590, 24912.00
881.2900, 24819.00
882.4200, 25099.00
883.5500, 25283.00
884.6800, 25657.00
885.8100, 25654.00
886.9400, 25638.00
888.0690, 25894.00
889.1990, 25994.00
890.3280, 26226.00
891.4570, 26344.00
892.5860, 26663.00
893.7140, 26880.00
894.8430, 27023.00
895.9710, 27078.00
897.1000, 27259.00
898.2280, 27351.40
899.3560, 27440.34
900.4830, 27515.00
901.6110, 27443.70
902.7380, 27746.88
903.8660, 27964.46
904.9930, 28100.82
906.1200, 27913.18
907.2460, 28143.84
908.3730, 28206.92
909.5000, 28263.13
910.6260, 28552.67
911.7520, 28412.06
912.8780, 28697.90
914.0040, 28813.52
915.1290, 29026.00
916.2550, 30192.00
917.3800, 30122.00
918.5050, 29685.00
919.6300, 29711.00
920.7550, 30351.00
921.8800, 29930.00
923.0040, 30112.00
924.1290, 30071.00
925.2530, 30234.00
926.3770, 30584.00
927.5010, 30110.00
928.6250, 30167.00
929.7480, 30472.00
930.8720, 30412.00
931.9950, 30544.00
933.1180, 30714.00
934.2410, 30684.00
935.3640, 31039.75
936.4860, 31011.75
937.6090, 31088.07
938.7310, 31128.00
939.8530, 31200.00
940.9750, 31302.00
942.0970, 31486.00
943.2180, 31690.00
944.3400, 31608.00
945.4610, 31932.00
946.5820, 32192.00
947.7030, 32137.00
948.8240, 32365.00
949.9450, 32429.00
951.0650, 32713.00
952.1860, 32535.00
953.3060, 32976.00
954.4260, 32793.00
955.5460, 32910.00
956.6650, 33018.00
957.7850, 33055.00
958.9040, 32891.00
960.0230, 33234.00
961.1420, 33300.00
962.2610, 33163.00
963.3800, 33342.00
964.4990, 33221.00
965.6170, 33104.00
966.7350, 33269.00
967.8530, 32993.00
968.9710, 33262.00
970.0890, 33089.00
971.2070, 33128.00
972.3240, 33119.00
973.4410, 32937.00
974.5580, 33138.67
975.6750, 33075.25
976.7920, 33317.00
977.9090, 33160.00
979.0250, 32970.00
980.1410, 33021.00
981.2580, 33135.00
982.3740, 33519.00
983.4890, 33314.00
984.6050, 33475.00
985.7200, 33548.00
986.8360, 33413.00
987.9510, 34261.00
989.0660, 34257.00
990.1810, 34448.00
991.2950, 34750.00
992.4100, 35061.00
993.5240, 35141.00
994.6390, 36124.00
995.7530, 36051.69
996.8660, 36392.66
997.9800, 36400.00
999.0940, 36709.00
1000.207, 36932.00
1001.320, 37043.00
1002.433, 37341.00
1003.546, 37504.00
1004.659, 37572.00
1005.772, 37812.00
1006.884, 37794.00
1007.996, 38136.00
1009.108, 38208.00
1010.220, 38049.00
1011.332, 38476.00
1012.444, 38074.00
1013.555, 38309.00
1014.666, 38220.00
1015.777, 38321.00
1016.888, 38481.00
1017.999, 38466.00
1019.110, 38447.63
1020.220, 38058.00
1021.331, 38445.00
1022.441, 38034.00
1023.551, 38368.00
1024.661, 37993.00
1025.770, 38122.00
1026.880, 38038.00
1027.989, 38232.00
1029.098, 38047.63
1030.207, 38086.00
1031.316, 37645.00
1032.425, 37694.00
1033.533, 37356.00
1034.642, 37098.00
1035.750, 37143.00
1036.858, 36676.00
1037.966, 36465.00
1039.073, 36099.00
1040.181, 35866.00
1041.288, 35597.00
1042.396, 35235.00
1043.503, 35056.00
1044.610, 34784.00
1045.716, 34374.00
1046.823, 34000.00
1047.929, 34212.00
1049.036, 33586.00
1050.142, 33382.00
1051.248, 33394.00
1052.353, 33014.00
1053.459, 33048.00
1054.564, 32792.00
1055.670, 32551.00
1056.775, 32429.00
1057.880, 32293.00
1058.985, 32092.00
1060.089, 31776.00
1061.194, 31609.76
1062.298, 31314.71
1063.402, 31068.00
1064.506, 30912.00
1065.610, 30455.00
1066.713, 30555.00
1067.817, 29885.00
1068.920, 29944.00
1070.023, 29556.00
1071.126, 29467.00
1072.229, 29365.00
1073.332, 28722.00
1074.435, 28936.00
1075.537, 28480.00
1076.639, 28928.00
1077.741, 28028.00
1078.843, 28141.00
1079.945, 27958.00
1081.046, 27659.00
1082.148, 27448.00
1083.249, 27333.00
1084.350, 27236.00
1085.451, 27154.00
1086.551, 26965.54
1087.652, 26975.00
1088.752, 26635.00
1089.853, 26540.00
1090.953, 26482.00
1092.053, 26274.00
1093.152, 26074.00
1094.252, 25729.00
1095.351, 25737.00
1096.451, 25592.00
1097.550, 25238.00
1098.649, 25196.00
1099.748, 25160.00
1100.846, 24842.00
1101.945, 24479.00
1103.043, 24559.00
1104.141, 24056.00
1105.239, 23834.00
1106.337, 23674.00
1107.434, 23521.00
1108.532, 23226.00
1109.629, 23148.00
1110.726, 22876.23
1111.823, 22753.00
1112.920, 22596.00
1114.017, 22302.00
1115.113, 22567.00
1116.210, 22357.58
1117.306, 22264.00
1118.402, 22027.00
1119.498, 21830.85
1120.593, 21502.00
1121.689, 21437.00
1122.784, 21341.00
1123.879, 21269.00
1124.974, 20959.00
1126.069, 20927.00
1127.164, 20708.00
1128.259, 20671.00
1129.353, 20516.00
1130.447, 20371.45
1131.541, 20355.00
1132.635, 20137.00
1133.729, 19842.50
1134.822, 19976.31
1135.916, 20024.36
1137.009, 19991.36
1138.102, 19634.35
1139.195, 19695.75
1140.288, 19589.46
1141.380, 19476.35
1142.473, 19787.00
1143.565, 19404.00
1144.657, 19449.00
1145.749, 19405.00
1146.841, 19324.00
1147.932, 19408.00
1149.024, 19250.00
1150.115, 19296.00
1151.206, 19398.00
1152.297, 19214.00
1153.388, 19207.00
1154.479, 19184.00
1155.569, 19075.00
1156.659, 19028.00
1157.750, 18830.00
1158.839, 18841.00
1159.929, 18831.00
1161.019, 18903.00
1162.108, 18893.00
1163.198, 18852.00
1164.287, 18884.00
1165.376, 18850.00
1166.465, 18654.00
1167.553, 18877.00
1168.642, 18739.00
1169.730, 18776.00
1170.818, 18557.00
1171.906, 18250.71
1172.994, 18437.98
1174.082, 18539.54
1175.170, 18560.00
1176.257, 18256.45
1177.344, 18371.30
1178.431, 18318.47
1179.518, 18258.77
1180.605, 18432.51
1181.691, 18176.09
1182.778, 18346.13
1183.864, 18345.93
1184.950, 18423.65
1186.036, 18332.66
1187.122, 18293.78
1188.207, 18323.00
1189.292, 18174.00
1190.378, 18279.00
1191.463, 18266.00
1192.548, 18430.00
1193.632, 18356.00
1194.717, 18047.00
1195.801, 18047.00
1196.886, 18056.71
1197.970, 18235.00
1199.054, 18249.00
1200.137, 18130.00
1201.221, 18252.00
1202.305, 18347.00
1203.388, 18169.00
1204.471, 18030.00
1205.554, 18202.00
1206.637, 18231.00
1207.719, 18009.91
1208.802, 18206.96
1209.884, 18318.30
1210.966, 18348.54
1212.048, 18054.76
1213.130, 18179.38
1214.212, 18136.32
1215.293, 18086.39
1216.374, 18269.89
1217.456, 18023.24
1218.536, 18203.04
1219.617, 18212.62
1220.698, 18300.10
1221.778, 18218.87
1222.859, 18189.75
1223.939, 18329.39
1225.019, 18375.59
1226.099, 18274.94
1227.178, 18367.37
1228.258, 18114.82
1229.337, 18183.00
1230.417, 18158.59
1231.496, 18274.00
1232.574, 18159.00
1233.653, 18178.00
1234.732, 18203.00
1235.810, 18131.51
1236.888, 18132.00
1237.966, 18162.00
1239.044, 18293.00
1240.122, 18281.15
1241.199, 18200.00
1242.277, 18274.00
1243.354, 18241.00
1244.431, 18088.04
1245.508, 18267.00
1246.585, 18014.00
1247.661, 18071.00
1248.738, 18241.00
1249.814, 18393.00
1250.890, 18246.00
1251.966, 18324.10
1253.042, 18238.24
1254.117, 18223.00
1255.193, 18210.00
1256.268, 18151.00
1257.343, 18126.52
1258.418, 18099.00
1259.493, 18088.00
1260.567, 18176.00
1261.642, 18266.00
1262.716, 18168.00
1263.790, 18082.00
1264.864, 18158.00
1265.938, 18084.00
1267.011, 18259.00
1268.085, 18070.00
1269.158, 18100.00
1270.231, 18030.00
1271.304, 17878.00
1272.377, 18109.00
1273.450, 17783.00
1274.522, 18052.00
1275.594, 17969.02
1276.666, 17833.00
1277.738, 17926.00
1278.810, 17930.00
1279.882, 17894.00
1280.953, 17877.00
1282.025, 17945.00
1283.096, 18023.00
1284.167, 18155.00
1285.238, 17832.00
1286.308, 17959.00
1287.379, 17815.00
1288.449, 18133.00
1289.519, 17974.00
1290.589, 18088.00
1291.659, 18153.00
1292.729, 18125.00
1293.798, 17947.00
1294.868, 18081.00
1295.937, 17894.00
1297.006, 18088.00
1298.075, 17961.00
1299.143, 18031.00
