##NAMES=Edenite
##RRUFFID=R050415
##IDEAL CHEMISTRY=NaCa_2_Mg_5_(Si_7_Al)O_22_(OH)_2_
##LOCALITY=Mogok, Burma
##OWNER=RRUFF
##SOURCE=Marcus Origlieri
##DESCRIPTION=Transparent pale green water worn fragment
##STATUS=The identification of this mineral has been confirmed by X-ray diffraction and chemical analysis
##URL=rruff.info/R050415
##MEASURED CHEMISTRY=(Na_0.83_K_0.17_)(Ca_1.76_Na_0.24_)_&#931;=2_(Mg_4.54_Al_0.40_Fe^3+^_0.06_)_&#931;=5_(Si_6.74_Al_1.26_)O_22_((OH)_0.52_F_0.48_)_2_
##PIN_ID=L01094
##ORIENTATION=Laser parallel to b* (0 1 0). Fiducial mark perpendicular to laser is parallel to -c [0 0 -1]
93.48000, 6825.980
94.71400, 7115.000
95.94800, 7454.000
97.18200, 7767.267
98.41600, 8042.000
99.64900, 8456.000
100.8830, 8834.000
102.1160, 9243.000
103.3490, 9712.000
104.5820, 10398.00
105.8150, 11151.00
107.0470, 12339.00
108.2800, 12639.23
109.5120, 13939.00
110.7440, 13574.00
111.9760, 13791.00
113.2080, 14417.00
114.4400, 15010.00
115.6710, 15581.00
116.9030, 15674.00
118.1340, 15847.00
119.3650, 15796.00
120.5960, 15782.00
121.8270, 15530.00
123.0580, 15285.00
124.2880, 14868.00
125.5190, 13417.00
126.7490, 12482.00
127.9790, 11489.00
129.2090, 10634.00
130.4390, 10134.00
131.6680, 9588.000
132.8980, 9162.000
134.1270, 8831.000
135.3560, 8722.000
136.5850, 8595.000
137.8140, 8504.000
139.0430, 8502.000
140.2710, 8469.000
141.5000, 8441.000
142.7280, 8445.565
143.9560, 8414.768
145.1840, 8454.000
146.4120, 8435.000
147.6390, 8452.000
148.8670, 8583.000
150.0940, 8901.000
151.3210, 9310.000
152.5490, 9889.000
153.7750, 10572.00
155.0020, 11482.00
156.2290, 12016.00
157.4550, 12882.00
158.6810, 13727.00
159.9080, 14558.00
161.1340, 15502.00
162.3590, 16223.00
163.5850, 17344.00
164.8110, 18919.00
166.0360, 20244.00
167.2610, 21083.00
168.4860, 21043.00
169.7110, 20189.00
170.9360, 18603.00
172.1610, 17207.00
173.3850, 16110.00
174.6100, 15194.00
175.8340, 14845.00
177.0580, 14336.00
178.2820, 14236.00
179.5050, 14046.00
180.7290, 14061.00
181.9520, 14091.00
183.1760, 13953.00
184.3990, 13994.00
185.6220, 13932.00
186.8450, 13737.10
188.0670, 13656.00
189.2900, 13284.00
190.5120, 13028.00
191.7340, 12697.00
192.9560, 12425.00
194.1780, 12150.00
195.4000, 11969.00
196.6220, 11857.93
197.8430, 11763.00
199.0640, 11818.00
200.2860, 11801.00
201.5070, 11941.00
202.7270, 12087.00
203.9480, 12269.00
205.1690, 12512.00
206.3890, 12942.00
207.6090, 13032.00
208.8290, 13643.00
210.0490, 14162.70
211.2690, 14869.00
212.4890, 15492.00
213.7080, 16487.00
214.9280, 17228.00
216.1470, 18165.00
217.3660, 18797.00
218.5850, 19476.00
219.8030, 20267.00
221.0220, 20712.00
222.2400, 21018.00
223.4590, 21809.00
224.6770, 22019.00
225.8950, 22439.00
227.1120, 22598.00
228.3300, 22798.00
229.5480, 22653.00
230.7650, 22216.00
231.9820, 21429.00
233.1990, 20942.00
234.4160, 20341.00
235.6330, 20059.00
236.8490, 19698.00
238.0660, 19593.00
239.2820, 19492.00
240.4980, 19421.00
241.7140, 19172.00
242.9300, 18748.00
244.1460, 18652.00
245.3610, 18263.00
246.5770, 17892.00
247.7920, 17601.00
249.0070, 17297.00
250.2220, 17086.00
251.4370, 16670.00
252.6510, 16225.00
253.8660, 15723.00
255.0800, 15468.00
256.2940, 14844.00
257.5080, 14710.00
258.7220, 14578.00
259.9360, 13903.00
261.1490, 13093.00
262.3630, 12587.00
263.5760, 12327.00
264.7890, 11982.00
266.0020, 11582.00
267.2150, 11397.00
268.4270, 11144.00
269.6400, 10946.00
270.8520, 10919.00
272.0640, 10676.00
273.2760, 10519.00
274.4880, 10586.00
275.7000, 10605.00
276.9120, 10456.00
278.1230, 10577.00
279.3340, 10544.00
280.5450, 10631.00
281.7560, 10448.00
282.9670, 10496.00
284.1780, 10578.00
285.3880, 10700.00
286.5980, 10754.00
287.8090, 10838.00
289.0190, 10924.00
290.2290, 11081.70
291.4380, 11203.00
292.6480, 11385.00
293.8570, 11459.00
295.0670, 11490.00
296.2760, 11678.00
297.4850, 11792.00
298.6930, 11880.00
299.9020, 12022.00
301.1110, 12149.00
302.3190, 12256.00
303.5270, 12264.00
304.7350, 12311.00
305.9430, 12387.00
307.1510, 12545.00
308.3580, 12724.10
309.5660, 12908.00
310.7730, 13203.00
311.9800, 13464.00
313.1870, 13737.06
314.3940, 13954.00
315.6010, 14203.00
316.8070, 14428.00
318.0130, 14593.00
319.2200, 14714.10
320.4260, 14751.00
321.6310, 14788.00
322.8370, 14816.00
324.0430, 14674.00
325.2480, 14468.00
326.4540, 14146.00
327.6590, 13845.00
328.8640, 13751.00
330.0680, 13443.00
331.2730, 13249.00
332.4780, 13103.00
333.6820, 12920.00
334.8860, 12776.00
336.0900, 12730.00
337.2940, 12766.00
338.4980, 12570.00
339.7010, 12611.32
340.9050, 12459.00
342.1080, 12567.00
343.3110, 12519.00
344.5140, 12470.00
345.7170, 12516.00
346.9200, 12457.00
348.1220, 12683.00
349.3240, 12656.00
350.5270, 12734.00
351.7290, 12838.00
352.9310, 12816.00
354.1320, 13020.00
355.3340, 13147.00
356.5350, 13157.00
357.7370, 13215.00
358.9380, 13274.00
360.1390, 13329.00
361.3400, 13585.00
362.5400, 13792.00
363.7410, 13901.00
364.9410, 14318.00
366.1410, 14424.00
367.3410, 14720.00
368.5410, 15053.00
369.7410, 15323.00
370.9400, 15616.00
372.1400, 16071.00
373.3390, 16281.00
374.5380, 16793.00
375.7370, 16901.00
376.9360, 17245.00
378.1350, 17617.00
379.3330, 17779.00
380.5310, 17732.00
381.7300, 18208.00
382.9280, 18354.00
384.1260, 18369.00
385.3230, 18677.00
386.5210, 18755.00
387.7180, 18907.00
388.9160, 19048.00
390.1130, 18815.00
391.3100, 18951.00
392.5060, 18824.00
393.7030, 18636.00
394.9000, 18511.00
396.0960, 18000.00
397.2920, 17433.00
398.4880, 17092.00
399.6840, 16412.00
400.8800, 15766.00
402.0750, 15448.00
403.2710, 14874.00
404.4660, 14311.00
405.6610, 14141.00
406.8560, 13692.00
408.0510, 13504.00
409.2450, 13443.00
410.4400, 13341.00
411.6340, 13221.00
412.8280, 13224.12
414.0220, 13192.00
415.2160, 13267.00
416.4100, 13370.00
417.6030, 13509.00
418.7970, 13561.00
419.9900, 13683.00
421.1830, 13671.00
422.3760, 13797.00
423.5690, 13824.00
424.7610, 13782.00
425.9540, 13619.00
427.1460, 13708.00
428.3380, 13506.94
429.5300, 13576.00
430.7220, 13205.00
431.9140, 13105.00
433.1050, 12967.00
434.2970, 12737.00
435.4880, 12384.00
436.6790, 12273.00
437.8700, 12050.00
439.0610, 11826.00
440.2510, 11620.00
441.4420, 11452.00
442.6320, 11274.00
443.8220, 11164.00
445.0120, 11127.00
446.2020, 10892.00
447.3910, 10761.00
448.5810, 10857.00
449.7700, 10652.00
450.9600, 10659.00
452.1490, 10583.00
453.3370, 10537.00
454.5260, 10492.00
455.7150, 10636.00
456.9030, 10635.00
458.0910, 10515.00
459.2800, 10400.00
460.4670, 10652.00
461.6550, 10575.00
462.8430, 10552.00
464.0300, 10585.00
465.2180, 10529.00
466.4050, 10577.00
467.5920, 10626.00
468.7790, 10719.00
469.9650, 10524.00
471.1520, 10530.00
472.3380, 10478.00
473.5250, 10597.00
474.7110, 10626.00
475.8970, 11542.00
477.0820, 11498.00
478.2680, 11344.00
479.4540, 11051.00
480.6390, 11158.00
481.8240, 10617.00
483.0090, 10578.00
484.1940, 10659.00
485.3780, 10719.00
486.5630, 10737.00
487.7470, 10650.00
488.9320, 10682.00
490.1160, 10663.00
491.3000, 10708.00
492.4830, 10639.00
493.6670, 10697.00
494.8500, 10820.00
496.0340, 10938.00
497.2170, 10866.00
498.4000, 10881.00
499.5820, 10926.00
500.7650, 10978.00
501.9480, 11055.00
503.1300, 11087.00
504.3120, 11189.00
505.4940, 11242.00
506.6760, 11524.00
507.8580, 11443.00
509.0390, 11758.00
510.2210, 11935.00
511.4020, 12001.00
512.5830, 12074.00
513.7640, 12065.00
514.9450, 12260.00
516.1250, 12241.00
517.3060, 12128.00
518.4860, 12362.00
519.6660, 12297.00
520.8460, 12324.00
522.0260, 12344.00
523.2060, 12203.00
524.3850, 12451.00
525.5650, 12342.00
526.7440, 12258.00
527.9230, 12379.00
529.1020, 12313.00
530.2810, 12213.00
531.4590, 12367.00
532.6380, 12322.00
533.8160, 12399.00
534.9940, 12277.00
536.1720, 12359.00
537.3500, 12367.00
538.5270, 12351.00
539.7050, 12360.46
540.8820, 12273.00
542.0590, 12293.00
543.2360, 12078.00
544.4130, 11986.00
545.5900, 12074.00
546.7660, 11900.00
547.9430, 11950.00
549.1190, 11912.00
550.2950, 11785.00
551.4710, 11709.00
552.6470, 11675.00
553.8220, 11730.00
554.9980, 11707.00
556.1730, 11653.00
557.3480, 11714.00
558.5230, 11580.00
559.6980, 11593.00
560.8730, 11605.00
562.0470, 11534.00
563.2220, 11558.00
564.3960, 11599.00
565.5700, 11509.00
566.7440, 11584.00
567.9170, 11577.00
569.0910, 11604.00
570.2640, 11678.00
571.4380, 11583.00
572.6110, 11565.00
573.7840, 11589.00
574.9570, 11468.00
576.1290, 11659.00
577.3020, 11551.00
578.4740, 11729.00
579.6460, 11731.00
580.8180, 11758.00
581.9900, 11619.00
583.1620, 11522.00
584.3330, 11823.00
585.5040, 11602.00
586.6760, 11619.00
587.8470, 11857.00
589.0180, 11635.00
590.1880, 11692.00
591.3590, 11866.00
592.5290, 11860.00
593.7000, 11824.00
594.8700, 11754.00
596.0400, 11875.00
597.2090, 11816.00
598.3790, 11843.00
599.5490, 11981.00
600.7180, 12005.00
601.8870, 12139.00
603.0560, 12057.00
604.2250, 12228.00
605.3940, 12210.00
606.5620, 12295.00
607.7300, 12319.00
608.8990, 12458.00
610.0670, 12582.00
611.2350, 12624.00
612.4020, 12672.00
613.5700, 12890.00
614.7370, 12890.00
615.9050, 13069.00
617.0720, 13241.00
618.2390, 13402.00
619.4060, 13423.00
620.5720, 13675.00
621.7390, 13509.00
622.9050, 13942.00
624.0710, 13971.00
625.2370, 14270.00
626.4030, 14474.00
627.5690, 14504.00
628.7340, 14965.00
629.9000, 15204.00
631.0650, 15453.00
632.2300, 15700.00
633.3950, 16194.00
634.5600, 16248.00
635.7240, 16667.00
636.8890, 17373.00
638.0530, 17570.00
639.2170, 17987.00
640.3810, 18507.00
641.5450, 19117.00
642.7080, 19518.00
643.8720, 20186.11
645.0350, 20638.00
646.1980, 21459.00
647.3610, 22122.00
648.5240, 22797.00
649.6870, 23832.00
650.8490, 24612.00
652.0120, 25662.00
653.1740, 26647.00
654.3360, 27771.00
655.4980, 29135.00
656.6600, 30456.00
657.8210, 31795.00
658.9830, 33536.00
660.1440, 35449.00
661.3050, 37744.00
662.4660, 40024.00
663.6270, 42314.00
664.7870, 45313.00
665.9480, 48191.00
667.1080, 51072.00
668.2680, 54431.00
669.4280, 56849.00
670.5880, 59612.00
671.7480, 61665.00
672.9070, 63298.00
674.0670, 63944.00
675.2260, 63770.00
676.3850, 62758.00
677.5440, 61546.00
678.7030, 58958.00
679.8610, 56122.00
681.0200, 52427.00
682.1780, 48548.00
683.3360, 44924.00
684.4940, 41046.00
685.6520, 38121.00
686.8090, 34850.00
687.9670, 32360.00
689.1240, 30165.00
690.2810, 28231.00
691.4380, 26453.00
692.5950, 24688.00
693.7520, 23685.00
694.9080, 22528.00
696.0650, 21755.00
697.2210, 20786.00
698.3770, 20143.00
699.5330, 19340.00
700.6880, 18800.00
701.8440, 18136.00
702.9990, 17548.00
704.1550, 17273.00
705.3100, 16834.00
706.4650, 16464.00
707.6190, 16328.00
708.7740, 15984.00
709.9290, 15837.00
711.0830, 15620.00
712.2370, 15418.00
713.3910, 15174.00
714.5450, 15173.00
715.6980, 15072.00
716.8520, 14946.00
718.0050, 15013.13
719.1580, 15034.00
720.3110, 15104.00
721.4640, 15177.00
722.6170, 15223.00
723.7700, 15214.98
724.9220, 15039.00
726.0740, 15129.00
727.2260, 15011.00
728.3780, 14893.00
729.5300, 14881.00
730.6810, 14655.00
731.8330, 14633.00
732.9840, 14701.00
734.1350, 14473.00
735.2860, 14302.00
736.4370, 14158.00
737.5880, 14001.00
738.7380, 13970.00
739.8880, 13893.00
741.0390, 13793.00
742.1890, 13730.00
743.3380, 13627.00
744.4880, 13541.00
745.6380, 13486.00
746.7870, 13485.00
747.9360, 13477.00
749.0850, 13371.00
750.2340, 13482.00
751.3830, 13453.00
752.5310, 13373.00
753.6800, 13308.00
754.8280, 13251.00
755.9760, 13206.32
757.1240, 13208.07
758.2720, 13162.00
759.4190, 13268.00
760.5670, 13309.00
761.7140, 13399.00
762.8610, 13231.00
764.0080, 13297.00
765.1550, 13134.00
766.3020, 13114.00
767.4480, 13207.00
768.5950, 13308.00
769.7410, 13319.00
770.8870, 13261.00
772.0330, 13352.00
773.1780, 13395.00
774.3240, 13323.00
775.4690, 13432.00
776.6140, 13348.00
777.7590, 13284.00
778.9040, 13514.00
780.0490, 13469.00
781.1940, 13461.00
782.3380, 13516.00
783.4820, 13653.00
784.6260, 13545.00
785.7700, 13404.00
786.9140, 13604.00
788.0580, 13561.00
789.2010, 13590.00
790.3450, 13743.00
791.4880, 13575.00
792.6310, 13522.00
793.7730, 13586.00
794.9160, 13646.00
796.0590, 13649.00
797.2010, 13674.00
798.3430, 13797.00
799.4850, 13808.00
800.6270, 13760.00
801.7690, 13708.00
802.9100, 13671.00
804.0520, 13810.00
805.1930, 13851.00
806.3340, 13832.00
807.4750, 13860.00
808.6160, 13941.00
809.7560, 13869.00
810.8970, 13786.00
812.0370, 13775.00
813.1770, 13863.00
814.3170, 13939.00
815.4570, 13908.00
816.5960, 13979.00
817.7360, 13912.00
818.8750, 13961.00
820.0140, 13896.00
821.1530, 13973.00
822.2920, 13890.00
823.4310, 13968.00
824.5690, 13950.00
825.7070, 14024.00
826.8460, 14105.00
827.9840, 13987.00
829.1220, 14106.00
830.2590, 14186.00
831.3970, 14233.00
832.5340, 14131.00
833.6710, 14137.00
834.8080, 14138.00
835.9450, 14317.00
837.0820, 14229.00
838.2190, 14436.00
839.3550, 14127.00
840.4910, 14154.00
841.6270, 14269.00
842.7630, 14457.00
843.8990, 14233.00
845.0350, 14528.00
846.1700, 14425.00
847.3060, 14529.00
848.4410, 14516.00
849.5760, 14477.00
850.7100, 14544.00
851.8450, 14593.00
852.9800, 14442.00
854.1140, 14722.00
855.2480, 14679.00
856.3820, 14501.00
857.5160, 14663.00
858.6500, 14780.00
859.7830, 14855.00
860.9170, 14750.00
862.0500, 14802.00
863.1830, 14739.00
864.3160, 14881.00
865.4480, 14958.00
866.5810, 14933.00
867.7130, 14975.00
868.8460, 15009.00
869.9780, 15208.00
871.1100, 15240.00
872.2410, 15344.00
873.3730, 15327.00
874.5050, 15561.00
875.6360, 15569.00
876.7670, 15728.00
877.8980, 15774.00
879.0290, 15785.00
880.1590, 16135.00
881.2900, 16278.00
882.4200, 16305.00
883.5500, 16504.00
884.6800, 16895.00
885.8100, 17122.00
886.9400, 17323.00
888.0690, 17308.00
889.1990, 17625.00
890.3280, 17739.00
891.4570, 17805.00
892.5860, 18067.00
893.7140, 18263.00
894.8430, 18308.00
895.9710, 18223.00
897.1000, 18483.00
898.2280, 18499.00
899.3560, 18704.00
900.4830, 18721.00
901.6110, 18676.00
902.7380, 19076.00
903.8660, 19389.00
904.9930, 19466.00
906.1200, 19755.00
907.2460, 20033.00
908.3730, 20189.00
909.5000, 20491.00
910.6260, 20853.00
911.7520, 21026.00
912.8780, 21321.00
914.0040, 21618.88
915.1290, 21876.00
916.2550, 22208.00
917.3800, 22432.00
918.5050, 22715.02
919.6300, 22717.00
920.7550, 22919.00
921.8800, 22874.00
923.0040, 22657.00
924.1290, 22474.00
925.2530, 22547.00
926.3770, 22545.00
927.5010, 22349.00
928.6250, 21957.00
929.7480, 22167.00
930.8720, 21660.00
931.9950, 21449.00
933.1180, 21440.00
934.2410, 21063.00
935.3640, 20792.00
936.4860, 20727.00
937.6090, 20518.48
938.7310, 20424.29
939.8530, 20339.00
940.9750, 20211.00
942.0970, 20115.00
943.2180, 19903.00
944.3400, 19998.00
945.4610, 19875.00
946.5820, 19996.00
947.7030, 19830.00
948.8240, 19726.00
949.9450, 19759.00
951.0650, 19883.00
952.1860, 19741.00
953.3060, 19698.00
954.4260, 19586.00
955.5460, 19642.00
956.6650, 19574.00
957.7850, 19566.00
958.9040, 19692.00
960.0230, 19500.00
961.1420, 19360.00
962.2610, 19385.00
963.3800, 19440.00
964.4990, 19372.00
965.6170, 19408.47
966.7350, 19451.00
967.8530, 19396.00
968.9710, 19395.00
970.0890, 19368.00
971.2070, 19422.79
972.3240, 19373.00
973.4410, 19525.00
974.5580, 19534.00
975.6750, 19498.00
976.7920, 19363.00
977.9090, 19468.00
979.0250, 19547.00
980.1410, 19331.00
981.2580, 19467.00
982.3740, 19563.00
983.4890, 19708.00
984.6050, 19520.00
985.7200, 19889.00
986.8360, 19733.00
987.9510, 19811.00
989.0660, 20051.00
990.1810, 19952.00
991.2950, 20129.00
992.4100, 20333.00
993.5240, 20209.00
994.6390, 20556.00
995.7530, 20808.00
996.8660, 20856.00
997.9800, 21029.00
999.0940, 21162.00
1000.207, 21419.00
1001.320, 21661.00
1002.433, 21837.00
1003.546, 22084.00
1004.659, 22318.00
1005.772, 22495.00
1006.884, 22732.00
1007.996, 22970.00
1009.108, 23084.00
1010.220, 23441.00
1011.332, 23744.00
1012.444, 23796.00
1013.555, 24165.00
1014.666, 24094.00
1015.777, 24239.00
1016.888, 24483.00
1017.999, 24581.00
1019.110, 24710.00
1020.220, 24923.00
1021.331, 24831.00
1022.441, 24767.00
1023.551, 25045.00
1024.661, 24931.00
1025.770, 25102.00
1026.880, 25208.00
1027.989, 25545.00
1029.098, 24974.00
1030.207, 25518.00
1031.316, 25411.00
1032.425, 25356.00
1033.533, 25696.00
1034.642, 25665.00
1035.750, 25854.00
1036.858, 25842.00
1037.966, 25894.00
1039.073, 26145.00
1040.181, 26177.00
1041.288, 26355.00
1042.396, 26440.00
1043.503, 26480.00
1044.610, 26705.00
1045.716, 26623.00
1046.823, 26747.00
1047.929, 26964.00
1049.036, 26996.00
1050.142, 27426.00
1051.248, 27460.00
1052.353, 27770.00
1053.459, 27874.00
1054.564, 28157.00
1055.670, 28392.24
1056.775, 28622.00
1057.880, 28866.00
1058.985, 29138.00
1060.089, 29323.00
1061.194, 29564.00
1062.298, 29790.00
1063.402, 30088.00
1064.506, 29943.00
1065.610, 29947.00
1066.713, 30010.00
1067.817, 29633.00
1068.920, 29532.00
1070.023, 28946.00
1071.126, 28437.00
1072.229, 27806.00
1073.332, 27338.00
1074.435, 26910.00
1075.537, 26254.00
1076.639, 25801.86
1077.741, 24959.00
1078.843, 24716.00
1079.945, 23982.00
1081.046, 23350.00
1082.148, 22999.00
1083.249, 22641.00
1084.350, 22264.00
1085.451, 22017.00
1086.551, 21720.00
1087.652, 21475.75
1088.752, 21254.00
1089.853, 21064.00
1090.953, 20755.00
1092.053, 20598.00
1093.152, 20685.00
1094.252, 20470.00
1095.351, 20413.00
1096.451, 20337.00
1097.550, 20215.00
1098.649, 20104.00
1099.748, 20033.00
1100.846, 20028.00
1101.945, 19981.00
1103.043, 20039.00
1104.141, 19920.00
1105.239, 20066.00
1106.337, 19964.00
1107.434, 19916.00
1108.532, 19773.00
1109.629, 19775.00
1110.726, 20031.00
1111.823, 19828.00
1112.920, 19664.00
1114.017, 20010.00
1115.113, 20014.00
1116.210, 20070.00
1117.306, 20102.00
1118.402, 20141.27
1119.498, 20303.00
1120.593, 20241.00
1121.689, 20404.00
1122.784, 20482.00
1123.879, 20316.00
1124.974, 20231.00
1126.069, 20233.00
1127.164, 20063.00
1128.259, 20030.00
1129.353, 19937.00
1130.447, 19839.00
1131.541, 19868.00
1132.635, 19804.00
1133.729, 19895.00
1134.822, 20012.00
1135.916, 19867.00
1137.009, 19918.71
1138.102, 20050.00
1139.195, 19914.00
1140.288, 19791.00
1141.380, 19964.00
1142.473, 19716.00
1143.565, 19899.00
1144.657, 19935.00
1145.749, 19989.00
1146.841, 19887.00
1147.932, 19838.00
1149.024, 19780.00
1150.115, 19879.00
1151.206, 19919.00
1152.297, 19804.00
1153.388, 20003.00
1154.479, 19811.00
1155.569, 20124.00
1156.659, 19991.00
1157.750, 20069.00
1158.839, 19966.00
1159.929, 20071.00
1161.019, 20067.00
1162.108, 19994.00
1163.198, 20140.00
1164.287, 20263.00
1165.376, 20086.00
1166.465, 20185.00
1167.553, 20405.00
1168.642, 20369.00
1169.730, 20178.00
1170.818, 20175.00
1171.906, 20285.00
1172.994, 20294.00
1174.082, 20193.00
1175.170, 20481.00
1176.257, 20452.00
1177.344, 20441.00
1178.431, 20316.00
1179.518, 20245.00
1180.605, 20420.00
1181.691, 20607.00
1182.778, 20475.00
1183.864, 20448.00
1184.950, 20588.00
1186.036, 20686.00
1187.122, 20650.00
1188.207, 20718.00
1189.292, 20619.00
1190.378, 20648.00
1191.463, 20651.00
1192.548, 20946.00
1193.632, 20780.00
1194.717, 20523.00
1195.801, 20583.00
1196.886, 20896.00
1197.970, 20862.00
1199.054, 20912.00
1200.137, 20951.00
1201.221, 20987.00
1202.305, 21034.00
1203.388, 21112.00
1204.471, 21093.00
1205.554, 21165.00
1206.637, 21004.00
1207.719, 21148.00
1208.802, 21111.00
1209.884, 21108.96
1210.966, 21357.00
1212.048, 21197.00
1213.130, 21308.00
1214.212, 21488.00
1215.293, 21486.00
1216.374, 21473.00
1217.456, 21394.00
1218.536, 21534.00
1219.617, 21646.00
1220.698, 21577.00
1221.778, 21411.00
1222.859, 21656.00
1223.939, 21531.00
1225.019, 21580.00
1226.099, 21833.00
1227.178, 21869.00
1228.258, 21604.00
1229.337, 22003.00
1230.417, 21772.00
1231.496, 21783.00
1232.574, 21985.00
1233.653, 22035.00
1234.732, 21854.00
1235.810, 21969.00
1236.888, 21842.00
1237.966, 22152.00
1239.044, 22104.00
1240.122, 22220.00
1241.199, 22198.00
1242.277, 22367.00
1243.354, 22321.00
1244.431, 22417.00
1245.508, 22466.00
1246.585, 22339.00
1247.661, 22616.00
1248.738, 22641.00
1249.814, 22428.00
1250.890, 22578.00
1251.966, 22752.00
1253.042, 22693.00
1254.117, 22578.00
1255.193, 22608.00
1256.268, 22557.00
1257.343, 22657.00
1258.418, 22585.00
1259.493, 22737.00
1260.567, 22863.00
1261.642, 22955.00
1262.716, 22984.00
1263.790, 23044.69
1264.864, 22970.00
1265.938, 23110.00
1267.011, 23074.00
1268.085, 23147.00
1269.158, 23225.00
1270.231, 23115.00
