##NAMES=Edenite
##RRUFFID=R060029
##IDEAL CHEMISTRY=NaCa_2_Mg_5_(Si_7_Al)O_22_(OH)_2_
##LOCALITY=Renfrew County, Ontario, Canada
##OWNER=RRUFF
##SOURCE=University of Arizona Mineral Museum
##DESCRIPTION=Black prismatic
##STATUS=The identification of this mineral has been confirmed by X-ray diffraction and chemical analysis
##URL=rruff.info/R060029
##MEASURED CHEMISTRY=(Na_0.62_K_0.34_[box]_0.04_)(Ca_0.86_Na_0.14_)_2_(Mg_0.57_Fe^2+^_0.30_Fe^3+^_0.07_Al_0.05_Ti_0.01_Mn_0.01_)_5_(Si_6.61_Al_1.39_)O_22_((OH)_0.69_F_0.31_)_2_
##PIN_ID=M00286
##ORIENTATION=Laser parallel to (-1 0 -1). Fiducial mark perpendicular to laser is parallel to b [0 1 0]
131.6680, 28969.84
132.8980, 29109.13
134.1270, 29174.80
135.3560, 29169.68
136.5850, 29460.12
137.8140, 29712.97
139.0430, 29930.26
140.2710, 30005.26
141.5000, 30263.94
142.7280, 30448.92
143.9560, 30871.17
145.1840, 30915.22
146.4120, 31955.00
147.6390, 32560.00
148.8670, 33391.00
150.0940, 35099.00
151.3210, 37455.00
152.5490, 38533.00
153.7750, 38978.00
155.0020, 38709.00
156.2290, 37672.00
157.4550, 35919.00
158.6810, 34873.00
159.9080, 33587.00
161.1340, 32712.00
162.3590, 32525.00
163.5850, 32680.00
164.8110, 32727.00
166.0360, 32311.00
167.2610, 32001.00
168.4860, 32184.00
169.7110, 32749.00
170.9360, 32882.00
172.1610, 32629.00
173.3850, 32522.00
174.6100, 32406.00
175.8340, 32595.00
177.0580, 32849.00
178.2820, 32965.00
179.5050, 32743.00
180.7290, 32644.00
181.9520, 32552.00
183.1760, 32411.00
184.3990, 32416.00
185.6220, 32641.00
186.8450, 32718.00
188.0670, 33003.00
189.2900, 32818.00
190.5120, 33004.00
191.7340, 33440.00
192.9560, 33533.75
194.1780, 33898.00
195.4000, 33912.00
196.6220, 34427.00
197.8430, 34167.00
199.0640, 34772.00
200.2860, 35369.00
201.5070, 36294.00
202.7270, 36003.00
203.9480, 34452.00
205.1690, 32046.00
206.3890, 30662.00
207.6090, 30488.00
208.8290, 30709.00
210.0490, 31349.00
211.2690, 31550.00
212.4890, 32003.00
213.7080, 32708.00
214.9280, 32793.00
216.1470, 33301.00
217.3660, 33766.00
218.5850, 34466.00
219.8030, 35276.00
221.0220, 35283.00
222.2400, 35976.00
223.4590, 36711.00
224.6770, 36970.00
225.8950, 37335.00
227.1120, 37909.00
228.3300, 37990.37
229.5480, 37783.07
230.7650, 37554.47
231.9820, 37288.27
233.1990, 36986.50
234.4160, 36542.61
235.6330, 36282.23
236.8490, 35532.00
238.0660, 35330.00
239.2820, 34540.00
240.4980, 33959.00
241.7140, 33765.00
242.9300, 33282.00
244.1460, 32595.00
245.3610, 32230.00
246.5770, 31666.00
247.7920, 31365.00
249.0070, 31285.00
250.2220, 30993.00
251.4370, 30962.00
252.6510, 30508.00
253.8660, 30498.00
255.0800, 30366.02
256.2940, 30325.97
257.5080, 30248.32
258.7220, 30135.11
259.9360, 29879.77
261.1490, 29808.06
262.3630, 29662.69
263.5760, 29514.42
264.7890, 29468.53
266.0020, 29741.00
267.2150, 29478.00
268.4270, 29521.00
269.6400, 29828.00
270.8520, 29486.47
272.0640, 29707.87
273.2760, 29891.66
274.4880, 30039.89
275.7000, 30046.01
276.9120, 30235.63
278.1230, 30351.60
279.3340, 30464.56
280.5450, 30679.90
281.7560, 30706.58
282.9670, 30920.30
284.1780, 31059.35
285.3880, 31232.47
286.5980, 31386.73
287.8090, 31503.59
289.0190, 31624.00
290.2290, 31668.00
291.4380, 31670.00
292.6480, 31606.00
293.8570, 31759.00
295.0670, 31986.00
296.2760, 31902.42
297.4850, 31899.15
298.6930, 31785.00
299.9020, 31748.00
301.1110, 31639.67
302.3190, 31610.00
303.5270, 31420.31
304.7350, 31306.43
305.9430, 31224.00
307.1510, 31040.00
308.3580, 31019.00
309.5660, 30894.00
310.7730, 30857.58
311.9800, 30748.00
313.1870, 30797.00
314.3940, 30746.00
315.6010, 30680.00
316.8070, 30614.00
318.0130, 30387.00
319.2200, 30330.00
320.4260, 30216.91
321.6310, 30071.64
322.8370, 30134.98
324.0430, 30160.74
325.2480, 30150.93
326.4540, 29999.00
327.6590, 30030.60
328.8640, 29988.65
330.0680, 29943.71
331.2730, 30001.14
332.4780, 29869.90
333.6820, 29925.72
334.8860, 29832.91
336.0900, 29964.11
337.2940, 30057.72
338.4980, 30115.75
339.7010, 30031.63
340.9050, 30131.06
342.1080, 30156.91
343.3110, 30179.75
344.5140, 30304.97
345.7170, 30241.52
346.9200, 30365.11
348.1220, 30414.00
349.3240, 30497.07
350.5270, 30578.00
351.7290, 30589.00
352.9310, 30845.00
354.1320, 30912.90
355.3340, 31061.93
356.5350, 31339.00
357.7370, 31297.00
358.9380, 31350.00
360.1390, 31331.00
361.3400, 31452.00
362.5400, 31462.00
363.7410, 31725.00
364.9410, 31745.12
366.1410, 31807.75
367.3410, 31948.00
368.5410, 31864.00
369.7410, 32052.00
370.9400, 32077.88
372.1400, 32255.74
373.3390, 32509.00
374.5380, 32571.00
375.7370, 32793.00
376.9360, 32739.31
378.1350, 32894.33
379.3330, 32881.00
380.5310, 33009.00
381.7300, 32837.00
382.9280, 32698.00
384.1260, 32507.00
385.3230, 32557.00
386.5210, 32249.00
387.7180, 32096.00
388.9160, 31774.00
390.1130, 31660.00
391.3100, 31670.00
392.5060, 31380.62
393.7030, 31342.22
394.9000, 31266.23
396.0960, 31154.77
397.2920, 30901.20
398.4880, 30831.14
399.6840, 30766.88
400.8800, 30702.48
402.0750, 30761.92
403.2710, 30799.93
404.4660, 30876.26
405.6610, 30915.00
406.8560, 30918.17
408.0510, 30779.24
409.2450, 30823.82
410.4400, 31146.00
411.6340, 31151.25
412.8280, 31386.07
414.0220, 31583.30
415.2160, 31744.96
416.4100, 31966.78
417.6030, 32030.00
418.7970, 32342.00
419.9900, 32449.00
421.1830, 32579.00
422.3760, 32902.00
423.5690, 33392.00
424.7610, 33435.00
425.9540, 34010.00
427.1460, 34260.00
428.3380, 34247.00
429.5300, 34416.50
430.7220, 34556.80
431.9140, 34613.82
433.1050, 34589.65
434.2970, 34377.67
435.4880, 34303.66
436.6790, 34110.50
437.8700, 33868.73
439.0610, 33683.74
440.2510, 33264.76
441.4420, 32986.99
442.6320, 32898.00
443.8220, 32813.00
445.0120, 32737.00
446.2020, 32214.00
447.3910, 32288.00
448.5810, 32361.00
449.7700, 31861.00
450.9600, 31797.00
452.1490, 31566.00
453.3370, 31625.00
454.5260, 31344.00
455.7150, 31073.00
456.9030, 30916.00
458.0910, 30826.00
459.2800, 30498.00
460.4670, 30261.00
461.6550, 30227.00
462.8430, 30264.00
464.0300, 29993.00
465.2180, 29955.00
466.4050, 29739.60
467.5920, 29761.92
468.7790, 29746.65
469.9650, 29695.87
471.1520, 29502.92
472.3380, 29493.53
473.5250, 29727.00
474.7110, 29591.00
475.8970, 29751.00
477.0820, 29776.00
478.2680, 29684.00
479.4540, 29756.00
480.6390, 29740.00
481.8240, 29670.00
483.0090, 29994.00
484.1940, 30022.00
485.3780, 30277.00
486.5630, 30413.00
487.7470, 30411.00
488.9320, 30536.79
490.1160, 30539.00
491.3000, 30689.00
492.4830, 30813.00
493.6670, 31078.00
494.8500, 31372.00
496.0340, 31369.00
497.2170, 31769.00
498.4000, 31741.00
499.5820, 32164.00
500.7650, 32156.00
501.9480, 32479.00
503.1300, 32529.00
504.3120, 33223.00
505.4940, 33039.00
506.6760, 33433.44
507.8580, 33664.41
509.0390, 33857.67
510.2210, 34015.48
511.4020, 34031.05
512.5830, 34230.13
513.7640, 34355.67
514.9450, 34478.20
516.1250, 34702.99
517.3060, 34739.24
518.4860, 34962.41
519.6660, 35110.91
520.8460, 35293.58
522.0260, 35402.26
523.2060, 35500.62
524.3850, 35572.77
525.5650, 35736.60
526.7440, 35666.00
527.9230, 35838.00
529.1020, 35846.00
530.2810, 35884.00
531.4590, 36123.00
532.6380, 36004.00
533.8160, 36194.00
534.9940, 36180.00
536.1720, 36027.00
537.3500, 35942.00
538.5270, 35885.00
539.7050, 35810.00
540.8820, 35523.00
542.0590, 35441.00
543.2360, 35324.90
544.4130, 35271.00
545.5900, 35179.50
546.7660, 35052.55
547.9430, 34783.37
549.1190, 34697.82
550.2950, 34538.72
551.4710, 34376.61
552.6470, 34316.89
553.8220, 34068.61
554.9980, 33955.00
556.1730, 33677.00
557.3480, 33631.00
558.5230, 33516.00
559.6980, 33239.00
560.8730, 33092.00
562.0470, 33040.00
563.2220, 32820.00
564.3960, 32771.00
565.5700, 32677.00
566.7440, 32598.00
567.9170, 32579.00
569.0910, 32103.00
570.2640, 32117.00
571.4380, 31930.00
572.6110, 31867.00
573.7840, 31393.00
574.9570, 31247.00
576.1290, 31000.00
577.3020, 30703.00
578.4740, 30623.00
579.6460, 30366.00
580.8180, 29930.00
581.9900, 29857.00
583.1620, 29541.00
584.3330, 29282.00
585.5040, 29248.00
586.6760, 28649.00
587.8470, 28605.00
589.0180, 28508.00
590.1880, 28360.00
591.3590, 28250.00
592.5290, 28136.00
593.7000, 28002.18
594.8700, 28054.00
596.0400, 27715.00
597.2090, 27856.00
598.3790, 27658.00
599.5490, 27746.00
600.7180, 27723.00
601.8870, 27808.00
603.0560, 27940.00
604.2250, 27901.00
605.3940, 27860.00
606.5620, 27736.00
607.7300, 27824.00
608.8990, 27946.00
610.0670, 28020.00
611.2350, 27978.00
612.4020, 27897.00
613.5700, 27982.00
614.7370, 28067.00
615.9050, 28123.00
617.0720, 28208.16
618.2390, 28203.00
619.4060, 28344.00
620.5720, 28360.00
621.7390, 28395.00
622.9050, 28666.00
624.0710, 28722.00
625.2370, 28781.00
626.4030, 29114.00
627.5690, 29191.00
628.7340, 29340.00
629.9000, 29471.00
631.0650, 29544.00
632.2300, 29579.00
633.3950, 29652.00
634.5600, 29934.00
635.7240, 30085.00
636.8890, 30272.12
638.0530, 30355.00
639.2170, 30700.00
640.3810, 30879.00
641.5450, 31167.00
642.7080, 31325.00
643.8720, 31670.00
645.0350, 31992.00
646.1980, 32057.00
647.3610, 32792.00
648.5240, 32822.00
649.6870, 33103.00
650.8490, 33472.00
652.0120, 33802.00
653.1740, 34331.73
654.3360, 35066.00
655.4980, 35524.00
656.6600, 36249.00
657.8210, 36992.00
658.9830, 37723.00
660.1440, 38473.00
661.3050, 39608.00
662.4660, 40514.00
663.6270, 41603.00
664.7870, 42425.00
665.9480, 43021.00
667.1080, 43432.00
668.2680, 43421.00
669.4280, 43323.00
670.5880, 43024.00
671.7480, 42542.00
672.9070, 42003.00
674.0670, 41115.00
675.2260, 39878.00
676.3850, 38876.00
677.5440, 38137.00
678.7030, 37010.00
679.8610, 35937.00
681.0200, 35227.00
682.1780, 34704.00
683.3360, 33884.00
684.4940, 33607.00
685.6520, 33077.00
686.8090, 32508.00
687.9670, 32153.45
689.1240, 31775.17
690.2810, 31468.00
691.4380, 31218.00
692.5950, 31269.00
693.7520, 31058.38
694.9080, 30849.00
696.0650, 30773.00
697.2210, 30566.00
698.3770, 30576.00
699.5330, 30308.00
700.6880, 30411.00
701.8440, 30434.67
702.9990, 30553.00
704.1550, 30612.00
705.3100, 30862.00
706.4650, 30892.00
707.6190, 31160.00
708.7740, 31426.00
709.9290, 31458.18
711.0830, 31450.00
712.2370, 31487.00
713.3910, 31649.65
714.5450, 31754.00
715.6980, 31990.86
716.8520, 32095.00
718.0050, 32186.00
719.1580, 32339.69
720.3110, 32229.00
721.4640, 32511.00
722.6170, 32413.00
723.7700, 32373.00
724.9220, 32618.00
726.0740, 32392.38
727.2260, 32626.30
728.3780, 32765.21
729.5300, 32813.42
730.6810, 32544.52
731.8330, 32650.48
732.9840, 32585.08
734.1350, 32498.18
735.2860, 32613.76
736.4370, 32281.00
737.5880, 32332.00
738.7380, 32053.00
739.8880, 32266.00
741.0390, 32043.00
742.1890, 31825.00
743.3380, 31584.00
744.4880, 31774.00
745.6380, 31597.00
746.7870, 31331.00
747.9360, 31426.00
749.0850, 31072.00
750.2340, 31150.00
751.3830, 30767.00
752.5310, 31056.00
753.6800, 30810.89
754.8280, 30657.45
755.9760, 30604.00
757.1240, 30334.00
758.2720, 30344.00
759.4190, 30290.00
760.5670, 30382.00
761.7140, 30287.00
762.8610, 30104.00
764.0080, 30006.00
765.1550, 29966.16
766.3020, 29917.15
767.4480, 29983.00
768.5950, 29983.00
769.7410, 30113.00
770.8870, 30267.00
772.0330, 30190.00
773.1780, 30213.00
774.3240, 30524.00
775.4690, 30525.00
776.6140, 30494.13
777.7590, 29980.00
778.9040, 30326.00
780.0490, 30203.00
781.1940, 30154.00
782.3380, 30237.00
783.4820, 30192.00
784.6260, 30047.00
785.7700, 29964.00
786.9140, 29883.00
788.0580, 29964.00
789.2010, 29915.95
790.3450, 29858.34
791.4880, 29801.00
792.6310, 29758.08
793.7730, 29768.08
794.9160, 29665.00
796.0590, 29650.73
797.2010, 29596.45
798.3430, 29740.14
799.4850, 29803.96
800.6270, 29792.19
801.7690, 29478.42
802.9100, 29554.64
804.0520, 29474.56
805.1930, 29388.10
806.3340, 29519.21
807.4750, 29249.40
808.6160, 29377.05
809.7560, 29346.09
810.8970, 29408.00
812.0370, 29292.00
813.1770, 29225.00
814.3170, 29176.00
815.4570, 29163.00
816.5960, 29143.93
817.7360, 29199.00
818.8750, 29146.56
820.0140, 29170.67
821.1530, 29162.00
822.2920, 29094.60
823.4310, 29143.90
824.5690, 29155.65
825.7070, 29131.82
826.8460, 28965.85
827.9840, 28983.42
829.1220, 28927.45
830.2590, 28868.49
831.3970, 28911.89
832.5340, 28766.65
833.6710, 28836.00
834.8080, 28856.80
835.9450, 28937.00
837.0820, 28914.00
838.2190, 28875.00
839.3550, 28947.00
840.4910, 28866.00
841.6270, 28875.00
842.7630, 28809.00
843.8990, 28855.32
845.0350, 28888.79
846.1700, 28960.00
847.3060, 29046.00
848.4410, 29097.00
849.5760, 29243.00
850.7100, 29190.00
851.8450, 29317.00
852.9800, 29184.65
854.1140, 29328.08
855.2480, 29433.92
856.3820, 29504.19
857.5160, 29432.34
858.6500, 29544.00
859.7830, 29582.07
860.9170, 29617.17
862.0500, 29754.61
863.1830, 29703.38
864.3160, 29839.20
865.4480, 29983.00
866.5810, 30022.00
867.7130, 30134.00
868.8460, 30131.00
869.9780, 30164.00
871.1100, 30382.00
872.2410, 30280.39
873.3730, 30389.85
874.5050, 30263.00
875.6360, 30443.00
876.7670, 30579.00
877.8980, 30560.00
879.0290, 30602.00
880.1590, 30531.00
881.2900, 30578.96
882.4200, 30633.00
883.5500, 30644.00
884.6800, 30605.00
885.8100, 30654.48
886.9400, 30651.37
888.0690, 30876.20
889.1990, 31021.18
890.3280, 31090.54
891.4570, 30857.90
892.5860, 31015.23
893.7140, 31016.23
894.8430, 31010.87
895.9710, 31223.04
897.1000, 31034.33
898.2280, 31243.06
899.3560, 31293.12
900.4830, 31415.75
901.6110, 31381.19
902.7380, 31395.15
903.8660, 31566.44
904.9930, 31650.60
906.1200, 31597.90
907.2460, 31725.11
908.3730, 31530.84
909.5000, 31618.71
910.6260, 31828.28
911.7520, 31783.44
912.8780, 31913.53
914.0040, 31805.94
915.1290, 31765.00
916.2550, 31914.00
917.3800, 31903.00
918.5050, 32067.00
919.6300, 32020.00
920.7550, 32100.00
921.8800, 32099.00
923.0040, 32195.00
924.1290, 32270.00
925.2530, 32318.00
926.3770, 32301.00
927.5010, 32349.00
928.6250, 32186.00
929.7480, 32336.00
930.8720, 32417.00
931.9950, 32319.00
933.1180, 32418.00
934.2410, 32469.00
935.3640, 32292.00
936.4860, 32601.00
937.6090, 32825.00
938.7310, 32593.00
939.8530, 32678.00
940.9750, 32546.00
942.0970, 32764.00
943.2180, 32782.00
944.3400, 32845.00
945.4610, 32992.00
946.5820, 33152.00
947.7030, 33218.04
948.8240, 33249.26
949.9450, 33257.00
951.0650, 33306.00
952.1860, 33026.00
953.3060, 33220.00
954.4260, 33370.00
955.5460, 33693.00
956.6650, 33512.00
957.7850, 33643.00
958.9040, 33670.00
960.0230, 33542.00
961.1420, 33818.00
962.2610, 33894.00
963.3800, 33537.00
964.4990, 33650.00
965.6170, 33697.00
966.7350, 33804.00
967.8530, 33406.00
968.9710, 33594.00
970.0890, 33467.00
971.2070, 33584.98
972.3240, 33808.00
973.4410, 33833.00
974.5580, 33862.00
975.6750, 33699.00
976.7920, 33814.00
977.9090, 33928.00
979.0250, 34156.00
980.1410, 34120.00
981.2580, 34206.00
982.3740, 34334.00
983.4890, 34359.00
984.6050, 34368.00
985.7200, 34510.00
986.8360, 34622.92
987.9510, 34689.00
989.0660, 34925.00
990.1810, 35107.00
991.2950, 35178.00
992.4100, 35448.00
993.5240, 35642.00
994.6390, 35537.00
995.7530, 35608.00
996.8660, 35762.00
997.9800, 36346.00
999.0940, 36369.00
1000.207, 36568.00
1001.320, 36695.80
1002.433, 36616.00
1003.546, 36678.00
1004.659, 36819.00
1005.772, 36700.00
1006.884, 36940.00
1007.996, 36983.00
1009.108, 36973.00
1010.220, 36932.00
1011.332, 37243.00
1012.444, 37236.00
1013.555, 37181.00
1014.666, 37427.00
1015.777, 36960.00
1016.888, 37304.00
1017.999, 37618.00
1019.110, 37528.00
1020.220, 37247.00
1021.331, 37547.00
1022.441, 37504.00
1023.551, 37584.00
1024.661, 37323.00
1025.770, 37632.00
1026.880, 37445.00
1027.989, 37345.00
1029.098, 37252.00
1030.207, 37231.00
1031.316, 37301.00
1032.425, 37195.00
1033.533, 37158.00
1034.642, 36901.00
1035.750, 36914.00
1036.858, 36880.00
1037.966, 37062.00
1039.073, 36465.00
1040.181, 36772.00
1041.288, 36411.00
1042.396, 36229.58
1043.503, 36331.00
1044.610, 35983.00
1045.716, 35895.00
1046.823, 36062.00
1047.929, 35818.00
1049.036, 35714.00
1050.142, 35573.00
1051.248, 35602.00
1052.353, 35572.00
1053.459, 35634.00
1054.564, 35170.00
1055.670, 35008.00
1056.775, 35228.00
1057.880, 35039.00
1058.985, 35070.00
1060.089, 34899.00
1061.194, 34849.00
1062.298, 34777.00
1063.402, 34420.00
1064.506, 34421.00
1065.610, 34168.00
1066.713, 34394.00
1067.817, 34162.00
1068.920, 34307.00
1070.023, 33820.00
1071.126, 33709.00
1072.229, 33827.00
1073.332, 33710.00
1074.435, 33632.00
1075.537, 33655.00
1076.639, 33611.00
1077.741, 33447.00
1078.843, 33365.00
1079.945, 33256.00
1081.046, 33092.00
1082.148, 33146.00
1083.249, 33337.00
1084.350, 33022.00
1085.451, 33091.00
1086.551, 32874.00
1087.652, 32907.00
1088.752, 32615.00
1089.853, 32838.00
1090.953, 32663.00
1092.053, 32432.00
1093.152, 32475.00
1094.252, 32302.00
1095.351, 32373.00
1096.451, 32458.00
1097.550, 31940.00
1098.649, 32236.00
1099.748, 32383.00
1100.846, 32030.00
1101.945, 31996.00
1103.043, 31965.00
1104.141, 31457.00
1105.239, 31626.00
1106.337, 31470.15
1107.434, 31526.00
1108.532, 31404.00
1109.629, 31363.00
1110.726, 31271.00
1111.823, 31033.00
1112.920, 30861.00
1114.017, 30685.00
1115.113, 30574.00
1116.210, 30594.00
1117.306, 30596.00
1118.402, 30587.88
1119.498, 30544.53
1120.593, 30575.00
1121.689, 30453.00
1122.784, 30298.00
1123.879, 30300.00
1124.974, 30058.00
1126.069, 30059.00
1127.164, 30173.00
1128.259, 29976.00
1129.353, 29827.00
1130.447, 30067.00
1131.541, 29597.00
1132.635, 29810.00
1133.729, 29943.00
1134.822, 29743.00
1135.916, 29819.00
1137.009, 29875.00
1138.102, 29525.00
1139.195, 29588.00
1140.288, 29738.00
1141.380, 29532.00
1142.473, 29355.00
1143.565, 29412.00
1144.657, 29443.00
1145.749, 29171.00
1146.841, 29350.00
1147.932, 29376.00
1149.024, 29372.00
1150.115, 29458.00
1151.206, 29360.00
1152.297, 29154.00
1153.388, 29129.00
1154.479, 29332.00
1155.569, 29410.00
1156.659, 29133.00
1157.750, 29292.00
1158.839, 29198.00
1159.929, 29161.00
1161.019, 29161.00
1162.108, 28995.00
1163.198, 29189.00
1164.287, 29222.00
1165.376, 29110.00
1166.465, 29237.00
1167.553, 29201.00
1168.642, 28950.00
1169.730, 29196.00
1170.818, 29056.00
1171.906, 29047.68
1172.994, 29036.00
1174.082, 29114.00
1175.170, 29110.00
1176.257, 29082.72
1177.344, 29196.00
1178.431, 29018.00
1179.518, 28955.00
1180.605, 28958.00
1181.691, 28882.38
1182.778, 29053.00
1183.864, 28923.00
1184.950, 28847.00
1186.036, 29011.00
1187.122, 28975.65
1188.207, 29013.48
1189.292, 29079.00
1190.378, 29051.00
1191.463, 28987.00
1192.548, 28958.00
1193.632, 28987.00
1194.717, 28990.00
1195.801, 28885.00
1196.886, 28720.00
1197.970, 28924.00
1199.054, 29043.00
1200.137, 28924.00
1201.221, 28885.00
1202.305, 28950.62
1203.388, 28916.83
1204.471, 28992.00
1205.554, 28959.00
1206.637, 28894.00
1207.719, 28859.00
1208.802, 28847.00
1209.884, 28835.29
1210.966, 28925.00
1212.048, 28891.00
1213.130, 28920.00
1214.212, 29027.00
1215.293, 28846.00
1216.374, 29002.00
1217.456, 28902.00
1218.536, 29117.00
1219.617, 28967.00
1220.698, 29113.00
1221.778, 28855.00
1222.859, 28916.03
1223.939, 28944.35
1225.019, 28914.00
1226.099, 28997.00
1227.178, 29001.00
1228.258, 28931.00
1229.337, 28855.00
1230.417, 28892.00
1231.496, 28979.00
1232.574, 28925.09
1233.653, 28820.00
1234.732, 29023.00
1235.810, 28739.00
1236.888, 29014.00
1237.966, 28818.46
1239.044, 29005.08
1240.122, 29111.81
1241.199, 29142.95
1242.277, 28872.09
1243.354, 28991.20
1244.431, 28954.02
1245.508, 28910.44
1246.585, 29084.43
1247.661, 28857.49
1248.738, 29028.03
1249.814, 29039.90
1250.890, 29124.39
1251.966, 29051.64
1253.042, 29027.45
1254.117, 29160.55
1255.193, 29206.56
1256.268, 29115.70
1257.343, 29204.80
1258.418, 28972.37
1259.493, 29022.09
1260.567, 29193.54
1261.642, 29110.58
1262.716, 29202.55
1263.790, 29227.90
1264.864, 28950.48
1265.938, 29199.60
1267.011, 28994.00
1268.085, 28986.00
1269.158, 28962.00
1270.231, 28869.00
1271.304, 28981.00
1272.377, 29039.00
1273.450, 28914.00
1274.522, 28944.00
1275.594, 29036.00
1276.666, 28972.00
1277.738, 29073.00
1278.810, 28923.00
1279.882, 28794.00
1280.953, 28753.00
1282.025, 29112.00
1283.096, 29079.00
1284.167, 28968.00
1285.238, 29159.00
1286.308, 29030.00
1287.379, 29157.00
1288.449, 29003.00
1289.519, 29047.00
1290.589, 29079.00
1291.659, 29226.00
1292.729, 29203.00
1293.798, 29011.00
1294.868, 29100.00
1295.937, 29079.00
1297.006, 28958.00
1298.075, 29173.00
1299.143, 29071.00
1300.212, 29261.00
1301.280, 29131.00
