##NAMES=Edenite
##RRUFFID=R050415
##IDEAL CHEMISTRY=NaCa_2_Mg_5_(Si_7_Al)O_22_(OH)_2_
##LOCALITY=Mogok, Burma
##OWNER=RRUFF
##SOURCE=Marcus Origlieri
##DESCRIPTION=Transparent pale green water worn fragment
##STATUS=The identification of this mineral has been confirmed by X-ray diffraction and chemical analysis
##URL=rruff.info/R050415
##MEASURED CHEMISTRY=(Na_0.83_K_0.17_)(Ca_1.76_Na_0.24_)_&#931;=2_(Mg_4.54_Al_0.40_Fe^3+^_0.06_)_&#931;=5_(Si_6.74_Al_1.26_)O_22_((OH)_0.52_F_0.48_)_2_
##PIN_ID=L01355
##ORIENTATION=Laser parallel to -a* (-1 0 0). Fiducial mark perpendicular to laser is parallel to -b [0 -1 0]
93.48000, 13854.00
94.71400, 14161.00
95.94800, 14490.00
97.18200, 14735.67
98.41600, 14954.19
99.64900, 15211.00
100.8830, 15338.00
102.1160, 15454.00
103.3490, 15687.00
104.5820, 16316.00
105.8150, 16917.00
107.0470, 18202.00
108.2800, 17952.28
109.5120, 19092.00
110.7440, 17857.00
111.9760, 17851.00
113.2080, 18095.00
114.4400, 18304.00
115.6710, 18366.00
116.9030, 18105.00
118.1340, 17910.00
119.3650, 17587.00
120.5960, 17376.00
121.8270, 16783.00
123.0580, 16660.00
124.2880, 16099.00
125.5190, 15558.00
126.7490, 15222.00
127.9790, 14873.00
129.2090, 14529.00
130.4390, 14179.00
131.6680, 14009.06
132.8980, 13855.35
134.1270, 13787.00
135.3560, 13742.00
136.5850, 13800.00
137.8140, 13786.00
139.0430, 13769.00
140.2710, 13733.00
141.5000, 13543.00
142.7280, 13526.00
143.9560, 13551.00
145.1840, 13519.00
146.4120, 13669.00
147.6390, 13522.00
148.8670, 13822.00
150.0940, 14161.00
151.3210, 14583.00
152.5490, 15079.00
153.7750, 15419.00
155.0020, 15938.00
156.2290, 16694.00
157.4550, 17183.00
158.6810, 17911.00
159.9080, 18233.00
161.1340, 18920.00
162.3590, 19561.00
163.5850, 20135.00
164.8110, 20315.00
166.0360, 20358.00
167.2610, 20355.00
168.4860, 19869.00
169.7110, 19582.00
170.9360, 18986.00
172.1610, 18222.00
173.3850, 17718.00
174.6100, 17568.00
175.8340, 17325.00
177.0580, 17006.00
178.2820, 17169.00
179.5050, 17004.00
180.7290, 16684.00
181.9520, 16753.00
183.1760, 16665.00
184.3990, 16571.00
185.6220, 16487.00
186.8450, 16414.00
188.0670, 16212.00
189.2900, 15859.00
190.5120, 15801.00
191.7340, 15558.00
192.9560, 15421.00
194.1780, 15365.00
195.4000, 15472.00
196.6220, 15304.00
197.8430, 15339.00
199.0640, 15596.00
200.2860, 15865.00
201.5070, 16146.00
202.7270, 16294.00
203.9480, 16594.00
205.1690, 16761.00
206.3890, 17126.00
207.6090, 17567.00
208.8290, 18159.00
210.0490, 18590.00
211.2690, 19170.00
212.4890, 19709.00
213.7080, 20420.00
214.9280, 20806.00
216.1470, 21322.00
217.3660, 21724.00
218.5850, 22369.00
219.8030, 22893.02
221.0220, 23147.00
222.2400, 24156.00
223.4590, 24828.00
224.6770, 25638.00
225.8950, 27025.00
227.1120, 28659.00
228.3300, 29979.00
229.5480, 31393.00
230.7650, 32723.00
231.9820, 34246.00
233.1990, 35184.00
234.4160, 36268.00
235.6330, 37724.00
236.8490, 38178.00
238.0660, 38601.00
239.2820, 38365.00
240.4980, 38187.00
241.7140, 37158.00
242.9300, 36064.00
244.1460, 35013.00
245.3610, 33799.46
246.5770, 32615.39
247.7920, 31315.00
249.0070, 30208.00
250.2220, 28943.00
251.4370, 27922.00
252.6510, 26908.00
253.8660, 25662.00
255.0800, 24459.00
256.2940, 23236.00
257.5080, 22629.00
258.7220, 21585.82
259.9360, 21278.00
261.1490, 20026.00
262.3630, 19353.00
263.5760, 18666.00
264.7890, 18243.00
266.0020, 17829.00
267.2150, 17299.00
268.4270, 17200.00
269.6400, 16800.00
270.8520, 16678.00
272.0640, 16285.00
273.2760, 16510.00
274.4880, 16049.00
275.7000, 16252.00
276.9120, 16100.00
278.1230, 15922.00
279.3340, 15809.00
280.5450, 15739.00
281.7560, 15688.11
282.9670, 15680.08
284.1780, 15685.00
285.3880, 15738.00
286.5980, 15758.00
287.8090, 15820.00
289.0190, 15847.00
290.2290, 15976.00
291.4380, 15940.00
292.6480, 16162.00
293.8570, 16207.00
295.0670, 16136.00
296.2760, 16173.00
297.4850, 16362.00
298.6930, 16301.00
299.9020, 16603.00
301.1110, 16556.00
302.3190, 16698.00
303.5270, 16755.00
304.7350, 16798.00
305.9430, 17043.00
307.1510, 17301.00
308.3580, 17366.00
309.5660, 17507.00
310.7730, 17642.00
311.9800, 17846.68
313.1870, 18204.00
314.3940, 18371.00
315.6010, 18562.00
316.8070, 18681.21
318.0130, 18779.85
319.2200, 18751.00
320.4260, 18865.00
321.6310, 18803.00
322.8370, 18724.00
324.0430, 18727.00
325.2480, 18362.00
326.4540, 18429.00
327.6590, 18108.00
328.8640, 17709.00
330.0680, 17841.00
331.2730, 17890.00
332.4780, 17614.00
333.6820, 17478.00
334.8860, 17454.00
336.0900, 17534.00
337.2940, 17337.00
338.4980, 17435.00
339.7010, 17289.00
340.9050, 17339.00
342.1080, 17477.00
343.3110, 17477.00
344.5140, 17551.00
345.7170, 17523.00
346.9200, 17681.00
348.1220, 17839.00
349.3240, 17838.00
350.5270, 17759.00
351.7290, 17924.00
352.9310, 17956.00
354.1320, 18200.00
355.3340, 18273.00
356.5350, 18361.00
357.7370, 18643.00
358.9380, 18869.00
360.1390, 18964.00
361.3400, 19266.00
362.5400, 19409.00
363.7410, 19801.00
364.9410, 20045.00
366.1410, 20452.00
367.3410, 20724.00
368.5410, 20812.00
369.7410, 21168.50
370.9400, 21226.00
372.1400, 21625.00
373.3390, 21743.00
374.5380, 21849.00
375.7370, 22087.00
376.9360, 22374.00
378.1350, 22713.94
379.3330, 23137.00
380.5310, 23629.00
381.7300, 24059.00
382.9280, 24700.00
384.1260, 25071.00
385.3230, 25206.00
386.5210, 25700.00
387.7180, 25910.00
388.9160, 26192.00
390.1130, 26565.00
391.3100, 26484.00
392.5060, 26559.00
393.7030, 26229.00
394.9000, 25753.00
396.0960, 25276.00
397.2920, 24782.00
398.4880, 24316.00
399.6840, 23519.00
400.8800, 22865.00
402.0750, 22202.00
403.2710, 21654.00
404.4660, 21288.00
405.6610, 20936.00
406.8560, 20682.85
408.0510, 20535.00
409.2450, 20454.00
410.4400, 20489.00
411.6340, 20643.00
412.8280, 20524.00
414.0220, 20778.00
415.2160, 20822.00
416.4100, 21318.00
417.6030, 21384.00
418.7970, 21527.00
419.9900, 21755.00
421.1830, 21923.00
422.3760, 21820.00
423.5690, 22113.00
424.7610, 21872.00
425.9540, 22043.00
427.1460, 21863.00
428.3380, 21664.00
429.5300, 21477.00
430.7220, 20997.00
431.9140, 20634.00
433.1050, 20164.00
434.2970, 19844.00
435.4880, 19366.00
436.6790, 18718.00
437.8700, 18308.00
439.0610, 17869.00
440.2510, 17598.00
441.4420, 17191.00
442.6320, 16837.00
443.8220, 16747.00
445.0120, 16484.00
446.2020, 16294.00
447.3910, 16042.00
448.5810, 15876.00
449.7700, 15846.00
450.9600, 15855.00
452.1490, 15660.00
453.3370, 15618.00
454.5260, 15563.00
455.7150, 15593.00
456.9030, 15534.00
458.0910, 15651.00
459.2800, 15770.00
460.4670, 15691.00
461.6550, 15670.00
462.8430, 15596.00
464.0300, 15681.00
465.2180, 15698.00
466.4050, 15854.00
467.5920, 15614.00
468.7790, 15793.00
469.9650, 15766.00
471.1520, 15607.00
472.3380, 15588.00
473.5250, 15841.00
474.7110, 15578.00
475.8970, 15721.00
477.0820, 15446.00
478.2680, 15559.00
479.4540, 15578.00
480.6390, 15766.00
481.8240, 15698.00
483.0090, 15786.00
484.1940, 15696.00
485.3780, 15767.00
486.5630, 15728.00
487.7470, 15776.00
488.9320, 15924.00
490.1160, 15904.00
491.3000, 15869.00
492.4830, 15886.89
493.6670, 15690.00
494.8500, 15783.00
496.0340, 15827.00
497.2170, 15726.00
498.4000, 15981.00
499.5820, 15930.00
500.7650, 16060.00
501.9480, 16302.00
503.1300, 16521.00
504.3120, 16836.00
505.4940, 16901.00
506.6760, 17265.00
507.8580, 17957.00
509.0390, 17896.00
510.2210, 18413.00
511.4020, 18517.00
512.5830, 19024.00
513.7640, 19187.00
514.9450, 19588.00
516.1250, 19788.00
517.3060, 19712.00
518.4860, 19995.00
519.6660, 19996.00
520.8460, 19871.00
522.0260, 19902.00
523.2060, 19748.00
524.3850, 19643.00
525.5650, 19500.00
526.7440, 19343.00
527.9230, 19071.00
529.1020, 18767.00
530.2810, 18532.00
531.4590, 18197.00
532.6380, 18012.00
533.8160, 17930.00
534.9940, 17565.00
536.1720, 17620.00
537.3500, 17360.00
538.5270, 17058.00
539.7050, 16934.00
540.8820, 16733.02
542.0590, 16548.00
543.2360, 16496.00
544.4130, 16469.00
545.5900, 16436.00
546.7660, 16297.00
547.9430, 16308.00
549.1190, 16145.00
550.2950, 16125.00
551.4710, 16035.00
552.6470, 15919.00
553.8220, 15878.00
554.9980, 15997.00
556.1730, 16067.00
557.3480, 16014.00
558.5230, 16098.00
559.6980, 16069.00
560.8730, 16076.57
562.0470, 16061.17
563.2220, 16067.00
564.3960, 15995.00
565.5700, 15956.00
566.7440, 15943.00
567.9170, 16090.00
569.0910, 16082.00
570.2640, 16121.00
571.4380, 16048.00
572.6110, 16147.00
573.7840, 16068.00
574.9570, 15976.00
576.1290, 16188.00
577.3020, 16173.00
578.4740, 16242.00
579.6460, 16264.00
580.8180, 16394.00
581.9900, 16499.00
583.1620, 16436.00
584.3330, 16484.00
585.5040, 16421.00
586.6760, 16472.00
587.8470, 16700.00
589.0180, 16586.00
590.1880, 16533.00
591.3590, 16550.00
592.5290, 16435.00
593.7000, 16463.00
594.8700, 16405.00
596.0400, 16449.00
597.2090, 16571.00
598.3790, 16506.00
599.5490, 16575.00
600.7180, 16592.00
601.8870, 16610.00
603.0560, 16506.00
604.2250, 16529.00
605.3940, 16554.00
606.5620, 16463.00
607.7300, 16754.00
608.8990, 16521.00
610.0670, 16888.00
611.2350, 16824.00
612.4020, 16967.00
613.5700, 17028.00
614.7370, 17185.00
615.9050, 17354.00
617.0720, 17464.00
618.2390, 17838.00
619.4060, 18143.00
620.5720, 18318.00
621.7390, 18593.00
622.9050, 18735.00
624.0710, 19130.00
625.2370, 19274.00
626.4030, 19452.00
627.5690, 19510.00
628.7340, 19482.00
629.9000, 19588.00
631.0650, 19474.00
632.2300, 19794.00
633.3950, 19814.00
634.5600, 20233.00
635.7240, 20135.00
636.8890, 20719.00
638.0530, 20804.00
639.2170, 21354.00
640.3810, 22040.00
641.5450, 22444.00
642.7080, 22727.00
643.8720, 23277.00
645.0350, 23723.00
646.1980, 24554.00
647.3610, 25123.00
648.5240, 25709.00
649.6870, 26220.00
650.8490, 27119.00
652.0120, 27990.00
653.1740, 28714.00
654.3360, 29503.00
655.4980, 30391.00
656.6600, 31469.94
657.8210, 32694.22
658.9830, 34054.00
660.1440, 35729.00
661.3050, 37569.00
662.4660, 39755.00
663.6270, 42179.00
664.7870, 44723.00
665.9480, 46912.00
667.1080, 49554.00
668.2680, 51997.00
669.4280, 54303.00
670.5880, 55951.00
671.7480, 57594.00
672.9070, 57979.00
674.0670, 58042.00
675.2260, 57895.00
676.3850, 56462.00
677.5440, 54539.00
678.7030, 52053.00
679.8610, 49600.00
681.0200, 46725.00
682.1780, 43707.00
683.3360, 41170.00
684.4940, 38104.00
685.6520, 36043.00
686.8090, 33687.00
687.9670, 31472.00
689.1240, 29951.00
690.2810, 28618.00
691.4380, 27256.00
692.5950, 26208.00
693.7520, 25168.00
694.9080, 24568.00
696.0650, 23705.00
697.2210, 23132.00
698.3770, 22676.00
699.5330, 22242.00
700.6880, 21885.04
701.8440, 21456.00
702.9990, 21248.00
704.1550, 20992.00
705.3100, 20586.00
706.4650, 20588.00
707.6190, 20359.00
708.7740, 20285.00
709.9290, 20291.00
711.0830, 20205.00
712.2370, 19984.00
713.3910, 19965.00
714.5450, 19903.00
715.6980, 19928.47
716.8520, 20053.00
718.0050, 20073.00
719.1580, 20211.00
720.3110, 20244.00
721.4640, 20265.00
722.6170, 20428.00
723.7700, 20320.00
724.9220, 20274.00
726.0740, 20388.00
727.2260, 20254.00
728.3780, 20185.00
729.5300, 20432.00
730.6810, 20310.00
731.8330, 20163.00
732.9840, 20330.00
734.1350, 20033.00
735.2860, 20000.00
736.4370, 19947.00
737.5880, 19972.00
738.7380, 19976.00
739.8880, 19910.00
741.0390, 19946.00
742.1890, 19888.00
743.3380, 19953.00
744.4880, 19780.00
745.6380, 19616.00
746.7870, 19577.00
747.9360, 19590.00
749.0850, 19529.00
750.2340, 19556.00
751.3830, 19547.00
752.5310, 19453.00
753.6800, 19357.00
754.8280, 19538.00
755.9760, 19400.00
757.1240, 19326.00
758.2720, 19471.00
759.4190, 19396.00
760.5670, 19335.00
761.7140, 19402.00
762.8610, 19270.00
764.0080, 19379.00
765.1550, 19362.00
766.3020, 19349.00
767.4480, 19429.00
768.5950, 19348.00
769.7410, 19403.76
770.8870, 19558.00
772.0330, 19436.00
773.1780, 19592.00
774.3240, 19585.00
775.4690, 19737.00
776.6140, 19724.00
777.7590, 19540.00
778.9040, 19610.00
780.0490, 19658.00
781.1940, 19560.00
782.3380, 19773.00
783.4820, 19777.00
784.6260, 19804.00
785.7700, 20001.00
786.9140, 19862.00
788.0580, 19907.00
789.2010, 19983.00
790.3450, 20078.00
791.4880, 19972.00
792.6310, 20005.00
793.7730, 20137.00
794.9160, 20307.00
796.0590, 20254.00
797.2010, 20396.00
798.3430, 20550.00
799.4850, 20385.00
800.6270, 20363.00
801.7690, 20412.00
802.9100, 20512.00
804.0520, 20455.00
805.1930, 20652.00
806.3340, 20560.00
807.4750, 20502.00
808.6160, 20584.00
809.7560, 20589.00
810.8970, 20639.00
812.0370, 20631.00
813.1770, 20519.00
814.3170, 20768.00
815.4570, 20577.00
816.5960, 20701.00
817.7360, 20813.00
818.8750, 20876.00
820.0140, 20963.17
821.1530, 20899.00
822.2920, 21032.00
823.4310, 21074.00
824.5690, 20989.00
825.7070, 21157.00
826.8460, 21184.00
827.9840, 21115.00
829.1220, 21140.00
830.2590, 21187.59
831.3970, 21169.00
832.5340, 21296.00
833.6710, 21345.00
834.8080, 21351.00
835.9450, 21330.00
837.0820, 21442.00
838.2190, 21402.00
839.3550, 21657.00
840.4910, 21771.00
841.6270, 21907.00
842.7630, 21932.00
843.8990, 22094.00
845.0350, 22179.82
846.1700, 22149.00
847.3060, 22317.00
848.4410, 22304.00
849.5760, 22197.00
850.7100, 22368.00
851.8450, 22490.00
852.9800, 22668.00
854.1140, 22796.08
855.2480, 22866.00
856.3820, 23062.00
857.5160, 23210.00
858.6500, 23343.00
859.7830, 23327.00
860.9170, 23263.00
862.0500, 23177.00
863.1830, 23177.00
864.3160, 23311.00
865.4480, 23058.00
866.5810, 23143.00
867.7130, 23127.00
868.8460, 23011.00
869.9780, 23202.00
871.1100, 23347.00
872.2410, 23133.00
873.3730, 23161.00
874.5050, 23171.00
875.6360, 23205.00
876.7670, 23438.00
877.8980, 23439.00
879.0290, 23549.00
880.1590, 23760.00
881.2900, 23789.00
882.4200, 23955.40
883.5500, 24143.00
884.6800, 24228.00
885.8100, 24192.00
886.9400, 24354.00
888.0690, 24646.00
889.1990, 24595.00
890.3280, 24820.00
891.4570, 25003.00
892.5860, 25028.00
893.7140, 25248.00
894.8430, 25354.15
895.9710, 25424.00
897.1000, 25538.00
898.2280, 25656.00
899.3560, 25558.00
900.4830, 25881.00
901.6110, 25699.00
902.7380, 25894.00
903.8660, 26197.00
904.9930, 26151.00
906.1200, 26363.00
907.2460, 26609.00
908.3730, 26668.00
909.5000, 27090.00
910.6260, 27266.00
911.7520, 27306.00
912.8780, 27560.00
914.0040, 27787.00
915.1290, 28010.00
916.2550, 28017.00
917.3800, 28023.00
918.5050, 28215.00
919.6300, 28186.00
920.7550, 28341.00
921.8800, 28267.00
923.0040, 28399.00
924.1290, 28363.14
925.2530, 28217.00
926.3770, 28269.00
927.5010, 28325.00
928.6250, 28217.00
929.7480, 28065.00
930.8720, 28032.30
931.9950, 27982.00
933.1180, 27855.00
934.2410, 27812.00
935.3640, 27751.00
936.4860, 27844.00
937.6090, 27884.00
938.7310, 27684.00
939.8530, 27551.00
940.9750, 27563.00
942.0970, 27623.00
943.2180, 27433.00
944.3400, 27538.00
945.4610, 27535.00
946.5820, 27551.00
947.7030, 28200.00
948.8240, 27889.42
949.9450, 28122.00
951.0650, 27728.00
952.1860, 28081.00
953.3060, 28170.65
954.4260, 28041.38
955.5460, 28057.30
956.6650, 28019.00
957.7850, 27804.00
958.9040, 27896.00
960.0230, 27943.00
961.1420, 27862.00
962.2610, 28128.00
963.3800, 27661.00
964.4990, 27798.00
965.6170, 27927.00
966.7350, 27949.00
967.8530, 28029.00
968.9710, 27793.00
970.0890, 28022.00
971.2070, 28040.00
972.3240, 28163.00
973.4410, 28372.00
974.5580, 28213.00
975.6750, 28208.00
976.7920, 28330.00
977.9090, 28520.00
979.0250, 28437.00
980.1410, 28894.00
981.2580, 28919.00
982.3740, 29238.00
983.4890, 29337.00
984.6050, 29652.00
985.7200, 30066.00
986.8360, 30228.00
987.9510, 30468.00
989.0660, 30693.00
990.1810, 30922.00
991.2950, 31030.00
992.4100, 31472.00
993.5240, 31580.00
994.6390, 32180.00
995.7530, 32861.00
996.8660, 32988.00
997.9800, 33405.00
999.0940, 34126.00
1000.207, 34842.00
1001.320, 35365.00
1002.433, 35600.00
1003.546, 35923.00
1004.659, 35857.00
1005.772, 35804.00
1006.884, 35860.00
1007.996, 35979.00
1009.108, 35996.00
1010.220, 36111.00
1011.332, 36188.00
1012.444, 36266.00
1013.555, 36283.00
1014.666, 36503.00
1015.777, 36458.00
1016.888, 36608.00
1017.999, 36636.37
1019.110, 36711.00
1020.220, 36748.00
1021.331, 36843.34
1022.441, 36962.00
1023.551, 37051.00
1024.661, 37140.32
1025.770, 37262.00
1026.880, 37282.00
1027.989, 37266.00
1029.098, 37217.00
1030.207, 37465.00
1031.316, 37305.00
1032.425, 37755.00
1033.533, 37972.00
1034.642, 37810.00
1035.750, 38167.00
1036.858, 38163.00
1037.966, 38217.00
1039.073, 38277.00
1040.181, 38565.00
1041.288, 38630.00
1042.396, 38122.00
1043.503, 38386.00
1044.610, 38062.00
1045.716, 37880.00
1046.823, 37704.00
1047.929, 37302.00
1049.036, 36892.00
1050.142, 36899.00
1051.248, 36477.00
1052.353, 36124.00
1053.459, 35981.00
1054.564, 35386.00
1055.670, 35282.00
1056.775, 35060.00
1057.880, 34778.00
1058.985, 34674.00
1060.089, 34510.00
1061.194, 34215.00
1062.298, 34179.00
1063.402, 34021.00
1064.506, 33793.00
1065.610, 33750.00
1066.713, 33597.00
1067.817, 33427.00
1068.920, 33565.00
1070.023, 33187.00
1071.126, 32858.00
1072.229, 32917.00
1073.332, 32628.00
1074.435, 32510.00
1075.537, 32514.00
1076.639, 32287.00
1077.741, 32291.00
1078.843, 32273.00
1079.945, 32127.21
1081.046, 31961.00
1082.148, 31936.00
1083.249, 31727.00
1084.350, 31623.00
1085.451, 31115.00
1086.551, 31378.00
1087.652, 31119.00
1088.752, 30786.00
1089.853, 30928.00
1090.953, 30656.00
1092.053, 30704.00
1093.152, 30605.00
1094.252, 30530.00
1095.351, 30495.00
1096.451, 30474.75
1097.550, 30330.00
1098.649, 30467.00
1099.748, 30466.00
1100.846, 30404.00
1101.945, 30332.00
1103.043, 30428.00
1104.141, 30387.00
1105.239, 30437.00
1106.337, 30297.00
1107.434, 30626.00
1108.532, 30556.00
1109.629, 30463.00
1110.726, 30359.00
1111.823, 30431.00
1112.920, 30400.00
1114.017, 30598.00
1115.113, 30652.00
1116.210, 30695.00
1117.306, 31077.00
1118.402, 31373.00
1119.498, 31585.00
1120.593, 31915.00
1121.689, 31825.00
1122.784, 32036.00
1123.879, 31600.00
1124.974, 31546.00
1126.069, 31311.00
1127.164, 31036.00
1128.259, 30904.00
1129.353, 30868.00
1130.447, 30462.00
1131.541, 30612.00
1132.635, 30250.00
1133.729, 30335.00
1134.822, 30238.00
1135.916, 30487.00
1137.009, 30387.00
1138.102, 30528.00
1139.195, 30287.00
1140.288, 30429.00
1141.380, 30352.00
1142.473, 30623.00
1143.565, 30425.00
1144.657, 30377.00
1145.749, 30435.00
1146.841, 30306.00
1147.932, 30658.00
1149.024, 30667.00
1150.115, 30653.00
1151.206, 30834.00
1152.297, 30750.00
1153.388, 30749.00
1154.479, 30850.78
1155.569, 31013.00
1156.659, 31007.00
1157.750, 31078.00
1158.839, 31201.00
1159.929, 31040.00
1161.019, 31288.00
1162.108, 31201.00
1163.198, 31195.00
1164.287, 31559.00
1165.376, 31422.00
1166.465, 31523.00
1167.553, 31563.00
1168.642, 31395.00
1169.730, 31529.00
1170.818, 31798.00
1171.906, 31878.00
1172.994, 31831.00
1174.082, 31912.00
1175.170, 31903.00
1176.257, 31926.00
1177.344, 31811.00
1178.431, 31834.00
1179.518, 31921.00
1180.605, 31885.00
1181.691, 31987.00
1182.778, 32149.00
1183.864, 32215.00
1184.950, 32125.00
1186.036, 31992.00
1187.122, 32175.00
1188.207, 32150.00
1189.292, 32317.00
1190.378, 32300.00
1191.463, 32244.00
1192.548, 32544.00
1193.632, 32449.31
1194.717, 32331.00
1195.801, 32526.00
1196.886, 32528.00
1197.970, 32647.00
1199.054, 32760.25
1200.137, 32685.00
1201.221, 32975.00
1202.305, 32904.00
1203.388, 33001.00
1204.471, 32958.00
1205.554, 33027.00
1206.637, 33027.00
1207.719, 33296.00
1208.802, 33059.00
1209.884, 33282.00
1210.966, 33182.00
1212.048, 33468.00
1213.130, 33534.00
1214.212, 33485.00
1215.293, 33652.00
1216.374, 33688.00
1217.456, 33622.00
1218.536, 33768.00
1219.617, 33999.00
1220.698, 33669.00
1221.778, 33914.00
1222.859, 34162.00
1223.939, 33945.00
1225.019, 33924.00
1226.099, 34243.00
1227.178, 34031.00
1228.258, 34213.00
1229.337, 34404.00
1230.417, 34373.00
1231.496, 34719.00
1232.574, 34627.00
1233.653, 34615.00
1234.732, 34827.00
1235.810, 34803.16
1236.888, 35080.00
1237.966, 34952.00
1239.044, 35032.00
1240.122, 35064.00
1241.199, 35279.00
1242.277, 35321.00
1243.354, 35288.00
1244.431, 35670.00
1245.508, 35461.00
1246.585, 35431.00
1247.661, 35759.00
1248.738, 35760.00
1249.814, 35841.00
1250.890, 35956.00
1251.966, 36003.00
1253.042, 35902.00
1254.117, 36021.84
1255.193, 35808.00
1256.268, 36060.00
1257.343, 36199.00
1258.418, 36086.00
1259.493, 36363.00
1260.567, 36486.00
1261.642, 36547.00
1262.716, 36846.00
1263.790, 37030.00
1264.864, 37068.00
1265.938, 37023.00
1267.011, 36913.00
1268.085, 37168.00
1269.158, 37487.00
1270.231, 37323.00
