##NAMES=Edenite
##RRUFFID=R050415
##IDEAL CHEMISTRY=NaCa_2_Mg_5_(Si_7_Al)O_22_(OH)_2_
##LOCALITY=Mogok, Burma
##OWNER=RRUFF
##SOURCE=Marcus Origlieri
##DESCRIPTION=Transparent pale green water worn fragment
##STATUS=The identification of this mineral has been confirmed by X-ray diffraction and chemical analysis
##URL=rruff.info/R050415
##MEASURED CHEMISTRY=(Na_0.83_K_0.17_)(Ca_1.76_Na_0.24_)_&#931;=2_(Mg_4.54_Al_0.40_Fe^3+^_0.06_)_&#931;=5_(Si_6.74_Al_1.26_)O_22_((OH)_0.52_F_0.48_)_2_
##PIN_ID=L01128
##ORIENTATION=Laser parallel to -c* (0 0 -1). Fiducial mark perpendicular to laser is parallel to -a [-1 0 0]
100.8830, 6849.000
102.1160, 6982.000
103.3490, 7185.000
104.5820, 7518.000
105.8150, 8146.000
107.0470, 9314.000
108.2800, 10194.00
109.5120, 9469.000
110.7440, 8884.000
111.9760, 9074.000
113.2080, 9518.000
114.4400, 10293.00
115.6710, 10893.00
116.9030, 11501.00
118.1340, 12433.00
119.3650, 12783.00
120.5960, 13435.00
121.8270, 13592.00
123.0580, 13569.00
124.2880, 12770.00
125.5190, 11836.00
126.7490, 10961.00
127.9790, 10215.00
129.2090, 9734.000
130.4390, 9290.000
131.6680, 8903.000
132.8980, 8745.000
134.1270, 8642.000
135.3560, 8555.000
136.5850, 8564.000
137.8140, 8550.000
139.0430, 8564.385
140.2710, 8621.000
141.5000, 8673.000
142.7280, 8596.000
143.9560, 8708.000
145.1840, 8604.000
146.4120, 8660.000
147.6390, 8806.000
148.8670, 8920.000
150.0940, 8974.000
151.3210, 9368.000
152.5490, 9389.000
153.7750, 9761.000
155.0020, 10064.00
156.2290, 10458.00
157.4550, 11041.00
158.6810, 11509.00
159.9080, 12123.00
161.1340, 13041.00
162.3590, 14183.00
163.5850, 15263.00
164.8110, 16193.00
166.0360, 16811.00
167.2610, 16970.00
168.4860, 16630.00
169.7110, 16002.00
170.9360, 14987.00
172.1610, 14172.00
173.3850, 13618.00
174.6100, 13129.00
175.8340, 12788.00
177.0580, 12561.00
178.2820, 12459.00
179.5050, 12477.00
180.7290, 12274.00
181.9520, 12261.00
183.1760, 12316.00
184.3990, 12209.00
185.6220, 12203.00
186.8450, 12114.00
188.0670, 12057.00
189.2900, 11807.00
190.5120, 11482.00
191.7340, 11442.00
192.9560, 11338.00
194.1780, 11254.00
195.4000, 11238.00
196.6220, 11243.00
197.8430, 11318.27
199.0640, 11277.00
200.2860, 11581.00
201.5070, 11701.00
202.7270, 11893.00
203.9480, 11984.00
205.1690, 12053.00
206.3890, 12185.00
207.6090, 12639.00
208.8290, 13044.00
210.0490, 13426.00
211.2690, 13774.00
212.4890, 14567.00
213.7080, 14972.00
214.9280, 15645.00
216.1470, 16208.00
217.3660, 17025.00
218.5850, 17838.00
219.8030, 18583.00
221.0220, 19686.00
222.2400, 20876.00
223.4590, 22240.00
224.6770, 23499.00
225.8950, 24783.00
227.1120, 26063.00
228.3300, 27325.76
229.5480, 28381.00
230.7650, 29877.00
231.9820, 31040.00
233.1990, 32344.00
234.4160, 33957.00
235.6330, 35319.00
236.8490, 36520.00
238.0660, 37170.00
239.2820, 37249.00
240.4980, 36959.00
241.7140, 35925.00
242.9300, 34617.00
244.1460, 33246.00
245.3610, 31741.00
246.5770, 30512.00
247.7920, 29233.00
249.0070, 28371.00
250.2220, 27231.00
251.4370, 25993.00
252.6510, 24718.00
253.8660, 23519.00
255.0800, 22328.00
256.2940, 21281.00
257.5080, 20531.00
258.7220, 19835.00
259.9360, 18592.00
261.1490, 17253.00
262.3630, 16331.00
263.5760, 15677.00
264.7890, 15012.00
266.0020, 14440.01
267.2150, 13993.00
268.4270, 13613.00
269.6400, 13236.00
270.8520, 13100.00
272.0640, 12792.00
273.2760, 12676.00
274.4880, 12466.00
275.7000, 12229.00
276.9120, 12280.00
278.1230, 12082.00
279.3340, 12125.00
280.5450, 11898.00
281.7560, 12013.00
282.9670, 12065.00
284.1780, 11990.14
285.3880, 12051.00
286.5980, 12053.00
287.8090, 11972.00
289.0190, 12167.00
290.2290, 12204.00
291.4380, 12141.00
292.6480, 12218.00
293.8570, 12298.00
295.0670, 12314.00
296.2760, 12450.00
297.4850, 12563.00
298.6930, 12568.00
299.9020, 12642.00
301.1110, 12719.00
302.3190, 12818.00
303.5270, 13076.00
304.7350, 12986.00
305.9430, 12965.00
307.1510, 13270.00
308.3580, 13471.00
309.5660, 13646.00
310.7730, 13742.00
311.9800, 14083.00
313.1870, 14324.00
314.3940, 14564.00
315.6010, 14972.00
316.8070, 15192.00
318.0130, 15448.00
319.2200, 15401.00
320.4260, 15618.00
321.6310, 15447.00
322.8370, 15327.00
324.0430, 15216.00
325.2480, 15142.00
326.4540, 14904.00
327.6590, 14578.00
328.8640, 14422.00
330.0680, 14269.00
331.2730, 14041.00
332.4780, 14044.00
333.6820, 13876.00
334.8860, 13849.00
336.0900, 13785.00
337.2940, 14067.00
338.4980, 14053.00
339.7010, 14139.00
340.9050, 14177.00
342.1080, 14239.00
343.3110, 14506.00
344.5140, 14544.00
345.7170, 14886.00
346.9200, 15064.00
348.1220, 15242.00
349.3240, 15524.95
350.5270, 15722.00
351.7290, 15981.00
352.9310, 15962.00
354.1320, 16110.00
355.3340, 16381.00
356.5350, 16487.00
357.7370, 16658.00
358.9380, 16811.00
360.1390, 17006.00
361.3400, 17403.00
362.5400, 17490.00
363.7410, 17839.00
364.9410, 18148.00
366.1410, 18308.00
367.3410, 18549.00
368.5410, 18790.00
369.7410, 18939.00
370.9400, 19257.00
372.1400, 19362.00
373.3390, 19616.00
374.5380, 19548.00
375.7370, 19844.00
376.9360, 19884.00
378.1350, 19953.00
379.3330, 20001.00
380.5310, 20285.00
381.7300, 20272.00
382.9280, 20490.00
384.1260, 20767.00
385.3230, 21143.00
386.5210, 21572.00
387.7180, 21935.00
388.9160, 22088.00
390.1130, 22361.00
391.3100, 22602.00
392.5060, 22630.00
393.7030, 22533.00
394.9000, 22434.00
396.0960, 21952.00
397.2920, 21415.00
398.4880, 20636.00
399.6840, 20052.00
400.8800, 19299.00
402.0750, 18689.00
403.2710, 18067.00
404.4660, 17598.00
405.6610, 17178.00
406.8560, 16895.11
408.0510, 16774.00
409.2450, 16584.00
410.4400, 16621.00
411.6340, 16633.00
412.8280, 16712.00
414.0220, 16988.00
415.2160, 16832.00
416.4100, 17354.00
417.6030, 17560.00
418.7970, 17711.00
419.9900, 18073.00
421.1830, 18116.00
422.3760, 18490.00
423.5690, 18463.00
424.7610, 18695.00
425.9540, 18645.00
427.1460, 18689.00
428.3380, 18674.00
429.5300, 18291.00
430.7220, 18126.00
431.9140, 17847.00
433.1050, 17426.00
434.2970, 16867.00
435.4880, 16533.00
436.6790, 16082.50
437.8700, 15708.00
439.0610, 15280.00
440.2510, 14795.00
441.4420, 14379.00
442.6320, 13917.00
443.8220, 13761.00
445.0120, 13582.00
446.2020, 13169.00
447.3910, 13004.00
448.5810, 12755.00
449.7700, 12637.00
450.9600, 12480.00
452.1490, 12439.00
453.3370, 12467.00
454.5260, 12210.00
455.7150, 12363.00
456.9030, 12186.00
458.0910, 12053.00
459.2800, 12185.00
460.4670, 12155.00
461.6550, 12020.00
462.8430, 12042.00
464.0300, 11913.00
465.2180, 11981.00
466.4050, 11882.00
467.5920, 11953.00
468.7790, 12031.00
469.9650, 11977.00
471.1520, 11931.00
472.3380, 11978.00
473.5250, 11956.37
474.7110, 11931.00
475.8970, 12004.00
477.0820, 12089.00
478.2680, 12141.00
479.4540, 11991.00
480.6390, 12106.00
481.8240, 12151.00
483.0090, 12348.00
484.1940, 12321.00
485.3780, 12374.00
486.5630, 12422.00
487.7470, 12467.00
488.9320, 12479.00
490.1160, 12418.00
491.3000, 12461.00
492.4830, 12441.00
493.6670, 12337.00
494.8500, 12549.00
496.0340, 12472.00
497.2170, 12511.00
498.4000, 12781.00
499.5820, 12724.00
500.7650, 12847.00
501.9480, 13186.00
503.1300, 13302.00
504.3120, 13591.00
505.4940, 13979.00
506.6760, 14373.00
507.8580, 14651.00
509.0390, 15126.00
510.2210, 15350.00
511.4020, 15830.00
512.5830, 16288.00
513.7640, 16518.00
514.9450, 16801.00
516.1250, 17054.00
517.3060, 17144.00
518.4860, 17332.00
519.6660, 17501.00
520.8460, 17475.00
522.0260, 17631.00
523.2060, 17389.00
524.3850, 17451.00
525.5650, 17418.00
526.7440, 17169.00
527.9230, 16848.00
529.1020, 16649.00
530.2810, 16508.00
531.4590, 16239.00
532.6380, 15996.00
533.8160, 15700.00
534.9940, 15301.00
536.1720, 14995.00
537.3500, 14737.20
538.5270, 14473.50
539.7050, 14278.00
540.8820, 14035.00
542.0590, 13849.00
543.2360, 13590.00
544.4130, 13369.00
545.5900, 13184.10
546.7660, 13182.00
547.9430, 12859.00
549.1190, 12875.00
550.2950, 12829.00
551.4710, 12541.00
552.6470, 12470.00
553.8220, 12423.00
554.9980, 12449.00
556.1730, 12378.82
557.3480, 12333.00
558.5230, 12250.00
559.6980, 12284.00
560.8730, 12238.09
562.0470, 12268.00
563.2220, 12240.00
564.3960, 12263.00
565.5700, 12315.00
566.7440, 12229.00
567.9170, 12298.00
569.0910, 12319.00
570.2640, 12319.00
571.4380, 12444.00
572.6110, 12312.00
573.7840, 12241.00
574.9570, 12326.00
576.1290, 12388.00
577.3020, 12480.00
578.4740, 12534.00
579.6460, 12487.00
580.8180, 12493.00
581.9900, 12653.00
583.1620, 12646.00
584.3330, 12726.00
585.5040, 12686.00
586.6760, 12592.00
587.8470, 12709.00
589.0180, 12635.00
590.1880, 12657.00
591.3590, 12668.00
592.5290, 12694.00
593.7000, 12535.00
594.8700, 12627.00
596.0400, 12558.00
597.2090, 12659.00
598.3790, 12658.00
599.5490, 12634.00
600.7180, 12717.00
601.8870, 12599.00
603.0560, 12717.00
604.2250, 12746.00
605.3940, 12733.00
606.5620, 12780.00
607.7300, 12793.00
608.8990, 12869.00
610.0670, 12973.00
611.2350, 12929.00
612.4020, 13215.00
613.5700, 13274.00
614.7370, 13270.00
615.9050, 13288.00
617.0720, 13396.00
618.2390, 13564.00
619.4060, 13516.00
620.5720, 13779.00
621.7390, 14000.00
622.9050, 14029.00
624.0710, 14142.00
625.2370, 14271.00
626.4030, 14488.00
627.5690, 14598.00
628.7340, 14828.81
629.9000, 15035.00
631.0650, 15292.00
632.2300, 15417.00
633.3950, 15680.14
634.5600, 16168.00
635.7240, 16353.00
636.8890, 16844.00
638.0530, 17227.00
639.2170, 17662.00
640.3810, 18083.00
641.5450, 18385.00
642.7080, 19123.00
643.8720, 19477.00
645.0350, 20047.00
646.1980, 20976.00
647.3610, 21532.00
648.5240, 22099.00
649.6870, 22897.00
650.8490, 23514.00
652.0120, 24688.00
653.1740, 25624.00
654.3360, 26476.00
655.4980, 28078.00
656.6600, 28376.00
657.8210, 29780.00
658.9830, 31020.00
660.1440, 32552.00
661.3050, 34304.00
662.4660, 36233.00
663.6270, 38411.00
664.7870, 40820.00
665.9480, 43573.00
667.1080, 46416.00
668.2680, 49262.00
669.4280, 52014.00
670.5880, 54645.00
671.7480, 56563.00
672.9070, 58861.00
674.0670, 59852.00
675.2260, 59726.00
676.3850, 59045.00
677.5440, 57247.00
678.7030, 55148.00
679.8610, 52059.00
681.0200, 48673.00
682.1780, 45127.00
683.3360, 42017.00
684.4940, 38359.00
685.6520, 35132.00
686.8090, 32603.00
687.9670, 30075.00
689.1240, 27842.00
690.2810, 26187.00
691.4380, 24757.00
692.5950, 23215.00
693.7520, 22293.00
694.9080, 21147.00
696.0650, 20477.00
697.2210, 19591.00
698.3770, 19078.00
699.5330, 18547.00
700.6880, 18093.00
701.8440, 17614.00
702.9990, 17284.65
704.1550, 16985.00
705.3100, 16737.00
706.4650, 16546.00
707.6190, 16381.00
708.7740, 16078.00
709.9290, 16130.00
711.0830, 16056.00
712.2370, 15984.00
713.3910, 15596.00
714.5450, 15756.00
715.6980, 15655.00
716.8520, 15622.00
718.0050, 15746.00
719.1580, 15637.00
720.3110, 15737.00
721.4640, 15677.00
722.6170, 16541.00
723.7700, 16425.96
724.9220, 16586.65
726.0740, 16836.00
727.2260, 16320.00
728.3780, 16632.00
729.5300, 15878.06
730.6810, 16551.00
731.8330, 15519.00
732.9840, 15521.00
734.1350, 15631.00
735.2860, 15575.00
736.4370, 15347.00
737.5880, 15633.00
738.7380, 15390.00
739.8880, 15257.00
741.0390, 15323.00
742.1890, 15355.00
743.3380, 15462.00
744.4880, 15128.00
745.6380, 15367.00
746.7870, 15268.00
747.9360, 15190.00
749.0850, 15345.00
750.2340, 15064.00
751.3830, 15186.00
752.5310, 15088.00
753.6800, 15021.00
754.8280, 15030.00
755.9760, 15147.00
757.1240, 15132.00
758.2720, 15084.00
759.4190, 14997.00
760.5670, 14935.00
761.7140, 14994.00
762.8610, 14945.00
764.0080, 14907.00
765.1550, 15018.00
766.3020, 14927.00
767.4480, 15035.00
768.5950, 14966.00
769.7410, 15204.00
770.8870, 15149.00
772.0330, 14970.00
773.1780, 15172.00
774.3240, 15076.00
775.4690, 15148.00
776.6140, 15155.00
777.7590, 15263.00
778.9040, 15267.00
780.0490, 15288.12
781.1940, 15272.00
782.3380, 15280.00
783.4820, 15335.00
784.6260, 15295.00
785.7700, 15452.00
786.9140, 15343.00
788.0580, 15603.00
789.2010, 15440.00
790.3450, 15321.00
791.4880, 15611.00
792.6310, 15550.00
793.7730, 15511.00
794.9160, 15425.00
796.0590, 15494.00
797.2010, 15843.00
798.3430, 15535.00
799.4850, 15746.00
800.6270, 15819.00
801.7690, 15770.00
802.9100, 15664.00
804.0520, 15858.00
805.1930, 15880.00
806.3340, 15868.00
807.4750, 15744.00
808.6160, 15756.00
809.7560, 15900.00
810.8970, 15863.00
812.0370, 15859.00
813.1770, 15757.00
814.3170, 15910.00
815.4570, 15913.00
816.5960, 15856.00
817.7360, 15854.00
818.8750, 15957.00
820.0140, 15882.00
821.1530, 15887.00
822.2920, 15907.00
823.4310, 16032.00
824.5690, 16150.00
825.7070, 16112.00
826.8460, 16107.00
827.9840, 16136.00
829.1220, 16208.00
830.2590, 16097.00
831.3970, 16277.00
832.5340, 16093.00
833.6710, 16381.00
834.8080, 16202.00
835.9450, 16297.00
837.0820, 16280.00
838.2190, 16383.00
839.3550, 16393.00
840.4910, 16506.00
841.6270, 16708.00
842.7630, 16560.00
843.8990, 16663.00
845.0350, 16518.00
846.1700, 16607.00
847.3060, 16683.00
848.4410, 16691.00
849.5760, 16724.00
850.7100, 16716.00
851.8450, 16787.00
852.9800, 16752.88
854.1140, 16937.00
855.2480, 16763.00
856.3820, 16809.00
857.5160, 16935.00
858.6500, 17100.00
859.7830, 17009.00
860.9170, 17007.00
862.0500, 17078.00
863.1830, 17092.00
864.3160, 17300.00
865.4480, 17071.00
866.5810, 17265.00
867.7130, 17175.00
868.8460, 17290.00
869.9780, 17487.00
871.1100, 17472.00
872.2410, 17472.00
873.3730, 17587.00
874.5050, 17568.00
875.6360, 17618.00
876.7670, 17815.00
877.8980, 17937.00
879.0290, 18040.99
880.1590, 18311.00
881.2900, 18293.00
882.4200, 18446.00
883.5500, 18629.00
884.6800, 18559.00
885.8100, 18673.00
886.9400, 19098.00
888.0690, 19016.00
889.1990, 19264.00
890.3280, 19419.00
891.4570, 19340.00
892.5860, 19591.00
893.7140, 19668.00
894.8430, 19921.00
895.9710, 19967.00
897.1000, 20226.00
898.2280, 20302.00
899.3560, 20309.00
900.4830, 20630.00
901.6110, 20687.55
902.7380, 20868.31
903.8660, 21070.00
904.9930, 21095.00
906.1200, 21421.00
907.2460, 21304.00
908.3730, 21855.00
909.5000, 21892.00
910.6260, 22218.00
911.7520, 22440.00
912.8780, 22632.69
914.0040, 22861.00
915.1290, 23095.00
916.2550, 23277.00
917.3800, 23493.00
918.5050, 23484.00
919.6300, 23945.00
920.7550, 24013.00
921.8800, 24032.00
923.0040, 24286.00
924.1290, 24052.00
925.2530, 23882.00
926.3770, 24030.00
927.5010, 23916.00
928.6250, 24001.00
929.7480, 23730.00
930.8720, 23667.00
931.9950, 23684.00
933.1180, 23567.00
934.2410, 23641.00
935.3640, 23707.00
936.4860, 23461.00
937.6090, 23553.00
938.7310, 23325.00
939.8530, 23257.00
940.9750, 23251.00
942.0970, 23398.00
943.2180, 23075.00
944.3400, 23194.00
945.4610, 23111.00
946.5820, 23210.00
947.7030, 23231.00
948.8240, 23426.00
949.9450, 23471.00
951.0650, 23259.00
952.1860, 23465.00
953.3060, 23481.00
954.4260, 23369.00
955.5460, 23423.00
956.6650, 23390.00
957.7850, 23373.00
958.9040, 23392.03
960.0230, 23346.00
961.1420, 23433.00
962.2610, 23503.00
963.3800, 23606.00
964.4990, 23445.00
965.6170, 23440.00
966.7350, 23523.00
967.8530, 23618.00
968.9710, 23477.00
970.0890, 23446.00
971.2070, 23891.00
972.3240, 23569.00
973.4410, 23802.00
974.5580, 24063.00
975.6750, 24074.00
976.7920, 24164.00
977.9090, 24158.00
979.0250, 24376.00
980.1410, 24630.00
981.2580, 24427.00
982.3740, 24828.00
983.4890, 25038.00
984.6050, 25157.00
985.7200, 25175.00
986.8360, 25654.00
987.9510, 26067.00
989.0660, 26344.00
990.1810, 26450.00
991.2950, 26517.00
992.4100, 27180.00
993.5240, 27462.00
994.6390, 27942.00
995.7530, 28331.67
996.8660, 28648.00
997.9800, 28977.00
999.0940, 29523.00
1000.207, 29747.00
1001.320, 30391.00
1002.433, 30585.00
1003.546, 31343.00
1004.659, 31516.00
1005.772, 31588.00
1006.884, 32029.00
1007.996, 32595.00
1009.108, 32286.00
1010.220, 32767.00
1011.332, 33006.00
1012.444, 32799.00
1013.555, 32939.00
1014.666, 33291.00
1015.777, 33330.00
1016.888, 33444.00
1017.999, 33617.00
1019.110, 33533.00
1020.220, 33612.80
1021.331, 33621.43
1022.441, 33570.00
1023.551, 33649.00
1024.661, 33575.00
1025.770, 33662.00
1026.880, 33835.00
1027.989, 34080.00
1029.098, 34070.00
1030.207, 34075.00
1031.316, 34122.00
1032.425, 34388.00
1033.533, 34689.00
1034.642, 34672.00
1035.750, 34872.00
1036.858, 35082.00
1037.966, 35207.00
1039.073, 35398.00
1040.181, 35584.00
1041.288, 35522.00
1042.396, 35492.00
1043.503, 35691.00
1044.610, 35489.00
1045.716, 35285.00
1046.823, 35009.00
1047.929, 34724.00
1049.036, 34681.00
1050.142, 34285.00
1051.248, 33867.00
1052.353, 33780.00
1053.459, 33602.00
1054.564, 33347.00
1055.670, 33246.00
1056.775, 33005.00
1057.880, 33008.00
1058.985, 32941.00
1060.089, 32852.88
1061.194, 32758.00
1062.298, 32782.00
1063.402, 32808.00
1064.506, 32816.00
1065.610, 32577.00
1066.713, 32366.00
1067.817, 32273.00
1068.920, 31778.00
1070.023, 31658.00
1071.126, 31324.00
1072.229, 31023.00
1073.332, 30561.00
1074.435, 30139.00
1075.537, 29794.00
1076.639, 29192.00
1077.741, 28742.00
1078.843, 28569.00
1079.945, 27887.00
1081.046, 27605.00
1082.148, 27471.00
1083.249, 27106.00
1084.350, 26691.00
1085.451, 26347.00
1086.551, 26320.00
1087.652, 26187.00
1088.752, 25819.00
1089.853, 25623.00
1090.953, 25440.00
1092.053, 25311.74
1093.152, 25392.00
1094.252, 25279.00
1095.351, 25092.00
1096.451, 25241.00
1097.550, 25106.00
1098.649, 25326.00
1099.748, 25100.00
1100.846, 24883.00
1101.945, 24930.00
1103.043, 24835.00
1104.141, 24731.00
1105.239, 25024.00
1106.337, 24905.00
1107.434, 24679.00
1108.532, 24999.00
1109.629, 24883.00
1110.726, 24876.00
1111.823, 24761.00
1112.920, 24909.00
1114.017, 24805.00
1115.113, 24965.00
1116.210, 24998.00
1117.306, 25224.00
1118.402, 25199.00
1119.498, 25477.00
1120.593, 25302.00
1121.689, 25516.00
1122.784, 25372.00
1123.879, 25417.00
1124.974, 25255.00
1126.069, 25121.00
1127.164, 25100.00
1128.259, 25042.00
1129.353, 25064.00
1130.447, 25003.62
1131.541, 24928.00
1132.635, 24939.00
1133.729, 24846.00
1134.822, 24857.00
1135.916, 24845.00
1137.009, 25004.00
1138.102, 25045.00
1139.195, 25166.00
1140.288, 25136.00
1141.380, 24890.00
1142.473, 25072.00
1143.565, 25172.00
1144.657, 25043.00
1145.749, 25194.00
1146.841, 25097.00
1147.932, 25282.00
1149.024, 25045.00
1150.115, 25200.00
1151.206, 25170.00
1152.297, 25285.00
1153.388, 25347.00
1154.479, 25249.00
1155.569, 25221.00
1156.659, 25205.00
1157.750, 25468.00
1158.839, 25365.00
1159.929, 25406.00
1161.019, 25653.00
1162.108, 25504.00
1163.198, 25653.00
1164.287, 25579.00
1165.376, 25664.00
1166.465, 25931.00
1167.553, 25697.00
1168.642, 25771.00
1169.730, 25760.00
1170.818, 26094.00
1171.906, 25937.00
1172.994, 26062.00
1174.082, 26065.00
1175.170, 26069.00
1176.257, 25941.00
1177.344, 26017.00
1178.431, 26096.00
1179.518, 26169.00
1180.605, 26214.91
1181.691, 26344.00
1182.778, 26338.00
1183.864, 26241.00
1184.950, 26381.00
1186.036, 26512.00
1187.122, 26309.00
1188.207, 26405.00
1189.292, 26351.00
1190.378, 26715.00
1191.463, 26724.00
1192.548, 26780.00
1193.632, 26684.00
1194.717, 26889.00
1195.801, 26846.00
1196.886, 26894.00
1197.970, 26829.00
1199.054, 27083.00
1200.137, 27087.00
1201.221, 27004.00
1202.305, 27356.00
1203.388, 27280.00
1204.471, 27209.00
1205.554, 27323.00
1206.637, 27250.00
1207.719, 27307.00
1208.802, 27323.00
1209.884, 27376.71
1210.966, 27613.00
1212.048, 27552.00
1213.130, 27609.00
1214.212, 27721.00
1215.293, 28038.00
1216.374, 27690.00
1217.456, 27984.00
1218.536, 27876.00
1219.617, 28087.00
1220.698, 28075.00
1221.778, 28102.00
1222.859, 28259.00
1223.939, 28232.00
1225.019, 28426.00
1226.099, 28378.00
1227.178, 28386.00
1228.258, 28787.00
1229.337, 28582.00
1230.417, 28230.00
1231.496, 28548.00
1232.574, 28690.00
1233.653, 28856.00
1234.732, 28647.00
1235.810, 28845.00
1236.888, 28757.00
1237.966, 28910.00
1239.044, 28813.00
1240.122, 29074.00
1241.199, 29350.00
1242.277, 29341.00
1243.354, 29478.01
1244.431, 29508.00
1245.508, 29486.00
1246.585, 29542.00
1247.661, 29485.00
1248.738, 29545.00
1249.814, 29546.00
1250.890, 29702.00
1251.966, 29873.00
1253.042, 29799.00
1254.117, 29883.00
1255.193, 29631.00
1256.268, 30028.00
1257.343, 29898.00
1258.418, 30088.00
1259.493, 30171.00
1260.567, 30298.00
1261.642, 30228.00
1262.716, 30221.00
1263.790, 30377.00
1264.864, 30557.00
1265.938, 30450.00
1267.011, 30245.00
1268.085, 30380.23
1269.158, 30599.00
1270.231, 30532.00
1271.304, 30644.00
1272.377, 30906.00
1273.450, 31066.00
1274.522, 30976.00
1275.594, 31100.00
1276.666, 31140.00
