##NAMES=Edenite
##RRUFFID=R050415
##IDEAL CHEMISTRY=NaCa_2_Mg_5_(Si_7_Al)O_22_(OH)_2_
##LOCALITY=Mogok, Burma
##OWNER=RRUFF
##SOURCE=Marcus Origlieri
##DESCRIPTION=Transparent pale green water worn fragment
##STATUS=The identification of this mineral has been confirmed by X-ray diffraction and chemical analysis
##URL=rruff.info/R050415
##MEASURED CHEMISTRY=(Na_0.83_K_0.17_)(Ca_1.76_Na_0.24_)_&#931;=2_(Mg_4.54_Al_0.40_Fe^3+^_0.06_)_&#931;=5_(Si_6.74_Al_1.26_)O_22_((OH)_0.52_F_0.48_)_2_
##PIN_ID=L01772
##ORIENTATION=Laser parallel to (-1 0 -1). Fiducial mark perpendicular to laser is parallel to b [0 1 0]
108.2800, 10652.30
109.5120, 11771.00
110.7440, 11130.00
111.9760, 11132.00
113.2080, 11512.00
114.4400, 12066.00
115.6710, 12716.00
116.9030, 13212.00
118.1340, 13720.00
119.3650, 14216.00
120.5960, 14444.00
121.8270, 14429.00
123.0580, 14143.00
124.2880, 13724.00
125.5190, 13221.00
126.7490, 12634.00
127.9790, 12315.00
129.2090, 11997.00
130.4390, 11958.00
131.6680, 11868.00
132.8980, 11906.00
134.1270, 11879.00
135.3560, 11826.00
136.5850, 12002.00
137.8140, 12101.00
139.0430, 12339.00
140.2710, 12419.00
141.5000, 12419.00
142.7280, 12601.00
143.9560, 12524.00
145.1840, 12499.00
146.4120, 12336.00
147.6390, 12606.00
148.8670, 12390.00
150.0940, 12481.00
151.3210, 12881.00
152.5490, 12932.00
153.7750, 12966.00
155.0020, 13314.00
156.2290, 13744.00
157.4550, 14035.00
158.6810, 14507.00
159.9080, 15516.00
161.1340, 16253.00
162.3590, 17341.00
163.5850, 18369.00
164.8110, 19035.00
166.0360, 19145.00
167.2610, 18757.00
168.4860, 18064.00
169.7110, 17212.00
170.9360, 16777.00
172.1610, 16149.00
173.3850, 15925.00
174.6100, 15538.00
175.8340, 15329.00
177.0580, 15306.00
178.2820, 15212.00
179.5050, 15154.00
180.7290, 15147.62
181.9520, 15227.00
183.1760, 15137.00
184.3990, 15143.00
185.6220, 15140.00
186.8450, 15035.00
188.0670, 14794.00
189.2900, 14670.00
190.5120, 14591.00
191.7340, 14631.00
192.9560, 14526.00
194.1780, 14541.00
195.4000, 14568.00
196.6220, 14547.00
197.8430, 14685.00
199.0640, 14736.00
200.2860, 14972.00
201.5070, 15087.00
202.7270, 15327.00
203.9480, 15364.00
205.1690, 15469.00
206.3890, 15741.89
207.6090, 15939.46
208.8290, 16289.00
210.0490, 16602.00
211.2690, 16937.00
212.4890, 17431.00
213.7080, 17814.00
214.9280, 18211.00
216.1470, 18775.00
217.3660, 19296.00
218.5850, 19672.00
219.8030, 20320.00
221.0220, 21043.00
222.2400, 21613.00
223.4590, 22531.00
224.6770, 23480.00
225.8950, 24395.00
227.1120, 25326.00
228.3300, 26335.00
229.5480, 27365.00
230.7650, 28735.00
231.9820, 30301.00
233.1990, 31586.00
234.4160, 33241.00
235.6330, 34133.00
236.8490, 34900.00
238.0660, 34969.00
239.2820, 34648.00
240.4980, 33978.00
241.7140, 32971.00
242.9300, 31728.00
244.1460, 31062.00
245.3610, 30310.00
246.5770, 29560.00
247.7920, 28770.00
249.0070, 27967.00
250.2220, 26989.00
251.4370, 26183.00
252.6510, 25120.00
253.8660, 24176.00
255.0800, 23081.00
256.2940, 22366.00
257.5080, 21871.00
258.7220, 21285.00
259.9360, 20442.00
261.1490, 19555.00
262.3630, 18926.00
263.5760, 18426.00
264.7890, 18141.00
266.0020, 17440.00
267.2150, 17538.00
268.4270, 17097.00
269.6400, 16910.00
270.8520, 16573.00
272.0640, 16497.00
273.2760, 16385.00
274.4880, 16421.00
275.7000, 16254.00
276.9120, 16082.00
278.1230, 16159.00
279.3340, 16117.00
280.5450, 16043.00
281.7560, 15949.00
282.9670, 16083.00
284.1780, 16114.00
285.3880, 16020.00
286.5980, 16080.00
287.8090, 16083.27
289.0190, 16161.00
290.2290, 16202.00
291.4380, 16171.00
292.6480, 16347.00
293.8570, 16257.00
295.0670, 16376.00
296.2760, 16417.00
297.4850, 16506.00
298.6930, 16522.00
299.9020, 16636.00
301.1110, 16753.00
302.3190, 16853.00
303.5270, 16821.00
304.7350, 16839.00
305.9430, 17004.00
307.1510, 17164.00
308.3580, 17308.00
309.5660, 17462.00
310.7730, 17588.00
311.9800, 17800.00
313.1870, 18052.00
314.3940, 18315.00
315.6010, 18585.00
316.8070, 18738.00
318.0130, 18873.00
319.2200, 18907.00
320.4260, 18892.00
321.6310, 18943.00
322.8370, 18878.00
324.0430, 18855.00
325.2480, 18755.00
326.4540, 18657.00
327.6590, 18350.00
328.8640, 18112.00
330.0680, 18200.00
331.2730, 18215.00
332.4780, 18104.00
333.6820, 18004.00
334.8860, 17879.00
336.0900, 17947.00
337.2940, 18034.00
338.4980, 18037.00
339.7010, 18089.00
340.9050, 18078.00
342.1080, 18365.00
343.3110, 18329.00
344.5140, 18525.00
345.7170, 18633.00
346.9200, 18817.00
348.1220, 19117.00
349.3240, 19070.00
350.5270, 19320.00
351.7290, 19267.00
352.9310, 19461.00
354.1320, 19377.00
355.3340, 19725.00
356.5350, 19804.00
357.7370, 20148.00
358.9380, 20092.00
360.1390, 20507.00
361.3400, 20633.00
362.5400, 20830.00
363.7410, 21197.00
364.9410, 21274.00
366.1410, 21442.00
367.3410, 21576.00
368.5410, 21819.00
369.7410, 22129.00
370.9400, 22169.00
372.1400, 22397.00
373.3390, 22518.00
374.5380, 22680.00
375.7370, 22717.00
376.9360, 23054.00
378.1350, 23041.00
379.3330, 23194.00
380.5310, 23146.00
381.7300, 23406.00
382.9280, 23680.00
384.1260, 23952.00
385.3230, 24227.00
386.5210, 24560.00
387.7180, 25082.00
388.9160, 25403.00
390.1130, 25475.00
391.3100, 25389.00
392.5060, 25607.00
393.7030, 25363.00
394.9000, 24919.00
396.0960, 24788.00
397.2920, 23916.00
398.4880, 23626.00
399.6840, 22880.00
400.8800, 22406.00
402.0750, 21997.00
403.2710, 21572.00
404.4660, 21465.00
405.6610, 21270.00
406.8560, 21301.00
408.0510, 20986.00
409.2450, 20846.00
410.4400, 20925.00
411.6340, 20825.00
412.8280, 21072.00
414.0220, 21204.00
415.2160, 21256.00
416.4100, 21450.00
417.6030, 21693.00
418.7970, 22002.00
419.9900, 21956.00
421.1830, 22543.00
422.3760, 22458.00
423.5690, 22749.00
424.7610, 22623.00
425.9540, 22711.00
427.1460, 22775.00
428.3380, 22523.00
429.5300, 22404.00
430.7220, 22097.00
431.9140, 21889.00
433.1050, 21748.00
434.2970, 21362.00
435.4880, 21121.00
436.6790, 20526.00
437.8700, 20128.00
439.0610, 19744.00
440.2510, 19294.00
441.4420, 19085.00
442.6320, 18888.00
443.8220, 18727.00
445.0120, 18437.00
446.2020, 18536.00
447.3910, 18240.00
448.5810, 18264.00
449.7700, 17970.00
450.9600, 17882.00
452.1490, 17794.00
453.3370, 17735.00
454.5260, 17765.00
455.7150, 17797.00
456.9030, 17758.00
458.0910, 17783.83
459.2800, 17724.00
460.4670, 17747.00
461.6550, 17686.00
462.8430, 17586.00
464.0300, 17606.00
465.2180, 17572.33
466.4050, 17827.00
467.5920, 17663.00
468.7790, 17596.00
469.9650, 17803.00
471.1520, 17508.00
472.3380, 17844.00
473.5250, 17797.00
474.7110, 17719.00
475.8970, 17822.00
477.0820, 17812.00
478.2680, 17893.00
479.4540, 17854.00
480.6390, 17951.00
481.8240, 18127.00
483.0090, 17954.00
484.1940, 18041.00
485.3780, 18168.00
486.5630, 18291.00
487.7470, 18383.00
488.9320, 18291.00
490.1160, 18361.00
491.3000, 18256.00
492.4830, 18290.00
493.6670, 18375.00
494.8500, 18123.00
496.0340, 18147.00
497.2170, 18338.00
498.4000, 18419.00
499.5820, 18578.00
500.7650, 18761.00
501.9480, 18645.00
503.1300, 18946.00
504.3120, 19266.00
505.4940, 19271.00
506.6760, 19607.00
507.8580, 20007.00
509.0390, 20105.00
510.2210, 20372.00
511.4020, 20728.00
512.5830, 21038.00
513.7640, 21347.00
514.9450, 21558.27
516.1250, 21730.91
517.3060, 21867.00
518.4860, 21974.00
519.6660, 21999.00
520.8460, 22124.00
522.0260, 21955.00
523.2060, 21983.00
524.3850, 21984.00
525.5650, 21687.00
526.7440, 21786.00
527.9230, 21698.00
529.1020, 21417.00
530.2810, 21370.00
531.4590, 21265.00
532.6380, 20962.00
533.8160, 20591.00
534.9940, 20610.00
536.1720, 20451.00
537.3500, 20110.00
538.5270, 19964.00
539.7050, 19870.00
540.8820, 19664.00
542.0590, 19683.00
543.2360, 19571.00
544.4130, 19250.00
545.5900, 19405.00
546.7660, 19160.00
547.9430, 19008.00
549.1190, 19092.00
550.2950, 18796.00
551.4710, 18889.00
552.6470, 18929.00
553.8220, 19026.00
554.9980, 18961.01
556.1730, 18723.00
557.3480, 18814.00
558.5230, 18725.00
559.6980, 18656.00
560.8730, 18718.00
562.0470, 18767.00
563.2220, 18720.00
564.3960, 18615.00
565.5700, 18783.00
566.7440, 18738.00
567.9170, 18643.00
569.0910, 18823.00
570.2640, 18781.00
571.4380, 18819.00
572.6110, 18753.00
573.7840, 18828.88
574.9570, 18855.00
576.1290, 18966.00
577.3020, 18973.00
578.4740, 19035.00
579.6460, 19167.00
580.8180, 19166.00
581.9900, 19126.00
583.1620, 19125.00
584.3330, 19199.00
585.5040, 19175.00
586.6760, 19256.00
587.8470, 19401.00
589.0180, 19473.00
590.1880, 19299.00
591.3590, 19288.00
592.5290, 19192.00
593.7000, 19335.00
594.8700, 19321.00
596.0400, 19340.62
597.2090, 19480.00
598.3790, 19392.00
599.5490, 19321.00
600.7180, 19339.00
601.8870, 19412.00
603.0560, 19340.00
604.2250, 19459.00
605.3940, 19395.00
606.5620, 19487.00
607.7300, 19437.00
608.8990, 19719.00
610.0670, 19615.00
611.2350, 19569.00
612.4020, 19922.00
613.5700, 19850.00
614.7370, 20136.00
615.9050, 19976.00
617.0720, 20101.00
618.2390, 20165.00
619.4060, 20279.00
620.5720, 20334.00
621.7390, 20463.40
622.9050, 20672.00
624.0710, 20712.00
625.2370, 20895.00
626.4030, 21016.00
627.5690, 21225.00
628.7340, 21172.00
629.9000, 21422.00
631.0650, 21485.00
632.2300, 21908.00
633.3950, 21825.00
634.5600, 22371.00
635.7240, 22545.00
636.8890, 22692.00
638.0530, 23045.00
639.2170, 23392.00
640.3810, 23797.00
641.5450, 24012.00
642.7080, 24284.00
643.8720, 24859.00
645.0350, 25148.00
646.1980, 25815.00
647.3610, 26221.00
648.5240, 26728.00
649.6870, 27413.00
650.8490, 28089.00
652.0120, 28421.00
653.1740, 29111.00
654.3360, 29791.00
655.4980, 30439.00
656.6600, 31375.00
657.8210, 32031.00
658.9830, 33173.00
660.1440, 34059.00
661.3050, 35439.00
662.4660, 37021.00
663.6270, 38491.00
664.7870, 40494.00
665.9480, 42582.00
667.1080, 44717.00
668.2680, 46788.00
669.4280, 49010.00
670.5880, 50775.00
671.7480, 52375.00
672.9070, 53316.00
674.0670, 53697.00
675.2260, 53646.00
676.3850, 52381.00
677.5440, 50934.00
678.7030, 48860.00
679.8610, 46487.00
681.0200, 44009.00
682.1780, 41696.00
683.3360, 39049.00
684.4940, 37046.00
685.6520, 35112.00
686.8090, 33288.00
687.9670, 31841.00
689.1240, 30046.00
690.2810, 29150.00
691.4380, 28139.00
692.5950, 27335.00
693.7520, 26296.00
694.9080, 26052.00
696.0650, 25354.00
697.2210, 24957.00
698.3770, 24790.00
699.5330, 24129.00
700.6880, 24022.00
701.8440, 23643.00
702.9990, 23543.00
704.1550, 23360.00
705.3100, 23092.00
706.4650, 22983.00
707.6190, 22976.00
708.7740, 22929.00
709.9290, 22720.00
711.0830, 22769.00
712.2370, 22553.00
713.3910, 22731.00
714.5450, 22317.00
715.6980, 22613.00
716.8520, 22634.00
718.0050, 22833.00
719.1580, 22554.00
720.3110, 22688.00
721.4640, 22640.00
722.6170, 22891.00
723.7700, 22688.00
724.9220, 22576.00
726.0740, 22673.00
727.2260, 22676.00
728.3780, 22769.00
729.5300, 22677.00
730.6810, 22636.00
731.8330, 22623.00
732.9840, 22717.00
734.1350, 22675.00
735.2860, 22666.00
736.4370, 22609.00
737.5880, 22649.00
738.7380, 22650.00
739.8880, 22769.00
741.0390, 22688.00
742.1890, 22624.00
743.3380, 22458.00
744.4880, 22467.00
745.6380, 22588.00
746.7870, 22421.00
747.9360, 22898.00
749.0850, 22546.00
750.2340, 22571.00
751.3830, 22458.00
752.5310, 22249.00
753.6800, 22618.00
754.8280, 22550.00
755.9760, 22635.00
757.1240, 22570.00
758.2720, 22584.00
759.4190, 22550.00
760.5670, 22627.00
761.7140, 22561.00
762.8610, 22661.00
764.0080, 22510.00
765.1550, 22669.00
766.3020, 22620.00
767.4480, 22441.00
768.5950, 22771.00
769.7410, 22598.00
770.8870, 22689.00
772.0330, 22745.00
773.1780, 22715.00
774.3240, 22686.00
775.4690, 23002.00
776.6140, 22810.00
777.7590, 22860.00
778.9040, 22717.00
780.0490, 22744.00
781.1940, 22870.00
782.3380, 22906.00
783.4820, 22852.00
784.6260, 22947.00
785.7700, 23046.00
786.9140, 22993.00
788.0580, 23198.00
789.2010, 23122.00
790.3450, 23196.00
791.4880, 23039.00
792.6310, 23020.00
793.7730, 23324.00
794.9160, 23145.00
796.0590, 23136.00
797.2010, 23374.00
798.3430, 23306.00
799.4850, 23368.00
800.6270, 23305.00
801.7690, 23169.00
802.9100, 23391.00
804.0520, 23674.00
805.1930, 23583.00
806.3340, 23474.00
807.4750, 23503.00
808.6160, 23355.00
809.7560, 23604.00
810.8970, 23621.00
812.0370, 23588.00
813.1770, 23804.00
814.3170, 23607.00
815.4570, 23730.00
816.5960, 23548.00
817.7360, 23579.00
818.8750, 23612.00
820.0140, 23588.00
821.1530, 23670.00
822.2920, 23730.39
823.4310, 23895.00
824.5690, 23916.00
825.7070, 23934.00
826.8460, 24027.00
827.9840, 23954.00
829.1220, 23991.00
830.2590, 24062.00
831.3970, 24067.00
832.5340, 24058.00
833.6710, 24121.54
834.8080, 24116.00
835.9450, 24238.00
837.0820, 24233.00
838.2190, 24349.00
839.3550, 24311.00
840.4910, 24359.00
841.6270, 24384.57
842.7630, 24486.00
843.8990, 24409.00
845.0350, 24458.00
846.1700, 24465.00
847.3060, 24643.00
848.4410, 24636.00
849.5760, 24481.00
850.7100, 24713.00
851.8450, 24758.00
852.9800, 24608.00
854.1140, 24861.00
855.2480, 24908.00
856.3820, 25140.00
857.5160, 24957.00
858.6500, 25073.41
859.7830, 25020.00
860.9170, 25067.00
862.0500, 25033.00
863.1830, 24970.00
864.3160, 24993.00
865.4480, 24826.00
866.5810, 25183.00
867.7130, 24930.00
868.8460, 25032.00
869.9780, 25361.00
871.1100, 25267.00
872.2410, 25203.00
873.3730, 25357.00
874.5050, 25442.00
875.6360, 25366.00
876.7670, 25476.00
877.8980, 25757.00
879.0290, 25898.00
880.1590, 25869.00
881.2900, 26002.00
882.4200, 25851.00
883.5500, 26071.00
884.6800, 26295.00
885.8100, 26183.00
886.9400, 26515.00
888.0690, 26403.00
889.1990, 26695.00
890.3280, 26806.00
891.4570, 26954.00
892.5860, 26937.00
893.7140, 27152.00
894.8430, 27155.00
895.9710, 27045.00
897.1000, 27416.00
898.2280, 27417.00
899.3560, 27573.00
900.4830, 27699.00
901.6110, 27799.00
902.7380, 27967.92
903.8660, 27816.00
904.9930, 28226.00
906.1200, 28310.00
907.2460, 28323.00
908.3730, 28755.00
909.5000, 28778.00
910.6260, 28932.00
911.7520, 29101.00
912.8780, 29197.00
914.0040, 29336.00
915.1290, 29589.00
916.2550, 29801.00
917.3800, 30051.00
918.5050, 29993.00
919.6300, 30079.00
920.7550, 30012.00
921.8800, 30341.00
923.0040, 30221.00
924.1290, 30199.00
925.2530, 30244.00
926.3770, 29917.00
927.5010, 30279.00
928.6250, 30347.00
929.7480, 30114.00
930.8720, 30144.00
931.9950, 29959.00
933.1180, 29965.00
934.2410, 30161.00
935.3640, 30052.00
936.4860, 29869.00
937.6090, 29944.00
938.7310, 29847.00
939.8530, 29876.00
940.9750, 29762.00
942.0970, 29846.00
943.2180, 29830.88
944.3400, 29909.00
945.4610, 29845.00
946.5820, 29824.00
947.7030, 29759.00
948.8240, 29877.00
949.9450, 30041.00
951.0650, 30000.00
952.1860, 30272.00
953.3060, 29869.00
954.4260, 29971.00
955.5460, 29892.00
956.6650, 30064.00
957.7850, 30011.00
958.9040, 30196.00
960.0230, 29999.00
961.1420, 30240.00
962.2610, 30129.00
963.3800, 29915.00
964.4990, 30333.00
965.6170, 30180.00
966.7350, 30198.00
967.8530, 30243.00
968.9710, 30353.00
970.0890, 30441.00
971.2070, 30559.00
972.3240, 30699.00
973.4410, 30365.00
974.5580, 30630.00
975.6750, 30511.00
976.7920, 30868.00
977.9090, 30953.00
979.0250, 31130.00
980.1410, 31005.00
981.2580, 31252.00
982.3740, 31181.00
983.4890, 31589.00
984.6050, 31545.00
985.7200, 31746.00
986.8360, 31795.00
987.9510, 32443.00
989.0660, 32401.00
990.1810, 32654.00
991.2950, 33116.00
992.4100, 33111.00
993.5240, 33417.00
994.6390, 33465.00
995.7530, 33965.00
996.8660, 34194.00
997.9800, 34522.00
999.0940, 34756.00
1000.207, 35014.00
1001.320, 35426.00
1002.433, 35595.00
1003.546, 35906.00
1004.659, 36337.00
1005.772, 36264.00
1006.884, 36667.00
1007.996, 36763.00
1009.108, 37074.00
1010.220, 36989.00
1011.332, 37027.00
1012.444, 37373.00
1013.555, 37363.00
1014.666, 37386.00
1015.777, 37414.00
1016.888, 37411.90
1017.999, 37619.00
1019.110, 37437.00
1020.220, 37684.00
1021.331, 37738.00
1022.441, 37746.00
1023.551, 37880.00
1024.661, 37692.00
1025.770, 37827.00
1026.880, 37662.00
1027.989, 38001.00
1029.098, 38161.00
1030.207, 38074.00
1031.316, 38093.00
1032.425, 38277.00
1033.533, 38258.00
1034.642, 38400.00
1035.750, 38839.00
1036.858, 38626.00
1037.966, 38830.00
1039.073, 39109.00
1040.181, 39116.00
1041.288, 39161.00
1042.396, 39213.00
1043.503, 39059.59
1044.610, 38813.00
1045.716, 38727.00
1046.823, 38532.00
1047.929, 38350.00
1049.036, 38183.26
1050.142, 37988.00
1051.248, 37820.00
1052.353, 37625.04
1053.459, 37499.30
1054.564, 37267.00
1055.670, 37222.00
1056.775, 37017.00
1057.880, 37001.00
1058.985, 36800.00
1060.089, 36946.00
1061.194, 36740.00
1062.298, 36428.00
1063.402, 36898.00
1064.506, 36793.00
1065.610, 36617.00
1066.713, 36379.00
1067.817, 36244.00
1068.920, 36033.21
1070.023, 36047.00
1071.126, 35724.00
1072.229, 35529.00
1073.332, 35525.00
1074.435, 35310.00
1075.537, 35066.00
1076.639, 34918.04
1077.741, 34519.00
1078.843, 34451.00
1079.945, 34019.00
1081.046, 33712.00
1082.148, 33650.00
1083.249, 33587.00
1084.350, 33289.00
1085.451, 33194.00
1086.551, 33235.00
1087.652, 33068.00
1088.752, 32914.00
1089.853, 32842.00
1090.953, 32730.49
1092.053, 32623.00
1093.152, 32624.00
1094.252, 32556.00
1095.351, 32581.00
1096.451, 32583.00
1097.550, 32309.00
1098.649, 32383.00
1099.748, 32411.00
1100.846, 32538.00
1101.945, 32458.00
1103.043, 32202.00
1104.141, 32542.00
1105.239, 32310.00
1106.337, 32140.00
1107.434, 32487.00
1108.532, 32564.00
1109.629, 32308.00
1110.726, 32419.00
1111.823, 32196.00
1112.920, 32652.00
1114.017, 32325.00
1115.113, 32698.00
1116.210, 32513.00
1117.306, 32965.00
1118.402, 32998.00
1119.498, 32915.00
1120.593, 33008.00
1121.689, 33115.00
1122.784, 33349.00
1123.879, 33277.00
1124.974, 33274.00
1126.069, 32783.00
1127.164, 32783.00
1128.259, 32817.00
1129.353, 32608.00
1130.447, 32712.00
1131.541, 32817.00
1132.635, 32577.00
1133.729, 32515.00
1134.822, 32795.00
1135.916, 32660.00
1137.009, 32652.00
1138.102, 32664.00
1139.195, 32789.00
1140.288, 32699.00
1141.380, 32736.00
1142.473, 32678.00
1143.565, 32777.00
1144.657, 32782.00
1145.749, 32871.00
1146.841, 32993.00
1147.932, 32916.00
1149.024, 32986.00
1150.115, 32741.00
1151.206, 32894.00
1152.297, 32784.00
1153.388, 33102.00
1154.479, 33115.00
1155.569, 33183.00
1156.659, 33281.00
1157.750, 33327.00
1158.839, 33343.96
1159.929, 33404.52
1161.019, 33311.00
1162.108, 33418.00
1163.198, 33351.00
1164.287, 33231.00
1165.376, 33382.00
1166.465, 33359.00
1167.553, 33487.00
1168.642, 33318.00
1169.730, 33618.00
1170.818, 33570.00
1171.906, 33621.00
1172.994, 33894.00
1174.082, 33872.00
1175.170, 33658.00
1176.257, 33813.00
1177.344, 33876.00
1178.431, 33831.00
1179.518, 33822.00
1180.605, 33834.00
1181.691, 33843.00
1182.778, 33894.00
1183.864, 34228.00
1184.950, 33923.00
1186.036, 34167.00
1187.122, 34249.00
1188.207, 34062.00
1189.292, 34285.00
1190.378, 34232.00
1191.463, 34243.00
1192.548, 34230.00
1193.632, 34312.89
1194.717, 34255.00
1195.801, 34485.00
1196.886, 34516.00
1197.970, 34517.00
1199.054, 34585.00
1200.137, 34489.00
1201.221, 34808.00
1202.305, 34780.00
1203.388, 34865.00
1204.471, 34723.00
1205.554, 34783.00
1206.637, 35022.00
1207.719, 34739.00
1208.802, 35039.00
1209.884, 35200.00
1210.966, 35209.00
1212.048, 35171.00
1213.130, 34983.00
1214.212, 35062.00
1215.293, 35264.00
1216.374, 35375.00
1217.456, 35468.00
1218.536, 35580.23
1219.617, 35497.00
1220.698, 35662.00
1221.778, 35571.00
1222.859, 35450.00
1223.939, 35627.00
1225.019, 35792.00
1226.099, 35801.00
1227.178, 36011.00
1228.258, 35775.00
1229.337, 36178.00
1230.417, 36008.00
1231.496, 35712.00
1232.574, 35886.00
1233.653, 36167.00
1234.732, 35914.00
1235.810, 36199.00
1236.888, 36110.00
1237.966, 36492.00
1239.044, 36510.00
1240.122, 36466.00
1241.199, 36511.00
1242.277, 36485.00
1243.354, 36581.00
1244.431, 36546.00
1245.508, 36681.00
1246.585, 36532.00
1247.661, 36775.00
1248.738, 36900.00
1249.814, 36688.00
1250.890, 36804.00
1251.966, 37005.00
1253.042, 36825.00
1254.117, 36963.00
1255.193, 36766.00
1256.268, 37205.00
1257.343, 36992.00
1258.418, 37110.00
1259.493, 37039.00
1260.567, 37364.00
1261.642, 37160.00
1262.716, 37350.00
1263.790, 37434.00
1264.864, 37628.00
1265.938, 37625.00
1267.011, 37590.00
1268.085, 37691.00
1269.158, 37811.00
1270.231, 37637.00
1271.304, 37784.00
1272.377, 37819.00
1273.450, 37853.00
1274.522, 37960.00
1275.594, 37868.00
1276.666, 37965.72
1277.738, 38020.00
1278.810, 38017.00
1279.882, 38194.00
1280.953, 38138.00
1282.025, 38461.00
1283.096, 38296.00
