##NAMES=Edenite
##RRUFFID=R050415
##IDEAL CHEMISTRY=NaCa_2_Mg_5_(Si_7_Al)O_22_(OH)_2_
##LOCALITY=Mogok, Burma
##OWNER=RRUFF
##SOURCE=Marcus Origlieri
##DESCRIPTION=Transparent pale green water worn fragment
##STATUS=The identification of this mineral has been confirmed by X-ray diffraction and chemical analysis
##URL=rruff.info/R050415
##MEASURED CHEMISTRY=(Na_0.83_K_0.17_)(Ca_1.76_Na_0.24_)_&#931;=2_(Mg_4.54_Al_0.40_Fe^3+^_0.06_)_&#931;=5_(Si_6.74_Al_1.26_)O_22_((OH)_0.52_F_0.48_)_2_
##PIN_ID=L01355
##ORIENTATION=Laser parallel to -a* (-1 0 0). Fiducial mark perpendicular to laser is parallel to -b [0 -1 0]
99.64900, 18911.00
100.8830, 19332.00
102.1160, 19975.00
103.3490, 20418.00
104.5820, 21170.00
105.8150, 22107.00
107.0470, 23293.00
108.2800, 23511.26
109.5120, 24748.00
110.7440, 24039.00
111.9760, 24225.00
113.2080, 24407.00
114.4400, 24967.00
115.6710, 25179.00
116.9030, 24931.00
118.1340, 24859.00
119.3650, 24737.00
120.5960, 24727.00
121.8270, 24331.00
123.0580, 24124.00
124.2880, 23855.00
125.5190, 23429.00
126.7490, 23120.00
127.9790, 22905.00
129.2090, 22912.00
130.4390, 22795.00
131.6680, 22618.00
132.8980, 22425.00
134.1270, 22321.00
135.3560, 22333.00
136.5850, 22111.00
137.8140, 22281.00
139.0430, 22523.00
140.2710, 22414.00
141.5000, 22144.00
142.7280, 22431.00
143.9560, 22385.00
145.1840, 22141.00
146.4120, 22343.00
147.6390, 22279.00
148.8670, 22455.00
150.0940, 22626.00
151.3210, 22940.00
152.5490, 22848.00
153.7750, 22798.00
155.0020, 23205.00
156.2290, 23564.00
157.4550, 23652.00
158.6810, 23476.00
159.9080, 24198.00
161.1340, 24080.00
162.3590, 24410.00
163.5850, 24644.00
164.8110, 25023.00
166.0360, 25095.00
167.2610, 25094.00
168.4860, 25032.00
169.7110, 24905.00
170.9360, 24886.71
172.1610, 24785.00
173.3850, 24768.00
174.6100, 24674.00
175.8340, 24602.00
177.0580, 24597.51
178.2820, 24601.00
179.5050, 24579.00
180.7290, 24570.00
181.9520, 24567.00
183.1760, 24750.00
184.3990, 24514.00
185.6220, 24688.00
186.8450, 24429.00
188.0670, 24572.00
189.2900, 24382.00
190.5120, 24355.00
191.7340, 24367.00
192.9560, 24132.00
194.1780, 24203.00
195.4000, 24223.00
196.6220, 24262.00
197.8430, 24198.00
199.0640, 24309.00
200.2860, 24426.00
201.5070, 24467.00
202.7270, 24752.00
203.9480, 24647.00
205.1690, 24833.00
206.3890, 24962.00
207.6090, 24892.00
208.8290, 25254.00
210.0490, 25122.00
211.2690, 25344.00
212.4890, 25706.00
213.7080, 26126.00
214.9280, 26347.00
216.1470, 26648.90
217.3660, 26824.00
218.5850, 27186.00
219.8030, 27285.00
221.0220, 27696.00
222.2400, 28079.00
223.4590, 28450.00
224.6770, 28931.00
225.8950, 29588.00
227.1120, 30117.00
228.3300, 30660.00
229.5480, 31260.00
230.7650, 31611.00
231.9820, 32373.00
233.1990, 32855.00
234.4160, 33663.00
235.6330, 33836.00
236.8490, 34425.00
238.0660, 34584.00
239.2820, 34787.00
240.4980, 34614.00
241.7140, 34412.00
242.9300, 34011.00
244.1460, 33580.00
245.3610, 33111.00
246.5770, 32645.00
247.7920, 32188.79
249.0070, 31670.00
250.2220, 31183.00
251.4370, 30828.00
252.6510, 30177.00
253.8660, 30021.00
255.0800, 29116.00
256.2940, 28712.00
257.5080, 28624.00
258.7220, 28481.00
259.9360, 28089.00
261.1490, 27396.00
262.3630, 26934.00
263.5760, 26955.00
264.7890, 26666.00
266.0020, 26402.00
267.2150, 26132.00
268.4270, 26212.00
269.6400, 26014.00
270.8520, 26006.00
272.0640, 25739.00
273.2760, 26026.00
274.4880, 25746.00
275.7000, 25733.00
276.9120, 26019.00
278.1230, 25669.00
279.3340, 25678.00
280.5450, 25902.00
281.7560, 25984.00
282.9670, 25743.00
284.1780, 25844.00
285.3880, 25918.00
286.5980, 25864.00
287.8090, 25805.00
289.0190, 25792.00
290.2290, 25882.00
291.4380, 26119.00
292.6480, 26152.00
293.8570, 26289.00
295.0670, 26310.00
296.2760, 26344.00
297.4850, 26332.00
298.6930, 26458.00
299.9020, 26363.00
301.1110, 26388.00
302.3190, 26523.00
303.5270, 26769.00
304.7350, 26712.00
305.9430, 26654.00
307.1510, 26564.00
308.3580, 26960.00
309.5660, 26932.00
310.7730, 27040.00
311.9800, 27051.00
313.1870, 27416.00
314.3940, 27307.00
315.6010, 27462.00
316.8070, 27625.00
318.0130, 27552.00
319.2200, 27750.00
320.4260, 27702.00
321.6310, 27770.00
322.8370, 27671.00
324.0430, 27711.00
325.2480, 27503.00
326.4540, 27398.00
327.6590, 27305.00
328.8640, 27429.00
330.0680, 27288.00
331.2730, 27199.00
332.4780, 26934.00
333.6820, 27041.00
334.8860, 27246.00
336.0900, 27083.00
337.2940, 27106.00
338.4980, 27121.00
339.7010, 27051.00
340.9050, 27009.00
342.1080, 27184.00
343.3110, 27109.00
344.5140, 27344.00
345.7170, 27219.00
346.9200, 27278.00
348.1220, 27303.00
349.3240, 27400.00
350.5270, 27354.00
351.7290, 27698.00
352.9310, 27567.00
354.1320, 27828.00
355.3340, 27643.00
356.5350, 27659.00
357.7370, 28037.00
358.9380, 28089.00
360.1390, 28221.29
361.3400, 28283.00
362.5400, 28443.00
363.7410, 28496.00
364.9410, 28644.00
366.1410, 28682.00
367.3410, 29090.00
368.5410, 29260.00
369.7410, 29439.00
370.9400, 29429.00
372.1400, 29416.00
373.3390, 29491.00
374.5380, 29794.00
375.7370, 29962.00
376.9360, 30087.00
378.1350, 30419.00
379.3330, 30323.00
380.5310, 30919.00
381.7300, 30973.00
382.9280, 31250.00
384.1260, 31636.00
385.3230, 31759.00
386.5210, 32103.00
387.7180, 32045.00
388.9160, 32440.00
390.1130, 32464.00
391.3100, 32498.00
392.5060, 32478.00
393.7030, 32562.00
394.9000, 32502.00
396.0960, 32224.00
397.2920, 31955.00
398.4880, 31648.00
399.6840, 31489.00
400.8800, 31191.00
402.0750, 30888.00
403.2710, 30593.00
404.4660, 30103.00
405.6610, 29924.00
406.8560, 30117.00
408.0510, 29629.00
409.2450, 29859.00
410.4400, 29804.00
411.6340, 29895.00
412.8280, 29953.00
414.0220, 29938.00
415.2160, 30075.00
416.4100, 30115.00
417.6030, 30186.00
418.7970, 30268.00
419.9900, 30424.00
421.1830, 30487.09
422.3760, 30508.00
423.5690, 30616.00
424.7610, 30607.00
425.9540, 30546.00
427.1460, 30566.00
428.3380, 30442.00
429.5300, 30345.00
430.7220, 30325.00
431.9140, 30059.00
433.1050, 29788.00
434.2970, 29687.00
435.4880, 29527.00
436.6790, 29322.00
437.8700, 29259.00
439.0610, 29092.00
440.2510, 28776.00
441.4420, 28743.00
442.6320, 28624.00
443.8220, 28642.00
445.0120, 28555.00
446.2020, 28411.00
447.3910, 28272.00
448.5810, 28341.00
449.7700, 28386.00
450.9600, 28184.00
452.1490, 28115.00
453.3370, 28435.00
454.5260, 28298.00
455.7150, 28433.00
456.9030, 28550.00
458.0910, 28532.00
459.2800, 28615.00
460.4670, 28303.00
461.6550, 28485.00
462.8430, 28348.00
464.0300, 28426.00
465.2180, 28477.00
466.4050, 28456.00
467.5920, 28791.00
468.7790, 28646.00
469.9650, 28513.00
471.1520, 28744.00
472.3380, 28627.00
473.5250, 28722.00
474.7110, 28572.00
475.8970, 28605.00
477.0820, 28583.00
478.2680, 28724.00
479.4540, 28876.00
480.6390, 28771.00
481.8240, 28882.00
483.0090, 28949.00
484.1940, 28895.00
485.3780, 29090.00
486.5630, 29045.00
487.7470, 29026.00
488.9320, 29072.00
490.1160, 29024.62
491.3000, 28927.00
492.4830, 29046.00
493.6670, 29021.00
494.8500, 29155.00
496.0340, 29084.00
497.2170, 29040.00
498.4000, 29098.00
499.5820, 29085.00
500.7650, 29282.00
501.9480, 29419.00
503.1300, 29239.00
504.3120, 29460.00
505.4940, 29565.00
506.6760, 29550.00
507.8580, 29703.00
509.0390, 29849.00
510.2210, 29868.00
511.4020, 30130.00
512.5830, 30201.00
513.7640, 30396.00
514.9450, 30535.00
516.1250, 30640.28
517.3060, 30816.00
518.4860, 30835.95
519.6660, 30923.00
520.8460, 30947.00
522.0260, 31016.00
523.2060, 31018.58
524.3850, 31143.00
525.5650, 30965.00
526.7440, 30870.00
527.9230, 30740.00
529.1020, 30936.00
530.2810, 30653.00
531.4590, 30691.00
532.6380, 30770.00
533.8160, 30638.00
534.9940, 30492.00
536.1720, 30522.00
537.3500, 30440.00
538.5270, 30296.00
539.7050, 30290.00
540.8820, 30229.00
542.0590, 30201.23
543.2360, 30136.00
544.4130, 30231.00
545.5900, 30256.00
546.7660, 30358.00
547.9430, 30257.00
549.1190, 30197.00
550.2950, 30450.00
551.4710, 30081.00
552.6470, 30383.00
553.8220, 30426.00
554.9980, 30139.00
556.1730, 30156.00
557.3480, 30414.00
558.5230, 30196.00
559.6980, 30287.00
560.8730, 30318.00
562.0470, 30392.00
563.2220, 30507.00
564.3960, 30393.00
565.5700, 30420.00
566.7440, 30353.00
567.9170, 30472.00
569.0910, 30641.00
570.2640, 30548.00
571.4380, 30722.00
572.6110, 30492.00
573.7840, 30698.00
574.9570, 30639.00
576.1290, 30819.00
577.3020, 30923.00
578.4740, 31026.00
579.6460, 30906.00
580.8180, 30829.00
581.9900, 31018.00
583.1620, 30852.00
584.3330, 31115.00
585.5040, 31129.00
586.6760, 31296.00
587.8470, 31126.00
589.0180, 31262.00
590.1880, 31173.00
591.3590, 31015.00
592.5290, 31098.00
593.7000, 31186.00
594.8700, 31227.00
596.0400, 31428.00
597.2090, 31315.00
598.3790, 31322.00
599.5490, 31684.00
600.7180, 31531.00
601.8870, 31457.00
603.0560, 31507.00
604.2250, 31269.00
605.3940, 31514.00
606.5620, 31441.00
607.7300, 31584.00
608.8990, 31964.00
610.0670, 31782.00
611.2350, 31839.00
612.4020, 31753.00
613.5700, 32037.00
614.7370, 32143.00
615.9050, 32209.00
617.0720, 32483.00
618.2390, 32500.00
619.4060, 32659.00
620.5720, 32629.00
621.7390, 33085.00
622.9050, 33499.00
624.0710, 33595.00
625.2370, 33567.00
626.4030, 33692.00
627.5690, 33738.00
628.7340, 33750.55
629.9000, 33781.00
631.0650, 33819.00
632.2300, 33700.00
633.3950, 33783.00
634.5600, 33993.00
635.7240, 33974.00
636.8890, 34227.00
638.0530, 34423.00
639.2170, 34548.00
640.3810, 34912.00
641.5450, 35284.00
642.7080, 35321.00
643.8720, 36054.00
645.0350, 36169.00
646.1980, 36456.00
647.3610, 36658.00
648.5240, 36808.00
649.6870, 37373.00
650.8490, 37711.00
652.0120, 37956.00
653.1740, 38393.00
654.3360, 38750.00
655.4980, 39502.00
656.6600, 39799.00
657.8210, 40656.00
658.9830, 41267.00
660.1440, 41887.00
661.3050, 42839.00
662.4660, 43929.00
663.6270, 45010.00
664.7870, 46205.00
665.9480, 48014.00
667.1080, 48759.00
668.2680, 50340.00
669.4280, 51366.00
670.5880, 52341.00
671.7480, 53056.07
672.9070, 53538.00
674.0670, 53685.00
675.2260, 53560.00
676.3850, 53150.00
677.5440, 52410.00
678.7030, 51112.00
679.8610, 50040.00
681.0200, 48671.00
682.1780, 47232.00
683.3360, 45665.00
684.4940, 44375.00
685.6520, 43018.00
686.8090, 42021.00
687.9670, 41113.00
689.1240, 40089.00
690.2810, 39310.00
691.4380, 38828.00
692.5950, 38105.00
693.7520, 37639.00
694.9080, 37211.00
696.0650, 37113.00
697.2210, 36500.00
698.3770, 36396.00
699.5330, 36218.00
700.6880, 35983.00
701.8440, 36018.00
702.9990, 35478.00
704.1550, 35319.00
705.3100, 35288.00
706.4650, 35657.00
707.6190, 35257.00
708.7740, 35181.00
709.9290, 35101.00
711.0830, 35025.00
712.2370, 34935.00
713.3910, 35082.00
714.5450, 34870.00
715.6980, 35202.00
716.8520, 34885.00
718.0050, 34919.00
719.1580, 34998.00
720.3110, 35174.00
721.4640, 35352.00
722.6170, 35242.00
723.7700, 35316.00
724.9220, 35127.00
726.0740, 35423.00
727.2260, 35455.00
728.3780, 35101.00
729.5300, 35296.00
730.6810, 35660.00
731.8330, 35408.00
732.9840, 35453.00
734.1350, 35195.00
735.2860, 35236.00
736.4370, 35187.00
737.5880, 35465.00
738.7380, 35535.00
739.8880, 35293.00
741.0390, 35260.00
742.1890, 35193.00
743.3380, 35244.00
744.4880, 35177.00
745.6380, 35526.00
746.7870, 35379.00
747.9360, 35698.00
749.0850, 35268.00
750.2340, 35480.00
751.3830, 35393.00
752.5310, 35458.00
753.6800, 35352.00
754.8280, 35455.00
755.9760, 35242.00
757.1240, 35643.00
758.2720, 35413.00
759.4190, 35793.00
760.5670, 35846.00
761.7140, 35433.00
762.8610, 35538.00
764.0080, 35501.00
765.1550, 35561.00
766.3020, 35747.00
767.4480, 35822.00
768.5950, 35841.00
769.7410, 35977.00
770.8870, 35706.00
772.0330, 35821.00
773.1780, 35910.00
774.3240, 35633.00
775.4690, 36065.00
776.6140, 35895.00
777.7590, 36004.00
778.9040, 36020.00
780.0490, 36017.00
781.1940, 36157.00
782.3380, 36280.00
783.4820, 36378.00
784.6260, 36170.00
785.7700, 36505.00
786.9140, 36124.00
788.0580, 36347.00
789.2010, 36429.00
790.3450, 36709.00
791.4880, 36501.00
792.6310, 36401.00
793.7730, 36630.00
794.9160, 36819.00
796.0590, 36913.00
797.2010, 36604.00
798.3430, 36820.00
799.4850, 36753.00
800.6270, 36842.00
801.7690, 36977.00
802.9100, 36674.00
804.0520, 37190.00
805.1930, 37010.00
806.3340, 37127.00
807.4750, 37409.00
808.6160, 37126.00
809.7560, 36988.00
810.8970, 37066.00
812.0370, 37242.00
813.1770, 37319.00
814.3170, 37389.00
815.4570, 37400.00
816.5960, 37313.00
817.7360, 37340.00
818.8750, 37412.00
820.0140, 37276.00
821.1530, 37587.00
822.2920, 37646.00
823.4310, 37799.00
824.5690, 37511.00
825.7070, 37499.00
826.8460, 38220.00
827.9840, 37842.00
829.1220, 38071.00
830.2590, 37925.00
831.3970, 37760.00
832.5340, 37896.00
833.6710, 38089.00
834.8080, 38241.00
835.9450, 38479.00
837.0820, 38289.00
838.2190, 38389.00
839.3550, 38145.00
840.4910, 38498.00
841.6270, 38359.00
842.7630, 38541.00
843.8990, 38760.00
845.0350, 38548.00
846.1700, 38911.00
847.3060, 38871.00
848.4410, 38991.00
849.5760, 38958.00
850.7100, 38906.00
851.8450, 38940.00
852.9800, 39231.00
854.1140, 39129.00
855.2480, 39410.00
856.3820, 39421.00
857.5160, 39618.00
858.6500, 39535.00
859.7830, 39765.00
860.9170, 39778.00
862.0500, 39838.00
863.1830, 39904.00
864.3160, 39695.00
865.4480, 39615.00
866.5810, 39886.00
867.7130, 39560.00
868.8460, 39541.00
869.9780, 39724.00
871.1100, 39672.00
872.2410, 39495.00
873.3730, 39717.00
874.5050, 39581.00
875.6360, 39828.00
876.7670, 39905.00
877.8980, 39645.00
879.0290, 40028.00
880.1590, 40151.00
881.2900, 40005.00
882.4200, 40105.00
883.5500, 40252.00
884.6800, 40754.00
885.8100, 40481.00
886.9400, 40562.00
888.0690, 40348.00
889.1990, 40704.00
890.3280, 40874.00
891.4570, 40649.00
892.5860, 40740.00
893.7140, 40793.00
894.8430, 40844.00
895.9710, 40987.00
897.1000, 41024.83
898.2280, 40954.00
899.3560, 41193.00
900.4830, 41247.00
901.6110, 41392.00
902.7380, 41287.00
903.8660, 41466.00
904.9930, 41420.00
906.1200, 41836.00
907.2460, 41640.00
908.3730, 41763.00
909.5000, 41910.00
910.6260, 41934.00
911.7520, 41924.00
912.8780, 42242.00
914.0040, 42590.00
915.1290, 42382.00
916.2550, 42649.00
917.3800, 42513.00
918.5050, 42566.00
919.6300, 42616.00
920.7550, 42577.00
921.8800, 42792.00
923.0040, 42846.00
924.1290, 42813.00
925.2530, 42796.00
926.3770, 42805.00
927.5010, 42636.00
928.6250, 42713.00
929.7480, 42647.00
930.8720, 42490.00
931.9950, 42707.00
933.1180, 42714.00
934.2410, 42829.00
935.3640, 42582.00
936.4860, 42933.00
937.6090, 42598.00
938.7310, 42724.00
939.8530, 42930.00
940.9750, 42727.00
942.0970, 42783.00
943.2180, 42702.00
944.3400, 42763.00
945.4610, 42846.00
946.5820, 42889.14
947.7030, 42947.41
948.8240, 43059.00
949.9450, 43038.00
951.0650, 43064.00
952.1860, 43097.00
953.3060, 43230.00
954.4260, 43220.00
955.5460, 43219.00
956.6650, 43416.00
957.7850, 43189.00
958.9040, 43694.00
960.0230, 43136.00
961.1420, 43326.00
962.2610, 43547.00
963.3800, 43346.00
964.4990, 43397.00
965.6170, 43309.00
966.7350, 43406.00
967.8530, 43505.00
968.9710, 43500.00
970.0890, 43404.00
971.2070, 43546.00
972.3240, 43541.23
973.4410, 43825.00
974.5580, 43696.00
975.6750, 43803.00
976.7920, 43939.00
977.9090, 43745.00
979.0250, 43937.00
980.1410, 43925.00
981.2580, 44184.00
982.3740, 44190.00
983.4890, 44513.00
984.6050, 44574.00
985.7200, 44597.00
986.8360, 44673.00
987.9510, 44828.00
989.0660, 44913.00
990.1810, 44949.00
991.2950, 45111.00
992.4100, 45437.00
993.5240, 45455.00
994.6390, 45897.00
995.7530, 45726.00
996.8660, 46303.00
997.9800, 46341.00
999.0940, 46628.00
1000.207, 47281.00
1001.320, 47123.00
1002.433, 47546.00
1003.546, 47467.00
1004.659, 47816.00
1005.772, 47520.00
1006.884, 47725.00
1007.996, 47403.00
1009.108, 47124.00
1010.220, 47636.00
1011.332, 47357.00
1012.444, 47808.00
1013.555, 47592.00
1014.666, 47711.00
1015.777, 47908.00
1016.888, 47678.00
1017.999, 48165.00
1019.110, 48041.00
1020.220, 48142.00
1021.331, 48230.00
1022.441, 48120.00
1023.551, 48224.36
1024.661, 48423.00
1025.770, 48324.00
1026.880, 48310.00
1027.989, 48446.00
1029.098, 48540.00
1030.207, 48573.48
1031.316, 48686.99
1032.425, 48663.00
1033.533, 48813.00
1034.642, 48822.00
1035.750, 48808.00
1036.858, 48949.63
1037.966, 48858.00
1039.073, 49172.00
1040.181, 49079.00
1041.288, 49209.00
1042.396, 49202.00
1043.503, 49195.00
1044.610, 49365.00
1045.716, 49003.00
1046.823, 48771.00
1047.929, 49012.00
1049.036, 48896.00
1050.142, 48770.00
1051.248, 48730.00
1052.353, 48676.00
1053.459, 48602.00
1054.564, 48526.00
1055.670, 48206.00
1056.775, 48247.00
1057.880, 47868.00
1058.985, 48048.00
1060.089, 48032.00
1061.194, 47754.00
1062.298, 48036.00
1063.402, 48189.00
1064.506, 48063.00
1065.610, 48116.00
1066.713, 47771.00
1067.817, 48037.00
1068.920, 47958.00
1070.023, 47952.00
1071.126, 48007.00
1072.229, 48049.00
1073.332, 47700.00
1074.435, 47664.00
1075.537, 47808.00
1076.639, 47624.00
1077.741, 47757.00
1078.843, 47782.00
1079.945, 47666.00
1081.046, 47740.00
1082.148, 47685.00
1083.249, 47587.00
1084.350, 47684.00
1085.451, 47837.00
1086.551, 47654.00
1087.652, 47785.00
1088.752, 47567.00
1089.853, 47265.00
1090.953, 47143.00
1092.053, 47405.00
1093.152, 47492.00
1094.252, 47300.00
1095.351, 47403.00
1096.451, 47338.00
1097.550, 47316.00
1098.649, 47254.00
1099.748, 47231.00
1100.846, 47422.00
1101.945, 47333.00
1103.043, 47370.00
1104.141, 47519.00
1105.239, 47505.00
1106.337, 47751.00
1107.434, 47665.00
1108.532, 47835.00
1109.629, 47958.00
1110.726, 47777.00
1111.823, 47631.00
1112.920, 47644.00
1114.017, 47938.00
1115.113, 48131.00
1116.210, 47965.00
1117.306, 48555.00
1118.402, 48504.00
1119.498, 48458.00
1120.593, 48693.00
1121.689, 48558.00
1122.784, 48659.00
1123.879, 48942.00
1124.974, 48669.00
1126.069, 48770.00
1127.164, 48574.00
1128.259, 48315.00
1129.353, 48194.00
1130.447, 48211.00
1131.541, 48125.00
1132.635, 48068.00
1133.729, 48271.00
1134.822, 48211.00
1135.916, 48335.00
1137.009, 48185.00
1138.102, 48082.00
1139.195, 48643.00
1140.288, 48121.00
1141.380, 48599.00
1142.473, 48560.00
1143.565, 48570.00
1144.657, 48564.00
1145.749, 48543.00
1146.841, 48446.00
1147.932, 48738.00
1149.024, 48603.00
1150.115, 48533.00
1151.206, 48643.00
1152.297, 48518.00
1153.388, 48542.00
1154.479, 48730.00
1155.569, 48849.00
1156.659, 48980.00
1157.750, 48886.00
1158.839, 48906.00
1159.929, 49094.00
1161.019, 49123.00
1162.108, 49290.00
1163.198, 49581.00
1164.287, 49149.00
1165.376, 49284.00
1166.465, 49044.00
1167.553, 49181.00
1168.642, 49340.00
1169.730, 49442.00
1170.818, 49458.00
1171.906, 49660.00
1172.994, 49400.00
1174.082, 49414.00
1175.170, 49320.00
1176.257, 49737.00
1177.344, 49836.00
1178.431, 49630.00
1179.518, 49369.00
1180.605, 49852.00
1181.691, 50052.00
1182.778, 50167.00
1183.864, 49987.00
1184.950, 49847.00
1186.036, 50162.00
1187.122, 49997.00
1188.207, 50264.00
1189.292, 50027.00
1190.378, 50144.00
1191.463, 49989.00
1192.548, 50135.00
1193.632, 50000.00
1194.717, 50072.43
1195.801, 50134.51
1196.886, 50229.00
1197.970, 50315.00
1199.054, 50476.00
1200.137, 50660.00
1201.221, 50731.45
1202.305, 50731.00
1203.388, 50912.00
1204.471, 50711.00
1205.554, 50762.00
1206.637, 50731.00
1207.719, 50845.00
1208.802, 50886.26
1209.884, 50945.59
1210.966, 51015.00
1212.048, 51135.00
1213.130, 51150.00
1214.212, 51329.00
1215.293, 51230.00
1216.374, 51448.00
1217.456, 51414.00
1218.536, 51434.00
1219.617, 51288.00
1220.698, 51433.00
1221.778, 51454.00
1222.859, 51665.00
1223.939, 51560.00
1225.019, 51568.00
1226.099, 51415.00
1227.178, 51901.00
1228.258, 51857.00
1229.337, 52036.00
1230.417, 52070.00
1231.496, 52262.00
1232.574, 52309.15
1233.653, 52375.00
1234.732, 52367.00
1235.810, 52410.98
1236.888, 52413.00
1237.966, 52466.00
1239.044, 52520.97
1240.122, 52583.00
1241.199, 52598.00
1242.277, 52630.00
1243.354, 52616.00
1244.431, 52855.00
1245.508, 53015.00
1246.585, 52938.00
1247.661, 52863.00
1248.738, 52916.00
1249.814, 53229.00
1250.890, 53155.00
1251.966, 53263.00
1253.042, 53241.00
1254.117, 53124.00
1255.193, 53434.00
1256.268, 53044.00
1257.343, 53293.00
1258.418, 53352.00
1259.493, 53357.00
1260.567, 53426.00
1261.642, 53692.00
1262.716, 53828.00
1263.790, 53899.18
1264.864, 53934.00
1265.938, 53991.00
1267.011, 54103.00
1268.085, 54075.00
1269.158, 54233.00
1270.231, 53952.00
1271.304, 54229.00
1272.377, 54095.00
1273.450, 54218.00
1274.522, 54423.00
1275.594, 54548.00
