##NAMES=Edenite
##RRUFFID=R050415
##IDEAL CHEMISTRY=NaCa_2_Mg_5_(Si_7_Al)O_22_(OH)_2_
##LOCALITY=Mogok, Burma
##OWNER=RRUFF
##SOURCE=Marcus Origlieri
##DESCRIPTION=Transparent pale green water worn fragment
##STATUS=The identification of this mineral has been confirmed by X-ray diffraction and chemical analysis
##URL=rruff.info/R050415
##MEASURED CHEMISTRY=(Na_0.83_K_0.17_)(Ca_1.76_Na_0.24_)_&#931;=2_(Mg_4.54_Al_0.40_Fe^3+^_0.06_)_&#931;=5_(Si_6.74_Al_1.26_)O_22_((OH)_0.52_F_0.48_)_2_
##PIN_ID=L01772
##ORIENTATION=Laser parallel to (-1 0 -1). Fiducial mark perpendicular to laser is parallel to b [0 1 0]
108.2800, 12195.86
109.5120, 12466.88
110.7440, 12735.00
111.9760, 12851.00
113.2080, 13209.17
114.4400, 13369.00
115.6710, 13831.00
116.9030, 14133.00
118.1340, 14437.00
119.3650, 14806.00
120.5960, 14805.00
121.8270, 14851.00
123.0580, 15025.00
124.2880, 14991.00
125.5190, 14701.00
126.7490, 14312.00
127.9790, 14149.00
129.2090, 14103.00
130.4390, 14137.00
131.6680, 14242.00
132.8980, 14093.00
134.1270, 14272.00
135.3560, 14364.00
136.5850, 14546.00
137.8140, 14830.00
139.0430, 15145.00
140.2710, 15636.00
141.5000, 15834.00
142.7280, 15931.00
143.9560, 16020.00
145.1840, 15778.00
146.4120, 15402.00
147.6390, 15249.00
148.8670, 14975.00
150.0940, 14975.00
151.3210, 14889.23
152.5490, 15037.00
153.7750, 14936.00
155.0020, 15133.00
156.2290, 15277.00
157.4550, 15605.00
158.6810, 15665.00
159.9080, 16005.00
161.1340, 16297.00
162.3590, 16784.00
163.5850, 17157.00
164.8110, 17541.00
166.0360, 17769.00
167.2610, 18046.00
168.4860, 18010.00
169.7110, 18031.00
170.9360, 17964.00
172.1610, 17982.00
173.3850, 17801.00
174.6100, 18077.00
175.8340, 18006.00
177.0580, 18185.00
178.2820, 18235.00
179.5050, 18450.00
180.7290, 18559.89
181.9520, 18940.00
183.1760, 18809.00
184.3990, 18820.00
185.6220, 18887.00
186.8450, 18632.00
188.0670, 18451.00
189.2900, 18303.00
190.5120, 18251.00
191.7340, 17827.00
192.9560, 17738.00
194.1780, 17446.00
195.4000, 17532.00
196.6220, 17414.00
197.8430, 17537.00
199.0640, 17526.00
200.2860, 17666.00
201.5070, 17731.00
202.7270, 17805.00
203.9480, 18050.00
205.1690, 18011.00
206.3890, 18403.00
207.6090, 18517.00
208.8290, 19027.00
210.0490, 19255.00
211.2690, 19916.00
212.4890, 20406.00
213.7080, 20828.00
214.9280, 21932.00
216.1470, 22454.00
217.3660, 23232.00
218.5850, 24275.00
219.8030, 25116.00
221.0220, 26110.00
222.2400, 27214.00
223.4590, 27859.00
224.6770, 28595.00
225.8950, 29086.00
227.1120, 28993.00
228.3300, 28559.00
229.5480, 28246.00
230.7650, 27249.00
231.9820, 26689.00
233.1990, 25750.00
234.4160, 25036.00
235.6330, 24345.00
236.8490, 23868.00
238.0660, 23508.00
239.2820, 23013.00
240.4980, 22741.00
241.7140, 22164.00
242.9300, 21768.00
244.1460, 21227.00
245.3610, 20951.00
246.5770, 20513.00
247.7920, 20225.02
249.0070, 20107.00
250.2220, 19732.00
251.4370, 19447.00
252.6510, 19261.00
253.8660, 19226.00
255.0800, 18989.00
256.2940, 18640.00
257.5080, 18778.00
258.7220, 19034.00
259.9360, 18770.00
261.1490, 18308.00
262.3630, 18049.00
263.5760, 17760.00
264.7890, 17818.00
266.0020, 17695.00
267.2150, 17639.00
268.4270, 17693.00
269.6400, 17439.00
270.8520, 17620.00
272.0640, 17461.00
273.2760, 17506.00
274.4880, 17767.00
275.7000, 17446.00
276.9120, 17440.00
278.1230, 17832.00
279.3340, 17772.00
280.5450, 17678.00
281.7560, 17883.00
282.9670, 17770.00
284.1780, 18286.00
285.3880, 18264.00
286.5980, 18354.00
287.8090, 18562.00
289.0190, 18603.00
290.2290, 18737.00
291.4380, 18824.00
292.6480, 18641.00
293.8570, 19143.00
295.0670, 18998.00
296.2760, 19274.00
297.4850, 19529.00
298.6930, 19331.00
299.9020, 19340.00
301.1110, 19509.00
302.3190, 19406.00
303.5270, 19663.00
304.7350, 19633.00
305.9430, 19671.00
307.1510, 19701.00
308.3580, 19778.46
309.5660, 20012.00
310.7730, 20001.00
311.9800, 20290.00
313.1870, 20456.00
314.3940, 20498.00
315.6010, 20773.00
316.8070, 20998.00
318.0130, 21193.00
319.2200, 21039.00
320.4260, 21332.00
321.6310, 21044.00
322.8370, 21307.00
324.0430, 21366.00
325.2480, 20944.00
326.4540, 21107.00
327.6590, 21092.00
328.8640, 20931.00
330.0680, 20907.00
331.2730, 20930.00
332.4780, 20613.00
333.6820, 20750.00
334.8860, 20620.00
336.0900, 20575.00
337.2940, 20554.00
338.4980, 20331.00
339.7010, 20354.00
340.9050, 20356.00
342.1080, 20138.00
343.3110, 20237.00
344.5140, 20324.00
345.7170, 20175.00
346.9200, 20088.00
348.1220, 20216.00
349.3240, 20216.00
350.5270, 20129.00
351.7290, 20341.00
352.9310, 20470.00
354.1320, 20368.00
355.3340, 20582.00
356.5350, 20767.00
357.7370, 20891.00
358.9380, 21047.00
360.1390, 21193.00
361.3400, 21310.89
362.5400, 21338.00
363.7410, 21499.00
364.9410, 21456.00
366.1410, 21425.00
367.3410, 21717.00
368.5410, 21650.00
369.7410, 21637.00
370.9400, 21703.00
372.1400, 21468.00
373.3390, 21462.00
374.5380, 21344.00
375.7370, 21429.00
376.9360, 21141.00
378.1350, 21104.00
379.3330, 21077.00
380.5310, 21123.00
381.7300, 21150.00
382.9280, 21186.00
384.1260, 21109.00
385.3230, 21019.00
386.5210, 21307.00
387.7180, 21324.00
388.9160, 21233.00
390.1130, 21477.00
391.3100, 21387.00
392.5060, 21514.00
393.7030, 21448.00
394.9000, 21488.00
396.0960, 21438.00
397.2920, 21185.00
398.4880, 21286.00
399.6840, 21037.00
400.8800, 20958.00
402.0750, 20964.00
403.2710, 20821.00
404.4660, 20589.00
405.6610, 20635.00
406.8560, 20497.00
408.0510, 20441.00
409.2450, 20395.52
410.4400, 20299.00
411.6340, 20255.00
412.8280, 20236.00
414.0220, 20146.00
415.2160, 20234.00
416.4100, 20223.00
417.6030, 20145.00
418.7970, 20212.00
419.9900, 20229.00
421.1830, 20156.00
422.3760, 20189.00
423.5690, 20175.92
424.7610, 20271.00
425.9540, 20223.00
427.1460, 20282.00
428.3380, 20395.00
429.5300, 20205.00
430.7220, 20261.00
431.9140, 20229.00
433.1050, 20263.00
434.2970, 20248.20
435.4880, 20304.00
436.6790, 20222.00
437.8700, 20194.00
439.0610, 20199.00
440.2510, 20395.00
441.4420, 20245.00
442.6320, 20247.00
443.8220, 20494.00
445.0120, 20270.00
446.2020, 20286.00
447.3910, 20434.00
448.5810, 20426.00
449.7700, 20378.00
450.9600, 20378.00
452.1490, 20450.00
453.3370, 20553.00
454.5260, 20471.00
455.7150, 20324.00
456.9030, 20623.00
458.0910, 20513.00
459.2800, 20553.00
460.4670, 20642.00
461.6550, 20696.00
462.8430, 20544.00
464.0300, 20680.00
465.2180, 20589.00
466.4050, 20770.00
467.5920, 20699.00
468.7790, 20743.00
469.9650, 20780.00
471.1520, 20723.00
472.3380, 20956.00
473.5250, 20817.00
474.7110, 20780.00
475.8970, 20728.00
477.0820, 20938.00
478.2680, 21031.00
479.4540, 20862.00
480.6390, 20843.00
481.8240, 20822.00
483.0090, 20994.00
484.1940, 20944.00
485.3780, 21045.00
486.5630, 21145.00
487.7470, 21054.00
488.9320, 21131.00
490.1160, 21164.00
491.3000, 21322.00
492.4830, 21354.69
493.6670, 21341.00
494.8500, 21495.00
496.0340, 21459.00
497.2170, 21546.00
498.4000, 21665.00
499.5820, 21819.00
500.7650, 21793.00
501.9480, 21785.00
503.1300, 21977.00
504.3120, 22075.00
505.4940, 22194.00
506.6760, 22443.00
507.8580, 22421.00
509.0390, 22665.00
510.2210, 22631.00
511.4020, 23117.00
512.5830, 23047.00
513.7640, 23309.00
514.9450, 23383.00
516.1250, 23415.00
517.3060, 23573.00
518.4860, 23466.00
519.6660, 23490.00
520.8460, 23567.00
522.0260, 23469.80
523.2060, 23394.00
524.3850, 23398.00
525.5650, 23310.00
526.7440, 23328.00
527.9230, 23264.00
529.1020, 23162.00
530.2810, 23089.00
531.4590, 23295.00
532.6380, 23145.00
533.8160, 23078.00
534.9940, 23239.00
536.1720, 23162.00
537.3500, 23214.00
538.5270, 23194.00
539.7050, 22960.00
540.8820, 23067.00
542.0590, 22934.00
543.2360, 22835.00
544.4130, 22942.00
545.5900, 22876.24
546.7660, 22746.00
547.9430, 22989.00
549.1190, 22904.00
550.2950, 23081.00
551.4710, 23046.00
552.6470, 23103.00
553.8220, 22923.00
554.9980, 22868.00
556.1730, 22971.00
557.3480, 23074.00
558.5230, 22682.00
559.6980, 22966.00
560.8730, 22959.00
562.0470, 22817.00
563.2220, 22965.00
564.3960, 23060.00
565.5700, 22952.00
566.7440, 23104.00
567.9170, 23140.00
569.0910, 23223.00
570.2640, 23187.00
571.4380, 23220.00
572.6110, 23216.00
573.7840, 23358.00
574.9570, 23301.00
576.1290, 23356.00
577.3020, 23353.00
578.4740, 23326.00
579.6460, 23474.00
580.8180, 23431.00
581.9900, 23520.00
583.1620, 23355.00
584.3330, 23594.00
585.5040, 23530.00
586.6760, 23479.00
587.8470, 23601.00
589.0180, 23474.00
590.1880, 23597.00
591.3590, 23604.00
592.5290, 23808.00
593.7000, 23878.00
594.8700, 23877.00
596.0400, 23939.00
597.2090, 23980.49
598.3790, 23930.00
599.5490, 24055.00
600.7180, 24202.00
601.8870, 24208.00
603.0560, 24181.00
604.2250, 24281.72
605.3940, 24222.00
606.5620, 24397.00
607.7300, 24541.00
608.8990, 24624.00
610.0670, 24621.00
611.2350, 24655.00
612.4020, 24763.00
613.5700, 24869.85
614.7370, 24942.36
615.9050, 25160.00
617.0720, 25243.00
618.2390, 25336.00
619.4060, 25508.80
620.5720, 25785.00
621.7390, 25781.00
622.9050, 25929.00
624.0710, 26036.00
625.2370, 26107.00
626.4030, 26315.00
627.5690, 26558.00
628.7340, 26771.00
629.9000, 27035.00
631.0650, 27203.00
632.2300, 27342.00
633.3950, 27422.00
634.5600, 27871.00
635.7240, 28312.00
636.8890, 28245.00
638.0530, 28502.00
639.2170, 28846.00
640.3810, 29019.00
641.5450, 29361.00
642.7080, 29615.00
643.8720, 30027.05
645.0350, 30457.00
646.1980, 30927.00
647.3610, 31306.00
648.5240, 31773.00
649.6870, 32276.83
650.8490, 32627.00
652.0120, 33282.00
653.1740, 33875.00
654.3360, 34301.00
655.4980, 35440.00
656.6600, 35920.00
657.8210, 36700.00
658.9830, 37670.00
660.1440, 38701.00
661.3050, 39942.00
662.4660, 41325.94
663.6270, 42940.00
664.7870, 44476.00
665.9480, 46357.00
667.1080, 48169.00
668.2680, 50270.00
669.4280, 51538.00
670.5880, 53564.00
671.7480, 54757.00
672.9070, 55584.00
674.0670, 55927.00
675.2260, 55599.00
676.3850, 54814.00
677.5440, 53555.00
678.7030, 51887.00
679.8610, 49979.00
681.0200, 47721.00
682.1780, 45223.00
683.3360, 43219.00
684.4940, 41205.00
685.6520, 39426.00
686.8090, 37832.00
687.9670, 36389.12
689.1240, 35220.00
690.2810, 34037.00
691.4380, 33071.00
692.5950, 32251.00
693.7520, 31920.00
694.9080, 30995.00
696.0650, 30516.00
697.2210, 30346.00
698.3770, 29829.00
699.5330, 29504.00
700.6880, 29144.00
701.8440, 28569.00
702.9990, 28505.00
704.1550, 28176.00
705.3100, 28045.00
706.4650, 28290.00
707.6190, 27694.00
708.7740, 27734.00
709.9290, 27735.00
711.0830, 27391.00
712.2370, 27656.00
713.3910, 27309.00
714.5450, 27273.00
715.6980, 27452.00
716.8520, 27356.00
718.0050, 27350.00
719.1580, 27172.00
720.3110, 27205.00
721.4640, 27378.00
722.6170, 27085.00
723.7700, 27294.00
724.9220, 27270.00
726.0740, 27331.00
727.2260, 27314.00
728.3780, 27358.07
729.5300, 27359.00
730.6810, 27382.00
731.8330, 27366.00
732.9840, 27247.00
734.1350, 27335.00
735.2860, 27196.00
736.4370, 27390.00
737.5880, 27410.00
738.7380, 27489.00
739.8880, 27492.69
741.0390, 27380.00
742.1890, 27458.00
743.3380, 27385.00
744.4880, 27438.00
745.6380, 27407.00
746.7870, 27555.00
747.9360, 27490.00
749.0850, 27302.00
750.2340, 27559.00
751.3830, 27263.00
752.5310, 27593.00
753.6800, 27462.00
754.8280, 27201.00
755.9760, 27532.00
757.1240, 27633.00
758.2720, 27542.00
759.4190, 27649.00
760.5670, 27619.00
761.7140, 27838.00
762.8610, 27565.00
764.0080, 27893.00
765.1550, 27955.00
766.3020, 28083.00
767.4480, 27843.00
768.5950, 27965.00
769.7410, 28074.00
770.8870, 27994.00
772.0330, 28085.51
773.1780, 27983.00
774.3240, 28112.00
775.4690, 28085.00
776.6140, 28087.00
777.7590, 28024.00
778.9040, 28075.00
780.0490, 28367.00
781.1940, 28163.00
782.3380, 28568.00
783.4820, 28601.00
784.6260, 28154.00
785.7700, 28523.00
786.9140, 28360.00
788.0580, 28279.00
789.2010, 28794.00
790.3450, 28530.00
791.4880, 28460.00
792.6310, 28644.00
793.7730, 28753.00
794.9160, 28817.00
796.0590, 28891.40
797.2010, 28642.00
798.3430, 28925.00
799.4850, 28844.00
800.6270, 28802.00
801.7690, 28945.00
802.9100, 29010.00
804.0520, 28874.00
805.1930, 29054.00
806.3340, 29028.00
807.4750, 29008.00
808.6160, 29025.00
809.7560, 29116.00
810.8970, 29110.98
812.0370, 29329.00
813.1770, 29186.00
814.3170, 29225.00
815.4570, 29287.00
816.5960, 29199.00
817.7360, 29160.00
818.8750, 29351.00
820.0140, 29677.00
821.1530, 29381.00
822.2920, 29655.00
823.4310, 29669.00
824.5690, 29683.00
825.7070, 29785.00
826.8460, 29837.00
827.9840, 29792.00
829.1220, 29935.00
830.2590, 29864.00
831.3970, 29815.00
832.5340, 29903.00
833.6710, 29862.00
834.8080, 29981.00
835.9450, 29936.00
837.0820, 30077.00
838.2190, 29979.00
839.3550, 30194.00
840.4910, 30322.00
841.6270, 30208.00
842.7630, 30277.79
843.8990, 30284.38
845.0350, 30126.00
846.1700, 30326.00
847.3060, 30187.00
848.4410, 30245.00
849.5760, 30285.00
850.7100, 30379.00
851.8450, 30497.00
852.9800, 30545.00
854.1140, 30689.00
855.2480, 30532.00
856.3820, 30517.00
857.5160, 30628.00
858.6500, 30613.00
859.7830, 30615.00
860.9170, 30743.00
862.0500, 30738.00
863.1830, 30797.00
864.3160, 31051.00
865.4480, 31012.00
866.5810, 30878.00
867.7130, 31247.00
868.8460, 31019.00
869.9780, 31069.00
871.1100, 31258.00
872.2410, 31077.00
873.3730, 31193.00
874.5050, 31361.00
875.6360, 31236.00
876.7670, 31526.00
877.8980, 31369.00
879.0290, 31466.00
880.1590, 31730.00
881.2900, 31807.00
882.4200, 31994.00
883.5500, 31922.00
884.6800, 32160.00
885.8100, 32072.00
886.9400, 32268.00
888.0690, 32643.00
889.1990, 32525.00
890.3280, 32494.00
891.4570, 32775.00
892.5860, 32927.00
893.7140, 32969.00
894.8430, 33093.00
895.9710, 33162.00
897.1000, 33265.00
898.2280, 33362.18
899.3560, 33474.79
900.4830, 33579.00
901.6110, 33688.00
902.7380, 33809.08
903.8660, 33895.00
904.9930, 34065.77
906.1200, 34227.00
907.2460, 34385.00
908.3730, 34479.00
909.5000, 34703.00
910.6260, 34854.00
911.7520, 35070.00
912.8780, 35277.00
914.0040, 35435.00
915.1290, 35349.00
916.2550, 35760.00
917.3800, 35661.00
918.5050, 35889.00
919.6300, 35925.00
920.7550, 35764.00
921.8800, 35981.00
923.0040, 36035.00
924.1290, 35928.00
925.2530, 36017.00
926.3770, 36043.00
927.5010, 35887.00
928.6250, 35965.00
929.7480, 35915.00
930.8720, 35920.00
931.9950, 36246.00
933.1180, 36118.86
934.2410, 36049.44
935.3640, 36091.00
936.4860, 35797.00
937.6090, 35728.00
938.7310, 35842.00
939.8530, 35682.00
940.9750, 35665.00
942.0970, 35775.00
943.2180, 35829.00
944.3400, 35845.00
945.4610, 35897.00
946.5820, 35872.00
947.7030, 35819.00
948.8240, 35849.00
949.9450, 35837.00
951.0650, 35789.00
952.1860, 35788.00
953.3060, 35828.27
954.4260, 35896.00
955.5460, 35971.00
956.6650, 35950.00
957.7850, 36077.00
958.9040, 36040.00
960.0230, 35869.00
961.1420, 36173.00
962.2610, 36182.00
963.3800, 36228.00
964.4990, 35944.00
965.6170, 36100.00
966.7350, 36134.00
967.8530, 35913.00
968.9710, 36136.00
970.0890, 36137.00
971.2070, 36349.00
972.3240, 36245.00
973.4410, 36213.00
974.5580, 36188.00
975.6750, 36434.00
976.7920, 36614.00
977.9090, 36629.00
979.0250, 36570.00
980.1410, 36894.00
981.2580, 36651.00
982.3740, 36727.00
983.4890, 36935.00
984.6050, 37034.00
985.7200, 37181.00
986.8360, 37036.00
987.9510, 37274.00
989.0660, 37229.00
990.1810, 37387.00
991.2950, 37520.00
992.4100, 37632.00
993.5240, 37854.00
994.6390, 38048.00
995.7530, 38124.00
996.8660, 38199.00
997.9800, 38468.00
999.0940, 38616.00
1000.207, 38996.00
1001.320, 39279.00
1002.433, 39342.00
1003.546, 39332.00
1004.659, 39829.00
1005.772, 39812.00
1006.884, 39959.00
1007.996, 40308.00
1009.108, 40258.00
1010.220, 40363.00
1011.332, 40573.00
1012.444, 40603.00
1013.555, 40754.00
1014.666, 40864.00
1015.777, 41363.00
1016.888, 40887.00
1017.999, 40893.00
1019.110, 41336.00
1020.220, 41325.00
1021.331, 41067.00
1022.441, 41182.00
1023.551, 41292.00
1024.661, 41392.00
1025.770, 41471.61
1026.880, 41559.58
1027.989, 41612.00
1029.098, 41691.00
1030.207, 41761.00
1031.316, 41784.00
1032.425, 41873.00
1033.533, 42008.00
1034.642, 42167.00
1035.750, 42286.42
1036.858, 42532.00
1037.966, 42532.00
1039.073, 42699.00
1040.181, 42743.00
1041.288, 42968.00
1042.396, 43165.00
1043.503, 42997.00
1044.610, 42944.00
1045.716, 43107.00
1046.823, 42957.00
1047.929, 43313.00
1049.036, 43338.00
1050.142, 43286.00
1051.248, 43165.00
1052.353, 43373.00
1053.459, 43381.00
1054.564, 43585.00
1055.670, 43846.00
1056.775, 43714.00
1057.880, 43815.00
1058.985, 44163.00
1060.089, 44105.00
1061.194, 44077.00
1062.298, 44561.00
1063.402, 44504.00
1064.506, 44588.00
1065.610, 44606.00
1066.713, 44335.00
1067.817, 44418.00
1068.920, 44246.00
1070.023, 44198.00
1071.126, 44075.00
1072.229, 43706.00
1073.332, 43280.00
1074.435, 43039.00
1075.537, 42665.00
1076.639, 42287.00
1077.741, 42280.00
1078.843, 41812.00
1079.945, 41630.00
1081.046, 41194.00
1082.148, 41139.00
1083.249, 40897.00
1084.350, 40338.00
1085.451, 40488.00
1086.551, 40365.00
1087.652, 40373.00
1088.752, 40094.00
1089.853, 39939.00
1090.953, 39882.00
1092.053, 39754.00
1093.152, 39752.00
1094.252, 39724.00
1095.351, 39863.00
1096.451, 39815.00
1097.550, 39510.00
1098.649, 39753.00
1099.748, 39405.00
1100.846, 39627.00
1101.945, 39603.00
1103.043, 39691.00
1104.141, 39568.00
1105.239, 39505.00
1106.337, 39451.00
1107.434, 39513.00
1108.532, 39520.00
1109.629, 39574.00
1110.726, 39626.00
1111.823, 40058.00
1112.920, 39755.00
1114.017, 39519.00
1115.113, 39935.00
1116.210, 40076.00
1117.306, 40164.00
1118.402, 40327.00
1119.498, 40252.00
1120.593, 40147.00
1121.689, 40656.00
1122.784, 40480.00
1123.879, 40736.00
1124.974, 40632.00
1126.069, 40478.00
1127.164, 40371.00
1128.259, 40375.00
1129.353, 40307.00
1130.447, 40292.00
1131.541, 40265.00
1132.635, 39997.00
1133.729, 40364.00
1134.822, 40039.00
1135.916, 40327.00
1137.009, 40272.00
1138.102, 40317.00
1139.195, 40332.00
1140.288, 40353.00
1141.380, 40298.00
1142.473, 40403.00
1143.565, 40530.00
1144.657, 40580.00
1145.749, 40348.00
1146.841, 40527.00
1147.932, 40554.00
1149.024, 40403.00
1150.115, 40706.00
1151.206, 40462.00
1152.297, 40551.00
1153.388, 40556.00
1154.479, 40531.35
1155.569, 40674.00
1156.659, 40708.00
1157.750, 40673.00
1158.839, 40958.00
1159.929, 41116.00
1161.019, 40932.00
1162.108, 40975.00
1163.198, 40992.00
1164.287, 41196.00
1165.376, 41103.00
1166.465, 41146.00
1167.553, 41171.00
1168.642, 41226.00
1169.730, 41153.00
1170.818, 41300.00
1171.906, 41377.00
1172.994, 41318.00
1174.082, 41520.00
1175.170, 41616.00
1176.257, 41599.00
1177.344, 41575.00
1178.431, 41766.00
1179.518, 41798.00
1180.605, 41718.00
1181.691, 41734.00
1182.778, 41812.00
1183.864, 41778.00
1184.950, 41999.00
1186.036, 41819.00
1187.122, 42078.00
1188.207, 42182.00
1189.292, 42101.00
1190.378, 42063.00
1191.463, 42107.00
1192.548, 42407.00
1193.632, 42447.00
1194.717, 42504.00
1195.801, 42283.00
1196.886, 42680.00
1197.970, 42461.00
1199.054, 42377.00
1200.137, 42714.00
1201.221, 42482.00
1202.305, 42831.00
1203.388, 42635.00
1204.471, 42844.00
1205.554, 42738.00
1206.637, 42959.00
1207.719, 42899.00
1208.802, 42845.00
1209.884, 43019.00
1210.966, 42972.00
1212.048, 42992.00
1213.130, 43305.00
1214.212, 43409.00
1215.293, 43453.00
1216.374, 43450.00
1217.456, 43581.00
1218.536, 43634.00
1219.617, 43464.00
1220.698, 43513.00
1221.778, 43493.00
1222.859, 43620.00
1223.939, 43625.00
1225.019, 43903.00
1226.099, 43827.00
1227.178, 44034.00
1228.258, 43870.00
1229.337, 43759.00
1230.417, 43866.00
1231.496, 43950.00
1232.574, 43996.71
1233.653, 44288.00
1234.732, 44270.00
1235.810, 44212.00
1236.888, 44478.00
1237.966, 44420.26
1239.044, 44503.00
1240.122, 44531.00
1241.199, 44566.00
1242.277, 44648.00
1243.354, 44731.00
1244.431, 44734.00
1245.508, 44835.33
1246.585, 44962.00
1247.661, 44983.00
1248.738, 44910.00
1249.814, 44969.00
1250.890, 44923.93
1251.966, 45081.00
1253.042, 44921.00
1254.117, 45086.00
1255.193, 45197.00
1256.268, 45426.00
1257.343, 45378.00
1258.418, 45322.00
1259.493, 45496.00
1260.567, 45394.54
1261.642, 45676.00
1262.716, 45420.00
1263.790, 45641.00
1264.864, 45835.00
1265.938, 46002.00
1267.011, 45801.00
1268.085, 45915.00
1269.158, 45841.00
1270.231, 46008.00
1271.304, 46032.00
1272.377, 46121.00
1273.450, 45900.00
1274.522, 46085.00
1275.594, 46207.00
1276.666, 46044.00
1277.738, 46319.00
1278.810, 46191.00
1279.882, 46452.00
1280.953, 46414.00
1282.025, 46437.00
1283.096, 46879.00
