##NAMES=Edenite
##RRUFFID=R050415
##IDEAL CHEMISTRY=NaCa_2_Mg_5_(Si_7_Al)O_22_(OH)_2_
##LOCALITY=Mogok, Burma
##OWNER=RRUFF
##SOURCE=Marcus Origlieri
##DESCRIPTION=Transparent pale green water worn fragment
##STATUS=The identification of this mineral has been confirmed by X-ray diffraction and chemical analysis
##URL=rruff.info/R050415
##MEASURED CHEMISTRY=(Na_0.83_K_0.17_)(Ca_1.76_Na_0.24_)_&#931;=2_(Mg_4.54_Al_0.40_Fe^3+^_0.06_)_&#931;=5_(Si_6.74_Al_1.26_)O_22_((OH)_0.52_F_0.48_)_2_
##PIN_ID=L01094
##ORIENTATION=Laser parallel to b* (0 1 0). Fiducial mark perpendicular to laser is parallel to -c [0 0 -1]
93.48000, 6925.000
94.71400, 7210.000
95.94800, 7461.000
97.18200, 7714.000
98.41600, 7969.592
99.64900, 8290.000
100.8830, 8509.000
102.1160, 8873.000
103.3490, 9256.000
104.5820, 9839.000
105.8150, 10618.00
107.0470, 12033.00
108.2800, 12025.75
109.5120, 13491.00
110.7440, 12619.00
111.9760, 12701.00
113.2080, 13428.00
114.4400, 14180.00
115.6710, 14598.00
116.9030, 14695.00
118.1340, 14620.00
119.3650, 14382.00
120.5960, 13957.00
121.8270, 13599.00
123.0580, 13034.00
124.2880, 12473.00
125.5190, 11700.00
126.7490, 11035.00
127.9790, 10743.00
129.2090, 10411.00
130.4390, 10166.00
131.6680, 9916.000
132.8980, 9599.000
134.1270, 9426.000
135.3560, 9274.000
136.5850, 9318.000
137.8140, 9404.000
139.0430, 9481.000
140.2710, 9339.000
141.5000, 9177.000
142.7280, 9125.000
143.9560, 9145.000
145.1840, 9066.000
146.4120, 9169.000
147.6390, 9251.000
148.8670, 9250.000
150.0940, 9439.000
151.3210, 9426.000
152.5490, 9456.000
153.7750, 9473.000
155.0020, 9330.000
156.2290, 9579.000
157.4550, 9512.000
158.6810, 9694.000
159.9080, 9965.000
161.1340, 10060.00
162.3590, 10265.00
163.5850, 10508.00
164.8110, 10675.00
166.0360, 10914.00
167.2610, 10899.00
168.4860, 11108.00
169.7110, 11173.00
170.9360, 11420.00
172.1610, 11545.00
173.3850, 11732.13
174.6100, 11817.00
175.8340, 12199.00
177.0580, 12398.00
178.2820, 12796.00
179.5050, 13037.00
180.7290, 13278.00
181.9520, 13778.00
183.1760, 13859.00
184.3990, 13989.00
185.6220, 14090.00
186.8450, 14118.00
188.0670, 13888.00
189.2900, 13553.00
190.5120, 13308.00
191.7340, 12813.00
192.9560, 12678.00
194.1780, 12403.00
195.4000, 12280.00
196.6220, 11967.00
197.8430, 11919.00
199.0640, 11863.00
200.2860, 11978.00
201.5070, 11941.00
202.7270, 12008.00
203.9480, 11913.00
205.1690, 11966.00
206.3890, 12098.00
207.6090, 12156.00
208.8290, 12515.00
210.0490, 12762.00
211.2690, 13220.00
212.4890, 13572.00
213.7080, 14167.00
214.9280, 14478.00
216.1470, 15029.00
217.3660, 15857.00
218.5850, 16434.00
219.8030, 17375.00
221.0220, 18156.00
222.2400, 19034.00
223.4590, 19758.00
224.6770, 20546.00
225.8950, 21013.00
227.1120, 21289.00
228.3300, 21228.00
229.5480, 21226.00
230.7650, 20920.00
231.9820, 20546.00
233.1990, 20678.00
234.4160, 20628.01
235.6330, 20678.30
236.8490, 20794.00
238.0660, 20772.00
239.2820, 20529.00
240.4980, 20139.00
241.7140, 19848.00
242.9300, 19442.00
244.1460, 18822.00
245.3610, 18355.00
246.5770, 17821.00
247.7920, 17372.67
249.0070, 17027.00
250.2220, 16602.00
251.4370, 16158.00
252.6510, 15918.00
253.8660, 15250.00
255.0800, 14772.00
256.2940, 14433.00
257.5080, 14377.00
258.7220, 14365.00
259.9360, 13913.00
261.1490, 13226.00
262.3630, 12717.00
263.5760, 12464.00
264.7890, 12385.00
266.0020, 12311.00
267.2150, 11981.00
268.4270, 12106.00
269.6400, 12055.00
270.8520, 11832.00
272.0640, 11876.00
273.2760, 11887.00
274.4880, 11888.00
275.7000, 11860.00
276.9120, 11855.00
278.1230, 11837.00
279.3340, 11993.00
280.5450, 12034.00
281.7560, 12205.00
282.9670, 12190.00
284.1780, 12361.00
285.3880, 12481.00
286.5980, 12652.00
287.8090, 12738.00
289.0190, 12975.00
290.2290, 13077.00
291.4380, 13226.00
292.6480, 13521.00
293.8570, 13749.00
295.0670, 13989.00
296.2760, 14011.00
297.4850, 14186.00
298.6930, 14245.00
299.9020, 14298.00
301.1110, 14283.00
302.3190, 14213.00
303.5270, 14267.00
304.7350, 14042.00
305.9430, 14245.00
307.1510, 13996.00
308.3580, 14114.00
309.5660, 14160.00
310.7730, 14065.00
311.9800, 14361.00
313.1870, 14345.00
314.3940, 14580.00
315.6010, 14735.00
316.8070, 14852.00
318.0130, 15011.00
319.2200, 15082.00
320.4260, 15120.00
321.6310, 15286.00
322.8370, 15025.00
324.0430, 15055.00
325.2480, 14867.00
326.4540, 14919.00
327.6590, 14688.00
328.8640, 14808.00
330.0680, 14543.00
331.2730, 14355.00
332.4780, 14441.00
333.6820, 14178.00
334.8860, 14298.00
336.0900, 14127.00
337.2940, 13813.00
338.4980, 13902.00
339.7010, 13736.00
340.9050, 13460.00
342.1080, 13384.00
343.3110, 13271.51
344.5140, 13380.00
345.7170, 13175.00
346.9200, 13212.00
348.1220, 13198.00
349.3240, 13167.00
350.5270, 13130.00
351.7290, 13154.00
352.9310, 13260.00
354.1320, 13404.00
355.3340, 13437.00
356.5350, 13678.00
357.7370, 13719.00
358.9380, 13959.00
360.1390, 14403.00
361.3400, 14584.00
362.5400, 15013.00
363.7410, 15143.00
364.9410, 15366.00
366.1410, 15684.00
367.3410, 15753.00
368.5410, 15771.00
369.7410, 15969.00
370.9400, 15655.00
372.1400, 15755.00
373.3390, 15701.00
374.5380, 15509.00
375.7370, 15469.00
376.9360, 15418.00
378.1350, 15475.00
379.3330, 15505.00
380.5310, 15372.00
381.7300, 15618.00
382.9280, 15591.00
384.1260, 15654.00
385.3230, 16004.00
386.5210, 16034.00
387.7180, 16160.00
388.9160, 16613.00
390.1130, 16831.00
391.3100, 16793.00
392.5060, 17046.00
393.7030, 17232.00
394.9000, 17015.00
396.0960, 16917.00
397.2920, 16797.00
398.4880, 16664.00
399.6840, 16223.00
400.8800, 15798.00
402.0750, 15681.00
403.2710, 15330.00
404.4660, 14935.00
405.6610, 14571.00
406.8560, 14584.00
408.0510, 14167.00
409.2450, 14175.00
410.4400, 14129.00
411.6340, 13843.00
412.8280, 13705.00
414.0220, 13535.00
415.2160, 13638.00
416.4100, 13572.00
417.6030, 13524.00
418.7970, 13604.00
419.9900, 13596.00
421.1830, 13478.00
422.3760, 13480.00
423.5690, 13513.00
424.7610, 13288.00
425.9540, 13323.00
427.1460, 13192.00
428.3380, 13225.00
429.5300, 13133.59
430.7220, 13086.00
431.9140, 12912.00
433.1050, 12798.00
434.2970, 12557.00
435.4880, 12563.00
436.6790, 12447.00
437.8700, 12420.00
439.0610, 12272.00
440.2510, 12403.00
441.4420, 12287.00
442.6320, 12292.00
443.8220, 12275.00
445.0120, 12375.00
446.2020, 12348.00
447.3910, 12332.81
448.5810, 12294.00
449.7700, 12271.00
450.9600, 12287.00
452.1490, 12290.00
453.3370, 12269.00
454.5260, 12308.00
455.7150, 12279.00
456.9030, 12268.00
458.0910, 12286.00
459.2800, 12303.00
460.4670, 12211.00
461.6550, 12390.00
462.8430, 12236.00
464.0300, 12157.00
465.2180, 12241.00
466.4050, 12230.00
467.5920, 12178.00
468.7790, 12299.00
469.9650, 12243.00
471.1520, 12186.00
472.3380, 12269.00
473.5250, 12235.00
474.7110, 12274.00
475.8970, 12194.00
477.0820, 12184.00
478.2680, 12308.00
479.4540, 12192.00
480.6390, 12259.00
481.8240, 12229.00
483.0090, 12284.00
484.1940, 12299.38
485.3780, 12332.00
486.5630, 12369.00
487.7470, 12435.00
488.9320, 12536.00
490.1160, 12550.00
491.3000, 12573.00
492.4830, 12649.00
493.6670, 12516.00
494.8500, 12641.00
496.0340, 12723.00
497.2170, 12634.00
498.4000, 12720.00
499.5820, 12580.00
500.7650, 12742.00
501.9480, 12737.00
503.1300, 12735.00
504.3120, 12783.00
505.4940, 12884.00
506.6760, 12969.00
507.8580, 12999.00
509.0390, 12997.00
510.2210, 13133.00
511.4020, 13181.43
512.5830, 13218.00
513.7640, 13361.00
514.9450, 13415.00
516.1250, 13478.00
517.3060, 13520.00
518.4860, 13592.53
519.6660, 13618.86
520.8460, 13705.00
522.0260, 13671.00
523.2060, 13664.00
524.3850, 13676.00
525.5650, 13715.70
526.7440, 13819.00
527.9230, 13836.00
529.1020, 13818.00
530.2810, 13865.00
531.4590, 13814.00
532.6380, 13777.00
533.8160, 13728.00
534.9940, 13823.00
536.1720, 13686.00
537.3500, 13579.00
538.5270, 13809.00
539.7050, 13671.00
540.8820, 13558.00
542.0590, 13850.00
543.2360, 13692.00
544.4130, 13613.00
545.5900, 13648.00
546.7660, 13583.00
547.9430, 13595.00
549.1190, 13588.14
550.2950, 13559.52
551.4710, 13564.00
552.6470, 13538.00
553.8220, 13491.00
554.9980, 13496.00
556.1730, 13605.00
557.3480, 13497.00
558.5230, 13533.00
559.6980, 13564.00
560.8730, 13434.00
562.0470, 13522.00
563.2220, 13489.00
564.3960, 13523.00
565.5700, 13539.00
566.7440, 13457.00
567.9170, 13510.00
569.0910, 13604.00
570.2640, 13609.00
571.4380, 13463.00
572.6110, 13643.00
573.7840, 13601.00
574.9570, 13465.00
576.1290, 13607.00
577.3020, 13769.00
578.4740, 13619.00
579.6460, 13531.00
580.8180, 13675.00
581.9900, 13879.00
583.1620, 13714.00
584.3330, 13745.00
585.5040, 13686.00
586.6760, 13616.00
587.8470, 13792.00
589.0180, 13765.00
590.1880, 13743.00
591.3590, 13819.00
592.5290, 13849.00
593.7000, 13858.00
594.8700, 13938.00
596.0400, 13879.00
597.2090, 13934.00
598.3790, 13864.00
599.5490, 14087.00
600.7180, 13915.00
601.8870, 13941.00
603.0560, 14153.00
604.2250, 14141.00
605.3940, 14273.00
606.5620, 14161.00
607.7300, 14314.00
608.8990, 14373.00
610.0670, 14440.00
611.2350, 14469.00
612.4020, 14668.00
613.5700, 14805.00
614.7370, 14738.00
615.9050, 14824.00
617.0720, 14846.00
618.2390, 15118.00
619.4060, 15227.00
620.5720, 14886.00
621.7390, 15229.00
622.9050, 15376.00
624.0710, 15566.00
625.2370, 15884.00
626.4030, 15907.00
627.5690, 16092.00
628.7340, 16155.00
629.9000, 16432.00
631.0650, 16683.00
632.2300, 16880.00
633.3950, 17020.00
634.5600, 17185.00
635.7240, 17475.00
636.8890, 17829.00
638.0530, 18061.00
639.2170, 18302.00
640.3810, 18716.00
641.5450, 19027.00
642.7080, 19572.00
643.8720, 19837.00
645.0350, 20246.00
646.1980, 20860.00
647.3610, 21250.00
648.5240, 21814.00
649.6870, 22300.00
650.8490, 22892.00
652.0120, 23550.00
653.1740, 24437.00
654.3360, 25183.00
655.4980, 26138.00
656.6600, 26542.00
657.8210, 28027.00
658.9830, 29068.00
660.1440, 30342.00
661.3050, 31996.00
662.4660, 33768.00
663.6270, 35765.00
664.7870, 38098.00
665.9480, 40686.00
667.1080, 43493.00
668.2680, 46152.00
669.4280, 49153.00
670.5880, 51524.00
671.7480, 53632.00
672.9070, 55182.00
674.0670, 56102.00
675.2260, 56226.00
676.3850, 55500.00
677.5440, 54080.00
678.7030, 51774.00
679.8610, 49149.00
681.0200, 46332.00
682.1780, 43551.00
683.3360, 40474.00
684.4940, 37478.00
685.6520, 34983.00
686.8090, 32818.00
687.9670, 30818.00
689.1240, 28980.00
690.2810, 27443.00
691.4380, 26250.00
692.5950, 24930.00
693.7520, 24314.00
694.9080, 23385.00
696.0650, 22551.00
697.2210, 21840.00
698.3770, 21250.00
699.5330, 20631.00
700.6880, 19919.00
701.8440, 19778.00
702.9990, 19479.00
704.1550, 18811.00
705.3100, 18558.00
706.4650, 18221.00
707.6190, 17903.00
708.7740, 17681.00
709.9290, 17593.00
711.0830, 17412.00
712.2370, 17135.00
713.3910, 17021.00
714.5450, 16745.00
715.6980, 16763.00
716.8520, 16644.00
718.0050, 16597.00
719.1580, 16484.00
720.3110, 16521.00
721.4640, 16466.00
722.6170, 16250.00
723.7700, 16387.00
724.9220, 16419.00
726.0740, 16237.00
727.2260, 16320.00
728.3780, 16241.00
729.5300, 16233.00
730.6810, 16140.00
731.8330, 16210.00
732.9840, 16142.00
734.1350, 15935.00
735.2860, 16074.00
736.4370, 15886.00
737.5880, 16027.00
738.7380, 15980.00
739.8880, 16034.00
741.0390, 16043.12
742.1890, 15918.00
743.3380, 15977.00
744.4880, 15966.00
745.6380, 15830.00
746.7870, 15992.00
747.9360, 15767.00
749.0850, 15834.00
750.2340, 15885.00
751.3830, 15945.00
752.5310, 15940.00
753.6800, 15956.72
754.8280, 16007.00
755.9760, 15917.00
757.1240, 15930.00
758.2720, 15869.00
759.4190, 15833.00
760.5670, 15995.00
761.7140, 15907.00
762.8610, 16068.00
764.0080, 15973.00
765.1550, 15989.00
766.3020, 15984.00
767.4480, 16058.00
768.5950, 16109.00
769.7410, 16022.00
770.8870, 16184.00
772.0330, 16097.00
773.1780, 16192.00
774.3240, 16210.85
775.4690, 16131.00
776.6140, 16252.00
777.7590, 16262.00
778.9040, 16299.00
780.0490, 16254.00
781.1940, 16358.00
782.3380, 16367.00
783.4820, 16432.93
784.6260, 16431.13
785.7700, 16442.07
786.9140, 16410.00
788.0580, 16418.00
789.2010, 16423.00
790.3450, 16369.00
791.4880, 16465.00
792.6310, 16689.00
793.7730, 16534.00
794.9160, 16475.00
796.0590, 16719.00
797.2010, 16686.00
798.3430, 16686.00
799.4850, 16766.00
800.6270, 16714.00
801.7690, 16772.00
802.9100, 16728.00
804.0520, 16640.00
805.1930, 17001.00
806.3340, 16854.00
807.4750, 16981.00
808.6160, 16882.00
809.7560, 16859.00
810.8970, 16903.00
812.0370, 16948.00
813.1770, 17034.00
814.3170, 16830.00
815.4570, 17038.00
816.5960, 16976.00
817.7360, 17099.00
818.8750, 16946.00
820.0140, 16921.00
821.1530, 17147.00
822.2920, 17156.00
823.4310, 17142.00
824.5690, 17074.00
825.7070, 17169.50
826.8460, 17374.00
827.9840, 17318.00
829.1220, 17385.00
830.2590, 17426.00
831.3970, 17498.00
832.5340, 17278.00
833.6710, 17447.00
834.8080, 17354.00
835.9450, 17445.00
837.0820, 17620.00
838.2190, 17527.00
839.3550, 17431.00
840.4910, 17443.00
841.6270, 17402.33
842.7630, 17620.00
843.8990, 17388.00
845.0350, 17602.00
846.1700, 17559.00
847.3060, 17617.00
848.4410, 17773.00
849.5760, 17596.00
850.7100, 17877.00
851.8450, 17661.00
852.9800, 17645.00
854.1140, 17783.00
855.2480, 17632.00
856.3820, 17673.00
857.5160, 17892.00
858.6500, 17855.00
859.7830, 17868.00
860.9170, 17914.00
862.0500, 17926.00
863.1830, 17902.00
864.3160, 17946.00
865.4480, 17908.00
866.5810, 18041.00
867.7130, 17862.00
868.8460, 17998.00
869.9780, 18117.00
871.1100, 18132.00
872.2410, 18313.00
873.3730, 18217.00
874.5050, 18225.00
875.6360, 18263.00
876.7670, 18336.35
877.8980, 18640.00
879.0290, 18593.00
880.1590, 18646.00
881.2900, 18772.00
882.4200, 18644.00
883.5500, 18895.00
884.6800, 19004.00
885.8100, 18893.00
886.9400, 19123.00
888.0690, 19073.00
889.1990, 19277.00
890.3280, 19488.00
891.4570, 19409.00
892.5860, 19842.00
893.7140, 19643.00
894.8430, 19879.00
895.9710, 19795.00
897.1000, 19963.00
898.2280, 20105.00
899.3560, 20171.00
900.4830, 20162.00
901.6110, 20155.00
902.7380, 20182.00
903.8660, 20448.00
904.9930, 20494.00
906.1200, 20856.00
907.2460, 20746.00
908.3730, 21072.00
909.5000, 21394.00
910.6260, 21198.00
911.7520, 21386.00
912.8780, 21560.00
914.0040, 21675.00
915.1290, 21851.00
916.2550, 21934.00
917.3800, 22089.00
918.5050, 22236.00
919.6300, 22354.00
920.7550, 22424.22
921.8800, 22494.71
923.0040, 22499.00
924.1290, 22466.00
925.2530, 22455.00
926.3770, 22402.60
927.5010, 22289.00
928.6250, 22295.00
929.7480, 22212.00
930.8720, 22179.00
931.9950, 22124.28
933.1180, 22019.00
934.2410, 22020.00
935.3640, 21965.00
936.4860, 21957.00
937.6090, 22054.00
938.7310, 21830.00
939.8530, 21914.00
940.9750, 22016.00
942.0970, 21806.00
943.2180, 21834.00
944.3400, 21862.00
945.4610, 21990.00
946.5820, 21634.00
947.7030, 21963.00
948.8240, 21809.00
949.9450, 21911.00
951.0650, 21916.00
952.1860, 21958.00
953.3060, 22072.00
954.4260, 22129.00
955.5460, 21897.00
956.6650, 21980.00
957.7850, 21978.00
958.9040, 22122.00
960.0230, 21978.00
961.1420, 22047.00
962.2610, 21985.00
963.3800, 22092.00
964.4990, 22172.00
965.6170, 21963.00
966.7350, 21938.00
967.8530, 22056.00
968.9710, 22219.00
970.0890, 22047.00
971.2070, 22133.00
972.3240, 22183.00
973.4410, 22217.00
974.5580, 22169.00
975.6750, 22199.00
976.7920, 22254.00
977.9090, 22225.00
979.0250, 22361.72
980.1410, 22416.00
981.2580, 22571.00
982.3740, 22585.00
983.4890, 22596.00
984.6050, 22610.00
985.7200, 22721.38
986.8360, 22796.09
987.9510, 22977.00
989.0660, 23075.00
990.1810, 23216.00
991.2950, 23443.00
992.4100, 23686.00
993.5240, 23920.00
994.6390, 24068.00
995.7530, 24135.00
996.8660, 24197.00
997.9800, 24380.00
999.0940, 24731.00
1000.207, 24894.00
1001.320, 25195.00
1002.433, 25533.00
1003.546, 25475.00
1004.659, 25626.00
1005.772, 25855.00
1006.884, 26181.00
1007.996, 26184.00
1009.108, 26206.00
1010.220, 26292.00
1011.332, 26365.00
1012.444, 26534.00
1013.555, 26452.00
1014.666, 26583.00
1015.777, 26399.00
1016.888, 26709.00
1017.999, 26351.00
1019.110, 26686.00
1020.220, 26608.00
1021.331, 26617.00
1022.441, 26521.00
1023.551, 26583.00
1024.661, 26580.00
1025.770, 26803.00
1026.880, 26642.00
1027.989, 27080.00
1029.098, 26940.00
1030.207, 26960.00
1031.316, 27163.00
1032.425, 27136.00
1033.533, 27328.00
1034.642, 27308.00
1035.750, 27507.00
1036.858, 27699.00
1037.966, 27895.00
1039.073, 28034.63
1040.181, 28164.00
1041.288, 28313.00
1042.396, 28288.00
1043.503, 28444.00
1044.610, 28401.00
1045.716, 28298.00
1046.823, 28425.00
1047.929, 28032.00
1049.036, 27908.00
1050.142, 28095.00
1051.248, 28067.00
1052.353, 28067.00
1053.459, 27919.00
1054.564, 27796.00
1055.670, 27879.00
1056.775, 27827.00
1057.880, 27687.00
1058.985, 27588.00
1060.089, 27783.00
1061.194, 27788.00
1062.298, 27563.00
1063.402, 27874.00
1064.506, 27541.00
1065.610, 27684.00
1066.713, 27700.00
1067.817, 27472.00
1068.920, 27351.00
1070.023, 27189.00
1071.126, 27080.00
1072.229, 26882.00
1073.332, 26718.00
1074.435, 26552.60
1075.537, 26314.00
1076.639, 26169.00
1077.741, 26007.00
1078.843, 25759.00
1079.945, 25550.00
1081.046, 25215.00
1082.148, 25161.00
1083.249, 24960.00
1084.350, 24965.00
1085.451, 24986.00
1086.551, 24554.00
1087.652, 24635.00
1088.752, 24531.00
1089.853, 24438.00
1090.953, 24482.00
1092.053, 24295.00
1093.152, 24291.00
1094.252, 24152.00
1095.351, 24054.00
1096.451, 24385.00
1097.550, 24106.00
1098.649, 24175.00
1099.748, 24065.00
1100.846, 24083.00
1101.945, 23976.00
1103.043, 23945.00
1104.141, 23959.00
1105.239, 24107.00
1106.337, 23965.00
1107.434, 24136.00
1108.532, 23976.00
1109.629, 24010.00
1110.726, 24141.00
1111.823, 24055.00
1112.920, 24314.00
1114.017, 24284.08
1115.113, 24282.00
1116.210, 24403.00
1117.306, 24544.00
1118.402, 24728.00
1119.498, 25162.00
1120.593, 25344.00
1121.689, 25436.00
1122.784, 25686.00
1123.879, 25132.00
1124.974, 24996.00
1126.069, 24926.00
1127.164, 24792.00
1128.259, 24619.00
1129.353, 24369.00
1130.447, 24452.00
1131.541, 24373.00
1132.635, 24519.00
1133.729, 24461.00
1134.822, 24536.00
1135.916, 24472.00
1137.009, 24435.00
1138.102, 24486.99
1139.195, 24488.00
1140.288, 24527.00
1141.380, 24466.00
1142.473, 24434.00
1143.565, 24417.00
1144.657, 24521.00
1145.749, 24607.00
1146.841, 24346.00
1147.932, 24612.00
1149.024, 24505.00
1150.115, 24758.00
1151.206, 24852.00
1152.297, 24769.00
1153.388, 24848.00
1154.479, 24788.00
1155.569, 24637.00
1156.659, 24710.00
1157.750, 24696.00
1158.839, 24752.38
1159.929, 24855.00
1161.019, 24898.00
1162.108, 24921.00
1163.198, 24885.00
1164.287, 24962.00
1165.376, 24959.00
1166.465, 25081.00
1167.553, 25112.00
1168.642, 25148.24
1169.730, 25017.00
1170.818, 25181.00
1171.906, 25125.00
1172.994, 25061.00
1174.082, 25499.00
1175.170, 25366.00
1176.257, 25290.00
1177.344, 25410.00
1178.431, 25350.44
1179.518, 25390.00
1180.605, 25398.00
1181.691, 25376.00
1182.778, 25351.00
1183.864, 25391.00
1184.950, 25439.00
1186.036, 25621.00
1187.122, 25618.00
1188.207, 25576.00
1189.292, 25500.00
1190.378, 25546.13
1191.463, 25546.20
1192.548, 25620.00
1193.632, 25661.00
1194.717, 25721.05
1195.801, 25839.00
1196.886, 25931.00
1197.970, 25998.00
1199.054, 26119.00
1200.137, 26052.00
1201.221, 26259.00
1202.305, 26020.00
1203.388, 26294.00
1204.471, 26286.00
1205.554, 26294.00
1206.637, 26429.00
1207.719, 26405.00
1208.802, 26427.00
1209.884, 26327.00
1210.966, 26493.00
1212.048, 26573.00
1213.130, 26394.00
1214.212, 26515.00
1215.293, 26551.00
1216.374, 26603.00
1217.456, 26642.95
1218.536, 26756.00
1219.617, 26689.00
1220.698, 26774.00
1221.778, 26824.00
1222.859, 26756.00
1223.939, 26986.00
1225.019, 27053.00
1226.099, 26989.00
1227.178, 26957.00
1228.258, 27064.00
1229.337, 27091.00
1230.417, 27004.00
1231.496, 27143.34
1232.574, 27442.00
1233.653, 27317.00
1234.732, 27391.00
1235.810, 27486.00
1236.888, 27420.00
1237.966, 27758.00
1239.044, 27532.00
1240.122, 27572.00
1241.199, 27610.00
1242.277, 27898.00
1243.354, 27909.00
1244.431, 27725.00
1245.508, 28064.00
1246.585, 27892.00
1247.661, 28082.00
1248.738, 27958.00
1249.814, 28000.00
1250.890, 28134.00
1251.966, 28101.00
1253.042, 28204.00
1254.117, 28151.00
1255.193, 28287.00
1256.268, 28220.00
1257.343, 28172.00
1258.418, 28257.00
1259.493, 28378.00
1260.567, 28487.00
1261.642, 28562.09
1262.716, 28640.00
1263.790, 28701.00
1264.864, 28686.00
1265.938, 28716.00
1267.011, 28657.00
1268.085, 28848.00
1269.158, 28815.75
1270.231, 28914.00
