##NAMES=Edenite
##RRUFFID=R060029
##IDEAL CHEMISTRY=NaCa_2_Mg_5_(Si_7_Al)O_22_(OH)_2_
##LOCALITY=Renfrew County, Ontario, Canada
##OWNER=RRUFF
##SOURCE=University of Arizona Mineral Museum
##DESCRIPTION=Black prismatic
##STATUS=The identification of this mineral has been confirmed by X-ray diffraction and chemical analysis
##URL=rruff.info/R060029
##MEASURED CHEMISTRY=(Na_0.62_K_0.34_[box]_0.04_)(Ca_0.86_Na_0.14_)_2_(Mg_0.57_Fe^2+^_0.30_Fe^3+^_0.07_Al_0.05_Ti_0.01_Mn_0.01_)_5_(Si_6.61_Al_1.39_)O_22_((OH)_0.69_F_0.31_)_2_
##PIN_ID=M00412
##ORIENTATION=Laser parallel to c* (0 0 1). Fiducial mark perpendicular to laser is parallel to a [1 0 0]
132.8980, 8837.000
134.1270, 8916.000
135.3560, 8932.000
136.5850, 9161.000
137.8140, 9373.000
139.0430, 9981.000
140.2710, 10570.00
141.5000, 10715.00
142.7280, 11054.00
143.9560, 11658.00
145.1840, 12682.00
146.4120, 14111.00
147.6390, 15845.00
148.8670, 18123.00
150.0940, 21284.00
151.3210, 25796.00
152.5490, 30598.00
153.7750, 35283.00
155.0020, 37829.00
156.2290, 37689.00
157.4550, 35045.00
158.6810, 31274.00
159.9080, 27113.00
161.1340, 23986.00
162.3590, 21602.00
163.5850, 19799.00
164.8110, 18826.00
166.0360, 17835.00
167.2610, 16867.00
168.4860, 16546.00
169.7110, 16282.00
170.9360, 16491.00
172.1610, 16401.00
173.3850, 16680.00
174.6100, 16798.00
175.8340, 17420.00
177.0580, 17680.00
178.2820, 18278.00
179.5050, 18911.00
180.7290, 18935.00
181.9520, 19025.00
183.1760, 18833.00
184.3990, 18533.00
185.6220, 18374.00
186.8450, 17992.00
188.0670, 17528.00
189.2900, 17023.00
190.5120, 16801.00
191.7340, 16667.00
192.9560, 16468.00
194.1780, 16535.00
195.4000, 16608.00
196.6220, 17013.00
197.8430, 17115.00
199.0640, 17425.00
200.2860, 17998.00
201.5070, 18884.00
202.7270, 19530.00
203.9480, 19854.00
205.1690, 20059.00
206.3890, 20646.00
207.6090, 21382.00
208.8290, 22669.00
210.0490, 24340.00
211.2690, 26434.00
212.4890, 28580.00
213.7080, 31415.00
214.9280, 34378.00
216.1470, 37362.00
217.3660, 41196.00
218.5850, 44691.00
219.8030, 48376.00
221.0220, 51367.00
222.2400, 53730.00
223.4590, 54685.00
224.6770, 54039.00
225.8950, 53053.00
227.1120, 50053.00
228.3300, 47754.00
229.5480, 44871.00
230.7650, 42097.00
231.9820, 39401.00
233.1990, 37111.00
234.4160, 35086.00
235.6330, 33237.00
236.8490, 31565.00
238.0660, 30087.00
239.2820, 28451.00
240.4980, 27033.00
241.7140, 25900.00
242.9300, 24594.00
244.1460, 23589.00
245.3610, 22792.00
246.5770, 22004.00
247.7920, 21179.00
249.0070, 20851.00
250.2220, 20155.00
251.4370, 19812.00
252.6510, 19286.00
253.8660, 19119.00
255.0800, 18822.00
256.2940, 18656.00
257.5080, 18447.00
258.7220, 19109.00
259.9360, 18432.59
261.1490, 18627.00
262.3630, 17520.00
263.5760, 17139.00
264.7890, 16563.70
266.0020, 17106.00
267.2150, 16823.00
268.4270, 16987.00
269.6400, 17028.69
270.8520, 16765.00
272.0640, 17035.00
273.2760, 17176.00
274.4880, 17322.00
275.7000, 17659.00
276.9120, 18079.00
278.1230, 18350.00
279.3340, 18616.00
280.5450, 18954.00
281.7560, 19338.00
282.9670, 20101.00
284.1780, 20490.00
285.3880, 21118.00
286.5980, 21453.00
287.8090, 21795.00
289.0190, 22359.00
290.2290, 22856.00
291.4380, 23185.00
292.6480, 23324.00
293.8570, 23747.00
295.0670, 23841.00
296.2760, 24227.00
297.4850, 23981.00
298.6930, 24168.00
299.9020, 23955.00
301.1110, 23311.00
302.3190, 23070.00
303.5270, 22759.00
304.7350, 22274.00
305.9430, 21831.00
307.1510, 21368.00
308.3580, 20921.00
309.5660, 20467.00
310.7730, 20039.00
311.9800, 19285.00
313.1870, 19002.00
314.3940, 18379.00
315.6010, 17869.00
316.8070, 17546.00
318.0130, 17172.00
319.2200, 16755.00
320.4260, 16387.86
321.6310, 15778.00
322.8370, 15631.00
324.0430, 15262.00
325.2480, 14975.00
326.4540, 14788.00
327.6590, 14427.00
328.8640, 14160.00
330.0680, 14123.00
331.2730, 13832.00
332.4780, 13827.00
333.6820, 13590.00
334.8860, 13468.00
336.0900, 13434.00
337.2940, 13289.93
338.4980, 13287.72
339.7010, 13156.00
340.9050, 13287.00
342.1080, 13276.00
343.3110, 13315.00
344.5140, 13248.00
345.7170, 13246.00
346.9200, 13277.51
348.1220, 13306.00
349.3240, 13349.00
350.5270, 13361.00
351.7290, 13408.00
352.9310, 13483.00
354.1320, 13566.00
355.3340, 13901.00
356.5350, 13951.00
357.7370, 14066.00
358.9380, 13947.00
360.1390, 14167.00
361.3400, 14029.00
362.5400, 14219.00
363.7410, 14125.18
364.9410, 14060.00
366.1410, 14041.00
367.3410, 13994.00
368.5410, 13965.42
369.7410, 13993.00
370.9400, 13967.00
372.1400, 13916.00
373.3390, 14024.00
374.5380, 13876.00
375.7370, 13841.00
376.9360, 13678.00
378.1350, 13534.00
379.3330, 13514.00
380.5310, 13217.00
381.7300, 13052.00
382.9280, 12956.00
384.1260, 12592.00
385.3230, 12366.00
386.5210, 12067.00
387.7180, 11999.00
388.9160, 11619.00
390.1130, 11535.00
391.3100, 11098.00
392.5060, 11109.00
393.7030, 10800.00
394.9000, 10681.00
396.0960, 10376.00
397.2920, 10209.00
398.4880, 10128.00
399.6840, 10070.00
400.8800, 9884.000
402.0750, 9666.000
403.2710, 9671.000
404.4660, 9447.000
405.6610, 9408.000
406.8560, 9342.000
408.0510, 9117.000
409.2450, 9119.000
410.4400, 9072.000
411.6340, 9010.000
412.8280, 8910.000
414.0220, 8960.000
415.2160, 8939.000
416.4100, 8881.000
417.6030, 8997.000
418.7970, 9055.000
419.9900, 9296.000
421.1830, 9302.000
422.3760, 9427.000
423.5690, 9749.000
424.7610, 9985.000
425.9540, 10123.00
427.1460, 10321.00
428.3380, 10518.00
429.5300, 10765.00
430.7220, 10780.00
431.9140, 10930.00
433.1050, 10834.00
434.2970, 10828.00
435.4880, 10856.00
436.6790, 10627.00
437.8700, 10672.00
439.0610, 10826.00
440.2510, 10619.00
441.4420, 10646.00
442.6320, 10660.00
443.8220, 10621.00
445.0120, 10526.00
446.2020, 10524.00
447.3910, 10658.00
448.5810, 10557.00
449.7700, 10417.00
450.9600, 10626.00
452.1490, 10465.00
453.3370, 10402.00
454.5260, 10335.00
455.7150, 10131.00
456.9030, 10063.00
458.0910, 10076.00
459.2800, 9786.000
460.4670, 9760.000
461.6550, 9721.000
462.8430, 9591.000
464.0300, 9541.000
465.2180, 9403.000
466.4050, 9490.000
467.5920, 9373.000
468.7790, 9333.000
469.9650, 9215.000
471.1520, 9137.048
472.3380, 9057.000
473.5250, 8989.000
474.7110, 8867.000
475.8970, 8841.000
477.0820, 8806.000
478.2680, 8707.000
479.4540, 8756.000
480.6390, 8661.000
481.8240, 8639.000
483.0090, 8684.000
484.1940, 8531.000
485.3780, 8568.000
486.5630, 8491.000
487.7470, 8523.000
488.9320, 8452.000
490.1160, 8525.000
491.3000, 8616.000
492.4830, 8765.000
493.6670, 8702.000
494.8500, 8801.000
496.0340, 8922.000
497.2170, 8877.000
498.4000, 9072.000
499.5820, 8978.000
500.7650, 9140.000
501.9480, 9228.000
503.1300, 9315.000
504.3120, 9420.000
505.4940, 9375.000
506.6760, 9424.000
507.8580, 9458.000
509.0390, 9580.000
510.2210, 9651.000
511.4020, 9727.000
512.5830, 9894.000
513.7640, 10153.00
514.9450, 10177.00
516.1250, 10250.00
517.3060, 10529.00
518.4860, 10848.00
519.6660, 11129.00
520.8460, 11710.00
522.0260, 11979.00
523.2060, 12680.00
524.3850, 13159.00
525.5650, 13728.00
526.7440, 14274.00
527.9230, 14847.00
529.1020, 15339.00
530.2810, 15813.00
531.4590, 16102.07
532.6380, 16316.79
533.8160, 16401.00
534.9940, 16421.00
536.1720, 16209.00
537.3500, 15997.00
538.5270, 15749.00
539.7050, 15528.00
540.8820, 15234.00
542.0590, 14847.00
543.2360, 14548.00
544.4130, 14355.00
545.5900, 14066.00
546.7660, 13879.00
547.9430, 13513.00
549.1190, 13166.00
550.2950, 13142.00
551.4710, 12784.00
552.6470, 12310.00
553.8220, 12117.00
554.9980, 11704.00
556.1730, 11438.55
557.3480, 11248.00
558.5230, 10918.00
559.6980, 10695.00
560.8730, 10447.00
562.0470, 10236.00
563.2220, 10054.00
564.3960, 9898.000
565.5700, 9733.000
566.7440, 9621.000
567.9170, 9444.000
569.0910, 9379.000
570.2640, 9225.000
571.4380, 9191.000
572.6110, 8944.000
573.7840, 9005.000
574.9570, 8951.000
576.1290, 8774.000
577.3020, 8832.000
578.4740, 8727.000
579.6460, 8658.000
580.8180, 8636.000
581.9900, 8523.000
583.1620, 8447.000
584.3330, 8244.000
585.5040, 8081.000
586.6760, 7856.000
587.8470, 7662.000
589.0180, 7572.000
590.1880, 7217.000
591.3590, 7164.000
592.5290, 6933.000
593.7000, 6774.000
594.8700, 6811.000
596.0400, 6613.000
597.2090, 6701.000
598.3790, 6581.000
599.5490, 6679.000
600.7180, 6808.000
601.8870, 6760.000
603.0560, 6873.000
604.2250, 6833.000
605.3940, 7056.000
606.5620, 7176.000
607.7300, 7443.000
608.8990, 7526.000
610.0670, 7902.000
611.2350, 7943.532
612.4020, 8101.000
613.5700, 8153.000
614.7370, 8357.512
615.9050, 8777.000
617.0720, 8876.000
618.2390, 9231.000
619.4060, 9713.000
620.5720, 9899.000
621.7390, 10359.00
622.9050, 10838.00
624.0710, 11174.00
625.2370, 11575.00
626.4030, 12143.00
627.5690, 12582.00
628.7340, 13026.00
629.9000, 13531.00
631.0650, 13951.00
632.2300, 14439.45
633.3950, 15007.00
634.5600, 15399.00
635.7240, 15872.00
636.8890, 16371.00
638.0530, 16932.00
639.2170, 17559.00
640.3810, 18163.00
641.5450, 18933.00
642.7080, 19983.00
643.8720, 20625.00
645.0350, 21218.00
646.1980, 22361.00
647.3610, 23482.00
648.5240, 24346.00
649.6870, 25539.00
650.8490, 26568.00
652.0120, 27945.00
653.1740, 29348.00
654.3360, 30906.00
655.4980, 32909.00
656.6600, 35091.00
657.8210, 37375.80
658.9830, 40394.00
660.1440, 42775.00
661.3050, 45947.00
662.4660, 49405.00
663.6270, 52522.00
664.7870, 55363.00
665.9480, 58134.00
667.1080, 60359.00
668.2680, 61012.00
669.4280, 61758.00
670.5880, 60936.00
671.7480, 59396.00
672.9070, 57037.00
674.0670, 54082.00
675.2260, 50646.00
676.3850, 46651.00
677.5440, 43016.00
678.7030, 39209.00
679.8610, 35736.00
681.0200, 32816.00
682.1780, 30226.00
683.3360, 27517.00
684.4940, 25576.00
685.6520, 23647.00
686.8090, 21979.00
687.9670, 20673.00
689.1240, 19224.00
690.2810, 18032.00
691.4380, 16644.00
692.5950, 15705.00
693.7520, 14597.00
694.9080, 13662.00
696.0650, 12962.00
697.2210, 12105.00
698.3770, 11445.00
699.5330, 10856.00
700.6880, 10284.00
701.8440, 9777.000
702.9990, 9570.000
704.1550, 9145.000
705.3100, 9063.000
706.4650, 8570.000
707.6190, 8405.000
708.7740, 8241.000
709.9290, 8101.000
711.0830, 7874.000
712.2370, 7860.000
713.3910, 7681.000
714.5450, 7647.000
715.6980, 7637.000
716.8520, 7481.000
718.0050, 7455.000
719.1580, 7426.000
720.3110, 7316.000
721.4640, 7265.000
722.6170, 7235.000
723.7700, 7157.000
724.9220, 7132.225
726.0740, 7173.000
727.2260, 7051.825
728.3780, 7034.535
729.5300, 6973.000
730.6810, 6886.000
731.8330, 6871.000
732.9840, 6688.000
734.1350, 6819.000
735.2860, 6750.000
736.4370, 6675.000
737.5880, 6517.000
738.7380, 6534.000
739.8880, 6481.000
741.0390, 6379.000
742.1890, 6440.000
743.3380, 6256.000
744.4880, 6236.000
745.6380, 6219.000
746.7870, 6160.000
747.9360, 6106.000
749.0850, 6002.000
750.2340, 5964.000
751.3830, 5977.000
752.5310, 5853.000
753.6800, 5881.000
754.8280, 5899.000
755.9760, 5793.000
757.1240, 5857.000
758.2720, 5803.000
759.4190, 5824.000
760.5670, 5806.000
761.7140, 5848.000
762.8610, 5862.000
764.0080, 5838.000
765.1550, 5986.000
766.3020, 6027.000
767.4480, 6037.000
768.5950, 6172.000
769.7410, 6099.000
770.8870, 6208.000
772.0330, 6285.000
773.1780, 6307.000
774.3240, 6433.000
775.4690, 6452.000
776.6140, 6476.000
777.7590, 6521.000
778.9040, 6537.000
780.0490, 6592.000
781.1940, 6585.000
782.3380, 6686.000
783.4820, 6729.000
784.6260, 6789.000
785.7700, 6730.000
786.9140, 6726.000
788.0580, 6784.000
789.2010, 6756.000
790.3450, 6808.000
791.4880, 6769.000
792.6310, 6734.000
793.7730, 6753.000
794.9160, 6851.000
796.0590, 6838.000
797.2010, 6809.000
798.3430, 6745.000
799.4850, 6804.000
800.6270, 6831.000
801.7690, 6754.000
802.9100, 6813.000
804.0520, 6835.000
805.1930, 6821.000
806.3340, 6899.000
807.4750, 6931.000
808.6160, 6797.000
809.7560, 6793.000
810.8970, 6889.000
812.0370, 6960.000
813.1770, 6854.000
814.3170, 6887.000
815.4570, 6878.000
816.5960, 6906.000
817.7360, 6873.682
818.8750, 6860.000
820.0140, 6797.000
821.1530, 6740.000
822.2920, 6688.000
823.4310, 6550.000
824.5690, 6622.000
825.7070, 6456.000
826.8460, 6541.000
827.9840, 6373.000
829.1220, 6248.000
830.2590, 6238.000
831.3970, 6083.000
832.5340, 6081.000
833.6710, 6061.000
834.8080, 5980.000
835.9450, 5920.000
837.0820, 5806.000
838.2190, 5771.636
839.3550, 5720.000
840.4910, 5702.000
841.6270, 5635.000
842.7630, 5638.000
843.8990, 5565.000
845.0350, 5653.000
846.1700, 5649.000
847.3060, 5570.000
848.4410, 5620.000
849.5760, 5628.000
850.7100, 5595.000
851.8450, 5623.956
852.9800, 5608.025
854.1140, 5612.000
855.2480, 5591.000
856.3820, 5547.000
857.5160, 5518.000
858.6500, 5489.000
859.7830, 5546.000
860.9170, 5628.000
862.0500, 5613.000
863.1830, 5680.000
864.3160, 5657.000
865.4480, 5697.000
866.5810, 5602.000
867.7130, 5711.000
868.8460, 5728.000
869.9780, 5857.000
871.1100, 5825.000
872.2410, 5851.000
873.3730, 5914.000
874.5050, 5990.000
875.6360, 6105.000
876.7670, 6123.000
877.8980, 6270.000
879.0290, 6366.000
880.1590, 6366.000
881.2900, 6579.000
882.4200, 6666.000
883.5500, 6790.000
884.6800, 7021.000
885.8100, 7102.000
886.9400, 7245.000
888.0690, 7480.000
889.1990, 7551.000
890.3280, 7780.000
891.4570, 7792.000
892.5860, 8072.000
893.7140, 7997.000
894.8430, 8301.000
895.9710, 8465.000
897.1000, 8547.000
898.2280, 8754.000
899.3560, 8968.000
900.4830, 9017.000
901.6110, 9228.000
902.7380, 9515.000
903.8660, 9701.000
904.9930, 9851.000
906.1200, 10013.00
907.2460, 10259.00
908.3730, 10419.00
909.5000, 10500.00
910.6260, 10800.00
911.7520, 11055.00
912.8780, 11126.84
914.0040, 11265.00
915.1290, 11354.00
916.2550, 11410.00
917.3800, 11581.00
918.5050, 11547.00
919.6300, 11578.00
920.7550, 11705.00
921.8800, 11630.00
923.0040, 11681.00
924.1290, 11509.00
925.2530, 11449.00
926.3770, 11410.00
927.5010, 11166.00
928.6250, 10931.00
929.7480, 10729.00
930.8720, 10577.00
931.9950, 10496.00
933.1180, 10385.00
934.2410, 10261.00
935.3640, 10126.00
936.4860, 10106.00
937.6090, 9900.000
938.7310, 9811.000
939.8530, 9777.000
940.9750, 9881.000
942.0970, 9756.000
943.2180, 9665.000
944.3400, 9465.000
945.4610, 9473.000
946.5820, 9590.000
947.7030, 9444.000
948.8240, 9448.000
949.9450, 9436.000
951.0650, 9421.000
952.1860, 9391.000
953.3060, 9488.000
954.4260, 9430.000
955.5460, 9423.000
956.6650, 9391.198
957.7850, 9365.045
958.9040, 9312.000
960.0230, 9319.000
961.1420, 9378.000
962.2610, 9352.000
963.3800, 9271.000
964.4990, 9210.000
965.6170, 9269.000
966.7350, 9231.000
967.8530, 9232.000
968.9710, 9241.000
970.0890, 9489.000
971.2070, 9388.647
972.3240, 9335.526
973.4410, 9317.000
974.5580, 9192.000
975.6750, 9093.000
976.7920, 9319.000
977.9090, 9272.000
979.0250, 9279.000
980.1410, 9277.000
981.2580, 9264.000
982.3740, 9529.000
983.4890, 9543.000
984.6050, 9594.000
985.7200, 9801.000
986.8360, 9842.000
987.9510, 9938.000
989.0660, 10028.00
990.1810, 10261.00
991.2950, 10423.00
992.4100, 10651.00
993.5240, 10762.00
994.6390, 10928.00
995.7530, 11348.00
996.8660, 11494.00
997.9800, 11776.00
999.0940, 12197.00
1000.207, 12331.00
1001.320, 12808.00
1002.433, 13129.00
1003.546, 13310.00
1004.659, 13735.00
1005.772, 14020.00
1006.884, 14343.00
1007.996, 14739.00
1009.108, 15157.00
1010.220, 15582.00
1011.332, 15746.00
1012.444, 16156.00
1013.555, 16479.00
1014.666, 16944.00
1015.777, 17222.00
1016.888, 17470.00
1017.999, 17604.00
1019.110, 17875.00
1020.220, 18238.00
1021.331, 18366.00
1022.441, 18598.00
1023.551, 18573.00
1024.661, 18957.00
1025.770, 18748.00
1026.880, 18839.00
1027.989, 18958.00
1029.098, 18845.00
1030.207, 19191.00
1031.316, 18995.00
1032.425, 19361.00
1033.533, 19271.00
1034.642, 19239.00
1035.750, 19129.00
1036.858, 19326.00
1037.966, 19414.00
1039.073, 19312.00
1040.181, 19538.00
1041.288, 19472.00
1042.396, 19684.00
1043.503, 19437.00
1044.610, 19544.00
1045.716, 19701.00
1046.823, 19530.00
1047.929, 19869.00
1049.036, 19547.00
1050.142, 19770.00
1051.248, 19629.00
1052.353, 19689.00
1053.459, 19850.00
1054.564, 19551.00
1055.670, 19410.00
1056.775, 19186.00
1057.880, 18977.00
1058.985, 18974.00
1060.089, 18463.00
1061.194, 18197.00
1062.298, 17768.00
1063.402, 17219.00
1064.506, 16859.00
1065.610, 16273.11
1066.713, 15761.00
1067.817, 15154.00
1068.920, 14795.00
1070.023, 14257.00
1071.126, 13916.00
1072.229, 13387.00
1073.332, 12879.00
1074.435, 12733.00
1075.537, 12115.00
1076.639, 11745.00
1077.741, 11461.00
1078.843, 11178.00
1079.945, 10780.00
1081.046, 10502.00
1082.148, 10185.00
1083.249, 9948.000
1084.350, 9738.000
1085.451, 9511.000
1086.551, 9380.000
1087.652, 9098.000
1088.752, 9043.000
1089.853, 8873.000
1090.953, 8620.000
1092.053, 8513.000
1093.152, 8413.000
1094.252, 8269.000
1095.351, 8147.399
1096.451, 8067.000
1097.550, 7883.000
1098.649, 7794.000
1099.748, 7692.000
1100.846, 7527.000
1101.945, 7428.000
1103.043, 7332.000
1104.141, 7209.000
1105.239, 7051.000
1106.337, 6962.000
1107.434, 6812.000
1108.532, 6681.000
1109.629, 6556.000
1110.726, 6436.000
1111.823, 6417.000
1112.920, 6254.000
1114.017, 6199.000
1115.113, 6129.000
1116.210, 5991.000
1117.306, 5886.000
1118.402, 5705.000
1119.498, 5718.000
1120.593, 5606.000
1121.689, 5473.000
1122.784, 5440.000
1123.879, 5335.000
1124.974, 5289.000
1126.069, 5220.000
1127.164, 5123.000
1128.259, 5077.000
1129.353, 4938.000
1130.447, 4859.255
1131.541, 4800.103
1132.635, 4650.000
1133.729, 4670.000
1134.822, 4557.000
1135.916, 4456.000
1137.009, 4349.000
1138.102, 4341.669
1139.195, 4305.000
1140.288, 4346.000
1141.380, 4205.000
1142.473, 4177.000
1143.565, 4171.000
1144.657, 4120.000
1145.749, 4109.498
1146.841, 4072.000
1147.932, 4074.000
1149.024, 4056.000
1150.115, 4049.767
1151.206, 3975.000
1152.297, 3987.000
1153.388, 3979.000
1154.479, 3897.000
1155.569, 3894.000
1156.659, 3882.000
1157.750, 3913.000
1158.839, 3855.000
1159.929, 3897.000
1161.019, 3828.000
1162.108, 3828.000
1163.198, 3787.000
1164.287, 3751.000
1165.376, 3776.000
1166.465, 3831.000
1167.553, 3842.000
1168.642, 3826.392
1169.730, 3784.000
1170.818, 3762.000
1171.906, 3732.000
1172.994, 3694.000
1174.082, 3709.000
1175.170, 3684.000
1176.257, 3701.000
1177.344, 3680.000
1178.431, 3733.000
1179.518, 3700.000
1180.605, 3675.000
1181.691, 3688.000
1182.778, 3655.000
1183.864, 3639.487
1184.950, 3667.000
1186.036, 3610.000
1187.122, 3638.000
1188.207, 3665.000
1189.292, 3639.000
1190.378, 3702.000
1191.463, 3609.000
1192.548, 3676.000
1193.632, 3660.000
1194.717, 3589.000
1195.801, 3668.000
1196.886, 3602.000
1197.970, 3672.000
1199.054, 3634.000
1200.137, 3643.155
1201.221, 3647.371
1202.305, 3621.000
1203.388, 3684.000
1204.471, 3601.000
1205.554, 3730.000
1206.637, 3714.000
1207.719, 3696.000
1208.802, 3632.000
1209.884, 3653.000
1210.966, 3646.000
1212.048, 3654.000
1213.130, 3640.000
1214.212, 3630.000
1215.293, 3665.000
1216.374, 3696.000
1217.456, 3710.000
1218.536, 3663.000
1219.617, 3676.000
1220.698, 3671.000
1221.778, 3641.000
1222.859, 3643.000
1223.939, 3619.000
1225.019, 3697.000
1226.099, 3673.000
1227.178, 3723.000
1228.258, 3741.000
1229.337, 3654.000
1230.417, 3677.000
1231.496, 3640.000
1232.574, 3668.000
1233.653, 3693.000
1234.732, 3691.000
1235.810, 3714.000
1236.888, 3702.983
1237.966, 3708.788
1239.044, 3676.000
1240.122, 3703.000
1241.199, 3686.000
1242.277, 3672.000
1243.354, 3708.000
1244.431, 3654.000
1245.508, 3676.000
1246.585, 3662.000
1247.661, 3665.000
1248.738, 3666.000
1249.814, 3725.000
1250.890, 3678.000
1251.966, 3719.000
1253.042, 3688.000
1254.117, 3681.000
1255.193, 3685.000
1256.268, 3728.000
1257.343, 3595.000
1258.418, 3678.000
1259.493, 3671.000
1260.567, 3591.000
1261.642, 3717.000
1262.716, 3635.000
1263.790, 3729.000
1264.864, 3748.000
1265.938, 3630.000
1267.011, 3715.000
1268.085, 3613.000
1269.158, 3654.000
1270.231, 3583.000
1271.304, 3647.000
1272.377, 3606.000
1273.450, 3657.000
1274.522, 3627.000
1275.594, 3686.000
1276.666, 3689.000
1277.738, 3600.000
1278.810, 3623.000
1279.882, 3644.000
1280.953, 3649.000
1282.025, 3656.907
1283.096, 3646.068
1284.167, 3648.000
1285.238, 3625.000
1286.308, 3601.000
1287.379, 3618.000
1288.449, 3613.000
1289.519, 3645.000
1290.589, 3637.000
1291.659, 3616.000
1292.729, 3646.718
1293.798, 3606.000
1294.868, 3671.000
1295.937, 3685.000
1297.006, 3674.000
1298.075, 3649.000
1299.143, 3611.000
1300.212, 3656.000
1301.280, 3651.000
1302.348, 3663.000
