##NAMES=Edenite
##RRUFFID=R050415
##IDEAL CHEMISTRY=NaCa_2_Mg_5_(Si_7_Al)O_22_(OH)_2_
##LOCALITY=Mogok, Burma
##OWNER=RRUFF
##SOURCE=Marcus Origlieri
##DESCRIPTION=Transparent pale green water worn fragment
##STATUS=The identification of this mineral has been confirmed by X-ray diffraction and chemical analysis
##URL=rruff.info/R050415
##MEASURED CHEMISTRY=(Na_0.83_K_0.17_)(Ca_1.76_Na_0.24_)_&#931;=2_(Mg_4.54_Al_0.40_Fe^3+^_0.06_)_&#931;=5_(Si_6.74_Al_1.26_)O_22_((OH)_0.52_F_0.48_)_2_
##PIN_ID=L01355
##ORIENTATION=Laser parallel to -a* (-1 0 0). Fiducial mark perpendicular to laser is parallel to -b [0 -1 0]
93.48000, 17850.00
94.71400, 18189.00
95.94800, 18713.00
97.18200, 19030.00
98.41600, 19204.00
99.64900, 19736.00
100.8830, 19886.00
102.1160, 20319.00
103.3490, 20243.00
104.5820, 20670.00
105.8150, 20938.00
107.0470, 21669.00
108.2800, 21526.78
109.5120, 22107.00
110.7440, 21446.00
111.9760, 21083.00
113.2080, 21170.00
114.4400, 21252.00
115.6710, 21366.00
116.9030, 21380.00
118.1340, 21357.07
119.3650, 21191.00
120.5960, 21209.00
121.8270, 21165.00
123.0580, 21061.00
124.2880, 20999.00
125.5190, 21021.00
126.7490, 21155.00
127.9790, 21048.00
129.2090, 20934.00
130.4390, 21057.00
131.6680, 20778.00
132.8980, 20876.00
134.1270, 20826.00
135.3560, 20804.00
136.5850, 20913.00
137.8140, 21035.00
139.0430, 20934.00
140.2710, 20909.00
141.5000, 20759.00
142.7280, 20778.00
143.9560, 20830.00
145.1840, 20873.00
146.4120, 21074.00
147.6390, 21093.00
148.8670, 21130.00
150.0940, 21310.00
151.3210, 21584.00
152.5490, 21656.00
153.7750, 22176.00
155.0020, 22613.00
156.2290, 22966.00
157.4550, 23241.00
158.6810, 23397.00
159.9080, 23518.00
161.1340, 23934.00
162.3590, 24010.00
163.5850, 24243.00
164.8110, 24438.00
166.0360, 24821.00
167.2610, 24828.00
168.4860, 25289.00
169.7110, 24880.00
170.9360, 24707.00
172.1610, 23932.00
173.3850, 23793.00
174.6100, 23586.00
175.8340, 23444.00
177.0580, 23303.19
178.2820, 23151.74
179.5050, 23046.00
180.7290, 22917.00
181.9520, 22799.00
183.1760, 22739.00
184.3990, 22866.00
185.6220, 22612.00
186.8450, 22927.00
188.0670, 22671.00
189.2900, 22610.00
190.5120, 22623.00
191.7340, 22444.00
192.9560, 22561.00
194.1780, 22658.00
195.4000, 22754.00
196.6220, 22912.90
197.8430, 22975.00
199.0640, 23196.00
200.2860, 23133.00
201.5070, 23178.00
202.7270, 23309.00
203.9480, 23399.79
205.1690, 23607.00
206.3890, 23815.00
207.6090, 23949.00
208.8290, 24339.00
210.0490, 24642.00
211.2690, 24995.00
212.4890, 25272.00
213.7080, 25850.00
214.9280, 26122.00
216.1470, 26459.00
217.3660, 27032.00
218.5850, 27445.00
219.8030, 28243.00
221.0220, 28900.00
222.2400, 29634.00
223.4590, 31076.00
224.6770, 31803.00
225.8950, 32965.00
227.1120, 33935.00
228.3300, 35168.00
229.5480, 36361.00
230.7650, 37571.00
231.9820, 38127.00
233.1990, 39164.00
234.4160, 39872.00
235.6330, 40574.00
236.8490, 41200.00
238.0660, 41400.00
239.2820, 41671.00
240.4980, 41698.00
241.7140, 40941.00
242.9300, 40136.00
244.1460, 39298.00
245.3610, 38073.00
246.5770, 37157.00
247.7920, 36180.00
249.0070, 35295.00
250.2220, 34584.00
251.4370, 33658.00
252.6510, 32958.00
253.8660, 31841.00
255.0800, 31138.00
256.2940, 30216.00
257.5080, 29965.00
258.7220, 29388.00
259.9360, 28607.00
261.1490, 27784.00
262.3630, 27106.00
263.5760, 26597.00
264.7890, 26423.00
266.0020, 25944.00
267.2150, 25627.00
268.4270, 25499.00
269.6400, 25286.00
270.8520, 25079.00
272.0640, 24906.00
273.2760, 24932.00
274.4880, 24768.00
275.7000, 24508.00
276.9120, 24306.00
278.1230, 24406.00
279.3340, 24583.00
280.5450, 24386.00
281.7560, 24347.00
282.9670, 24299.00
284.1780, 24254.39
285.3880, 24243.00
286.5980, 24251.00
287.8090, 24352.00
289.0190, 24334.00
290.2290, 24195.00
291.4380, 24408.00
292.6480, 24359.63
293.8570, 24226.00
295.0670, 24462.00
296.2760, 24690.00
297.4850, 24748.00
298.6930, 24737.00
299.9020, 24976.00
301.1110, 24909.00
302.3190, 24892.00
303.5270, 25047.00
304.7350, 25247.00
305.9430, 25226.00
307.1510, 25400.00
308.3580, 25441.00
309.5660, 25836.00
310.7730, 25852.00
311.9800, 26193.00
313.1870, 26106.00
314.3940, 26392.00
315.6010, 26306.00
316.8070, 26466.00
318.0130, 26698.00
319.2200, 26663.00
320.4260, 26814.00
321.6310, 26392.00
322.8370, 26769.00
324.0430, 26525.00
325.2480, 26576.00
326.4540, 26102.00
327.6590, 26157.00
328.8640, 26108.00
330.0680, 25835.00
331.2730, 25864.00
332.4780, 25817.00
333.6820, 25739.00
334.8860, 25866.00
336.0900, 25743.00
337.2940, 25515.00
338.4980, 25769.00
339.7010, 25741.00
340.9050, 25955.00
342.1080, 26101.00
343.3110, 25948.00
344.5140, 26016.00
345.7170, 25933.00
346.9200, 25998.00
348.1220, 26231.00
349.3240, 26299.00
350.5270, 26374.00
351.7290, 26235.00
352.9310, 26520.00
354.1320, 26583.00
355.3340, 26642.00
356.5350, 26909.00
357.7370, 27013.00
358.9380, 27000.00
360.1390, 27399.00
361.3400, 27485.00
362.5400, 27693.00
363.7410, 27752.00
364.9410, 27956.00
366.1410, 28332.00
367.3410, 28213.00
368.5410, 28819.00
369.7410, 28747.00
370.9400, 28982.00
372.1400, 29151.00
373.3390, 29175.00
374.5380, 29520.00
375.7370, 29781.00
376.9360, 29963.00
378.1350, 30149.00
379.3330, 30603.00
380.5310, 30618.00
381.7300, 31349.00
382.9280, 31486.00
384.1260, 32126.00
385.3230, 32343.00
386.5210, 32749.00
387.7180, 32774.00
388.9160, 33032.00
390.1130, 33160.00
391.3100, 33144.00
392.5060, 32914.00
393.7030, 32964.00
394.9000, 32981.00
396.0960, 32411.00
397.2920, 32158.00
398.4880, 31886.00
399.6840, 31386.00
400.8800, 30794.00
402.0750, 30499.00
403.2710, 30140.00
404.4660, 29873.00
405.6610, 29761.00
406.8560, 29494.00
408.0510, 29451.00
409.2450, 29427.00
410.4400, 29581.00
411.6340, 29731.00
412.8280, 29539.00
414.0220, 29884.00
415.2160, 30023.00
416.4100, 30037.00
417.6030, 30322.00
418.7970, 30463.00
419.9900, 30525.00
421.1830, 30593.00
422.3760, 30636.00
423.5690, 31038.00
424.7610, 30977.00
425.9540, 30879.00
427.1460, 30733.00
428.3380, 30629.00
429.5300, 30453.00
430.7220, 30314.00
431.9140, 29981.00
433.1050, 29866.00
434.2970, 29646.00
435.4880, 29078.00
436.6790, 28918.00
437.8700, 28471.00
439.0610, 28159.00
440.2510, 27859.00
441.4420, 27705.00
442.6320, 27353.00
443.8220, 27221.58
445.0120, 27050.00
446.2020, 26923.00
447.3910, 26850.00
448.5810, 26724.00
449.7700, 26834.00
450.9600, 26469.00
452.1490, 26382.00
453.3370, 26596.00
454.5260, 26449.00
455.7150, 26310.00
456.9030, 26464.00
458.0910, 26333.00
459.2800, 26437.00
460.4670, 26441.00
461.6550, 26346.00
462.8430, 26545.00
464.0300, 26591.00
465.2180, 26744.00
466.4050, 26558.00
467.5920, 26492.00
468.7790, 26559.00
469.9650, 26549.00
471.1520, 26610.00
472.3380, 26569.00
473.5250, 26608.92
474.7110, 26726.00
475.8970, 26644.00
477.0820, 26722.00
478.2680, 26720.00
479.4540, 26760.00
480.6390, 26699.00
481.8240, 27022.00
483.0090, 27096.00
484.1940, 26773.00
485.3780, 27039.00
486.5630, 26935.00
487.7470, 26822.00
488.9320, 26805.00
490.1160, 26956.00
491.3000, 27067.00
492.4830, 26955.00
493.6670, 26828.00
494.8500, 26847.00
496.0340, 26831.00
497.2170, 26851.00
498.4000, 27008.00
499.5820, 26969.00
500.7650, 26928.00
501.9480, 27234.00
503.1300, 27205.00
504.3120, 27419.00
505.4940, 27477.00
506.6760, 27670.00
507.8580, 27849.00
509.0390, 27990.00
510.2210, 28364.00
511.4020, 28384.00
512.5830, 28702.00
513.7640, 29087.00
514.9450, 29351.00
516.1250, 29349.00
517.3060, 29641.00
518.4860, 29824.00
519.6660, 29955.00
520.8460, 30284.00
522.0260, 30210.00
523.2060, 30319.00
524.3850, 30241.00
525.5650, 30428.00
526.7440, 30081.00
527.9230, 30060.00
529.1020, 29850.00
530.2810, 29602.00
531.4590, 29565.00
532.6380, 29350.00
533.8160, 29085.00
534.9940, 29107.00
536.1720, 28786.00
537.3500, 28899.00
538.5270, 28580.00
539.7050, 28507.00
540.8820, 28102.00
542.0590, 28300.00
543.2360, 28170.00
544.4130, 28210.00
545.5900, 27941.00
546.7660, 28065.00
547.9430, 28023.00
549.1190, 28029.00
550.2950, 27912.00
551.4710, 27882.00
552.6470, 27868.00
553.8220, 28073.00
554.9980, 28010.00
556.1730, 27904.00
557.3480, 27906.00
558.5230, 27808.00
559.6980, 28114.00
560.8730, 28095.00
562.0470, 27924.00
563.2220, 28176.00
564.3960, 28152.00
565.5700, 28174.00
566.7440, 28238.00
567.9170, 28152.00
569.0910, 28188.00
570.2640, 28039.00
571.4380, 28090.91
572.6110, 28144.62
573.7840, 28153.00
574.9570, 28333.00
576.1290, 28398.00
577.3020, 28499.00
578.4740, 28467.00
579.6460, 28707.00
580.8180, 28814.00
581.9900, 28781.00
583.1620, 28822.00
584.3330, 28959.00
585.5040, 29016.00
586.6760, 29199.00
587.8470, 29112.00
589.0180, 29193.34
590.1880, 29165.00
591.3590, 29136.00
592.5290, 29226.00
593.7000, 29036.00
594.8700, 28989.00
596.0400, 29050.00
597.2090, 28952.00
598.3790, 28857.00
599.5490, 29238.00
600.7180, 29209.00
601.8870, 29227.00
603.0560, 29178.00
604.2250, 29243.00
605.3940, 29102.00
606.5620, 29388.00
607.7300, 29207.00
608.8990, 29149.00
610.0670, 29354.00
611.2350, 29441.00
612.4020, 29645.00
613.5700, 29810.19
614.7370, 30010.00
615.9050, 30183.00
617.0720, 30435.00
618.2390, 30659.00
619.4060, 30937.86
620.5720, 31403.00
621.7390, 31569.00
622.9050, 31941.00
624.0710, 32337.00
625.2370, 32396.00
626.4030, 32561.00
627.5690, 32444.00
628.7340, 32506.00
629.9000, 32313.00
631.0650, 31979.00
632.2300, 32120.00
633.3950, 31995.00
634.5600, 32123.00
635.7240, 32256.00
636.8890, 32516.00
638.0530, 32876.00
639.2170, 33090.00
640.3810, 33569.00
641.5450, 34136.00
642.7080, 34417.00
643.8720, 34819.00
645.0350, 35176.00
646.1980, 36032.00
647.3610, 35906.00
648.5240, 36626.00
649.6870, 37266.00
650.8490, 37401.00
652.0120, 37943.00
653.1740, 38431.00
654.3360, 38789.00
655.4980, 39439.00
656.6600, 39559.00
657.8210, 40578.00
658.9830, 41331.00
660.1440, 42590.00
661.3050, 43486.00
662.4660, 44788.00
663.6270, 46183.00
664.7870, 47980.00
665.9480, 49490.00
667.1080, 51068.00
668.2680, 52182.00
669.4280, 53293.00
670.5880, 54585.00
671.7480, 55147.00
672.9070, 55745.00
674.0670, 55385.00
675.2260, 55152.00
676.3850, 54569.00
677.5440, 53519.00
678.7030, 52275.41
679.8610, 50699.00
681.0200, 48878.00
682.1780, 46990.00
683.3360, 44917.00
684.4940, 43225.00
685.6520, 41596.00
686.8090, 40159.00
687.9670, 39166.00
689.1240, 37982.00
690.2810, 37110.00
691.4380, 36422.00
692.5950, 35679.00
693.7520, 34928.00
694.9080, 34471.00
696.0650, 33894.00
697.2210, 33763.00
698.3770, 33541.00
699.5330, 32888.00
700.6880, 32970.00
701.8440, 32484.00
702.9990, 32577.00
704.1550, 32519.00
705.3100, 32324.00
706.4650, 32207.00
707.6190, 32311.00
708.7740, 32052.00
709.9290, 32007.00
711.0830, 32290.00
712.2370, 32129.00
713.3910, 32125.00
714.5450, 32233.00
715.6980, 32021.00
716.8520, 32174.00
718.0050, 32083.00
719.1580, 32159.00
720.3110, 31964.00
721.4640, 32135.00
722.6170, 32255.00
723.7700, 32306.00
724.9220, 32433.00
726.0740, 32605.00
727.2260, 32586.00
728.3780, 32556.00
729.5300, 32861.00
730.6810, 32629.00
731.8330, 32811.00
732.9840, 32808.00
734.1350, 32571.00
735.2860, 32648.00
736.4370, 32531.77
737.5880, 32566.00
738.7380, 32488.00
739.8880, 32614.00
741.0390, 32783.00
742.1890, 32482.00
743.3380, 32770.00
744.4880, 32773.00
745.6380, 32723.00
746.7870, 32751.00
747.9360, 32722.54
749.0850, 32851.00
750.2340, 32725.00
751.3830, 32738.00
752.5310, 32809.00
753.6800, 32751.00
754.8280, 32628.00
755.9760, 32503.00
757.1240, 32913.00
758.2720, 32547.00
759.4190, 32808.00
760.5670, 32885.00
761.7140, 32813.00
762.8610, 33000.00
764.0080, 32951.00
765.1550, 32844.00
766.3020, 32924.00
767.4480, 33035.00
768.5950, 33046.00
769.7410, 33087.00
770.8870, 33037.00
772.0330, 33230.00
773.1780, 33010.00
774.3240, 33029.00
775.4690, 33191.00
776.6140, 33368.00
777.7590, 33029.00
778.9040, 33262.00
780.0490, 33463.00
781.1940, 33228.00
782.3380, 33475.00
783.4820, 33327.00
784.6260, 33600.00
785.7700, 33580.00
786.9140, 33488.00
788.0580, 33951.00
789.2010, 33808.00
790.3450, 33684.00
791.4880, 33901.00
792.6310, 34091.00
793.7730, 34138.00
794.9160, 34190.20
796.0590, 34184.00
797.2010, 34197.00
798.3430, 34037.00
799.4850, 34160.00
800.6270, 34212.00
801.7690, 34226.00
802.9100, 34297.96
804.0520, 34305.27
805.1930, 34369.00
806.3340, 34343.00
807.4750, 34367.88
808.6160, 34402.98
809.7560, 34464.00
810.8970, 34527.00
812.0370, 34652.00
813.1770, 34747.00
814.3170, 34773.33
815.4570, 34700.00
816.5960, 34684.00
817.7360, 34755.66
818.8750, 34657.00
820.0140, 34909.00
821.1530, 34906.00
822.2920, 34970.00
823.4310, 34959.00
824.5690, 35001.27
825.7070, 35038.39
826.8460, 35104.00
827.9840, 35135.00
829.1220, 35260.00
830.2590, 35360.00
831.3970, 35159.00
832.5340, 35366.00
833.6710, 35392.00
834.8080, 35255.00
835.9450, 35596.00
837.0820, 35403.00
838.2190, 35766.00
839.3550, 35718.00
840.4910, 35846.00
841.6270, 35885.00
842.7630, 36155.00
843.8990, 36313.00
845.0350, 36331.00
846.1700, 36289.00
847.3060, 36691.00
848.4410, 36391.00
849.5760, 36790.00
850.7100, 36536.00
851.8450, 36676.00
852.9800, 36963.00
854.1140, 37195.00
855.2480, 37333.00
856.3820, 37531.65
857.5160, 37650.00
858.6500, 37771.85
859.7830, 37817.00
860.9170, 37838.00
862.0500, 37737.00
863.1830, 37691.00
864.3160, 37620.00
865.4480, 37317.00
866.5810, 37321.00
867.7130, 37119.00
868.8460, 37256.00
869.9780, 37280.00
871.1100, 37217.00
872.2410, 37285.00
873.3730, 37259.00
874.5050, 37230.00
875.6360, 37373.00
876.7670, 37627.00
877.8980, 37257.00
879.0290, 37694.00
880.1590, 37606.00
881.2900, 37491.00
882.4200, 37469.00
883.5500, 37458.04
884.6800, 37436.00
885.8100, 37672.00
886.9400, 37916.00
888.0690, 38381.00
889.1990, 37995.00
890.3280, 37962.00
891.4570, 38357.00
892.5860, 38370.00
893.7140, 38406.00
894.8430, 38488.00
895.9710, 38449.00
897.1000, 38690.00
898.2280, 38671.00
899.3560, 38670.00
900.4830, 39146.00
901.6110, 39302.00
902.7380, 39217.00
903.8660, 39163.00
904.9930, 39410.00
906.1200, 39375.00
907.2460, 39403.00
908.3730, 39736.00
909.5000, 39941.00
910.6260, 40007.28
911.7520, 40042.00
912.8780, 40129.00
914.0040, 40173.00
915.1290, 40119.00
916.2550, 40356.00
917.3800, 40469.00
918.5050, 40447.00
919.6300, 40457.00
920.7550, 40603.00
921.8800, 40326.00
923.0040, 40725.00
924.1290, 40424.00
925.2530, 40733.00
926.3770, 40556.00
927.5010, 40623.00
928.6250, 40830.00
929.7480, 40551.00
930.8720, 40343.00
931.9950, 40510.00
933.1180, 40387.00
934.2410, 40579.00
935.3640, 40615.00
936.4860, 40439.00
937.6090, 40199.00
938.7310, 40506.00
939.8530, 40575.00
940.9750, 40683.00
942.0970, 40267.00
943.2180, 40286.00
944.3400, 40350.00
945.4610, 40367.00
946.5820, 40515.00
947.7030, 40585.00
948.8240, 40703.00
949.9450, 40390.00
951.0650, 40605.00
952.1860, 40905.00
953.3060, 40614.00
954.4260, 40810.00
955.5460, 40830.00
956.6650, 40867.00
957.7850, 40881.00
958.9040, 40788.00
960.0230, 40573.00
961.1420, 40790.00
962.2610, 40627.00
963.3800, 40941.00
964.4990, 40875.00
965.6170, 41000.00
966.7350, 40946.00
967.8530, 40615.00
968.9710, 41144.00
970.0890, 40792.00
971.2070, 41154.00
972.3240, 41020.00
973.4410, 40939.00
974.5580, 41163.00
975.6750, 41068.00
976.7920, 41323.00
977.9090, 41148.00
979.0250, 41459.00
980.1410, 41616.00
981.2580, 41786.00
982.3740, 41838.00
983.4890, 41972.00
984.6050, 42306.00
985.7200, 42348.00
986.8360, 43102.00
987.9510, 43130.00
989.0660, 43351.00
990.1810, 43360.00
991.2950, 43523.00
992.4100, 43776.00
993.5240, 44240.00
994.6390, 44318.00
995.7530, 44244.00
996.8660, 45365.00
997.9800, 45500.00
999.0940, 46342.00
1000.207, 46844.00
1001.320, 47548.00
1002.433, 47748.00
1003.546, 47918.00
1004.659, 47571.00
1005.772, 47086.00
1006.884, 46953.00
1007.996, 47155.00
1009.108, 46703.00
1010.220, 47344.00
1011.332, 46895.00
1012.444, 47182.00
1013.555, 47231.00
1014.666, 47078.00
1015.777, 47525.00
1016.888, 47703.00
1017.999, 47419.00
1019.110, 47629.00
1020.220, 47899.00
1021.331, 47927.00
1022.441, 47911.00
1023.551, 48075.00
1024.661, 48073.00
1025.770, 48118.00
1026.880, 48192.00
1027.989, 48186.86
1029.098, 48121.00
1030.207, 48207.00
1031.316, 48231.00
1032.425, 48221.00
1033.533, 48509.00
1034.642, 48638.00
1035.750, 48796.00
1036.858, 48798.00
1037.966, 49153.00
1039.073, 48695.00
1040.181, 49165.00
1041.288, 48899.00
1042.396, 48870.00
1043.503, 48952.00
1044.610, 48661.00
1045.716, 48373.00
1046.823, 48456.00
1047.929, 47976.00
1049.036, 48280.00
1050.142, 47837.00
1051.248, 47399.00
1052.353, 46916.00
1053.459, 47288.00
1054.564, 46800.00
1055.670, 46614.00
1056.775, 46531.00
1057.880, 46283.00
1058.985, 46061.00
1060.089, 46007.00
1061.194, 45978.00
1062.298, 46230.00
1063.402, 46021.00
1064.506, 45805.00
1065.610, 45922.00
1066.713, 45681.00
1067.817, 45598.00
1068.920, 45556.00
1070.023, 45383.00
1071.126, 45402.00
1072.229, 45171.00
1073.332, 45135.00
1074.435, 45272.00
1075.537, 45049.00
1076.639, 45177.00
1077.741, 44975.00
1078.843, 44800.00
1079.945, 44781.00
1081.046, 44686.00
1082.148, 44685.00
1083.249, 44647.00
1084.350, 44500.75
1085.451, 44397.00
1086.551, 44244.00
1087.652, 44165.00
1088.752, 44122.00
1089.853, 44045.00
1090.953, 44068.00
1092.053, 44028.69
1093.152, 43964.36
1094.252, 43980.00
1095.351, 43849.00
1096.451, 43748.00
1097.550, 43719.00
1098.649, 43796.00
1099.748, 43588.00
1100.846, 43629.00
1101.945, 44075.00
1103.043, 43794.00
1104.141, 43633.00
1105.239, 44030.00
1106.337, 43691.00
1107.434, 43801.00
1108.532, 44133.00
1109.629, 43683.00
1110.726, 43730.00
1111.823, 44105.00
1112.920, 43933.00
1114.017, 44103.00
1115.113, 44006.00
1116.210, 44244.00
1117.306, 44093.00
1118.402, 44491.00
1119.498, 44728.00
1120.593, 44575.00
1121.689, 44709.00
1122.784, 44409.00
1123.879, 44562.00
1124.974, 44334.00
1126.069, 44462.00
1127.164, 44297.00
1128.259, 44260.00
1129.353, 43890.00
1130.447, 44347.00
1131.541, 43956.00
1132.635, 44160.00
1133.729, 44343.00
1134.822, 44098.00
1135.916, 44308.00
1137.009, 44034.00
1138.102, 44247.00
1139.195, 44138.00
1140.288, 44024.00
1141.380, 43847.00
1142.473, 43960.00
1143.565, 43919.00
1144.657, 44026.00
1145.749, 44133.00
1146.841, 44244.00
1147.932, 44200.00
1149.024, 44227.00
1150.115, 44220.00
1151.206, 44203.00
1152.297, 44435.00
1153.388, 44415.00
1154.479, 44430.72
1155.569, 44400.00
1156.659, 44393.00
1157.750, 44410.00
1158.839, 44407.43
1159.929, 44812.00
1161.019, 44720.00
1162.108, 44719.00
1163.198, 45053.00
1164.287, 44587.00
1165.376, 44766.00
1166.465, 45018.00
1167.553, 45188.00
1168.642, 45216.86
1169.730, 44945.00
1170.818, 45230.00
1171.906, 45192.00
1172.994, 45247.00
1174.082, 45318.00
1175.170, 45148.00
1176.257, 45334.00
1177.344, 45185.00
1178.431, 45396.00
1179.518, 45093.00
1180.605, 45606.00
1181.691, 45620.00
1182.778, 45442.00
1183.864, 45621.00
1184.950, 45533.00
1186.036, 45630.00
1187.122, 45655.00
1188.207, 45756.00
1189.292, 45754.00
1190.378, 45469.00
1191.463, 45771.00
1192.548, 45559.00
1193.632, 45780.00
1194.717, 45814.00
1195.801, 45627.00
1196.886, 45756.00
1197.970, 45723.00
1199.054, 45907.00
1200.137, 46189.00
1201.221, 45968.00
1202.305, 46360.00
1203.388, 46067.00
1204.471, 46093.00
1205.554, 46369.00
1206.637, 46285.00
1207.719, 46076.00
1208.802, 46125.00
1209.884, 46449.00
1210.966, 46363.00
1212.048, 46832.00
1213.130, 46807.00
1214.212, 46821.00
1215.293, 46681.00
1216.374, 46723.77
1217.456, 46749.02
1218.536, 46698.00
1219.617, 46896.00
1220.698, 46834.00
1221.778, 46944.00
1222.859, 47055.00
1223.939, 47141.00
1225.019, 47602.81
1226.099, 47529.00
1227.178, 48053.00
1228.258, 48476.00
1229.337, 47529.00
1230.417, 47540.00
1231.496, 47467.00
1232.574, 47723.00
1233.653, 47897.00
1234.732, 47832.00
1235.810, 48038.08
1236.888, 48122.00
1237.966, 48184.00
1239.044, 47956.00
1240.122, 47910.00
1241.199, 48060.00
1242.277, 48241.00
1243.354, 47801.00
1244.431, 47821.00
1245.508, 48160.00
1246.585, 48561.00
1247.661, 48427.00
1248.738, 48280.00
1249.814, 48455.00
1250.890, 48535.00
1251.966, 48913.00
1253.042, 48664.00
1254.117, 48826.00
1255.193, 48580.00
1256.268, 48411.00
1257.343, 48754.00
1258.418, 48759.00
1259.493, 48968.00
1260.567, 49188.00
1261.642, 49300.00
1262.716, 49281.00
1263.790, 49565.00
1264.864, 49371.00
1265.938, 49854.00
1267.011, 49634.00
1268.085, 50022.00
1269.158, 49879.00
1270.231, 49887.00
