##NAMES=Edenite
##RRUFFID=R060029
##IDEAL CHEMISTRY=NaCa_2_Mg_5_(Si_7_Al)O_22_(OH)_2_
##LOCALITY=Renfrew County, Ontario, Canada
##OWNER=RRUFF
##SOURCE=University of Arizona Mineral Museum
##DESCRIPTION=Black prismatic
##STATUS=The identification of this mineral has been confirmed by X-ray diffraction and chemical analysis
##URL=rruff.info/R060029
##MEASURED CHEMISTRY=(Na_0.62_K_0.34_[box]_0.04_)(Ca_0.86_Na_0.14_)_2_(Mg_0.57_Fe^2+^_0.30_Fe^3+^_0.07_Al_0.05_Ti_0.01_Mn_0.01_)_5_(Si_6.61_Al_1.39_)O_22_((OH)_0.69_F_0.31_)_2_
##PIN_ID=M00286
##ORIENTATION=Laser parallel to (-1 0 -1). Fiducial mark perpendicular to laser is parallel to b [0 1 0]
131.6680, 30220.70
132.8980, 30176.24
134.1270, 30059.26
135.3560, 30617.00
136.5850, 30930.00
137.8140, 31523.00
139.0430, 31834.22
140.2710, 32117.12
141.5000, 32499.00
142.7280, 32431.00
143.9560, 32702.38
145.1840, 32538.00
146.4120, 33481.00
147.6390, 34020.00
148.8670, 35056.00
150.0940, 36234.00
151.3210, 38328.00
152.5490, 39618.00
153.7750, 39641.00
155.0020, 39724.00
156.2290, 38706.00
157.4550, 36894.00
158.6810, 35651.00
159.9080, 34334.00
161.1340, 33590.56
162.3590, 33465.06
163.5850, 33302.27
164.8110, 33104.37
166.0360, 33109.67
167.2610, 32785.00
168.4860, 33115.00
169.7110, 33092.00
170.9360, 33099.00
172.1610, 32971.00
173.3850, 33135.00
174.6100, 33084.00
175.8340, 33331.21
177.0580, 33563.88
178.2820, 33717.82
179.5050, 33794.36
180.7290, 33871.81
181.9520, 33719.67
183.1760, 33847.00
184.3990, 33822.00
185.6220, 33698.00
186.8450, 33765.00
188.0670, 33622.00
189.2900, 33783.00
190.5120, 33805.00
191.7340, 33946.14
192.9560, 34186.00
194.1780, 34314.00
195.4000, 34524.00
196.6220, 34690.00
197.8430, 34973.00
199.0640, 35373.00
200.2860, 36256.00
201.5070, 36679.00
202.7270, 36611.00
203.9480, 34864.00
205.1690, 32547.00
206.3890, 31432.00
207.6090, 31649.00
208.8290, 31878.00
210.0490, 32511.00
211.2690, 33414.00
212.4890, 33978.00
213.7080, 35215.00
214.9280, 35657.00
216.1470, 36573.00
217.3660, 37698.00
218.5850, 38250.00
219.8030, 39327.00
221.0220, 39921.00
222.2400, 40537.00
223.4590, 40815.25
224.6770, 41555.00
225.8950, 40748.00
227.1120, 40259.00
228.3300, 39667.00
229.5480, 39503.00
230.7650, 39094.00
231.9820, 38505.00
233.1990, 37792.00
234.4160, 37271.00
235.6330, 36483.00
236.8490, 36049.00
238.0660, 35247.00
239.2820, 34814.00
240.4980, 34416.00
241.7140, 33709.00
242.9300, 33230.00
244.1460, 32719.00
245.3610, 32384.00
246.5770, 32058.46
247.7920, 31791.00
249.0070, 31588.85
250.2220, 31445.90
251.4370, 31274.66
252.6510, 31077.29
253.8660, 30748.26
255.0800, 30609.38
256.2940, 30406.71
257.5080, 30209.87
258.7220, 30122.91
259.9360, 29858.50
261.1490, 29787.68
262.3630, 29651.82
263.5760, 29558.62
264.7890, 29401.15
266.0020, 29275.04
267.2150, 29230.81
268.4270, 29178.56
269.6400, 29417.00
270.8520, 29243.00
272.0640, 29521.00
273.2760, 29724.00
274.4880, 29672.00
275.7000, 30039.00
276.9120, 30353.00
278.1230, 30250.00
279.3340, 30624.00
280.5450, 30409.00
281.7560, 30725.00
282.9670, 30689.00
284.1780, 30813.00
285.3880, 31065.39
286.5980, 31117.82
287.8090, 31251.49
289.0190, 31345.00
290.2290, 31449.00
291.4380, 31428.00
292.6480, 31566.00
293.8570, 31617.00
295.0670, 31778.00
296.2760, 31795.00
297.4850, 31529.00
298.6930, 31476.00
299.9020, 31318.00
301.1110, 31238.55
302.3190, 31180.00
303.5270, 31172.00
304.7350, 30907.00
305.9430, 30930.00
307.1510, 30535.47
308.3580, 30490.82
309.5660, 30408.94
310.7730, 30292.05
311.9800, 30034.86
313.1870, 29958.84
314.3940, 29810.22
315.6010, 29658.62
316.8070, 29608.21
318.0130, 29511.40
319.2200, 29351.72
320.4260, 29361.02
321.6310, 29335.22
322.8370, 29169.09
324.0430, 29184.14
325.2480, 29126.61
326.4540, 29066.06
327.6590, 29023.65
328.8640, 29155.33
330.0680, 29249.86
331.2730, 29309.30
332.4780, 29228.44
333.6820, 29328.71
334.8860, 29356.37
336.0900, 29381.06
337.2940, 29506.83
338.4980, 29461.00
339.7010, 29748.00
340.9050, 29575.00
342.1080, 29956.00
343.3110, 30088.00
344.5140, 30159.00
345.7170, 30291.00
346.9200, 30390.00
348.1220, 30545.00
349.3240, 30809.22
350.5270, 31260.00
351.7290, 31467.00
352.9310, 31542.00
354.1320, 31998.00
355.3340, 32207.00
356.5350, 32275.00
357.7370, 32326.00
358.9380, 32720.00
360.1390, 32542.00
361.3400, 32655.00
362.5400, 32464.00
363.7410, 32475.00
364.9410, 32256.00
366.1410, 32073.00
367.3410, 31993.00
368.5410, 31717.00
369.7410, 31756.00
370.9400, 31612.00
372.1400, 31646.00
373.3390, 31450.00
374.5380, 31236.00
375.7370, 31194.00
376.9360, 31019.00
378.1350, 31007.00
379.3330, 30940.00
380.5310, 30723.00
381.7300, 30667.00
382.9280, 30398.00
384.1260, 30110.00
385.3230, 29913.00
386.5210, 29926.00
387.7180, 29550.00
388.9160, 29567.00
390.1130, 29458.00
391.3100, 29113.00
392.5060, 29088.00
393.7030, 28858.00
394.9000, 28852.00
396.0960, 29118.00
397.2920, 28789.18
398.4880, 28822.95
399.6840, 28394.00
400.8800, 28632.00
402.0750, 28457.00
403.2710, 28484.00
404.4660, 28295.00
405.6610, 28415.00
406.8560, 28300.00
408.0510, 28355.00
409.2450, 28408.72
410.4400, 28285.00
411.6340, 28490.00
412.8280, 28394.00
414.0220, 28340.00
415.2160, 28393.00
416.4100, 28349.00
417.6030, 28494.91
418.7970, 28605.34
419.9900, 28844.00
421.1830, 28957.00
422.3760, 29201.00
423.5690, 29417.00
424.7610, 29518.00
425.9540, 29579.00
427.1460, 29712.00
428.3380, 30097.00
429.5300, 30092.00
430.7220, 30110.00
431.9140, 30066.00
433.1050, 30103.00
434.2970, 29941.00
435.4880, 29891.12
436.6790, 29902.00
437.8700, 29732.00
439.0610, 29517.00
440.2510, 29465.78
441.4420, 29460.92
442.6320, 29419.02
443.8220, 29341.99
445.0120, 29124.66
446.2020, 29088.50
447.3910, 28979.82
448.5810, 28868.08
449.7700, 28857.50
450.9600, 28660.57
452.1490, 28648.39
453.3370, 28562.56
454.5260, 28510.40
455.7150, 28407.00
456.9030, 28461.00
458.0910, 28190.00
459.2800, 28227.00
460.4670, 28225.00
461.6550, 28013.00
462.8430, 28056.00
464.0300, 27985.00
465.2180, 27847.00
466.4050, 27667.00
467.5920, 27638.00
468.7790, 27580.00
469.9650, 27649.00
471.1520, 27719.00
472.3380, 27792.00
473.5250, 27811.00
474.7110, 27653.00
475.8970, 27726.00
477.0820, 27685.00
478.2680, 27769.00
479.4540, 27814.00
480.6390, 27825.14
481.8240, 27910.00
483.0090, 27882.00
484.1940, 27979.00
485.3780, 28010.00
486.5630, 27914.00
487.7470, 28153.00
488.9320, 28183.00
490.1160, 28080.00
491.3000, 28463.00
492.4830, 28438.00
493.6670, 28601.53
494.8500, 28885.30
496.0340, 29132.13
497.2170, 29343.67
498.4000, 29534.67
499.5820, 29719.66
500.7650, 29846.94
501.9480, 30023.75
503.1300, 30171.00
504.3120, 30278.00
505.4940, 30522.69
506.6760, 30774.00
507.8580, 30814.00
509.0390, 31213.00
510.2210, 31327.00
511.4020, 31331.00
512.5830, 31395.00
513.7640, 31206.00
514.9450, 31279.00
516.1250, 31414.00
517.3060, 31516.00
518.4860, 31811.00
519.6660, 31791.00
520.8460, 31889.00
522.0260, 31933.00
523.2060, 31915.00
524.3850, 32338.00
525.5650, 32423.00
526.7440, 32717.00
527.9230, 32734.00
529.1020, 32846.00
530.2810, 32846.00
531.4590, 32892.21
532.6380, 32869.00
533.8160, 32902.00
534.9940, 32878.00
536.1720, 32779.00
537.3500, 32722.00
538.5270, 32604.00
539.7050, 32537.00
540.8820, 32241.00
542.0590, 32431.00
543.2360, 32224.00
544.4130, 32159.00
545.5900, 31855.00
546.7660, 32088.00
547.9430, 31974.00
549.1190, 31802.00
550.2950, 31508.00
551.4710, 31410.73
552.6470, 31446.00
553.8220, 31082.00
554.9980, 30967.00
556.1730, 30678.54
557.3480, 30659.62
558.5230, 30603.59
559.6980, 30512.44
560.8730, 30280.98
562.0470, 30230.79
563.2220, 30107.90
564.3960, 29982.13
565.5700, 29957.44
566.7440, 29746.47
567.9170, 29720.27
569.0910, 29620.26
570.2640, 29554.08
571.4380, 29414.75
572.6110, 29298.07
573.7840, 29254.47
574.9570, 28773.00
576.1290, 28633.00
577.3020, 28501.00
578.4740, 28411.00
579.6460, 27906.00
580.8180, 27842.00
581.9900, 27471.00
583.1620, 27500.00
584.3330, 26939.00
585.5040, 26850.00
586.6760, 26874.00
587.8470, 26791.00
589.0180, 26572.00
590.1880, 26434.00
591.3590, 26562.00
592.5290, 26174.00
593.7000, 26102.00
594.8700, 25885.00
596.0400, 26105.00
597.2090, 26190.00
598.3790, 26105.00
599.5490, 26142.00
600.7180, 26204.00
601.8870, 26179.00
603.0560, 26227.00
604.2250, 26182.00
605.3940, 26291.00
606.5620, 26510.00
607.7300, 26533.00
608.8990, 26570.00
610.0670, 26600.00
611.2350, 26667.00
612.4020, 26731.26
613.5700, 26916.00
614.7370, 26954.00
615.9050, 26988.00
617.0720, 27230.00
618.2390, 27381.00
619.4060, 27352.00
620.5720, 27394.00
621.7390, 27650.00
622.9050, 27722.00
624.0710, 27912.00
625.2370, 28095.00
626.4030, 28339.00
627.5690, 28479.00
628.7340, 28617.00
629.9000, 28776.00
631.0650, 28964.15
632.2300, 29239.00
633.3950, 29366.00
634.5600, 29627.00
635.7240, 29830.00
636.8890, 30275.00
638.0530, 30266.00
639.2170, 30576.00
640.3810, 31022.00
641.5450, 31180.00
642.7080, 31454.00
643.8720, 31651.00
645.0350, 31970.00
646.1980, 32541.00
647.3610, 32862.00
648.5240, 33457.00
649.6870, 33677.00
650.8490, 34129.00
652.0120, 34550.00
653.1740, 35141.00
654.3360, 35700.00
655.4980, 36529.00
656.6600, 37388.00
657.8210, 38251.00
658.9830, 39566.00
660.1440, 40451.00
661.3050, 41824.00
662.4660, 42781.00
663.6270, 43844.00
664.7870, 44920.00
665.9480, 45630.00
667.1080, 46076.00
668.2680, 46165.00
669.4280, 46001.00
670.5880, 45630.00
671.7480, 45037.00
672.9070, 44103.00
674.0670, 42718.00
675.2260, 41594.00
676.3850, 40085.00
677.5440, 38703.00
678.7030, 37917.00
679.8610, 36840.00
681.0200, 35688.00
682.1780, 34928.00
683.3360, 33842.00
684.4940, 33270.00
685.6520, 32734.00
686.8090, 32051.00
687.9670, 31586.00
689.1240, 31196.00
690.2810, 30922.00
691.4380, 30493.00
692.5950, 30173.00
693.7520, 29814.00
694.9080, 29559.00
696.0650, 29348.09
697.2210, 29104.00
698.3770, 29084.00
699.5330, 28820.00
700.6880, 28828.00
701.8440, 28846.00
702.9990, 28756.00
704.1550, 28768.00
705.3100, 28773.00
706.4650, 28807.59
707.6190, 28858.00
708.7740, 28949.00
709.9290, 29059.00
711.0830, 29141.02
712.2370, 29231.03
713.3910, 29269.43
714.5450, 29381.84
715.6980, 29457.11
716.8520, 29497.28
718.0050, 29397.12
719.1580, 29478.15
720.3110, 29486.56
721.4640, 29492.00
722.6170, 29722.00
723.7700, 29808.00
724.9220, 29629.00
726.0740, 29778.00
727.2260, 29708.00
728.3780, 29689.00
729.5300, 29605.00
730.6810, 29596.88
731.8330, 29555.04
732.9840, 29487.65
734.1350, 29395.99
735.2860, 29207.39
736.4370, 29143.97
737.5880, 29030.38
738.7380, 28914.83
739.8880, 28856.44
741.0390, 28789.62
742.1890, 28647.74
743.3380, 28602.94
744.4880, 28519.19
745.6380, 28433.84
746.7870, 28402.69
747.9360, 28271.80
749.0850, 28239.79
750.2340, 28168.30
751.3830, 28114.89
752.5310, 28022.41
753.6800, 27888.00
754.8280, 27715.00
755.9760, 27671.00
757.1240, 27570.75
758.2720, 27634.48
759.4190, 27622.59
760.5670, 27599.07
761.7140, 27565.10
762.8610, 27464.30
764.0080, 27468.81
765.1550, 27442.73
766.3020, 27423.36
767.4480, 27466.40
768.5950, 27418.00
769.7410, 27476.75
770.8870, 27538.41
772.0330, 27520.26
773.1780, 27698.00
774.3240, 27564.00
775.4690, 27604.00
776.6140, 27684.00
777.7590, 27588.00
778.9040, 27825.00
780.0490, 27733.00
781.1940, 27554.00
782.3380, 27743.00
783.4820, 27576.00
784.6260, 27717.00
785.7700, 27560.00
786.9140, 27646.00
788.0580, 27618.00
789.2010, 27766.00
790.3450, 28050.00
791.4880, 27547.00
792.6310, 27875.00
793.7730, 27610.00
794.9160, 27613.00
796.0590, 27911.00
797.2010, 27806.00
798.3430, 27785.88
799.4850, 27782.00
800.6270, 27653.00
801.7690, 27505.00
802.9100, 27627.00
804.0520, 27864.00
805.1930, 27723.00
806.3340, 28004.00
807.4750, 27614.00
808.6160, 27717.00
809.7560, 27620.00
810.8970, 27564.00
812.0370, 27688.00
813.1770, 27422.00
814.3170, 27770.00
815.4570, 27801.00
816.5960, 27417.00
817.7360, 27260.00
818.8750, 27516.00
820.0140, 27527.00
821.1530, 27488.11
822.2920, 27485.30
823.4310, 27395.00
824.5690, 27317.00
825.7070, 27192.00
826.8460, 27194.00
827.9840, 27211.00
829.1220, 27062.00
830.2590, 27164.00
831.3970, 26961.00
832.5340, 27241.00
833.6710, 27048.00
834.8080, 27026.00
835.9450, 27309.00
837.0820, 27187.00
838.2190, 27089.00
839.3550, 27055.00
840.4910, 26975.00
841.6270, 26932.00
842.7630, 27253.00
843.8990, 27141.00
845.0350, 27140.00
846.1700, 27164.00
847.3060, 26992.00
848.4410, 27270.00
849.5760, 27324.00
850.7100, 27606.00
851.8450, 27514.00
852.9800, 27371.00
854.1140, 27336.00
855.2480, 27639.00
856.3820, 27567.00
857.5160, 27608.00
858.6500, 27872.00
859.7830, 27818.00
860.9170, 27989.00
862.0500, 27779.00
863.1830, 27950.00
864.3160, 28093.00
865.4480, 27950.00
866.5810, 28308.00
867.7130, 28433.00
868.8460, 28524.00
869.9780, 28440.00
871.1100, 28596.00
872.2410, 28785.00
873.3730, 28785.00
874.5050, 28917.00
875.6360, 28861.00
876.7670, 28983.00
877.8980, 29112.00
879.0290, 29252.00
880.1590, 29277.00
881.2900, 29353.00
882.4200, 29537.28
883.5500, 29589.00
884.6800, 29833.00
885.8100, 29996.00
886.9400, 29983.00
888.0690, 30165.00
889.1990, 30546.00
890.3280, 30520.00
891.4570, 30564.00
892.5860, 30835.00
893.7140, 30766.68
894.8430, 31031.93
895.9710, 31259.89
897.1000, 31452.89
898.2280, 31505.44
899.3560, 31739.15
900.4830, 31900.10
901.6110, 31847.00
902.7380, 32141.00
903.8660, 32034.45
904.9930, 32230.39
906.1200, 32389.21
907.2460, 32512.81
908.3730, 32496.21
909.5000, 32660.79
910.6260, 32752.65
911.7520, 32841.55
912.8780, 33031.52
914.0040, 33045.03
915.1290, 33175.46
916.2550, 33268.82
917.3800, 33327.02
918.5050, 33244.91
919.6300, 33343.98
920.7550, 33370.44
921.8800, 33393.93
923.0040, 33518.46
924.1290, 33456.76
925.2530, 33579.68
926.3770, 33447.00
927.5010, 33520.00
928.6250, 33575.00
929.7480, 33629.00
930.8720, 33420.00
931.9950, 33548.00
933.1180, 33417.00
934.2410, 33547.00
935.3640, 33484.00
936.4860, 33449.00
937.6090, 33524.00
938.7310, 33511.00
939.8530, 33529.00
940.9750, 33528.84
942.0970, 33443.30
943.2180, 33463.71
944.3400, 33459.85
945.4610, 33359.06
946.5820, 33383.45
947.7030, 33357.68
948.8240, 33329.84
949.9450, 33371.85
951.0650, 33285.17
952.1860, 33326.07
953.3060, 33316.04
954.4260, 33329.33
955.5460, 33292.14
956.6650, 33270.56
957.7850, 33299.46
958.9040, 33300.40
960.0230, 33257.42
961.1420, 33272.20
962.2610, 33206.01
963.3800, 33176.42
964.4990, 33216.67
965.6170, 33128.24
966.7350, 33167.40
967.8530, 33155.62
968.9710, 33167.16
970.0890, 33128.22
971.2070, 33104.88
972.3240, 33132.03
973.4410, 33131.23
974.5580, 33086.49
975.6750, 33099.52
976.7920, 33009.34
977.9090, 33009.73
979.0250, 33049.21
980.1410, 33110.00
981.2580, 33136.00
982.3740, 33193.00
983.4890, 33232.81
984.6050, 33228.16
985.7200, 33313.00
986.8360, 33233.54
987.9510, 33303.00
989.0660, 33360.00
990.1810, 33422.15
991.2950, 33692.00
992.4100, 33685.00
993.5240, 33885.00
994.6390, 34132.00
995.7530, 34010.00
996.8660, 34231.63
997.9800, 34253.31
999.0940, 34422.00
1000.207, 34424.00
1001.320, 34501.00
1002.433, 34766.00
1003.546, 34817.00
1004.659, 35021.00
1005.772, 35086.00
1006.884, 35172.00
1007.996, 35316.81
1009.108, 35394.00
1010.220, 35502.00
1011.332, 35550.00
1012.444, 35615.00
1013.555, 35606.43
1014.666, 35679.40
1015.777, 35727.09
1016.888, 35693.16
1017.999, 35749.77
1019.110, 35761.02
1020.220, 35764.19
1021.331, 35815.02
1022.441, 35759.64
1023.551, 35796.66
1024.661, 35787.75
1025.770, 35790.45
1026.880, 35747.55
1027.989, 35710.30
1029.098, 35705.72
1030.207, 35673.02
1031.316, 35599.82
1032.425, 35564.93
1033.533, 35443.65
1034.642, 35386.06
1035.750, 35352.36
1036.858, 35248.92
1037.966, 35182.57
1039.073, 35093.28
1040.181, 34922.14
1041.288, 34875.66
1042.396, 34765.98
1043.503, 34591.79
1044.610, 34723.00
1045.716, 34749.00
1046.823, 34653.00
1047.929, 34525.00
1049.036, 34425.00
1050.142, 34327.92
1051.248, 34261.00
1052.353, 34150.00
1053.459, 34078.88
1054.564, 34011.06
1055.670, 33905.00
1056.775, 33889.00
1057.880, 33805.00
1058.985, 33676.00
1060.089, 33634.00
1061.194, 33646.00
1062.298, 33310.00
1063.402, 33448.00
1064.506, 33137.39
1065.610, 32750.00
1066.713, 32704.00
1067.817, 32500.00
1068.920, 32421.00
1070.023, 32315.00
1071.126, 32228.00
1072.229, 31907.00
1073.332, 31871.00
1074.435, 31859.00
1075.537, 31657.00
1076.639, 31883.00
1077.741, 31519.00
1078.843, 31087.00
1079.945, 31211.00
1081.046, 31091.00
1082.148, 31181.00
1083.249, 30797.00
1084.350, 30992.00
1085.451, 30628.00
1086.551, 31125.00
1087.652, 30897.00
1088.752, 30708.00
1089.853, 30658.00
1090.953, 30269.00
1092.053, 30128.00
1093.152, 30466.00
1094.252, 30227.00
1095.351, 29984.00
1096.451, 30005.00
1097.550, 29852.00
1098.649, 29904.00
1099.748, 29872.00
1100.846, 29874.00
1101.945, 29795.75
1103.043, 29518.00
1104.141, 29506.00
1105.239, 29491.00
1106.337, 29159.00
1107.434, 29088.00
1108.532, 29140.00
1109.629, 29254.00
1110.726, 29065.87
1111.823, 28694.00
1112.920, 28757.00
1114.017, 28636.00
1115.113, 28485.00
1116.210, 28631.00
1117.306, 28501.00
1118.402, 28533.00
1119.498, 28340.00
1120.593, 28335.00
1121.689, 28234.00
1122.784, 28260.00
1123.879, 28089.00
1124.974, 27936.00
1126.069, 27970.00
1127.164, 28027.00
1128.259, 27984.00
1129.353, 27935.79
1130.447, 27805.00
1131.541, 27742.00
1132.635, 27660.00
1133.729, 27538.00
1134.822, 27543.00
1135.916, 27544.00
1137.009, 27367.00
1138.102, 27201.00
1139.195, 27371.00
1140.288, 27327.00
1141.380, 27186.00
1142.473, 27222.00
1143.565, 27191.37
1144.657, 27353.00
1145.749, 27249.00
1146.841, 27331.00
1147.932, 27418.00
1149.024, 27369.00
1150.115, 27414.39
1151.206, 27010.00
1152.297, 27312.00
1153.388, 27149.00
1154.479, 26902.00
1155.569, 27104.00
1156.659, 27160.00
1157.750, 26917.00
1158.839, 26991.00
1159.929, 27112.00
1161.019, 27001.00
1162.108, 26936.00
1163.198, 26909.00
1164.287, 27016.00
1165.376, 26939.00
1166.465, 26985.88
1167.553, 27116.00
1168.642, 27035.00
1169.730, 26958.00
1170.818, 27012.00
1171.906, 26940.00
1172.994, 26859.00
1174.082, 26665.00
1175.170, 26851.00
1176.257, 26861.00
1177.344, 27007.00
1178.431, 27057.00
1179.518, 26944.00
1180.605, 26777.00
1181.691, 26726.00
1182.778, 26976.00
1183.864, 26784.00
1184.950, 26919.00
1186.036, 26810.00
1187.122, 26887.00
1188.207, 26896.00
1189.292, 26824.00
1190.378, 26863.00
1191.463, 26804.00
1192.548, 26739.00
1193.632, 26752.00
1194.717, 26535.00
1195.801, 26924.00
1196.886, 27039.00
1197.970, 26681.00
1199.054, 26607.00
1200.137, 26992.00
1201.221, 26668.00
1202.305, 26763.00
1203.388, 26632.00
1204.471, 26671.00
1205.554, 26901.00
1206.637, 26854.00
1207.719, 26737.00
1208.802, 26892.00
1209.884, 26816.00
1210.966, 26864.18
1212.048, 26766.00
1213.130, 26944.00
1214.212, 26828.00
1215.293, 26855.00
1216.374, 26734.00
1217.456, 26760.00
1218.536, 26899.00
1219.617, 26974.00
1220.698, 26828.00
1221.778, 26762.00
1222.859, 26865.00
1223.939, 26804.00
1225.019, 26603.00
1226.099, 26688.00
1227.178, 26687.00
1228.258, 26939.00
1229.337, 26915.00
1230.417, 26770.00
1231.496, 26577.00
1232.574, 26807.00
1233.653, 26793.00
1234.732, 26910.00
1235.810, 26869.00
1236.888, 26903.84
1237.966, 26979.81
1239.044, 27018.67
1240.122, 27022.40
1241.199, 26885.83
1242.277, 26930.44
1243.354, 26902.44
1244.431, 26871.47
1245.508, 26941.58
1246.585, 26825.42
1247.661, 26893.94
1248.738, 26888.73
1249.814, 26917.27
1250.890, 26872.75
1251.966, 26850.80
1253.042, 26901.93
1254.117, 26912.60
1255.193, 26919.00
1256.268, 26905.62
1257.343, 26908.05
1258.418, 26959.00
1259.493, 26885.00
1260.567, 26839.00
1261.642, 26804.00
1262.716, 26877.00
1263.790, 26787.00
1264.864, 26952.00
1265.938, 26799.00
1267.011, 26664.00
1268.085, 27101.00
1269.158, 26955.55
1270.231, 26667.00
1271.304, 27070.00
1272.377, 26894.18
1273.450, 26872.00
1274.522, 26753.00
1275.594, 26714.00
1276.666, 26770.00
1277.738, 26690.00
1278.810, 26810.00
1279.882, 26755.00
1280.953, 26711.00
1282.025, 26752.00
1283.096, 26899.00
1284.167, 27030.00
1285.238, 26903.00
1286.308, 26861.00
1287.379, 26689.00
1288.449, 26980.00
1289.519, 26895.00
1290.589, 26680.00
1291.659, 27021.00
1292.729, 27033.00
1293.798, 27019.00
1294.868, 26948.00
1295.937, 26949.00
1297.006, 26921.41
1298.075, 27202.00
1299.143, 26993.00
1300.212, 26861.00
1301.280, 27102.00
