##NAMES=Edenite
##RRUFFID=R060029
##IDEAL CHEMISTRY=NaCa_2_Mg_5_(Si_7_Al)O_22_(OH)_2_
##LOCALITY=Renfrew County, Ontario, Canada
##OWNER=RRUFF
##SOURCE=University of Arizona Mineral Museum
##DESCRIPTION=Black prismatic
##STATUS=The identification of this mineral has been confirmed by X-ray diffraction and chemical analysis
##URL=rruff.info/R060029
##MEASURED CHEMISTRY=(Na_0.62_K_0.34_[box]_0.04_)(Ca_0.86_Na_0.14_)_2_(Mg_0.57_Fe^2+^_0.30_Fe^3+^_0.07_Al_0.05_Ti_0.01_Mn_0.01_)_5_(Si_6.61_Al_1.39_)O_22_((OH)_0.69_F_0.31_)_2_
##PIN_ID=M00286
##ORIENTATION=Laser parallel to (-1 0 -1). Fiducial mark perpendicular to laser is parallel to b [0 1 0]
131.6680, 21705.01
132.8980, 21835.66
134.1270, 21908.74
135.3560, 22016.00
136.5850, 22222.22
137.8140, 22399.05
139.0430, 22548.08
140.2710, 22585.86
141.5000, 22767.25
142.7280, 22891.03
143.9560, 23012.45
145.1840, 23362.00
146.4120, 24151.00
147.6390, 24869.00
148.8670, 25696.88
150.0940, 26560.89
151.3210, 27471.00
152.5490, 28145.00
153.7750, 28726.00
155.0020, 29031.00
156.2290, 28286.00
157.4550, 27178.00
158.6810, 26217.19
159.9080, 25769.89
161.1340, 25293.63
162.3590, 24736.54
163.5850, 24843.28
164.8110, 24920.63
166.0360, 24970.14
167.2610, 24908.52
168.4860, 24990.40
169.7110, 25014.77
170.9360, 25036.78
172.1610, 25138.85
173.3850, 25093.36
174.6100, 25335.00
175.8340, 25608.00
177.0580, 25875.00
178.2820, 26521.00
179.5050, 26692.00
180.7290, 26591.00
181.9520, 26297.93
183.1760, 26359.08
184.3990, 26390.83
185.6220, 26394.77
186.8450, 26287.59
188.0670, 26323.90
189.2900, 26302.71
190.5120, 26309.00
191.7340, 26446.00
192.9560, 26524.00
194.1780, 26669.00
195.4000, 26850.00
196.6220, 27029.00
197.8430, 27090.00
199.0640, 27247.00
200.2860, 27997.00
201.5070, 28606.00
202.7270, 28691.00
203.9480, 27580.00
205.1690, 25812.00
206.3890, 24876.00
207.6090, 24804.00
208.8290, 25356.00
210.0490, 25710.00
211.2690, 26446.00
212.4890, 27068.00
213.7080, 27876.06
214.9280, 28809.82
216.1470, 29748.00
217.3660, 30769.00
218.5850, 31859.00
219.8030, 32741.00
221.0220, 33498.00
222.2400, 34363.00
223.4590, 34553.00
224.6770, 34588.00
225.8950, 34585.00
227.1120, 34147.00
228.3300, 33741.07
229.5480, 33147.54
230.7650, 32525.17
231.9820, 31874.99
233.1990, 31113.67
234.4160, 30495.86
235.6330, 29820.54
236.8490, 29143.41
238.0660, 28545.79
239.2820, 27905.65
240.4980, 27321.50
241.7140, 26719.00
242.9300, 26176.00
244.1460, 25645.00
245.3610, 25071.00
246.5770, 24839.08
247.7920, 24428.21
249.0070, 24460.00
250.2220, 23960.00
251.4370, 23816.00
252.6510, 23729.84
253.8660, 23546.21
255.0800, 23364.81
256.2940, 23187.02
257.5080, 22929.52
258.7220, 22846.92
259.9360, 22738.22
261.1490, 22658.63
262.3630, 22690.44
263.5760, 22606.13
264.7890, 22699.43
266.0020, 22765.71
267.2150, 22782.00
268.4270, 22716.00
269.6400, 22766.00
270.8520, 22717.00
272.0640, 22930.00
273.2760, 23020.00
274.4880, 23081.00
275.7000, 23242.00
276.9120, 23458.00
278.1230, 23649.00
279.3340, 23787.78
280.5450, 23993.95
281.7560, 24098.00
282.9670, 24343.00
284.1780, 24580.00
285.3880, 24670.90
286.5980, 24817.56
287.8090, 24934.89
289.0190, 25024.34
290.2290, 25002.67
291.4380, 25124.42
292.6480, 25188.73
293.8570, 25185.00
295.0670, 25336.00
296.2760, 25274.00
297.4850, 25272.00
298.6930, 25195.69
299.9020, 25095.00
301.1110, 24959.00
302.3190, 24793.00
303.5270, 24708.00
304.7350, 24386.00
305.9430, 24319.00
307.1510, 24187.00
308.3580, 24128.00
309.5660, 23735.00
310.7730, 23981.00
311.9800, 23632.00
313.1870, 23714.00
314.3940, 23309.00
315.6010, 23374.00
316.8070, 23266.00
318.0130, 23278.00
319.2200, 23033.00
320.4260, 23229.00
321.6310, 22941.00
322.8370, 23006.00
324.0430, 22803.00
325.2480, 22909.00
326.4540, 22741.00
327.6590, 22701.00
328.8640, 22780.00
330.0680, 22666.00
331.2730, 22513.00
332.4780, 22773.00
333.6820, 22781.00
334.8860, 22578.00
336.0900, 22603.00
337.2940, 22612.00
338.4980, 22570.12
339.7010, 22843.00
340.9050, 22663.00
342.1080, 22792.00
343.3110, 22962.00
344.5140, 22865.00
345.7170, 23129.00
346.9200, 23444.00
348.1220, 23293.00
349.3240, 23587.00
350.5270, 23597.00
351.7290, 23937.00
352.9310, 24314.00
354.1320, 24380.00
355.3340, 24905.00
356.5350, 24961.00
357.7370, 24994.84
358.9380, 25121.51
360.1390, 25218.79
361.3400, 25288.25
362.5400, 25246.54
363.7410, 25348.38
364.9410, 25392.65
366.1410, 25377.51
367.3410, 25457.72
368.5410, 25495.06
369.7410, 25491.12
370.9400, 25362.63
372.1400, 25364.14
373.3390, 25294.72
374.5380, 25209.51
375.7370, 25190.91
376.9360, 25011.33
378.1350, 24964.57
379.3330, 24846.09
380.5310, 24740.90
381.7300, 24564.31
382.9280, 24220.00
384.1260, 23939.00
385.3230, 23928.00
386.5210, 23939.00
387.7180, 23587.00
388.9160, 23412.00
390.1130, 23287.00
391.3100, 23181.00
392.5060, 23052.23
393.7030, 22991.00
394.9000, 22875.00
396.0960, 22754.08
397.2920, 22575.00
398.4880, 22532.00
399.6840, 22383.00
400.8800, 22335.00
402.0750, 22340.00
403.2710, 22282.00
404.4660, 22287.00
405.6610, 22004.00
406.8560, 22003.16
408.0510, 22008.74
409.2450, 22006.10
410.4400, 21996.73
411.6340, 21897.38
412.8280, 21962.61
414.0220, 21991.44
415.2160, 22039.01
416.4100, 22187.75
417.6030, 22209.96
418.7970, 22210.00
419.9900, 22442.00
421.1830, 22287.00
422.3760, 22772.00
423.5690, 22606.00
424.7610, 22712.00
425.9540, 23033.00
427.1460, 23066.00
428.3380, 23187.12
429.5300, 23271.00
430.7220, 23316.00
431.9140, 23336.00
433.1050, 23412.00
434.2970, 23389.00
435.4880, 23398.00
436.6790, 23125.00
437.8700, 23067.00
439.0610, 22853.00
440.2510, 22898.00
441.4420, 22837.00
442.6320, 22755.00
443.8220, 22780.00
445.0120, 22723.00
446.2020, 22679.88
447.3910, 22515.22
448.5810, 22567.00
449.7700, 22300.00
450.9600, 22182.00
452.1490, 22479.00
453.3370, 22097.00
454.5260, 22009.00
455.7150, 22187.00
456.9030, 22046.00
458.0910, 21848.00
459.2800, 21986.00
460.4670, 21816.55
461.6550, 21754.00
462.8430, 21685.00
464.0300, 21606.00
465.2180, 21516.00
466.4050, 21402.00
467.5920, 21484.00
468.7790, 21533.00
469.9650, 21487.00
471.1520, 21250.00
472.3380, 21233.00
473.5250, 21216.00
474.7110, 21303.00
475.8970, 21301.00
477.0820, 21406.00
478.2680, 21338.00
479.4540, 21455.00
480.6390, 21298.00
481.8240, 21385.00
483.0090, 21423.00
484.1940, 21359.00
485.3780, 21422.00
486.5630, 21521.00
487.7470, 21735.00
488.9320, 21584.00
490.1160, 21764.00
491.3000, 21766.00
492.4830, 21943.00
493.6670, 22104.00
494.8500, 22234.00
496.0340, 22348.73
497.2170, 22503.30
498.4000, 22650.81
499.5820, 22791.00
500.7650, 22992.00
501.9480, 23150.00
503.1300, 23360.00
504.3120, 23292.00
505.4940, 23707.00
506.6760, 23621.00
507.8580, 23722.00
509.0390, 24076.00
510.2210, 24104.00
511.4020, 24207.00
512.5830, 24386.00
513.7640, 24468.00
514.9450, 24586.00
516.1250, 24735.00
517.3060, 24607.00
518.4860, 24728.00
519.6660, 24925.00
520.8460, 25166.00
522.0260, 25103.00
523.2060, 25320.00
524.3850, 25226.00
525.5650, 25614.00
526.7440, 25738.00
527.9230, 25828.00
529.1020, 26032.00
530.2810, 25920.00
531.4590, 26108.00
532.6380, 26020.00
533.8160, 26015.00
534.9940, 26158.00
536.1720, 26074.00
537.3500, 25728.29
538.5270, 25714.01
539.7050, 25670.26
540.8820, 25598.77
542.0590, 25416.16
543.2360, 25377.04
544.4130, 25280.42
545.5900, 25181.43
546.7660, 25162.58
547.9430, 24996.13
549.1190, 24976.00
550.2950, 24804.00
551.4710, 24764.00
552.6470, 24633.00
553.8220, 24397.00
554.9980, 24400.00
556.1730, 24096.00
557.3480, 24066.71
558.5230, 24008.04
559.6980, 23921.54
560.8730, 23723.94
562.0470, 23669.89
563.2220, 23558.27
564.3960, 23444.37
565.5700, 23410.52
566.7440, 23229.15
567.9170, 23194.12
569.0910, 23100.63
570.2640, 23033.94
571.4380, 22909.30
572.6110, 22802.62
573.7840, 22753.82
574.9570, 22672.97
576.1290, 22541.83
577.3020, 22476.84
578.4740, 22233.00
579.6460, 22129.72
580.8180, 21804.00
581.9900, 21754.00
583.1620, 21513.07
584.3330, 21237.00
585.5040, 21193.00
586.6760, 21158.00
587.8470, 20900.00
589.0180, 20721.00
590.1880, 20505.00
591.3590, 20389.85
592.5290, 20312.56
593.7000, 20192.00
594.8700, 20314.00
596.0400, 20214.00
597.2090, 20361.00
598.3790, 20292.00
599.5490, 20288.00
600.7180, 20583.00
601.8870, 20409.00
603.0560, 20473.00
604.2250, 20397.00
605.3940, 20637.00
606.5620, 20554.00
607.7300, 20575.00
608.8990, 20820.00
610.0670, 20755.00
611.2350, 20640.00
612.4020, 20868.00
613.5700, 20969.00
614.7370, 20967.00
615.9050, 21057.00
617.0720, 21156.02
618.2390, 21239.60
619.4060, 21388.00
620.5720, 21468.00
621.7390, 21600.49
622.9050, 21704.93
624.0710, 21839.00
625.2370, 22077.00
626.4030, 22058.00
627.5690, 22294.00
628.7340, 22524.00
629.9000, 22409.00
631.0650, 22719.00
632.2300, 22697.00
633.3950, 23177.00
634.5600, 23300.85
635.7240, 23418.06
636.8890, 23765.00
638.0530, 23771.00
639.2170, 24048.00
640.3810, 24537.00
641.5450, 24569.00
642.7080, 24841.00
643.8720, 25208.00
645.0350, 25321.00
646.1980, 25885.00
647.3610, 26105.00
648.5240, 26622.00
649.6870, 26876.00
650.8490, 27391.00
652.0120, 27580.00
653.1740, 28339.00
654.3360, 28912.00
655.4980, 29402.00
656.6600, 30510.00
657.8210, 31105.00
658.9830, 32041.00
660.1440, 33046.00
661.3050, 34008.00
662.4660, 35286.00
663.6270, 36248.00
664.7870, 37211.00
665.9480, 38163.00
667.1080, 38749.00
668.2680, 39154.00
669.4280, 38654.00
670.5880, 38475.00
671.7480, 38005.00
672.9070, 37307.00
674.0670, 36467.00
675.2260, 34950.00
676.3850, 33774.00
677.5440, 32675.21
678.7030, 31822.00
679.8610, 30597.00
681.0200, 29845.00
682.1780, 29294.00
683.3360, 28275.95
684.4940, 27718.21
685.6520, 26754.00
686.8090, 26451.00
687.9670, 25985.00
689.1240, 25500.00
690.2810, 25139.53
691.4380, 24730.00
692.5950, 24401.00
693.7520, 24009.00
694.9080, 23809.00
696.0650, 23567.27
697.2210, 23362.16
698.3770, 23285.00
699.5330, 23067.00
700.6880, 23057.00
701.8440, 22963.00
702.9990, 22988.00
704.1550, 22808.00
705.3100, 22705.00
706.4650, 23093.00
707.6190, 22976.00
708.7740, 22975.00
709.9290, 23202.00
711.0830, 23112.00
712.2370, 23054.00
713.3910, 23446.00
714.5450, 23184.00
715.6980, 23293.00
716.8520, 23188.00
718.0050, 23576.00
719.1580, 23362.00
720.3110, 23328.00
721.4640, 23629.00
722.6170, 23495.00
723.7700, 23581.40
724.9220, 23562.82
726.0740, 23616.00
727.2260, 23462.00
728.3780, 23497.00
729.5300, 23528.00
730.6810, 23363.00
731.8330, 23364.00
732.9840, 23401.00
734.1350, 23449.00
735.2860, 23275.76
736.4370, 23257.30
737.5880, 23209.45
738.7380, 23133.86
739.8880, 22947.14
741.0390, 22903.85
742.1890, 22803.12
743.3380, 22700.11
744.4880, 22677.08
745.6380, 22506.53
746.7870, 22482.31
747.9360, 22399.71
749.0850, 22143.00
750.2340, 22085.00
751.3830, 22100.00
752.5310, 21721.90
753.6800, 21785.46
754.8280, 21819.63
755.9760, 21825.98
757.1240, 21721.21
758.2720, 21759.94
759.4190, 21741.16
760.5670, 21720.02
761.7140, 21778.94
762.8610, 21690.34
764.0080, 21747.99
765.1550, 21747.26
766.3020, 21773.25
767.4480, 21768.34
768.5950, 21786.81
769.7410, 21767.00
770.8870, 21791.00
772.0330, 21855.00
773.1780, 21806.00
774.3240, 21772.68
775.4690, 21864.44
776.6140, 21926.81
777.7590, 21961.36
778.9040, 21884.79
780.0490, 21951.71
781.1940, 21961.12
782.3380, 21968.16
783.4820, 22055.25
784.6260, 21933.17
785.7700, 22031.76
786.9140, 22097.52
788.0580, 22132.03
789.2010, 22051.96
790.3450, 22111.96
791.4880, 22111.01
792.6310, 22104.27
793.7730, 22174.15
794.9160, 22093.08
796.0590, 22154.83
797.2010, 22154.77
798.3430, 22178.01
799.4850, 22139.95
800.6270, 22116.35
801.7690, 22147.19
802.9100, 22142.58
804.0520, 22084.16
805.1930, 22088.56
806.3340, 21971.23
807.4750, 21954.30
808.6160, 21978.74
809.7560, 22044.00
810.8970, 22014.00
812.0370, 22059.65
813.1770, 22061.78
814.3170, 22045.00
815.4570, 21983.00
816.5960, 21960.00
817.7360, 21899.20
818.8750, 21755.00
820.0140, 21775.00
821.1530, 21709.00
822.2920, 21643.00
823.4310, 21742.00
824.5690, 21632.00
825.7070, 21637.00
826.8460, 21528.00
827.9840, 21461.00
829.1220, 21465.00
830.2590, 21358.00
831.3970, 21408.00
832.5340, 21394.00
833.6710, 21358.00
834.8080, 21416.00
835.9450, 21308.00
837.0820, 21327.00
838.2190, 21205.00
839.3550, 21398.00
840.4910, 21300.00
841.6270, 21222.00
842.7630, 21317.00
843.8990, 21121.00
845.0350, 21238.00
846.1700, 21341.00
847.3060, 21462.00
848.4410, 21400.00
849.5760, 21557.00
850.7100, 21421.00
851.8450, 21420.00
852.9800, 21505.00
854.1140, 21422.00
855.2480, 21553.00
856.3820, 21684.00
857.5160, 21853.00
858.6500, 21902.43
859.7830, 21913.00
860.9170, 21943.00
862.0500, 22015.00
863.1830, 21896.00
864.3160, 22208.00
865.4480, 22051.00
866.5810, 22260.00
867.7130, 22263.00
868.8460, 22343.00
869.9780, 22454.00
871.1100, 22508.00
872.2410, 22654.00
873.3730, 22474.00
874.5050, 22605.67
875.6360, 22852.00
876.7670, 22655.00
877.8980, 22903.00
879.0290, 22880.00
880.1590, 22896.61
881.2900, 23116.00
882.4200, 22997.00
883.5500, 23001.00
884.6800, 23112.00
885.8100, 23104.40
886.9400, 23225.00
888.0690, 23306.00
889.1990, 23364.00
890.3280, 23589.00
891.4570, 23646.00
892.5860, 23775.34
893.7140, 23918.00
894.8430, 24004.00
895.9710, 24000.00
897.1000, 24120.00
898.2280, 24176.00
899.3560, 24206.00
900.4830, 24324.13
901.6110, 24399.73
902.7380, 24509.00
903.8660, 24625.00
904.9930, 24708.00
906.1200, 24780.01
907.2460, 24840.00
908.3730, 24903.00
909.5000, 24948.03
910.6260, 25030.00
911.7520, 25028.00
912.8780, 25130.00
914.0040, 25226.00
915.1290, 25171.00
916.2550, 25216.00
917.3800, 25278.57
918.5050, 25177.00
919.6300, 25434.00
920.7550, 25523.00
921.8800, 25661.00
923.0040, 25455.00
924.1290, 25550.00
925.2530, 25584.00
926.3770, 25647.00
927.5010, 25501.00
928.6250, 25447.00
929.7480, 25515.00
930.8720, 25328.00
931.9950, 25327.50
933.1180, 25277.28
934.2410, 25214.00
935.3640, 25206.00
936.4860, 25180.00
937.6090, 25203.00
938.7310, 25147.00
939.8530, 25192.00
940.9750, 25125.00
942.0970, 25129.29
943.2180, 25037.24
944.3400, 25077.13
945.4610, 25089.20
946.5820, 24990.15
947.7030, 25034.59
948.8240, 25021.52
949.9450, 25006.10
951.0650, 25070.73
952.1860, 24987.85
953.3060, 25051.21
954.4260, 25056.19
955.5460, 25087.89
956.6650, 25061.73
957.7850, 25053.45
958.9040, 25029.09
960.0230, 25089.76
961.1420, 25121.05
962.2610, 25124.52
963.3800, 25016.87
964.4990, 25052.71
965.6170, 25031.05
966.7350, 25007.03
967.8530, 25063.07
968.9710, 24971.58
970.0890, 25026.35
971.2070, 25022.74
972.3240, 25045.86
973.4410, 25011.11
974.5580, 24994.23
975.6750, 25035.23
976.7920, 24990.18
977.9090, 25073.31
979.0250, 25127.03
980.1410, 25152.93
981.2580, 25067.72
982.3740, 25126.00
983.4890, 25126.75
984.6050, 25125.16
985.7200, 25203.61
986.8360, 25233.71
987.9510, 25285.00
989.0660, 25406.00
990.1810, 25424.08
991.2950, 25605.70
992.4100, 25758.03
993.5240, 25882.44
994.6390, 25895.84
995.7530, 26052.63
996.8660, 26151.81
997.9800, 26248.73
999.0940, 26425.71
1000.207, 26455.06
1001.320, 26630.68
1002.433, 26747.90
1003.546, 26891.86
1004.659, 26990.47
1005.772, 27116.52
1006.884, 27208.27
1007.996, 27182.52
1009.108, 27293.86
1010.220, 27341.30
1011.332, 27379.99
1012.444, 27492.35
1013.555, 27450.76
1014.666, 27549.04
1015.777, 27582.55
1016.888, 27636.40
1017.999, 27626.02
1019.110, 27627.12
1020.220, 27679.72
1021.331, 27693.89
1022.441, 27689.00
1023.551, 27722.00
1024.661, 27703.00
1025.770, 27685.61
1026.880, 27626.00
1027.989, 27620.00
1029.098, 27628.00
1030.207, 27588.00
1031.316, 27591.00
1032.425, 27610.00
1033.533, 27451.00
1034.642, 27590.00
1035.750, 27466.00
1036.858, 27557.00
1037.966, 27440.00
1039.073, 27393.00
1040.181, 27483.00
1041.288, 27326.00
1042.396, 27117.00
1043.503, 27172.00
1044.610, 27213.00
1045.716, 27058.00
1046.823, 27065.00
1047.929, 26992.00
1049.036, 26945.05
1050.142, 26908.37
1051.248, 26881.00
1052.353, 26809.00
1053.459, 26762.00
1054.564, 26710.00
1055.670, 26585.26
1056.775, 26545.74
1057.880, 26476.84
1058.985, 26380.12
1060.089, 26172.38
1061.194, 26108.03
1062.298, 25986.27
1063.402, 25862.16
1064.506, 25818.10
1065.610, 25626.52
1066.713, 25581.29
1067.817, 25477.58
1068.920, 25400.69
1070.023, 25265.95
1071.126, 25149.07
1072.229, 25090.07
1073.332, 24999.02
1074.435, 24818.28
1075.537, 24775.00
1076.639, 24634.00
1077.741, 24668.00
1078.843, 24556.00
1079.945, 24443.00
1081.046, 24433.00
1082.148, 24284.00
1083.249, 24354.00
1084.350, 24112.00
1085.451, 23945.00
1086.551, 23753.00
1087.652, 23729.00
1088.752, 23602.94
1089.853, 23709.00
1090.953, 23565.00
1092.053, 23557.00
1093.152, 23735.00
1094.252, 23611.00
1095.351, 23282.00
1096.451, 23248.00
1097.550, 23251.00
1098.649, 23078.00
1099.748, 23072.00
1100.846, 23107.00
1101.945, 23056.00
1103.043, 22880.00
1104.141, 22790.00
1105.239, 22827.00
1106.337, 22845.00
1107.434, 22576.00
1108.532, 22555.00
1109.629, 22661.00
1110.726, 22405.00
1111.823, 22438.00
1112.920, 22169.00
1114.017, 22153.00
1115.113, 22241.00
1116.210, 21993.00
1117.306, 22005.00
1118.402, 22087.00
1119.498, 22076.00
1120.593, 22058.00
1121.689, 22128.00
1122.784, 22013.60
1123.879, 21986.00
1124.974, 21797.47
1126.069, 21786.00
1127.164, 21635.00
1128.259, 21797.00
1129.353, 21583.00
1130.447, 21578.00
1131.541, 21436.00
1132.635, 21368.00
1133.729, 21320.46
1134.822, 21253.00
1135.916, 21221.00
1137.009, 21191.00
1138.102, 21161.00
1139.195, 21273.00
1140.288, 21067.00
1141.380, 21231.00
1142.473, 21151.00
1143.565, 21055.00
1144.657, 21120.00
1145.749, 21015.00
1146.841, 21038.00
1147.932, 21038.00
1149.024, 20996.00
1150.115, 20994.00
1151.206, 21063.00
1152.297, 20992.00
1153.388, 21041.00
1154.479, 20866.00
1155.569, 20888.00
1156.659, 20817.00
1157.750, 21034.00
1158.839, 20929.00
1159.929, 20889.00
1161.019, 20942.00
1162.108, 20843.83
1163.198, 20897.00
1164.287, 20781.00
1165.376, 20758.00
1166.465, 20806.00
1167.553, 20792.00
1168.642, 20823.00
1169.730, 20833.06
1170.818, 20768.00
1171.906, 20828.00
1172.994, 20746.00
1174.082, 20686.00
1175.170, 20796.00
1176.257, 20674.76
1177.344, 20751.00
1178.431, 20666.00
1179.518, 20519.00
1180.605, 20740.00
1181.691, 20628.00
1182.778, 20606.00
1183.864, 20753.00
1184.950, 20845.00
1186.036, 20542.00
1187.122, 20694.00
1188.207, 20698.00
1189.292, 20766.00
1190.378, 20769.00
1191.463, 20697.00
1192.548, 20860.00
1193.632, 20742.00
1194.717, 20557.00
1195.801, 20612.00
1196.886, 20479.00
1197.970, 20713.00
1199.054, 20664.00
1200.137, 20683.00
1201.221, 20665.00
1202.305, 20663.11
1203.388, 20699.68
1204.471, 20679.00
1205.554, 20708.00
1206.637, 20733.00
1207.719, 20595.00
1208.802, 20707.00
1209.884, 20588.00
1210.966, 20489.00
1212.048, 20623.00
1213.130, 20656.25
1214.212, 20722.67
1215.293, 20759.69
1216.374, 20768.90
1217.456, 20666.99
1218.536, 20708.58
1219.617, 20692.65
1220.698, 20674.37
1221.778, 20736.15
1222.859, 20650.40
1223.939, 20710.91
1225.019, 20713.04
1226.099, 20673.36
1227.178, 20745.11
1228.258, 20787.46
1229.337, 20802.00
1230.417, 20705.42
1231.496, 20752.32
1232.574, 20741.72
1233.653, 20728.76
1234.732, 20795.86
1235.810, 20715.43
1236.888, 20781.26
1237.966, 20788.70
1239.044, 20822.87
1240.122, 20799.17
1241.199, 20793.34
1242.277, 20845.40
1243.354, 20865.40
1244.431, 20773.00
1245.508, 20829.00
1246.585, 20750.00
1247.661, 20768.00
1248.738, 20830.00
1249.814, 20509.00
1250.890, 20809.00
1251.966, 20773.00
1253.042, 20619.00
1254.117, 20802.00
1255.193, 20604.00
1256.268, 20680.00
1257.343, 20575.00
1258.418, 20570.00
1259.493, 20776.00
1260.567, 20862.00
1261.642, 20674.00
1262.716, 20887.00
1263.790, 20692.00
1264.864, 20764.00
1265.938, 20627.00
1267.011, 20798.00
1268.085, 20742.00
1269.158, 20750.00
1270.231, 20623.00
1271.304, 20696.00
1272.377, 20645.00
1273.450, 20628.00
1274.522, 20590.00
1275.594, 20641.00
1276.666, 20601.25
1277.738, 20643.36
1278.810, 20525.00
1279.882, 20669.00
1280.953, 20541.00
1282.025, 20436.00
1283.096, 20603.00
1284.167, 20698.00
1285.238, 20761.00
1286.308, 20826.04
1287.379, 20527.00
1288.449, 20781.00
1289.519, 20733.00
1290.589, 20499.00
1291.659, 20750.00
1292.729, 20665.00
1293.798, 20728.00
1294.868, 20647.00
1295.937, 20581.00
1297.006, 20582.00
1298.075, 20535.93
1299.143, 20721.00
1300.212, 20580.00
1301.280, 20634.00
