##NAMES=Edenite
##RRUFFID=R050415
##IDEAL CHEMISTRY=NaCa_2_Mg_5_(Si_7_Al)O_22_(OH)_2_
##LOCALITY=Mogok, Burma
##OWNER=RRUFF
##SOURCE=Marcus Origlieri
##DESCRIPTION=Transparent pale green water worn fragment
##STATUS=The identification of this mineral has been confirmed by X-ray diffraction and chemical analysis
##URL=rruff.info/R050415
##MEASURED CHEMISTRY=(Na_0.83_K_0.17_)(Ca_1.76_Na_0.24_)_&#931;=2_(Mg_4.54_Al_0.40_Fe^3+^_0.06_)_&#931;=5_(Si_6.74_Al_1.26_)O_22_((OH)_0.52_F_0.48_)_2_
##PIN_ID=L01094
##ORIENTATION=Laser parallel to b* (0 1 0). Fiducial mark perpendicular to laser is parallel to -c [0 0 -1]
93.48000, 8338.000
94.71400, 8729.000
95.94800, 9051.000
97.18200, 9291.000
98.41600, 9712.000
99.64900, 10163.00
100.8830, 10590.00
102.1160, 10894.00
103.3490, 11365.00
104.5820, 12143.00
105.8150, 12915.00
107.0470, 14022.00
108.2800, 14380.68
109.5120, 15511.00
110.7440, 15271.00
111.9760, 15507.00
113.2080, 16008.00
114.4400, 16602.00
115.6710, 16793.00
116.9030, 16968.00
118.1340, 16809.00
119.3650, 16403.00
120.5960, 16031.00
121.8270, 15632.00
123.0580, 15136.00
124.2880, 14427.00
125.5190, 13658.00
126.7490, 13114.00
127.9790, 12638.00
129.2090, 12152.00
130.4390, 11859.00
131.6680, 11595.00
132.8980, 11402.00
134.1270, 11251.70
135.3560, 11105.00
136.5850, 11109.00
137.8140, 11113.00
139.0430, 11173.00
140.2710, 11177.00
141.5000, 11016.00
142.7280, 10959.00
143.9560, 11001.00
145.1840, 10961.00
146.4120, 11079.00
147.6390, 11198.00
148.8670, 11315.00
150.0940, 11386.00
151.3210, 11775.00
152.5490, 11881.00
153.7750, 12207.00
155.0020, 12864.00
156.2290, 13235.00
157.4550, 13684.00
158.6810, 14487.00
159.9080, 15251.00
161.1340, 16268.00
162.3590, 16912.00
163.5850, 17881.00
164.8110, 18330.00
166.0360, 18471.00
167.2610, 18469.00
168.4860, 18222.00
169.7110, 17860.00
170.9360, 17252.00
172.1610, 16638.00
173.3850, 16305.00
174.6100, 16033.00
175.8340, 15731.00
177.0580, 16054.00
178.2820, 15999.00
179.5050, 16101.00
180.7290, 16245.00
181.9520, 16308.00
183.1760, 16233.00
184.3990, 16334.00
185.6220, 16338.00
186.8450, 16215.00
188.0670, 15834.00
189.2900, 15524.00
190.5120, 15296.00
191.7340, 15059.00
192.9560, 14660.00
194.1780, 14430.00
195.4000, 14287.00
196.6220, 14260.00
197.8430, 14083.00
199.0640, 14157.00
200.2860, 14383.00
201.5070, 14444.00
202.7270, 14358.00
203.9480, 14660.00
205.1690, 14638.00
206.3890, 14952.00
207.6090, 15328.00
208.8290, 15584.00
210.0490, 15994.00
211.2690, 16625.00
212.4890, 17159.00
213.7080, 17769.00
214.9280, 18370.00
216.1470, 19075.00
217.3660, 19947.00
218.5850, 20597.00
219.8030, 21522.00
221.0220, 22140.00
222.2400, 22742.00
223.4590, 23258.00
224.6770, 23579.00
225.8950, 24023.00
227.1120, 24068.00
228.3300, 23992.00
229.5480, 23501.00
230.7650, 23199.00
231.9820, 22763.00
233.1990, 22416.00
234.4160, 22066.00
235.6330, 21921.00
236.8490, 21658.00
238.0660, 21420.00
239.2820, 21200.00
240.4980, 21298.00
241.7140, 20689.00
242.9300, 20512.00
244.1460, 20232.00
245.3610, 19747.00
246.5770, 19446.00
247.7920, 19271.00
249.0070, 18765.00
250.2220, 18426.00
251.4370, 17942.00
252.6510, 17606.00
253.8660, 17225.00
255.0800, 16934.00
256.2940, 16480.00
257.5080, 16318.00
258.7220, 15874.07
259.9360, 15860.00
261.1490, 15184.00
262.3630, 14902.00
263.5760, 14754.00
264.7890, 14382.00
266.0020, 14576.00
267.2150, 14205.00
268.4270, 14215.00
269.6400, 14015.00
270.8520, 14033.00
272.0640, 13950.00
273.2760, 14044.00
274.4880, 13979.52
275.7000, 13846.00
276.9120, 13946.00
278.1230, 13901.00
279.3340, 13941.00
280.5450, 13924.00
281.7560, 14003.62
282.9670, 13990.00
284.1780, 14208.00
285.3880, 14308.00
286.5980, 14455.00
287.8090, 14747.00
289.0190, 14781.00
290.2290, 14803.00
291.4380, 15057.00
292.6480, 15126.00
293.8570, 15402.00
295.0670, 15373.00
296.2760, 15529.00
297.4850, 15527.00
298.6930, 15667.00
299.9020, 15939.00
301.1110, 15840.00
302.3190, 16009.00
303.5270, 15954.00
304.7350, 15994.00
305.9430, 16022.00
307.1510, 16068.00
308.3580, 16166.00
309.5660, 16324.00
310.7730, 16545.00
311.9800, 16632.00
313.1870, 16794.00
314.3940, 17133.00
315.6010, 17232.00
316.8070, 17581.00
318.0130, 17761.00
319.2200, 17714.00
320.4260, 17723.00
321.6310, 17691.76
322.8370, 17730.00
324.0430, 17505.00
325.2480, 17406.00
326.4540, 17272.00
327.6590, 16984.00
328.8640, 16976.00
330.0680, 16741.00
331.2730, 16452.00
332.4780, 16517.00
333.6820, 16157.00
334.8860, 16348.00
336.0900, 16077.00
337.2940, 16069.00
338.4980, 15927.00
339.7010, 16032.00
340.9050, 15906.18
342.1080, 16059.00
343.3110, 15838.00
344.5140, 15740.00
345.7170, 15888.00
346.9200, 15907.00
348.1220, 15724.00
349.3240, 15803.00
350.5270, 15937.00
351.7290, 15927.00
352.9310, 16076.00
354.1320, 15858.00
355.3340, 16311.00
356.5350, 16276.00
357.7370, 16546.00
358.9380, 16359.00
360.1390, 16807.00
361.3400, 16858.00
362.5400, 17042.00
363.7410, 17228.00
364.9410, 17509.00
366.1410, 17844.00
367.3410, 17871.00
368.5410, 18076.00
369.7410, 18155.00
370.9400, 18425.00
372.1400, 18537.00
373.3390, 18646.59
374.5380, 18736.00
375.7370, 18846.00
376.9360, 18940.00
378.1350, 19062.00
379.3330, 19217.05
380.5310, 19372.00
381.7300, 19540.00
382.9280, 19716.00
384.1260, 19851.00
385.3230, 20044.00
386.5210, 20404.00
387.7180, 20613.00
388.9160, 20689.00
390.1130, 20871.00
391.3100, 20949.00
392.5060, 20797.00
393.7030, 20586.00
394.9000, 20419.00
396.0960, 20039.00
397.2920, 19698.00
398.4880, 19317.00
399.6840, 18973.00
400.8800, 18413.00
402.0750, 17977.00
403.2710, 17738.00
404.4660, 17525.00
405.6610, 17346.00
406.8560, 17197.00
408.0510, 17036.00
409.2450, 16881.00
410.4400, 16844.00
411.6340, 16771.00
412.8280, 16898.00
414.0220, 16689.00
415.2160, 16872.00
416.4100, 16631.00
417.6030, 16701.00
418.7970, 16989.00
419.9900, 16805.00
421.1830, 16937.00
422.3760, 16780.00
423.5690, 16734.00
424.7610, 16786.00
425.9540, 16850.00
427.1460, 16577.00
428.3380, 16716.00
429.5300, 16607.00
430.7220, 16223.00
431.9140, 16404.00
433.1050, 16285.00
434.2970, 15882.00
435.4880, 15909.00
436.6790, 15910.00
437.8700, 15772.00
439.0610, 15543.00
440.2510, 15278.00
441.4420, 15307.00
442.6320, 15355.00
443.8220, 15135.00
445.0120, 15124.00
446.2020, 15148.00
447.3910, 15036.00
448.5810, 15023.00
449.7700, 14979.00
450.9600, 15032.00
452.1490, 14901.00
453.3370, 15005.00
454.5260, 15089.00
455.7150, 14993.00
456.9030, 14936.00
458.0910, 14887.00
459.2800, 15095.00
460.4670, 15071.00
461.6550, 15198.00
462.8430, 15093.00
464.0300, 14954.00
465.2180, 15172.00
466.4050, 15133.00
467.5920, 15172.00
468.7790, 14952.00
469.9650, 15076.00
471.1520, 15031.00
472.3380, 14995.00
473.5250, 15067.00
474.7110, 15180.00
475.8970, 15086.00
477.0820, 15178.00
478.2680, 15179.00
479.4540, 15176.00
480.6390, 15189.00
481.8240, 15068.00
483.0090, 15251.00
484.1940, 15395.00
485.3780, 15403.00
486.5630, 15371.00
487.7470, 15367.00
488.9320, 15339.00
490.1160, 15420.00
491.3000, 15560.00
492.4830, 15353.00
493.6670, 15480.00
494.8500, 15535.00
496.0340, 15283.00
497.2170, 15472.00
498.4000, 15620.00
499.5820, 15682.00
500.7650, 15553.00
501.9480, 15610.00
503.1300, 15695.00
504.3120, 16002.00
505.4940, 15788.00
506.6760, 16152.00
507.8580, 16075.00
509.0390, 16237.00
510.2210, 16282.00
511.4020, 16143.00
512.5830, 16415.00
513.7640, 16606.00
514.9450, 16616.00
516.1250, 16666.00
517.3060, 16575.00
518.4860, 16639.00
519.6660, 16762.00
520.8460, 16527.00
522.0260, 16697.00
523.2060, 16576.00
524.3850, 16793.00
525.5650, 16755.00
526.7440, 16601.00
527.9230, 16715.00
529.1020, 16684.00
530.2810, 16818.00
531.4590, 16669.00
532.6380, 16668.00
533.8160, 16885.00
534.9940, 16824.00
536.1720, 16758.00
537.3500, 16783.00
538.5270, 16716.25
539.7050, 16660.00
540.8820, 16661.00
542.0590, 16706.00
543.2360, 16716.00
544.4130, 16632.00
545.5900, 16476.00
546.7660, 16495.45
547.9430, 16601.00
549.1190, 16471.00
550.2950, 16537.00
551.4710, 16589.00
552.6470, 16436.00
553.8220, 16601.00
554.9980, 16402.00
556.1730, 16496.00
557.3480, 16500.00
558.5230, 16581.00
559.6980, 16702.00
560.8730, 16595.00
562.0470, 16840.00
563.2220, 16494.00
564.3960, 16360.00
565.5700, 16684.00
566.7440, 16568.00
567.9170, 16616.00
569.0910, 16558.00
570.2640, 16800.00
571.4380, 16745.00
572.6110, 16767.00
573.7840, 16851.00
574.9570, 16660.00
576.1290, 16704.00
577.3020, 16749.00
578.4740, 16800.00
579.6460, 16644.00
580.8180, 16909.00
581.9900, 16675.00
583.1620, 16958.00
584.3330, 16844.00
585.5040, 16904.00
586.6760, 16837.00
587.8470, 16724.00
589.0180, 16933.00
590.1880, 17058.00
591.3590, 16789.00
592.5290, 16827.00
593.7000, 16952.00
594.8700, 17029.00
596.0400, 17133.00
597.2090, 17090.00
598.3790, 17285.00
599.5490, 17168.00
600.7180, 17298.00
601.8870, 17114.00
603.0560, 17380.00
604.2250, 17353.00
605.3940, 17491.00
606.5620, 17563.00
607.7300, 17550.00
608.8990, 17820.00
610.0670, 17903.00
611.2350, 17743.00
612.4020, 17887.00
613.5700, 18094.00
614.7370, 18261.00
615.9050, 18159.00
617.0720, 18408.00
618.2390, 18446.00
619.4060, 18557.00
620.5720, 18699.00
621.7390, 18806.00
622.9050, 18856.00
624.0710, 19102.00
625.2370, 19212.00
626.4030, 19464.00
627.5690, 19713.00
628.7340, 19903.00
629.9000, 20157.00
631.0650, 20392.15
632.2300, 20640.00
633.3950, 20899.00
634.5600, 21208.76
635.7240, 21513.22
636.8890, 21825.00
638.0530, 22154.00
639.2170, 22386.00
640.3810, 22645.00
641.5450, 23285.00
642.7080, 23618.00
643.8720, 24142.00
645.0350, 24602.00
646.1980, 25132.00
647.3610, 25832.00
648.5240, 26309.00
649.6870, 27073.00
650.8490, 27729.00
652.0120, 28576.00
653.1740, 29613.00
654.3360, 30163.00
655.4980, 31346.00
656.6600, 32446.00
657.8210, 33652.00
658.9830, 35164.00
660.1440, 36751.00
661.3050, 38699.00
662.4660, 40591.00
663.6270, 43068.00
664.7870, 45406.00
665.9480, 48241.00
667.1080, 50863.00
668.2680, 53628.00
669.4280, 55958.00
670.5880, 58044.00
671.7480, 59823.00
672.9070, 60588.00
674.0670, 61279.00
675.2260, 60767.00
676.3850, 59730.00
677.5440, 57731.00
678.7030, 55607.00
679.8610, 52331.00
681.0200, 49547.00
682.1780, 46402.00
683.3360, 43679.00
684.4940, 40545.00
685.6520, 38081.00
686.8090, 35984.00
687.9670, 34035.00
689.1240, 32233.00
690.2810, 30565.00
691.4380, 29544.00
692.5950, 28408.00
693.7520, 27446.00
694.9080, 26525.00
696.0650, 25883.00
697.2210, 25004.00
698.3770, 24648.00
699.5330, 23938.00
700.6880, 23598.00
701.8440, 23132.00
702.9990, 22732.00
704.1550, 22387.00
705.3100, 22055.00
706.4650, 21659.00
707.6190, 21593.00
708.7740, 21311.00
709.9290, 21197.00
711.0830, 20911.00
712.2370, 20698.00
713.3910, 20755.00
714.5450, 20598.00
715.6980, 20518.00
716.8520, 20612.00
718.0050, 20645.00
719.1580, 20552.00
720.3110, 20526.00
721.4640, 20610.00
722.6170, 20431.00
723.7700, 20568.00
724.9220, 20458.00
726.0740, 20510.00
727.2260, 20432.00
728.3780, 20315.00
729.5300, 20355.00
730.6810, 20186.00
731.8330, 19948.00
732.9840, 20154.00
734.1350, 20180.00
735.2860, 19845.00
736.4370, 19965.00
737.5880, 20038.00
738.7380, 19799.00
739.8880, 19633.00
741.0390, 19739.00
742.1890, 19642.00
743.3380, 19738.00
744.4880, 19560.00
745.6380, 19687.00
746.7870, 19637.00
747.9360, 19546.00
749.0850, 19559.00
750.2340, 19416.00
751.3830, 19457.00
752.5310, 19436.00
753.6800, 19439.00
754.8280, 19494.00
755.9760, 19512.00
757.1240, 19515.00
758.2720, 19571.00
759.4190, 19589.00
760.5670, 19587.64
761.7140, 19573.00
762.8610, 19580.00
764.0080, 19653.00
765.1550, 19660.82
766.3020, 19574.00
767.4480, 19646.00
768.5950, 19550.00
769.7410, 19590.00
770.8870, 19684.00
772.0330, 19637.00
773.1780, 19604.00
774.3240, 19598.00
775.4690, 19687.00
776.6140, 19924.00
777.7590, 19804.00
778.9040, 19973.00
780.0490, 19738.00
781.1940, 19963.00
782.3380, 19836.00
783.4820, 19706.00
784.6260, 19764.00
785.7700, 19922.00
786.9140, 20031.00
788.0580, 20172.00
789.2010, 20079.00
790.3450, 19978.00
791.4880, 20075.00
792.6310, 20175.00
793.7730, 20267.00
794.9160, 20160.00
796.0590, 20148.00
797.2010, 20187.00
798.3430, 20273.00
799.4850, 20206.00
800.6270, 20209.45
801.7690, 20373.00
802.9100, 20175.00
804.0520, 20277.00
805.1930, 20404.00
806.3340, 20468.00
807.4750, 20548.00
808.6160, 20322.00
809.7560, 20396.00
810.8970, 20401.00
812.0370, 20548.00
813.1770, 20532.00
814.3170, 20530.00
815.4570, 20412.00
816.5960, 20405.00
817.7360, 20580.00
818.8750, 20570.00
820.0140, 20648.00
821.1530, 20539.00
822.2920, 20604.00
823.4310, 20647.00
824.5690, 20773.00
825.7070, 20863.00
826.8460, 21000.00
827.9840, 21039.46
829.1220, 20909.00
830.2590, 21072.00
831.3970, 21037.00
832.5340, 20952.00
833.6710, 21057.00
834.8080, 21029.00
835.9450, 20928.00
837.0820, 21023.00
838.2190, 21020.00
839.3550, 21098.00
840.4910, 20803.00
841.6270, 20962.58
842.7630, 20945.35
843.8990, 21070.00
845.0350, 21063.00
846.1700, 21089.00
847.3060, 21132.00
848.4410, 21242.00
849.5760, 21240.00
850.7100, 21217.00
851.8450, 21411.00
852.9800, 21412.00
854.1140, 21394.00
855.2480, 21407.00
856.3820, 21430.00
857.5160, 21529.00
858.6500, 21414.00
859.7830, 21476.00
860.9170, 21680.00
862.0500, 21513.00
863.1830, 21578.00
864.3160, 21441.00
865.4480, 21920.00
866.5810, 21845.00
867.7130, 21817.00
868.8460, 21961.00
869.9780, 21921.00
871.1100, 22054.00
872.2410, 21998.00
873.3730, 22004.00
874.5050, 22178.00
875.6360, 22187.00
876.7670, 22381.00
877.8980, 22470.00
879.0290, 22570.00
880.1590, 22780.00
881.2900, 22735.00
882.4200, 23003.00
883.5500, 23016.00
884.6800, 23346.00
885.8100, 23422.00
886.9400, 23679.00
888.0690, 23687.00
889.1990, 23643.00
890.3280, 24074.00
891.4570, 24102.00
892.5860, 24151.00
893.7140, 24235.00
894.8430, 24285.54
895.9710, 24368.57
897.1000, 24428.00
898.2280, 24528.00
899.3560, 24604.00
900.4830, 24672.52
901.6110, 24948.00
902.7380, 24888.00
903.8660, 25207.00
904.9930, 25346.00
906.1200, 25620.00
907.2460, 25788.00
908.3730, 26004.00
909.5000, 26146.00
910.6260, 26379.00
911.7520, 26670.00
912.8780, 26878.00
914.0040, 26941.00
915.1290, 27169.00
916.2550, 27251.00
917.3800, 27494.00
918.5050, 27655.00
919.6300, 27669.00
920.7550, 27699.00
921.8800, 27922.00
923.0040, 27843.00
924.1290, 27589.00
925.2530, 27884.00
926.3770, 27685.00
927.5010, 27416.00
928.6250, 27351.00
929.7480, 27126.92
930.8720, 27205.00
931.9950, 26803.00
933.1180, 26953.00
934.2410, 26836.00
935.3640, 26788.00
936.4860, 26425.00
937.6090, 26459.00
938.7310, 26387.00
939.8530, 26283.00
940.9750, 26355.00
942.0970, 26536.00
943.2180, 26208.00
944.3400, 26326.00
945.4610, 26133.00
946.5820, 26113.00
947.7030, 26058.00
948.8240, 25956.00
949.9450, 26178.00
951.0650, 26167.00
952.1860, 26231.00
953.3060, 26217.00
954.4260, 26010.00
955.5460, 26156.00
956.6650, 26275.00
957.7850, 26159.00
958.9040, 25790.00
960.0230, 26081.00
961.1420, 25856.00
962.2610, 26219.00
963.3800, 26091.00
964.4990, 26105.00
965.6170, 26125.00
966.7350, 26050.00
967.8530, 26154.00
968.9710, 26168.00
970.0890, 26307.00
971.2070, 26201.00
972.3240, 26280.00
973.4410, 26241.65
974.5580, 26196.00
975.6750, 26207.00
976.7920, 26217.00
977.9090, 26314.00
979.0250, 26284.00
980.1410, 26323.00
981.2580, 26494.00
982.3740, 26556.00
983.4890, 26692.00
984.6050, 26712.00
985.7200, 26613.00
986.8360, 26881.00
987.9510, 27032.00
989.0660, 26923.00
990.1810, 26940.00
991.2950, 27228.00
992.4100, 27155.00
993.5240, 27307.00
994.6390, 27507.00
995.7530, 27961.00
996.8660, 27874.00
997.9800, 28336.00
999.0940, 28317.00
1000.207, 28637.00
1001.320, 28948.00
1002.433, 29099.00
1003.546, 29087.00
1004.659, 29509.00
1005.772, 29480.00
1006.884, 29561.00
1007.996, 29754.00
1009.108, 29909.00
1010.220, 30007.00
1011.332, 30363.00
1012.444, 30218.00
1013.555, 30711.00
1014.666, 30678.00
1015.777, 30538.00
1016.888, 30666.00
1017.999, 30908.00
1019.110, 31061.00
1020.220, 31014.00
1021.331, 30838.00
1022.441, 30982.00
1023.551, 31188.00
1024.661, 31059.00
1025.770, 31252.00
1026.880, 31277.00
1027.989, 31352.00
1029.098, 31560.00
1030.207, 31471.00
1031.316, 31417.00
1032.425, 31518.00
1033.533, 31569.29
1034.642, 31935.00
1035.750, 31900.00
1036.858, 32092.00
1037.966, 32398.00
1039.073, 32537.00
1040.181, 32398.00
1041.288, 32754.00
1042.396, 32698.00
1043.503, 32848.00
1044.610, 32830.00
1045.716, 32991.00
1046.823, 32841.00
1047.929, 33000.00
1049.036, 32905.00
1050.142, 33275.00
1051.248, 33119.00
1052.353, 33199.00
1053.459, 33556.00
1054.564, 33491.00
1055.670, 33730.00
1056.775, 33859.00
1057.880, 34054.00
1058.985, 34230.52
1060.089, 34456.00
1061.194, 34487.00
1062.298, 34479.00
1063.402, 34412.00
1064.506, 34527.00
1065.610, 34713.00
1066.713, 34634.00
1067.817, 34308.00
1068.920, 34376.00
1070.023, 33762.00
1071.126, 33415.00
1072.229, 33343.00
1073.332, 32864.00
1074.435, 32359.00
1075.537, 32033.00
1076.639, 31815.00
1077.741, 31671.00
1078.843, 31129.00
1079.945, 31439.00
1081.046, 30212.00
1082.148, 30016.00
1083.249, 29955.00
1084.350, 29393.00
1085.451, 29123.00
1086.551, 28989.00
1087.652, 28737.00
1088.752, 28776.00
1089.853, 28538.00
1090.953, 28432.00
1092.053, 28422.00
1093.152, 28304.00
1094.252, 28188.00
1095.351, 28139.75
1096.451, 28068.12
1097.550, 28009.00
1098.649, 28012.00
1099.748, 27993.00
1100.846, 28019.00
1101.945, 27899.00
1103.043, 28124.00
1104.141, 28108.00
1105.239, 28131.00
1106.337, 27960.00
1107.434, 27920.00
1108.532, 28178.00
1109.629, 27969.00
1110.726, 27862.00
1111.823, 28113.00
1112.920, 28039.00
1114.017, 27863.00
1115.113, 28115.00
1116.210, 28148.00
1117.306, 28256.00
1118.402, 28372.38
1119.498, 28642.00
1120.593, 28596.00
1121.689, 28752.00
1122.784, 28999.00
1123.879, 28947.00
1124.974, 28789.00
1126.069, 28363.00
1127.164, 28691.00
1128.259, 28329.00
1129.353, 28304.00
1130.447, 28223.00
1131.541, 28355.00
1132.635, 28070.00
1133.729, 28425.00
1134.822, 28222.00
1135.916, 28382.00
1137.009, 28472.00
1138.102, 28386.00
1139.195, 28130.00
1140.288, 28220.00
1141.380, 28266.00
1142.473, 28045.00
1143.565, 28495.00
1144.657, 28471.00
1145.749, 28319.00
1146.841, 28288.00
1147.932, 28313.00
1149.024, 28450.00
1150.115, 28466.00
1151.206, 28491.00
1152.297, 28625.00
1153.388, 28575.27
1154.479, 28564.00
1155.569, 28588.00
1156.659, 28614.00
1157.750, 28619.69
1158.839, 28660.86
1159.929, 28639.00
1161.019, 28714.00
1162.108, 28702.00
1163.198, 28683.00
1164.287, 28778.00
1165.376, 28986.00
1166.465, 28778.00
1167.553, 29037.00
1168.642, 28900.00
1169.730, 29199.00
1170.818, 28970.00
1171.906, 28941.00
1172.994, 29076.00
1174.082, 29058.00
1175.170, 29144.00
1176.257, 29040.00
1177.344, 29158.00
1178.431, 29241.00
1179.518, 29197.00
1180.605, 29378.00
1181.691, 29331.00
1182.778, 29281.00
1183.864, 29367.00
1184.950, 29416.00
1186.036, 29263.00
1187.122, 29439.00
1188.207, 29423.74
1189.292, 29299.00
1190.378, 29526.00
1191.463, 29503.00
1192.548, 29524.00
1193.632, 29723.00
1194.717, 29652.00
1195.801, 29721.00
1196.886, 29734.00
1197.970, 29795.00
1199.054, 29817.89
1200.137, 29928.00
1201.221, 29816.00
1202.305, 29846.00
1203.388, 29742.00
1204.471, 29991.00
1205.554, 30199.00
1206.637, 29928.00
1207.719, 29932.00
1208.802, 30354.00
1209.884, 30389.00
1210.966, 30201.00
1212.048, 30297.00
1213.130, 30548.00
1214.212, 30301.00
1215.293, 30413.00
1216.374, 30539.00
1217.456, 30469.00
1218.536, 30484.00
1219.617, 30667.00
1220.698, 30764.00
1221.778, 30691.00
1222.859, 30713.00
1223.939, 30756.56
1225.019, 30584.00
1226.099, 30791.00
1227.178, 30907.00
1228.258, 30847.00
1229.337, 30800.00
1230.417, 31029.00
1231.496, 30853.00
1232.574, 31076.00
1233.653, 31118.00
1234.732, 31160.00
1235.810, 31289.00
1236.888, 31010.00
1237.966, 31168.00
1239.044, 31171.00
1240.122, 31139.00
1241.199, 31400.00
1242.277, 31380.00
1243.354, 31575.00
1244.431, 31445.00
1245.508, 31664.00
1246.585, 31505.00
1247.661, 31460.00
1248.738, 31763.00
1249.814, 32001.00
1250.890, 31477.00
1251.966, 31777.00
1253.042, 31665.00
1254.117, 31912.00
1255.193, 31967.00
1256.268, 31759.00
1257.343, 32072.00
1258.418, 32072.00
1259.493, 31995.00
1260.567, 31784.00
1261.642, 32278.00
1262.716, 32121.00
1263.790, 32150.00
1264.864, 32481.00
1265.938, 32265.00
1267.011, 32029.00
1268.085, 32329.00
1269.158, 32368.00
1270.231, 32287.00
