##NAMES=Edenite
##RRUFFID=R050415
##IDEAL CHEMISTRY=NaCa_2_Mg_5_(Si_7_Al)O_22_(OH)_2_
##LOCALITY=Mogok, Burma
##OWNER=RRUFF
##SOURCE=Marcus Origlieri
##DESCRIPTION=Transparent pale green water worn fragment
##STATUS=The identification of this mineral has been confirmed by X-ray diffraction and chemical analysis
##URL=rruff.info/R050415
##MEASURED CHEMISTRY=(Na_0.83_K_0.17_)(Ca_1.76_Na_0.24_)_&#931;=2_(Mg_4.54_Al_0.40_Fe^3+^_0.06_)_&#931;=5_(Si_6.74_Al_1.26_)O_22_((OH)_0.52_F_0.48_)_2_
##PIN_ID=L01128
##ORIENTATION=Laser parallel to -c* (0 0 -1). Fiducial mark perpendicular to laser is parallel to -a [-1 0 0]
100.8830, 6266.000
102.1160, 6437.000
103.3490, 6453.000
104.5820, 6975.000
105.8150, 7327.000
107.0470, 8141.000
108.2800, 8951.000
109.5120, 8366.000
110.7440, 8043.000
111.9760, 8189.000
113.2080, 8615.000
114.4400, 9363.000
115.6710, 9743.000
116.9030, 10399.00
118.1340, 11150.00
119.3650, 11909.00
120.5960, 12723.00
121.8270, 13295.00
123.0580, 13545.00
124.2880, 13085.00
125.5190, 12182.00
126.7490, 11314.00
127.9790, 10450.00
129.2090, 9940.000
130.4390, 9256.000
131.6680, 8918.000
132.8980, 8590.000
134.1270, 8383.000
135.3560, 8288.000
136.5850, 8372.000
137.8140, 8431.000
139.0430, 8405.000
140.2710, 8286.000
141.5000, 8217.000
142.7280, 8225.000
143.9560, 8269.000
145.1840, 8234.000
146.4120, 8373.000
147.6390, 8334.000
148.8670, 8497.000
150.0940, 8570.000
151.3210, 8858.000
152.5490, 8958.000
153.7750, 8909.000
155.0020, 9264.000
156.2290, 9463.000
157.4550, 9708.000
158.6810, 10301.00
159.9080, 10974.00
161.1340, 11473.00
162.3590, 12678.00
163.5850, 13824.00
164.8110, 15415.00
166.0360, 16480.00
167.2610, 17198.00
168.4860, 17085.00
169.7110, 16493.00
170.9360, 15703.00
172.1610, 14762.00
173.3850, 14060.00
174.6100, 13630.00
175.8340, 13670.00
177.0580, 13303.25
178.2820, 13692.00
179.5050, 13150.00
180.7290, 13193.00
181.9520, 13203.00
183.1760, 13571.00
184.3990, 13637.00
185.6220, 13554.00
186.8450, 13534.00
188.0670, 13010.00
189.2900, 12862.00
190.5120, 12548.00
191.7340, 12147.00
192.9560, 11876.00
194.1780, 11616.00
195.4000, 11452.71
196.6220, 11321.00
197.8430, 11313.00
199.0640, 11354.00
200.2860, 11435.00
201.5070, 11536.00
202.7270, 11637.00
203.9480, 11691.00
205.1690, 11954.00
206.3890, 12131.00
207.6090, 12517.00
208.8290, 12783.00
210.0490, 13342.00
211.2690, 13789.00
212.4890, 14402.00
213.7080, 15127.00
214.9280, 15679.00
216.1470, 16414.00
217.3660, 17450.00
218.5850, 18322.00
219.8030, 19426.00
221.0220, 20629.00
222.2400, 22081.00
223.4590, 23419.00
224.6770, 24861.00
225.8950, 26144.00
227.1120, 26609.00
228.3300, 26979.00
229.5480, 26734.00
230.7650, 26092.00
231.9820, 25286.00
233.1990, 24344.00
234.4160, 23750.00
235.6330, 23320.00
236.8490, 22937.00
238.0660, 22741.00
239.2820, 22422.00
240.4980, 22042.00
241.7140, 21702.00
242.9300, 21077.00
244.1460, 20150.00
245.3610, 19563.00
246.5770, 18782.00
247.7920, 18287.00
249.0070, 17661.00
250.2220, 17373.00
251.4370, 17029.00
252.6510, 16141.00
253.8660, 15957.00
255.0800, 15555.00
256.2940, 15220.00
257.5080, 14976.00
258.7220, 14453.10
259.9360, 14133.00
261.1490, 13455.00
262.3630, 12845.00
263.5760, 12300.00
264.7890, 12179.00
266.0020, 11828.00
267.2150, 11423.00
268.4270, 11241.00
269.6400, 10995.00
270.8520, 11011.00
272.0640, 10778.00
273.2760, 10796.00
274.4880, 10727.00
275.7000, 10564.00
276.9120, 10595.00
278.1230, 10582.00
279.3340, 10530.00
280.5450, 10528.00
281.7560, 10585.00
282.9670, 10589.57
284.1780, 10714.00
285.3880, 10669.00
286.5980, 10775.00
287.8090, 10802.00
289.0190, 10909.00
290.2290, 10908.00
291.4380, 11081.00
292.6480, 11121.00
293.8570, 11227.00
295.0670, 11381.73
296.2760, 11539.00
297.4850, 11664.00
298.6930, 11766.00
299.9020, 11868.00
301.1110, 11754.00
302.3190, 12081.00
303.5270, 12031.00
304.7350, 12317.00
305.9430, 12051.00
307.1510, 12339.00
308.3580, 12508.00
309.5660, 12495.00
310.7730, 12720.00
311.9800, 12840.00
313.1870, 13137.00
314.3940, 13465.00
315.6010, 13890.00
316.8070, 14159.00
318.0130, 14411.00
319.2200, 14524.00
320.4260, 14801.00
321.6310, 14778.00
322.8370, 14644.00
324.0430, 14405.00
325.2480, 14377.00
326.4540, 14026.00
327.6590, 13774.00
328.8640, 13661.00
330.0680, 13331.00
331.2730, 13270.00
332.4780, 13194.00
333.6820, 12934.00
334.8860, 13026.00
336.0900, 13034.00
337.2940, 12854.00
338.4980, 12758.00
339.7010, 12907.00
340.9050, 12812.00
342.1080, 12864.00
343.3110, 12938.00
344.5140, 13024.00
345.7170, 13207.00
346.9200, 13188.00
348.1220, 13258.00
349.3240, 13496.00
350.5270, 13506.00
351.7290, 13667.00
352.9310, 13886.00
354.1320, 13954.00
355.3340, 14153.00
356.5350, 14173.00
357.7370, 14333.00
358.9380, 14336.00
360.1390, 14526.00
361.3400, 14778.00
362.5400, 14682.00
363.7410, 14731.00
364.9410, 14975.00
366.1410, 15084.00
367.3410, 15238.00
368.5410, 15276.00
369.7410, 15511.00
370.9400, 15709.00
372.1400, 15778.00
373.3390, 15856.00
374.5380, 15861.96
375.7370, 15791.00
376.9360, 15749.00
378.1350, 15720.00
379.3330, 15601.22
380.5310, 15496.00
381.7300, 15482.00
382.9280, 15442.00
384.1260, 15364.00
385.3230, 15295.00
386.5210, 15394.00
387.7180, 15490.00
388.9160, 15538.00
390.1130, 15692.00
391.3100, 15784.00
392.5060, 15657.00
393.7030, 15762.00
394.9000, 15676.00
396.0960, 15686.00
397.2920, 15243.00
398.4880, 14835.00
399.6840, 14743.00
400.8800, 14249.00
402.0750, 13869.00
403.2710, 13663.00
404.4660, 13342.00
405.6610, 13119.00
406.8560, 12958.00
408.0510, 12800.00
409.2450, 12712.00
410.4400, 12579.00
411.6340, 12514.00
412.8280, 12607.00
414.0220, 12350.00
415.2160, 12482.00
416.4100, 12654.00
417.6030, 12494.00
418.7970, 12418.00
419.9900, 12554.00
421.1830, 12705.00
422.3760, 12658.00
423.5690, 12684.00
424.7610, 12769.00
425.9540, 12772.00
427.1460, 12755.00
428.3380, 12749.00
429.5300, 12633.00
430.7220, 12535.00
431.9140, 12347.00
433.1050, 12307.00
434.2970, 12232.00
435.4880, 12130.00
436.6790, 11935.00
437.8700, 11685.00
439.0610, 11878.00
440.2510, 11505.00
441.4420, 11530.00
442.6320, 11262.00
443.8220, 11296.00
445.0120, 11246.00
446.2020, 11138.00
447.3910, 11016.00
448.5810, 10987.00
449.7700, 10919.54
450.9600, 10880.77
452.1490, 10885.00
453.3370, 10846.00
454.5260, 10886.00
455.7150, 10899.00
456.9030, 10887.00
458.0910, 10931.00
459.2800, 10900.00
460.4670, 11044.00
461.6550, 10844.00
462.8430, 10779.00
464.0300, 10868.00
465.2180, 10873.00
466.4050, 10946.00
467.5920, 10998.00
468.7790, 11013.00
469.9650, 10950.00
471.1520, 10852.00
472.3380, 10850.00
473.5250, 10841.63
474.7110, 10816.00
475.8970, 10921.00
477.0820, 10868.00
478.2680, 10956.00
479.4540, 11003.00
480.6390, 11074.00
481.8240, 11131.00
483.0090, 11167.00
484.1940, 11207.00
485.3780, 11204.00
486.5630, 11200.00
487.7470, 11263.00
488.9320, 11211.00
490.1160, 11343.00
491.3000, 11194.00
492.4830, 11277.00
493.6670, 11505.00
494.8500, 11437.00
496.0340, 11503.00
497.2170, 11546.00
498.4000, 11554.00
499.5820, 11764.00
500.7650, 12385.00
501.9480, 12290.51
503.1300, 12530.00
504.3120, 12486.00
505.4940, 12628.00
506.6760, 12779.00
507.8580, 13012.28
509.0390, 13451.00
510.2210, 13633.00
511.4020, 14012.00
512.5830, 14329.00
513.7640, 14426.00
514.9450, 14636.00
516.1250, 14653.00
517.3060, 14498.00
518.4860, 14544.00
519.6660, 14420.00
520.8460, 14329.00
522.0260, 14362.00
523.2060, 14249.00
524.3850, 14090.00
525.5650, 13989.00
526.7440, 13847.00
527.9230, 13808.00
529.1020, 13894.00
530.2810, 13613.00
531.4590, 13773.00
532.6380, 13743.00
533.8160, 13652.00
534.9940, 13726.00
536.1720, 13476.00
537.3500, 13430.00
538.5270, 13329.00
539.7050, 13245.00
540.8820, 13161.00
542.0590, 13022.00
543.2360, 12830.00
544.4130, 12556.00
545.5900, 12674.00
546.7660, 12333.00
547.9430, 12449.00
549.1190, 12261.00
550.2950, 12238.00
551.4710, 12264.00
552.6470, 12093.00
553.8220, 12098.00
554.9980, 12031.00
556.1730, 12062.00
557.3480, 12046.00
558.5230, 11970.00
559.6980, 11901.00
560.8730, 11858.00
562.0470, 11859.00
563.2220, 11888.00
564.3960, 11940.00
565.5700, 11912.49
566.7440, 11929.61
567.9170, 11907.00
569.0910, 11872.00
570.2640, 11928.00
571.4380, 11820.00
572.6110, 11864.00
573.7840, 11978.00
574.9570, 11966.00
576.1290, 11970.00
577.3020, 12031.00
578.4740, 11960.00
579.6460, 12179.00
580.8180, 12101.00
581.9900, 12242.00
583.1620, 12245.00
584.3330, 12248.14
585.5040, 12246.83
586.6760, 12260.00
587.8470, 12153.00
589.0180, 12142.00
590.1880, 12102.00
591.3590, 12193.00
592.5290, 12149.00
593.7000, 12102.00
594.8700, 12264.00
596.0400, 12364.00
597.2090, 12285.00
598.3790, 12351.00
599.5490, 12320.00
600.7180, 12291.00
601.8870, 12328.00
603.0560, 12414.00
604.2250, 12555.00
605.3940, 12636.00
606.5620, 12703.40
607.7300, 12810.00
608.8990, 12804.00
610.0670, 12888.00
611.2350, 12924.00
612.4020, 12973.00
613.5700, 13105.00
614.7370, 13266.00
615.9050, 13335.00
617.0720, 13433.00
618.2390, 13503.00
619.4060, 13536.00
620.5720, 13721.00
621.7390, 13806.00
622.9050, 14021.00
624.0710, 14210.00
625.2370, 14420.00
626.4030, 14490.00
627.5690, 14711.00
628.7340, 14934.00
629.9000, 15145.00
631.0650, 15575.00
632.2300, 15621.00
633.3950, 15772.00
634.5600, 16258.00
635.7240, 16641.00
636.8890, 16763.00
638.0530, 17277.00
639.2170, 17537.00
640.3810, 18120.00
641.5450, 18570.00
642.7080, 18931.00
643.8720, 19505.00
645.0350, 20082.00
646.1980, 20627.00
647.3610, 21263.24
648.5240, 21893.25
649.6870, 22593.00
650.8490, 23299.00
652.0120, 24107.00
653.1740, 24989.00
654.3360, 25780.00
655.4980, 26933.00
656.6600, 27851.00
657.8210, 28800.00
658.9830, 30074.00
660.1440, 31259.00
661.3050, 32753.00
662.4660, 34241.00
663.6270, 36192.00
664.7870, 38442.00
665.9480, 40958.00
667.1080, 43570.00
668.2680, 46437.00
669.4280, 49403.00
670.5880, 52185.00
671.7480, 54780.00
672.9070, 56739.00
674.0670, 58261.00
675.2260, 59230.00
676.3850, 58482.00
677.5440, 57536.00
678.7030, 55071.00
679.8610, 52396.00
681.0200, 49160.00
682.1780, 45435.00
683.3360, 42107.00
684.4940, 38620.00
685.6520, 35561.00
686.8090, 32663.00
687.9670, 30153.00
689.1240, 27812.00
690.2810, 26244.00
691.4380, 24740.00
692.5950, 23296.00
693.7520, 22224.00
694.9080, 21189.00
696.0650, 20250.86
697.2210, 19480.10
698.3770, 18839.00
699.5330, 18171.00
700.6880, 17665.93
701.8440, 17328.00
702.9990, 16855.00
704.1550, 16592.00
705.3100, 16413.00
706.4650, 16114.00
707.6190, 15756.00
708.7740, 15668.00
709.9290, 15588.00
711.0830, 15231.00
712.2370, 15314.00
713.3910, 15179.00
714.5450, 15080.00
715.6980, 14823.00
716.8520, 14971.00
718.0050, 14856.00
719.1580, 14837.00
720.3110, 14914.00
721.4640, 14786.00
722.6170, 14715.00
723.7700, 14886.00
724.9220, 14732.00
726.0740, 14670.00
727.2260, 14657.00
728.3780, 14613.00
729.5300, 14571.17
730.6810, 14584.00
731.8330, 14513.00
732.9840, 14457.00
734.1350, 14476.00
735.2860, 14440.00
736.4370, 14512.00
737.5880, 14355.00
738.7380, 14478.00
739.8880, 14518.00
741.0390, 14466.00
742.1890, 14356.00
743.3380, 14391.00
744.4880, 14365.51
745.6380, 14393.00
746.7870, 14397.00
747.9360, 14375.00
749.0850, 14371.00
750.2340, 14346.00
751.3830, 14319.00
752.5310, 14272.00
753.6800, 14266.00
754.8280, 14306.00
755.9760, 14329.00
757.1240, 14403.00
758.2720, 14236.00
759.4190, 14180.00
760.5670, 14301.00
761.7140, 14222.00
762.8610, 14330.00
764.0080, 14298.00
765.1550, 14285.00
766.3020, 14321.00
767.4480, 14449.00
768.5950, 14372.00
769.7410, 14243.00
770.8870, 14346.00
772.0330, 14499.00
773.1780, 14459.00
774.3240, 14573.00
775.4690, 14596.08
776.6140, 14687.00
777.7590, 14643.00
778.9040, 14651.82
780.0490, 14531.00
781.1940, 14580.00
782.3380, 14563.00
783.4820, 14498.00
784.6260, 14692.00
785.7700, 14556.00
786.9140, 14747.00
788.0580, 14694.00
789.2010, 14640.00
790.3450, 14720.00
791.4880, 14812.00
792.6310, 14835.00
793.7730, 14882.47
794.9160, 14873.00
796.0590, 14903.00
797.2010, 14837.00
798.3430, 14797.00
799.4850, 14939.00
800.6270, 14916.00
801.7690, 14839.00
802.9100, 14943.00
804.0520, 14872.00
805.1930, 14982.00
806.3340, 14812.00
807.4750, 14897.00
808.6160, 15035.00
809.7560, 15134.00
810.8970, 15088.00
812.0370, 15041.00
813.1770, 15048.00
814.3170, 14972.00
815.4570, 15250.00
816.5960, 15156.00
817.7360, 15160.00
818.8750, 15264.00
820.0140, 15170.00
821.1530, 15344.00
822.2920, 15384.00
823.4310, 15244.00
824.5690, 15323.00
825.7070, 15349.00
826.8460, 15420.00
827.9840, 15454.00
829.1220, 15467.00
830.2590, 15520.00
831.3970, 15385.00
832.5340, 15543.00
833.6710, 15413.00
834.8080, 15534.00
835.9450, 15648.00
837.0820, 15566.00
838.2190, 15525.00
839.3550, 15656.00
840.4910, 15527.00
841.6270, 15622.00
842.7630, 15699.00
843.8990, 15769.00
845.0350, 15877.00
846.1700, 15753.00
847.3060, 15888.00
848.4410, 15836.00
849.5760, 15918.00
850.7100, 15971.00
851.8450, 15847.00
852.9800, 16035.00
854.1140, 16101.00
855.2480, 16011.00
856.3820, 15892.00
857.5160, 16020.00
858.6500, 15971.69
859.7830, 15867.00
860.9170, 16093.00
862.0500, 16077.00
863.1830, 16211.00
864.3160, 16192.00
865.4480, 16268.00
866.5810, 16192.00
867.7130, 16398.00
868.8460, 16380.00
869.9780, 16383.00
871.1100, 16504.00
872.2410, 16593.00
873.3730, 16614.00
874.5050, 16489.00
875.6360, 16700.00
876.7670, 16665.00
877.8980, 16889.00
879.0290, 16962.00
880.1590, 17074.00
881.2900, 17355.00
882.4200, 17276.00
883.5500, 17516.00
884.6800, 17652.00
885.8100, 17638.00
886.9400, 17754.00
888.0690, 17915.00
889.1990, 18190.00
890.3280, 18331.00
891.4570, 18542.00
892.5860, 18648.00
893.7140, 18699.00
894.8430, 18905.00
895.9710, 19217.00
897.1000, 19829.00
898.2280, 19582.83
899.3560, 20677.00
900.4830, 19381.00
901.6110, 19555.00
902.7380, 19781.00
903.8660, 19941.00
904.9930, 20132.00
906.1200, 20229.00
907.2460, 20486.00
908.3730, 20687.00
909.5000, 20918.00
910.6260, 21315.00
911.7520, 21348.00
912.8780, 21661.00
914.0040, 21784.00
915.1290, 21986.00
916.2550, 22194.00
917.3800, 22486.00
918.5050, 22629.00
919.6300, 22721.00
920.7550, 22819.00
921.8800, 22903.00
923.0040, 22848.00
924.1290, 22912.00
925.2530, 22902.00
926.3770, 22824.00
927.5010, 22789.00
928.6250, 22662.00
929.7480, 22671.00
930.8720, 22478.00
931.9950, 22413.00
933.1180, 22243.00
934.2410, 22112.00
935.3640, 22083.16
936.4860, 21999.22
937.6090, 22046.00
938.7310, 21968.00
939.8530, 22001.00
940.9750, 22040.00
942.0970, 21779.00
943.2180, 21935.00
944.3400, 21812.00
945.4610, 22012.00
946.5820, 21889.00
947.7030, 21691.00
948.8240, 21997.00
949.9450, 21972.00
951.0650, 21897.00
952.1860, 21944.00
953.3060, 22055.00
954.4260, 22063.00
955.5460, 22029.00
956.6650, 21752.00
957.7850, 21829.00
958.9040, 21991.00
960.0230, 21555.00
961.1420, 21858.00
962.2610, 21757.00
963.3800, 22013.00
964.4990, 21696.00
965.6170, 21702.00
966.7350, 21654.00
967.8530, 21760.00
968.9710, 21569.00
970.0890, 21796.00
971.2070, 21696.00
972.3240, 21897.00
973.4410, 21933.00
974.5580, 21807.00
975.6750, 21921.00
976.7920, 21905.90
977.9090, 22048.00
979.0250, 22080.00
980.1410, 22051.00
981.2580, 22361.00
982.3740, 22140.00
983.4890, 22562.00
984.6050, 22345.00
985.7200, 22491.00
986.8360, 22371.00
987.9510, 22629.00
989.0660, 22949.00
990.1810, 23102.00
991.2950, 22978.00
992.4100, 23342.00
993.5240, 23391.00
994.6390, 23649.00
995.7530, 24147.00
996.8660, 24281.00
997.9800, 24547.00
999.0940, 24824.00
1000.207, 25147.00
1001.320, 25602.00
1002.433, 25693.00
1003.546, 26134.00
1004.659, 26233.00
1005.772, 26452.00
1006.884, 26916.00
1007.996, 27179.00
1009.108, 27343.00
1010.220, 27660.00
1011.332, 27786.00
1012.444, 27701.00
1013.555, 27975.00
1014.666, 27754.00
1015.777, 28245.00
1016.888, 28143.00
1017.999, 28351.00
1019.110, 28449.00
1020.220, 28582.00
1021.331, 28466.00
1022.441, 28795.00
1023.551, 28629.00
1024.661, 28784.00
1025.770, 28713.00
1026.880, 28907.00
1027.989, 28825.00
1029.098, 28976.95
1030.207, 29154.00
1031.316, 29220.00
1032.425, 29352.00
1033.533, 29425.00
1034.642, 29647.00
1035.750, 29990.00
1036.858, 29730.00
1037.966, 30141.00
1039.073, 30016.00
1040.181, 30450.00
1041.288, 30481.00
1042.396, 30704.00
1043.503, 30681.00
1044.610, 30802.00
1045.716, 30880.00
1046.823, 30942.00
1047.929, 30821.00
1049.036, 30929.00
1050.142, 30929.89
1051.248, 31068.00
1052.353, 31010.00
1053.459, 31074.00
1054.564, 31116.00
1055.670, 31541.00
1056.775, 31589.00
1057.880, 31909.00
1058.985, 32151.00
1060.089, 32264.00
1061.194, 32727.00
1062.298, 33001.00
1063.402, 32862.00
1064.506, 33229.00
1065.610, 33270.00
1066.713, 32885.00
1067.817, 32608.00
1068.920, 32704.00
1070.023, 32487.00
1071.126, 31889.00
1072.229, 31667.00
1073.332, 30924.00
1074.435, 30345.00
1075.537, 29635.00
1076.639, 28987.00
1077.741, 28457.00
1078.843, 27942.00
1079.945, 27469.00
1081.046, 26806.00
1082.148, 26489.00
1083.249, 25911.00
1084.350, 25380.00
1085.451, 24977.00
1086.551, 24622.00
1087.652, 24324.13
1088.752, 24052.00
1089.853, 23894.00
1090.953, 23839.00
1092.053, 23677.00
1093.152, 23746.00
1094.252, 23386.00
1095.351, 23473.00
1096.451, 23239.00
1097.550, 23042.00
1098.649, 23259.00
1099.748, 22983.00
1100.846, 22953.00
1101.945, 23020.00
1103.043, 22946.00
1104.141, 23069.00
1105.239, 22773.00
1106.337, 22817.00
1107.434, 22800.00
1108.532, 22519.00
1109.629, 22840.00
1110.726, 22812.00
1111.823, 22570.00
1112.920, 22953.00
1114.017, 22832.00
1115.113, 22910.00
1116.210, 22883.00
1117.306, 22714.00
1118.402, 22795.00
1119.498, 22926.00
1120.593, 23054.00
1121.689, 22913.00
1122.784, 22973.00
1123.879, 22960.00
1124.974, 23084.00
1126.069, 22991.00
1127.164, 22916.00
1128.259, 22858.00
1129.353, 22734.00
1130.447, 23055.00
1131.541, 22611.00
1132.635, 22976.00
1133.729, 22754.00
1134.822, 22900.00
1135.916, 22828.00
1137.009, 22724.00
1138.102, 23058.00
1139.195, 22875.00
1140.288, 23201.00
1141.380, 23005.00
1142.473, 23037.00
1143.565, 23012.00
1144.657, 22818.00
1145.749, 22944.00
1146.841, 23007.00
1147.932, 22839.00
1149.024, 23089.00
1150.115, 23102.00
1151.206, 23047.00
1152.297, 23261.00
1153.388, 23300.00
1154.479, 22986.00
1155.569, 23097.00
1156.659, 23253.00
1157.750, 23401.00
1158.839, 23259.00
1159.929, 23177.00
1161.019, 23402.00
1162.108, 23512.00
1163.198, 23190.00
1164.287, 23461.00
1165.376, 23571.00
1166.465, 23461.00
1167.553, 23570.00
1168.642, 23561.00
1169.730, 23549.00
1170.818, 23758.00
1171.906, 23795.00
1172.994, 23568.00
1174.082, 23703.00
1175.170, 23709.00
1176.257, 23713.00
1177.344, 23777.00
1178.431, 23770.00
1179.518, 23797.00
1180.605, 23832.00
1181.691, 23896.00
1182.778, 23869.00
1183.864, 23991.00
1184.950, 23830.00
1186.036, 24077.00
1187.122, 24114.00
1188.207, 24032.00
1189.292, 24182.00
1190.378, 24183.00
1191.463, 24137.00
1192.548, 24131.00
1193.632, 24335.00
1194.717, 24373.00
1195.801, 24496.00
1196.886, 24463.00
1197.970, 24520.00
1199.054, 24537.00
1200.137, 24636.00
1201.221, 24511.00
1202.305, 24722.00
1203.388, 24610.00
1204.471, 24602.00
1205.554, 24878.00
1206.637, 24873.00
1207.719, 24981.00
1208.802, 24750.00
1209.884, 24915.00
1210.966, 24859.00
1212.048, 25144.00
1213.130, 24984.00
1214.212, 24904.00
1215.293, 25200.00
1216.374, 25194.00
1217.456, 25304.00
1218.536, 25126.00
1219.617, 25221.00
1220.698, 25470.00
1221.778, 25332.00
1222.859, 25447.00
1223.939, 25549.00
1225.019, 25485.00
1226.099, 25519.00
1227.178, 25616.00
1228.258, 25825.00
1229.337, 25775.00
1230.417, 25697.00
1231.496, 25771.00
1232.574, 26093.00
1233.653, 25898.00
1234.732, 25938.00
1235.810, 26146.00
1236.888, 25931.00
1237.966, 26135.00
1239.044, 26262.00
1240.122, 26199.00
1241.199, 26354.00
1242.277, 26329.00
1243.354, 26424.00
1244.431, 26233.00
1245.508, 26432.00
1246.585, 26465.12
1247.661, 26503.90
1248.738, 26651.00
1249.814, 26693.00
1250.890, 26705.00
1251.966, 26825.00
1253.042, 26765.00
1254.117, 26850.53
1255.193, 26834.00
1256.268, 26900.00
1257.343, 26878.00
1258.418, 26924.08
1259.493, 27005.00
1260.567, 27038.00
1261.642, 27100.00
1262.716, 27238.00
1263.790, 27431.00
1264.864, 27435.00
1265.938, 27351.00
1267.011, 27119.00
1268.085, 27442.00
1269.158, 27367.00
1270.231, 27521.00
1271.304, 27562.00
1272.377, 27608.00
1273.450, 27720.00
1274.522, 27672.00
1275.594, 27815.00
1276.666, 27934.00
