##NAMES=Edenite
##RRUFFID=R050415
##IDEAL CHEMISTRY=NaCa_2_Mg_5_(Si_7_Al)O_22_(OH)_2_
##LOCALITY=Mogok, Burma
##OWNER=RRUFF
##SOURCE=Marcus Origlieri
##DESCRIPTION=Transparent pale green water worn fragment
##STATUS=The identification of this mineral has been confirmed by X-ray diffraction and chemical analysis
##URL=rruff.info/R050415
##MEASURED CHEMISTRY=(Na_0.83_K_0.17_)(Ca_1.76_Na_0.24_)_&#931;=2_(Mg_4.54_Al_0.40_Fe^3+^_0.06_)_&#931;=5_(Si_6.74_Al_1.26_)O_22_((OH)_0.52_F_0.48_)_2_
##PIN_ID=L01094
##ORIENTATION=Laser parallel to b* (0 1 0). Fiducial mark perpendicular to laser is parallel to -c [0 0 -1]
93.48000, 6689.000
94.71400, 7026.000
95.94800, 7486.000
97.18200, 7754.000
98.41600, 8201.000
99.64900, 8652.000
100.8830, 8975.000
102.1160, 9510.000
103.3490, 10082.00
104.5820, 10731.00
105.8150, 11501.00
107.0470, 12797.00
108.2800, 13176.04
109.5120, 14434.00
110.7440, 14236.00
111.9760, 14481.00
113.2080, 14836.00
114.4400, 15457.00
115.6710, 15836.00
116.9030, 15565.00
118.1340, 15323.00
119.3650, 14936.00
120.5960, 14377.00
121.8270, 13942.00
123.0580, 13379.00
124.2880, 12611.00
125.5190, 11954.00
126.7490, 11185.00
127.9790, 10685.00
129.2090, 10399.00
130.4390, 9907.000
131.6680, 9885.000
132.8980, 9547.000
134.1270, 9340.000
135.3560, 9231.000
136.5850, 9190.000
137.8140, 9180.000
139.0430, 9229.000
140.2710, 9150.000
141.5000, 9124.000
142.7280, 8975.000
143.9560, 8848.000
145.1840, 8977.000
146.4120, 9102.000
147.6390, 8909.000
148.8670, 9095.000
150.0940, 9058.000
151.3210, 9297.000
152.5490, 9175.000
153.7750, 9358.000
155.0020, 9372.000
156.2290, 9525.000
157.4550, 9674.000
158.6810, 9791.000
159.9080, 10002.00
161.1340, 10278.00
162.3590, 10648.00
163.5850, 10914.00
164.8110, 10886.00
166.0360, 11007.00
167.2610, 11052.00
168.4860, 11219.00
169.7110, 11329.00
170.9360, 11470.00
172.1610, 11621.00
173.3850, 11708.00
174.6100, 11926.00
175.8340, 12338.00
177.0580, 12507.00
178.2820, 13036.00
179.5050, 13133.00
180.7290, 13637.00
181.9520, 13755.00
183.1760, 13892.00
184.3990, 13930.00
185.6220, 13902.00
186.8450, 13816.00
188.0670, 13525.00
189.2900, 13303.00
190.5120, 12852.00
191.7340, 12481.00
192.9560, 12278.00
194.1780, 12043.00
195.4000, 11919.00
196.6220, 11701.00
197.8430, 11628.00
199.0640, 11538.00
200.2860, 11781.00
201.5070, 11583.00
202.7270, 11869.00
203.9480, 11848.00
205.1690, 11830.00
206.3890, 12114.00
207.6090, 12313.00
208.8290, 12613.00
210.0490, 13050.00
211.2690, 13387.00
212.4890, 13935.00
213.7080, 14560.00
214.9280, 15191.00
216.1470, 15757.00
217.3660, 16513.00
218.5850, 17241.00
219.8030, 17989.00
221.0220, 18990.00
222.2400, 19840.00
223.4590, 20451.00
224.6770, 21083.00
225.8950, 21148.00
227.1120, 21332.00
228.3300, 21402.00
229.5480, 21541.00
230.7650, 21134.00
231.9820, 21033.00
233.1990, 20886.00
234.4160, 20957.00
235.6330, 20989.00
236.8490, 20768.00
238.0660, 20709.00
239.2820, 20528.00
240.4980, 20306.00
241.7140, 19638.00
242.9300, 19213.00
244.1460, 18888.00
245.3610, 18154.00
246.5770, 17721.00
247.7920, 17228.00
249.0070, 16843.00
250.2220, 16428.00
251.4370, 15812.00
252.6510, 15401.00
253.8660, 15022.00
255.0800, 14641.00
256.2940, 14249.91
257.5080, 13925.00
258.7220, 13493.46
259.9360, 13140.62
261.1490, 12784.00
262.3630, 12512.00
263.5760, 12239.00
264.7890, 12127.00
266.0020, 12078.00
267.2150, 11793.00
268.4270, 11828.00
269.6400, 11698.00
270.8520, 11660.00
272.0640, 11638.00
273.2760, 11613.00
274.4880, 11770.00
275.7000, 11664.00
276.9120, 11725.00
278.1230, 11898.00
279.3340, 11811.00
280.5450, 11869.00
281.7560, 12034.00
282.9670, 12099.00
284.1780, 12189.00
285.3880, 12359.00
286.5980, 12525.00
287.8090, 12728.00
289.0190, 12990.00
290.2290, 13015.00
291.4380, 13257.00
292.6480, 13464.00
293.8570, 13532.00
295.0670, 13864.00
296.2760, 13944.00
297.4850, 13939.00
298.6930, 14055.00
299.9020, 14125.00
301.1110, 14039.00
302.3190, 14207.00
303.5270, 14091.00
304.7350, 13924.00
305.9430, 13854.00
307.1510, 13943.00
308.3580, 14030.00
309.5660, 14000.00
310.7730, 14128.00
311.9800, 14229.00
313.1870, 14342.00
314.3940, 14451.00
315.6010, 14642.00
316.8070, 14736.91
318.0130, 14858.84
319.2200, 14969.00
320.4260, 15021.00
321.6310, 15017.97
322.8370, 15082.00
324.0430, 14902.00
325.2480, 14824.00
326.4540, 14698.00
327.6590, 14661.00
328.8640, 14564.00
330.0680, 14423.00
331.2730, 14323.00
332.4780, 14209.42
333.6820, 14121.00
334.8860, 13986.00
336.0900, 13812.00
337.2940, 13685.82
338.4980, 13611.00
339.7010, 13425.00
340.9050, 13429.00
342.1080, 13287.00
343.3110, 13237.00
344.5140, 13055.00
345.7170, 12998.00
346.9200, 12976.00
348.1220, 13044.00
349.3240, 13080.00
350.5270, 13097.00
351.7290, 12991.00
352.9310, 13171.00
354.1320, 13260.00
355.3340, 13375.00
356.5350, 13639.00
357.7370, 13813.00
358.9380, 14138.00
360.1390, 14407.00
361.3400, 14792.00
362.5400, 14956.56
363.7410, 15085.00
364.9410, 15276.00
366.1410, 15420.00
367.3410, 15509.00
368.5410, 15684.00
369.7410, 15661.00
370.9400, 15483.00
372.1400, 15515.00
373.3390, 15459.00
374.5380, 15411.00
375.7370, 15328.00
376.9360, 15430.00
378.1350, 15242.00
379.3330, 15508.00
380.5310, 15399.00
381.7300, 15713.00
382.9280, 15627.00
384.1260, 15905.00
385.3230, 16185.00
386.5210, 16322.00
387.7180, 16605.00
388.9160, 16895.00
390.1130, 16901.00
391.3100, 17078.00
392.5060, 17174.00
393.7030, 17066.00
394.9000, 16830.00
396.0960, 16662.00
397.2920, 16495.00
398.4880, 16326.00
399.6840, 15851.00
400.8800, 15614.00
402.0750, 15322.00
403.2710, 14911.00
404.4660, 14646.00
405.6610, 14334.00
406.8560, 14128.35
408.0510, 13946.00
409.2450, 13880.00
410.4400, 13670.00
411.6340, 13725.00
412.8280, 13517.00
414.0220, 13490.00
415.2160, 13473.00
416.4100, 13540.00
417.6030, 13472.04
418.7970, 13412.00
419.9900, 13398.00
421.1830, 13314.00
422.3760, 13286.00
423.5690, 13290.00
424.7610, 13119.00
425.9540, 13106.00
427.1460, 12954.00
428.3380, 13024.00
429.5300, 12758.00
430.7220, 12795.00
431.9140, 12513.00
433.1050, 12495.00
434.2970, 12425.00
435.4880, 12105.00
436.6790, 12175.00
437.8700, 12117.00
439.0610, 12137.00
440.2510, 11948.00
441.4420, 11914.00
442.6320, 11872.00
443.8220, 11917.00
445.0120, 11889.00
446.2020, 11894.00
447.3910, 11914.00
448.5810, 11777.00
449.7700, 11865.00
450.9600, 11842.00
452.1490, 11778.00
453.3370, 11860.00
454.5260, 11879.00
455.7150, 11800.00
456.9030, 11954.00
458.0910, 12020.00
459.2800, 11984.00
460.4670, 11813.00
461.6550, 11986.00
462.8430, 11804.00
464.0300, 11921.00
465.2180, 11980.00
466.4050, 11837.00
467.5920, 11872.00
468.7790, 11830.00
469.9650, 11903.00
471.1520, 11780.00
472.3380, 11857.00
473.5250, 11813.00
474.7110, 11880.00
475.8970, 11785.00
477.0820, 11862.00
478.2680, 11995.00
479.4540, 11935.00
480.6390, 12011.00
481.8240, 11937.00
483.0090, 12023.00
484.1940, 11940.00
485.3780, 12199.00
486.5630, 12156.00
487.7470, 12089.00
488.9320, 12321.00
490.1160, 12356.00
491.3000, 12172.00
492.4830, 12263.00
493.6670, 12146.00
494.8500, 12254.00
496.0340, 12146.00
497.2170, 12274.00
498.4000, 12233.00
499.5820, 12328.00
500.7650, 12294.00
501.9480, 12234.00
503.1300, 12416.00
504.3120, 12511.00
505.4940, 12554.00
506.6760, 12779.00
507.8580, 12719.00
509.0390, 12775.00
510.2210, 12991.00
511.4020, 13045.00
512.5830, 12976.00
513.7640, 13051.00
514.9450, 13255.00
516.1250, 13207.00
517.3060, 13350.00
518.4860, 13402.00
519.6660, 13319.00
520.8460, 13434.00
522.0260, 13439.00
523.2060, 13382.00
524.3850, 13446.00
525.5650, 13381.00
526.7440, 13343.00
527.9230, 13510.00
529.1020, 13364.00
530.2810, 13547.00
531.4590, 13390.00
532.6380, 13360.00
533.8160, 13461.00
534.9940, 13390.00
536.1720, 13399.00
537.3500, 13351.00
538.5270, 13367.00
539.7050, 13303.00
540.8820, 13376.00
542.0590, 13233.00
543.2360, 13315.00
544.4130, 13348.00
545.5900, 13166.00
546.7660, 13027.00
547.9430, 13133.00
549.1190, 13130.00
550.2950, 13095.84
551.4710, 13092.00
552.6470, 13088.00
553.8220, 13095.00
554.9980, 13121.00
556.1730, 13125.00
557.3480, 13134.00
558.5230, 13053.00
559.6980, 13177.00
560.8730, 12959.00
562.0470, 13168.00
563.2220, 13060.00
564.3960, 12970.00
565.5700, 13202.00
566.7440, 13039.00
567.9170, 13055.00
569.0910, 13134.00
570.2640, 13210.00
571.4380, 13200.00
572.6110, 13232.00
573.7840, 13254.00
574.9570, 13276.50
576.1290, 13280.62
577.3020, 13327.00
578.4740, 13275.00
579.6460, 13266.00
580.8180, 13256.00
581.9900, 13300.00
583.1620, 13261.00
584.3330, 13309.00
585.5040, 13341.00
586.6760, 13213.00
587.8470, 13383.00
589.0180, 13464.00
590.1880, 13311.00
591.3590, 13471.00
592.5290, 13303.00
593.7000, 13581.00
594.8700, 13406.00
596.0400, 13498.00
597.2090, 13602.00
598.3790, 13611.00
599.5490, 13663.00
600.7180, 13747.00
601.8870, 13678.00
603.0560, 13698.00
604.2250, 13819.00
605.3940, 13857.00
606.5620, 13981.00
607.7300, 13859.00
608.8990, 13955.00
610.0670, 14034.00
611.2350, 14231.00
612.4020, 14141.00
613.5700, 14228.00
614.7370, 14349.00
615.9050, 14442.00
617.0720, 14512.00
618.2390, 14752.00
619.4060, 14688.00
620.5720, 14880.00
621.7390, 15108.00
622.9050, 15245.00
624.0710, 15315.00
625.2370, 15535.00
626.4030, 15645.00
627.5690, 15691.00
628.7340, 16052.00
629.9000, 16147.00
631.0650, 16169.00
632.2300, 16569.00
633.3950, 16741.00
634.5600, 17088.00
635.7240, 17247.00
636.8890, 17512.00
638.0530, 18055.00
639.2170, 18287.00
640.3810, 18656.00
641.5450, 19017.00
642.7080, 19381.00
643.8720, 19971.00
645.0350, 20379.00
646.1980, 20836.00
647.3610, 21498.00
648.5240, 21889.00
649.6870, 22387.00
650.8490, 23222.00
652.0120, 24217.00
653.1740, 24627.00
654.3360, 25620.00
655.4980, 26424.00
656.6600, 27585.00
657.8210, 28835.00
658.9830, 30096.00
660.1440, 31757.00
661.3050, 33616.61
662.4660, 35618.00
663.6270, 38010.00
664.7870, 40415.00
665.9480, 43108.00
667.1080, 45784.00
668.2680, 48689.00
669.4280, 51082.00
670.5880, 53608.00
671.7480, 55313.00
672.9070, 56143.00
674.0670, 56807.00
675.2260, 56425.00
676.3850, 55395.00
677.5440, 53611.00
678.7030, 51161.00
679.8610, 48356.00
681.0200, 45257.00
682.1780, 42235.00
683.3360, 39460.00
684.4940, 36681.00
685.6520, 34303.90
686.8090, 31824.00
687.9670, 30096.00
689.1240, 28255.00
690.2810, 26793.00
691.4380, 25666.00
692.5950, 24445.00
693.7520, 23374.00
694.9080, 22742.00
696.0650, 21897.00
697.2210, 21130.00
698.3770, 20637.00
699.5330, 20136.00
700.6880, 19530.00
701.8440, 19117.00
702.9990, 19002.00
704.1550, 18221.00
705.3100, 18066.00
706.4650, 17886.00
707.6190, 17402.00
708.7740, 17472.00
709.9290, 16916.00
711.0830, 16856.00
712.2370, 16643.00
713.3910, 16498.00
714.5450, 16373.00
715.6980, 16185.00
716.8520, 16287.00
718.0050, 16279.00
719.1580, 16167.00
720.3110, 16070.00
721.4640, 16074.00
722.6170, 16098.00
723.7700, 15902.00
724.9220, 16004.00
726.0740, 15912.00
727.2260, 15934.00
728.3780, 15774.00
729.5300, 15797.00
730.6810, 15811.00
731.8330, 15901.00
732.9840, 15711.00
734.1350, 15711.00
735.2860, 15659.00
736.4370, 15667.00
737.5880, 15427.00
738.7380, 15414.00
739.8880, 15406.00
741.0390, 15625.00
742.1890, 15370.00
743.3380, 15496.00
744.4880, 15385.00
745.6380, 15524.00
746.7870, 15327.00
747.9360, 15433.00
749.0850, 15437.00
750.2340, 15328.00
751.3830, 15299.00
752.5310, 15232.00
753.6800, 15530.00
754.8280, 15480.00
755.9760, 15439.00
757.1240, 15354.00
758.2720, 15351.00
759.4190, 15417.00
760.5670, 15420.00
761.7140, 15406.00
762.8610, 15465.00
764.0080, 15426.00
765.1550, 15573.00
766.3020, 15576.00
767.4480, 15490.00
768.5950, 15625.00
769.7410, 15587.00
770.8870, 15715.00
772.0330, 15592.00
773.1780, 15568.00
774.3240, 15568.00
775.4690, 15619.00
776.6140, 15661.00
777.7590, 15745.00
778.9040, 15686.00
780.0490, 15683.00
781.1940, 15763.00
782.3380, 15919.00
783.4820, 15820.00
784.6260, 15679.00
785.7700, 15972.00
786.9140, 15901.00
788.0580, 16003.00
789.2010, 16053.06
790.3450, 15867.00
791.4880, 16048.00
792.6310, 16044.00
793.7730, 15995.00
794.9160, 16220.00
796.0590, 16200.00
797.2010, 16042.00
798.3430, 16280.00
799.4850, 16201.00
800.6270, 16063.00
801.7690, 16253.00
802.9100, 16287.00
804.0520, 16141.00
805.1930, 16215.00
806.3340, 16357.00
807.4750, 16060.00
808.6160, 16288.00
809.7560, 16433.00
810.8970, 16393.00
812.0370, 16407.00
813.1770, 16296.00
814.3170, 16529.00
815.4570, 16571.00
816.5960, 16514.00
817.7360, 16463.00
818.8750, 16494.00
820.0140, 16570.00
821.1530, 16591.00
822.2920, 16594.00
823.4310, 16739.00
824.5690, 16641.00
825.7070, 16765.00
826.8460, 16802.00
827.9840, 16739.00
829.1220, 16732.00
830.2590, 16922.00
831.3970, 16924.00
832.5340, 16907.51
833.6710, 17063.00
834.8080, 16865.00
835.9450, 16831.00
837.0820, 16919.00
838.2190, 16791.00
839.3550, 16734.00
840.4910, 16884.00
841.6270, 16961.00
842.7630, 17036.00
843.8990, 17031.00
845.0350, 17018.00
846.1700, 17022.00
847.3060, 17027.99
848.4410, 17076.00
849.5760, 17083.00
850.7100, 17062.00
851.8450, 17153.00
852.9800, 17151.00
854.1140, 17095.00
855.2480, 17295.00
856.3820, 17236.00
857.5160, 17180.00
858.6500, 17251.00
859.7830, 17241.00
860.9170, 17347.00
862.0500, 17211.00
863.1830, 17136.00
864.3160, 17265.00
865.4480, 17321.00
866.5810, 17474.00
867.7130, 17477.98
868.8460, 17581.00
869.9780, 17508.00
871.1100, 17542.00
872.2410, 17585.00
873.3730, 17762.00
874.5050, 17484.00
875.6360, 17863.00
876.7670, 17988.00
877.8980, 17810.00
879.0290, 18136.00
880.1590, 18176.00
881.2900, 18161.00
882.4200, 18303.00
883.5500, 18530.00
884.6800, 18438.00
885.8100, 18541.00
886.9400, 18673.00
888.0690, 18651.00
889.1990, 18921.00
890.3280, 18963.00
891.4570, 19071.00
892.5860, 19153.00
893.7140, 19360.00
894.8430, 19472.00
895.9710, 19418.00
897.1000, 19512.00
898.2280, 19397.00
899.3560, 19577.00
900.4830, 19704.00
901.6110, 19912.00
902.7380, 19977.00
903.8660, 20090.00
904.9930, 20242.66
906.1200, 20316.00
907.2460, 20537.00
908.3730, 20586.00
909.5000, 20783.00
910.6260, 20862.00
911.7520, 21102.00
912.8780, 21107.00
914.0040, 21204.00
915.1290, 21399.00
916.2550, 21562.00
917.3800, 21894.00
918.5050, 21731.00
919.6300, 22023.00
920.7550, 21972.00
921.8800, 21971.00
923.0040, 22124.00
924.1290, 22052.00
925.2530, 22090.00
926.3770, 22151.00
927.5010, 21877.00
928.6250, 22040.00
929.7480, 21829.00
930.8720, 21848.00
931.9950, 21704.00
933.1180, 21708.00
934.2410, 21660.00
935.3640, 21633.00
936.4860, 21580.00
937.6090, 21699.00
938.7310, 21505.00
939.8530, 21580.00
940.9750, 21525.00
942.0970, 21438.00
943.2180, 21310.00
944.3400, 21405.00
945.4610, 21171.00
946.5820, 21366.00
947.7030, 21621.00
948.8240, 21535.00
949.9450, 21419.00
951.0650, 21559.00
952.1860, 21452.00
953.3060, 21440.00
954.4260, 21508.00
955.5460, 21511.00
956.6650, 21536.00
957.7850, 21699.00
958.9040, 21444.00
960.0230, 21417.00
961.1420, 21751.00
962.2610, 21487.00
963.3800, 21505.00
964.4990, 21608.00
965.6170, 21709.00
966.7350, 21720.90
967.8530, 21550.00
968.9710, 21723.00
970.0890, 21588.00
971.2070, 21460.00
972.3240, 21491.00
973.4410, 21451.00
974.5580, 21481.00
975.6750, 21554.37
976.7920, 21746.00
977.9090, 21788.00
979.0250, 21762.00
980.1410, 21984.00
981.2580, 21922.00
982.3740, 22049.00
983.4890, 22007.00
984.6050, 22187.00
985.7200, 22230.00
986.8360, 22476.00
987.9510, 22629.00
989.0660, 22875.00
990.1810, 22908.00
991.2950, 23011.00
992.4100, 22878.00
993.5240, 23331.00
994.6390, 23272.00
995.7530, 23650.00
996.8660, 23760.00
997.9800, 24109.00
999.0940, 24113.00
1000.207, 24526.00
1001.320, 24709.00
1002.433, 24891.00
1003.546, 25122.00
1004.659, 25304.00
1005.772, 25526.00
1006.884, 25496.00
1007.996, 25806.00
1009.108, 25749.00
1010.220, 25850.00
1011.332, 25973.00
1012.444, 26043.00
1013.555, 26130.00
1014.666, 26239.05
1015.777, 26181.00
1016.888, 26351.00
1017.999, 26179.00
1019.110, 26012.00
1020.220, 26303.00
1021.331, 26047.00
1022.441, 26401.00
1023.551, 26343.00
1024.661, 26127.00
1025.770, 26355.00
1026.880, 26478.00
1027.989, 26500.00
1029.098, 26445.00
1030.207, 26648.00
1031.316, 26712.00
1032.425, 26641.00
1033.533, 26888.00
1034.642, 27015.00
1035.750, 27115.00
1036.858, 27432.00
1037.966, 27356.00
1039.073, 27519.00
1040.181, 27595.00
1041.288, 27761.00
1042.396, 28003.00
1043.503, 28019.00
1044.610, 27905.00
1045.716, 27778.00
1046.823, 27917.00
1047.929, 27637.00
1049.036, 27646.00
1050.142, 27710.00
1051.248, 27607.00
1052.353, 27629.00
1053.459, 27392.00
1054.564, 27379.00
1055.670, 27384.00
1056.775, 27402.00
1057.880, 27396.00
1058.985, 27280.00
1060.089, 27226.00
1061.194, 27611.00
1062.298, 27420.00
1063.402, 27540.00
1064.506, 27076.00
1065.610, 27108.00
1066.713, 27271.00
1067.817, 27159.00
1068.920, 27050.00
1070.023, 26738.00
1071.126, 26630.00
1072.229, 26419.00
1073.332, 26316.00
1074.435, 25807.00
1075.537, 25912.00
1076.639, 25442.00
1077.741, 25438.00
1078.843, 24956.00
1079.945, 24728.00
1081.046, 24610.00
1082.148, 24434.00
1083.249, 24378.00
1084.350, 24129.00
1085.451, 23983.00
1086.551, 23939.00
1087.652, 23769.00
1088.752, 23747.00
1089.853, 23636.23
1090.953, 23715.00
1092.053, 23494.00
1093.152, 23512.00
1094.252, 23533.00
1095.351, 23447.00
1096.451, 23493.00
1097.550, 23304.00
1098.649, 23322.00
1099.748, 23341.00
1100.846, 23409.00
1101.945, 23181.00
1103.043, 23254.00
1104.141, 23290.00
1105.239, 23430.00
1106.337, 23289.00
1107.434, 23423.00
1108.532, 23293.00
1109.629, 23468.00
1110.726, 23335.00
1111.823, 23506.00
1112.920, 23457.00
1114.017, 23354.00
1115.113, 23465.00
1116.210, 23656.00
1117.306, 23840.00
1118.402, 23784.00
1119.498, 23896.00
1120.593, 23899.00
1121.689, 24116.00
1122.784, 24038.00
1123.879, 24132.00
1124.974, 24137.00
1126.069, 23951.00
1127.164, 23866.00
1128.259, 23730.00
1129.353, 23925.00
1130.447, 23728.00
1131.541, 23760.00
1132.635, 23612.00
1133.729, 23902.00
1134.822, 23752.00
1135.916, 23764.00
1137.009, 23690.00
1138.102, 23496.00
1139.195, 23744.00
1140.288, 23717.00
1141.380, 23712.00
1142.473, 23892.00
1143.565, 23640.00
1144.657, 23867.00
1145.749, 23878.00
1146.841, 24009.00
1147.932, 24024.00
1149.024, 23920.00
1150.115, 24059.00
1151.206, 23961.00
1152.297, 24119.00
1153.388, 24106.00
1154.479, 24105.00
1155.569, 24041.00
1156.659, 24270.00
1157.750, 24164.00
1158.839, 24058.00
1159.929, 24223.00
1161.019, 24073.00
1162.108, 24169.00
1163.198, 24181.00
1164.287, 24067.00
1165.376, 24253.00
1166.465, 24405.00
1167.553, 24515.00
1168.642, 24446.00
1169.730, 24506.00
1170.818, 24405.00
1171.906, 24757.00
1172.994, 24828.00
1174.082, 24636.00
1175.170, 24608.00
1176.257, 24607.00
1177.344, 24780.00
1178.431, 24647.00
1179.518, 24873.00
1180.605, 24766.00
1181.691, 24861.00
1182.778, 24987.00
1183.864, 24983.00
1184.950, 25042.94
1186.036, 25122.00
1187.122, 25037.00
1188.207, 25002.00
1189.292, 24923.00
1190.378, 24961.00
1191.463, 25191.00
1192.548, 25186.00
1193.632, 25357.00
1194.717, 25350.98
1195.801, 25290.00
1196.886, 25308.00
1197.970, 25292.15
1199.054, 25339.95
1200.137, 25337.00
1201.221, 25466.00
1202.305, 25592.00
1203.388, 25650.00
1204.471, 25616.00
1205.554, 25814.00
1206.637, 25803.00
1207.719, 25824.32
1208.802, 25905.00
1209.884, 25820.00
1210.966, 25854.00
1212.048, 25850.00
1213.130, 25953.00
1214.212, 26056.00
1215.293, 25856.00
1216.374, 26078.00
1217.456, 26087.00
1218.536, 26247.00
1219.617, 26435.00
1220.698, 26265.00
1221.778, 26292.00
1222.859, 26613.00
1223.939, 26546.00
1225.019, 26265.00
1226.099, 26410.00
1227.178, 26607.00
1228.258, 26730.00
1229.337, 26753.00
1230.417, 26543.00
1231.496, 26690.00
1232.574, 26783.00
1233.653, 26784.00
1234.732, 26906.00
1235.810, 26826.00
1236.888, 27041.00
1237.966, 27127.00
1239.044, 26874.00
1240.122, 27021.00
1241.199, 27238.00
1242.277, 27269.00
1243.354, 27014.00
1244.431, 27359.00
1245.508, 27283.00
1246.585, 27505.00
1247.661, 27339.00
1248.738, 27532.00
1249.814, 27342.00
1250.890, 27369.00
1251.966, 27433.80
1253.042, 27648.00
1254.117, 27579.00
1255.193, 27668.00
1256.268, 27842.00
1257.343, 27877.00
1258.418, 27735.00
1259.493, 27865.00
1260.567, 27937.00
1261.642, 27996.00
1262.716, 28105.00
1263.790, 28085.00
1264.864, 28172.00
1265.938, 28408.00
1267.011, 28066.00
1268.085, 28386.00
1269.158, 28371.00
1270.231, 28078.00
