##NAMES=Edenite
##RRUFFID=R050415
##IDEAL CHEMISTRY=NaCa_2_Mg_5_(Si_7_Al)O_22_(OH)_2_
##LOCALITY=Mogok, Burma
##OWNER=RRUFF
##SOURCE=Marcus Origlieri
##DESCRIPTION=Transparent pale green water worn fragment
##STATUS=The identification of this mineral has been confirmed by X-ray diffraction and chemical analysis
##URL=rruff.info/R050415
##MEASURED CHEMISTRY=(Na_0.83_K_0.17_)(Ca_1.76_Na_0.24_)_&#931;=2_(Mg_4.54_Al_0.40_Fe^3+^_0.06_)_&#931;=5_(Si_6.74_Al_1.26_)O_22_((OH)_0.52_F_0.48_)_2_
##PIN_ID=L01772
##ORIENTATION=Laser parallel to (-1 0 -1). Fiducial mark perpendicular to laser is parallel to b [0 1 0]
108.2800, 10296.16
109.5120, 11607.00
110.7440, 10684.00
111.9760, 10897.00
113.2080, 11288.00
114.4400, 11790.00
115.6710, 12452.00
116.9030, 12816.00
118.1340, 13225.00
119.3650, 13596.00
120.5960, 13742.00
121.8270, 13830.00
123.0580, 13791.00
124.2880, 13267.00
125.5190, 12833.00
126.7490, 12299.00
127.9790, 11968.00
129.2090, 11855.00
130.4390, 11671.00
131.6680, 11609.00
132.8980, 11499.00
134.1270, 11587.00
135.3560, 11730.00
136.5850, 11824.00
137.8140, 12086.00
139.0430, 12519.00
140.2710, 12945.00
141.5000, 13395.00
142.7280, 13466.00
143.9560, 13407.00
145.1840, 12979.00
146.4120, 12729.00
147.6390, 12515.00
148.8670, 12489.00
150.0940, 12427.00
151.3210, 12416.31
152.5490, 12477.00
153.7750, 12521.00
155.0020, 12720.00
156.2290, 12836.00
157.4550, 13095.00
158.6810, 13458.00
159.9080, 13774.00
161.1340, 14205.00
162.3590, 14690.00
163.5850, 15269.00
164.8110, 15592.00
166.0360, 15763.00
167.2610, 15756.00
168.4860, 15679.00
169.7110, 15544.00
170.9360, 15347.00
172.1610, 15317.00
173.3850, 15075.00
174.6100, 15009.00
175.8340, 15230.00
177.0580, 15154.00
178.2820, 15226.00
179.5050, 15404.00
180.7290, 15708.00
181.9520, 15566.00
183.1760, 15775.00
184.3990, 15832.00
185.6220, 15782.00
186.8450, 15622.00
188.0670, 15505.00
189.2900, 15115.00
190.5120, 14944.00
191.7340, 14696.00
192.9560, 14524.71
194.1780, 14407.00
195.4000, 14312.00
196.6220, 14194.00
197.8430, 14176.00
199.0640, 14218.00
200.2860, 14377.00
201.5070, 14581.00
202.7270, 14642.00
203.9480, 14700.00
205.1690, 14852.00
206.3890, 14802.00
207.6090, 15013.00
208.8290, 15457.00
210.0490, 15693.00
211.2690, 16183.00
212.4890, 16796.00
213.7080, 17270.00
214.9280, 17890.00
216.1470, 18479.00
217.3660, 19386.00
218.5850, 20343.00
219.8030, 21322.00
221.0220, 22513.00
222.2400, 23431.00
223.4590, 24475.00
224.6770, 25394.00
225.8950, 25763.00
227.1120, 26199.00
228.3300, 25959.00
229.5480, 25645.00
230.7650, 25149.00
231.9820, 24338.00
233.1990, 23887.00
234.4160, 23529.00
235.6330, 23157.00
236.8490, 23050.00
238.0660, 22166.00
239.2820, 21984.00
240.4980, 21613.00
241.7140, 20929.00
242.9300, 20353.00
244.1460, 19958.00
245.3610, 19600.00
246.5770, 19014.00
247.7920, 18804.00
249.0070, 18224.00
250.2220, 18003.00
251.4370, 17506.00
252.6510, 17269.00
253.8660, 16841.00
255.0800, 16608.00
256.2940, 16408.00
257.5080, 16202.00
258.7220, 15927.93
259.9360, 15639.68
261.1490, 15425.00
262.3630, 14986.00
263.5760, 14820.00
264.7890, 14502.37
266.0020, 14455.00
267.2150, 14255.00
268.4270, 14197.00
269.6400, 14320.00
270.8520, 14150.00
272.0640, 14202.00
273.2760, 14203.00
274.4880, 14170.00
275.7000, 14143.00
276.9120, 14325.00
278.1230, 14257.00
279.3340, 14338.00
280.5450, 14344.00
281.7560, 14430.00
282.9670, 14496.36
284.1780, 14550.00
285.3880, 14630.00
286.5980, 14669.00
287.8090, 14682.00
289.0190, 14971.00
290.2290, 15007.00
291.4380, 14989.00
292.6480, 15235.00
293.8570, 15338.00
295.0670, 15520.00
296.2760, 15589.00
297.4850, 15702.00
298.6930, 15796.00
299.9020, 15852.00
301.1110, 15956.46
302.3190, 15926.00
303.5270, 16034.00
304.7350, 15988.00
305.9430, 16088.55
307.1510, 16035.00
308.3580, 16208.00
309.5660, 16376.00
310.7730, 16318.00
311.9800, 16518.00
313.1870, 16759.63
314.3940, 17159.00
315.6010, 17318.00
316.8070, 17436.00
318.0130, 17612.00
319.2200, 17647.00
320.4260, 17616.00
321.6310, 17855.00
322.8370, 17626.00
324.0430, 17590.00
325.2480, 17537.00
326.4540, 17572.00
327.6590, 17497.00
328.8640, 17487.00
330.0680, 17316.00
331.2730, 17245.00
332.4780, 17076.00
333.6820, 17049.00
334.8860, 17199.00
336.0900, 16837.00
337.2940, 16987.00
338.4980, 17020.00
339.7010, 16916.00
340.9050, 17075.00
342.1080, 16928.00
343.3110, 17064.00
344.5140, 16882.00
345.7170, 16899.00
346.9200, 17075.00
348.1220, 16928.00
349.3240, 17040.00
350.5270, 17454.00
351.7290, 17433.00
352.9310, 17564.00
354.1320, 17582.00
355.3340, 17792.00
356.5350, 17872.00
357.7370, 18082.00
358.9380, 18229.00
360.1390, 18156.00
361.3400, 18268.00
362.5400, 18423.00
363.7410, 18421.00
364.9410, 18626.00
366.1410, 18778.00
367.3410, 18739.00
368.5410, 18697.00
369.7410, 18765.00
370.9400, 18621.00
372.1400, 18450.00
373.3390, 18475.00
374.5380, 18351.24
375.7370, 18260.00
376.9360, 18292.00
378.1350, 18157.00
379.3330, 18226.00
380.5310, 18141.00
381.7300, 18129.00
382.9280, 18044.00
384.1260, 17923.00
385.3230, 18251.00
386.5210, 18385.00
387.7180, 18197.00
388.9160, 18399.00
390.1130, 18322.00
391.3100, 18451.00
392.5060, 18460.00
393.7030, 18422.00
394.9000, 18205.00
396.0960, 18289.00
397.2920, 17966.00
398.4880, 17869.00
399.6840, 17787.00
400.8800, 17625.00
402.0750, 17410.00
403.2710, 17168.00
404.4660, 17070.00
405.6610, 16895.99
406.8560, 16927.00
408.0510, 16710.00
409.2450, 16679.00
410.4400, 16714.00
411.6340, 16590.00
412.8280, 16489.00
414.0220, 16603.00
415.2160, 16474.00
416.4100, 16458.00
417.6030, 16693.00
418.7970, 16622.00
419.9900, 16834.00
421.1830, 16652.00
422.3760, 16659.00
423.5690, 16609.00
424.7610, 16632.00
425.9540, 16554.00
427.1460, 16658.00
428.3380, 16491.00
429.5300, 16651.00
430.7220, 16521.00
431.9140, 16654.00
433.1050, 16449.00
434.2970, 16355.00
435.4880, 16266.00
436.6790, 16283.00
437.8700, 16220.18
439.0610, 16271.00
440.2510, 16201.00
441.4420, 16123.00
442.6320, 16147.00
443.8220, 15998.00
445.0120, 16015.00
446.2020, 16077.00
447.3910, 16029.00
448.5810, 16050.00
449.7700, 16082.00
450.9600, 16035.77
452.1490, 16032.29
453.3370, 15985.00
454.5260, 15977.00
455.7150, 15963.00
456.9030, 15961.00
458.0910, 16023.00
459.2800, 16025.94
460.4670, 15959.00
461.6550, 16065.00
462.8430, 16069.00
464.0300, 16036.00
465.2180, 16107.00
466.4050, 16039.00
467.5920, 16035.00
468.7790, 16232.00
469.9650, 16061.00
471.1520, 16131.00
472.3380, 16174.00
473.5250, 16341.00
474.7110, 16367.00
475.8970, 16430.00
477.0820, 16301.00
478.2680, 16371.52
479.4540, 16389.00
480.6390, 16417.00
481.8240, 16353.00
483.0090, 16412.00
484.1940, 16435.00
485.3780, 16481.00
486.5630, 16527.00
487.7470, 16551.10
488.9320, 16649.00
490.1160, 16697.00
491.3000, 16570.00
492.4830, 16818.00
493.6670, 16666.00
494.8500, 16805.00
496.0340, 16882.00
497.2170, 17130.00
498.4000, 17101.00
499.5820, 17350.00
500.7650, 17333.00
501.9480, 17349.00
503.1300, 17916.00
504.3120, 17990.00
505.4940, 18273.00
506.6760, 18574.00
507.8580, 18635.00
509.0390, 19077.00
510.2210, 19444.00
511.4020, 19432.00
512.5830, 19663.00
513.7640, 19832.00
514.9450, 19825.00
516.1250, 19844.00
517.3060, 19768.00
518.4860, 19687.00
519.6660, 19666.97
520.8460, 19626.00
522.0260, 19527.00
523.2060, 19395.00
524.3850, 19217.00
525.5650, 19018.00
526.7440, 19017.00
527.9230, 18965.00
529.1020, 18825.00
530.2810, 18809.00
531.4590, 18839.00
532.6380, 19109.00
533.8160, 18759.00
534.9940, 18639.00
536.1720, 18576.00
537.3500, 18156.00
538.5270, 18395.00
539.7050, 18217.00
540.8820, 18283.00
542.0590, 18284.00
543.2360, 18210.00
544.4130, 17987.00
545.5900, 18016.00
546.7660, 17923.00
547.9430, 17986.00
549.1190, 17987.00
550.2950, 17775.00
551.4710, 17878.00
552.6470, 17807.00
553.8220, 17893.00
554.9980, 17822.00
556.1730, 17794.00
557.3480, 17787.00
558.5230, 17783.00
559.6980, 17837.00
560.8730, 17679.00
562.0470, 17829.00
563.2220, 17989.00
564.3960, 17763.00
565.5700, 17742.00
566.7440, 17679.00
567.9170, 17818.00
569.0910, 17880.00
570.2640, 17913.00
571.4380, 17880.00
572.6110, 17954.00
573.7840, 17940.41
574.9570, 17971.00
576.1290, 17923.00
577.3020, 17967.45
578.4740, 17985.67
579.6460, 18083.00
580.8180, 18075.00
581.9900, 18125.00
583.1620, 18214.00
584.3330, 18351.00
585.5040, 18197.00
586.6760, 18440.00
587.8470, 18212.00
589.0180, 18322.00
590.1880, 18486.00
591.3590, 18410.00
592.5290, 18533.00
593.7000, 18417.00
594.8700, 18398.00
596.0400, 18800.00
597.2090, 18528.00
598.3790, 18744.00
599.5490, 18876.00
600.7180, 18616.00
601.8870, 18763.00
603.0560, 18746.00
604.2250, 19000.00
605.3940, 19108.00
606.5620, 19173.00
607.7300, 19141.00
608.8990, 19171.00
610.0670, 19458.00
611.2350, 19231.00
612.4020, 19536.00
613.5700, 19592.00
614.7370, 19561.00
615.9050, 19730.00
617.0720, 19814.00
618.2390, 19853.00
619.4060, 20037.00
620.5720, 20231.00
621.7390, 20271.00
622.9050, 20571.00
624.0710, 20767.00
625.2370, 20826.00
626.4030, 20929.00
627.5690, 21119.00
628.7340, 21190.00
629.9000, 21415.00
631.0650, 21592.00
632.2300, 21939.00
633.3950, 22143.00
634.5600, 22519.00
635.7240, 22726.00
636.8890, 22908.00
638.0530, 23269.00
639.2170, 23523.00
640.3810, 23905.00
641.5450, 24299.32
642.7080, 24510.00
643.8720, 25080.00
645.0350, 25515.00
646.1980, 25763.00
647.3610, 26350.00
648.5240, 26582.00
649.6870, 27153.00
650.8490, 27820.00
652.0120, 28467.00
653.1740, 28896.00
654.3360, 29972.00
655.4980, 30329.00
656.6600, 31052.00
657.8210, 32064.00
658.9830, 32695.00
660.1440, 34015.00
661.3050, 35291.00
662.4660, 36601.00
663.6270, 37955.00
664.7870, 39907.00
665.9480, 41941.00
667.1080, 43747.00
668.2680, 45808.00
669.4280, 47825.00
670.5880, 49497.00
671.7480, 51108.00
672.9070, 52058.00
674.0670, 52143.00
675.2260, 52743.00
676.3850, 51552.00
677.5440, 50093.00
678.7030, 47948.00
679.8610, 46076.00
681.0200, 43400.00
682.1780, 41304.00
683.3360, 38868.00
684.4940, 36618.00
685.6520, 34633.00
686.8090, 33031.00
687.9670, 31566.00
689.1240, 29811.00
690.2810, 29047.00
691.4380, 27686.00
692.5950, 27155.00
693.7520, 26278.00
694.9080, 25676.00
696.0650, 25033.00
697.2210, 24400.00
698.3770, 24105.00
699.5330, 23552.00
700.6880, 23374.00
701.8440, 23005.00
702.9990, 22949.00
704.1550, 22559.00
705.3100, 22571.00
706.4650, 22290.00
707.6190, 22145.00
708.7740, 22085.00
709.9290, 21856.00
711.0830, 21978.00
712.2370, 21807.00
713.3910, 21607.00
714.5450, 21804.00
715.6980, 21667.00
716.8520, 21690.00
718.0050, 21521.00
719.1580, 21612.00
720.3110, 21809.00
721.4640, 21769.00
722.6170, 21481.00
723.7700, 21746.00
724.9220, 21513.00
726.0740, 21710.00
727.2260, 21688.00
728.3780, 21630.00
729.5300, 21589.00
730.6810, 21764.00
731.8330, 21436.00
732.9840, 21731.00
734.1350, 21635.00
735.2860, 21643.00
736.4370, 21660.00
737.5880, 21600.00
738.7380, 21419.00
739.8880, 21502.00
741.0390, 21403.00
742.1890, 21556.00
743.3380, 21491.00
744.4880, 21730.00
745.6380, 21658.00
746.7870, 21741.00
747.9360, 21547.00
749.0850, 21697.00
750.2340, 21597.00
751.3830, 21657.00
752.5310, 21528.00
753.6800, 21598.00
754.8280, 21683.00
755.9760, 21724.00
757.1240, 21785.00
758.2720, 21781.04
759.4190, 21696.00
760.5670, 21688.00
761.7140, 21678.45
762.8610, 21618.00
764.0080, 21707.00
765.1550, 21756.00
766.3020, 21829.00
767.4480, 21831.10
768.5950, 21826.00
769.7410, 21895.00
770.8870, 21694.00
772.0330, 21882.00
773.1780, 22063.00
774.3240, 21947.00
775.4690, 22140.00
776.6140, 22275.00
777.7590, 22170.00
778.9040, 22228.00
780.0490, 22065.00
781.1940, 22020.00
782.3380, 22374.00
783.4820, 22262.00
784.6260, 22368.00
785.7700, 22440.00
786.9140, 22438.00
788.0580, 22486.99
789.2010, 22509.00
790.3450, 22503.00
791.4880, 22466.00
792.6310, 22473.00
793.7730, 22642.00
794.9160, 22719.00
796.0590, 22637.00
797.2010, 22535.00
798.3430, 22680.00
799.4850, 22690.00
800.6270, 22529.00
801.7690, 22663.00
802.9100, 22613.00
804.0520, 22845.00
805.1930, 22855.00
806.3340, 22680.00
807.4750, 23038.00
808.6160, 22856.00
809.7560, 22904.00
810.8970, 22947.00
812.0370, 22862.00
813.1770, 23035.00
814.3170, 23181.00
815.4570, 23232.00
816.5960, 23248.11
817.7360, 23033.00
818.8750, 23187.00
820.0140, 23130.00
821.1530, 23158.00
822.2920, 23280.00
823.4310, 23297.00
824.5690, 23323.00
825.7070, 23408.00
826.8460, 23516.00
827.9840, 23524.72
829.1220, 23495.00
830.2590, 23586.00
831.3970, 23576.00
832.5340, 23618.00
833.6710, 23665.81
834.8080, 23672.36
835.9450, 23723.00
837.0820, 23744.00
838.2190, 23719.00
839.3550, 23812.00
840.4910, 23860.00
841.6270, 23834.00
842.7630, 23787.00
843.8990, 24031.00
845.0350, 23860.00
846.1700, 24025.00
847.3060, 24065.00
848.4410, 23930.00
849.5760, 24063.00
850.7100, 24195.00
851.8450, 24108.00
852.9800, 24425.00
854.1140, 24128.00
855.2480, 24111.00
856.3820, 24306.00
857.5160, 24353.00
858.6500, 24462.00
859.7830, 24473.00
860.9170, 24566.14
862.0500, 24667.00
863.1830, 24615.00
864.3160, 24637.00
865.4480, 24704.62
866.5810, 24673.22
867.7130, 24798.00
868.8460, 24749.00
869.9780, 24733.00
871.1100, 24917.00
872.2410, 24858.00
873.3730, 24948.00
874.5050, 24959.00
875.6360, 25118.00
876.7670, 24975.00
877.8980, 25271.00
879.0290, 25186.00
880.1590, 25424.00
881.2900, 25303.00
882.4200, 25463.00
883.5500, 25617.00
884.6800, 25637.00
885.8100, 25982.00
886.9400, 26066.00
888.0690, 26160.00
889.1990, 26221.00
890.3280, 26366.00
891.4570, 26391.26
892.5860, 26410.00
893.7140, 26536.00
894.8430, 26773.00
895.9710, 26997.00
897.1000, 27120.00
898.2280, 26965.00
899.3560, 27174.00
900.4830, 27247.00
901.6110, 27292.00
902.7380, 27485.31
903.8660, 27650.00
904.9930, 27792.00
906.1200, 28106.00
907.2460, 28275.00
908.3730, 28320.00
909.5000, 28637.00
910.6260, 28679.00
911.7520, 28934.00
912.8780, 29055.00
914.0040, 29162.00
915.1290, 29225.00
916.2550, 29330.00
917.3800, 29436.71
918.5050, 29585.00
919.6300, 29630.00
920.7550, 29691.00
921.8800, 29712.71
923.0040, 29691.00
924.1290, 29810.00
925.2530, 29890.00
926.3770, 29976.00
927.5010, 29719.00
928.6250, 29771.00
929.7480, 29696.00
930.8720, 29732.00
931.9950, 29608.00
933.1180, 29706.00
934.2410, 29726.00
935.3640, 29777.00
936.4860, 29732.00
937.6090, 29362.00
938.7310, 29595.00
939.8530, 29406.00
940.9750, 29324.00
942.0970, 29466.00
943.2180, 29470.00
944.3400, 29642.00
945.4610, 29593.00
946.5820, 29429.00
947.7030, 29700.00
948.8240, 29497.00
949.9450, 29539.00
951.0650, 29654.00
952.1860, 29573.00
953.3060, 29681.00
954.4260, 29610.00
955.5460, 29495.00
956.6650, 29769.00
957.7850, 29578.00
958.9040, 29560.00
960.0230, 29698.00
961.1420, 29758.00
962.2610, 29613.00
963.3800, 29626.00
964.4990, 29738.00
965.6170, 29716.46
966.7350, 29739.65
967.8530, 29861.00
968.9710, 29744.00
970.0890, 29839.00
971.2070, 29878.00
972.3240, 29739.00
973.4410, 30047.00
974.5580, 30235.00
975.6750, 29909.00
976.7920, 30416.00
977.9090, 30247.00
979.0250, 30221.00
980.1410, 30273.00
981.2580, 30377.00
982.3740, 30676.00
983.4890, 30498.00
984.6050, 30910.00
985.7200, 30840.00
986.8360, 31018.00
987.9510, 31013.00
989.0660, 31153.00
990.1810, 31210.00
991.2950, 31708.00
992.4100, 31694.00
993.5240, 31561.00
994.6390, 32229.00
995.7530, 32085.00
996.8660, 32222.00
997.9800, 32507.00
999.0940, 33024.00
1000.207, 33202.00
1001.320, 33368.00
1002.433, 33728.00
1003.546, 34018.00
1004.659, 34251.00
1005.772, 34288.00
1006.884, 34470.00
1007.996, 34784.00
1009.108, 34801.00
1010.220, 34998.00
1011.332, 34961.00
1012.444, 34990.00
1013.555, 35203.00
1014.666, 35316.00
1015.777, 35106.00
1016.888, 35527.00
1017.999, 35284.00
1019.110, 35421.00
1020.220, 35567.00
1021.331, 35788.00
1022.441, 35875.00
1023.551, 35736.00
1024.661, 35814.00
1025.770, 35714.00
1026.880, 35817.00
1027.989, 36063.00
1029.098, 36234.00
1030.207, 36353.00
1031.316, 36134.00
1032.425, 36150.00
1033.533, 36385.00
1034.642, 36648.00
1035.750, 36737.00
1036.858, 36692.00
1037.966, 37071.00
1039.073, 37098.00
1040.181, 36882.00
1041.288, 37259.00
1042.396, 37333.00
1043.503, 37274.00
1044.610, 37205.00
1045.716, 37183.00
1046.823, 37541.00
1047.929, 37127.00
1049.036, 37260.00
1050.142, 37393.00
1051.248, 37171.00
1052.353, 37362.00
1053.459, 37372.00
1054.564, 37412.00
1055.670, 37584.00
1056.775, 37516.00
1057.880, 37655.98
1058.985, 37898.00
1060.089, 37887.00
1061.194, 37967.00
1062.298, 38186.00
1063.402, 38381.00
1064.506, 38534.00
1065.610, 38219.00
1066.713, 38195.00
1067.817, 37907.00
1068.920, 37944.00
1070.023, 37594.00
1071.126, 37521.00
1072.229, 37377.00
1073.332, 36725.00
1074.435, 36576.00
1075.537, 36142.00
1076.639, 35937.00
1077.741, 35449.00
1078.843, 35290.00
1079.945, 35024.00
1081.046, 34569.00
1082.148, 34723.00
1083.249, 34296.00
1084.350, 34034.00
1085.451, 33931.00
1086.551, 33743.00
1087.652, 33395.00
1088.752, 33467.00
1089.853, 33327.00
1090.953, 33231.00
1092.053, 33307.00
1093.152, 33168.00
1094.252, 32944.00
1095.351, 32970.00
1096.451, 32984.00
1097.550, 33171.00
1098.649, 32871.00
1099.748, 32826.00
1100.846, 32959.00
1101.945, 32876.00
1103.043, 32897.00
1104.141, 32879.00
1105.239, 32767.00
1106.337, 32877.00
1107.434, 32723.00
1108.532, 32900.00
1109.629, 32881.00
1110.726, 32782.00
1111.823, 32866.00
1112.920, 32940.00
1114.017, 33049.00
1115.113, 33033.00
1116.210, 33021.00
1117.306, 33089.20
1118.402, 33118.88
1119.498, 33134.00
1120.593, 33272.00
1121.689, 33233.00
1122.784, 33346.00
1123.879, 33308.00
1124.974, 33406.00
1126.069, 33351.00
1127.164, 33355.00
1128.259, 33423.00
1129.353, 33403.93
1130.447, 33418.29
1131.541, 33426.00
1132.635, 33474.00
1133.729, 33443.00
1134.822, 33602.00
1135.916, 33322.00
1137.009, 33218.00
1138.102, 33450.00
1139.195, 33398.00
1140.288, 33540.00
1141.380, 33485.00
1142.473, 33659.00
1143.565, 33786.00
1144.657, 33504.00
1145.749, 33580.00
1146.841, 33778.00
1147.932, 33883.00
1149.024, 33984.00
1150.115, 34007.03
1151.206, 33704.00
1152.297, 33975.00
1153.388, 33964.00
1154.479, 33965.00
1155.569, 34113.00
1156.659, 34052.00
1157.750, 34101.00
1158.839, 34138.00
1159.929, 34167.16
1161.019, 34124.00
1162.108, 34215.00
1163.198, 34367.00
1164.287, 34249.00
1165.376, 34460.00
1166.465, 34391.00
1167.553, 34378.00
1168.642, 34504.00
1169.730, 34451.00
1170.818, 34743.00
1171.906, 34638.00
1172.994, 34611.00
1174.082, 34631.00
1175.170, 34865.00
1176.257, 34954.00
1177.344, 34899.00
1178.431, 34718.00
1179.518, 34877.00
1180.605, 34981.00
1181.691, 34936.00
1182.778, 34975.00
1183.864, 35244.00
1184.950, 35216.00
1186.036, 35558.00
1187.122, 35357.00
1188.207, 35452.00
1189.292, 35173.00
1190.378, 35692.00
1191.463, 35522.00
1192.548, 35750.00
1193.632, 35365.00
1194.717, 35311.00
1195.801, 35715.00
1196.886, 35679.00
1197.970, 35692.00
1199.054, 35830.00
1200.137, 35834.00
1201.221, 35887.00
1202.305, 35747.00
1203.388, 36039.00
1204.471, 36120.00
1205.554, 35998.00
1206.637, 35955.00
1207.719, 36149.00
1208.802, 36226.00
1209.884, 36263.00
1210.966, 36452.00
1212.048, 36282.00
1213.130, 36527.00
1214.212, 36451.00
1215.293, 36668.00
1216.374, 36820.00
1217.456, 36623.00
1218.536, 36773.00
1219.617, 36709.00
1220.698, 36913.00
1221.778, 36776.00
1222.859, 36886.00
1223.939, 36985.00
1225.019, 36969.00
1226.099, 37075.00
1227.178, 37010.00
1228.258, 37081.03
1229.337, 37058.00
1230.417, 37173.00
1231.496, 37354.00
1232.574, 37420.00
1233.653, 37515.00
1234.732, 37550.00
1235.810, 37656.00
1236.888, 37593.00
1237.966, 37683.00
1239.044, 37665.00
1240.122, 38025.00
1241.199, 37802.00
1242.277, 37864.00
1243.354, 38190.00
1244.431, 38098.00
1245.508, 38081.00
1246.585, 38343.00
1247.661, 38274.00
1248.738, 38281.00
1249.814, 38331.00
1250.890, 38329.42
1251.966, 38350.00
1253.042, 38374.00
1254.117, 38526.00
1255.193, 38488.00
1256.268, 38785.00
1257.343, 38605.00
1258.418, 38826.00
1259.493, 38607.00
1260.567, 38857.00
1261.642, 39147.00
1262.716, 38923.00
1263.790, 39269.00
1264.864, 39088.00
1265.938, 39274.00
1267.011, 39324.00
1268.085, 39188.00
1269.158, 39491.00
1270.231, 39324.00
1271.304, 39378.00
1272.377, 39486.00
1273.450, 39480.00
1274.522, 39737.00
1275.594, 39717.00
1276.666, 39782.00
1277.738, 39953.00
1278.810, 39856.00
1279.882, 39928.00
1280.953, 39826.00
1282.025, 39911.00
1283.096, 39948.52
