##NAMES=Edenite
##RRUFFID=R050415
##IDEAL CHEMISTRY=NaCa_2_Mg_5_(Si_7_Al)O_22_(OH)_2_
##LOCALITY=Mogok, Burma
##OWNER=RRUFF
##SOURCE=Marcus Origlieri
##DESCRIPTION=Transparent pale green water worn fragment
##STATUS=The identification of this mineral has been confirmed by X-ray diffraction and chemical analysis
##URL=rruff.info/R050415
##MEASURED CHEMISTRY=(Na_0.83_K_0.17_)(Ca_1.76_Na_0.24_)_&#931;=2_(Mg_4.54_Al_0.40_Fe^3+^_0.06_)_&#931;=5_(Si_6.74_Al_1.26_)O_22_((OH)_0.52_F_0.48_)_2_
##PIN_ID=L01128
##ORIENTATION=Laser parallel to -c* (0 0 -1). Fiducial mark perpendicular to laser is parallel to -a [-1 0 0]
100.8830, 5464.000
102.1160, 5579.000
103.3490, 5767.000
104.5820, 6156.000
105.8150, 6665.000
107.0470, 7645.000
108.2800, 8304.000
109.5120, 8000.000
110.7440, 7891.000
111.9760, 8339.000
113.2080, 8893.000
114.4400, 9591.000
115.6710, 10141.00
116.9030, 10562.00
118.1340, 10919.00
119.3650, 11164.00
120.5960, 11258.00
121.8270, 11079.00
123.0580, 10695.00
124.2880, 10109.00
125.5190, 9313.000
126.7490, 8832.000
127.9790, 8390.000
129.2090, 7964.000
130.4390, 7682.000
131.6680, 7466.000
132.8980, 7354.000
134.1270, 7290.000
135.3560, 7228.000
136.5850, 7258.000
137.8140, 7303.000
139.0430, 7303.000
140.2710, 7265.000
141.5000, 7206.000
142.7280, 7216.000
143.9560, 7269.000
145.1840, 7301.000
146.4120, 7302.000
147.6390, 7348.000
148.8670, 7470.000
150.0940, 7621.000
151.3210, 7927.000
152.5490, 8215.592
153.7750, 8642.000
155.0020, 9040.000
156.2290, 9615.000
157.4550, 10212.00
158.6810, 10921.00
159.9080, 11814.00
161.1340, 12707.00
162.3590, 13773.00
163.5850, 14523.00
164.8110, 15173.00
166.0360, 15460.00
167.2610, 15231.00
168.4860, 15016.00
169.7110, 14230.00
170.9360, 13834.00
172.1610, 13299.00
173.3850, 13120.00
174.6100, 12772.00
175.8340, 12780.00
177.0580, 12806.00
178.2820, 12867.00
179.5050, 13054.00
180.7290, 12876.00
181.9520, 13057.00
183.1760, 13093.00
184.3990, 12806.00
185.6220, 12675.00
186.8450, 12506.00
188.0670, 12229.00
189.2900, 11778.00
190.5120, 11460.00
191.7340, 11155.00
192.9560, 11009.00
194.1780, 10744.00
195.4000, 10785.00
196.6220, 10652.00
197.8430, 10676.00
199.0640, 10766.00
200.2860, 10899.00
201.5070, 11216.00
202.7270, 11423.00
203.9480, 11592.00
205.1690, 11885.00
206.3890, 12444.00
207.6090, 12734.00
208.8290, 13302.00
210.0490, 14151.00
211.2690, 14790.00
212.4890, 15539.00
213.7080, 16813.00
214.9280, 17731.00
216.1470, 19034.00
217.3660, 20164.00
218.5850, 21634.00
219.8030, 22884.00
221.0220, 24641.00
222.2400, 25490.00
223.4590, 26826.00
224.6770, 27213.00
225.8950, 27529.00
227.1120, 27455.00
228.3300, 26588.00
229.5480, 26070.00
230.7650, 24613.00
231.9820, 23653.00
233.1990, 22489.00
234.4160, 21421.00
235.6330, 20526.00
236.8490, 19686.99
238.0660, 18919.00
239.2820, 18298.00
240.4980, 17667.00
241.7140, 17063.00
242.9300, 16500.00
244.1460, 15958.00
245.3610, 15373.00
246.5770, 14777.00
247.7920, 14426.00
249.0070, 14019.00
250.2220, 13674.00
251.4370, 13411.00
252.6510, 12880.00
253.8660, 12603.00
255.0800, 12351.00
256.2940, 12001.00
257.5080, 11899.00
258.7220, 11764.00
259.9360, 11238.00
261.1490, 10714.00
262.3630, 10380.00
263.5760, 10064.00
264.7890, 9912.000
266.0020, 9780.000
267.2150, 9447.000
268.4270, 9319.000
269.6400, 9393.000
270.8520, 9270.000
272.0640, 9168.000
273.2760, 9265.000
274.4880, 9225.000
275.7000, 9227.000
276.9120, 9225.946
278.1230, 9229.000
279.3340, 9207.000
280.5450, 9224.000
281.7560, 9290.000
282.9670, 9436.000
284.1780, 9543.000
285.3880, 9399.000
286.5980, 9600.000
287.8090, 9647.000
289.0190, 9775.000
290.2290, 10002.00
291.4380, 10181.00
292.6480, 10076.00
293.8570, 10107.00
295.0670, 10284.00
296.2760, 10403.00
297.4850, 10541.00
298.6930, 10623.00
299.9020, 10658.00
301.1110, 10660.00
302.3190, 10710.00
303.5270, 10953.00
304.7350, 10959.00
305.9430, 11102.00
307.1510, 11277.00
308.3580, 11375.00
309.5660, 11738.00
310.7730, 11956.00
311.9800, 12229.00
313.1870, 12563.00
314.3940, 12754.00
315.6010, 12934.00
316.8070, 13164.00
318.0130, 13179.00
319.2200, 13044.00
320.4260, 13238.00
321.6310, 13079.00
322.8370, 12860.00
324.0430, 12730.00
325.2480, 12491.00
326.4540, 12344.00
327.6590, 12147.00
328.8640, 11965.00
330.0680, 11745.00
331.2730, 11672.00
332.4780, 11443.00
333.6820, 11409.00
334.8860, 11445.00
336.0900, 11197.00
337.2940, 11299.00
338.4980, 11238.00
339.7010, 11232.00
340.9050, 11255.00
342.1080, 11224.00
343.3110, 11257.00
344.5140, 11385.00
345.7170, 11295.00
346.9200, 11477.00
348.1220, 11571.00
349.3240, 11622.00
350.5270, 11800.00
351.7290, 11846.00
352.9310, 12015.00
354.1320, 11931.00
355.3340, 11919.00
356.5350, 12166.00
357.7370, 12191.00
358.9380, 12303.00
360.1390, 12250.00
361.3400, 12436.00
362.5400, 12595.00
363.7410, 12724.00
364.9410, 12816.00
366.1410, 12909.00
367.3410, 13035.00
368.5410, 13084.38
369.7410, 13357.00
370.9400, 13252.00
372.1400, 13259.00
373.3390, 13456.00
374.5380, 13391.00
375.7370, 13166.00
376.9360, 13101.00
378.1350, 13026.00
379.3330, 12968.00
380.5310, 12894.00
381.7300, 12861.00
382.9280, 12859.74
384.1260, 12856.00
385.3230, 12889.00
386.5210, 12949.00
387.7180, 12953.66
388.9160, 12958.22
390.1130, 12897.00
391.3100, 12837.00
392.5060, 12746.00
393.7030, 12479.00
394.9000, 12355.00
396.0960, 12316.00
397.2920, 11992.00
398.4880, 11877.00
399.6840, 11519.00
400.8800, 11369.00
402.0750, 11177.00
403.2710, 10929.00
404.4660, 10695.00
405.6610, 10455.00
406.8560, 10528.00
408.0510, 10376.00
409.2450, 10343.00
410.4400, 10257.00
411.6340, 10218.00
412.8280, 10259.00
414.0220, 10140.00
415.2160, 10170.00
416.4100, 10314.00
417.6030, 10198.00
418.7970, 10167.00
419.9900, 10264.00
421.1830, 10349.00
422.3760, 10364.00
423.5690, 10280.00
424.7610, 10263.00
425.9540, 10210.00
427.1460, 10241.00
428.3380, 10209.00
429.5300, 10081.00
430.7220, 10073.00
431.9140, 9973.000
433.1050, 9834.000
434.2970, 9830.000
435.4880, 9793.000
436.6790, 9572.000
437.8700, 9708.000
439.0610, 9571.000
440.2510, 9539.000
441.4420, 9411.000
442.6320, 9420.000
443.8220, 9301.000
445.0120, 9350.000
446.2020, 9320.735
447.3910, 9275.000
448.5810, 9316.000
449.7700, 9227.000
450.9600, 9200.000
452.1490, 9226.806
453.3370, 9174.760
454.5260, 9238.000
455.7150, 9220.000
456.9030, 9156.000
458.0910, 9334.000
459.2800, 9345.000
460.4670, 9281.000
461.6550, 9179.000
462.8430, 9242.000
464.0300, 9198.000
465.2180, 9314.000
466.4050, 9229.000
467.5920, 9199.000
468.7790, 9177.000
469.9650, 9239.000
471.1520, 9289.000
472.3380, 9289.000
473.5250, 9210.000
474.7110, 9322.000
475.8970, 9266.000
477.0820, 9341.000
478.2680, 9238.000
479.4540, 9231.000
480.6390, 9330.000
481.8240, 9323.000
483.0090, 9441.000
484.1940, 9914.000
485.3780, 10178.00
486.5630, 10266.00
487.7470, 9514.000
488.9320, 9572.000
490.1160, 9502.000
491.3000, 9704.000
492.4830, 9661.721
493.6670, 9699.000
494.8500, 9704.000
496.0340, 9873.000
497.2170, 9915.000
498.4000, 10056.00
499.5820, 10093.00
500.7650, 10261.34
501.9480, 10401.00
503.1300, 10601.00
504.3120, 10876.00
505.4940, 11070.00
506.6760, 11335.00
507.8580, 11455.00
509.0390, 11681.00
510.2210, 11780.00
511.4020, 11916.58
512.5830, 12003.20
513.7640, 12098.00
514.9450, 12097.00
516.1250, 12080.00
517.3060, 12079.00
518.4860, 11988.00
519.6660, 12017.06
520.8460, 11976.00
522.0260, 11995.00
523.2060, 11979.00
524.3850, 11898.00
525.5650, 11892.00
526.7440, 11766.00
527.9230, 11821.00
529.1020, 11851.00
530.2810, 11758.00
531.4590, 11543.00
532.6380, 11725.00
533.8160, 11700.00
534.9940, 11474.00
536.1720, 11600.00
537.3500, 11466.00
538.5270, 11332.00
539.7050, 11219.00
540.8820, 11122.00
542.0590, 11044.00
543.2360, 10856.00
544.4130, 10648.00
545.5900, 10712.00
546.7660, 10685.00
547.9430, 10507.00
549.1190, 10498.00
550.2950, 10433.00
551.4710, 10338.00
552.6470, 10388.00
553.8220, 10274.00
554.9980, 10270.00
556.1730, 10279.00
557.3480, 10253.00
558.5230, 10240.00
559.6980, 10233.00
560.8730, 10218.11
562.0470, 10200.00
563.2220, 10190.00
564.3960, 10152.00
565.5700, 10112.00
566.7440, 10120.00
567.9170, 10126.00
569.0910, 10149.00
570.2640, 10129.00
571.4380, 10182.00
572.6110, 10187.00
573.7840, 10255.00
574.9570, 10246.00
576.1290, 10377.00
577.3020, 10313.00
578.4740, 10190.00
579.6460, 10330.00
580.8180, 10193.00
581.9900, 10283.00
583.1620, 10407.00
584.3330, 10413.00
585.5040, 10328.00
586.6760, 10457.00
587.8470, 10441.00
589.0180, 10448.00
590.1880, 10454.00
591.3590, 10517.00
592.5290, 10527.00
593.7000, 10546.54
594.8700, 10499.00
596.0400, 10582.00
597.2090, 10558.00
598.3790, 10591.00
599.5490, 10674.00
600.7180, 10715.00
601.8870, 10669.00
603.0560, 10854.00
604.2250, 10793.00
605.3940, 11130.00
606.5620, 11124.00
607.7300, 11094.00
608.8990, 11254.00
610.0670, 11242.00
611.2350, 11411.00
612.4020, 11474.00
613.5700, 11700.00
614.7370, 11685.00
615.9050, 11900.00
617.0720, 11840.00
618.2390, 12094.00
619.4060, 12284.00
620.5720, 12372.00
621.7390, 12436.00
622.9050, 12667.00
624.0710, 12747.00
625.2370, 13044.00
626.4030, 13187.00
627.5690, 13341.00
628.7340, 13647.00
629.9000, 14009.00
631.0650, 14253.00
632.2300, 14488.00
633.3950, 14777.00
634.5600, 15142.00
635.7240, 15617.00
636.8890, 15975.00
638.0530, 16478.00
639.2170, 16823.00
640.3810, 17215.00
641.5450, 17740.00
642.7080, 18294.00
643.8720, 18991.00
645.0350, 19486.00
646.1980, 20158.00
647.3610, 20981.00
648.5240, 21587.00
649.6870, 22296.00
650.8490, 23036.00
652.0120, 24027.00
653.1740, 24998.00
654.3360, 26066.00
655.4980, 26856.00
656.6600, 28119.00
657.8210, 29743.00
658.9830, 30629.00
660.1440, 32459.00
661.3050, 34527.00
662.4660, 36753.00
663.6270, 39203.00
664.7870, 41613.00
665.9480, 44640.00
667.1080, 47245.00
668.2680, 50315.00
669.4280, 52691.00
670.5880, 54795.00
671.7480, 56791.00
672.9070, 57272.00
674.0670, 57346.00
675.2260, 56670.00
676.3850, 54973.00
677.5440, 52408.00
678.7030, 49611.00
679.8610, 46391.00
681.0200, 42972.00
682.1780, 39495.00
683.3360, 36242.00
684.4940, 33403.00
685.6520, 30459.00
686.8090, 27971.00
687.9670, 25885.00
689.1240, 24112.00
690.2810, 22584.00
691.4380, 21267.00
692.5950, 20053.23
693.7520, 19326.00
694.9080, 18202.00
696.0650, 17532.00
697.2210, 17015.00
698.3770, 16432.00
699.5330, 15885.00
700.6880, 15413.00
701.8440, 14905.00
702.9990, 14606.00
704.1550, 14373.00
705.3100, 14141.00
706.4650, 13834.00
707.6190, 13671.00
708.7740, 13591.00
709.9290, 13316.00
711.0830, 13394.00
712.2370, 13205.00
713.3910, 13030.00
714.5450, 12962.00
715.6980, 12944.00
716.8520, 12729.00
718.0050, 12877.00
719.1580, 12685.00
720.3110, 12766.00
721.4640, 12762.00
722.6170, 12672.00
723.7700, 12664.00
724.9220, 12659.00
726.0740, 12658.00
727.2260, 12640.00
728.3780, 12675.00
729.5300, 12689.00
730.6810, 12620.00
731.8330, 12519.00
732.9840, 12597.00
734.1350, 12430.00
735.2860, 12398.00
736.4370, 12395.40
737.5880, 12360.00
738.7380, 12322.00
739.8880, 12314.44
741.0390, 12315.00
742.1890, 12278.00
743.3380, 12274.00
744.4880, 12247.00
745.6380, 12312.00
746.7870, 12232.00
747.9360, 12222.00
749.0850, 12449.00
750.2340, 12270.00
751.3830, 12173.00
752.5310, 12118.00
753.6800, 12299.00
754.8280, 12145.00
755.9760, 12249.00
757.1240, 12292.00
758.2720, 12186.00
759.4190, 12422.00
760.5670, 12217.00
761.7140, 12247.00
762.8610, 12254.00
764.0080, 12361.00
765.1550, 12196.00
766.3020, 12313.00
767.4480, 12366.00
768.5950, 12462.00
769.7410, 12358.00
770.8870, 12525.00
772.0330, 12400.00
773.1780, 12334.00
774.3240, 12536.00
775.4690, 12471.00
776.6140, 12590.00
777.7590, 12670.00
778.9040, 12520.00
780.0490, 12494.00
781.1940, 12621.00
782.3380, 12682.00
783.4820, 12551.00
784.6260, 12560.00
785.7700, 12763.00
786.9140, 12624.00
788.0580, 12644.00
789.2010, 12800.00
790.3450, 12731.00
791.4880, 12661.00
792.6310, 12798.00
793.7730, 12774.00
794.9160, 12896.00
796.0590, 12827.00
797.2010, 12911.00
798.3430, 12910.00
799.4850, 12966.00
800.6270, 12881.00
801.7690, 12960.00
802.9100, 12940.00
804.0520, 12962.00
805.1930, 13001.00
806.3340, 13053.00
807.4750, 12979.00
808.6160, 13014.00
809.7560, 13141.00
810.8970, 12962.00
812.0370, 12970.00
813.1770, 13047.00
814.3170, 13208.00
815.4570, 13201.00
816.5960, 13128.00
817.7360, 13123.00
818.8750, 13315.00
820.0140, 13225.00
821.1530, 13287.00
822.2920, 13251.00
823.4310, 13378.00
824.5690, 13376.00
825.7070, 13370.00
826.8460, 13408.85
827.9840, 13378.00
829.1220, 13466.00
830.2590, 13431.00
831.3970, 13581.00
832.5340, 13544.00
833.6710, 13435.00
834.8080, 13664.00
835.9450, 13679.00
837.0820, 13446.00
838.2190, 13657.00
839.3550, 13588.00
840.4910, 13523.00
841.6270, 13813.00
842.7630, 13709.00
843.8990, 13746.00
845.0350, 13627.00
846.1700, 13700.00
847.3060, 13763.00
848.4410, 13719.00
849.5760, 13717.00
850.7100, 13845.00
851.8450, 13823.00
852.9800, 13916.00
854.1140, 13968.00
855.2480, 13909.00
856.3820, 13885.00
857.5160, 14002.00
858.6500, 14024.00
859.7830, 13986.00
860.9170, 14177.00
862.0500, 14059.00
863.1830, 14179.00
864.3160, 14100.00
865.4480, 14220.00
866.5810, 14274.00
867.7130, 14357.00
868.8460, 14452.00
869.9780, 14441.00
871.1100, 14492.00
872.2410, 14448.00
873.3730, 14370.00
874.5050, 14662.00
875.6360, 14865.00
876.7670, 14826.00
877.8980, 14943.00
879.0290, 15094.00
880.1590, 15171.00
881.2900, 15419.00
882.4200, 15427.00
883.5500, 15572.00
884.6800, 15723.00
885.8100, 15994.00
886.9400, 16114.00
888.0690, 16172.00
889.1990, 16410.00
890.3280, 16539.00
891.4570, 16657.00
892.5860, 16818.00
893.7140, 16920.00
894.8430, 17160.00
895.9710, 17257.00
897.1000, 17248.00
898.2280, 17472.00
899.3560, 17365.00
900.4830, 17862.00
901.6110, 17942.00
902.7380, 18244.00
903.8660, 18295.00
904.9930, 18546.00
906.1200, 18682.00
907.2460, 19046.00
908.3730, 19216.00
909.5000, 19425.00
910.6260, 19494.00
911.7520, 19783.00
912.8780, 19960.58
914.0040, 20247.00
915.1290, 20380.00
916.2550, 20646.00
917.3800, 20789.00
918.5050, 20795.00
919.6300, 20970.00
920.7550, 21031.00
921.8800, 20944.00
923.0040, 21116.00
924.1290, 20971.00
925.2530, 21012.00
926.3770, 20765.00
927.5010, 20791.00
928.6250, 20654.00
929.7480, 20441.00
930.8720, 20419.00
931.9950, 20275.00
933.1180, 20103.00
934.2410, 19982.00
935.3640, 20139.00
936.4860, 20009.00
937.6090, 20015.00
938.7310, 19803.00
939.8530, 20072.00
940.9750, 19765.00
942.0970, 19705.00
943.2180, 19899.00
944.3400, 19984.00
945.4610, 19550.00
946.5820, 19865.00
947.7030, 19998.00
948.8240, 19775.00
949.9450, 20076.00
951.0650, 19910.00
952.1860, 19937.00
953.3060, 19914.00
954.4260, 19872.00
955.5460, 19885.00
956.6650, 19795.00
957.7850, 19794.16
958.9040, 19867.00
960.0230, 19722.00
961.1420, 19603.00
962.2610, 19500.00
963.3800, 19668.00
964.4990, 19586.00
965.6170, 19561.00
966.7350, 19619.00
967.8530, 19470.00
968.9710, 19446.00
970.0890, 19542.00
971.2070, 19664.00
972.3240, 19557.00
973.4410, 19718.00
974.5580, 19766.00
975.6750, 19787.00
976.7920, 19888.00
977.9090, 19963.00
979.0250, 19743.00
980.1410, 19854.00
981.2580, 20049.00
982.3740, 20317.00
983.4890, 20252.00
984.6050, 20269.00
985.7200, 20385.00
986.8360, 20516.00
987.9510, 20738.00
989.0660, 20662.00
990.1810, 20942.00
991.2950, 21050.00
992.4100, 21326.00
993.5240, 21452.00
994.6390, 21519.00
995.7530, 21906.00
996.8660, 22011.00
997.9800, 22378.00
999.0940, 22643.00
1000.207, 22734.00
1001.320, 23211.00
1002.433, 23414.00
1003.546, 23771.00
1004.659, 24097.00
1005.772, 24460.00
1006.884, 24583.00
1007.996, 24882.00
1009.108, 25149.00
1010.220, 25104.00
1011.332, 25376.00
1012.444, 25536.00
1013.555, 25591.00
1014.666, 25984.00
1015.777, 26037.00
1016.888, 26136.00
1017.999, 26257.00
1019.110, 26220.00
1020.220, 26325.00
1021.331, 26409.00
1022.441, 26424.00
1023.551, 26479.00
1024.661, 26576.94
1025.770, 26465.00
1026.880, 26703.00
1027.989, 26760.00
1029.098, 26660.00
1030.207, 26705.00
1031.316, 26855.77
1032.425, 26938.11
1033.533, 27233.00
1034.642, 27381.00
1035.750, 27587.00
1036.858, 27791.43
1037.966, 27923.00
1039.073, 28172.00
1040.181, 28204.00
1041.288, 28408.00
1042.396, 28635.00
1043.503, 28551.00
1044.610, 28699.00
1045.716, 28818.00
1046.823, 29003.00
1047.929, 29130.00
1049.036, 29224.00
1050.142, 29294.00
1051.248, 29509.10
1052.353, 29469.00
1053.459, 30028.00
1054.564, 30122.00
1055.670, 30581.00
1056.775, 30706.00
1057.880, 31178.00
1058.985, 31501.00
1060.089, 31621.00
1061.194, 32053.00
1062.298, 32390.00
1063.402, 32531.00
1064.506, 32470.00
1065.610, 32376.00
1066.713, 32214.00
1067.817, 31677.00
1068.920, 31778.00
1070.023, 31179.00
1071.126, 30441.00
1072.229, 30012.00
1073.332, 29317.00
1074.435, 28510.00
1075.537, 27757.00
1076.639, 27164.00
1077.741, 26505.00
1078.843, 25682.00
1079.945, 25270.00
1081.046, 24594.00
1082.148, 24214.00
1083.249, 23669.00
1084.350, 23321.00
1085.451, 22957.00
1086.551, 22447.00
1087.652, 22145.00
1088.752, 21933.00
1089.853, 21815.00
1090.953, 21638.00
1092.053, 21412.00
1093.152, 21267.00
1094.252, 21183.66
1095.351, 21248.00
1096.451, 21060.00
1097.550, 21014.00
1098.649, 20909.00
1099.748, 20837.00
1100.846, 20773.00
1101.945, 20705.00
1103.043, 20545.00
1104.141, 20542.00
1105.239, 20451.21
1106.337, 20432.62
1107.434, 20337.00
1108.532, 20423.00
1109.629, 20367.00
1110.726, 20340.00
1111.823, 20374.00
1112.920, 20559.00
1114.017, 20686.00
1115.113, 20606.00
1116.210, 20374.00
1117.306, 20656.00
1118.402, 20717.00
1119.498, 20678.00
1120.593, 20938.00
1121.689, 20877.00
1122.784, 21002.00
1123.879, 20969.00
1124.974, 20800.00
1126.069, 20780.00
1127.164, 20601.00
1128.259, 20673.00
1129.353, 20664.00
1130.447, 20568.00
1131.541, 20632.00
1132.635, 20725.00
1133.729, 20459.00
1134.822, 20685.00
1135.916, 20610.00
1137.009, 20600.00
1138.102, 20523.00
1139.195, 20546.48
1140.288, 20634.00
1141.380, 20623.00
1142.473, 20705.38
1143.565, 20807.00
1144.657, 20790.00
1145.749, 20725.00
1146.841, 20726.00
1147.932, 20852.00
1149.024, 20683.00
1150.115, 20763.00
1151.206, 20690.00
1152.297, 20872.00
1153.388, 20792.00
1154.479, 20840.00
1155.569, 20861.00
1156.659, 20872.35
1157.750, 20965.00
1158.839, 20884.00
1159.929, 21077.00
1161.019, 20952.00
1162.108, 21086.00
1163.198, 21020.00
1164.287, 21057.00
1165.376, 20967.00
1166.465, 21038.00
1167.553, 21110.00
1168.642, 21344.00
1169.730, 21318.00
1170.818, 21305.00
1171.906, 21383.00
1172.994, 21376.00
1174.082, 21380.00
1175.170, 21359.00
1176.257, 21356.00
1177.344, 21661.00
1178.431, 21468.00
1179.518, 21653.00
1180.605, 21573.00
1181.691, 21552.00
1182.778, 21668.00
1183.864, 21653.00
1184.950, 21664.00
1186.036, 21726.00
1187.122, 21848.00
1188.207, 21984.00
1189.292, 22001.89
1190.378, 22055.00
1191.463, 22072.00
1192.548, 21982.00
1193.632, 22029.00
1194.717, 21968.00
1195.801, 22323.00
1196.886, 21981.00
1197.970, 22264.00
1199.054, 22330.00
1200.137, 22227.00
1201.221, 22158.00
1202.305, 22318.00
1203.388, 22551.00
1204.471, 22275.00
1205.554, 22294.00
1206.637, 22552.00
1207.719, 22582.00
1208.802, 22581.00
1209.884, 22684.00
1210.966, 22624.00
1212.048, 22817.00
1213.130, 22940.00
1214.212, 22632.00
1215.293, 22836.00
1216.374, 23032.00
1217.456, 22760.00
1218.536, 23104.00
1219.617, 23127.00
1220.698, 23171.00
1221.778, 22966.00
1222.859, 23325.00
1223.939, 23232.00
1225.019, 23248.00
1226.099, 23193.00
1227.178, 23561.00
1228.258, 23543.00
1229.337, 23424.00
1230.417, 23261.00
1231.496, 23729.00
1232.574, 23399.00
1233.653, 23671.00
1234.732, 23673.00
1235.810, 23813.00
1236.888, 23666.00
1237.966, 23921.00
1239.044, 23671.00
1240.122, 23976.00
1241.199, 23795.00
1242.277, 24184.00
1243.354, 23924.00
1244.431, 23990.00
1245.508, 24093.00
1246.585, 24134.00
1247.661, 24293.00
1248.738, 24400.00
1249.814, 24544.00
1250.890, 24569.00
1251.966, 24475.00
1253.042, 24600.00
1254.117, 24672.00
1255.193, 24498.00
1256.268, 24565.00
1257.343, 24848.00
1258.418, 24646.00
1259.493, 24830.00
1260.567, 24774.00
1261.642, 24845.00
1262.716, 24842.00
1263.790, 24894.83
1264.864, 25090.00
1265.938, 25007.00
1267.011, 25110.00
1268.085, 25129.00
1269.158, 25142.00
1270.231, 25147.00
1271.304, 25277.00
1272.377, 25191.00
1273.450, 25225.00
1274.522, 25599.00
1275.594, 25466.00
1276.666, 25457.00
