##NAMES=Edingtonite
##RRUFFID=R040110
##IDEAL CHEMISTRY=Ba(Si_3_Al_2_)O_10_&#183;4H_2_O
##LOCALITY=2350 level, Brunswick 12 mine, Bathhurst, New Brunswick, Canada
##OWNER=RRUFF
##SOURCE=National Museums of Canada
##DESCRIPTION=Colorless rectangular prism
##STATUS=The identification of this mineral has been confirmed by X-ray diffraction and chemical analysis
##URL=rruff.info/R040110
##MEASURED CHEMISTRY=Ba_1.00_(Si_3.00_Al_2.00_)O_10_Â·4H_2_O
##PIN_ID=L01449
##ORIENTATION=Laser parallel to b* (0 1 0). Fiducial mark perpendicular to laser is parallel to c [0 0 1]
91.01200, 9176.896
92.24600, 10345.00
93.48000, 10980.00
94.71400, 12061.00
95.94800, 12952.00
97.18200, 13620.00
98.41600, 14739.00
99.64900, 15648.00
100.8830, 16395.00
102.1160, 16763.14
103.3490, 17530.05
104.5820, 18202.08
105.8150, 18784.34
107.0470, 19007.50
108.2800, 19694.23
109.5120, 20194.91
110.7440, 20687.99
111.9760, 21439.45
113.2080, 21714.78
114.4400, 22250.00
115.6710, 22178.00
116.9030, 22698.00
118.1340, 23568.00
119.3650, 23687.00
120.5960, 23660.00
121.8270, 23775.00
123.0580, 24661.00
124.2880, 25028.00
125.5190, 25590.00
126.7490, 26367.00
127.9790, 26899.00
129.2090, 27881.00
130.4390, 28743.00
131.6680, 29483.00
132.8980, 30169.00
134.1270, 30859.00
135.3560, 31018.00
136.5850, 31229.00
137.8140, 30899.00
139.0430, 30087.00
140.2710, 29343.00
141.5000, 28361.00
142.7280, 27959.00
143.9560, 27323.00
145.1840, 27102.00
146.4120, 26962.00
147.6390, 27124.00
148.8670, 27253.00
150.0940, 27495.00
151.3210, 27736.00
152.5490, 28078.00
153.7750, 28242.00
155.0020, 28202.00
156.2290, 27838.00
157.4550, 27349.00
158.6810, 26422.00
159.9080, 25387.00
161.1340, 24222.00
162.3590, 22992.00
163.5850, 21760.00
164.8110, 20612.00
166.0360, 19169.00
167.2610, 18101.00
168.4860, 17100.00
169.7110, 16378.00
170.9360, 15577.00
172.1610, 14973.00
173.3850, 14479.00
174.6100, 13951.00
175.8340, 13542.00
177.0580, 13257.00
178.2820, 12996.00
179.5050, 12707.00
180.7290, 12589.00
181.9520, 12398.00
183.1760, 12119.00
184.3990, 12244.00
185.6220, 12152.00
186.8450, 12196.00
188.0670, 12060.00
189.2900, 11995.00
190.5120, 11972.00
191.7340, 12225.00
192.9560, 12045.00
194.1780, 12304.00
195.4000, 12135.00
196.6220, 12271.00
197.8430, 12409.00
199.0640, 12475.00
200.2860, 12513.96
201.5070, 12452.00
202.7270, 12497.00
203.9480, 12293.00
205.1690, 12229.00
206.3890, 12147.00
207.6090, 11884.00
208.8290, 11727.00
210.0490, 11716.00
211.2690, 11641.00
212.4890, 11637.00
213.7080, 11517.00
214.9280, 11316.00
216.1470, 11269.00
217.3660, 11101.00
218.5850, 10897.00
219.8030, 11032.00
221.0220, 10832.00
222.2400, 10830.00
223.4590, 10986.00
224.6770, 11397.00
225.8950, 11749.00
227.1120, 11964.00
228.3300, 12668.00
229.5480, 13059.00
230.7650, 13680.00
231.9820, 14667.00
233.1990, 15711.00
234.4160, 16866.00
235.6330, 18091.00
236.8490, 18573.00
238.0660, 18290.00
239.2820, 16628.00
240.4980, 14789.00
241.7140, 12932.00
242.9300, 11366.00
244.1460, 10360.00
245.3610, 9693.000
246.5770, 9162.000
247.7920, 8818.000
249.0070, 8608.000
250.2220, 8322.000
251.4370, 8256.000
252.6510, 8178.000
253.8660, 8088.000
255.0800, 8015.000
256.2940, 8040.000
257.5080, 8316.000
258.7220, 8200.443
259.9360, 8172.224
261.1490, 8200.000
262.3630, 8012.000
263.5760, 8029.000
264.7890, 8166.000
266.0020, 8137.000
267.2150, 8333.000
268.4270, 8500.000
269.6400, 8268.000
270.8520, 8426.000
272.0640, 8471.000
273.2760, 8413.000
274.4880, 8492.000
275.7000, 8510.000
276.9120, 8431.000
278.1230, 8379.000
279.3340, 8350.000
280.5450, 8179.000
281.7560, 8121.000
282.9670, 8147.000
284.1780, 8146.000
285.3880, 8135.000
286.5980, 8183.000
287.8090, 8171.992
289.0190, 8064.000
290.2290, 8197.000
291.4380, 8205.000
292.6480, 8239.000
293.8570, 8361.000
295.0670, 8447.000
296.2760, 8459.415
297.4850, 8545.000
298.6930, 8519.000
299.9020, 8474.000
301.1110, 8564.000
302.3190, 8523.000
303.5270, 8740.000
304.7350, 8754.000
305.9430, 8784.000
307.1510, 8818.000
308.3580, 8839.000
309.5660, 8907.000
310.7730, 8906.000
311.9800, 9038.000
313.1870, 9102.000
314.3940, 9250.000
315.6010, 9083.000
316.8070, 9189.000
318.0130, 9146.000
319.2200, 9076.000
320.4260, 9027.000
321.6310, 8930.000
322.8370, 9068.000
324.0430, 9004.000
325.2480, 9137.000
326.4540, 9199.000
327.6590, 9302.000
328.8640, 9341.000
330.0680, 9580.000
331.2730, 9554.000
332.4780, 9856.000
333.6820, 10218.00
334.8860, 10208.00
336.0900, 10424.00
337.2940, 10598.00
338.4980, 10831.00
339.7010, 10759.00
340.9050, 10677.00
342.1080, 10654.00
343.3110, 10469.00
344.5140, 10503.00
345.7170, 10422.00
346.9200, 10284.00
348.1220, 10231.78
349.3240, 10062.00
350.5270, 10117.00
351.7290, 10100.00
352.9310, 10267.00
354.1320, 10437.00
355.3340, 10444.00
356.5350, 10809.00
357.7370, 10879.00
358.9380, 10899.00
360.1390, 11070.00
361.3400, 11027.00
362.5400, 10995.00
363.7410, 10722.00
364.9410, 10360.00
366.1410, 10136.00
367.3410, 9813.000
368.5410, 9434.000
369.7410, 9270.000
370.9400, 8752.000
372.1400, 8599.000
373.3390, 8388.000
374.5380, 8240.000
375.7370, 8109.000
376.9360, 7936.000
378.1350, 7842.000
379.3330, 7766.000
380.5310, 7717.000
381.7300, 7808.000
382.9280, 7659.000
384.1260, 7699.000
385.3230, 7610.000
386.5210, 7571.000
387.7180, 7712.000
388.9160, 7807.000
390.1130, 7695.000
391.3100, 7710.000
392.5060, 7668.000
393.7030, 7756.000
394.9000, 7849.000
396.0960, 7937.000
397.2920, 8079.000
398.4880, 8321.000
399.6840, 8411.355
400.8800, 8434.000
402.0750, 8676.000
403.2710, 8679.000
404.4660, 8772.000
405.6610, 9019.000
406.8560, 8939.000
408.0510, 8937.000
409.2450, 8900.000
410.4400, 8883.000
411.6340, 8865.000
412.8280, 8994.000
414.0220, 8999.000
415.2160, 9046.000
416.4100, 9234.000
417.6030, 9386.000
418.7970, 9526.686
419.9900, 9898.000
421.1830, 9961.000
422.3760, 10188.00
423.5690, 10619.00
424.7610, 10736.00
425.9540, 10982.00
427.1460, 11266.00
428.3380, 11473.00
429.5300, 11742.00
430.7220, 12153.00
431.9140, 12184.00
433.1050, 12400.00
434.2970, 12282.00
435.4880, 12227.00
436.6790, 11897.00
437.8700, 11762.00
439.0610, 11507.00
440.2510, 11178.00
441.4420, 10756.00
442.6320, 10474.00
443.8220, 10103.00
445.0120, 9675.000
446.2020, 9351.000
447.3910, 9121.000
448.5810, 9034.000
449.7700, 8753.000
450.9600, 8583.000
452.1490, 8427.000
453.3370, 8229.517
454.5260, 8106.000
455.7150, 7961.000
456.9030, 7900.000
458.0910, 7879.000
459.2800, 7734.000
460.4670, 7706.892
461.6550, 7604.430
462.8430, 7577.000
464.0300, 7437.000
465.2180, 7346.000
466.4050, 7310.000
467.5920, 7287.000
468.7790, 7293.000
469.9650, 7239.000
471.1520, 7380.000
472.3380, 7752.000
473.5250, 7282.000
474.7110, 7262.000
475.8970, 7684.000
477.0820, 7588.000
478.2680, 7283.000
479.4540, 7306.000
480.6390, 7315.000
481.8240, 7317.000
483.0090, 7387.000
484.1940, 7420.000
485.3780, 7482.378
486.5630, 7571.068
487.7470, 7635.000
488.9320, 7745.000
490.1160, 7850.000
491.3000, 7906.552
492.4830, 8017.000
493.6670, 8129.000
494.8500, 8165.000
496.0340, 8357.000
497.2170, 8348.000
498.4000, 8546.000
499.5820, 8591.000
500.7650, 8784.000
501.9480, 9079.000
503.1300, 9295.000
504.3120, 9476.000
505.4940, 9884.000
506.6760, 10021.00
507.8580, 10665.00
509.0390, 11056.00
510.2210, 11638.00
511.4020, 12441.00
512.5830, 13425.00
513.7640, 14735.00
514.9450, 16307.00
516.1250, 18276.00
517.3060, 20855.00
518.4860, 23986.00
519.6660, 27333.00
520.8460, 31329.00
522.0260, 35690.00
523.2060, 40211.00
524.3850, 45115.00
525.5650, 50354.00
526.7440, 55486.00
527.9230, 59990.00
529.1020, 62381.00
530.2810, 62080.00
531.4590, 59425.00
532.6380, 54166.00
533.8160, 47472.00
534.9940, 40980.00
536.1720, 34787.00
537.3500, 29927.00
538.5270, 25393.00
539.7050, 22098.00
540.8820, 19480.00
542.0590, 17542.00
543.2360, 15988.00
544.4130, 14563.00
545.5900, 13537.00
546.7660, 12708.00
547.9430, 12025.00
549.1190, 11333.00
550.2950, 10868.00
551.4710, 10542.00
552.6470, 10181.00
553.8220, 9984.000
554.9980, 9660.000
556.1730, 9477.000
557.3480, 9169.000
558.5230, 9096.000
559.6980, 8921.000
560.8730, 8707.000
562.0470, 8689.000
563.2220, 8566.000
564.3960, 8466.000
565.5700, 8397.000
566.7440, 8212.000
567.9170, 8162.000
569.0910, 8103.408
570.2640, 8201.000
571.4380, 8049.000
572.6110, 8073.000
573.7840, 8068.000
574.9570, 8067.000
576.1290, 7948.000
577.3020, 7908.000
578.4740, 7989.000
579.6460, 7956.000
580.8180, 8004.000
581.9900, 8020.000
583.1620, 8071.000
584.3330, 8089.824
585.5040, 8080.000
586.6760, 8136.000
587.8470, 8181.000
589.0180, 8213.000
590.1880, 8294.000
591.3590, 8444.000
592.5290, 8385.000
593.7000, 8612.000
594.8700, 8516.000
596.0400, 8693.000
597.2090, 8661.000
598.3790, 8727.000
599.5490, 8587.000
600.7180, 8649.000
601.8870, 8656.000
603.0560, 8556.000
604.2250, 8585.000
605.3940, 8396.000
606.5620, 8565.000
607.7300, 8231.000
608.8990, 8226.000
610.0670, 8071.000
611.2350, 7938.000
612.4020, 7923.000
613.5700, 7807.000
614.7370, 7751.000
615.9050, 7717.000
617.0720, 7621.000
618.2390, 7574.000
619.4060, 7568.000
620.5720, 7439.000
621.7390, 7486.000
622.9050, 7528.000
624.0710, 7513.000
625.2370, 7459.000
626.4030, 7439.000
627.5690, 7456.000
628.7340, 7400.000
629.9000, 7479.000
631.0650, 7372.000
632.2300, 7509.000
633.3950, 7435.000
634.5600, 7518.000
635.7240, 7584.000
636.8890, 7619.000
638.0530, 7689.000
639.2170, 7772.000
640.3810, 7941.000
641.5450, 8037.000
642.7080, 8049.000
643.8720, 8204.000
645.0350, 8493.000
646.1980, 8583.000
647.3610, 8819.000
648.5240, 9136.000
649.6870, 9309.000
650.8490, 9680.000
652.0120, 9740.000
653.1740, 9923.000
654.3360, 10189.00
655.4980, 10296.00
656.6600, 10233.00
657.8210, 10247.71
658.9830, 10144.00
660.1440, 9990.000
661.3050, 9786.000
662.4660, 9581.000
663.6270, 9285.000
664.7870, 9045.000
665.9480, 8710.000
667.1080, 8446.000
668.2680, 8341.000
669.4280, 8248.000
670.5880, 8084.000
671.7480, 8014.000
672.9070, 7919.000
674.0670, 7828.000
675.2260, 7612.000
676.3850, 7721.000
677.5440, 7774.000
678.7030, 7559.000
679.8610, 7719.000
681.0200, 7633.000
682.1780, 7628.000
683.3360, 7691.000
684.4940, 7785.000
685.6520, 7761.000
686.8090, 7721.000
687.9670, 7713.000
689.1240, 7840.000
690.2810, 7800.000
691.4380, 7991.000
692.5950, 7908.000
693.7520, 8096.000
694.9080, 8103.000
696.0650, 8211.000
697.2210, 8314.000
698.3770, 8342.000
699.5330, 8587.000
700.6880, 8630.000
701.8440, 8759.000
702.9990, 8915.000
704.1550, 9107.000
705.3100, 9218.000
706.4650, 9344.643
707.6190, 9460.000
708.7740, 9554.000
709.9290, 9607.000
711.0830, 9726.000
712.2370, 9983.000
713.3910, 10008.00
714.5450, 10008.00
715.6980, 10038.00
716.8520, 10002.00
718.0050, 9842.000
719.1580, 9676.000
720.3110, 9637.000
721.4640, 9248.000
722.6170, 8963.000
723.7700, 8742.000
724.9220, 8608.000
726.0740, 8377.000
727.2260, 8204.000
728.3780, 8057.011
729.5300, 7909.000
730.6810, 7804.000
731.8330, 7666.000
732.9840, 7629.000
734.1350, 7564.000
735.2860, 7549.000
736.4370, 7453.000
737.5880, 7385.000
738.7380, 7324.000
739.8880, 7307.000
741.0390, 7276.000
742.1890, 7333.000
743.3380, 7276.000
744.4880, 7298.532
745.6380, 7310.337
746.7870, 7298.000
747.9360, 7270.000
749.0850, 7243.000
750.2340, 7082.000
751.3830, 7148.000
752.5310, 7125.000
753.6800, 7053.000
754.8280, 7199.000
755.9760, 7134.000
757.1240, 7099.000
758.2720, 6971.000
759.4190, 7021.000
760.5670, 6950.000
761.7140, 7045.000
762.8610, 6923.000
764.0080, 6946.000
765.1550, 6915.000
766.3020, 6888.194
767.4480, 6926.000
768.5950, 6892.000
769.7410, 6906.000
770.8870, 6938.000
772.0330, 6860.000
773.1780, 6882.000
774.3240, 6861.000
775.4690, 6754.000
776.6140, 6768.000
777.7590, 6883.000
778.9040, 6768.000
780.0490, 6910.000
781.1940, 6885.000
782.3380, 6713.000
783.4820, 6854.000
784.6260, 6900.000
785.7700, 6904.000
786.9140, 6865.000
788.0580, 6831.000
789.2010, 6927.000
790.3450, 6817.000
791.4880, 6958.000
792.6310, 6952.000
793.7730, 6843.000
794.9160, 7021.000
796.0590, 6858.000
797.2010, 7032.000
798.3430, 6989.000
799.4850, 6946.000
800.6270, 6885.000
801.7690, 6963.000
802.9100, 6944.000
804.0520, 6923.000
805.1930, 7008.000
806.3340, 6876.000
807.4750, 7043.000
808.6160, 6926.000
809.7560, 7096.000
810.8970, 7029.000
812.0370, 7037.000
813.1770, 7043.000
814.3170, 7067.000
815.4570, 6986.000
816.5960, 7058.000
817.7360, 6988.000
818.8750, 6951.000
820.0140, 6955.000
821.1530, 7110.000
822.2920, 7006.000
823.4310, 7135.000
824.5690, 7108.000
825.7070, 7043.000
826.8460, 7124.000
827.9840, 7221.000
829.1220, 6995.000
830.2590, 6946.000
831.3970, 7015.000
832.5340, 7050.000
833.6710, 6995.000
834.8080, 7055.000
835.9450, 7034.000
837.0820, 7033.000
838.2190, 7099.000
839.3550, 7081.000
840.4910, 7108.000
841.6270, 7106.000
842.7630, 7086.000
843.8990, 7129.000
845.0350, 7087.000
846.1700, 7100.000
847.3060, 7172.000
848.4410, 7023.000
849.5760, 7075.000
850.7100, 7164.000
851.8450, 7229.000
852.9800, 7181.000
854.1140, 7220.000
855.2480, 7268.000
856.3820, 7282.000
857.5160, 7307.000
858.6500, 7202.000
859.7830, 7238.000
860.9170, 7254.000
862.0500, 7194.000
863.1830, 7297.000
864.3160, 7203.000
865.4480, 7278.000
866.5810, 7238.000
867.7130, 7291.000
868.8460, 7284.000
869.9780, 7172.000
871.1100, 7241.000
872.2410, 7252.000
873.3730, 7229.000
874.5050, 7339.000
875.6360, 7215.000
876.7670, 7165.000
877.8980, 7256.000
879.0290, 7282.000
880.1590, 7174.000
881.2900, 7291.000
882.4200, 7199.000
883.5500, 7289.000
884.6800, 7298.000
885.8100, 7254.000
886.9400, 7210.000
888.0690, 7262.000
889.1990, 7333.000
890.3280, 7278.000
891.4570, 7313.000
892.5860, 7269.000
893.7140, 7286.000
894.8430, 7288.000
895.9710, 7284.000
897.1000, 7227.000
898.2280, 7350.000
899.3560, 7275.000
900.4830, 7363.000
901.6110, 7311.000
902.7380, 7302.000
903.8660, 7285.000
904.9930, 7328.000
906.1200, 7362.000
907.2460, 7374.000
908.3730, 7377.189
909.5000, 7427.000
910.6260, 7324.000
911.7520, 7321.000
912.8780, 7232.000
914.0040, 7371.000
915.1290, 7460.000
916.2550, 7385.000
917.3800, 7379.000
918.5050, 7450.000
919.6300, 7405.000
920.7550, 7311.000
921.8800, 7429.000
923.0040, 7384.000
924.1290, 7348.000
925.2530, 7445.000
926.3770, 7393.000
927.5010, 7556.000
928.6250, 7505.000
929.7480, 7478.000
930.8720, 7491.000
931.9950, 7466.768
933.1180, 7470.217
934.2410, 7474.000
935.3640, 7500.000
936.4860, 7526.000
937.6090, 7599.000
938.7310, 7682.000
939.8530, 7715.000
940.9750, 7821.000
942.0970, 7804.000
943.2180, 7785.000
944.3400, 7998.000
945.4610, 8091.000
946.5820, 8008.000
947.7030, 8100.000
948.8240, 8375.000
949.9450, 8503.000
951.0650, 8694.000
952.1860, 8847.000
953.3060, 9016.000
954.4260, 9133.000
955.5460, 9189.000
956.6650, 9164.000
957.7850, 9145.000
958.9040, 8961.000
960.0230, 9069.000
961.1420, 8834.000
962.2610, 8791.000
963.3800, 8613.000
964.4990, 8494.000
965.6170, 8512.000
966.7350, 8365.000
967.8530, 8395.000
968.9710, 8332.000
970.0890, 8127.000
971.2070, 8192.000
972.3240, 8175.000
973.4410, 8197.000
974.5580, 8213.000
975.6750, 8289.000
976.7920, 8342.000
977.9090, 8342.000
979.0250, 8203.000
980.1410, 8339.000
981.2580, 8489.000
982.3740, 8394.000
983.4890, 8544.000
984.6050, 8554.000
985.7200, 8556.000
986.8360, 8653.000
987.9510, 8711.000
989.0660, 8832.000
990.1810, 8781.000
991.2950, 8821.000
992.4100, 8795.000
993.5240, 8826.000
994.6390, 8822.000
995.7530, 8678.000
996.8660, 8859.000
997.9800, 8672.000
999.0940, 8778.000
1000.207, 8665.000
1001.320, 8489.000
1002.433, 8583.000
1003.546, 8559.000
1004.659, 8380.000
1005.772, 8305.000
1006.884, 8385.000
1007.996, 8262.000
1009.108, 8256.000
1010.220, 8233.000
1011.332, 8173.000
1012.444, 8248.000
1013.555, 8162.000
1014.666, 8204.000
1015.777, 8146.000
1016.888, 8293.000
1017.999, 8298.000
1019.110, 8224.000
1020.220, 8386.000
1021.331, 8350.000
1022.441, 8399.000
1023.551, 8339.000
1024.661, 8347.000
1025.770, 8328.000
1026.880, 8507.000
1027.989, 8603.000
1029.098, 8639.000
1030.207, 8588.000
1031.316, 8711.000
1032.425, 8753.000
1033.533, 8853.000
1034.642, 8819.000
1035.750, 9024.000
1036.858, 9100.000
1037.966, 9376.000
1039.073, 9342.000
1040.181, 9574.000
1041.288, 9763.000
1042.396, 10149.00
1043.503, 10282.00
1044.610, 10653.00
1045.716, 11151.00
1046.823, 11770.00
1047.929, 12217.00
1049.036, 12766.00
1050.142, 13178.00
1051.248, 13906.00
1052.353, 14284.00
1053.459, 14950.00
1054.564, 15049.00
1055.670, 15042.00
1056.775, 14819.00
1057.880, 14497.00
1058.985, 14008.00
1060.089, 13762.00
1061.194, 12927.00
1062.298, 12574.00
1063.402, 12136.00
1064.506, 11656.00
1065.610, 11335.00
1066.713, 11154.00
1067.817, 10705.00
1068.920, 10656.00
1070.023, 10454.00
1071.126, 10226.00
1072.229, 10070.00
1073.332, 9787.000
1074.435, 9744.000
1075.537, 9633.000
1076.639, 9593.000
1077.741, 9409.000
1078.843, 9399.000
1079.945, 9251.000
1081.046, 9248.000
1082.148, 9284.000
1083.249, 9238.000
1084.350, 9110.000
1085.451, 9087.000
1086.551, 9063.000
1087.652, 9079.000
1088.752, 9051.000
1089.853, 8994.000
1090.953, 8996.000
1092.053, 9031.000
1093.152, 8974.000
1094.252, 8846.000
1095.351, 8950.000
1096.451, 8902.000
1097.550, 8884.000
1098.649, 9071.000
1099.748, 8950.000
1100.846, 8992.000
1101.945, 9072.000
1103.043, 9021.000
1104.141, 8953.000
1105.239, 8996.000
1106.337, 8856.000
1107.434, 8982.000
1108.532, 8787.000
1109.629, 8821.000
1110.726, 8837.000
1111.823, 8834.000
1112.920, 8848.000
1114.017, 8731.000
1115.113, 8673.000
1116.210, 8706.000
1117.306, 8650.000
1118.402, 8675.000
1119.498, 8643.000
1120.593, 8746.000
1121.689, 8609.000
1122.784, 8548.000
1123.879, 8604.000
1124.974, 8487.000
1126.069, 8595.000
1127.164, 8508.000
1128.259, 8531.000
1129.353, 8470.000
1130.447, 8459.000
1131.541, 8369.000
1132.635, 8389.000
1133.729, 8368.000
1134.822, 8473.000
1135.916, 8319.000
1137.009, 8384.000
1138.102, 8385.000
1139.195, 8314.000
1140.288, 8348.000
1141.380, 8331.202
1142.473, 8317.000
1143.565, 8348.000
1144.657, 8385.000
1145.749, 8411.000
1146.841, 8285.000
1147.932, 8191.849
1149.024, 8403.665
1150.115, 8520.616
1151.206, 8547.792
1152.297, 8216.315
1153.388, 8347.966
1154.479, 8294.016
1155.569, 8232.460
1156.659, 8429.297
1157.750, 8149.986
1158.839, 8342.730
1159.929, 8347.038
1161.019, 8437.586
1162.108, 8341.393
1163.198, 8302.874
1164.287, 8451.167
1165.376, 8496.024
1166.465, 8378.333
1167.553, 8474.372
1168.642, 8188.546
1169.730, 8237.812
1170.818, 8431.655
1171.906, 8396.000
1172.994, 8346.000
1174.082, 8474.000
1175.170, 8267.000
1176.257, 8310.000
1177.344, 8348.000
1178.431, 8407.000
1179.518, 8435.000
1180.605, 8388.000
1181.691, 8403.000
1182.778, 8398.718
1183.864, 8444.000
1184.950, 8399.000
1186.036, 8354.000
1187.122, 8355.000
1188.207, 8471.000
1189.292, 8434.000
1190.378, 8387.000
1191.463, 8266.000
1192.548, 8331.000
1193.632, 8357.000
1194.717, 8489.000
1195.801, 8330.000
1196.886, 8431.000
1197.970, 8336.000
1199.054, 8335.000
1200.137, 8454.000
1201.221, 8382.000
1202.305, 8459.000
1203.388, 8320.000
1204.471, 8427.000
1205.554, 8454.000
1206.637, 8414.000
1207.719, 8470.000
1208.802, 8425.000
1209.884, 8430.000
1210.966, 8542.000
1212.048, 8470.000
1213.130, 8494.000
1214.212, 8458.000
1215.293, 8375.000
1216.374, 8429.000
1217.456, 8538.000
1218.536, 8532.000
1219.617, 8430.000
1220.698, 8356.000
1221.778, 8378.000
1222.859, 8386.399
1223.939, 8555.000
1225.019, 8468.000
1226.099, 8570.000
1227.178, 8516.000
1228.258, 8425.000
1229.337, 8533.000
1230.417, 8569.000
1231.496, 8542.911
1232.574, 8566.933
1233.653, 8544.000
1234.732, 8549.000
1235.810, 8567.000
1236.888, 8628.000
1237.966, 8521.000
1239.044, 8434.000
1240.122, 8470.000
1241.199, 8484.000
1242.277, 8622.000
1243.354, 8534.000
1244.431, 8602.000
1245.508, 8448.000
1246.585, 8555.000
1247.661, 8580.000
1248.738, 8580.000
1249.814, 8513.000
1250.890, 8628.000
1251.966, 8674.000
1253.042, 8465.000
1254.117, 8541.000
1255.193, 8506.000
1256.268, 8662.000
1257.343, 8631.000
1258.418, 8579.000
1259.493, 8473.000
1260.567, 8525.000
1261.642, 8700.000
1262.716, 8683.000
1263.790, 8637.000
1264.864, 8513.000
1265.938, 8661.000
1267.011, 8584.000
1268.085, 8522.000
1269.158, 8587.000
1270.231, 8694.000
