##NAMES=Edingtonite
##RRUFFID=R040110
##IDEAL CHEMISTRY=Ba(Si_3_Al_2_)O_10_&#183;4H_2_O
##LOCALITY=2350 level, Brunswick 12 mine, Bathhurst, New Brunswick, Canada
##OWNER=RRUFF
##SOURCE=National Museums of Canada
##DESCRIPTION=Colorless rectangular prism
##STATUS=The identification of this mineral has been confirmed by X-ray diffraction and chemical analysis
##URL=rruff.info/R040110
##MEASURED CHEMISTRY=Ba_1.00_(Si_3.00_Al_2.00_)O_10_Â·4H_2_O
##PIN_ID=M00273
##ORIENTATION=Laser parallel to -a* (-1 0 0). Fiducial mark perpendicular to laser is parallel to b [0 1 0]
53.91000, 549.0000
55.14900, 555.0000
56.38700, 576.0000
57.62600, 619.0000
58.86400, 700.0000
60.10300, 809.3468
61.34100, 953.0000
62.57900, 1115.000
63.81700, 1320.000
65.05400, 1537.000
66.29200, 1757.000
67.52900, 1949.158
68.76700, 2120.000
70.00400, 2358.000
71.24100, 2546.000
72.47700, 2794.000
73.71400, 3124.000
74.95100, 3596.000
76.18700, 3973.000
77.42300, 4529.000
78.65900, 4883.000
79.89500, 5531.000
81.13100, 6017.000
82.36700, 6707.000
83.60200, 7314.000
84.83700, 8032.000
86.07200, 8527.000
87.30800, 9179.000
88.54200, 9878.000
89.77700, 10551.00
91.01200, 11364.00
92.24600, 12110.00
93.48000, 12862.00
94.71400, 13466.00
95.94800, 14069.00
97.18200, 14631.00
98.41600, 15125.00
99.64900, 15574.00
100.8830, 15803.00
102.1160, 15882.30
103.3490, 15962.00
104.5820, 15735.00
105.8150, 15700.00
107.0470, 15587.00
108.2800, 15375.99
109.5120, 15347.26
110.7440, 15292.87
111.9760, 15273.00
113.2080, 15360.00
114.4400, 15522.00
115.6710, 15712.00
116.9030, 15903.81
118.1340, 16226.00
119.3650, 16388.00
120.5960, 16787.00
121.8270, 17091.00
123.0580, 17513.00
124.2880, 18016.00
125.5190, 18319.00
126.7490, 19070.00
127.9790, 19420.09
129.2090, 19858.78
130.4390, 20296.00
131.6680, 20583.00
132.8980, 20933.00
134.1270, 21128.00
135.3560, 21333.00
136.5850, 21505.00
137.8140, 21865.00
139.0430, 22207.00
140.2710, 22681.00
141.5000, 23271.00
142.7280, 23962.00
143.9560, 24687.00
145.1840, 25553.00
146.4120, 26326.00
147.6390, 27937.00
148.8670, 28975.00
150.0940, 29938.00
151.3210, 30668.00
152.5490, 30942.00
153.7750, 30926.00
155.0020, 30348.00
156.2290, 29067.00
157.4550, 27721.00
158.6810, 26424.00
159.9080, 25237.00
161.1340, 24016.18
162.3590, 22779.00
163.5850, 21770.00
164.8110, 20713.00
166.0360, 19731.00
167.2610, 18806.00
168.4860, 17980.00
169.7110, 17237.00
170.9360, 16564.74
172.1610, 15994.00
173.3850, 15467.00
174.6100, 15040.00
175.8340, 14677.00
177.0580, 14495.00
178.2820, 14119.00
179.5050, 13996.00
180.7290, 13632.00
181.9520, 13370.00
183.1760, 13318.00
184.3990, 12957.00
185.6220, 12907.00
186.8450, 12733.00
188.0670, 12452.12
189.2900, 12356.13
190.5120, 12015.00
191.7340, 12023.00
192.9560, 11845.86
194.1780, 11927.21
195.4000, 11942.06
196.6220, 11893.98
197.8430, 11594.54
199.0640, 11619.75
200.2860, 11514.80
201.5070, 11569.00
202.7270, 11576.00
203.9480, 11497.00
205.1690, 11149.00
206.3890, 11087.00
207.6090, 11098.00
208.8290, 10827.00
210.0490, 10796.00
211.2690, 10779.00
212.4890, 10652.00
213.7080, 10649.00
214.9280, 10576.00
216.1470, 10502.00
217.3660, 10366.00
218.5850, 10341.00
219.8030, 10283.00
221.0220, 10169.00
222.2400, 10135.00
223.4590, 10201.00
224.6770, 10330.00
225.8950, 10409.00
227.1120, 10509.00
228.3300, 10695.00
229.5480, 10864.00
230.7650, 11008.00
231.9820, 11256.00
233.1990, 11642.00
234.4160, 11756.00
235.6330, 11946.00
236.8490, 12016.00
238.0660, 11948.00
239.2820, 11965.00
240.4980, 11751.00
241.7140, 11695.00
242.9300, 11657.00
244.1460, 11404.00
245.3610, 11085.00
246.5770, 11018.00
247.7920, 10898.00
249.0070, 10671.00
250.2220, 10526.00
251.4370, 10418.00
252.6510, 10390.00
253.8660, 10405.00
255.0800, 10356.00
256.2940, 10271.00
257.5080, 10398.00
258.7220, 10515.00
259.9360, 10300.00
261.1490, 10193.00
262.3630, 10107.00
263.5760, 10041.00
264.7890, 10087.00
266.0020, 10180.00
267.2150, 10048.00
268.4270, 10322.00
269.6400, 10227.00
270.8520, 10565.00
272.0640, 10340.00
273.2760, 10712.00
274.4880, 10725.00
275.7000, 10530.00
276.9120, 10714.00
278.1230, 10718.00
279.3340, 10819.00
280.5450, 10618.00
281.7560, 10814.00
282.9670, 10761.00
284.1780, 10920.00
285.3880, 10840.00
286.5980, 10858.00
287.8090, 11056.00
289.0190, 11031.00
290.2290, 11241.00
291.4380, 11102.00
292.6480, 11252.00
293.8570, 11079.00
295.0670, 11153.00
296.2760, 11107.00
297.4850, 11090.00
298.6930, 10906.00
299.9020, 10843.00
301.1110, 10778.00
302.3190, 10718.00
303.5270, 10684.59
304.7350, 10678.00
305.9430, 10645.00
307.1510, 10601.00
308.3580, 10616.00
309.5660, 10451.00
310.7730, 10540.00
311.9800, 10450.00
313.1870, 10512.00
314.3940, 10365.00
315.6010, 10378.00
316.8070, 10308.00
318.0130, 10327.00
319.2200, 10216.00
320.4260, 10301.00
321.6310, 10178.00
322.8370, 10194.00
324.0430, 10318.00
325.2480, 10217.00
326.4540, 10220.00
327.6590, 10280.00
328.8640, 10352.00
330.0680, 10306.00
331.2730, 10377.00
332.4780, 10451.00
333.6820, 10470.00
334.8860, 10442.00
336.0900, 10353.00
337.2940, 10458.00
338.4980, 10482.00
339.7010, 10560.00
340.9050, 10589.00
342.1080, 10629.47
343.3110, 10613.00
344.5140, 10677.00
345.7170, 10688.00
346.9200, 10659.00
348.1220, 10763.00
349.3240, 11001.00
350.5270, 10878.00
351.7290, 11195.00
352.9310, 11364.00
354.1320, 11332.00
355.3340, 11593.00
356.5350, 11631.00
357.7370, 11630.00
358.9380, 11672.00
360.1390, 11581.00
361.3400, 11623.00
362.5400, 11620.00
363.7410, 11499.00
364.9410, 11427.00
366.1410, 11459.00
367.3410, 11231.00
368.5410, 11177.00
369.7410, 11159.00
370.9400, 10919.00
372.1400, 11130.00
373.3390, 10951.00
374.5380, 10957.00
375.7370, 11045.00
376.9360, 10974.00
378.1350, 10938.00
379.3330, 10944.00
380.5310, 10911.00
381.7300, 11001.00
382.9280, 11107.00
384.1260, 10995.00
385.3230, 10975.00
386.5210, 11030.00
387.7180, 11144.00
388.9160, 10998.00
390.1130, 11084.00
391.3100, 11065.00
392.5060, 11116.51
393.7030, 11378.00
394.9000, 11332.00
396.0960, 11471.00
397.2920, 11678.00
398.4880, 11741.00
399.6840, 11753.00
400.8800, 11782.00
402.0750, 11821.00
403.2710, 11706.00
404.4660, 11763.00
405.6610, 11599.00
406.8560, 11561.00
408.0510, 11483.00
409.2450, 11463.00
410.4400, 11351.00
411.6340, 11399.00
412.8280, 11416.00
414.0220, 11393.00
415.2160, 11584.00
416.4100, 11703.00
417.6030, 11685.00
418.7970, 12006.00
419.9900, 12094.00
421.1830, 12259.00
422.3760, 12336.00
423.5690, 12594.00
424.7610, 12685.00
425.9540, 12886.00
427.1460, 12978.00
428.3380, 13006.00
429.5300, 13155.00
430.7220, 13140.00
431.9140, 12982.00
433.1050, 12946.00
434.2970, 12966.00
435.4880, 12796.00
436.6790, 12452.00
437.8700, 12351.00
439.0610, 12084.00
440.2510, 11924.00
441.4420, 11875.00
442.6320, 11556.00
443.8220, 11483.00
445.0120, 11257.00
446.2020, 11286.00
447.3910, 11068.00
448.5810, 11000.00
449.7700, 10951.00
450.9600, 10838.00
452.1490, 10805.00
453.3370, 10861.00
454.5260, 10768.00
455.7150, 10850.00
456.9030, 10798.43
458.0910, 10686.00
459.2800, 10749.00
460.4670, 10716.00
461.6550, 10719.00
462.8430, 10765.00
464.0300, 10744.00
465.2180, 10624.00
466.4050, 10873.00
467.5920, 10773.00
468.7790, 10906.00
469.9650, 10879.00
471.1520, 11030.00
472.3380, 11134.00
473.5250, 11179.00
474.7110, 11226.00
475.8970, 11333.00
477.0820, 11437.00
478.2680, 11495.00
479.4540, 11668.00
480.6390, 11750.00
481.8240, 11822.00
483.0090, 12073.00
484.1940, 11937.00
485.3780, 12185.00
486.5630, 12432.00
487.7470, 12515.00
488.9320, 12768.00
490.1160, 12915.00
491.3000, 13025.00
492.4830, 13213.00
493.6670, 13313.00
494.8500, 13368.00
496.0340, 13587.00
497.2170, 13578.00
498.4000, 13613.00
499.5820, 13644.00
500.7650, 13775.00
501.9480, 13879.00
503.1300, 14012.00
504.3120, 14107.00
505.4940, 14339.00
506.6760, 14677.00
507.8580, 15060.00
509.0390, 15437.00
510.2210, 16005.00
511.4020, 16888.00
512.5830, 17767.00
513.7640, 19330.00
514.9450, 20914.00
516.1250, 23238.00
517.3060, 26390.00
518.4860, 29978.00
519.6660, 34191.00
520.8460, 39237.00
522.0260, 44695.00
523.2060, 50306.00
524.3850, 55675.00
525.5650, 60094.00
526.7440, 62329.00
527.9230, 61817.00
529.1020, 59345.00
530.2810, 54758.00
531.4590, 48878.00
532.6380, 42834.00
533.8160, 37343.00
534.9940, 32372.00
536.1720, 28105.00
537.3500, 24903.00
538.5270, 22340.00
539.7050, 20540.00
540.8820, 18631.00
542.0590, 17465.00
543.2360, 16468.00
544.4130, 15767.00
545.5900, 15027.00
546.7660, 14360.00
547.9430, 13947.00
549.1190, 13522.00
550.2950, 13354.00
551.4710, 13079.00
552.6470, 12779.00
553.8220, 12638.00
554.9980, 12398.00
556.1730, 12202.00
557.3480, 12076.00
558.5230, 12039.00
559.6980, 11894.00
560.8730, 11839.00
562.0470, 11699.00
563.2220, 11694.00
564.3960, 11590.67
565.5700, 11513.00
566.7440, 11473.00
567.9170, 11441.00
569.0910, 11464.00
570.2640, 11436.00
571.4380, 11324.00
572.6110, 11386.00
573.7840, 11326.71
574.9570, 11316.00
576.1290, 11326.00
577.3020, 11326.00
578.4740, 11290.80
579.6460, 11254.00
580.8180, 11238.00
581.9900, 11157.00
583.1620, 11175.43
584.3330, 11184.28
585.5040, 11248.00
586.6760, 11257.00
587.8470, 11273.00
589.0180, 11312.00
590.1880, 11279.48
591.3590, 11306.00
592.5290, 11247.00
593.7000, 11168.00
594.8700, 11197.00
596.0400, 11152.44
597.2090, 11214.00
598.3790, 11155.00
599.5490, 11184.62
600.7180, 11224.00
601.8870, 11207.00
603.0560, 11243.00
604.2250, 11240.24
605.3940, 11191.00
606.5620, 11254.00
607.7300, 11267.00
608.8990, 11305.00
610.0670, 11269.00
611.2350, 11247.00
612.4020, 11156.00
613.5700, 11294.00
614.7370, 11318.00
615.9050, 11386.00
617.0720, 11302.00
618.2390, 11337.00
619.4060, 11386.00
620.5720, 11279.00
621.7390, 11439.00
622.9050, 11545.00
624.0710, 11425.00
625.2370, 11483.00
626.4030, 11424.00
627.5690, 11455.00
628.7340, 11496.00
629.9000, 11493.00
631.0650, 11521.00
632.2300, 11639.00
633.3950, 11585.00
634.5600, 11662.00
635.7240, 11704.00
636.8890, 11699.00
638.0530, 11618.00
639.2170, 11782.00
640.3810, 11628.00
641.5450, 11801.00
642.7080, 11903.00
643.8720, 11976.00
645.0350, 11919.00
646.1980, 11962.00
647.3610, 12151.00
648.5240, 12303.00
649.6870, 12270.00
650.8490, 12437.00
652.0120, 12521.00
653.1740, 12603.00
654.3360, 12692.00
655.4980, 12665.00
656.6600, 12714.00
657.8210, 12522.00
658.9830, 12509.00
660.1440, 12387.00
661.3050, 12435.00
662.4660, 12245.00
663.6270, 12322.00
664.7870, 12285.00
665.9480, 12120.00
667.1080, 12015.00
668.2680, 12128.00
669.4280, 12123.00
670.5880, 12012.00
671.7480, 12081.00
672.9070, 12138.00
674.0670, 12073.00
675.2260, 12198.00
676.3850, 12270.00
677.5440, 12175.00
678.7030, 12218.00
679.8610, 12225.00
681.0200, 12332.00
682.1780, 12352.00
683.3360, 12487.00
684.4940, 12434.00
685.6520, 12443.00
686.8090, 12635.00
687.9670, 12567.00
689.1240, 12677.00
690.2810, 12708.00
691.4380, 12876.00
692.5950, 12826.00
693.7520, 12988.00
694.9080, 13092.00
696.0650, 13185.00
697.2210, 13233.00
698.3770, 13559.00
699.5330, 13550.00
700.6880, 13762.00
701.8440, 13934.00
702.9990, 13863.00
704.1550, 14010.00
705.3100, 14061.00
706.4650, 14042.00
707.6190, 14003.00
708.7740, 13940.00
709.9290, 13906.92
711.0830, 13786.00
712.2370, 13783.00
713.3910, 13762.00
714.5450, 13642.00
715.6980, 13560.00
716.8520, 13423.00
718.0050, 13346.00
719.1580, 13100.00
720.3110, 12987.00
721.4640, 13007.00
722.6170, 12950.00
723.7700, 12733.00
724.9220, 12730.00
726.0740, 12625.00
727.2260, 12584.00
728.3780, 12513.00
729.5300, 12542.00
730.6810, 12547.00
731.8330, 12469.00
732.9840, 12543.00
734.1350, 12445.00
735.2860, 12552.00
736.4370, 12414.00
737.5880, 12458.00
738.7380, 12595.00
739.8880, 12600.00
741.0390, 12606.00
742.1890, 12660.78
743.3380, 12634.88
744.4880, 12677.00
745.6380, 12634.00
746.7870, 12597.00
747.9360, 12642.00
749.0850, 12625.00
750.2340, 12595.00
751.3830, 12691.00
752.5310, 12628.00
753.6800, 12724.00
754.8280, 12623.00
755.9760, 12695.00
757.1240, 12623.00
758.2720, 12725.00
759.4190, 12503.00
760.5670, 12497.00
761.7140, 12448.00
762.8610, 12460.00
764.0080, 12399.36
765.1550, 12409.00
766.3020, 12298.00
767.4480, 12351.00
768.5950, 12323.00
769.7410, 12251.00
770.8870, 12329.00
772.0330, 12249.00
773.1780, 12200.00
774.3240, 12223.00
775.4690, 12181.00
776.6140, 12231.00
777.7590, 12151.00
778.9040, 12171.02
780.0490, 12238.00
781.1940, 12188.00
782.3380, 12234.00
783.4820, 12288.00
784.6260, 12141.00
785.7700, 12285.00
786.9140, 12185.00
788.0580, 12233.00
789.2010, 12264.00
790.3450, 12117.00
791.4880, 12246.00
792.6310, 12264.00
793.7730, 12124.00
794.9160, 12209.00
796.0590, 12156.00
797.2010, 12270.00
798.3430, 12255.00
799.4850, 12404.00
800.6270, 12258.00
801.7690, 12166.00
802.9100, 12251.00
804.0520, 12448.00
805.1930, 12254.00
806.3340, 12276.00
807.4750, 12340.00
808.6160, 12317.00
809.7560, 12232.00
810.8970, 12326.00
812.0370, 12303.00
813.1770, 12434.00
814.3170, 12193.00
815.4570, 12349.00
816.5960, 12237.00
817.7360, 12385.00
818.8750, 12398.00
820.0140, 12304.00
821.1530, 12276.00
822.2920, 12303.00
823.4310, 12289.00
824.5690, 12295.00
825.7070, 12362.00
826.8460, 12482.00
827.9840, 12360.00
829.1220, 12288.00
830.2590, 12350.00
831.3970, 12243.00
832.5340, 12429.00
833.6710, 12384.00
834.8080, 12303.00
835.9450, 12339.00
837.0820, 12286.00
838.2190, 12366.00
839.3550, 12399.00
840.4910, 12442.00
841.6270, 12550.00
842.7630, 12352.00
843.8990, 12291.00
845.0350, 12339.00
846.1700, 12439.00
847.3060, 12164.00
848.4410, 12346.00
849.5760, 12353.00
850.7100, 12247.00
851.8450, 12368.00
852.9800, 12270.00
854.1140, 12509.00
855.2480, 12443.00
856.3820, 12483.00
857.5160, 12274.00
858.6500, 12400.00
859.7830, 12378.00
860.9170, 12325.00
862.0500, 12444.00
863.1830, 12503.00
864.3160, 12432.00
865.4480, 12500.00
866.5810, 12426.00
867.7130, 12433.00
868.8460, 12474.00
869.9780, 12453.00
871.1100, 12414.00
872.2410, 12465.00
873.3730, 12451.00
874.5050, 12318.00
875.6360, 12397.00
876.7670, 12599.00
877.8980, 12391.00
879.0290, 12481.00
880.1590, 12367.00
881.2900, 12420.00
882.4200, 12600.00
883.5500, 12399.00
884.6800, 12511.00
885.8100, 12573.00
886.9400, 12648.00
888.0690, 12512.00
889.1990, 12493.00
890.3280, 12500.00
891.4570, 12547.00
892.5860, 12502.00
893.7140, 12532.00
894.8430, 12646.00
895.9710, 12615.00
897.1000, 12505.00
898.2280, 12546.00
899.3560, 12418.00
900.4830, 12580.00
901.6110, 12583.00
902.7380, 12627.00
903.8660, 12689.00
904.9930, 12615.00
906.1200, 12588.00
907.2460, 12683.00
908.3730, 12651.00
909.5000, 12869.00
910.6260, 12637.00
911.7520, 12666.00
912.8780, 12812.00
914.0040, 12768.00
915.1290, 12847.00
916.2550, 12666.00
917.3800, 12866.00
918.5050, 12866.00
919.6300, 13376.00
920.7550, 13148.28
921.8800, 13070.00
923.0040, 12938.00
924.1290, 12845.00
925.2530, 12869.00
926.3770, 12908.00
927.5010, 13017.00
928.6250, 12900.00
929.7480, 12941.00
930.8720, 13105.00
931.9950, 13145.00
933.1180, 12985.00
934.2410, 13130.00
935.3640, 13015.00
936.4860, 13158.00
937.6090, 13255.00
938.7310, 13280.00
939.8530, 13159.00
940.9750, 13397.00
942.0970, 13388.00
943.2180, 13559.00
944.3400, 13698.00
945.4610, 13863.00
946.5820, 14045.30
947.7030, 14258.78
948.8240, 14428.00
949.9450, 14697.00
951.0650, 14915.00
952.1860, 15066.00
953.3060, 15244.00
954.4260, 15262.00
955.5460, 15174.00
956.6650, 15082.00
957.7850, 15118.00
958.9040, 14993.00
960.0230, 14816.00
961.1420, 14745.00
962.2610, 14826.00
963.3800, 14771.00
964.4990, 14600.00
965.6170, 14506.00
966.7350, 14678.00
967.8530, 14589.00
968.9710, 14646.00
970.0890, 14673.00
971.2070, 14728.00
972.3240, 14805.00
973.4410, 14976.00
974.5580, 14993.00
975.6750, 15115.00
976.7920, 15263.00
977.9090, 15553.00
979.0250, 15972.00
980.1410, 15943.00
981.2580, 16435.00
982.3740, 16354.00
983.4890, 16704.00
984.6050, 17001.00
985.7200, 17312.00
986.8360, 17612.29
987.9510, 17919.80
989.0660, 18166.00
990.1810, 18500.00
991.2950, 18732.00
992.4100, 18940.00
993.5240, 19211.00
994.6390, 19020.00
995.7530, 19117.00
996.8660, 18721.00
997.9800, 18391.00
999.0940, 17780.00
1000.207, 17426.00
1001.320, 17068.00
1002.433, 16560.00
1003.546, 16131.00
1004.659, 15873.00
1005.772, 15596.00
1006.884, 15457.00
1007.996, 15355.00
1009.108, 15195.39
1010.220, 15052.00
1011.332, 15030.00
1012.444, 14949.00
1013.555, 14953.00
1014.666, 14653.00
1015.777, 14949.00
1016.888, 14686.00
1017.999, 14564.00
1019.110, 14703.00
1020.220, 14856.00
1021.331, 14891.00
1022.441, 14918.00
1023.551, 14774.00
1024.661, 14910.00
1025.770, 14743.00
1026.880, 14797.00
1027.989, 15124.00
1029.098, 15123.00
1030.207, 15074.00
1031.316, 15278.00
1032.425, 15427.00
1033.533, 15410.00
1034.642, 15487.00
1035.750, 15642.00
1036.858, 15843.00
1037.966, 15993.89
1039.073, 16091.00
1040.181, 16405.00
1041.288, 16674.00
1042.396, 16938.00
1043.503, 17392.00
1044.610, 17657.00
1045.716, 18267.00
1046.823, 19032.00
1047.929, 19531.00
1049.036, 20407.00
1050.142, 20967.00
1051.248, 21517.00
1052.353, 21866.00
1053.459, 22072.00
1054.564, 21863.00
1055.670, 21740.00
1056.775, 21367.00
1057.880, 20505.00
1058.985, 20022.00
1060.089, 19570.00
1061.194, 19024.00
1062.298, 18740.00
1063.402, 18304.64
1064.506, 17787.00
1065.610, 17622.00
1066.713, 17250.00
1067.817, 16969.00
1068.920, 16874.00
1070.023, 16613.00
1071.126, 16518.00
1072.229, 16497.00
1073.332, 16458.00
1074.435, 16234.00
1075.537, 16123.00
1076.639, 16134.00
1077.741, 15947.00
1078.843, 15900.00
1079.945, 15955.00
1081.046, 15964.00
1082.148, 15881.00
1083.249, 15969.00
1084.350, 15857.00
1085.451, 15889.00
1086.551, 15789.00
1087.652, 15582.00
1088.752, 15790.00
1089.853, 15693.00
1090.953, 15787.00
1092.053, 15803.00
1093.152, 15815.00
1094.252, 15686.00
1095.351, 15739.00
1096.451, 15754.00
1097.550, 16017.00
1098.649, 15790.00
1099.748, 15868.00
1100.846, 15745.00
1101.945, 15783.00
1103.043, 15734.00
1104.141, 15783.00
1105.239, 15653.00
1106.337, 15892.00
1107.434, 15748.00
1108.532, 15712.00
1109.629, 15481.00
1110.726, 15703.00
1111.823, 15365.00
1112.920, 15643.00
1114.017, 15668.00
1115.113, 15694.00
1116.210, 15701.00
1117.306, 15756.00
1118.402, 15812.00
1119.498, 15812.00
1120.593, 15907.00
1121.689, 15910.00
1122.784, 15967.00
1123.879, 16007.00
1124.974, 15894.00
1126.069, 15773.00
1127.164, 15794.00
1128.259, 15645.00
1129.353, 15567.00
1130.447, 15571.00
1131.541, 15641.00
1132.635, 15728.00
1133.729, 15643.00
1134.822, 15738.00
1135.916, 15658.00
1137.009, 15614.00
1138.102, 15543.00
1139.195, 15551.00
1140.288, 15794.00
1141.380, 15507.00
1142.473, 15711.00
1143.565, 15560.00
1144.657, 15738.00
1145.749, 15582.00
1146.841, 15674.00
1147.932, 15586.00
1149.024, 15641.00
1150.115, 15534.00
1151.206, 15681.00
1152.297, 15683.00
1153.388, 15712.00
1154.479, 15752.00
1155.569, 15577.00
1156.659, 15807.00
1157.750, 15506.00
1158.839, 15593.00
1159.929, 15637.00
1161.019, 15673.00
1162.108, 15570.00
1163.198, 15717.00
1164.287, 15733.00
1165.376, 15604.00
1166.465, 15688.00
1167.553, 15632.00
1168.642, 15606.00
1169.730, 15501.00
1170.818, 15651.00
1171.906, 15609.00
1172.994, 15647.00
1174.082, 15595.00
1175.170, 15606.81
1176.257, 15765.00
1177.344, 15642.00
1178.431, 15644.00
1179.518, 15729.00
1180.605, 15598.00
1181.691, 15693.00
1182.778, 15641.00
1183.864, 15691.00
1184.950, 15714.00
1186.036, 15697.00
1187.122, 15681.00
1188.207, 15705.00
1189.292, 15697.00
1190.378, 15697.00
1191.463, 15817.00
1192.548, 15794.00
1193.632, 15727.00
1194.717, 15584.00
1195.801, 15780.00
1196.886, 15700.00
1197.970, 15697.00
1199.054, 15647.00
1200.137, 15596.00
1201.221, 15721.00
1202.305, 15627.00
1203.388, 15743.00
1204.471, 15777.00
1205.554, 15653.00
1206.637, 15683.00
1207.719, 15844.00
1208.802, 15783.00
1209.884, 15711.00
1210.966, 15765.00
1212.048, 15682.00
1213.130, 15667.00
1214.212, 15690.00
1215.293, 15741.00
1216.374, 15723.00
1217.456, 15713.00
1218.536, 15846.00
1219.617, 15751.00
1220.698, 15813.00
1221.778, 15712.00
1222.859, 15744.00
1223.939, 15809.00
1225.019, 15652.00
1226.099, 15687.00
1227.178, 15805.00
1228.258, 15728.00
1229.337, 15893.00
1230.417, 15649.00
1231.496, 15804.00
1232.574, 15766.00
1233.653, 15861.00
1234.732, 15929.00
1235.810, 15688.00
1236.888, 15733.00
1237.966, 15824.00
