##NAMES=Elbaite
##RRUFFID=R060560
##IDEAL CHEMISTRY=Na(Al_1.5_Li_1.5_)Al_6_(Si_6_O_18_)(BO_3_)_3_(OH)_3_OH
##LOCALITY=California, USA
##OWNER=RRUFF
##SOURCE=Gemological Institute of America
##DESCRIPTION=Pink fragment
##STATUS=The identification of this mineral has been confirmed by X-ray diffraction and chemical analysis
##URL=rruff.info/R060560
##MEASURED CHEMISTRY=(Na_0.56_Ca_0.12_[box]_0.32_)(Al_1.60_Li_1.40_)Al_6_(BO_3_)_3_[Si_6_O_18_](OH)_4_
##PIN_ID=L01799
##ORIENTATION=Laser parallel to -a* (-1 0 0). Fiducial mark perpendicular to laser is parallel to -c [0 0 -1]
118.1340, 15684.00
119.3650, 15665.00
120.5960, 15472.00
121.8270, 15584.00
123.0580, 15852.00
124.2880, 16158.00
125.5190, 15988.00
126.7490, 16036.00
127.9790, 16147.00
129.2090, 16485.00
130.4390, 16742.00
131.6680, 16699.00
132.8980, 16713.00
134.1270, 16819.00
135.3560, 16857.00
136.5850, 17010.00
137.8140, 16974.00
139.0430, 17162.00
140.2710, 17364.00
141.5000, 17166.00
142.7280, 17208.00
143.9560, 17350.00
145.1840, 17230.00
146.4120, 17549.00
147.6390, 18009.00
148.8670, 17802.00
150.0940, 18071.00
151.3210, 18261.00
152.5490, 18181.00
153.7750, 17754.00
155.0020, 17548.00
156.2290, 17442.00
157.4550, 17207.00
158.6810, 16881.00
159.9080, 16646.00
161.1340, 16603.00
162.3590, 16661.00
163.5850, 16727.00
164.8110, 16637.00
166.0360, 16646.00
167.2610, 16559.00
168.4860, 16568.00
169.7110, 16668.00
170.9360, 16805.00
172.1610, 16647.00
173.3850, 16921.00
174.6100, 16723.00
175.8340, 16787.00
177.0580, 16791.00
178.2820, 16971.00
179.5050, 16904.00
180.7290, 17023.00
181.9520, 17049.00
183.1760, 17202.00
184.3990, 17292.00
185.6220, 17436.00
186.8450, 17733.00
188.0670, 17852.00
189.2900, 18149.00
190.5120, 18375.00
191.7340, 18605.00
192.9560, 18938.00
194.1780, 19173.00
195.4000, 19424.00
196.6220, 19723.00
197.8430, 19873.00
199.0640, 20201.00
200.2860, 20506.00
201.5070, 20714.73
202.7270, 20919.37
203.9480, 21228.00
205.1690, 21357.00
206.3890, 21656.00
207.6090, 22188.00
208.8290, 22780.00
210.0490, 23687.00
211.2690, 24518.00
212.4890, 25539.53
213.7080, 26726.00
214.9280, 27942.00
216.1470, 29298.00
217.3660, 30898.00
218.5850, 32065.00
219.8030, 33493.00
221.0220, 34746.00
222.2400, 35070.00
223.4590, 35124.00
224.6770, 34717.00
225.8950, 33896.00
227.1120, 32783.00
228.3300, 31621.00
229.5480, 30353.00
230.7650, 29515.00
231.9820, 28921.00
233.1990, 27924.00
234.4160, 27823.00
235.6330, 27676.00
236.8490, 27366.00
238.0660, 27392.00
239.2820, 27283.00
240.4980, 27239.00
241.7140, 27189.00
242.9300, 27088.00
244.1460, 26983.00
245.3610, 26751.00
246.5770, 26345.00
247.7920, 25720.00
249.0070, 25324.00
250.2220, 24748.00
251.4370, 24324.00
252.6510, 23917.00
253.8660, 23481.00
255.0800, 23200.00
256.2940, 22829.00
257.5080, 23111.00
258.7220, 22762.54
259.9360, 22546.93
261.1490, 22569.00
262.3630, 22038.00
263.5760, 22067.00
264.7890, 22010.00
266.0020, 22316.00
267.2150, 22353.00
268.4270, 22479.00
269.6400, 22757.00
270.8520, 22951.00
272.0640, 23075.00
273.2760, 23435.00
274.4880, 23453.00
275.7000, 23566.00
276.9120, 23628.00
278.1230, 23290.00
279.3340, 23358.00
280.5450, 23236.00
281.7560, 22893.00
282.9670, 22675.00
284.1780, 22421.00
285.3880, 22494.00
286.5980, 22013.00
287.8090, 21506.00
289.0190, 21671.00
290.2290, 21100.44
291.4380, 20867.00
292.6480, 20569.00
293.8570, 20143.00
295.0670, 20182.00
296.2760, 19723.00
297.4850, 19880.00
298.6930, 19868.00
299.9020, 19963.00
301.1110, 20037.00
302.3190, 20300.00
303.5270, 20544.00
304.7350, 21137.00
305.9430, 21420.00
307.1510, 21609.00
308.3580, 21966.00
309.5660, 22282.00
310.7730, 22523.00
311.9800, 22588.00
313.1870, 23050.00
314.3940, 23107.00
315.6010, 23370.00
316.8070, 23938.00
318.0130, 24277.00
319.2200, 24415.00
320.4260, 25089.00
321.6310, 25547.00
322.8370, 25988.00
324.0430, 26695.00
325.2480, 27077.00
326.4540, 27485.00
327.6590, 28241.00
328.8640, 28457.00
330.0680, 28561.00
331.2730, 28653.00
332.4780, 28522.00
333.6820, 28283.00
334.8860, 28123.00
336.0900, 27807.29
337.2940, 27398.00
338.4980, 27098.00
339.7010, 26599.00
340.9050, 26134.00
342.1080, 25978.00
343.3110, 25755.00
344.5140, 25451.00
345.7170, 25800.00
346.9200, 25916.00
348.1220, 25763.00
349.3240, 26044.00
350.5270, 26256.00
351.7290, 26453.00
352.9310, 26808.00
354.1320, 27591.00
355.3340, 28099.00
356.5350, 28902.00
357.7370, 29856.00
358.9380, 30796.00
360.1390, 32194.00
361.3400, 33618.00
362.5400, 35224.00
363.7410, 37121.00
364.9410, 39199.00
366.1410, 41481.00
367.3410, 43904.00
368.5410, 46535.00
369.7410, 49106.00
370.9400, 51572.00
372.1400, 53923.00
373.3390, 54964.00
374.5380, 55826.00
375.7370, 55345.00
376.9360, 54296.00
378.1350, 52611.00
379.3330, 49528.00
380.5310, 47484.00
381.7300, 44330.00
382.9280, 42029.00
384.1260, 39940.00
385.3230, 37667.00
386.5210, 36280.00
387.7180, 35048.00
388.9160, 33975.00
390.1130, 32993.00
391.3100, 32475.00
392.5060, 32215.00
393.7030, 31901.00
394.9000, 31773.00
396.0960, 31957.00
397.2920, 31873.00
398.4880, 32207.00
399.6840, 32249.00
400.8800, 32723.00
402.0750, 32949.00
403.2710, 33153.00
404.4660, 33238.72
405.6610, 33220.00
406.8560, 33142.00
408.0510, 32725.00
409.2450, 32534.00
410.4400, 31940.00
411.6340, 30951.00
412.8280, 30368.00
414.0220, 29323.00
415.2160, 28691.00
416.4100, 27381.00
417.6030, 26512.00
418.7970, 25657.00
419.9900, 24943.00
421.1830, 24329.64
422.3760, 23796.00
423.5690, 23361.00
424.7610, 23015.00
425.9540, 22724.00
427.1460, 22562.00
428.3380, 22361.00
429.5300, 22202.00
430.7220, 22315.00
431.9140, 22259.00
433.1050, 22360.00
434.2970, 22389.00
435.4880, 22485.00
436.6790, 22743.00
437.8700, 22828.00
439.0610, 23048.00
440.2510, 23125.00
441.4420, 23451.00
442.6320, 23477.00
443.8220, 23605.00
445.0120, 23967.00
446.2020, 24127.00
447.3910, 24281.00
448.5810, 24426.00
449.7700, 24484.00
450.9600, 24515.00
452.1490, 24565.12
453.3370, 24380.00
454.5260, 24514.00
455.7150, 24482.00
456.9030, 24300.00
458.0910, 24533.00
459.2800, 24299.00
460.4670, 23929.00
461.6550, 23972.00
462.8430, 23746.00
464.0300, 23664.00
465.2180, 23559.00
466.4050, 23437.83
467.5920, 23206.00
468.7790, 23224.00
469.9650, 23206.00
471.1520, 23018.00
472.3380, 23060.00
473.5250, 23204.00
474.7110, 23000.22
475.8970, 22870.00
477.0820, 22796.00
478.2680, 23001.00
479.4540, 23005.00
480.6390, 23069.00
481.8240, 22918.00
483.0090, 23232.00
484.1940, 23144.00
485.3780, 23508.00
486.5630, 23738.00
487.7470, 24098.00
488.9320, 24051.00
490.1160, 24362.00
491.3000, 24544.00
492.4830, 24612.00
493.6670, 24986.00
494.8500, 25201.00
496.0340, 25185.00
497.2170, 25659.00
498.4000, 25704.00
499.5820, 26000.00
500.7650, 26213.00
501.9480, 26541.00
503.1300, 26877.00
504.3120, 27258.00
505.4940, 27595.72
506.6760, 28063.00
507.8580, 28307.00
509.0390, 28704.00
510.2210, 29056.00
511.4020, 29583.00
512.5830, 29901.00
513.7640, 30101.00
514.9450, 30139.00
516.1250, 30602.00
517.3060, 30527.00
518.4860, 30376.00
519.6660, 30584.00
520.8460, 30035.00
522.0260, 29830.00
523.2060, 29290.00
524.3850, 28782.00
525.5650, 28732.00
526.7440, 28598.00
527.9230, 28573.00
529.1020, 28533.00
530.2810, 28774.00
531.4590, 29049.00
532.6380, 29155.00
533.8160, 29594.00
534.9940, 29997.00
536.1720, 30220.00
537.3500, 30455.00
538.5270, 30628.00
539.7050, 30402.00
540.8820, 30458.00
542.0590, 30333.00
543.2360, 30307.00
544.4130, 29586.00
545.5900, 29316.00
546.7660, 28849.00
547.9430, 28591.00
549.1190, 28312.00
550.2950, 28064.00
551.4710, 27433.00
552.6470, 27389.00
553.8220, 27094.00
554.9980, 26535.00
556.1730, 26503.00
557.3480, 26164.00
558.5230, 25771.00
559.6980, 25593.00
560.8730, 25375.00
562.0470, 25235.00
563.2220, 24947.00
564.3960, 24676.00
565.5700, 24597.00
566.7440, 24750.00
567.9170, 24586.00
569.0910, 24545.00
570.2640, 24483.00
571.4380, 24290.00
572.6110, 24433.00
573.7840, 24348.00
574.9570, 24173.00
576.1290, 24417.00
577.3020, 24310.00
578.4740, 24264.00
579.6460, 24269.00
580.8180, 24332.00
581.9900, 24351.00
583.1620, 24340.00
584.3330, 24217.00
585.5040, 24193.00
586.6760, 24036.00
587.8470, 24138.00
589.0180, 24073.00
590.1880, 24148.00
591.3590, 24041.00
592.5290, 24092.00
593.7000, 24023.95
594.8700, 23837.00
596.0400, 23865.00
597.2090, 23801.00
598.3790, 23661.00
599.5490, 23660.00
600.7180, 23646.00
601.8870, 23340.00
603.0560, 23432.00
604.2250, 23399.00
605.3940, 23574.00
606.5620, 23425.00
607.7300, 23418.00
608.8990, 23383.00
610.0670, 23390.00
611.2350, 23214.00
612.4020, 23317.00
613.5700, 23374.00
614.7370, 23321.00
615.9050, 23446.00
617.0720, 23604.00
618.2390, 23622.00
619.4060, 23606.00
620.5720, 23762.00
621.7390, 23755.00
622.9050, 24016.00
624.0710, 24344.00
625.2370, 24502.00
626.4030, 24599.00
627.5690, 24852.48
628.7340, 24902.00
629.9000, 25168.00
631.0650, 25421.00
632.2300, 25462.00
633.3950, 25922.00
634.5600, 26186.00
635.7240, 26356.00
636.8890, 26305.00
638.0530, 26372.00
639.2170, 26114.00
640.3810, 26287.00
641.5450, 26166.00
642.7080, 25527.00
643.8720, 25409.00
645.0350, 25100.00
646.1980, 24576.00
647.3610, 24501.00
648.5240, 24166.00
649.6870, 23853.00
650.8490, 23688.00
652.0120, 23470.00
653.1740, 23306.00
654.3360, 23082.46
655.4980, 22705.00
656.6600, 22687.00
657.8210, 22467.00
658.9830, 22373.00
660.1440, 22330.00
661.3050, 22368.00
662.4660, 22332.00
663.6270, 22377.28
664.7870, 22380.00
665.9480, 22492.00
667.1080, 22695.00
668.2680, 22815.00
669.4280, 23046.00
670.5880, 22966.00
671.7480, 23454.00
672.9070, 23846.00
674.0670, 23863.00
675.2260, 23918.00
676.3850, 23981.00
677.5440, 23881.00
678.7030, 23804.00
679.8610, 23709.00
681.0200, 23470.00
682.1780, 23302.00
683.3360, 23132.00
684.4940, 22914.00
685.6520, 23206.00
686.8090, 22910.00
687.9670, 23366.00
689.1240, 23352.00
690.2810, 23513.00
691.4380, 23844.58
692.5950, 24124.28
693.7520, 24565.00
694.9080, 25025.00
696.0650, 25729.00
697.2210, 26350.00
698.3770, 27275.00
699.5330, 28291.62
700.6880, 29308.00
701.8440, 30697.00
702.9990, 31982.00
704.1550, 33415.00
705.3100, 35125.00
706.4650, 36578.00
707.6190, 37899.00
708.7740, 38885.00
709.9290, 39647.00
711.0830, 39973.00
712.2370, 39784.32
713.3910, 39367.21
714.5450, 38377.00
715.6980, 37490.00
716.8520, 36078.00
718.0050, 34699.00
719.1580, 33377.00
720.3110, 32142.00
721.4640, 30936.00
722.6170, 30010.00
723.7700, 29039.00
724.9220, 28481.00
726.0740, 27940.00
727.2260, 27836.00
728.3780, 27387.00
729.5300, 27609.00
730.6810, 27322.00
731.8330, 27669.00
732.9840, 27713.00
734.1350, 28223.00
735.2860, 28641.00
736.4370, 29459.00
737.5880, 30227.00
738.7380, 31084.00
739.8880, 32121.00
741.0390, 33276.00
742.1890, 34738.00
743.3380, 35888.00
744.4880, 37291.00
745.6380, 38377.00
746.7870, 39351.00
747.9360, 40150.00
749.0850, 40804.00
750.2340, 40865.00
751.3830, 40680.00
752.5310, 39793.00
753.6800, 38989.00
754.8280, 38102.00
755.9760, 36886.00
757.1240, 36044.00
758.2720, 34992.00
759.4190, 34210.00
760.5670, 33533.00
761.7140, 32780.00
762.8610, 32033.00
764.0080, 31457.00
765.1550, 31037.00
766.3020, 30524.00
767.4480, 30262.00
768.5950, 29910.00
769.7410, 29797.00
770.8870, 29727.00
772.0330, 29639.00
773.1780, 29578.00
774.3240, 29531.00
775.4690, 29737.00
776.6140, 29543.91
777.7590, 29321.24
778.9040, 29133.00
780.0490, 28430.00
781.1940, 27780.00
782.3380, 26857.00
783.4820, 26385.00
784.6260, 25652.00
785.7700, 24963.00
786.9140, 24521.00
788.0580, 24109.00
789.2010, 23981.00
790.3450, 23410.00
791.4880, 23102.00
792.6310, 23169.00
793.7730, 22885.00
794.9160, 22729.00
796.0590, 22290.00
797.2010, 22364.00
798.3430, 22262.00
799.4850, 22030.00
800.6270, 22053.00
801.7690, 22045.00
802.9100, 21985.00
804.0520, 21967.69
805.1930, 21756.00
806.3340, 21894.00
807.4750, 21903.00
808.6160, 21919.00
809.7560, 21685.00
810.8970, 21856.00
812.0370, 21577.00
813.1770, 21663.00
814.3170, 21950.00
815.4570, 21753.00
816.5960, 21672.00
817.7360, 21807.00
818.8750, 21722.00
820.0140, 21901.00
821.1530, 21836.00
822.2920, 22090.00
823.4310, 22072.00
824.5690, 21801.00
825.7070, 22192.00
826.8460, 22343.00
827.9840, 22181.00
829.1220, 22355.00
830.2590, 22345.00
831.3970, 22337.00
832.5340, 22522.00
833.6710, 22694.00
834.8080, 22553.00
835.9450, 22652.00
837.0820, 22593.00
838.2190, 22543.00
839.3550, 22559.00
840.4910, 22539.00
841.6270, 22629.00
842.7630, 22543.12
843.8990, 22729.00
845.0350, 22449.00
846.1700, 22444.00
847.3060, 22481.00
848.4410, 22617.00
849.5760, 22425.00
850.7100, 22586.00
851.8450, 22568.00
852.9800, 22548.00
854.1140, 22773.00
855.2480, 22945.00
856.3820, 23121.00
857.5160, 23194.34
858.6500, 23350.60
859.7830, 23323.00
860.9170, 23445.00
862.0500, 23600.00
863.1830, 23351.00
864.3160, 23549.00
865.4480, 23654.00
866.5810, 23757.00
867.7130, 23943.00
868.8460, 24090.00
869.9780, 23995.00
871.1100, 24071.00
872.2410, 24270.00
873.3730, 24279.00
874.5050, 24449.00
875.6360, 24687.00
876.7670, 24719.00
877.8980, 24721.00
879.0290, 24617.00
880.1590, 24655.78
881.2900, 24624.00
882.4200, 24617.00
883.5500, 24655.00
884.6800, 24581.00
885.8100, 24263.00
886.9400, 24245.00
888.0690, 24171.00
889.1990, 24255.00
890.3280, 24147.00
891.4570, 24097.00
892.5860, 23879.00
893.7140, 23704.00
894.8430, 24122.00
895.9710, 24070.00
897.1000, 23551.00
898.2280, 23799.00
899.3560, 23523.00
900.4830, 23644.00
901.6110, 23444.00
902.7380, 23214.00
903.8660, 23352.00
904.9930, 23252.00
906.1200, 23139.00
907.2460, 23288.00
908.3730, 23162.00
909.5000, 23186.00
910.6260, 23200.00
911.7520, 23024.00
912.8780, 23395.00
914.0040, 23379.00
915.1290, 23364.00
916.2550, 23437.00
917.3800, 23459.00
918.5050, 23493.00
919.6300, 23470.00
920.7550, 23406.00
921.8800, 23829.00
923.0040, 23744.00
924.1290, 23930.00
925.2530, 23906.00
926.3770, 23978.00
927.5010, 24119.00
928.6250, 24223.00
929.7480, 24403.00
930.8720, 24562.00
931.9950, 24312.00
933.1180, 24701.00
934.2410, 24570.00
935.3640, 24794.00
936.4860, 24946.00
937.6090, 24977.00
938.7310, 24978.00
939.8530, 25171.00
940.9750, 25342.00
942.0970, 25436.48
943.2180, 25573.29
944.3400, 25673.00
945.4610, 25725.00
946.5820, 25752.00
947.7030, 25732.00
948.8240, 25874.00
949.9450, 25978.00
951.0650, 25861.00
952.1860, 25982.00
953.3060, 25990.00
954.4260, 26040.00
955.5460, 26200.00
956.6650, 26337.00
957.7850, 26084.00
958.9040, 26262.00
960.0230, 26110.00
961.1420, 26303.00
962.2610, 26399.00
963.3800, 26490.00
964.4990, 26566.00
965.6170, 26674.00
966.7350, 26653.00
967.8530, 26839.00
968.9710, 26945.00
970.0890, 26951.00
971.2070, 27278.00
972.3240, 27418.00
973.4410, 27533.00
974.5580, 27581.00
975.6750, 27535.00
976.7920, 27470.00
977.9090, 27594.00
979.0250, 27921.00
980.1410, 27982.00
981.2580, 27920.00
982.3740, 28196.00
983.4890, 27982.00
984.6050, 28044.00
985.7200, 28173.00
986.8360, 27950.00
987.9510, 28277.00
989.0660, 28076.00
990.1810, 28195.00
991.2950, 28152.00
992.4100, 28221.00
993.5240, 27864.00
994.6390, 28265.00
995.7530, 28123.00
996.8660, 27869.00
997.9800, 28166.00
999.0940, 28238.00
1000.207, 27938.00
1001.320, 28308.00
1002.433, 28087.00
1003.546, 28145.00
1004.659, 28310.00
1005.772, 28196.00
1006.884, 28373.00
1007.996, 28351.00
1009.108, 28530.00
1010.220, 28253.00
1011.332, 28563.00
1012.444, 28682.00
1013.555, 28976.00
1014.666, 29104.00
1015.777, 29250.00
1016.888, 29064.00
1017.999, 29509.00
1019.110, 29475.00
1020.220, 29772.00
1021.331, 30088.00
1022.441, 30357.00
1023.551, 30421.00
1024.661, 30624.00
1025.770, 30831.00
1026.880, 30947.13
1027.989, 31388.00
1029.098, 31262.00
1030.207, 31681.00
1031.316, 31880.00
1032.425, 32004.00
1033.533, 32366.00
1034.642, 32586.00
1035.750, 32986.00
1036.858, 33326.00
1037.966, 33796.00
1039.073, 34066.00
1040.181, 34868.00
1041.288, 35271.00
1042.396, 35920.00
1043.503, 36752.00
1044.610, 37676.00
1045.716, 38490.00
1046.823, 39466.00
1047.929, 40308.00
1049.036, 41578.00
1050.142, 42623.00
1051.248, 44474.00
1052.353, 45183.86
1053.459, 46043.00
1054.564, 47078.00
1055.670, 47680.00
1056.775, 48844.00
1057.880, 49563.00
1058.985, 49748.00
1060.089, 50302.00
1061.194, 50204.00
1062.298, 50310.00
1063.402, 50259.00
1064.506, 49412.00
1065.610, 49049.00
1066.713, 48492.00
1067.817, 48032.00
1068.920, 47164.00
1070.023, 46567.00
1071.126, 45506.00
1072.229, 44814.00
1073.332, 44051.00
1074.435, 43539.00
1075.537, 42745.00
1076.639, 42130.00
1077.741, 41027.00
1078.843, 40757.00
1079.945, 40226.00
1081.046, 39125.00
1082.148, 38399.00
1083.249, 37830.00
1084.350, 37449.00
1085.451, 36718.00
1086.551, 36092.00
1087.652, 35502.00
1088.752, 35199.00
1089.853, 34878.00
1090.953, 34224.00
1092.053, 33470.00
1093.152, 33333.00
1094.252, 32917.00
1095.351, 32693.00
1096.451, 32195.00
1097.550, 31669.00
1098.649, 31343.00
1099.748, 30996.00
1100.846, 30690.00
1101.945, 30470.00
1103.043, 30063.00
1104.141, 29874.00
1105.239, 29627.00
1106.337, 29250.00
1107.434, 29137.00
1108.532, 29118.00
1109.629, 28898.00
1110.726, 28906.00
1111.823, 28443.00
1112.920, 28413.00
1114.017, 28205.00
1115.113, 28444.00
1116.210, 28050.00
1117.306, 27946.00
1118.402, 28123.00
1119.498, 27852.00
1120.593, 27894.00
1121.689, 27706.00
1122.784, 27745.00
1123.879, 27777.00
1124.974, 27771.00
1126.069, 27658.00
1127.164, 27613.64
1128.259, 27198.00
1129.353, 27344.00
1130.447, 27274.00
1131.541, 26999.00
1132.635, 27040.00
1133.729, 26959.62
1134.822, 26956.00
1135.916, 26963.00
1137.009, 26891.00
1138.102, 26925.00
1139.195, 26864.00
1140.288, 26761.00
1141.380, 26968.00
1142.473, 26757.00
1143.565, 26841.94
1144.657, 26921.00
1145.749, 26810.00
1146.841, 26794.00
1147.932, 26629.00
1149.024, 26621.00
1150.115, 26544.00
1151.206, 26608.00
1152.297, 26558.00
1153.388, 26551.00
1154.479, 26489.00
1155.569, 26325.00
1156.659, 26342.00
1157.750, 26319.80
1158.839, 26530.00
1159.929, 26453.00
1161.019, 26449.00
1162.108, 26675.00
1163.198, 26497.00
1164.287, 26225.00
1165.376, 26466.00
1166.465, 26395.00
1167.553, 26336.00
1168.642, 26660.00
1169.730, 26301.00
1170.818, 26473.00
1171.906, 26728.00
1172.994, 26374.00
1174.082, 26588.00
1175.170, 26775.00
1176.257, 26571.00
1177.344, 26618.00
1178.431, 26554.00
1179.518, 26532.00
1180.605, 26678.00
1181.691, 26623.00
1182.778, 26651.00
1183.864, 26734.00
1184.950, 26781.00
1186.036, 26824.00
1187.122, 26662.00
1188.207, 26762.00
1189.292, 26800.00
1190.378, 26733.00
1191.463, 26865.00
1192.548, 26717.00
1193.632, 26847.00
1194.717, 26758.00
1195.801, 26730.00
1196.886, 26815.00
1197.970, 26917.00
1199.054, 26953.00
1200.137, 26992.02
1201.221, 27060.91
1202.305, 27017.00
1203.388, 27097.00
1204.471, 27116.00
1205.554, 26985.00
1206.637, 27082.00
1207.719, 27259.00
1208.802, 27122.00
1209.884, 27127.00
1210.966, 27073.00
1212.048, 26912.00
1213.130, 27073.00
1214.212, 27113.00
1215.293, 26932.00
1216.374, 27078.00
1217.456, 27145.00
1218.536, 27050.00
1219.617, 27182.00
1220.698, 27205.00
1221.778, 27184.00
1222.859, 27253.00
1223.939, 27240.37
1225.019, 27215.00
1226.099, 27282.00
1227.178, 27293.00
1228.258, 27373.00
1229.337, 27453.00
1230.417, 27438.86
1231.496, 27477.00
1232.574, 27426.00
1233.653, 27434.00
1234.732, 27414.00
1235.810, 27420.00
1236.888, 27633.00
1237.966, 27510.00
1239.044, 27541.00
1240.122, 27667.00
1241.199, 27593.00
1242.277, 27744.00
1243.354, 27627.00
1244.431, 27780.00
1245.508, 27575.00
1246.585, 27550.00
1247.661, 27604.00
1248.738, 27716.00
1249.814, 27627.00
1250.890, 27822.00
1251.966, 27781.00
1253.042, 27701.00
1254.117, 27738.00
1255.193, 27833.00
1256.268, 27845.00
1257.343, 27817.00
1258.418, 27851.00
1259.493, 27907.00
1260.567, 27967.00
1261.642, 27878.00
1262.716, 28097.00
1263.790, 27982.00
1264.864, 28076.45
1265.938, 28104.00
1267.011, 28134.00
1268.085, 28185.00
1269.158, 28089.00
1270.231, 28144.00
1271.304, 28214.00
1272.377, 28392.00
1273.450, 28260.00
1274.522, 28222.00
1275.594, 28387.00
1276.666, 28260.00
1277.738, 28361.00
1278.810, 28535.00
1279.882, 28441.00
1280.953, 28450.00
1282.025, 28439.00
1283.096, 28425.00
1284.167, 28575.00
1285.238, 28513.00
1286.308, 28534.00
1287.379, 28697.00
1288.449, 28530.00
1289.519, 28445.00
1290.589, 28582.00
1291.659, 28613.00
1292.729, 28672.00
1293.798, 28721.00
