##NAMES=Elbaite
##RRUFFID=R060560
##IDEAL CHEMISTRY=Na(Al_1.5_Li_1.5_)Al_6_(Si_6_O_18_)(BO_3_)_3_(OH)_3_OH
##LOCALITY=California, USA
##OWNER=RRUFF
##SOURCE=Gemological Institute of America
##DESCRIPTION=Pink fragment
##STATUS=The identification of this mineral has been confirmed by X-ray diffraction and chemical analysis
##URL=rruff.info/R060560
##MEASURED CHEMISTRY=(Na_0.56_Ca_0.12_[box]_0.32_)(Al_1.60_Li_1.40_)Al_6_(BO_3_)_3_[Si_6_O_18_](OH)_4_
##PIN_ID=L01799
##ORIENTATION=Laser parallel to -a* (-1 0 0). Fiducial mark perpendicular to laser is parallel to -c [0 0 -1]
118.1340, 9707.000
119.3650, 9722.000
120.5960, 9643.000
121.8270, 9524.000
123.0580, 9833.000
124.2880, 9686.000
125.5190, 9636.000
126.7490, 9767.000
127.9790, 9738.000
129.2090, 9976.000
130.4390, 10038.00
131.6680, 10140.00
132.8980, 10228.00
134.1270, 10218.00
135.3560, 10358.00
136.5850, 10582.00
137.8140, 10622.00
139.0430, 10813.00
140.2710, 10965.00
141.5000, 10855.00
142.7280, 10942.00
143.9560, 11064.00
145.1840, 11142.00
146.4120, 11310.00
147.6390, 11536.00
148.8670, 11772.00
150.0940, 11748.00
151.3210, 11905.00
152.5490, 11724.00
153.7750, 11674.00
155.0020, 11705.00
156.2290, 11441.00
157.4550, 11348.00
158.6810, 11258.00
159.9080, 11124.00
161.1340, 11102.00
162.3590, 11172.00
163.5850, 11100.00
164.8110, 11238.00
166.0360, 11322.00
167.2610, 11183.00
168.4860, 11464.00
169.7110, 11531.00
170.9360, 11625.00
172.1610, 11616.00
173.3850, 11520.00
174.6100, 11614.00
175.8340, 11605.00
177.0580, 11607.00
178.2820, 11610.00
179.5050, 11605.00
180.7290, 11741.00
181.9520, 11636.00
183.1760, 11800.00
184.3990, 12014.00
185.6220, 11845.00
186.8450, 12070.00
188.0670, 12399.00
189.2900, 12473.00
190.5120, 12835.00
191.7340, 13173.00
192.9560, 13418.00
194.1780, 13721.00
195.4000, 14163.00
196.6220, 14508.00
197.8430, 15003.00
199.0640, 15587.00
200.2860, 16062.00
201.5070, 16654.00
202.7270, 17179.00
203.9480, 17599.00
205.1690, 18135.00
206.3890, 18846.00
207.6090, 19703.00
208.8290, 20697.00
210.0490, 21908.00
211.2690, 23402.00
212.4890, 25147.00
213.7080, 26824.00
214.9280, 28990.00
216.1470, 31087.00
217.3660, 33600.00
218.5850, 35895.00
219.8030, 38195.00
221.0220, 40204.00
222.2400, 41711.00
223.4590, 41906.00
224.6770, 41219.00
225.8950, 40304.00
227.1120, 38162.00
228.3300, 36082.00
229.5480, 34458.00
230.7650, 32812.61
231.9820, 31414.00
233.1990, 30317.00
234.4160, 29470.41
235.6330, 28695.00
236.8490, 28571.00
238.0660, 28611.00
239.2820, 28784.00
240.4980, 29008.00
241.7140, 29307.00
242.9300, 29623.00
244.1460, 29974.00
245.3610, 30171.00
246.5770, 29922.00
247.7920, 29571.00
249.0070, 29136.00
250.2220, 28518.00
251.4370, 27581.00
252.6510, 26517.00
253.8660, 25837.00
255.0800, 25151.00
256.2940, 24420.00
257.5080, 24306.00
258.7220, 23668.66
259.9360, 23545.00
261.1490, 22916.00
262.3630, 22633.00
263.5760, 22421.00
264.7890, 22638.00
266.0020, 22440.00
267.2150, 22771.00
268.4270, 22795.00
269.6400, 22763.00
270.8520, 22771.00
272.0640, 22649.86
273.2760, 22660.00
274.4880, 22260.00
275.7000, 22066.00
276.9120, 21615.00
278.1230, 20937.00
279.3340, 20529.00
280.5450, 19680.00
281.7560, 19273.00
282.9670, 18534.00
284.1780, 17841.00
285.3880, 17197.00
286.5980, 16712.00
287.8090, 16287.00
289.0190, 15872.00
290.2290, 15700.00
291.4380, 15277.00
292.6480, 15038.00
293.8570, 14807.00
295.0670, 14895.00
296.2760, 14826.00
297.4850, 14742.00
298.6930, 14912.00
299.9020, 14785.00
301.1110, 14911.00
302.3190, 15075.00
303.5270, 15007.00
304.7350, 15436.00
305.9430, 15446.00
307.1510, 15780.00
308.3580, 16304.00
309.5660, 16429.00
310.7730, 16992.00
311.9800, 17255.00
313.1870, 17513.00
314.3940, 17715.00
315.6010, 17909.00
316.8070, 17868.90
318.0130, 17840.00
319.2200, 17665.00
320.4260, 17395.00
321.6310, 17237.00
322.8370, 17307.00
324.0430, 17522.00
325.2480, 17571.00
326.4540, 17548.00
327.6590, 17769.00
328.8640, 17838.00
330.0680, 17660.00
331.2730, 17796.00
332.4780, 17690.00
333.6820, 17680.00
334.8860, 17590.00
336.0900, 17634.00
337.2940, 17522.00
338.4980, 17596.00
339.7010, 17630.00
340.9050, 17711.00
342.1080, 17871.00
343.3110, 17858.00
344.5140, 18099.73
345.7170, 18434.00
346.9200, 18540.00
348.1220, 18758.00
349.3240, 19003.00
350.5270, 19560.00
351.7290, 19877.00
352.9310, 20353.00
354.1320, 20859.00
355.3340, 21412.00
356.5350, 22464.00
357.7370, 23229.00
358.9380, 24377.00
360.1390, 25892.00
361.3400, 27570.00
362.5400, 29420.00
363.7410, 31842.00
364.9410, 34371.00
366.1410, 37480.00
367.3410, 40870.00
368.5410, 44653.00
369.7410, 48088.00
370.9400, 51734.00
372.1400, 54738.00
373.3390, 56840.00
374.5380, 57102.00
375.7370, 56151.00
376.9360, 54335.00
378.1350, 50793.00
379.3330, 47592.00
380.5310, 43950.00
381.7300, 40649.00
382.9280, 37377.00
384.1260, 34742.00
385.3230, 32751.00
386.5210, 31036.00
387.7180, 29726.00
388.9160, 28807.00
390.1130, 27879.00
391.3100, 27614.00
392.5060, 27272.00
393.7030, 27191.00
394.9000, 27346.00
396.0960, 27427.00
397.2920, 27593.00
398.4880, 27907.00
399.6840, 28070.00
400.8800, 28919.00
402.0750, 28917.00
403.2710, 29088.00
404.4660, 29678.00
405.6610, 29745.00
406.8560, 29491.00
408.0510, 29282.00
409.2450, 28811.44
410.4400, 28288.00
411.6340, 27483.00
412.8280, 26614.00
414.0220, 25601.00
415.2160, 24492.00
416.4100, 23383.00
417.6030, 22321.00
418.7970, 21352.00
419.9900, 20481.00
421.1830, 19825.00
422.3760, 18753.00
423.5690, 18341.00
424.7610, 17698.00
425.9540, 17450.00
427.1460, 17034.00
428.3380, 16927.00
429.5300, 16485.00
430.7220, 16370.00
431.9140, 16121.00
433.1050, 16080.00
434.2970, 15907.00
435.4880, 15817.00
436.6790, 15689.00
437.8700, 15654.00
439.0610, 15640.83
440.2510, 15835.00
441.4420, 15690.00
442.6320, 15786.00
443.8220, 15823.00
445.0120, 15805.00
446.2020, 15811.39
447.3910, 15904.00
448.5810, 15746.00
449.7700, 15781.00
450.9600, 15775.00
452.1490, 15478.00
453.3370, 15573.00
454.5260, 15699.00
455.7150, 15444.00
456.9030, 15601.00
458.0910, 15648.00
459.2800, 15496.00
460.4670, 15369.00
461.6550, 15461.00
462.8430, 15482.00
464.0300, 15524.00
465.2180, 15359.00
466.4050, 15323.00
467.5920, 15472.00
468.7790, 15445.00
469.9650, 15560.00
471.1520, 15484.00
472.3380, 15217.00
473.5250, 15248.00
474.7110, 15246.00
475.8970, 15182.00
477.0820, 15219.00
478.2680, 15354.00
479.4540, 15400.00
480.6390, 15414.00
481.8240, 15471.00
483.0090, 15528.00
484.1940, 15631.87
485.3780, 15747.57
486.5630, 15896.00
487.7470, 16044.00
488.9320, 16212.00
490.1160, 16395.64
491.3000, 16518.00
492.4830, 16730.00
493.6670, 16892.00
494.8500, 16993.00
496.0340, 17291.00
497.2170, 17529.00
498.4000, 17838.00
499.5820, 17824.00
500.7650, 18265.00
501.9480, 18498.00
503.1300, 19109.00
504.3120, 19093.00
505.4940, 19536.00
506.6760, 19748.00
507.8580, 20172.00
509.0390, 20320.00
510.2210, 20882.00
511.4020, 20835.00
512.5830, 21351.00
513.7640, 21533.00
514.9450, 21746.00
516.1250, 21762.00
517.3060, 21644.00
518.4860, 21634.00
519.6660, 21443.00
520.8460, 21257.03
522.0260, 21024.00
523.2060, 20746.00
524.3850, 20297.00
525.5650, 19954.00
526.7440, 19827.00
527.9230, 19678.00
529.1020, 19460.00
530.2810, 19454.00
531.4590, 19317.38
532.6380, 19639.00
533.8160, 19283.00
534.9940, 19311.00
536.1720, 19532.00
537.3500, 19289.00
538.5270, 19116.00
539.7050, 19152.00
540.8820, 19045.00
542.0590, 18781.00
543.2360, 18724.00
544.4130, 18358.00
545.5900, 18349.00
546.7660, 18132.00
547.9430, 18028.00
549.1190, 17888.00
550.2950, 17783.00
551.4710, 17623.00
552.6470, 17619.00
553.8220, 17534.00
554.9980, 17308.00
556.1730, 17159.00
557.3480, 17173.00
558.5230, 17197.00
559.6980, 16877.00
560.8730, 17070.00
562.0470, 16854.00
563.2220, 16655.00
564.3960, 16823.00
565.5700, 16695.00
566.7440, 16742.00
567.9170, 16617.00
569.0910, 16757.00
570.2640, 16730.00
571.4380, 16539.00
572.6110, 16633.00
573.7840, 16772.00
574.9570, 16692.00
576.1290, 16938.00
577.3020, 16957.00
578.4740, 17328.00
579.6460, 16845.00
580.8180, 16898.00
581.9900, 16890.00
583.1620, 17072.00
584.3330, 16994.00
585.5040, 16888.00
586.6760, 17106.00
587.8470, 17082.00
589.0180, 17070.00
590.1880, 17132.00
591.3590, 17115.00
592.5290, 17099.00
593.7000, 17092.00
594.8700, 17202.00
596.0400, 17110.00
597.2090, 17054.00
598.3790, 16894.00
599.5490, 16900.00
600.7180, 16882.00
601.8870, 16961.00
603.0560, 16868.00
604.2250, 16904.00
605.3940, 16783.00
606.5620, 16866.00
607.7300, 16888.00
608.8990, 16824.00
610.0670, 16969.00
611.2350, 17065.00
612.4020, 17055.00
613.5700, 17089.00
614.7370, 17194.00
615.9050, 17269.00
617.0720, 17336.72
618.2390, 17435.93
619.4060, 17512.00
620.5720, 17655.00
621.7390, 17800.00
622.9050, 17999.64
624.0710, 18421.00
625.2370, 18604.00
626.4030, 19020.00
627.5690, 19384.00
628.7340, 19742.00
629.9000, 20448.00
631.0650, 21002.00
632.2300, 21726.00
633.3950, 22133.00
634.5600, 22790.00
635.7240, 23364.00
636.8890, 24032.00
638.0530, 24222.00
639.2170, 24663.00
640.3810, 24615.00
641.5450, 24738.00
642.7080, 24692.00
643.8720, 24341.00
645.0350, 23902.00
646.1980, 23621.00
647.3610, 22931.00
648.5240, 22668.00
649.6870, 22422.00
650.8490, 22100.00
652.0120, 22005.00
653.1740, 21748.00
654.3360, 21219.00
655.4980, 21285.00
656.6600, 20809.00
657.8210, 20571.00
658.9830, 20220.00
660.1440, 19961.00
661.3050, 19671.00
662.4660, 19506.00
663.6270, 18974.00
664.7870, 18558.00
665.9480, 18475.00
667.1080, 18037.00
668.2680, 18264.00
669.4280, 17659.00
670.5880, 17709.00
671.7480, 17537.00
672.9070, 17539.00
674.0670, 17659.00
675.2260, 17523.00
676.3850, 17513.00
677.5440, 17411.00
678.7030, 17500.00
679.8610, 17577.00
681.0200, 17540.00
682.1780, 17442.00
683.3360, 17509.00
684.4940, 17576.00
685.6520, 17631.00
686.8090, 17978.00
687.9670, 18211.00
689.1240, 18486.00
690.2810, 18689.00
691.4380, 19058.00
692.5950, 19600.00
693.7520, 19981.00
694.9080, 20586.00
696.0650, 21127.00
697.2210, 21899.00
698.3770, 22917.00
699.5330, 24035.00
700.6880, 25663.00
701.8440, 26997.00
702.9990, 28516.00
704.1550, 30172.00
705.3100, 31793.00
706.4650, 33378.00
707.6190, 34323.00
708.7740, 35817.00
709.9290, 36251.00
711.0830, 36905.00
712.2370, 36532.00
713.3910, 35787.00
714.5450, 34949.00
715.6980, 33449.00
716.8520, 32263.00
718.0050, 30496.00
719.1580, 29172.00
720.3110, 27273.00
721.4640, 26335.00
722.6170, 25056.00
723.7700, 24148.00
724.9220, 22985.00
726.0740, 22370.00
727.2260, 21866.00
728.3780, 21569.00
729.5300, 21290.00
730.6810, 20905.00
731.8330, 20752.00
732.9840, 20663.00
734.1350, 20843.00
735.2860, 20751.00
736.4370, 21116.00
737.5880, 21215.00
738.7380, 21527.00
739.8880, 21823.00
741.0390, 22215.00
742.1890, 22560.00
743.3380, 23049.00
744.4880, 23308.00
745.6380, 23520.00
746.7870, 24059.00
747.9360, 24109.00
749.0850, 24063.00
750.2340, 23847.00
751.3830, 23662.00
752.5310, 23186.00
753.6800, 22679.00
754.8280, 22178.00
755.9760, 21341.00
757.1240, 20815.00
758.2720, 20362.00
759.4190, 20004.00
760.5670, 19734.00
761.7140, 19388.00
762.8610, 18946.00
764.0080, 18564.00
765.1550, 18249.00
766.3020, 18192.00
767.4480, 18009.00
768.5950, 17932.00
769.7410, 17858.00
770.8870, 17558.00
772.0330, 17587.00
773.1780, 17412.00
774.3240, 17453.00
775.4690, 17282.00
776.6140, 17396.00
777.7590, 17401.00
778.9040, 17200.00
780.0490, 16963.00
781.1940, 16906.00
782.3380, 16848.00
783.4820, 16833.00
784.6260, 16556.00
785.7700, 16505.00
786.9140, 16367.00
788.0580, 16299.00
789.2010, 16453.00
790.3450, 16325.00
791.4880, 16254.00
792.6310, 16354.00
793.7730, 16268.00
794.9160, 16256.00
796.0590, 16153.00
797.2010, 15958.00
798.3430, 15885.00
799.4850, 15814.00
800.6270, 15837.00
801.7690, 15805.00
802.9100, 15802.00
804.0520, 15857.00
805.1930, 15543.00
806.3340, 15629.00
807.4750, 15785.00
808.6160, 15629.00
809.7560, 15749.00
810.8970, 15571.00
812.0370, 15551.00
813.1770, 15726.00
814.3170, 15614.00
815.4570, 15600.00
816.5960, 15858.00
817.7360, 15690.00
818.8750, 15654.00
820.0140, 15537.00
821.1530, 15631.00
822.2920, 15751.00
823.4310, 15737.00
824.5690, 15658.00
825.7070, 15916.00
826.8460, 15983.00
827.9840, 15712.00
829.1220, 15775.00
830.2590, 16049.00
831.3970, 15844.00
832.5340, 15932.00
833.6710, 15927.00
834.8080, 15916.00
835.9450, 16000.00
837.0820, 15993.00
838.2190, 15955.00
839.3550, 15956.00
840.4910, 15814.00
841.6270, 15908.00
842.7630, 15825.00
843.8990, 16092.00
845.0350, 16061.00
846.1700, 15855.00
847.3060, 16064.00
848.4410, 15989.00
849.5760, 15930.00
850.7100, 15997.00
851.8450, 16007.00
852.9800, 16051.48
854.1140, 16102.93
855.2480, 16171.00
856.3820, 16188.00
857.5160, 16232.00
858.6500, 16240.00
859.7830, 16387.00
860.9170, 16410.00
862.0500, 16424.00
863.1830, 16449.00
864.3160, 16609.00
865.4480, 16584.00
866.5810, 16709.00
867.7130, 16804.84
868.8460, 16847.00
869.9780, 16993.00
871.1100, 16916.00
872.2410, 16948.00
873.3730, 17062.00
874.5050, 16956.00
875.6360, 16944.00
876.7670, 17037.00
877.8980, 17003.00
879.0290, 17145.00
880.1590, 16951.00
881.2900, 16976.00
882.4200, 17047.00
883.5500, 17067.00
884.6800, 17047.00
885.8100, 17009.00
886.9400, 17008.00
888.0690, 17031.00
889.1990, 16794.00
890.3280, 17046.00
891.4570, 16921.00
892.5860, 16855.00
893.7140, 16979.00
894.8430, 16839.00
895.9710, 16921.00
897.1000, 16837.00
898.2280, 16932.00
899.3560, 16906.00
900.4830, 16886.00
901.6110, 16806.00
902.7380, 16954.00
903.8660, 16841.00
904.9930, 17106.00
906.1200, 16852.00
907.2460, 16922.00
908.3730, 16894.00
909.5000, 16777.00
910.6260, 16878.00
911.7520, 16879.00
912.8780, 16982.00
914.0040, 16836.00
915.1290, 16912.00
916.2550, 17111.00
917.3800, 16875.00
918.5050, 17057.00
919.6300, 17050.00
920.7550, 17245.00
921.8800, 17052.00
923.0040, 17046.00
924.1290, 17292.00
925.2530, 17285.00
926.3770, 17328.00
927.5010, 17327.00
928.6250, 17249.00
929.7480, 17548.00
930.8720, 17594.00
931.9950, 17680.00
933.1180, 17511.00
934.2410, 17880.00
935.3640, 17712.00
936.4860, 18039.00
937.6090, 18007.00
938.7310, 17953.00
939.8530, 18303.00
940.9750, 18260.00
942.0970, 18345.00
943.2180, 18334.00
944.3400, 18463.00
945.4610, 18504.00
946.5820, 18567.00
947.7030, 18704.00
948.8240, 18763.00
949.9450, 18937.00
951.0650, 18852.00
952.1860, 19237.00
953.3060, 19262.00
954.4260, 19566.00
955.5460, 19670.00
956.6650, 19611.00
957.7850, 19972.00
958.9040, 19983.00
960.0230, 20317.00
961.1420, 20556.00
962.2610, 20925.00
963.3800, 20702.00
964.4990, 20915.00
965.6170, 21117.00
966.7350, 21340.00
967.8530, 21384.00
968.9710, 21496.00
970.0890, 21644.00
971.2070, 21858.00
972.3240, 21913.00
973.4410, 22022.00
974.5580, 22050.00
975.6750, 22028.00
976.7920, 22145.00
977.9090, 22110.97
979.0250, 22181.00
980.1410, 22094.00
981.2580, 22289.00
982.3740, 22264.00
983.4890, 22305.00
984.6050, 22287.00
985.7200, 22351.00
986.8360, 22201.00
987.9510, 22277.00
989.0660, 22236.00
990.1810, 22279.00
991.2950, 22174.00
992.4100, 22150.00
993.5240, 22282.00
994.6390, 22093.00
995.7530, 22245.00
996.8660, 22130.00
997.9800, 22005.00
999.0940, 21965.00
1000.207, 22004.00
1001.320, 21949.00
1002.433, 21953.00
1003.546, 21959.00
1004.659, 21876.00
1005.772, 21770.00
1006.884, 21929.00
1007.996, 21608.00
1009.108, 21894.00
1010.220, 21704.16
1011.332, 21717.00
1012.444, 21498.00
1013.555, 21548.00
1014.666, 21482.00
1015.777, 21564.00
1016.888, 21573.00
1017.999, 21627.00
1019.110, 21639.00
1020.220, 21682.00
1021.331, 21438.00
1022.441, 21698.00
1023.551, 21573.00
1024.661, 21664.00
1025.770, 21750.00
1026.880, 21622.00
1027.989, 21834.00
1029.098, 21644.00
1030.207, 21828.00
1031.316, 21604.00
1032.425, 21529.00
1033.533, 21769.00
1034.642, 21672.00
1035.750, 21752.00
1036.858, 21758.00
1037.966, 21716.00
1039.073, 21965.00
1040.181, 21939.00
1041.288, 21860.00
1042.396, 21957.00
1043.503, 22190.00
1044.610, 22486.00
1045.716, 22498.00
1046.823, 22576.00
1047.929, 22917.00
1049.036, 23241.00
1050.142, 23566.00
1051.248, 23833.00
1052.353, 24066.00
1053.459, 24102.00
1054.564, 24447.00
1055.670, 24884.00
1056.775, 24785.00
1057.880, 25298.00
1058.985, 25440.00
1060.089, 25556.00
1061.194, 25492.00
1062.298, 25830.00
1063.402, 25747.00
1064.506, 25952.00
1065.610, 25943.00
1066.713, 26036.00
1067.817, 26084.00
1068.920, 26065.34
1070.023, 26082.00
1071.126, 26079.00
1072.229, 26346.00
1073.332, 26472.00
1074.435, 26425.00
1075.537, 26420.00
1076.639, 26450.00
1077.741, 26388.00
1078.843, 26418.99
1079.945, 26539.00
1081.046, 26506.00
1082.148, 26475.00
1083.249, 26664.00
1084.350, 26676.00
1085.451, 27076.00
1086.551, 26911.00
1087.652, 26782.00
1088.752, 27157.00
1089.853, 26894.00
1090.953, 26952.00
1092.053, 26775.00
1093.152, 26545.00
1094.252, 26626.00
1095.351, 26481.00
1096.451, 26174.00
1097.550, 25795.00
1098.649, 25624.00
1099.748, 25386.00
1100.846, 25052.00
1101.945, 25025.00
1103.043, 24553.00
1104.141, 24302.00
1105.239, 24046.00
1106.337, 23997.00
1107.434, 23679.00
1108.532, 23355.00
1109.629, 23160.00
1110.726, 22929.00
1111.823, 22754.00
1112.920, 22522.00
1114.017, 22335.00
1115.113, 22290.00
1116.210, 22229.00
1117.306, 22149.00
1118.402, 21885.00
1119.498, 21803.00
1120.593, 21799.00
1121.689, 21872.00
1122.784, 21634.00
1123.879, 21596.00
1124.974, 21511.07
1126.069, 21278.00
1127.164, 21268.00
1128.259, 21271.00
1129.353, 21045.00
1130.447, 20970.00
1131.541, 20732.00
1132.635, 20686.00
1133.729, 20808.00
1134.822, 20650.00
1135.916, 20550.00
1137.009, 20628.00
1138.102, 20337.00
1139.195, 20473.00
1140.288, 20554.00
1141.380, 20341.00
1142.473, 20282.00
1143.565, 20478.00
1144.657, 20127.00
1145.749, 20211.00
1146.841, 20064.00
1147.932, 19976.00
1149.024, 20075.00
1150.115, 19819.00
1151.206, 19849.00
1152.297, 19808.00
1153.388, 19939.00
1154.479, 19752.00
1155.569, 19698.00
1156.659, 19753.00
1157.750, 19656.00
1158.839, 19652.00
1159.929, 19617.01
1161.019, 19618.00
1162.108, 19531.00
1163.198, 19611.00
1164.287, 19580.00
1165.376, 19527.00
1166.465, 19459.00
1167.553, 19486.17
1168.642, 19655.00
1169.730, 19525.00
1170.818, 19598.00
1171.906, 19600.00
1172.994, 19445.00
1174.082, 19596.00
1175.170, 19369.00
1176.257, 19667.00
1177.344, 19563.00
1178.431, 19630.00
1179.518, 19504.00
1180.605, 19544.00
1181.691, 19569.00
1182.778, 19647.00
1183.864, 19750.00
1184.950, 19604.00
1186.036, 19691.00
1187.122, 19533.00
1188.207, 19437.00
1189.292, 19642.00
1190.378, 19551.00
1191.463, 19651.00
1192.548, 19690.64
1193.632, 19809.00
1194.717, 19726.00
1195.801, 19818.00
1196.886, 19796.00
1197.970, 19887.00
1199.054, 19738.00
1200.137, 19781.00
1201.221, 19820.00
1202.305, 19912.00
1203.388, 19854.00
1204.471, 19797.00
1205.554, 19969.00
1206.637, 19967.00
1207.719, 20059.00
1208.802, 19906.00
1209.884, 19859.00
1210.966, 19823.00
1212.048, 19893.00
1213.130, 19849.00
1214.212, 19931.00
1215.293, 20084.00
1216.374, 20034.00
1217.456, 19934.00
1218.536, 20201.00
1219.617, 19904.00
1220.698, 20135.00
1221.778, 20156.00
1222.859, 20276.00
1223.939, 20188.00
1225.019, 20049.00
1226.099, 20145.00
1227.178, 20175.00
1228.258, 20062.00
1229.337, 20060.00
1230.417, 20114.00
1231.496, 20122.00
1232.574, 20236.00
1233.653, 20113.00
1234.732, 20160.00
1235.810, 20176.00
1236.888, 20037.00
1237.966, 20252.00
1239.044, 20373.00
1240.122, 20330.00
1241.199, 20462.00
1242.277, 20307.00
1243.354, 20238.00
1244.431, 20203.00
1245.508, 20235.00
1246.585, 20339.00
1247.661, 20260.00
1248.738, 20226.00
1249.814, 20326.00
1250.890, 20515.00
1251.966, 20400.00
1253.042, 20499.00
1254.117, 20390.00
1255.193, 20379.00
1256.268, 20423.02
1257.343, 20298.00
1258.418, 20465.00
1259.493, 20531.00
1260.567, 20515.00
1261.642, 20436.00
1262.716, 20447.00
1263.790, 20640.00
1264.864, 20669.00
1265.938, 20743.00
1267.011, 20699.00
1268.085, 20561.00
1269.158, 20716.00
1270.231, 20663.00
1271.304, 20693.00
1272.377, 20731.00
1273.450, 20655.00
1274.522, 20717.00
1275.594, 21052.00
1276.666, 20872.85
1277.738, 20905.00
1278.810, 20808.00
1279.882, 20769.00
1280.953, 20868.00
1282.025, 21016.00
1283.096, 20633.00
1284.167, 20693.00
1285.238, 20810.00
1286.308, 20751.00
1287.379, 20965.00
1288.449, 20866.00
1289.519, 20884.00
1290.589, 20946.00
1291.659, 20905.00
1292.729, 20838.00
1293.798, 21050.00
