##NAMES=Elbaite
##RRUFFID=R050487
##IDEAL CHEMISTRY=Na(Al_1.5_Li_1.5_)Al_6_(Si_6_O_18_)(BO_3_)_3_(OH)_3_OH
##LOCALITY=White Queen mine, Pala, San Diego County, California, USA
##OWNER=RRUFF
##SOURCE=California Institute of Technology
##DESCRIPTION=Mass of blue acicular crystals
##STATUS=The identification of this mineral has been confirmed by X-ray diffraction and chemical analysis
##URL=rruff.info/R050487
##MEASURED CHEMISTRY=(Na_0.86_[box]_0.13_Ca_0.01_)(Al_0.42_Li_0.38_Fe^2+^_0.18_Mn_0.02_)_3_Al_6_(BO_3_)_3_Si_6_O_18_((OH)_0.85_F_0.15_)_4_
##PIN_ID=M01385
##ORIENTATION=Laser parallel to c* (0 0 1). Fiducial mark perpendicular to laser is parallel to b [0 1 0]
198.7430, 16159.00
199.9670, 16280.00
201.1900, 16240.00
202.4130, 16347.00
203.6360, 16327.00
204.8590, 16542.00
206.0820, 16574.00
207.3050, 16925.00
208.5270, 17166.00
209.7490, 17544.00
210.9710, 18071.00
212.1930, 18683.00
213.4150, 19193.00
214.6370, 19725.00
215.8580, 20264.80
217.0790, 21039.00
218.3010, 21187.00
219.5210, 21721.00
220.7420, 21941.00
221.9630, 22063.00
223.1830, 21925.00
224.4040, 21742.00
225.6240, 21154.00
226.8440, 20750.00
228.0640, 19998.00
229.2840, 19513.00
230.5030, 19126.00
231.7230, 18657.00
232.9420, 18135.00
234.1610, 18049.00
235.3800, 17906.00
236.5990, 17603.00
237.8170, 17328.00
239.0360, 17331.00
240.2540, 17130.00
241.4720, 17145.00
242.6900, 16861.00
243.9080, 16878.00
245.1250, 16575.00
246.3430, 16305.00
247.5600, 16219.00
248.7770, 15859.00
249.9940, 15568.00
251.2110, 15587.00
252.4280, 15182.00
253.6450, 15167.00
254.8610, 14972.00
256.0770, 14759.68
257.2930, 14860.31
258.5090, 14897.25
259.7250, 14873.92
260.9400, 14609.84
262.1560, 14656.65
263.3710, 14578.89
264.5860, 14496.02
265.8010, 14586.64
267.0160, 14750.00
268.2310, 14588.00
269.4450, 14664.00
270.6600, 14764.00
271.8740, 14796.00
273.0880, 14853.00
274.3020, 14928.00
275.5150, 14832.00
276.7290, 14974.00
277.9420, 14940.00
279.1550, 14819.00
280.3680, 14786.00
281.5810, 14755.89
282.7940, 14627.00
284.0070, 14710.00
285.2190, 14740.00
286.4310, 14687.00
287.6430, 14557.00
288.8550, 14637.00
290.0670, 14511.00
291.2790, 14532.00
292.4900, 14658.00
293.7020, 14728.00
294.9130, 14664.00
296.1240, 14613.00
297.3350, 14741.00
298.5450, 14668.00
299.7560, 14816.00
300.9660, 14764.00
302.1760, 14851.00
303.3860, 14923.00
304.5960, 15058.00
305.8060, 15148.00
307.0150, 15240.00
308.2250, 15298.21
309.4340, 15383.72
310.6430, 15458.72
311.8520, 15510.00
313.0610, 15601.00
314.2700, 15624.00
315.4780, 15670.00
316.6860, 15876.29
317.8940, 16320.00
319.1020, 16281.00
320.3100, 16630.00
321.5180, 16788.00
322.7250, 17349.00
323.9330, 17536.00
325.1400, 17654.00
326.3470, 17685.00
327.5540, 17915.00
328.7600, 18208.00
329.9670, 18412.00
331.1730, 18417.00
332.3800, 18459.00
333.5860, 18682.00
334.7920, 18580.00
335.9970, 18607.00
337.2030, 18667.00
338.4080, 18654.00
339.6140, 18702.00
340.8190, 18742.00
342.0240, 18777.00
343.2290, 18950.00
344.4330, 19115.00
345.6380, 19178.00
346.8420, 19369.00
348.0460, 19724.00
349.2500, 20122.00
350.4540, 20217.00
351.6580, 20444.00
352.8610, 20687.00
354.0650, 20793.00
355.2680, 20916.00
356.4710, 20993.00
357.6740, 21243.00
358.8760, 21506.00
360.0790, 21727.00
361.2810, 21996.37
362.4840, 22101.00
363.6860, 22667.00
364.8880, 23018.00
366.0900, 23688.00
367.2910, 24219.00
368.4930, 24832.00
369.6940, 25734.00
370.8950, 26345.00
372.0960, 27017.00
373.2970, 27533.00
374.4980, 27604.00
375.6980, 27602.00
376.8980, 27363.00
378.0990, 26433.00
379.2990, 25524.00
380.4980, 24336.00
381.6980, 23240.00
382.8980, 22264.00
384.0970, 21289.00
385.2960, 20602.00
386.4950, 20135.00
387.6940, 19539.00
388.8930, 19101.00
390.0920, 18704.00
391.2900, 18459.00
392.4880, 18242.00
393.6860, 18222.00
394.8840, 17940.00
396.0820, 17848.00
397.2800, 17820.00
398.4770, 17646.00
399.6750, 17890.00
400.8720, 17824.00
402.0690, 17940.00
403.2660, 17990.68
404.4620, 17999.21
405.6590, 18031.00
406.8550, 18022.00
408.0510, 17999.00
409.2480, 17920.00
410.4430, 18011.00
411.6390, 17761.00
412.8350, 17687.00
414.0300, 17503.00
415.2250, 17259.00
416.4200, 16957.00
417.6150, 17003.00
418.8100, 16937.00
420.0050, 16763.00
421.1990, 16717.00
422.3940, 16547.00
423.5880, 16456.00
424.7820, 16433.00
425.9750, 16438.00
427.1690, 16429.00
428.3630, 16177.00
429.5560, 16257.00
430.7490, 16217.00
431.9420, 16285.00
433.1350, 16239.00
434.3280, 16369.00
435.5200, 16113.00
436.7130, 16196.00
437.9050, 16266.00
439.0970, 16147.00
440.2890, 16156.00
441.4810, 16287.00
442.6720, 16343.00
443.8640, 16239.00
445.0550, 16350.00
446.2460, 16371.68
447.4370, 16524.00
448.6280, 16438.00
449.8180, 16444.00
451.0090, 16341.00
452.1990, 16357.00
453.3890, 16281.00
454.5790, 16295.00
455.7690, 16365.00
456.9590, 16324.00
458.1480, 16477.00
459.3380, 16681.00
460.5270, 16594.00
461.7160, 16957.00
462.9050, 16633.00
464.0940, 16889.00
465.2820, 16936.00
466.4700, 16971.00
467.6590, 17064.00
468.8470, 17064.00
470.0350, 17106.00
471.2220, 17207.00
472.4100, 17058.00
473.5970, 17052.00
474.7850, 17144.00
475.9720, 17155.00
477.1590, 17325.00
478.3460, 17267.00
479.5320, 17399.00
480.7190, 17398.00
481.9050, 17399.00
483.0910, 17527.00
484.2770, 17557.00
485.4630, 17765.00
486.6490, 17884.00
487.8340, 17923.00
489.0200, 18085.00
490.2050, 18068.00
491.3900, 18508.00
492.5750, 18565.00
493.7600, 18893.00
494.9440, 19135.00
496.1290, 19421.00
497.3130, 19548.71
498.4970, 19629.05
499.6810, 19675.00
500.8650, 19615.00
502.0480, 19503.00
503.2320, 19411.00
504.4150, 19231.42
505.5980, 19117.00
506.7810, 18815.00
507.9640, 18613.00
509.1460, 18361.00
510.3290, 18142.00
511.5110, 17809.00
512.6930, 17390.00
513.8750, 17269.00
515.0570, 16850.00
516.2390, 16995.00
517.4210, 16486.00
518.6020, 16622.00
519.7830, 16500.00
520.9640, 16272.00
522.1450, 16202.00
523.3260, 16152.00
524.5060, 16114.00
525.6870, 16228.00
526.8670, 16159.00
528.0470, 16188.00
529.2270, 16349.00
530.4070, 16250.00
531.5870, 16224.00
532.7660, 16382.00
533.9450, 16593.00
535.1240, 16409.00
536.3030, 16609.00
537.4820, 16671.00
538.6610, 16888.00
539.8390, 16728.00
541.0180, 16775.00
542.1960, 16925.00
543.3740, 16984.00
544.5520, 16867.00
545.7290, 16966.00
546.9070, 16874.00
548.0840, 17072.00
549.2620, 16842.00
550.4390, 16914.00
551.6160, 16851.00
552.7920, 16748.00
553.9690, 16736.00
555.1450, 16588.00
556.3220, 16474.00
557.4980, 16401.00
558.6740, 16529.00
559.8490, 16370.00
561.0250, 16425.00
562.2000, 16282.00
563.3760, 16126.22
564.5510, 16169.69
565.7260, 16193.24
566.9010, 16197.96
568.0750, 16127.44
569.2500, 16154.08
570.4240, 16141.78
571.5980, 16127.89
572.7720, 16178.00
573.9460, 16213.00
575.1200, 16172.00
576.2930, 16277.00
577.4670, 16187.00
578.6400, 16278.00
579.8130, 16185.00
580.9860, 16306.00
582.1590, 16448.00
583.3310, 16340.00
584.5040, 16418.00
585.6760, 16344.00
586.8480, 16530.00
588.0200, 16549.00
589.1920, 16536.00
590.3630, 16645.00
591.5350, 16769.00
592.7060, 16915.00
593.8770, 16912.00
595.0480, 17079.00
596.2190, 17111.00
597.3900, 17207.00
598.5600, 17153.00
599.7310, 17308.00
600.9010, 17253.00
602.0710, 17368.00
603.2410, 17351.00
604.4100, 17324.00
605.5800, 17283.00
606.7490, 17221.67
607.9190, 17042.00
609.0880, 17115.00
610.2570, 17077.00
611.4250, 17116.00
612.5940, 16908.00
613.7620, 16941.00
614.9310, 16772.00
616.0990, 16747.00
617.2670, 16565.00
618.4340, 16640.00
619.6020, 16412.00
620.7690, 16628.00
621.9370, 16429.00
623.1040, 16352.00
624.2710, 16468.00
625.4380, 16458.00
626.6040, 16438.00
627.7710, 16365.00
628.9370, 16604.00
630.1030, 16625.00
631.2690, 16599.00
632.4350, 16705.00
633.6010, 16704.00
634.7660, 16919.00
635.9320, 16905.00
637.0970, 16948.00
638.2620, 16952.00
639.4270, 16806.00
640.5920, 16726.00
641.7560, 16804.00
642.9210, 16880.00
644.0850, 16885.00
645.2490, 16865.88
646.4130, 16841.00
647.5770, 16751.00
648.7400, 16760.00
649.9040, 16711.00
651.0670, 16737.00
652.2300, 16801.00
653.3930, 16803.00
654.5560, 17045.00
655.7190, 16924.00
656.8810, 16987.00
658.0440, 16991.00
659.2060, 16859.00
660.3680, 16982.00
661.5300, 16981.00
662.6910, 16904.00
663.8530, 16844.00
665.0140, 16852.00
666.1750, 16691.00
667.3360, 16618.00
668.4970, 16535.81
669.6580, 16356.00
670.8190, 16364.00
671.9790, 16277.00
673.1390, 16235.00
674.2990, 16178.38
675.4590, 16149.00
676.6190, 16071.00
677.7790, 15995.00
678.9380, 16001.00
680.0970, 15943.64
681.2570, 15804.00
682.4160, 15902.00
683.5740, 15917.00
684.7330, 15913.00
685.8920, 15763.00
687.0500, 15858.00
688.2080, 15958.00
689.3660, 15785.00
690.5240, 15904.00
691.6820, 15931.00
692.8390, 16014.00
693.9960, 16008.00
695.1540, 16076.00
696.3110, 16164.00
697.4680, 16411.00
698.6240, 16508.00
699.7810, 16608.00
700.9370, 16767.00
702.0940, 16851.00
703.2500, 17103.00
704.4060, 17279.00
705.5610, 17522.00
706.7170, 17657.00
707.8720, 17981.00
709.0280, 18259.00
710.1830, 18669.00
711.3380, 19138.00
712.4920, 19699.00
713.6470, 20451.00
714.8020, 21238.00
715.9560, 22019.00
717.1100, 22859.00
718.2640, 23829.00
719.4180, 24956.00
720.5720, 25847.00
721.7250, 26937.00
722.8780, 27859.00
724.0320, 28670.00
725.1850, 29219.00
726.3380, 29240.00
727.4900, 29195.00
728.6430, 28784.00
729.7950, 28274.00
730.9470, 27211.00
732.1000, 25834.00
733.2510, 24838.00
734.4030, 23843.00
735.5550, 22931.00
736.7060, 22008.00
737.8570, 21023.00
739.0090, 20462.00
740.1600, 20041.00
741.3100, 19574.00
742.4610, 19355.00
743.6110, 19319.00
744.7620, 19108.00
745.9120, 19056.00
747.0620, 18944.00
748.2120, 18964.00
749.3610, 18958.00
750.5110, 19114.00
751.6600, 19171.21
752.8090, 19210.00
753.9580, 19247.65
755.1070, 19240.45
756.2560, 19228.00
757.4050, 19168.00
758.5530, 19131.00
759.7010, 19022.00
760.8490, 18972.00
761.9970, 18683.00
763.1450, 18720.00
764.2920, 18533.00
765.4400, 18230.00
766.5870, 18222.00
767.7340, 18147.00
768.8810, 17953.00
770.0280, 17890.00
771.1740, 17676.00
772.3210, 17610.40
773.4670, 17621.00
774.6130, 17495.00
775.7590, 17550.00
776.9050, 17591.00
778.0510, 17523.00
779.1960, 17424.00
780.3420, 17475.00
781.4870, 17349.29
782.6320, 17381.76
783.7770, 17408.94
784.9210, 17431.87
786.0660, 17394.18
787.2100, 17468.22
788.3540, 17517.91
789.4980, 17580.59
790.6420, 17712.07
791.7860, 17783.00
792.9300, 17805.00
794.0730, 18044.00
795.2160, 18174.00
796.3590, 18177.00
797.5020, 18298.00
798.6450, 18417.87
799.7880, 18532.36
800.9300, 18694.00
802.0720, 18879.00
803.2150, 19030.00
804.3560, 19292.00
805.4980, 19427.00
806.6400, 19802.00
807.7810, 20139.00
808.9230, 20235.00
810.0640, 20214.00
811.2050, 20281.00
812.3460, 20109.00
813.4860, 19909.00
814.6270, 19637.00
815.7670, 19300.00
816.9070, 19103.00
818.0470, 19053.00
819.1870, 19002.00
820.3270, 18887.00
821.4670, 19038.00
822.6060, 18712.00
823.7450, 18874.00
824.8840, 18807.00
826.0230, 19015.00
827.1620, 18915.00
828.3010, 19215.00
829.4390, 19333.00
830.5770, 19189.00
831.7150, 19425.00
832.8530, 19476.00
833.9910, 19607.00
835.1290, 19795.00
836.2660, 19802.00
837.4030, 19767.00
838.5410, 19852.00
839.6780, 20021.00
840.8140, 19901.00
841.9510, 20081.00
843.0870, 20002.00
844.2240, 20264.00
845.3600, 20619.00
846.4960, 20686.00
847.6320, 21202.00
848.7680, 21427.00
849.9030, 21845.00
851.0380, 22541.00
852.1740, 22913.00
853.3090, 23294.00
854.4440, 23912.00
855.5780, 24078.00
856.7130, 24143.00
857.8470, 24167.00
858.9820, 23949.00
860.1160, 23734.00
861.2500, 23280.00
862.3830, 22511.00
863.5170, 21857.00
864.6500, 21285.00
865.7840, 20733.00
866.9170, 20290.00
868.0500, 19914.00
869.1830, 19615.00
870.3150, 19078.00
871.4480, 19029.00
872.5800, 18786.00
873.7120, 18803.00
874.8440, 18626.00
875.9760, 18502.00
877.1080, 18267.00
878.2390, 18168.00
879.3710, 17934.00
880.5020, 18042.00
881.6330, 17926.00
882.7640, 17930.56
883.8940, 18077.00
885.0250, 17987.00
886.1550, 17828.00
887.2850, 17865.00
888.4160, 17754.00
889.5450, 17853.00
890.6750, 17764.00
891.8050, 17785.00
892.9340, 17761.00
894.0630, 17725.00
895.1930, 17776.00
896.3220, 17728.00
897.4500, 17742.00
898.5790, 17811.00
899.7070, 17642.00
900.8360, 17870.00
901.9640, 17813.00
903.0920, 17913.00
904.2200, 17810.00
905.3470, 17858.00
906.4750, 17951.00
907.6020, 17880.00
908.7290, 17975.00
909.8560, 18002.00
910.9830, 18135.00
912.1100, 17966.00
913.2360, 18268.00
914.3630, 18008.00
915.4890, 18256.00
916.6150, 18099.00
917.7410, 18119.00
918.8670, 18080.00
919.9920, 17990.00
921.1180, 18021.00
922.2430, 18079.00
923.3680, 18162.00
924.4930, 18094.00
925.6180, 18052.00
926.7420, 18192.00
927.8670, 18338.00
928.9910, 18258.00
930.1150, 18333.00
931.2390, 18442.00
932.3630, 18418.00
933.4860, 18482.00
934.6100, 18474.00
935.7330, 18595.00
936.8560, 18494.00
937.9790, 18672.00
939.1020, 18710.00
940.2250, 18879.00
941.3470, 18676.00
942.4700, 18740.00
943.5920, 18943.00
944.7140, 18783.00
945.8360, 18893.00
946.9570, 18913.00
948.0790, 18907.00
949.2000, 18878.00
950.3220, 19141.00
951.4430, 19112.00
952.5640, 19298.00
953.6840, 19260.00
954.8050, 19430.00
955.9250, 19632.00
957.0460, 19500.00
958.1660, 19511.00
959.2860, 19771.00
960.4050, 19761.00
961.5250, 19819.00
962.6440, 19780.00
963.7640, 19955.00
964.8830, 19983.78
966.0020, 19967.00
967.1210, 20107.00
968.2390, 20206.00
969.3580, 20172.00
970.4760, 20241.00
971.5940, 20245.00
972.7120, 20290.00
973.8300, 20320.98
974.9480, 20304.23
976.0650, 20402.00
977.1830, 20306.00
978.3000, 20390.00
979.4170, 20472.00
980.5340, 20413.00
981.6500, 20673.00
982.7670, 20567.00
983.8830, 20790.00
985.0000, 20742.00
986.1160, 20576.00
987.2320, 20633.00
988.3470, 20598.00
989.4630, 20762.00
990.5780, 20855.00
991.6940, 20720.00
992.8090, 20888.00
993.9240, 20730.00
995.0380, 20836.00
996.1530, 21176.00
997.2680, 21313.00
998.3820, 21332.00
999.4960, 21373.00
1000.610, 21488.00
1001.724, 21424.00
1002.837, 21255.00
1003.951, 21364.00
1005.064, 21421.00
1006.177, 21556.00
1007.291, 21551.00
1008.403, 21519.00
1009.516, 21659.00
1010.629, 21490.00
1011.741, 21879.00
1012.853, 21900.00
1013.965, 21906.00
1015.077, 21727.00
1016.189, 22119.00
1017.300, 22012.00
1018.412, 22310.00
1019.523, 22312.00
1020.634, 22201.00
1021.745, 22312.00
1022.856, 22183.00
1023.966, 22436.00
1025.077, 22606.00
1026.187, 22562.00
1027.297, 22661.00
1028.407, 22758.00
1029.517, 22780.00
1030.627, 22870.00
1031.736, 23166.00
1032.845, 23279.00
1033.955, 23536.00
1035.064, 23458.00
1036.172, 23705.00
1037.281, 23909.00
1038.390, 24156.00
1039.498, 24385.30
1040.606, 24690.00
1041.714, 24908.00
1042.822, 25153.00
1043.930, 25532.00
1045.037, 25840.00
1046.145, 26037.00
1047.252, 26501.00
1048.359, 26777.00
1049.466, 27501.00
1050.573, 27747.00
1051.679, 28541.00
1052.786, 29233.00
1053.892, 29629.00
1054.998, 30199.00
1056.104, 30853.00
1057.210, 31157.00
1058.315, 31416.73
1059.421, 31620.00
1060.526, 31483.00
1061.631, 31341.00
1062.736, 31031.00
1063.841, 30418.00
1064.946, 29665.00
1066.050, 29037.00
1067.154, 27881.00
1068.258, 27392.00
1069.362, 26830.00
1070.466, 25851.00
1071.570, 25348.00
1072.674, 24636.00
1073.777, 24270.00
1074.880, 23599.00
1075.983, 23446.00
1077.086, 23206.00
1078.189, 22783.00
1079.291, 22514.00
1080.394, 22266.00
1081.496, 22124.00
1082.598, 22066.00
1083.700, 21787.00
1084.802, 22009.00
1085.903, 21710.00
1087.005, 21850.00
1088.106, 21913.00
1089.207, 21853.00
1090.308, 21887.00
1091.409, 21955.83
1092.509, 22102.00
1093.610, 22156.00
1094.710, 22286.00
1095.810, 22481.00
1096.910, 22416.00
1098.010, 22365.00
1099.110, 22549.00
1100.209, 22804.00
1101.309, 22611.00
1102.408, 22907.00
1103.507, 22945.00
1104.606, 23057.00
1105.704, 23514.00
1106.803, 23467.00
1107.901, 23755.00
1108.999, 24243.00
1110.097, 24365.00
1111.195, 24675.00
1112.293, 24690.00
1113.391, 24689.00
1114.488, 24798.00
1115.585, 24373.00
1116.682, 24008.00
1117.779, 23751.00
1118.876, 23425.00
1119.973, 23117.17
1121.069, 22634.00
1122.165, 22580.00
1123.261, 22239.00
1124.357, 22118.00
1125.453, 22039.00
1126.549, 21655.00
1127.644, 21805.00
1128.739, 21750.00
1129.835, 21554.00
1130.930, 21616.00
1132.024, 21484.00
1133.119, 21580.00
1134.214, 21686.00
1135.308, 21432.00
1136.402, 21577.00
1137.496, 21364.00
1138.590, 21399.00
1139.684, 21512.00
1140.777, 21391.00
1141.871, 21521.00
1142.964, 21411.00
1144.057, 21436.00
1145.150, 21281.00
1146.243, 21539.00
1147.335, 21670.00
1148.428, 21664.00
1149.520, 21727.00
1150.612, 21992.00
1151.704, 21878.00
1152.796, 21957.00
1153.887, 21833.00
1154.979, 22285.00
1156.070, 21907.00
1157.161, 22046.00
1158.252, 22299.00
1159.343, 21988.00
1160.433, 22148.00
1161.524, 22194.00
1162.614, 21884.00
1163.704, 21782.00
1164.794, 21931.00
1165.884, 21787.00
1166.974, 21528.00
1168.063, 21493.00
1169.153, 21601.00
1170.242, 21409.00
1171.331, 21372.00
1172.420, 21515.00
1173.508, 21324.00
1174.597, 21360.00
1175.685, 21354.00
1176.774, 21148.00
1177.862, 21222.00
1178.950, 21269.00
1180.037, 21356.00
1181.125, 21289.00
1182.212, 21346.42
1183.300, 21363.00
1184.387, 21377.00
1185.474, 21413.00
1186.560, 21453.00
1187.647, 21338.00
1188.733, 21284.17
1189.820, 21050.00
1190.906, 21071.00
1191.992, 20875.00
1193.078, 20827.00
1194.163, 20854.00
1195.249, 20824.00
1196.334, 20723.00
1197.419, 20772.00
1198.504, 20837.00
1199.589, 20766.00
1200.674, 20630.00
1201.758, 20881.00
1202.843, 20696.00
1203.927, 20805.00
1205.011, 20821.00
1206.095, 20842.00
1207.179, 20948.00
1208.262, 21011.00
1209.345, 20875.00
1210.429, 21143.00
1211.512, 21002.00
1212.595, 21163.00
1213.677, 21090.00
1214.760, 20964.00
1215.842, 21069.00
1216.925, 21321.00
1218.007, 21390.00
1219.089, 21404.00
1220.171, 21509.00
1221.252, 21442.00
1222.334, 21503.00
1223.415, 21776.00
1224.496, 21828.00
1225.577, 21730.00
1226.658, 21821.00
1227.738, 21708.00
1228.819, 21964.00
1229.899, 22019.00
1230.979, 22086.00
1232.060, 22156.00
1233.139, 21921.00
1234.219, 22163.00
1235.299, 21975.00
1236.378, 22183.00
1237.457, 22142.00
1238.536, 22223.00
1239.615, 22189.00
1240.694, 22218.00
1241.772, 22251.00
1242.851, 22273.00
1243.929, 22289.00
1245.007, 22304.00
1246.085, 22343.49
1247.163, 22154.00
1248.240, 22453.00
1249.318, 22392.00
1250.395, 22501.00
1251.472, 22743.00
1252.549, 22628.00
1253.626, 22565.00
1254.703, 22683.00
1255.779, 22672.00
1256.855, 22707.00
1257.931, 22837.00
1259.007, 23085.00
1260.083, 22646.00
1261.159, 22733.00
1262.234, 22927.00
1263.310, 22639.00
1264.385, 22771.00
1265.460, 22805.00
1266.535, 22726.00
1267.610, 22742.00
1268.684, 22641.00
1269.758, 22683.00
1270.833, 22777.00
1271.907, 22990.00
1272.981, 23034.00
1274.054, 22693.00
1275.128, 22999.00
1276.201, 22819.00
1277.275, 22724.00
1278.348, 22787.00
1279.421, 22689.00
1280.493, 22615.79
1281.566, 22610.35
1282.638, 22467.00
1283.711, 22572.00
1284.783, 22613.00
1285.855, 22682.00
1286.927, 22859.00
1287.998, 22602.00
1289.070, 22623.00
1290.141, 22581.00
1291.212, 22654.00
1292.283, 22887.00
1293.354, 22828.00
1294.425, 23025.00
1295.495, 22888.00
1296.566, 22725.00
1297.636, 22976.00
1298.706, 22985.00
1299.776, 22869.00
1300.845, 22904.00
1301.915, 22948.00
1302.984, 22851.00
1304.054, 22845.00
1305.123, 22869.00
1306.191, 22788.00
1307.260, 22819.00
1308.329, 22861.00
1309.397, 22815.00
1310.465, 22850.00
1311.534, 22867.00
1312.602, 22641.00
1313.669, 22673.00
1314.737, 22825.00
1315.804, 22553.00
1316.872, 22659.00
1317.939, 22707.00
1319.006, 22619.00
1320.073, 22580.00
1321.139, 22590.90
1322.206, 22572.94
1323.272, 22606.00
1324.338, 22637.00
1325.404, 22696.00
1326.470, 22785.00
1327.536, 22726.00
1328.601, 22809.00
1329.667, 22674.00
1330.732, 22767.00
1331.797, 22636.00
1332.862, 22684.00
1333.926, 22683.18
1334.991, 22910.00
1336.055, 22794.00
1337.120, 22473.00
1338.184, 22707.00
1339.248, 22848.00
1340.311, 22711.00
1341.375, 22847.00
1342.438, 22662.00
1343.502, 22807.00
1344.565, 22960.00
1345.628, 22773.00
1346.691, 22685.00
1347.753, 22837.00
1348.816, 22889.00
1349.878, 23001.00
1350.940, 22651.00
1352.002, 22612.00
1353.064, 22647.00
1354.126, 22834.00
1355.187, 22933.00
1356.248, 22943.00
1357.310, 22819.00
1358.371, 22768.00
1359.431, 22840.00
