##NAMES=Elbaite
##RRUFFID=R050260
##IDEAL CHEMISTRY=Na(Al_1.5_Li_1.5_)Al_6_(Si_6_O_18_)(BO_3_)_3_(OH)_3_OH
##LOCALITY=Minas Gerais, Brazil
##OWNER=RRUFF
##SOURCE=Marcus Origlieri
##DESCRIPTION=Greenish-gray prismatic single crystal
##STATUS=The identification of this mineral has been confirmed by X-ray diffraction and chemical analysis
##URL=rruff.info/R050260
##MEASURED CHEMISTRY=(Na_0.76_[box]_0.17_Ca_0.07_)_Σ=1_(Al_1.67_Li_0.97_Mn_0.36_)_Σ=3_Al_6.00_(B_1.00_O_3_)_3_Si_6.00_O_18_((OH)_3.40_F_0.60_)_Σ=4_; B assumed by stoichiometry; OH estimated by charge balance
##PIN_ID=L01093
##ORIENTATION=Laser parallel to c* (0 0 1). Fiducial mark perpendicular to laser is parallel to -a [-1 0 0]
118.1340, 13996.00
119.3650, 14067.00
120.5960, 14228.00
121.8270, 14494.00
123.0580, 14746.00
124.2880, 14890.67
125.5190, 15282.00
126.7490, 15232.00
127.9790, 15438.00
129.2090, 15662.00
130.4390, 16058.00
131.6680, 16152.00
132.8980, 16174.00
134.1270, 15930.00
135.3560, 15821.00
136.5850, 15684.00
137.8140, 15577.00
139.0430, 15357.00
140.2710, 15258.00
141.5000, 15296.00
142.7280, 14951.00
143.9560, 14724.00
145.1840, 14886.00
146.4120, 14960.00
147.6390, 15242.00
148.8670, 15476.00
150.0940, 15558.00
151.3210, 16099.00
152.5490, 16553.00
153.7750, 16262.00
155.0020, 16432.00
156.2290, 16418.00
157.4550, 16424.00
158.6810, 16458.00
159.9080, 16362.00
161.1340, 16424.33
162.3590, 16393.00
163.5850, 16431.00
164.8110, 16395.00
166.0360, 16291.00
167.2610, 16061.00
168.4860, 16104.00
169.7110, 16067.00
170.9360, 15916.00
172.1610, 15926.00
173.3850, 15610.00
174.6100, 15661.00
175.8340, 15687.00
177.0580, 15585.00
178.2820, 15752.00
179.5050, 15873.00
180.7290, 15901.00
181.9520, 15995.00
183.1760, 16138.00
184.3990, 16260.00
185.6220, 16509.00
186.8450, 16660.00
188.0670, 17037.00
189.2900, 17228.00
190.5120, 17532.00
191.7340, 17872.00
192.9560, 18117.00
194.1780, 18265.00
195.4000, 18507.00
196.6220, 18820.00
197.8430, 19203.00
199.0640, 19414.78
200.2860, 19426.00
201.5070, 19932.00
202.7270, 20125.00
203.9480, 20422.00
205.1690, 20210.00
206.3890, 20557.00
207.6090, 20923.00
208.8290, 21727.00
210.0490, 22782.00
211.2690, 23758.00
212.4890, 25008.00
213.7080, 26435.00
214.9280, 28323.00
216.1470, 29962.00
217.3660, 31685.00
218.5850, 33896.00
219.8030, 35524.00
221.0220, 36733.00
222.2400, 37643.00
223.4590, 37701.00
224.6770, 37179.00
225.8950, 35888.00
227.1120, 34376.00
228.3300, 33169.00
229.5480, 31616.00
230.7650, 30074.00
231.9820, 29135.00
233.1990, 28382.00
234.4160, 27896.00
235.6330, 27450.00
236.8490, 26981.00
238.0660, 26635.00
239.2820, 26858.00
240.4980, 26565.00
241.7140, 26210.00
242.9300, 26229.00
244.1460, 25935.00
245.3610, 25556.00
246.5770, 24940.00
247.7920, 24432.00
249.0070, 23776.00
250.2220, 23104.00
251.4370, 22632.00
252.6510, 22075.00
253.8660, 21615.00
255.0800, 21133.00
256.2940, 20722.00
257.5080, 20713.00
258.7220, 21305.00
259.9360, 21701.00
261.1490, 20512.00
262.3630, 19878.00
263.5760, 19594.00
264.7890, 19654.00
266.0020, 19710.00
267.2150, 19956.00
268.4270, 19906.00
269.6400, 20245.00
270.8520, 20291.00
272.0640, 20067.00
273.2760, 20460.00
274.4880, 20689.00
275.7000, 20482.00
276.9120, 20474.00
278.1230, 20511.00
279.3340, 20412.00
280.5450, 20286.00
281.7560, 20327.00
282.9670, 20343.00
284.1780, 20125.00
285.3880, 19944.00
286.5980, 20068.00
287.8090, 19601.00
289.0190, 19663.00
290.2290, 19519.00
291.4380, 19487.00
292.6480, 19326.00
293.8570, 19251.39
295.0670, 19144.00
296.2760, 19042.00
297.4850, 19022.00
298.6930, 18862.00
299.9020, 19135.00
301.1110, 19204.00
302.3190, 19488.00
303.5270, 19823.00
304.7350, 19876.00
305.9430, 20406.00
307.1510, 20486.00
308.3580, 20816.00
309.5660, 21128.00
310.7730, 21030.00
311.9800, 21348.00
313.1870, 21537.00
314.3940, 21852.00
315.6010, 22193.00
316.8070, 22264.00
318.0130, 22626.00
319.2200, 22986.00
320.4260, 23363.00
321.6310, 24107.00
322.8370, 24476.00
324.0430, 25373.00
325.2480, 25561.00
326.4540, 26122.00
327.6590, 26540.00
328.8640, 27267.00
330.0680, 27567.00
331.2730, 27865.00
332.4780, 27969.00
333.6820, 28013.00
334.8860, 28061.00
336.0900, 28119.00
337.2940, 27955.00
338.4980, 27981.00
339.7010, 27733.00
340.9050, 27597.00
342.1080, 27731.00
343.3110, 27512.00
344.5140, 27635.00
345.7170, 27519.00
346.9200, 27360.00
348.1220, 27469.00
349.3240, 27078.00
350.5270, 27240.00
351.7290, 27213.00
352.9310, 27387.00
354.1320, 27619.00
355.3340, 27813.00
356.5350, 28328.62
357.7370, 28765.00
358.9380, 29482.00
360.1390, 30183.00
361.3400, 30857.00
362.5400, 31939.00
363.7410, 32767.00
364.9410, 34084.00
366.1410, 35415.00
367.3410, 37517.00
368.5410, 39186.00
369.7410, 41719.00
370.9400, 43658.00
372.1400, 46254.00
373.3390, 48595.00
374.5380, 51480.00
375.7370, 52863.00
376.9360, 53460.00
378.1350, 52772.00
379.3330, 51341.00
380.5310, 48832.00
381.7300, 46103.00
382.9280, 43413.00
384.1260, 40904.00
385.3230, 38330.00
386.5210, 36234.00
387.7180, 34361.00
388.9160, 33380.00
390.1130, 32070.00
391.3100, 31201.00
392.5060, 30529.00
393.7030, 29957.00
394.9000, 29547.00
396.0960, 29110.00
397.2920, 29086.00
398.4880, 28956.00
399.6840, 29032.00
400.8800, 28901.00
402.0750, 29158.00
403.2710, 29308.00
404.4660, 29460.00
405.6610, 29551.00
406.8560, 29588.00
408.0510, 29615.00
409.2450, 29487.00
410.4400, 29218.00
411.6340, 28856.00
412.8280, 28542.00
414.0220, 28055.00
415.2160, 27100.00
416.4100, 26561.00
417.6030, 25871.00
418.7970, 25331.00
419.9900, 24730.00
421.1830, 23994.00
422.3760, 23613.00
423.5690, 23071.00
424.7610, 23053.00
425.9540, 22622.00
427.1460, 22488.00
428.3380, 22482.00
429.5300, 22127.00
430.7220, 22311.00
431.9140, 22151.00
433.1050, 22300.00
434.2970, 22466.00
435.4880, 22360.00
436.6790, 22487.00
437.8700, 22604.00
439.0610, 22505.00
440.2510, 22806.00
441.4420, 22661.00
442.6320, 22874.00
443.8220, 23116.00
445.0120, 22961.00
446.2020, 23093.00
447.3910, 22998.00
448.5810, 23076.00
449.7700, 22879.00
450.9600, 22939.00
452.1490, 22836.00
453.3370, 22724.00
454.5260, 22690.00
455.7150, 22785.00
456.9030, 22632.00
458.0910, 22743.00
459.2800, 22649.00
460.4670, 22832.00
461.6550, 22867.00
462.8430, 22946.00
464.0300, 23411.00
465.2180, 23477.00
466.4050, 23494.00
467.5920, 23672.00
468.7790, 23626.00
469.9650, 23730.00
471.1520, 24033.00
472.3380, 24015.00
473.5250, 24096.00
474.7110, 23906.00
475.8970, 24022.00
477.0820, 23593.00
478.2680, 23793.00
479.4540, 23667.00
480.6390, 23872.00
481.8240, 23444.00
483.0090, 23699.00
484.1940, 23433.00
485.3780, 23417.00
486.5630, 23573.00
487.7470, 23408.00
488.9320, 23249.00
490.1160, 23455.00
491.3000, 23354.00
492.4830, 23415.75
493.6670, 23272.00
494.8500, 23565.00
496.0340, 23624.00
497.2170, 23798.00
498.4000, 24037.00
499.5820, 24085.00
500.7650, 24341.00
501.9480, 24558.00
503.1300, 24614.00
504.3120, 24710.00
505.4940, 24778.00
506.6760, 24892.75
507.8580, 25096.00
509.0390, 25111.00
510.2210, 25242.00
511.4020, 25305.00
512.5830, 25348.00
513.7640, 25169.00
514.9450, 24934.00
516.1250, 25062.00
517.3060, 24810.00
518.4860, 24773.00
519.6660, 24580.00
520.8460, 24497.00
522.0260, 24157.00
523.2060, 24340.00
524.3850, 24214.00
525.5650, 24397.00
526.7440, 24653.00
527.9230, 24658.00
529.1020, 24735.00
530.2810, 24905.00
531.4590, 24998.00
532.6380, 25167.00
533.8160, 25573.00
534.9940, 25943.00
536.1720, 25965.00
537.3500, 26123.00
538.5270, 26321.00
539.7050, 26382.00
540.8820, 26471.00
542.0590, 26580.00
543.2360, 26744.00
544.4130, 26533.00
545.5900, 26662.00
546.7660, 26594.00
547.9430, 26741.00
549.1190, 26819.00
550.2950, 26899.00
551.4710, 26865.00
552.6470, 26526.00
553.8220, 26382.00
554.9980, 26182.00
556.1730, 25957.00
557.3480, 25578.00
558.5230, 25210.00
559.6980, 24955.00
560.8730, 24654.00
562.0470, 24445.00
563.2220, 24180.00
564.3960, 23827.00
565.5700, 23399.00
566.7440, 23043.00
567.9170, 22966.00
569.0910, 22820.00
570.2640, 22642.00
571.4380, 22580.00
572.6110, 22347.00
573.7840, 22326.00
574.9570, 22276.00
576.1290, 22163.00
577.3020, 22142.00
578.4740, 22017.99
579.6460, 21914.00
580.8180, 21828.00
581.9900, 21759.00
583.1620, 21742.00
584.3330, 21722.00
585.5040, 21615.00
586.6760, 21486.00
587.8470, 21388.00
589.0180, 21372.00
590.1880, 21143.00
591.3590, 21057.00
592.5290, 20851.00
593.7000, 20795.00
594.8700, 20692.00
596.0400, 20589.00
597.2090, 20531.00
598.3790, 20439.00
599.5490, 20340.00
600.7180, 20386.00
601.8870, 20357.00
603.0560, 20205.00
604.2250, 20158.00
605.3940, 20198.00
606.5620, 20035.00
607.7300, 19988.00
608.8990, 20057.00
610.0670, 20039.00
611.2350, 19924.00
612.4020, 19895.00
613.5700, 19929.00
614.7370, 19997.00
615.9050, 19881.00
617.0720, 19761.00
618.2390, 19821.00
619.4060, 19777.62
620.5720, 19707.00
621.7390, 19816.00
622.9050, 19989.00
624.0710, 19967.00
625.2370, 19937.00
626.4030, 20247.00
627.5690, 20254.00
628.7340, 20372.77
629.9000, 20407.00
631.0650, 20553.00
632.2300, 20627.00
633.3950, 20691.00
634.5600, 20870.00
635.7240, 21055.00
636.8890, 20988.00
638.0530, 21014.00
639.2170, 21084.00
640.3810, 21032.00
641.5450, 21040.31
642.7080, 21037.00
643.8720, 20956.00
645.0350, 20915.00
646.1980, 20819.75
647.3610, 20630.00
648.5240, 20682.00
649.6870, 20553.00
650.8490, 20469.00
652.0120, 20447.00
653.1740, 20478.00
654.3360, 20627.00
655.4980, 20720.00
656.6600, 20725.00
657.8210, 20817.69
658.9830, 20761.00
660.1440, 20813.00
661.3050, 20793.00
662.4660, 20598.00
663.6270, 20572.00
664.7870, 20504.00
665.9480, 20432.00
667.1080, 20433.00
668.2680, 20413.00
669.4280, 20269.00
670.5880, 20321.00
671.7480, 20237.76
672.9070, 20128.00
674.0670, 20135.00
675.2260, 20239.00
676.3850, 20170.00
677.5440, 19991.00
678.7030, 20052.00
679.8610, 19884.00
681.0200, 19883.00
682.1780, 19813.00
683.3360, 19736.91
684.4940, 19523.00
685.6520, 19611.00
686.8090, 19533.00
687.9670, 19436.00
689.1240, 19481.00
690.2810, 19725.00
691.4380, 19516.00
692.5950, 19855.00
693.7520, 19967.00
694.9080, 20060.00
696.0650, 20195.00
697.2210, 20502.00
698.3770, 20770.00
699.5330, 20989.00
700.6880, 21297.00
701.8440, 21697.00
702.9990, 22035.35
704.1550, 22572.00
705.3100, 22912.00
706.4650, 23435.00
707.6190, 24022.00
708.7740, 24749.00
709.9290, 25502.00
711.0830, 26570.00
712.2370, 27698.00
713.3910, 28957.00
714.5450, 30398.00
715.6980, 31913.00
716.8520, 34286.00
718.0050, 36831.00
719.1580, 39350.00
720.3110, 42503.00
721.4640, 45569.00
722.6170, 49395.00
723.7700, 52917.00
724.9220, 56223.00
726.0740, 59262.00
727.2260, 61808.00
728.3780, 62940.00
729.5300, 63277.00
730.6810, 62091.00
731.8330, 59532.00
732.9840, 56386.00
734.1350, 52665.00
735.2860, 48682.00
736.4370, 44767.00
737.5880, 41443.00
738.7380, 38531.00
739.8880, 35818.00
741.0390, 33706.00
742.1890, 31953.00
743.3380, 30773.00
744.4880, 29351.00
745.6380, 28853.00
746.7870, 28022.00
747.9360, 27423.00
749.0850, 27064.00
750.2340, 26961.00
751.3830, 26687.00
752.5310, 26465.00
753.6800, 26423.00
754.8280, 26303.00
755.9760, 26128.00
757.1240, 25979.00
758.2720, 25706.19
759.4190, 25409.00
760.5670, 25055.00
761.7140, 24813.00
762.8610, 24356.00
764.0080, 24016.00
765.1550, 23491.00
766.3020, 22965.00
767.4480, 22665.00
768.5950, 22497.00
769.7410, 22032.80
770.8870, 22085.00
772.0330, 21294.00
773.1780, 21067.00
774.3240, 20672.00
775.4690, 20697.00
776.6140, 20432.00
777.7590, 20281.00
778.9040, 20293.00
780.0490, 19955.00
781.1940, 19833.00
782.3380, 20008.00
783.4820, 19825.00
784.6260, 19993.00
785.7700, 19860.00
786.9140, 20061.00
788.0580, 20063.00
789.2010, 20214.00
790.3450, 20144.00
791.4880, 20121.00
792.6310, 20341.00
793.7730, 20164.00
794.9160, 20408.00
796.0590, 20472.00
797.2010, 20567.00
798.3430, 20631.00
799.4850, 20856.00
800.6270, 20992.00
801.7690, 20923.00
802.9100, 21202.00
804.0520, 21171.00
805.1930, 20945.00
806.3340, 20987.00
807.4750, 20773.00
808.6160, 20522.00
809.7560, 20416.00
810.8970, 20373.00
812.0370, 20336.00
813.1770, 20000.00
814.3170, 20169.00
815.4570, 20014.00
816.5960, 20157.00
817.7360, 20022.00
818.8750, 20120.00
820.0140, 20046.00
821.1530, 20110.00
822.2920, 20250.00
823.4310, 20149.00
824.5690, 20310.00
825.7070, 20647.00
826.8460, 20698.00
827.9840, 21012.00
829.1220, 21404.00
830.2590, 21601.00
831.3970, 22074.00
832.5340, 22070.00
833.6710, 22230.00
834.8080, 22556.00
835.9450, 22803.00
837.0820, 22958.00
838.2190, 23016.00
839.3550, 22907.00
840.4910, 22731.00
841.6270, 22387.00
842.7630, 22409.00
843.8990, 22105.00
845.0350, 21981.00
846.1700, 21764.00
847.3060, 21441.00
848.4410, 21380.00
849.5760, 21291.00
850.7100, 21265.00
851.8450, 21242.00
852.9800, 21293.00
854.1140, 21332.00
855.2480, 21298.00
856.3820, 21319.00
857.5160, 21317.97
858.6500, 21403.00
859.7830, 21270.00
860.9170, 21295.00
862.0500, 21174.00
863.1830, 21182.00
864.3160, 21036.00
865.4480, 20992.64
866.5810, 20855.00
867.7130, 20916.00
868.8460, 20829.00
869.9780, 20898.00
871.1100, 20665.00
872.2410, 20489.00
873.3730, 20862.00
874.5050, 20810.00
875.6360, 20581.00
876.7670, 20477.00
877.8980, 20588.00
879.0290, 20411.00
880.1590, 20642.00
881.2900, 20477.00
882.4200, 20289.00
883.5500, 20397.00
884.6800, 20464.00
885.8100, 20371.00
886.9400, 20221.00
888.0690, 20398.00
889.1990, 20241.24
890.3280, 20324.81
891.4570, 20144.00
892.5860, 20358.00
893.7140, 20362.00
894.8430, 20200.00
895.9710, 20250.00
897.1000, 20189.00
898.2280, 20145.00
899.3560, 20174.00
900.4830, 20186.00
901.6110, 20149.00
902.7380, 20254.00
903.8660, 20130.00
904.9930, 20269.00
906.1200, 20261.00
907.2460, 20222.00
908.3730, 20349.00
909.5000, 20139.00
910.6260, 20151.00
911.7520, 20354.00
912.8780, 20229.00
914.0040, 20412.00
915.1290, 20416.00
916.2550, 20508.00
917.3800, 20624.00
918.5050, 20646.00
919.6300, 20773.00
920.7550, 20645.00
921.8800, 20773.00
923.0040, 20802.96
924.1290, 20859.75
925.2530, 20941.00
926.3770, 21096.00
927.5010, 21213.00
928.6250, 21424.00
929.7480, 21479.00
930.8720, 21535.00
931.9950, 21742.00
933.1180, 21827.00
934.2410, 21827.00
935.3640, 22245.00
936.4860, 22150.00
937.6090, 22215.00
938.7310, 22516.00
939.8530, 22429.00
940.9750, 22541.00
942.0970, 22642.00
943.2180, 22780.00
944.3400, 22938.00
945.4610, 22924.00
946.5820, 22873.00
947.7030, 23130.00
948.8240, 23090.00
949.9450, 23132.00
951.0650, 23203.00
952.1860, 23228.40
953.3060, 23388.00
954.4260, 23416.00
955.5460, 23446.00
956.6650, 23676.00
957.7850, 23572.00
958.9040, 23562.00
960.0230, 23633.00
961.1420, 23819.00
962.2610, 23951.00
963.3800, 23891.00
964.4990, 23975.00
965.6170, 23963.00
966.7350, 24094.00
967.8530, 24141.00
968.9710, 24166.00
970.0890, 24343.00
971.2070, 24529.00
972.3240, 24530.00
973.4410, 24539.00
974.5580, 24510.00
975.6750, 24587.00
976.7920, 24530.00
977.9090, 24597.00
979.0250, 24635.00
980.1410, 24599.00
981.2580, 24697.00
982.3740, 24723.00
983.4890, 24706.00
984.6050, 24740.00
985.7200, 24510.00
986.8360, 24448.00
987.9510, 24409.00
989.0660, 24360.00
990.1810, 24468.00
991.2950, 24231.00
992.4100, 24396.00
993.5240, 24276.00
994.6390, 24411.00
995.7530, 24657.00
996.8660, 24244.00
997.9800, 24391.00
999.0940, 24486.00
1000.207, 24618.00
1001.320, 24758.00
1002.433, 24415.00
1003.546, 24520.00
1004.659, 24630.00
1005.772, 24817.00
1006.884, 24629.00
1007.996, 25196.00
1009.108, 24935.00
1010.220, 25034.00
1011.332, 25531.00
1012.444, 25494.00
1013.555, 25812.00
1014.666, 26103.00
1015.777, 26068.00
1016.888, 26498.00
1017.999, 26696.00
1019.110, 26737.00
1020.220, 27061.00
1021.331, 27401.00
1022.441, 27802.00
1023.551, 27838.00
1024.661, 27926.00
1025.770, 28157.00
1026.880, 28261.00
1027.989, 28389.00
1029.098, 28543.00
1030.207, 28717.06
1031.316, 29083.00
1032.425, 29174.00
1033.533, 29561.00
1034.642, 29938.00
1035.750, 30147.00
1036.858, 30699.00
1037.966, 31018.00
1039.073, 31562.00
1040.181, 32038.00
1041.288, 32744.00
1042.396, 33507.00
1043.503, 34432.00
1044.610, 35269.00
1045.716, 36212.00
1046.823, 37188.00
1047.929, 38265.00
1049.036, 39599.00
1050.142, 40880.00
1051.248, 42304.32
1052.353, 43782.00
1053.459, 45374.00
1054.564, 47027.00
1055.670, 48716.00
1056.775, 50476.00
1057.880, 52046.00
1058.985, 53445.00
1060.089, 54981.00
1061.194, 55876.00
1062.298, 56700.00
1063.402, 56593.00
1064.506, 56335.00
1065.610, 54754.00
1066.713, 53909.00
1067.817, 52233.00
1068.920, 50298.00
1070.023, 48068.00
1071.126, 45452.00
1072.229, 44082.00
1073.332, 41806.00
1074.435, 39844.00
1075.537, 37982.00
1076.639, 36495.00
1077.741, 34707.00
1078.843, 33591.00
1079.945, 32235.00
1081.046, 31307.00
1082.148, 30283.00
1083.249, 29652.00
1084.350, 28888.00
1085.451, 28079.00
1086.551, 27556.00
1087.652, 26892.00
1088.752, 26638.00
1089.853, 26423.00
1090.953, 25960.00
1092.053, 25825.00
1093.152, 25598.95
1094.252, 25348.00
1095.351, 25266.00
1096.451, 25222.00
1097.550, 25026.00
1098.649, 24877.00
1099.748, 24708.00
1100.846, 24541.00
1101.945, 24530.00
1103.043, 24380.44
1104.141, 24373.00
1105.239, 24216.00
1106.337, 24120.00
1107.434, 24066.00
1108.532, 24092.00
1109.629, 23995.00
1110.726, 23943.00
1111.823, 23883.00
1112.920, 23823.00
1114.017, 23779.00
1115.113, 23788.00
1116.210, 23819.00
1117.306, 23965.00
1118.402, 23957.00
1119.498, 24033.00
1120.593, 23910.00
1121.689, 24044.00
1122.784, 24055.00
1123.879, 24157.00
1124.974, 23990.00
1126.069, 23902.00
1127.164, 23661.00
1128.259, 23562.00
1129.353, 23606.00
1130.447, 23695.00
1131.541, 23258.00
1132.635, 23218.00
1133.729, 23351.00
1134.822, 23106.00
1135.916, 23215.00
1137.009, 23178.00
1138.102, 23240.00
1139.195, 23225.00
1140.288, 22967.00
1141.380, 23045.19
1142.473, 22931.00
1143.565, 22942.00
1144.657, 22904.00
1145.749, 22867.15
1146.841, 22764.00
1147.932, 22823.00
1149.024, 22811.00
1150.115, 22777.65
1151.206, 22632.00
1152.297, 22671.00
1153.388, 22568.00
1154.479, 22538.00
1155.569, 22649.00
1156.659, 22740.00
1157.750, 22492.00
1158.839, 22427.00
1159.929, 22623.00
1161.019, 22641.00
1162.108, 22422.00
1163.198, 22489.00
1164.287, 22377.00
1165.376, 22245.00
1166.465, 22510.00
1167.553, 22452.00
1168.642, 22495.00
1169.730, 22564.00
1170.818, 22520.00
1171.906, 22542.00
1172.994, 22564.00
1174.082, 22646.00
1175.170, 22488.00
1176.257, 22438.00
1177.344, 22395.00
1178.431, 22528.00
1179.518, 22480.00
1180.605, 22545.00
1181.691, 22502.00
1182.778, 22495.00
1183.864, 22629.00
1184.950, 22623.00
1186.036, 22545.00
1187.122, 22510.00
1188.207, 22541.00
1189.292, 22651.00
1190.378, 22547.00
1191.463, 22603.00
1192.548, 22476.00
1193.632, 22637.00
1194.717, 22847.00
1195.801, 22743.00
1196.886, 22716.00
1197.970, 22614.00
1199.054, 22564.00
1200.137, 22684.00
1201.221, 22870.00
1202.305, 22821.00
1203.388, 22758.00
1204.471, 22704.00
1205.554, 22696.00
1206.637, 22688.08
1207.719, 22804.00
1208.802, 22762.00
1209.884, 22941.00
1210.966, 23073.00
1212.048, 22703.00
1213.130, 22781.00
1214.212, 22871.00
1215.293, 22872.00
1216.374, 22814.00
1217.456, 22844.00
1218.536, 22873.00
1219.617, 22849.28
1220.698, 22914.00
1221.778, 22873.00
1222.859, 22917.84
1223.939, 22991.00
1225.019, 23007.00
1226.099, 23005.00
1227.178, 23205.00
1228.258, 23105.00
1229.337, 22986.00
1230.417, 23156.00
1231.496, 23098.00
1232.574, 23079.00
1233.653, 23382.00
1234.732, 23222.00
1235.810, 23284.00
1236.888, 23345.00
1237.966, 23166.00
1239.044, 23128.00
1240.122, 23269.00
1241.199, 23364.00
1242.277, 23131.00
1243.354, 23282.00
1244.431, 23030.00
1245.508, 23269.00
1246.585, 23308.00
1247.661, 23222.00
1248.738, 23559.00
1249.814, 23380.00
1250.890, 23435.00
1251.966, 23305.00
1253.042, 23410.00
1254.117, 23380.00
1255.193, 23498.00
1256.268, 23386.00
1257.343, 23512.00
1258.418, 23501.00
1259.493, 23473.00
1260.567, 23489.00
1261.642, 23479.00
1262.716, 23730.00
1263.790, 23453.00
1264.864, 23662.00
1265.938, 23448.00
1267.011, 23692.00
1268.085, 23785.00
1269.158, 23783.00
1270.231, 23850.84
1271.304, 23694.00
1272.377, 23756.00
1273.450, 23798.00
1274.522, 23642.00
1275.594, 23692.00
1276.666, 23736.00
1277.738, 23825.00
1278.810, 23845.00
1279.882, 24003.00
1280.953, 24012.29
1282.025, 23829.00
1283.096, 24056.00
1284.167, 23935.00
1285.238, 23883.00
1286.308, 23976.00
1287.379, 24081.00
