##NAMES=Elbaite
##RRUFFID=R060003
##IDEAL CHEMISTRY=Na(Al_1.5_Li_1.5_)Al_6_(Si_6_O_18_)(BO_3_)_3_(OH)_3_OH
##LOCALITY=Mount Begbie, Revelstoke, British Columbia, Canada
##OWNER=RRUFF
##SOURCE=Bob Downs
##DESCRIPTION=Pink crystal associated with trilithionite, R060004
##STATUS=The identification of this mineral has been confirmed by X-ray diffraction and chemical analysis
##URL=rruff.info/R060003
##MEASURED CHEMISTRY=(Na_0.58_[box]_0.42_)(Al_1.69_Li_1.27_Mn_0.04_)Al_6_(BO_3_)_3_[Si_6_O_18_](OH)_4_
##PIN_ID=M00450
##ORIENTATION=Laser parallel to -c* (0 0 -1). Fiducial mark perpendicular to laser is parallel to -a [-1 0 0]
167.2610, 15937.00
168.4860, 15902.00
169.7110, 15966.04
170.9360, 16023.49
172.1610, 16164.00
173.3850, 16150.00
174.6100, 16318.00
175.8340, 16379.00
177.0580, 16308.00
178.2820, 16477.00
179.5050, 16521.44
180.7290, 16661.00
181.9520, 16735.00
183.1760, 16893.00
184.3990, 17109.00
185.6220, 17251.00
186.8450, 17429.12
188.0670, 17657.00
189.2900, 17753.00
190.5120, 17933.00
191.7340, 18145.00
192.9560, 18261.00
194.1780, 18577.00
195.4000, 18771.00
196.6220, 18760.00
197.8430, 18687.00
199.0640, 19150.00
200.2860, 19089.00
201.5070, 19338.00
202.7270, 19376.00
203.9480, 19482.00
205.1690, 19594.00
206.3890, 19597.00
207.6090, 19888.00
208.8290, 20275.00
210.0490, 20692.00
211.2690, 21178.00
212.4890, 21787.00
213.7080, 22465.00
214.9280, 23240.00
216.1470, 24082.00
217.3660, 25070.00
218.5850, 26098.00
219.8030, 26761.00
221.0220, 27630.00
222.2400, 27619.00
223.4590, 27647.00
224.6770, 27436.00
225.8950, 26334.00
227.1120, 25663.00
228.3300, 25143.00
229.5480, 24405.00
230.7650, 23807.00
231.9820, 23212.00
233.1990, 23400.00
234.4160, 22955.00
235.6330, 22961.00
236.8490, 23005.00
238.0660, 23043.00
239.2820, 23228.00
240.4980, 23098.00
241.7140, 23127.00
242.9300, 23192.00
244.1460, 23076.00
245.3610, 23101.00
246.5770, 22940.00
247.7920, 22778.00
249.0070, 22458.00
250.2220, 22242.48
251.4370, 21779.00
252.6510, 21650.00
253.8660, 21418.00
255.0800, 21061.00
256.2940, 21041.00
257.5080, 21037.00
258.7220, 21278.00
259.9360, 21467.00
261.1490, 21151.00
262.3630, 20851.00
263.5760, 21248.00
264.7890, 21392.00
266.0020, 21619.00
267.2150, 21482.00
268.4270, 21841.00
269.6400, 22016.00
270.8520, 22036.00
272.0640, 22269.00
273.2760, 22088.00
274.4880, 22242.00
275.7000, 22309.00
276.9120, 22269.00
278.1230, 22036.00
279.3340, 21936.00
280.5450, 21883.00
281.7560, 21890.00
282.9670, 21835.00
284.1780, 21759.00
285.3880, 21646.72
286.5980, 21433.00
287.8090, 21329.00
289.0190, 21057.00
290.2290, 20841.00
291.4380, 20557.00
292.6480, 20416.80
293.8570, 20311.00
295.0670, 20169.00
296.2760, 20203.00
297.4850, 20150.00
298.6930, 20179.00
299.9020, 20276.00
301.1110, 20453.00
302.3190, 20629.00
303.5270, 20706.00
304.7350, 21367.00
305.9430, 21383.00
307.1510, 21588.00
308.3580, 21839.00
309.5660, 21870.00
310.7730, 21998.00
311.9800, 22164.00
313.1870, 22237.00
314.3940, 22285.00
315.6010, 22244.00
316.8070, 22477.00
318.0130, 22593.00
319.2200, 22865.00
320.4260, 22939.00
321.6310, 23526.00
322.8370, 23667.00
324.0430, 24276.00
325.2480, 24311.00
326.4540, 24835.00
327.6590, 25127.00
328.8640, 24945.00
330.0680, 25380.00
331.2730, 25509.00
332.4780, 25421.00
333.6820, 25179.00
334.8860, 24874.00
336.0900, 24834.00
337.2940, 24593.00
338.4980, 24595.00
339.7010, 24281.00
340.9050, 24212.00
342.1080, 24068.00
343.3110, 23746.00
344.5140, 23952.00
345.7170, 23859.00
346.9200, 23940.00
348.1220, 24139.00
349.3240, 24045.00
350.5270, 24228.00
351.7290, 24509.00
352.9310, 24989.00
354.1320, 24988.00
355.3340, 25317.00
356.5350, 25990.00
357.7370, 26300.00
358.9380, 26588.00
360.1390, 27225.00
361.3400, 28027.00
362.5400, 28642.00
363.7410, 29350.00
364.9410, 29897.00
366.1410, 30801.00
367.3410, 31531.00
368.5410, 32268.00
369.7410, 33081.00
370.9400, 34161.00
372.1400, 34960.00
373.3390, 35940.00
374.5380, 37357.00
375.7370, 36794.00
376.9360, 37078.00
378.1350, 36541.00
379.3330, 35888.00
380.5310, 35107.00
381.7300, 33944.00
382.9280, 32745.00
384.1260, 32195.00
385.3230, 30953.00
386.5210, 29887.00
387.7180, 29411.00
388.9160, 28849.00
390.1130, 28218.00
391.3100, 28146.00
392.5060, 27874.00
393.7030, 27794.00
394.9000, 27676.00
396.0960, 27549.00
397.2920, 27678.00
398.4880, 27951.00
399.6840, 28102.00
400.8800, 28121.00
402.0750, 28289.00
403.2710, 28478.00
404.4660, 28643.00
405.6610, 28774.00
406.8560, 28694.19
408.0510, 28575.45
409.2450, 28417.00
410.4400, 27984.00
411.6340, 27789.00
412.8280, 27257.00
414.0220, 27022.00
415.2160, 26511.00
416.4100, 25967.00
417.6030, 25427.00
418.7970, 24909.00
419.9900, 24506.00
421.1830, 24156.17
422.3760, 23777.00
423.5690, 23660.00
424.7610, 23562.00
425.9540, 23460.00
427.1460, 23375.31
428.3380, 22986.00
429.5300, 23185.00
430.7220, 23261.00
431.9140, 23106.00
433.1050, 23408.00
434.2970, 23252.00
435.4880, 23414.00
436.6790, 23616.00
437.8700, 23575.00
439.0610, 23683.00
440.2510, 24010.00
441.4420, 24037.00
442.6320, 24193.00
443.8220, 24444.00
445.0120, 24539.00
446.2020, 24607.00
447.3910, 24678.66
448.5810, 24746.00
449.7700, 24695.00
450.9600, 24674.00
452.1490, 24686.00
453.3370, 24621.00
454.5260, 24683.00
455.7150, 24565.43
456.9030, 24524.00
458.0910, 24343.00
459.2800, 24304.00
460.4670, 24162.47
461.6550, 24187.00
462.8430, 24106.00
464.0300, 24163.00
465.2180, 24298.00
466.4050, 24087.00
467.5920, 24016.00
468.7790, 24194.00
469.9650, 24091.00
471.1520, 24148.00
472.3380, 24105.00
473.5250, 24150.00
474.7110, 24206.00
475.8970, 24043.00
477.0820, 24039.00
478.2680, 24053.00
479.4540, 24181.00
480.6390, 23968.00
481.8240, 24198.00
483.0090, 24046.00
484.1940, 24315.00
485.3780, 24104.00
486.5630, 24286.00
487.7470, 24419.00
488.9320, 24263.00
490.1160, 24407.00
491.3000, 24512.00
492.4830, 24475.00
493.6670, 24575.00
494.8500, 24537.00
496.0340, 24719.00
497.2170, 24829.00
498.4000, 24921.00
499.5820, 25264.00
500.7650, 25245.00
501.9480, 25592.00
503.1300, 25595.00
504.3120, 25820.00
505.4940, 26199.00
506.6760, 26310.00
507.8580, 26725.00
509.0390, 26901.00
510.2210, 27152.00
511.4020, 27421.68
512.5830, 27796.00
513.7640, 27829.00
514.9450, 28030.00
516.1250, 28120.00
517.3060, 28539.00
518.4860, 28420.00
519.6660, 28490.00
520.8460, 28311.00
522.0260, 28308.00
523.2060, 28097.00
524.3850, 27845.00
525.5650, 27950.00
526.7440, 27873.00
527.9230, 27935.00
529.1020, 28146.00
530.2810, 28496.00
531.4590, 28641.00
532.6380, 29070.00
533.8160, 29400.00
534.9940, 29631.00
536.1720, 29816.00
537.3500, 30166.00
538.5270, 30430.00
539.7050, 30681.00
540.8820, 30643.00
542.0590, 30783.00
543.2360, 30811.00
544.4130, 30744.00
545.5900, 30690.00
546.7660, 30709.00
547.9430, 30736.00
549.1190, 30512.00
550.2950, 30567.00
551.4710, 30538.00
552.6470, 30254.00
553.8220, 30077.00
554.9980, 29645.00
556.1730, 29477.00
557.3480, 29078.00
558.5230, 28934.00
559.6980, 28388.00
560.8730, 28144.00
562.0470, 27992.00
563.2220, 27645.00
564.3960, 27328.00
565.5700, 27091.00
566.7440, 26821.33
567.9170, 26555.00
569.0910, 26379.00
570.2640, 26188.00
571.4380, 25982.00
572.6110, 25882.00
573.7840, 25819.00
574.9570, 25559.00
576.1290, 25634.00
577.3020, 25178.00
578.4740, 25432.00
579.6460, 25398.00
580.8180, 25082.00
581.9900, 25061.00
583.1620, 25113.00
584.3330, 24915.00
585.5040, 24858.00
586.6760, 24793.86
587.8470, 24831.00
589.0180, 24720.00
590.1880, 24601.00
591.3590, 24738.00
592.5290, 24762.00
593.7000, 24883.00
594.8700, 24834.15
596.0400, 24833.00
597.2090, 24705.00
598.3790, 24703.00
599.5490, 24623.00
600.7180, 24456.00
601.8870, 24545.00
603.0560, 24478.00
604.2250, 24766.00
605.3940, 24508.00
606.5620, 24601.00
607.7300, 24516.00
608.8990, 24458.00
610.0670, 24394.00
611.2350, 24458.00
612.4020, 24350.00
613.5700, 24249.00
614.7370, 24386.00
615.9050, 24321.00
617.0720, 24277.00
618.2390, 24353.00
619.4060, 24245.00
620.5720, 24171.00
621.7390, 24271.00
622.9050, 24243.00
624.0710, 24495.00
625.2370, 24509.00
626.4030, 24450.00
627.5690, 24486.00
628.7340, 24510.00
629.9000, 24745.00
631.0650, 24599.00
632.2300, 24517.00
633.3950, 24743.00
634.5600, 24724.00
635.7240, 24751.00
636.8890, 24809.00
638.0530, 25018.00
639.2170, 24894.00
640.3810, 24981.00
641.5450, 24931.00
642.7080, 24838.00
643.8720, 24920.00
645.0350, 24941.00
646.1980, 24999.00
647.3610, 24934.00
648.5240, 25047.00
649.6870, 25174.00
650.8490, 25040.00
652.0120, 25342.00
653.1740, 25020.00
654.3360, 25220.00
655.4980, 25040.00
656.6600, 25202.00
657.8210, 25189.00
658.9830, 24975.00
660.1440, 25196.00
661.3050, 25223.00
662.4660, 25266.00
663.6270, 25423.00
664.7870, 25473.00
665.9480, 25565.00
667.1080, 25509.00
668.2680, 25416.00
669.4280, 25317.00
670.5880, 25408.00
671.7480, 25415.00
672.9070, 25438.00
674.0670, 25533.00
675.2260, 25500.00
676.3850, 25607.00
677.5440, 25325.00
678.7030, 25502.00
679.8610, 25477.00
681.0200, 25158.00
682.1780, 25303.00
683.3360, 25243.00
684.4940, 25139.00
685.6520, 25119.00
686.8090, 25174.00
687.9670, 25302.00
689.1240, 25393.00
690.2810, 25269.00
691.4380, 25240.00
692.5950, 25403.00
693.7520, 25269.00
694.9080, 25540.00
696.0650, 25624.00
697.2210, 25796.00
698.3770, 25907.06
699.5330, 25964.00
700.6880, 26126.00
701.8440, 26099.00
702.9990, 26305.00
704.1550, 26743.00
705.3100, 26733.00
706.4650, 27109.00
707.6190, 27228.00
708.7740, 27406.00
709.9290, 27846.00
711.0830, 28294.00
712.2370, 28867.00
713.3910, 29368.00
714.5450, 29814.00
715.6980, 30648.00
716.8520, 31453.00
718.0050, 32301.00
719.1580, 33760.00
720.3110, 34996.00
721.4640, 36770.00
722.6170, 38687.00
723.7700, 40744.00
724.9220, 43274.00
726.0740, 45499.00
727.2260, 47740.00
728.3780, 49361.00
729.5300, 50204.00
730.6810, 50179.00
731.8330, 49715.00
732.9840, 48009.00
734.1350, 46132.00
735.2860, 44017.00
736.4370, 41630.00
737.5880, 39855.00
738.7380, 38131.00
739.8880, 36567.00
741.0390, 35334.00
742.1890, 34253.00
743.3380, 33218.00
744.4880, 32739.00
745.6380, 31976.00
746.7870, 31598.00
747.9360, 31167.00
749.0850, 30686.00
750.2340, 30595.00
751.3830, 30372.00
752.5310, 29975.00
753.6800, 29794.00
754.8280, 29695.00
755.9760, 29538.00
757.1240, 29470.00
758.2720, 29414.00
759.4190, 29094.00
760.5670, 29069.00
761.7140, 28619.00
762.8610, 28532.00
764.0080, 28190.00
765.1550, 28078.00
766.3020, 28050.00
767.4480, 27791.00
768.5950, 27564.00
769.7410, 27268.00
770.8870, 27130.00
772.0330, 26978.44
773.1780, 26983.00
774.3240, 26818.00
775.4690, 26613.00
776.6140, 26599.00
777.7590, 26489.00
778.9040, 26601.00
780.0490, 26453.00
781.1940, 26551.00
782.3380, 26669.00
783.4820, 26753.00
784.6260, 26604.00
785.7700, 26716.00
786.9140, 26692.00
788.0580, 26471.00
789.2010, 26620.00
790.3450, 26621.00
791.4880, 26768.00
792.6310, 26852.00
793.7730, 26830.96
794.9160, 26880.68
796.0590, 26825.00
797.2010, 26905.00
798.3430, 26970.00
799.4850, 27103.00
800.6270, 27202.00
801.7690, 27122.00
802.9100, 27328.00
804.0520, 27085.00
805.1930, 27056.00
806.3340, 27230.00
807.4750, 26907.00
808.6160, 27060.00
809.7560, 26716.00
810.8970, 26612.00
812.0370, 26665.00
813.1770, 26398.00
814.3170, 26605.00
815.4570, 26597.00
816.5960, 26633.00
817.7360, 26577.00
818.8750, 26603.00
820.0140, 26516.00
821.1530, 26594.00
822.2920, 26939.00
823.4310, 26731.00
824.5690, 26846.00
825.7070, 27001.00
826.8460, 26938.00
827.9840, 26833.00
829.1220, 26808.00
830.2590, 26949.00
831.3970, 26910.00
832.5340, 26991.09
833.6710, 27039.00
834.8080, 27149.00
835.9450, 27063.00
837.0820, 27201.00
838.2190, 27276.00
839.3550, 27214.00
840.4910, 27107.00
841.6270, 27367.00
842.7630, 27378.00
843.8990, 27302.00
845.0350, 27512.00
846.1700, 27267.00
847.3060, 27322.00
848.4410, 27554.00
849.5760, 27619.00
850.7100, 27677.00
851.8450, 27780.24
852.9800, 27604.00
854.1140, 27824.00
855.2480, 27825.00
856.3820, 27723.00
857.5160, 27878.00
858.6500, 28103.00
859.7830, 27837.00
860.9170, 28032.00
862.0500, 28135.00
863.1830, 28062.00
864.3160, 28392.00
865.4480, 28293.00
866.5810, 28458.00
867.7130, 28283.00
868.8460, 28343.00
869.9780, 28682.00
871.1100, 28291.00
872.2410, 28573.00
873.3730, 28884.00
874.5050, 28924.00
875.6360, 28822.00
876.7670, 28820.00
877.8980, 28854.00
879.0290, 28925.00
880.1590, 28904.00
881.2900, 28856.00
882.4200, 28823.00
883.5500, 28720.00
884.6800, 28791.00
885.8100, 28661.00
886.9400, 28598.00
888.0690, 28736.00
889.1990, 28812.00
890.3280, 28611.00
891.4570, 28479.00
892.5860, 28686.00
893.7140, 28509.00
894.8430, 28595.00
895.9710, 28493.00
897.1000, 28511.00
898.2280, 28474.00
899.3560, 28621.00
900.4830, 28461.00
901.6110, 28498.00
902.7380, 28669.00
903.8660, 28490.00
904.9930, 28343.00
906.1200, 28521.00
907.2460, 28543.00
908.3730, 28401.00
909.5000, 28614.00
910.6260, 28534.00
911.7520, 28526.00
912.8780, 28609.00
914.0040, 28603.00
915.1290, 28731.00
916.2550, 28746.00
917.3800, 28791.72
918.5050, 29091.00
919.6300, 28878.00
920.7550, 28793.00
921.8800, 28847.00
923.0040, 29065.00
924.1290, 29040.00
925.2530, 29248.00
926.3770, 29382.00
927.5010, 29358.00
928.6250, 29473.00
929.7480, 29620.00
930.8720, 29332.00
931.9950, 29596.00
933.1180, 29946.00
934.2410, 29721.00
935.3640, 29857.00
936.4860, 29893.00
937.6090, 30068.00
938.7310, 30190.00
939.8530, 30472.00
940.9750, 30281.00
942.0970, 30202.00
943.2180, 30463.00
944.3400, 30394.00
945.4610, 30511.00
946.5820, 30356.00
947.7030, 30601.00
948.8240, 30643.00
949.9450, 30709.00
951.0650, 30734.00
952.1860, 30722.00
953.3060, 30930.00
954.4260, 30827.00
955.5460, 31038.00
956.6650, 31034.00
957.7850, 31040.00
958.9040, 31089.00
960.0230, 31111.50
961.1420, 31090.00
962.2610, 31225.00
963.3800, 31198.00
964.4990, 31304.00
965.6170, 31171.00
966.7350, 31176.00
967.8530, 31328.00
968.9710, 31558.00
970.0890, 31621.00
971.2070, 31540.00
972.3240, 31609.00
973.4410, 31677.00
974.5580, 31912.00
975.6750, 32114.00
976.7920, 32102.00
977.9090, 31925.00
979.0250, 31849.00
980.1410, 32146.00
981.2580, 32383.00
982.3740, 32298.00
983.4890, 32310.00
984.6050, 32277.00
985.7200, 32282.00
986.8360, 32442.00
987.9510, 32329.00
989.0660, 32154.00
990.1810, 32572.00
991.2950, 32550.00
992.4100, 32360.00
993.5240, 32383.00
994.6390, 32204.00
995.7530, 32511.00
996.8660, 32449.00
997.9800, 32408.00
999.0940, 32336.00
1000.207, 32228.00
1001.320, 32469.00
1002.433, 32479.00
1003.546, 32495.00
1004.659, 32797.00
1005.772, 32328.00
1006.884, 32786.00
1007.996, 32572.00
1009.108, 32838.00
1010.220, 32791.00
1011.332, 32775.00
1012.444, 32878.00
1013.555, 32955.00
1014.666, 33270.00
1015.777, 33544.00
1016.888, 33487.00
1017.999, 33445.00
1019.110, 33885.00
1020.220, 33851.00
1021.331, 33820.00
1022.441, 34391.00
1023.551, 34362.00
1024.661, 34454.00
1025.770, 34559.00
1026.880, 34871.00
1027.989, 34907.00
1029.098, 34814.00
1030.207, 35271.00
1031.316, 35295.38
1032.425, 35846.00
1033.533, 35716.00
1034.642, 35626.00
1035.750, 35857.00
1036.858, 35926.00
1037.966, 36251.00
1039.073, 36117.00
1040.181, 36368.00
1041.288, 36411.00
1042.396, 36604.00
1043.503, 37108.00
1044.610, 37103.00
1045.716, 37535.00
1046.823, 37589.00
1047.929, 38005.00
1049.036, 38330.48
1050.142, 38684.00
1051.248, 39095.00
1052.353, 39687.00
1053.459, 40150.00
1054.564, 40561.00
1055.670, 41180.00
1056.775, 41954.00
1057.880, 42756.00
1058.985, 43388.00
1060.089, 44307.00
1061.194, 44762.00
1062.298, 45591.00
1063.402, 46805.00
1064.506, 47356.00
1065.610, 47896.00
1066.713, 48399.00
1067.817, 48840.00
1068.920, 48737.00
1070.023, 48213.00
1071.126, 48076.00
1072.229, 47630.00
1073.332, 46659.00
1074.435, 45839.00
1075.537, 44766.00
1076.639, 43983.00
1077.741, 42660.00
1078.843, 41916.00
1079.945, 41171.00
1081.046, 40192.00
1082.148, 39487.00
1083.249, 38579.00
1084.350, 38032.00
1085.451, 37623.00
1086.551, 37012.00
1087.652, 36525.00
1088.752, 36157.00
1089.853, 35778.00
1090.953, 35623.00
1092.053, 35366.00
1093.152, 35224.00
1094.252, 34987.00
1095.351, 34904.00
1096.451, 34777.93
1097.550, 34674.00
1098.649, 34614.00
1099.748, 34555.38
1100.846, 34496.00
1101.945, 34434.12
1103.043, 34343.00
1104.141, 34322.00
1105.239, 34322.00
1106.337, 34297.00
1107.434, 34718.00
1108.532, 35154.00
1109.629, 34960.00
1110.726, 34026.00
1111.823, 34269.00
1112.920, 33990.00
1114.017, 34218.00
1115.113, 34136.00
1116.210, 34166.00
1117.306, 34069.00
1118.402, 34102.00
1119.498, 34208.00
1120.593, 34029.00
1121.689, 34053.00
1122.784, 34125.00
1123.879, 34190.00
1124.974, 34234.00
1126.069, 34241.37
1127.164, 34027.00
1128.259, 34152.00
1129.353, 34132.00
1130.447, 33938.00
1131.541, 33957.00
1132.635, 33797.00
1133.729, 34060.00
1134.822, 33844.00
1135.916, 33947.00
1137.009, 33884.00
1138.102, 33979.00
1139.195, 33982.00
1140.288, 33888.00
1141.380, 34059.00
1142.473, 34017.00
1143.565, 34056.00
1144.657, 34204.00
1145.749, 33917.00
1146.841, 33934.00
1147.932, 34168.00
1149.024, 33901.00
1150.115, 33988.00
1151.206, 33978.00
1152.297, 34066.00
1153.388, 34083.00
1154.479, 33820.00
1155.569, 34109.00
1156.659, 33954.00
1157.750, 34167.00
1158.839, 34266.00
1159.929, 33923.00
1161.019, 34099.00
1162.108, 34098.00
1163.198, 34057.00
1164.287, 34299.00
1165.376, 34012.00
1166.465, 34141.00
1167.553, 34298.00
1168.642, 34196.00
1169.730, 34228.00
1170.818, 34302.00
1171.906, 34040.00
1172.994, 34246.00
1174.082, 34243.00
1175.170, 34521.00
1176.257, 34170.00
1177.344, 34412.00
1178.431, 34499.00
1179.518, 34365.00
1180.605, 34408.00
1181.691, 34347.00
1182.778, 34541.00
1183.864, 34832.00
1184.950, 34552.00
1186.036, 34828.00
1187.122, 34597.00
1188.207, 34460.00
1189.292, 34538.00
1190.378, 34875.00
1191.463, 34822.00
1192.548, 35006.00
1193.632, 35087.00
1194.717, 35052.67
1195.801, 35046.00
1196.886, 35015.00
1197.970, 34950.00
1199.054, 34937.00
1200.137, 34908.00
1201.221, 34923.00
1202.305, 34888.00
1203.388, 35250.00
1204.471, 34994.00
1205.554, 35224.00
1206.637, 35343.00
1207.719, 35024.00
1208.802, 35371.00
1209.884, 35289.00
1210.966, 35407.00
1212.048, 35283.00
1213.130, 35301.00
1214.212, 35329.00
1215.293, 35520.00
1216.374, 35407.00
1217.456, 35521.00
1218.536, 35500.00
1219.617, 35350.00
1220.698, 35920.00
1221.778, 35756.73
1222.859, 36367.00
1223.939, 35715.00
1225.019, 35806.00
1226.099, 35448.00
1227.178, 35936.00
1228.258, 35877.00
1229.337, 35907.00
1230.417, 35643.00
1231.496, 35669.00
1232.574, 35948.00
1233.653, 36047.00
1234.732, 35927.00
1235.810, 35956.00
1236.888, 36068.00
1237.966, 36014.00
1239.044, 35917.00
1240.122, 36114.00
1241.199, 36175.00
1242.277, 36449.00
1243.354, 36127.00
1244.431, 36193.00
1245.508, 36311.00
1246.585, 35921.00
1247.661, 36277.00
1248.738, 36543.00
1249.814, 36392.00
1250.890, 36304.00
1251.966, 36458.00
1253.042, 36604.00
1254.117, 36594.00
1255.193, 36685.00
1256.268, 36584.00
1257.343, 36498.00
1258.418, 36743.00
1259.493, 36525.00
1260.567, 36744.00
1261.642, 36712.00
1262.716, 36749.00
1263.790, 36765.00
1264.864, 36939.00
1265.938, 36791.00
1267.011, 36895.00
1268.085, 36961.00
1269.158, 36920.00
1270.231, 36896.00
1271.304, 37001.00
1272.377, 37020.00
1273.450, 37065.15
1274.522, 37107.23
1275.594, 37195.00
1276.666, 37207.00
1277.738, 37338.00
1278.810, 37499.00
1279.882, 37191.00
1280.953, 37353.00
1282.025, 37285.00
1283.096, 37607.00
1284.167, 37300.00
1285.238, 37371.00
1286.308, 37495.00
1287.379, 37646.00
1288.449, 37447.00
1289.519, 37618.00
1290.589, 37642.00
1291.659, 37623.73
1292.729, 37848.00
1293.798, 37651.00
1294.868, 37600.00
1295.937, 37551.00
1297.006, 37972.00
1298.075, 37835.00
1299.143, 37690.00
1300.212, 38058.00
1301.280, 37894.00
1302.348, 37854.00
1303.416, 37856.00
1304.484, 37917.00
1305.552, 38122.00
1306.620, 37852.00
1307.687, 38333.00
1308.754, 37987.00
1309.821, 38436.00
1310.888, 38256.00
1311.955, 38135.00
1313.021, 38271.00
1314.088, 38209.00
1315.154, 38359.00
1316.220, 38524.00
1317.286, 38793.00
1318.352, 38339.00
1319.417, 38707.00
1320.483, 38498.00
1321.548, 38674.00
1322.613, 38473.00
1323.678, 38586.00
1324.743, 38552.00
1325.807, 38819.00
1326.872, 38668.00
1327.936, 38522.00
1329.000, 38956.00
1330.064, 39127.00
1331.128, 38912.00
1332.191, 38992.00
1333.255, 39043.00
