##NAMES=Elbaite
##RRUFFID=R060562
##IDEAL CHEMISTRY=Na(Al_1.5_Li_1.5_)Al_6_(Si_6_O_18_)(BO_3_)_3_(OH)_3_OH
##LOCALITY=unknown
##OWNER=RRUFF
##SOURCE=Gemological Institute of America
##DESCRIPTION=Blue colored polished fragment
##STATUS=The identification of this mineral has been confirmed by X-ray diffraction and chemical analysis
##URL=rruff.info/R060562
##MEASURED CHEMISTRY=(Na_0.68_Ca_0.20_[box]_0.12_)(Li_1.20_Al_1.12_Fe^2+^_0.50_Mn_0.18_)Al_6_(BO_3_)_3_[Si_6_O_18_]((OH)_0.80_F_0.20_)_4_
##PIN_ID=L01792
##ORIENTATION=Laser parallel to -a* (-1 0 0). Fiducial mark perpendicular to laser is parallel to c [0 0 1]
127.9790, 14147.00
129.2090, 14286.00
130.4390, 14539.00
131.6680, 14780.00
132.8980, 15055.00
134.1270, 15141.00
135.3560, 15297.00
136.5850, 15454.00
137.8140, 15726.00
139.0430, 16135.00
140.2710, 16506.00
141.5000, 16580.00
142.7280, 16717.00
143.9560, 16614.00
145.1840, 16569.00
146.4120, 16242.00
147.6390, 16234.00
148.8670, 16178.00
150.0940, 16457.00
151.3210, 16519.00
152.5490, 16513.00
153.7750, 16511.00
155.0020, 16586.00
156.2290, 16713.00
157.4550, 16612.00
158.6810, 16665.00
159.9080, 16477.00
161.1340, 16512.00
162.3590, 16336.00
163.5850, 16225.00
164.8110, 16302.00
166.0360, 16176.00
167.2610, 15977.00
168.4860, 15932.00
169.7110, 15753.00
170.9360, 15812.00
172.1610, 15701.00
173.3850, 15785.00
174.6100, 15890.00
175.8340, 15804.00
177.0580, 15991.00
178.2820, 16215.00
179.5050, 16217.00
180.7290, 16138.00
181.9520, 16506.00
183.1760, 16436.00
184.3990, 16730.00
185.6220, 17056.00
186.8450, 17090.00
188.0670, 17505.00
189.2900, 17738.00
190.5120, 18230.00
191.7340, 18572.93
192.9560, 18806.00
194.1780, 19367.00
195.4000, 19718.00
196.6220, 20133.00
197.8430, 20608.00
199.0640, 21166.00
200.2860, 21413.00
201.5070, 22178.00
202.7270, 22567.00
203.9480, 22833.00
205.1690, 23322.00
206.3890, 23915.37
207.6090, 24385.00
208.8290, 25374.00
210.0490, 26273.00
211.2690, 27248.00
212.4890, 28621.00
213.7080, 30194.00
214.9280, 31732.00
216.1470, 33245.00
217.3660, 34976.00
218.5850, 36748.00
219.8030, 38370.00
221.0220, 39441.00
222.2400, 40557.00
223.4590, 40934.00
224.6770, 41116.00
225.8950, 41221.00
227.1120, 40526.00
228.3300, 39950.00
229.5480, 39503.00
230.7650, 38903.00
231.9820, 38073.00
233.1990, 37587.00
234.4160, 37219.00
235.6330, 37064.00
236.8490, 36669.00
238.0660, 36246.00
239.2820, 35645.00
240.4980, 35334.00
241.7140, 34526.00
242.9300, 33848.00
244.1460, 32674.00
245.3610, 31788.00
246.5770, 30616.00
247.7920, 30034.00
249.0070, 29090.00
250.2220, 28199.00
251.4370, 27291.00
252.6510, 26847.00
253.8660, 26029.00
255.0800, 25583.00
256.2940, 25034.00
257.5080, 24785.00
258.7220, 24410.74
259.9360, 24052.28
261.1490, 23864.00
262.3630, 23440.00
263.5760, 23163.00
264.7890, 22914.00
266.0020, 22584.00
267.2150, 22561.00
268.4270, 22438.00
269.6400, 22353.00
270.8520, 22174.00
272.0640, 22174.00
273.2760, 21823.00
274.4880, 21877.00
275.7000, 21682.00
276.9120, 21380.00
278.1230, 21262.00
279.3340, 20969.00
280.5450, 20621.00
281.7560, 20473.00
282.9670, 20173.23
284.1780, 19903.00
285.3880, 19737.00
286.5980, 19417.00
287.8090, 19277.00
289.0190, 19149.00
290.2290, 18935.03
291.4380, 18828.00
292.6480, 18616.00
293.8570, 18566.00
295.0670, 18413.00
296.2760, 18501.00
297.4850, 18536.37
298.6930, 18779.00
299.9020, 18768.00
301.1110, 18950.00
302.3190, 19079.00
303.5270, 19302.00
304.7350, 19494.00
305.9430, 19632.00
307.1510, 19898.00
308.3580, 20113.00
309.5660, 20390.00
310.7730, 20786.00
311.9800, 20983.00
313.1870, 21033.00
314.3940, 21498.00
315.6010, 21407.00
316.8070, 21706.00
318.0130, 21811.00
319.2200, 21583.00
320.4260, 21455.00
321.6310, 21533.00
322.8370, 21523.00
324.0430, 21588.00
325.2480, 21740.00
326.4540, 21769.69
327.6590, 21785.00
328.8640, 21934.00
330.0680, 22028.00
331.2730, 22110.00
332.4780, 22337.00
333.6820, 22338.00
334.8860, 22008.00
336.0900, 22641.00
337.2940, 22490.00
338.4980, 22591.00
339.7010, 22979.00
340.9050, 23124.00
342.1080, 23562.00
343.3110, 23595.00
344.5140, 23811.00
345.7170, 23947.00
346.9200, 24227.00
348.1220, 24268.00
349.3240, 24475.00
350.5270, 24758.00
351.7290, 24991.00
352.9310, 25366.00
354.1320, 25596.00
355.3340, 26508.00
356.5350, 27238.00
357.7370, 28264.00
358.9380, 29491.00
360.1390, 31060.00
361.3400, 33056.00
362.5400, 35667.00
363.7410, 38506.00
364.9410, 41729.00
366.1410, 45742.00
367.3410, 49577.00
368.5410, 54113.00
369.7410, 58540.00
370.9400, 61520.00
372.1400, 63299.00
373.3390, 63416.00
374.5380, 61961.00
375.7370, 59482.00
376.9360, 56431.00
378.1350, 52263.00
379.3330, 48376.00
380.5310, 44936.00
381.7300, 41854.12
382.9280, 39133.00
384.1260, 36856.00
385.3230, 35001.00
386.5210, 33525.00
387.7180, 32676.00
388.9160, 31754.00
390.1130, 31248.00
391.3100, 30614.00
392.5060, 30449.00
393.7030, 30248.00
394.9000, 30419.00
396.0960, 30662.00
397.2920, 31271.00
398.4880, 32055.00
399.6840, 32623.00
400.8800, 33714.00
402.0750, 34232.00
403.2710, 35253.00
404.4660, 36061.00
405.6610, 36581.00
406.8560, 36950.00
408.0510, 36749.00
409.2450, 36052.00
410.4400, 35208.00
411.6340, 33912.00
412.8280, 32392.00
414.0220, 30753.00
415.2160, 29481.00
416.4100, 28029.00
417.6030, 26871.00
418.7970, 25490.00
419.9900, 24782.00
421.1830, 23870.00
422.3760, 23369.00
423.5690, 22753.00
424.7610, 22454.00
425.9540, 21804.00
427.1460, 21672.00
428.3380, 21171.00
429.5300, 21236.00
430.7220, 20846.00
431.9140, 20867.00
433.1050, 20686.00
434.2970, 20575.00
435.4880, 20395.00
436.6790, 20427.00
437.8700, 20405.00
439.0610, 20232.00
440.2510, 20317.00
441.4420, 20260.00
442.6320, 20266.00
443.8220, 20141.00
445.0120, 20385.00
446.2020, 20580.00
447.3910, 20241.00
448.5810, 20259.00
449.7700, 20210.00
450.9600, 20067.00
452.1490, 20270.00
453.3370, 20149.00
454.5260, 20206.00
455.7150, 20212.00
456.9030, 20113.00
458.0910, 20139.00
459.2800, 20239.00
460.4670, 20336.00
461.6550, 20303.00
462.8430, 20220.00
464.0300, 20359.00
465.2180, 20255.00
466.4050, 20358.00
467.5920, 20151.00
468.7790, 20310.00
469.9650, 20230.00
471.1520, 20208.00
472.3380, 20242.00
473.5250, 20181.00
474.7110, 20297.00
475.8970, 20287.53
477.0820, 20303.00
478.2680, 20342.00
479.4540, 20473.00
480.6390, 20493.00
481.8240, 20780.00
483.0090, 20965.00
484.1940, 21010.00
485.3780, 21301.00
486.5630, 21416.00
487.7470, 21761.00
488.9320, 21839.00
490.1160, 22053.00
491.3000, 22135.00
492.4830, 22191.00
493.6670, 22571.00
494.8500, 22636.00
496.0340, 22682.00
497.2170, 22699.00
498.4000, 22864.12
499.5820, 23025.10
500.7650, 23150.00
501.9480, 23391.00
503.1300, 23454.00
504.3120, 23446.00
505.4940, 23387.00
506.6760, 23637.00
507.8580, 23593.00
509.0390, 23601.00
510.2210, 23543.00
511.4020, 23385.00
512.5830, 23444.00
513.7640, 23244.00
514.9450, 22934.00
516.1250, 22938.00
517.3060, 22513.00
518.4860, 22223.00
519.6660, 22000.00
520.8460, 21729.94
522.0260, 21538.54
523.2060, 21381.00
524.3850, 21241.00
525.5650, 21171.00
526.7440, 21176.00
527.9230, 21054.00
529.1020, 20844.00
530.2810, 20817.00
531.4590, 20920.00
532.6380, 20656.00
533.8160, 20843.00
534.9940, 20740.00
536.1720, 20667.00
537.3500, 20531.00
538.5270, 20560.00
539.7050, 20480.00
540.8820, 20643.00
542.0590, 20725.00
543.2360, 20555.00
544.4130, 20681.00
545.5900, 20617.00
546.7660, 20647.00
547.9430, 20695.00
549.1190, 20671.00
550.2950, 20714.00
551.4710, 20689.85
552.6470, 20752.00
553.8220, 20663.00
554.9980, 20839.00
556.1730, 20885.00
557.3480, 20918.00
558.5230, 20881.00
559.6980, 20941.01
560.8730, 20995.00
562.0470, 20959.00
563.2220, 20905.00
564.3960, 20803.00
565.5700, 21048.00
566.7440, 20922.00
567.9170, 20638.00
569.0910, 21052.00
570.2640, 20940.00
571.4380, 21053.00
572.6110, 21089.00
573.7840, 20971.00
574.9570, 21173.00
576.1290, 21215.00
577.3020, 21232.00
578.4740, 21457.00
579.6460, 21341.00
580.8180, 21580.00
581.9900, 21498.00
583.1620, 21578.00
584.3330, 21761.00
585.5040, 21463.00
586.6760, 21630.00
587.8470, 21654.00
589.0180, 21728.00
590.1880, 21757.13
591.3590, 21610.00
592.5290, 21755.00
593.7000, 21688.00
594.8700, 21674.00
596.0400, 21796.00
597.2090, 21895.00
598.3790, 21905.07
599.5490, 21935.00
600.7180, 21943.00
601.8870, 22023.00
603.0560, 21987.00
604.2250, 22218.00
605.3940, 22096.00
606.5620, 22104.00
607.7300, 22207.00
608.8990, 22066.00
610.0670, 22130.00
611.2350, 22347.00
612.4020, 22410.00
613.5700, 22375.00
614.7370, 22397.00
615.9050, 22521.00
617.0720, 22777.37
618.2390, 23177.00
619.4060, 23543.00
620.5720, 23999.00
621.7390, 24562.78
622.9050, 25115.00
624.0710, 25984.00
625.2370, 26750.00
626.4030, 27645.00
627.5690, 28945.00
628.7340, 29751.00
629.9000, 30689.00
631.0650, 31338.00
632.2300, 31838.00
633.3950, 31902.00
634.5600, 31641.00
635.7240, 31149.00
636.8890, 30536.00
638.0530, 30109.00
639.2170, 29158.00
640.3810, 28685.00
641.5450, 28300.00
642.7080, 27462.00
643.8720, 27110.00
645.0350, 27050.00
646.1980, 26895.00
647.3610, 26518.00
648.5240, 26403.00
649.6870, 26454.00
650.8490, 26219.00
652.0120, 26406.00
653.1740, 26167.00
654.3360, 26329.00
655.4980, 26231.00
656.6600, 26119.00
657.8210, 26129.00
658.9830, 26176.00
660.1440, 26219.00
661.3050, 26044.00
662.4660, 25769.00
663.6270, 25355.00
664.7870, 25345.00
665.9480, 24841.00
667.1080, 24544.00
668.2680, 24416.00
669.4280, 24154.00
670.5880, 23960.00
671.7480, 23665.00
672.9070, 23345.00
674.0670, 23429.00
675.2260, 23602.00
676.3850, 23343.00
677.5440, 23519.00
678.7030, 23422.00
679.8610, 23560.00
681.0200, 23455.00
682.1780, 23315.00
683.3360, 23523.00
684.4940, 24000.00
685.6520, 23995.00
686.8090, 24510.00
687.9670, 25013.00
689.1240, 25541.00
690.2810, 26125.00
691.4380, 26984.00
692.5950, 27893.00
693.7520, 28989.00
694.9080, 30472.00
696.0650, 31593.00
697.2210, 33151.00
698.3770, 34812.00
699.5330, 36151.00
700.6880, 37843.00
701.8440, 39077.00
702.9990, 40231.00
704.1550, 41291.00
705.3100, 41475.00
706.4650, 41510.00
707.6190, 41224.00
708.7740, 40418.00
709.9290, 38943.00
711.0830, 37589.00
712.2370, 36014.00
713.3910, 34206.00
714.5450, 32435.00
715.6980, 30991.00
716.8520, 29673.00
718.0050, 28545.00
719.1580, 27520.00
720.3110, 26797.00
721.4640, 26323.00
722.6170, 25966.00
723.7700, 25408.00
724.9220, 24889.00
726.0740, 24927.00
727.2260, 25027.00
728.3780, 24782.00
729.5300, 24749.00
730.6810, 24593.00
731.8330, 24796.00
732.9840, 25031.00
734.1350, 25168.00
735.2860, 25192.00
736.4370, 25303.00
737.5880, 25407.00
738.7380, 25650.00
739.8880, 25636.00
741.0390, 26046.00
742.1890, 26405.00
743.3380, 26357.00
744.4880, 26414.00
745.6380, 26675.00
746.7870, 26761.00
747.9360, 26946.00
749.0850, 27016.00
750.2340, 27058.00
751.3830, 26987.00
752.5310, 26877.00
753.6800, 26716.00
754.8280, 26470.33
755.9760, 26197.93
757.1240, 25879.00
758.2720, 25511.00
759.4190, 25205.00
760.5670, 24827.00
761.7140, 24433.00
762.8610, 24358.00
764.0080, 24027.00
765.1550, 23829.00
766.3020, 23829.00
767.4480, 23624.00
768.5950, 23494.00
769.7410, 23454.00
770.8870, 23556.00
772.0330, 23527.00
773.1780, 23235.00
774.3240, 22985.00
775.4690, 23079.00
776.6140, 22897.00
777.7590, 22871.00
778.9040, 22534.00
780.0490, 22591.00
781.1940, 22186.00
782.3380, 22321.00
783.4820, 22011.00
784.6260, 22248.00
785.7700, 22099.00
786.9140, 22194.00
788.0580, 21933.00
789.2010, 21956.00
790.3450, 21806.00
791.4880, 21765.00
792.6310, 21732.00
793.7730, 21818.00
794.9160, 21766.00
796.0590, 21856.00
797.2010, 21847.00
798.3430, 21844.00
799.4850, 21682.00
800.6270, 21654.00
801.7690, 21641.00
802.9100, 21611.00
804.0520, 21529.00
805.1930, 21690.60
806.3340, 21732.13
807.4750, 21952.00
808.6160, 21898.00
809.7560, 21881.00
810.8970, 21750.00
812.0370, 21860.00
813.1770, 21755.00
814.3170, 21878.00
815.4570, 21954.00
816.5960, 21844.00
817.7360, 21796.00
818.8750, 21744.00
820.0140, 21851.00
821.1530, 21829.00
822.2920, 21920.00
823.4310, 21917.00
824.5690, 21986.00
825.7070, 21975.00
826.8460, 22094.00
827.9840, 21954.00
829.1220, 22212.00
830.2590, 22031.00
831.3970, 22121.00
832.5340, 22202.00
833.6710, 22363.00
834.8080, 22175.00
835.9450, 22354.00
837.0820, 22379.00
838.2190, 22664.00
839.3550, 22571.20
840.4910, 22382.00
841.6270, 22479.00
842.7630, 22315.00
843.8990, 22332.00
845.0350, 22471.00
846.1700, 22388.00
847.3060, 22579.00
848.4410, 22507.00
849.5760, 22485.00
850.7100, 22508.00
851.8450, 22378.00
852.9800, 22425.00
854.1140, 22671.00
855.2480, 22460.00
856.3820, 22619.00
857.5160, 22532.00
858.6500, 22591.00
859.7830, 22686.00
860.9170, 22614.00
862.0500, 22677.53
863.1830, 22650.00
864.3160, 22729.00
865.4480, 22547.00
866.5810, 22625.00
867.7130, 22523.00
868.8460, 22575.00
869.9780, 22547.00
871.1100, 22492.00
872.2410, 22626.00
873.3730, 22399.00
874.5050, 22438.00
875.6360, 22273.00
876.7670, 22469.00
877.8980, 22449.00
879.0290, 22322.00
880.1590, 22713.00
881.2900, 22263.00
882.4200, 22401.00
883.5500, 22443.00
884.6800, 22506.00
885.8100, 22396.00
886.9400, 22380.00
888.0690, 22363.00
889.1990, 22393.17
890.3280, 22720.00
891.4570, 22538.00
892.5860, 22609.00
893.7140, 22705.00
894.8430, 22460.00
895.9710, 22539.00
897.1000, 22664.00
898.2280, 22593.00
899.3560, 22674.00
900.4830, 22435.00
901.6110, 22699.00
902.7380, 22696.00
903.8660, 22954.00
904.9930, 22915.00
906.1200, 22712.00
907.2460, 22742.00
908.3730, 22876.00
909.5000, 22841.00
910.6260, 22786.00
911.7520, 22895.00
912.8780, 22963.00
914.0040, 22813.00
915.1290, 23195.00
916.2550, 22846.00
917.3800, 23168.00
918.5050, 23106.00
919.6300, 23353.00
920.7550, 23215.00
921.8800, 23157.00
923.0040, 23128.00
924.1290, 23291.00
925.2530, 23357.00
926.3770, 23550.00
927.5010, 23427.00
928.6250, 23670.00
929.7480, 23692.00
930.8720, 23756.00
931.9950, 23865.00
933.1180, 23884.00
934.2410, 23925.00
935.3640, 24221.00
936.4860, 24054.00
937.6090, 24178.00
938.7310, 24234.00
939.8530, 24155.00
940.9750, 24292.00
942.0970, 24203.00
943.2180, 24547.00
944.3400, 24492.00
945.4610, 24848.00
946.5820, 25071.00
947.7030, 25021.00
948.8240, 25061.00
949.9450, 25496.00
951.0650, 25574.00
952.1860, 25735.00
953.3060, 25773.00
954.4260, 25965.00
955.5460, 26074.00
956.6650, 26129.00
957.7850, 26231.00
958.9040, 26499.00
960.0230, 26623.00
961.1420, 26727.00
962.2610, 26918.00
963.3800, 27052.00
964.4990, 27164.00
965.6170, 27231.00
966.7350, 27340.00
967.8530, 27354.00
968.9710, 27272.00
970.0890, 27443.00
971.2070, 27698.00
972.3240, 27608.00
973.4410, 27520.00
974.5580, 27442.00
975.6750, 27275.00
976.7920, 27361.00
977.9090, 27230.00
979.0250, 27317.00
980.1410, 27064.00
981.2580, 27351.00
982.3740, 27474.00
983.4890, 27202.00
984.6050, 27047.00
985.7200, 27348.00
986.8360, 27331.00
987.9510, 27509.00
989.0660, 27463.00
990.1810, 27486.00
991.2950, 27565.00
992.4100, 27593.00
993.5240, 27696.03
994.6390, 27637.00
995.7530, 27832.00
996.8660, 28036.00
997.9800, 27950.00
999.0940, 27999.00
1000.207, 28149.00
1001.320, 28185.00
1002.433, 28271.00
1003.546, 28372.00
1004.659, 28344.00
1005.772, 28677.00
1006.884, 28838.00
1007.996, 28627.00
1009.108, 28908.00
1010.220, 29099.00
1011.332, 29066.00
1012.444, 29561.00
1013.555, 29511.00
1014.666, 29542.00
1015.777, 29691.00
1016.888, 29798.00
1017.999, 29709.00
1019.110, 29797.00
1020.220, 29916.00
1021.331, 29735.00
1022.441, 29754.00
1023.551, 29734.00
1024.661, 29666.00
1025.770, 29416.00
1026.880, 29619.00
1027.989, 29409.00
1029.098, 29534.00
1030.207, 29555.00
1031.316, 29409.00
1032.425, 29697.00
1033.533, 30020.00
1034.642, 29848.00
1035.750, 29999.00
1036.858, 30077.00
1037.966, 30259.00
1039.073, 30467.00
1040.181, 30738.00
1041.288, 31155.00
1042.396, 31197.00
1043.503, 31490.00
1044.610, 31700.00
1045.716, 32209.00
1046.823, 32754.00
1047.929, 32907.00
1049.036, 33401.00
1050.142, 33794.00
1051.248, 34091.00
1052.353, 34531.00
1053.459, 34713.00
1054.564, 35229.00
1055.670, 35516.00
1056.775, 35659.00
1057.880, 35969.00
1058.985, 35875.00
1060.089, 36025.00
1061.194, 35818.00
1062.298, 35860.00
1063.402, 35507.00
1064.506, 35313.00
1065.610, 35319.00
1066.713, 35010.00
1067.817, 34522.00
1068.920, 34590.00
1070.023, 34172.00
1071.126, 33873.00
1072.229, 34042.00
1073.332, 33764.00
1074.435, 33825.00
1075.537, 33950.00
1076.639, 34010.72
1077.741, 34650.00
1078.843, 34585.00
1079.945, 35037.00
1081.046, 35730.00
1082.148, 35776.00
1083.249, 36272.00
1084.350, 36212.00
1085.451, 36600.00
1086.551, 36404.00
1087.652, 36364.00
1088.752, 36188.00
1089.853, 35583.00
1090.953, 35329.00
1092.053, 34862.00
1093.152, 34423.00
1094.252, 34019.00
1095.351, 33750.00
1096.451, 33220.00
1097.550, 32953.00
1098.649, 32788.00
1099.748, 32304.00
1100.846, 31643.00
1101.945, 31377.00
1103.043, 30860.00
1104.141, 30698.00
1105.239, 30184.00
1106.337, 29872.00
1107.434, 29578.00
1108.532, 29256.00
1109.629, 29051.00
1110.726, 28965.00
1111.823, 28425.00
1112.920, 28568.00
1114.017, 28249.00
1115.113, 28185.00
1116.210, 28127.00
1117.306, 27999.00
1118.402, 28006.00
1119.498, 27895.00
1120.593, 27684.00
1121.689, 27713.00
1122.784, 27405.00
1123.879, 27490.00
1124.974, 27579.00
1126.069, 27409.00
1127.164, 27198.00
1128.259, 27179.00
1129.353, 26857.00
1130.447, 26964.00
1131.541, 26915.00
1132.635, 26949.00
1133.729, 26802.00
1134.822, 26704.00
1135.916, 26475.00
1137.009, 26733.00
1138.102, 26746.00
1139.195, 26567.00
1140.288, 26673.00
1141.380, 26679.00
1142.473, 26392.00
1143.565, 26362.00
1144.657, 26344.00
1145.749, 26480.00
1146.841, 26259.00
1147.932, 26408.00
1149.024, 26347.00
1150.115, 26568.00
1151.206, 26377.00
1152.297, 26468.00
1153.388, 26429.00
1154.479, 26586.00
1155.569, 26304.00
1156.659, 26166.00
1157.750, 26310.00
1158.839, 26198.00
1159.929, 26223.00
1161.019, 26471.00
1162.108, 26277.00
1163.198, 26225.00
1164.287, 26254.00
1165.376, 26418.00
1166.465, 26351.00
1167.553, 26449.53
1168.642, 26550.00
1169.730, 26470.00
1170.818, 26533.00
1171.906, 26375.00
1172.994, 26467.00
1174.082, 26383.00
1175.170, 26480.00
1176.257, 26482.00
1177.344, 26576.00
1178.431, 26428.00
1179.518, 26621.00
1180.605, 26459.00
1181.691, 26261.00
1182.778, 26475.00
1183.864, 26607.00
1184.950, 26416.00
1186.036, 26650.00
1187.122, 26438.00
1188.207, 26619.00
1189.292, 26796.00
1190.378, 26708.00
1191.463, 26671.00
1192.548, 26619.00
1193.632, 26678.00
1194.717, 26762.00
1195.801, 26820.00
1196.886, 26605.00
1197.970, 26582.00
1199.054, 26666.00
1200.137, 26896.00
1201.221, 26695.00
1202.305, 26652.00
1203.388, 26783.00
1204.471, 26727.00
1205.554, 26805.00
1206.637, 26985.00
1207.719, 26936.00
1208.802, 26972.00
1209.884, 27134.00
1210.966, 26893.00
1212.048, 27154.00
1213.130, 27028.00
1214.212, 27027.00
1215.293, 27025.00
1216.374, 27074.00
1217.456, 27034.00
1218.536, 27046.00
1219.617, 27112.95
1220.698, 27026.00
1221.778, 27188.00
1222.859, 27126.00
1223.939, 27013.00
1225.019, 27241.00
1226.099, 27217.00
1227.178, 27418.00
1228.258, 27215.00
1229.337, 27201.00
1230.417, 27055.00
1231.496, 27100.85
1232.574, 27109.00
1233.653, 27221.00
1234.732, 27207.00
1235.810, 27228.00
1236.888, 27386.00
1237.966, 27339.00
1239.044, 27426.00
1240.122, 27344.00
1241.199, 27465.00
1242.277, 27643.00
1243.354, 27579.00
1244.431, 27471.00
1245.508, 27566.00
1246.585, 27521.00
1247.661, 27482.00
1248.738, 27669.00
1249.814, 27473.00
1250.890, 27563.00
1251.966, 27562.00
1253.042, 27657.00
1254.117, 27685.00
1255.193, 27620.00
1256.268, 27648.00
1257.343, 27615.00
1258.418, 27653.00
1259.493, 27750.00
1260.567, 27676.00
1261.642, 27833.00
1262.716, 27650.00
1263.790, 27784.00
1264.864, 27918.00
1265.938, 27960.00
1267.011, 28028.00
1268.085, 27989.00
1269.158, 27900.00
1270.231, 27924.00
1271.304, 28058.00
1272.377, 28211.00
1273.450, 28199.00
1274.522, 28000.00
1275.594, 28271.00
1276.666, 28052.00
1277.738, 28061.00
1278.810, 28150.00
1279.882, 28152.00
1280.953, 28075.00
1282.025, 28150.97
1283.096, 28195.00
1284.167, 28169.00
1285.238, 28297.00
1286.308, 28237.00
1287.379, 28514.00
1288.449, 28259.00
1289.519, 28348.00
1290.589, 28152.00
1291.659, 28411.00
1292.729, 28500.00
1293.798, 28593.00
1294.868, 28626.32
1295.937, 28626.00
1297.006, 28549.00
1298.075, 28478.00
1299.143, 28394.00
1300.212, 28360.82
