##NAMES=Elbaite
##RRUFFID=R050260
##IDEAL CHEMISTRY=Na(Al_1.5_Li_1.5_)Al_6_(Si_6_O_18_)(BO_3_)_3_(OH)_3_OH
##LOCALITY=Minas Gerais, Brazil
##OWNER=RRUFF
##SOURCE=Marcus Origlieri
##DESCRIPTION=Greenish-gray prismatic single crystal
##STATUS=The identification of this mineral has been confirmed by X-ray diffraction and chemical analysis
##URL=rruff.info/R050260
##MEASURED CHEMISTRY=(Na_0.76_[box]_0.17_Ca_0.07_)_Σ=1_(Al_1.67_Li_0.97_Mn_0.36_)_Σ=3_Al_6.00_(B_1.00_O_3_)_3_Si_6.00_O_18_((OH)_3.40_F_0.60_)_Σ=4_; B assumed by stoichiometry; OH estimated by charge balance
##PIN_ID=L01964
##ORIENTATION=Laser parallel to a* (1 0 0). Fiducial mark perpendicular to laser is parallel to -c [0 0 -1]
118.1340, 4818.000
119.3650, 4678.000
120.5960, 4703.000
121.8270, 4811.000
123.0580, 4798.000
124.2880, 4834.000
125.5190, 4738.000
126.7490, 4690.000
127.9790, 4566.000
129.2090, 4640.000
130.4390, 4623.000
131.6680, 4634.000
132.8980, 4495.000
134.1270, 4574.000
135.3560, 4578.000
136.5850, 4484.000
137.8140, 4566.000
139.0430, 4570.612
140.2710, 4729.000
141.5000, 4695.000
142.7280, 4729.000
143.9560, 4844.000
145.1840, 4967.000
146.4120, 5053.000
147.6390, 5255.000
148.8670, 5398.000
150.0940, 5713.000
151.3210, 5865.000
152.5490, 6157.000
153.7750, 6163.000
155.0020, 6582.000
156.2290, 6613.000
157.4550, 6729.000
158.6810, 6668.000
159.9080, 6654.000
161.1340, 6566.000
162.3590, 6427.000
163.5850, 6251.000
164.8110, 6338.000
166.0360, 6146.000
167.2610, 6116.000
168.4860, 5964.000
169.7110, 5861.000
170.9360, 5894.000
172.1610, 5824.000
173.3850, 5706.000
174.6100, 5681.000
175.8340, 5656.000
177.0580, 5675.000
178.2820, 5681.000
179.5050, 5845.000
180.7290, 5777.000
181.9520, 5885.000
183.1760, 6077.000
184.3990, 6153.000
185.6220, 6423.000
186.8450, 6654.000
188.0670, 6750.000
189.2900, 7082.000
190.5120, 7420.000
191.7340, 7612.000
192.9560, 7974.000
194.1780, 8205.000
195.4000, 8564.000
196.6220, 9145.000
197.8430, 9587.000
199.0640, 9877.000
200.2860, 10477.00
201.5070, 11151.00
202.7270, 11766.00
203.9480, 12454.00
205.1690, 13129.00
206.3890, 14258.00
207.6090, 15166.00
208.8290, 16732.00
210.0490, 18390.00
211.2690, 20202.00
212.4890, 21820.00
213.7080, 23987.00
214.9280, 26229.00
216.1470, 28165.00
217.3660, 30933.00
218.5850, 32989.00
219.8030, 36317.00
221.0220, 39405.00
222.2400, 42217.00
223.4590, 44395.00
224.6770, 45147.00
225.8950, 44645.00
227.1120, 42802.00
228.3300, 40540.00
229.5480, 37674.00
230.7650, 35183.00
231.9820, 32947.00
233.1990, 31074.00
234.4160, 29680.00
235.6330, 28853.00
236.8490, 27965.00
238.0660, 27548.00
239.2820, 27103.00
240.4980, 26958.00
241.7140, 27154.00
242.9300, 27159.00
244.1460, 27349.00
245.3610, 27535.00
246.5770, 27548.00
247.7920, 27656.00
249.0070, 27433.00
250.2220, 27222.00
251.4370, 26720.00
252.6510, 26135.00
253.8660, 25728.00
255.0800, 25103.00
256.2940, 24520.00
257.5080, 24159.00
258.7220, 23752.00
259.9360, 23409.00
261.1490, 22465.00
262.3630, 21861.00
263.5760, 21236.00
264.7890, 20766.00
266.0020, 20251.00
267.2150, 19743.00
268.4270, 19218.00
269.6400, 19009.00
270.8520, 18495.00
272.0640, 17973.00
273.2760, 17476.00
274.4880, 16815.00
275.7000, 16398.00
276.9120, 15500.00
278.1230, 14802.00
279.3340, 14023.00
280.5450, 13387.00
281.7560, 12779.00
282.9670, 11978.00
284.1780, 11300.00
285.3880, 10945.00
286.5980, 10358.00
287.8090, 9911.000
289.0190, 9642.000
290.2290, 9019.000
291.4380, 8732.000
292.6480, 8454.000
293.8570, 8181.000
295.0670, 8029.000
296.2760, 7908.000
297.4850, 7739.000
298.6930, 7717.000
299.9020, 7715.000
301.1110, 7736.000
302.3190, 7732.000
303.5270, 7964.000
304.7350, 8128.000
305.9430, 8213.000
307.1510, 8383.000
308.3580, 8659.000
309.5660, 8858.797
310.7730, 9039.000
311.9800, 9434.000
313.1870, 9739.000
314.3940, 10100.00
315.6010, 10564.00
316.8070, 10733.00
318.0130, 10866.00
319.2200, 10738.00
320.4260, 10564.00
321.6310, 10232.00
322.8370, 9949.000
324.0430, 9698.000
325.2480, 9581.000
326.4540, 9503.000
327.6590, 9388.000
328.8640, 9398.000
330.0680, 9426.000
331.2730, 9566.000
332.4780, 9643.000
333.6820, 9784.600
334.8860, 10029.00
336.0900, 10171.00
337.2940, 10383.00
338.4980, 10741.00
339.7010, 10995.00
340.9050, 11066.00
342.1080, 11294.00
343.3110, 11776.00
344.5140, 11913.00
345.7170, 12279.00
346.9200, 12612.00
348.1220, 12961.54
349.3240, 13303.00
350.5270, 13816.00
351.7290, 14331.00
352.9310, 14834.00
354.1320, 15542.00
355.3340, 16318.00
356.5350, 17386.00
357.7370, 18458.00
358.9380, 20109.00
360.1390, 22035.00
361.3400, 24580.00
362.5400, 27082.00
363.7410, 29998.00
364.9410, 32598.00
366.1410, 35250.00
367.3410, 38481.00
368.5410, 42135.00
369.7410, 46103.00
370.9400, 50617.00
372.1400, 55801.00
373.3390, 59970.00
374.5380, 62221.00
375.7370, 61644.00
376.9360, 58974.00
378.1350, 54741.00
379.3330, 48755.00
380.5310, 43255.00
381.7300, 38652.00
382.9280, 34802.00
384.1260, 31303.00
385.3230, 28455.00
386.5210, 26556.00
387.7180, 24648.00
388.9160, 23494.00
390.1130, 22520.00
391.3100, 21834.00
392.5060, 21404.00
393.7030, 20978.00
394.9000, 21062.00
396.0960, 20887.00
397.2920, 21281.00
398.4880, 21411.00
399.6840, 21893.00
400.8800, 22440.00
402.0750, 22972.00
403.2710, 23148.00
404.4660, 23695.00
405.6610, 23897.00
406.8560, 24359.00
408.0510, 24470.00
409.2450, 24386.00
410.4400, 24175.00
411.6340, 23404.00
412.8280, 22657.00
414.0220, 21569.00
415.2160, 20678.00
416.4100, 19134.00
417.6030, 17953.00
418.7970, 16712.00
419.9900, 15446.00
421.1830, 14341.00
422.3760, 13401.00
423.5690, 12583.00
424.7610, 11782.00
425.9540, 11168.00
427.1460, 10724.00
428.3380, 10109.00
429.5300, 9712.000
430.7220, 9510.000
431.9140, 9201.000
433.1050, 9001.000
434.2970, 8805.000
435.4880, 8533.000
436.6790, 8449.000
437.8700, 8330.000
439.0610, 8137.000
440.2510, 8136.000
441.4420, 7988.000
442.6320, 7935.000
443.8220, 8004.000
445.0120, 7667.000
446.2020, 7816.000
447.3910, 7650.000
448.5810, 7769.000
449.7700, 7532.000
450.9600, 7538.000
452.1490, 7430.000
453.3370, 7472.000
454.5260, 7300.000
455.7150, 7243.000
456.9030, 7304.000
458.0910, 7241.000
459.2800, 7244.000
460.4670, 7197.000
461.6550, 7242.000
462.8430, 7228.000
464.0300, 7282.000
465.2180, 7202.000
466.4050, 7297.000
467.5920, 7188.000
468.7790, 7223.000
469.9650, 7158.000
471.1520, 7229.000
472.3380, 7213.000
473.5250, 7226.000
474.7110, 7201.000
475.8970, 7281.000
477.0820, 7329.000
478.2680, 7185.000
479.4540, 7222.000
480.6390, 7402.000
481.8240, 7437.000
483.0090, 7604.000
484.1940, 7645.000
485.3780, 7814.000
486.5630, 7990.000
487.7470, 8118.000
488.9320, 8275.000
490.1160, 8378.000
491.3000, 8628.000
492.4830, 8938.000
493.6670, 9108.000
494.8500, 9284.000
496.0340, 9442.000
497.2170, 9617.891
498.4000, 9770.000
499.5820, 9990.000
500.7650, 10178.00
501.9480, 10429.00
503.1300, 10539.00
504.3120, 10750.00
505.4940, 10923.00
506.6760, 11040.00
507.8580, 11105.00
509.0390, 11195.00
510.2210, 11217.00
511.4020, 11315.00
512.5830, 11361.00
513.7640, 11370.00
514.9450, 11171.00
516.1250, 11185.00
517.3060, 10902.00
518.4860, 10877.00
519.6660, 10606.00
520.8460, 10452.00
522.0260, 10084.00
523.2060, 9921.000
524.3850, 9557.000
525.5650, 9346.000
526.7440, 9125.000
527.9230, 9109.000
529.1020, 8993.000
530.2810, 8807.000
531.4590, 8618.000
532.6380, 8676.000
533.8160, 8604.000
534.9940, 8437.000
536.1720, 8285.000
537.3500, 8185.000
538.5270, 8143.000
539.7050, 8021.000
540.8820, 7938.000
542.0590, 7820.000
543.2360, 7796.000
544.4130, 7721.000
545.5900, 7530.000
546.7660, 7540.000
547.9430, 7456.000
549.1190, 7544.000
550.2950, 7336.000
551.4710, 7329.000
552.6470, 7315.000
553.8220, 7203.000
554.9980, 7318.000
556.1730, 7188.000
557.3480, 7323.000
558.5230, 7336.000
559.6980, 7239.000
560.8730, 7286.000
562.0470, 7280.000
563.2220, 7367.000
564.3960, 7332.000
565.5700, 7279.000
566.7440, 7337.000
567.9170, 7407.000
569.0910, 7485.000
570.2640, 7491.000
571.4380, 7450.000
572.6110, 7466.000
573.7840, 7476.000
574.9570, 7582.000
576.1290, 7651.000
577.3020, 7668.000
578.4740, 7648.000
579.6460, 7835.000
580.8180, 7812.000
581.9900, 7752.000
583.1620, 7867.000
584.3330, 7866.000
585.5040, 8054.000
586.6760, 7945.000
587.8470, 7906.000
589.0180, 8029.000
590.1880, 7978.000
591.3590, 7905.000
592.5290, 7916.000
593.7000, 7931.000
594.8700, 7849.000
596.0400, 7892.000
597.2090, 7885.000
598.3790, 7911.000
599.5490, 7693.000
600.7180, 7705.000
601.8870, 7762.000
603.0560, 7823.000
604.2250, 7889.000
605.3940, 7976.000
606.5620, 8038.000
607.7300, 8045.000
608.8990, 8136.000
610.0670, 8138.000
611.2350, 8219.000
612.4020, 8346.000
613.5700, 8377.000
614.7370, 8658.000
615.9050, 8687.000
617.0720, 8838.000
618.2390, 8952.000
619.4060, 9225.174
620.5720, 9520.000
621.7390, 9955.000
622.9050, 10432.00
624.0710, 11021.66
625.2370, 11562.00
626.4030, 12573.00
627.5690, 13512.00
628.7340, 14563.00
629.9000, 15387.00
631.0650, 16399.00
632.2300, 17667.00
633.3950, 18822.00
634.5600, 19453.00
635.7240, 20238.00
636.8890, 20532.00
638.0530, 20415.00
639.2170, 20379.00
640.3810, 19871.00
641.5450, 19343.00
642.7080, 18859.00
643.8720, 18297.00
645.0350, 17402.00
646.1980, 16832.00
647.3610, 16405.00
648.5240, 15883.00
649.6870, 15624.00
650.8490, 15380.00
652.0120, 15172.00
653.1740, 14852.00
654.3360, 14478.00
655.4980, 14198.00
656.6600, 13926.00
657.8210, 13547.00
658.9830, 13457.00
660.1440, 13047.00
661.3050, 12633.00
662.4660, 12383.00
663.6270, 11771.00
664.7870, 11516.00
665.9480, 11273.00
667.1080, 10809.00
668.2680, 10492.00
669.4280, 10004.00
670.5880, 9766.000
671.7480, 9587.000
672.9070, 9263.000
674.0670, 9091.000
675.2260, 8935.000
676.3850, 8860.669
677.5440, 8868.000
678.7030, 8906.000
679.8610, 8939.000
681.0200, 9085.000
682.1780, 9201.000
683.3360, 9355.000
684.4940, 9521.000
685.6520, 9876.000
686.8090, 10243.00
687.9670, 10735.00
689.1240, 11506.00
690.2810, 12083.00
691.4380, 13127.00
692.5950, 14222.00
693.7520, 15220.00
694.9080, 16449.00
696.0650, 18059.00
697.2210, 19525.00
698.3770, 21110.00
699.5330, 22925.00
700.6880, 24562.00
701.8440, 26180.00
702.9990, 27648.00
704.1550, 29058.00
705.3100, 30128.00
706.4650, 30721.00
707.6190, 30478.00
708.7740, 29727.00
709.9290, 28711.00
711.0830, 27039.00
712.2370, 24867.00
713.3910, 22706.00
714.5450, 20557.00
715.6980, 18618.00
716.8520, 16834.00
718.0050, 15280.09
719.1580, 13857.00
720.3110, 12769.00
721.4640, 11841.00
722.6170, 11147.00
723.7700, 10327.00
724.9220, 9884.000
726.0740, 9478.000
727.2260, 9385.000
728.3780, 8964.000
729.5300, 8952.000
730.6810, 8815.000
731.8330, 8636.000
732.9840, 8564.000
734.1350, 8537.000
735.2860, 8497.000
736.4370, 8512.000
737.5880, 8569.000
738.7380, 8634.000
739.8880, 8731.000
741.0390, 8898.000
742.1890, 9213.000
743.3380, 9244.000
744.4880, 9661.000
745.6380, 9917.000
746.7870, 10084.00
747.9360, 10437.00
749.0850, 10633.00
750.2340, 10882.00
751.3830, 11001.00
752.5310, 10942.00
753.6800, 10535.00
754.8280, 10333.00
755.9760, 9986.000
757.1240, 9409.000
758.2720, 8975.000
759.4190, 8392.000
760.5670, 8090.000
761.7140, 7804.000
762.8610, 7434.000
764.0080, 7180.000
765.1550, 6806.000
766.3020, 6610.594
767.4480, 6535.000
768.5950, 6282.000
769.7410, 6198.000
770.8870, 6169.000
772.0330, 5939.000
773.1780, 5837.000
774.3240, 5860.000
775.4690, 5779.000
776.6140, 5653.000
777.7590, 5696.000
778.9040, 5569.000
780.0490, 5548.000
781.1940, 5535.000
782.3380, 5428.000
783.4820, 5532.000
784.6260, 5507.000
785.7700, 5405.000
786.9140, 5398.000
788.0580, 5406.000
789.2010, 5285.000
790.3450, 5390.000
791.4880, 5280.000
792.6310, 5354.000
793.7730, 5311.000
794.9160, 5362.000
796.0590, 5292.000
797.2010, 5355.000
798.3430, 5213.000
799.4850, 5260.000
800.6270, 5111.000
801.7690, 5228.000
802.9100, 5129.000
804.0520, 5172.000
805.1930, 4990.000
806.3340, 5092.000
807.4750, 5015.000
808.6160, 5032.000
809.7560, 4998.000
810.8970, 4936.000
812.0370, 4989.000
813.1770, 5018.000
814.3170, 4910.000
815.4570, 4968.000
816.5960, 4968.000
817.7360, 4941.000
818.8750, 4966.000
820.0140, 4983.000
821.1530, 4925.000
822.2920, 4880.000
823.4310, 4927.000
824.5690, 4989.000
825.7070, 5059.000
826.8460, 5010.000
827.9840, 5057.000
829.1220, 5057.000
830.2590, 5050.000
831.3970, 5087.000
832.5340, 5040.000
833.6710, 4989.000
834.8080, 5056.000
835.9450, 5024.000
837.0820, 5129.000
838.2190, 5101.000
839.3550, 5001.000
840.4910, 5103.000
841.6270, 5011.000
842.7630, 5127.000
843.8990, 5174.000
845.0350, 5209.000
846.1700, 5088.000
847.3060, 5202.000
848.4410, 5172.000
849.5760, 5052.000
850.7100, 5165.000
851.8450, 5121.000
852.9800, 5182.000
854.1140, 5142.000
855.2480, 5281.000
856.3820, 5247.000
857.5160, 5280.000
858.6500, 5287.000
859.7830, 5327.000
860.9170, 5256.000
862.0500, 5298.000
863.1830, 5301.000
864.3160, 5281.000
865.4480, 5297.875
866.5810, 5296.588
867.7130, 5288.000
868.8460, 5306.000
869.9780, 5294.000
871.1100, 5287.000
872.2410, 5243.000
873.3730, 5181.000
874.5050, 5216.000
875.6360, 5224.000
876.7670, 5291.000
877.8980, 5277.000
879.0290, 5259.000
880.1590, 5276.000
881.2900, 5256.000
882.4200, 5307.000
883.5500, 5267.000
884.6800, 5201.000
885.8100, 5298.000
886.9400, 5229.000
888.0690, 5215.000
889.1990, 5196.000
890.3280, 5207.000
891.4570, 5158.000
892.5860, 5252.000
893.7140, 5138.000
894.8430, 5190.000
895.9710, 5292.000
897.1000, 5199.000
898.2280, 5270.000
899.3560, 5199.000
900.4830, 5281.000
901.6110, 5257.000
902.7380, 5261.000
903.8660, 5233.000
904.9930, 5275.000
906.1200, 5305.000
907.2460, 5253.000
908.3730, 5224.000
909.5000, 5329.000
910.6260, 5282.000
911.7520, 5301.000
912.8780, 5412.000
914.0040, 5345.000
915.1290, 5260.000
916.2550, 5327.000
917.3800, 5345.000
918.5050, 5369.000
919.6300, 5442.000
920.7550, 5480.000
921.8800, 5350.000
923.0040, 5572.000
924.1290, 5376.000
925.2530, 5562.000
926.3770, 5601.000
927.5010, 5661.000
928.6250, 5613.000
929.7480, 5712.000
930.8720, 5657.000
931.9950, 5760.000
933.1180, 5837.000
934.2410, 5838.000
935.3640, 5880.000
936.4860, 5975.000
937.6090, 6053.000
938.7310, 5973.000
939.8530, 6162.000
940.9750, 6141.000
942.0970, 6270.000
943.2180, 6363.000
944.3400, 6468.000
945.4610, 6656.000
946.5820, 6673.000
947.7030, 6730.000
948.8240, 6897.000
949.9450, 6958.000
951.0650, 7225.000
952.1860, 7251.000
953.3060, 7534.000
954.4260, 7669.000
955.5460, 7926.000
956.6650, 7951.000
957.7850, 8227.000
958.9040, 8371.000
960.0230, 8586.000
961.1420, 8605.000
962.2610, 8731.000
963.3800, 8955.000
964.4990, 9192.000
965.6170, 9288.000
966.7350, 9331.000
967.8530, 9401.000
968.9710, 9425.150
970.0890, 9440.000
971.2070, 9439.000
972.3240, 9486.000
973.4410, 9465.000
974.5580, 9307.000
975.6750, 9360.000
976.7920, 9302.000
977.9090, 9290.000
979.0250, 9290.000
980.1410, 9305.000
981.2580, 9175.000
982.3740, 9139.000
983.4890, 9015.000
984.6050, 9023.000
985.7200, 9010.000
986.8360, 9063.000
987.9510, 9153.000
989.0660, 9078.000
990.1810, 9112.000
991.2950, 9179.000
992.4100, 9147.000
993.5240, 9245.000
994.6390, 9174.000
995.7530, 9235.000
996.8660, 9234.000
997.9800, 9424.000
999.0940, 9345.000
1000.207, 9338.000
1001.320, 9413.000
1002.433, 9310.000
1003.546, 9251.000
1004.659, 9300.000
1005.772, 9378.000
1006.884, 9300.000
1007.996, 9466.000
1009.108, 9442.000
1010.220, 9423.000
1011.332, 9380.000
1012.444, 9444.000
1013.555, 9321.000
1014.666, 9429.000
1015.777, 9641.000
1016.888, 9464.000
1017.999, 9497.000
1019.110, 9413.000
1020.220, 9496.000
1021.331, 9536.000
1022.441, 9478.000
1023.551, 9557.000
1024.661, 9528.000
1025.770, 9378.000
1026.880, 9459.000
1027.989, 9258.000
1029.098, 9165.000
1030.207, 9247.000
1031.316, 9275.000
1032.425, 9237.000
1033.533, 9177.000
1034.642, 9151.000
1035.750, 9286.000
1036.858, 9071.000
1037.966, 9164.000
1039.073, 8936.000
1040.181, 9134.000
1041.288, 9161.000
1042.396, 9037.000
1043.503, 9149.000
1044.610, 9195.000
1045.716, 9191.000
1046.823, 9372.000
1047.929, 9297.000
1049.036, 9447.000
1050.142, 9597.000
1051.248, 9891.000
1052.353, 9844.000
1053.459, 9932.000
1054.564, 10032.00
1055.670, 10422.00
1056.775, 10472.00
1057.880, 10708.00
1058.985, 10786.00
1060.089, 10963.00
1061.194, 11177.00
1062.298, 11295.00
1063.402, 11541.00
1064.506, 11562.00
1065.610, 11656.00
1066.713, 11804.00
1067.817, 11896.00
1068.920, 11959.00
1070.023, 12152.00
1071.126, 12203.00
1072.229, 12385.00
1073.332, 12545.00
1074.435, 12893.00
1075.537, 12827.00
1076.639, 13143.00
1077.741, 13493.00
1078.843, 13585.00
1079.945, 14107.00
1081.046, 14345.00
1082.148, 14600.00
1083.249, 15133.00
1084.350, 15321.00
1085.451, 15601.00
1086.551, 15858.00
1087.652, 15602.00
1088.752, 15434.00
1089.853, 15247.00
1090.953, 14762.00
1092.053, 14345.00
1093.152, 13868.00
1094.252, 13019.00
1095.351, 12617.00
1096.451, 12093.00
1097.550, 11594.09
1098.649, 11173.65
1099.748, 10807.00
1100.846, 10335.00
1101.945, 9995.000
1103.043, 9667.000
1104.141, 9495.000
1105.239, 9135.000
1106.337, 8995.000
1107.434, 8645.000
1108.532, 8378.000
1109.629, 8246.000
1110.726, 8026.000
1111.823, 7918.000
1112.920, 7765.000
1114.017, 7690.000
1115.113, 7491.000
1116.210, 7326.000
1117.306, 7290.000
1118.402, 7268.000
1119.498, 7115.000
1120.593, 7133.000
1121.689, 6960.000
1122.784, 6954.000
1123.879, 6900.000
1124.974, 6826.000
1126.069, 6707.000
1127.164, 6595.000
1128.259, 6548.667
1129.353, 6542.000
1130.447, 6449.000
1131.541, 6353.000
1132.635, 6298.000
1133.729, 6177.000
1134.822, 6211.000
1135.916, 6119.000
1137.009, 6196.000
1138.102, 6045.000
1139.195, 5940.000
1140.288, 6017.000
1141.380, 5970.000
1142.473, 5894.000
1143.565, 5892.000
1144.657, 5813.000
1145.749, 5855.000
1146.841, 5646.000
1147.932, 5591.000
1149.024, 5629.000
1150.115, 5677.000
1151.206, 5683.000
1152.297, 5656.000
1153.388, 5553.000
1154.479, 5552.000
1155.569, 5538.000
1156.659, 5546.000
1157.750, 5588.000
1158.839, 5478.000
1159.929, 5493.000
1161.019, 5461.000
1162.108, 5328.000
1163.198, 5503.000
1164.287, 5421.000
1165.376, 5432.000
1166.465, 5516.000
1167.553, 5418.000
1168.642, 5434.000
1169.730, 5382.000
1170.818, 5426.000
1171.906, 5491.000
1172.994, 5398.000
1174.082, 5417.000
1175.170, 5404.000
1176.257, 5378.000
1177.344, 5388.000
1178.431, 5401.000
1179.518, 5358.000
1180.605, 5423.000
1181.691, 5407.000
1182.778, 5324.000
1183.864, 5297.000
1184.950, 5394.000
1186.036, 5348.000
1187.122, 5375.000
1188.207, 5404.000
1189.292, 5416.000
1190.378, 5453.000
1191.463, 5437.741
1192.548, 5434.506
1193.632, 5407.000
1194.717, 5397.000
1195.801, 5381.000
1196.886, 5365.000
1197.970, 5375.000
1199.054, 5402.000
1200.137, 5375.000
1201.221, 5393.491
1202.305, 5429.000
1203.388, 5388.000
1204.471, 5353.000
1205.554, 5322.000
1206.637, 5450.000
1207.719, 5361.000
1208.802, 5446.000
1209.884, 5381.000
1210.966, 5400.000
1212.048, 5401.000
1213.130, 5393.000
1214.212, 5317.000
1215.293, 5385.000
1216.374, 5374.000
1217.456, 5293.000
1218.536, 5384.000
1219.617, 5512.000
1220.698, 5420.000
1221.778, 5433.000
1222.859, 5315.000
1223.939, 5411.000
1225.019, 5307.000
1226.099, 5353.000
1227.178, 5372.000
1228.258, 5413.000
1229.337, 5431.116
1230.417, 5286.000
1231.496, 5444.000
1232.574, 5383.000
1233.653, 5337.000
1234.732, 5402.000
1235.810, 5433.000
1236.888, 5400.000
1237.966, 5451.000
1239.044, 5432.000
1240.122, 5361.000
1241.199, 5460.000
1242.277, 5486.000
1243.354, 5404.000
1244.431, 5401.000
1245.508, 5418.000
1246.585, 5481.000
1247.661, 5452.000
1248.738, 5476.000
1249.814, 5415.000
1250.890, 5500.000
1251.966, 5504.000
1253.042, 5425.000
1254.117, 5362.000
1255.193, 5495.000
1256.268, 5439.000
1257.343, 5473.000
1258.418, 5477.000
1259.493, 5481.000
1260.567, 5416.000
1261.642, 5445.000
1262.716, 5465.000
1263.790, 5416.000
1264.864, 5447.000
1265.938, 5478.000
1267.011, 5468.000
1268.085, 5588.000
1269.158, 5456.000
1270.231, 5467.000
1271.304, 5567.000
1272.377, 5469.000
1273.450, 5574.000
1274.522, 5544.000
1275.594, 5490.000
1276.666, 5507.000
1277.738, 5586.000
1278.810, 5662.000
1279.882, 5495.000
1280.953, 5638.000
1282.025, 5498.000
1283.096, 5579.000
1284.167, 5615.000
1285.238, 5601.000
1286.308, 5588.000
1287.379, 5550.000
