##NAMES=Elbaite
##RRUFFID=R060562
##IDEAL CHEMISTRY=Na(Al_1.5_Li_1.5_)Al_6_(Si_6_O_18_)(BO_3_)_3_(OH)_3_OH
##LOCALITY=unknown
##OWNER=RRUFF
##SOURCE=Gemological Institute of America
##DESCRIPTION=Blue colored polished fragment
##STATUS=The identification of this mineral has been confirmed by X-ray diffraction and chemical analysis
##URL=rruff.info/R060562
##MEASURED CHEMISTRY=(Na_0.68_Ca_0.20_[box]_0.12_)(Li_1.20_Al_1.12_Fe^2+^_0.50_Mn_0.18_)Al_6_(BO_3_)_3_[Si_6_O_18_]((OH)_0.80_F_0.20_)_4_
##PIN_ID=L01792
##ORIENTATION=Laser parallel to -a* (-1 0 0). Fiducial mark perpendicular to laser is parallel to c [0 0 1]
118.1340, 15411.00
119.3650, 15267.00
120.5960, 15428.00
121.8270, 15625.00
123.0580, 15897.00
124.2880, 16049.00
125.5190, 15758.00
126.7490, 15838.00
127.9790, 16078.00
129.2090, 16326.00
130.4390, 16517.47
131.6680, 16731.18
132.8980, 16984.00
134.1270, 17209.00
135.3560, 17405.00
136.5850, 17849.00
137.8140, 17876.00
139.0430, 18251.00
140.2710, 18285.00
141.5000, 17911.00
142.7280, 17832.00
143.9560, 17990.00
145.1840, 17750.00
146.4120, 17919.00
147.6390, 18055.00
148.8670, 18036.00
150.0940, 17998.00
151.3210, 18320.00
152.5490, 18281.00
153.7750, 18382.00
155.0020, 18438.00
156.2290, 18311.00
157.4550, 18444.00
158.6810, 18536.00
159.9080, 18690.00
161.1340, 18705.79
162.3590, 18724.40
163.5850, 18660.00
164.8110, 18605.00
166.0360, 18412.00
167.2610, 18207.00
168.4860, 18050.00
169.7110, 18164.00
170.9360, 18001.00
172.1610, 18047.00
173.3850, 17819.00
174.6100, 17978.00
175.8340, 17890.00
177.0580, 17874.00
178.2820, 18264.00
179.5050, 18397.00
180.7290, 18479.00
181.9520, 18363.00
183.1760, 18494.00
184.3990, 18642.00
185.6220, 18865.00
186.8450, 19007.08
188.0670, 19142.00
189.2900, 19396.00
190.5120, 19573.00
191.7340, 19852.00
192.9560, 20171.17
194.1780, 20527.00
195.4000, 20915.00
196.6220, 21343.79
197.8430, 21746.00
199.0640, 22297.00
200.2860, 22884.00
201.5070, 23433.00
202.7270, 23774.00
203.9480, 23664.00
205.1690, 24065.00
206.3890, 24014.00
207.6090, 24633.00
208.8290, 24939.00
210.0490, 25574.00
211.2690, 26287.00
212.4890, 27243.00
213.7080, 28170.00
214.9280, 29045.00
216.1470, 30456.00
217.3660, 31688.00
218.5850, 33395.00
219.8030, 34922.00
221.0220, 36806.00
222.2400, 38236.00
223.4590, 39786.00
224.6770, 40906.00
225.8950, 41531.00
227.1120, 42294.00
228.3300, 41939.00
229.5480, 41921.00
230.7650, 41176.00
231.9820, 40598.00
233.1990, 39599.00
234.4160, 39448.00
235.6330, 38923.00
236.8490, 38243.00
238.0660, 37994.00
239.2820, 37751.00
240.4980, 37471.00
241.7140, 37465.00
242.9300, 36844.00
244.1460, 36398.00
245.3610, 35659.00
246.5770, 34746.00
247.7920, 33988.00
249.0070, 32673.00
250.2220, 31737.00
251.4370, 30571.00
252.6510, 29803.00
253.8660, 29126.00
255.0800, 28345.00
256.2940, 27789.00
257.5080, 27936.00
258.7220, 28986.00
259.9360, 28001.00
261.1490, 26742.00
262.3630, 28447.00
263.5760, 29608.00
264.7890, 25221.00
266.0020, 25073.00
267.2150, 24997.00
268.4270, 24781.00
269.6400, 24846.00
270.8520, 24722.00
272.0640, 24629.00
273.2760, 24515.00
274.4880, 24538.00
275.7000, 24381.00
276.9120, 24321.00
278.1230, 24167.00
279.3340, 24168.00
280.5450, 23685.00
281.7560, 23477.00
282.9670, 23385.00
284.1780, 23106.00
285.3880, 22816.00
286.5980, 22577.00
287.8090, 22329.86
289.0190, 21964.00
290.2290, 21874.00
291.4380, 21684.00
292.6480, 21453.00
293.8570, 21063.00
295.0670, 21240.00
296.2760, 20979.00
297.4850, 21020.00
298.6930, 20797.00
299.9020, 21082.00
301.1110, 21031.00
302.3190, 20947.00
303.5270, 21185.00
304.7350, 21247.00
305.9430, 21330.00
307.1510, 21614.00
308.3580, 21587.00
309.5660, 22048.00
310.7730, 22053.00
311.9800, 22239.00
313.1870, 22384.00
314.3940, 22719.00
315.6010, 23183.00
316.8070, 23238.00
318.0130, 23668.00
319.2200, 23945.00
320.4260, 23779.00
321.6310, 23746.00
322.8370, 23679.00
324.0430, 23614.00
325.2480, 23402.00
326.4540, 23500.00
327.6590, 23605.00
328.8640, 23688.00
330.0680, 23941.00
331.2730, 23946.00
332.4780, 23632.00
333.6820, 24006.00
334.8860, 23931.00
336.0900, 24069.00
337.2940, 24115.00
338.4980, 24286.00
339.7010, 24620.00
340.9050, 24938.00
342.1080, 24940.00
343.3110, 25270.00
344.5140, 25487.00
345.7170, 25933.00
346.9200, 26275.00
348.1220, 26602.00
349.3240, 27021.00
350.5270, 26758.00
351.7290, 26910.00
352.9310, 27117.00
354.1320, 27060.00
355.3340, 27408.00
356.5350, 27721.00
357.7370, 28112.00
358.9380, 28540.00
360.1390, 29370.00
361.3400, 30608.00
362.5400, 31981.00
363.7410, 33486.00
364.9410, 35529.00
366.1410, 37861.00
367.3410, 40653.00
368.5410, 43975.00
369.7410, 48017.00
370.9400, 52899.00
372.1400, 58703.00
373.3390, 61267.00
374.5380, 64056.00
375.7370, 65036.00
376.9360, 64117.00
378.1350, 61688.00
379.3330, 57592.00
380.5310, 53235.00
381.7300, 49251.00
382.9280, 45549.00
384.1260, 42250.00
385.3230, 39853.00
386.5210, 37527.00
387.7180, 35800.00
388.9160, 34460.00
390.1130, 33529.00
391.3100, 32607.00
392.5060, 31983.00
393.7030, 31542.00
394.9000, 31136.00
396.0960, 31180.00
397.2920, 31156.46
398.4880, 31709.00
399.6840, 31763.00
400.8800, 32483.00
402.0750, 33259.00
403.2710, 33939.00
404.4660, 34961.00
405.6610, 36186.00
406.8560, 37029.00
408.0510, 37799.00
409.2450, 38371.00
410.4400, 38476.00
411.6340, 37993.00
412.8280, 37173.00
414.0220, 35771.00
415.2160, 34438.00
416.4100, 32655.00
417.6030, 31077.00
418.7970, 29627.00
419.9900, 28211.00
421.1830, 27232.00
422.3760, 26275.00
423.5690, 25679.00
424.7610, 25031.00
425.9540, 24658.00
427.1460, 23956.00
428.3380, 23864.00
429.5300, 23456.00
430.7220, 23190.00
431.9140, 23112.00
433.1050, 22851.00
434.2970, 22647.00
435.4880, 22523.00
436.6790, 22404.00
437.8700, 22427.00
439.0610, 22179.00
440.2510, 22275.00
441.4420, 22082.00
442.6320, 22002.00
443.8220, 22236.00
445.0120, 22072.00
446.2020, 22093.00
447.3910, 22023.00
448.5810, 22131.00
449.7700, 22092.00
450.9600, 22173.00
452.1490, 22303.00
453.3370, 22056.00
454.5260, 21915.00
455.7150, 22229.00
456.9030, 22150.00
458.0910, 21925.00
459.2800, 22133.00
460.4670, 22083.00
461.6550, 22155.00
462.8430, 22092.00
464.0300, 22241.00
465.2180, 22063.00
466.4050, 22289.00
467.5920, 22307.00
468.7790, 22292.00
469.9650, 22339.00
471.1520, 22253.00
472.3380, 22274.75
473.5250, 22246.63
474.7110, 22212.00
475.8970, 22202.00
477.0820, 22079.00
478.2680, 22061.00
479.4540, 22089.25
480.6390, 22146.00
481.8240, 22242.00
483.0090, 22322.00
484.1940, 22520.00
485.3780, 22628.39
486.5630, 22543.00
487.7470, 22942.00
488.9320, 23086.00
490.1160, 23270.00
491.3000, 23620.00
492.4830, 23821.00
493.6670, 23774.00
494.8500, 24120.00
496.0340, 24130.00
497.2170, 24380.00
498.4000, 24511.00
499.5820, 24678.00
500.7650, 24792.00
501.9480, 24913.14
503.1300, 24917.00
504.3120, 25160.00
505.4940, 25106.00
506.6760, 25283.00
507.8580, 25430.00
509.0390, 25458.00
510.2210, 25314.00
511.4020, 25362.00
512.5830, 25523.00
513.7640, 25151.00
514.9450, 25317.00
516.1250, 25136.00
517.3060, 24749.00
518.4860, 24789.00
519.6660, 24487.00
520.8460, 24085.00
522.0260, 23861.00
523.2060, 23614.00
524.3850, 23495.00
525.5650, 23348.00
526.7440, 23234.00
527.9230, 23189.00
529.1020, 23050.00
530.2810, 22767.00
531.4590, 23078.00
532.6380, 22602.00
533.8160, 22645.00
534.9940, 22673.00
536.1720, 22590.00
537.3500, 22633.00
538.5270, 22597.23
539.7050, 22609.00
540.8820, 22602.00
542.0590, 22571.00
543.2360, 22669.00
544.4130, 22682.00
545.5900, 22675.00
546.7660, 22626.00
547.9430, 22671.00
549.1190, 22717.00
550.2950, 22688.00
551.4710, 22803.00
552.6470, 22807.00
553.8220, 22826.00
554.9980, 22858.23
556.1730, 22894.00
557.3480, 22927.00
558.5230, 22896.00
559.6980, 23056.00
560.8730, 23274.00
562.0470, 23010.00
563.2220, 23191.00
564.3960, 23108.00
565.5700, 23112.00
566.7440, 23204.00
567.9170, 23131.00
569.0910, 23152.00
570.2640, 23085.00
571.4380, 23206.00
572.6110, 23310.00
573.7840, 23071.00
574.9570, 23207.00
576.1290, 23211.00
577.3020, 23249.00
578.4740, 23447.00
579.6460, 23443.00
580.8180, 23368.00
581.9900, 23510.00
583.1620, 23649.00
584.3330, 23638.32
585.5040, 23745.76
586.6760, 23668.00
587.8470, 23806.00
589.0180, 23716.00
590.1880, 23662.00
591.3590, 23876.00
592.5290, 23836.00
593.7000, 23859.00
594.8700, 23959.00
596.0400, 23823.00
597.2090, 23938.75
598.3790, 23992.00
599.5490, 24032.00
600.7180, 24123.00
601.8870, 24132.00
603.0560, 24211.02
604.2250, 24247.91
605.3940, 24265.00
606.5620, 24368.00
607.7300, 24239.00
608.8990, 24375.00
610.0670, 24363.00
611.2350, 24276.00
612.4020, 24215.00
613.5700, 24311.00
614.7370, 24276.00
615.9050, 24289.00
617.0720, 24434.00
618.2390, 24680.00
619.4060, 24785.00
620.5720, 25112.00
621.7390, 25371.00
622.9050, 25893.00
624.0710, 26402.00
625.2370, 27077.00
626.4030, 27834.97
627.5690, 28543.00
628.7340, 29580.00
629.9000, 30456.00
631.0650, 31442.00
632.2300, 32520.00
633.3950, 33149.00
634.5600, 33759.00
635.7240, 33705.00
636.8890, 33806.00
638.0530, 33004.00
639.2170, 32335.00
640.3810, 31494.00
641.5450, 30872.00
642.7080, 30418.00
643.8720, 30020.00
645.0350, 29579.00
646.1980, 29279.00
647.3610, 28792.00
648.5240, 28521.00
649.6870, 28418.00
650.8490, 28413.00
652.0120, 28404.00
653.1740, 28383.00
654.3360, 28372.38
655.4980, 28473.00
656.6600, 28328.00
657.8210, 28326.00
658.9830, 28281.00
660.1440, 28475.00
661.3050, 28504.00
662.4660, 28377.00
663.6270, 28229.00
664.7870, 28032.00
665.9480, 27795.00
667.1080, 27506.00
668.2680, 27178.00
669.4280, 26927.00
670.5880, 26572.00
671.7480, 26391.00
672.9070, 26189.00
674.0670, 25986.27
675.2260, 25911.00
676.3850, 25712.00
677.5440, 25623.00
678.7030, 25569.00
679.8610, 25720.00
681.0200, 25423.00
682.1780, 25683.00
683.3360, 25548.00
684.4940, 25777.00
685.6520, 25911.00
686.8090, 26113.00
687.9670, 26567.00
689.1240, 26603.00
690.2810, 27398.00
691.4380, 27754.15
692.5950, 28167.00
693.7520, 29127.00
694.9080, 29829.00
696.0650, 31164.00
697.2210, 32280.00
698.3770, 33522.00
699.5330, 34996.00
700.6880, 36672.00
701.8440, 38040.00
702.9990, 39828.00
704.1550, 40923.00
705.3100, 41935.00
706.4650, 42638.00
707.6190, 43464.00
708.7740, 43583.00
709.9290, 43061.00
711.0830, 42376.00
712.2370, 41142.00
713.3910, 39462.00
714.5450, 37712.00
715.6980, 36065.00
716.8520, 34530.00
718.0050, 32924.00
719.1580, 31507.00
720.3110, 30640.00
721.4640, 29806.00
722.6170, 28857.00
723.7700, 28221.00
724.9220, 27971.00
726.0740, 27615.00
727.2260, 27265.00
728.3780, 27086.00
729.5300, 27203.00
730.6810, 27009.00
731.8330, 27172.00
732.9840, 27056.00
734.1350, 27172.00
735.2860, 27231.00
736.4370, 27229.00
737.5880, 27391.00
738.7380, 27607.00
739.8880, 27635.00
741.0390, 28026.00
742.1890, 27894.00
743.3380, 28180.00
744.4880, 28304.00
745.6380, 28497.00
746.7870, 28810.00
747.9360, 28632.00
749.0850, 28786.00
750.2340, 28853.00
751.3830, 29144.00
752.5310, 29049.00
753.6800, 28692.00
754.8280, 28899.00
755.9760, 28720.00
757.1240, 28335.00
758.2720, 28303.00
759.4190, 27841.00
760.5670, 27374.00
761.7140, 27152.00
762.8610, 27011.00
764.0080, 26827.00
765.1550, 26626.73
766.3020, 26242.00
767.4480, 26189.00
768.5950, 26015.00
769.7410, 25703.00
770.8870, 25917.00
772.0330, 25946.00
773.1780, 25765.00
774.3240, 25628.00
775.4690, 25785.00
776.6140, 25749.00
777.7590, 25516.00
778.9040, 25434.00
780.0490, 25245.00
781.1940, 25203.00
782.3380, 25053.00
783.4820, 25010.00
784.6260, 24715.00
785.7700, 24863.00
786.9140, 24803.00
788.0580, 24442.00
789.2010, 24522.00
790.3450, 24734.00
791.4880, 24689.00
792.6310, 24720.79
793.7730, 24598.00
794.9160, 24628.00
796.0590, 24464.00
797.2010, 24389.00
798.3430, 24366.00
799.4850, 24398.00
800.6270, 24416.00
801.7690, 24359.00
802.9100, 24315.00
804.0520, 24345.49
805.1930, 24306.00
806.3340, 24369.00
807.4750, 24491.00
808.6160, 24470.00
809.7560, 24360.00
810.8970, 24554.00
812.0370, 24457.00
813.1770, 24629.00
814.3170, 24507.00
815.4570, 24535.00
816.5960, 24654.00
817.7360, 24507.00
818.8750, 24560.00
820.0140, 24757.00
821.1530, 24549.00
822.2920, 24602.00
823.4310, 24735.00
824.5690, 24710.00
825.7070, 24761.00
826.8460, 24835.00
827.9840, 24825.00
829.1220, 24896.00
830.2590, 24909.05
831.3970, 25069.00
832.5340, 24983.00
833.6710, 25079.00
834.8080, 25204.00
835.9450, 25203.00
837.0820, 25438.00
838.2190, 25528.00
839.3550, 25346.00
840.4910, 25154.00
841.6270, 25259.00
842.7630, 25297.00
843.8990, 25439.00
845.0350, 25486.00
846.1700, 25401.00
847.3060, 25444.00
848.4410, 25370.00
849.5760, 25363.17
850.7100, 25337.00
851.8450, 25377.00
852.9800, 25429.00
854.1140, 25530.00
855.2480, 25535.55
856.3820, 25596.00
857.5160, 25587.00
858.6500, 25568.00
859.7830, 25607.00
860.9170, 25613.00
862.0500, 25598.00
863.1830, 25762.00
864.3160, 25497.00
865.4480, 25193.00
866.5810, 25342.00
867.7130, 25424.00
868.8460, 25322.00
869.9780, 25513.00
871.1100, 25257.00
872.2410, 25691.00
873.3730, 25383.00
874.5050, 25272.00
875.6360, 25469.00
876.7670, 25474.00
877.8980, 25381.00
879.0290, 25414.00
880.1590, 25373.00
881.2900, 25318.00
882.4200, 25488.00
883.5500, 25414.00
884.6800, 25544.00
885.8100, 25392.00
886.9400, 25466.00
888.0690, 25672.00
889.1990, 25697.00
890.3280, 25519.00
891.4570, 25587.00
892.5860, 25589.00
893.7140, 25501.00
894.8430, 25641.00
895.9710, 25810.00
897.1000, 25515.00
898.2280, 25848.00
899.3560, 25717.00
900.4830, 26080.00
901.6110, 25710.00
902.7380, 25942.00
903.8660, 25937.00
904.9930, 25769.00
906.1200, 25954.00
907.2460, 25993.00
908.3730, 25878.00
909.5000, 25921.00
910.6260, 26000.00
911.7520, 26149.00
912.8780, 25879.00
914.0040, 26232.00
915.1290, 26115.00
916.2550, 26328.00
917.3800, 26135.00
918.5050, 26400.00
919.6300, 26441.00
920.7550, 26420.00
921.8800, 26459.00
923.0040, 26503.92
924.1290, 26594.00
925.2530, 26660.00
926.3770, 26709.00
927.5010, 26886.00
928.6250, 26732.00
929.7480, 27121.00
930.8720, 27220.00
931.9950, 27070.00
933.1180, 27357.00
934.2410, 27203.00
935.3640, 27415.00
936.4860, 27627.00
937.6090, 27554.00
938.7310, 27635.00
939.8530, 27622.00
940.9750, 27869.00
942.0970, 27810.00
943.2180, 27921.00
944.3400, 27872.00
945.4610, 28120.00
946.5820, 27997.00
947.7030, 28233.00
948.8240, 28378.00
949.9450, 28601.00
951.0650, 28612.00
952.1860, 28725.00
953.3060, 29011.00
954.4260, 29109.00
955.5460, 29302.00
956.6650, 29671.00
957.7850, 29424.00
958.9040, 29927.00
960.0230, 29982.00
961.1420, 30475.00
962.2610, 30452.00
963.3800, 30537.00
964.4990, 30741.00
965.6170, 31128.00
966.7350, 31189.00
967.8530, 31135.00
968.9710, 31231.00
970.0890, 31240.00
971.2070, 31232.00
972.3240, 31249.00
973.4410, 31564.00
974.5580, 31369.00
975.6750, 31604.00
976.7920, 31399.00
977.9090, 31584.00
979.0250, 31418.00
980.1410, 31320.00
981.2580, 31131.00
982.3740, 31331.00
983.4890, 30943.00
984.6050, 31241.00
985.7200, 31100.00
986.8360, 31276.00
987.9510, 31313.00
989.0660, 31248.00
990.1810, 31499.00
991.2950, 31482.00
992.4100, 31690.00
993.5240, 31443.00
994.6390, 31738.00
995.7530, 31817.00
996.8660, 32051.00
997.9800, 32189.00
999.0940, 32114.00
1000.207, 32372.00
1001.320, 32229.00
1002.433, 32411.00
1003.546, 32927.00
1004.659, 32869.00
1005.772, 33173.00
1006.884, 33002.00
1007.996, 33279.00
1009.108, 33309.00
1010.220, 33187.00
1011.332, 33568.00
1012.444, 33889.00
1013.555, 33589.00
1014.666, 33784.00
1015.777, 34145.00
1016.888, 34216.00
1017.999, 34275.00
1019.110, 34387.00
1020.220, 34442.00
1021.331, 34352.00
1022.441, 34473.00
1023.551, 34177.00
1024.661, 34261.00
1025.770, 34233.00
1026.880, 34077.00
1027.989, 33754.00
1029.098, 33862.00
1030.207, 33745.00
1031.316, 33706.00
1032.425, 33781.00
1033.533, 33801.00
1034.642, 33687.00
1035.750, 33892.00
1036.858, 34041.00
1037.966, 33833.00
1039.073, 34306.00
1040.181, 34470.00
1041.288, 34452.00
1042.396, 34647.00
1043.503, 34813.00
1044.610, 34840.00
1045.716, 35628.00
1046.823, 35974.00
1047.929, 36140.00
1049.036, 36162.00
1050.142, 36733.00
1051.248, 37206.00
1052.353, 37296.00
1053.459, 37848.00
1054.564, 38233.00
1055.670, 38485.00
1056.775, 39008.00
1057.880, 38885.00
1058.985, 39495.00
1060.089, 39935.00
1061.194, 39837.00
1062.298, 39908.00
1063.402, 39586.00
1064.506, 39500.00
1065.610, 39450.00
1066.713, 39211.00
1067.817, 39084.65
1068.920, 38938.67
1070.023, 38694.00
1071.126, 38527.00
1072.229, 38328.00
1073.332, 38208.40
1074.435, 37974.00
1075.537, 38096.00
1076.639, 38181.00
1077.741, 38326.00
1078.843, 38724.00
1079.945, 39159.00
1081.046, 39346.00
1082.148, 39892.00
1083.249, 40391.00
1084.350, 40816.00
1085.451, 41037.00
1086.551, 41211.00
1087.652, 41323.00
1088.752, 41355.00
1089.853, 41049.00
1090.953, 40924.00
1092.053, 40330.00
1093.152, 40348.00
1094.252, 39337.00
1095.351, 39367.00
1096.451, 38716.00
1097.550, 38213.00
1098.649, 37672.00
1099.748, 36983.00
1100.846, 36940.00
1101.945, 36790.00
1103.043, 36039.00
1104.141, 35643.00
1105.239, 35157.00
1106.337, 35003.00
1107.434, 34510.00
1108.532, 34408.00
1109.629, 33817.00
1110.726, 33677.00
1111.823, 33428.00
1112.920, 33265.00
1114.017, 32770.00
1115.113, 32953.00
1116.210, 32581.00
1117.306, 32622.00
1118.402, 32496.00
1119.498, 32663.00
1120.593, 32525.55
1121.689, 32093.00
1122.784, 32310.00
1123.879, 32076.00
1124.974, 31863.00
1126.069, 32028.00
1127.164, 31623.00
1128.259, 31829.00
1129.353, 31495.00
1130.447, 31447.00
1131.541, 31328.00
1132.635, 31393.00
1133.729, 31347.00
1134.822, 31151.00
1135.916, 31172.00
1137.009, 30897.00
1138.102, 30910.00
1139.195, 30676.00
1140.288, 30898.00
1141.380, 30920.00
1142.473, 30826.00
1143.565, 30708.00
1144.657, 30925.00
1145.749, 30567.00
1146.841, 30791.00
1147.932, 30683.00
1149.024, 30720.00
1150.115, 30669.00
1151.206, 30700.37
1152.297, 30708.35
1153.388, 30806.00
1154.479, 30720.00
1155.569, 30788.90
1156.659, 30753.00
1157.750, 30680.00
1158.839, 30523.00
1159.929, 30429.00
1161.019, 30732.00
1162.108, 30570.00
1163.198, 30623.54
1164.287, 30783.00
1165.376, 30571.00
1166.465, 30787.00
1167.553, 30744.00
1168.642, 30636.00
1169.730, 30885.00
1170.818, 30600.00
1171.906, 30733.00
1172.994, 30719.00
1174.082, 30882.00
1175.170, 30910.34
1176.257, 30724.00
1177.344, 31016.00
1178.431, 30852.00
1179.518, 30898.00
1180.605, 30717.00
1181.691, 30821.00
1182.778, 31027.00
1183.864, 30691.00
1184.950, 30842.00
1186.036, 30896.00
1187.122, 30832.00
1188.207, 30878.00
1189.292, 30952.00
1190.378, 30839.00
1191.463, 31223.00
1192.548, 30951.00
1193.632, 31122.69
1194.717, 31367.00
1195.801, 31143.00
1196.886, 31311.00
1197.970, 31083.00
1199.054, 31135.00
1200.137, 31033.00
1201.221, 31227.00
1202.305, 31160.00
1203.388, 31346.00
1204.471, 31312.00
1205.554, 31111.00
1206.637, 31261.00
1207.719, 31351.00
1208.802, 31318.00
1209.884, 31359.00
1210.966, 31571.00
1212.048, 31274.00
1213.130, 31598.00
1214.212, 31459.00
1215.293, 31485.86
1216.374, 31523.30
1217.456, 31448.00
1218.536, 31577.00
1219.617, 31379.00
1220.698, 31649.00
1221.778, 31512.00
1222.859, 31840.00
1223.939, 31609.00
1225.019, 31652.00
1226.099, 31642.00
1227.178, 31793.00
1228.258, 31929.00
1229.337, 31992.00
1230.417, 31651.00
1231.496, 31598.00
1232.574, 31820.00
1233.653, 31632.00
1234.732, 31841.00
1235.810, 31997.00
1236.888, 32102.00
1237.966, 32088.00
1239.044, 32184.00
1240.122, 32192.38
1241.199, 32229.58
1242.277, 32224.00
1243.354, 32236.00
1244.431, 32267.00
1245.508, 32138.00
1246.585, 32336.00
1247.661, 32057.00
1248.738, 32340.00
1249.814, 32277.00
1250.890, 32153.00
1251.966, 32374.00
1253.042, 32397.00
1254.117, 32221.00
1255.193, 32388.00
1256.268, 32314.00
1257.343, 32308.00
1258.418, 32495.00
1259.493, 32245.00
1260.567, 32432.00
1261.642, 32480.00
1262.716, 32465.00
1263.790, 32839.00
1264.864, 32574.00
1265.938, 32705.00
1267.011, 32862.00
1268.085, 32639.00
1269.158, 32752.00
1270.231, 32932.00
1271.304, 33027.00
1272.377, 33086.56
1273.450, 32987.00
1274.522, 33102.00
1275.594, 33114.00
1276.666, 33002.00
1277.738, 33062.00
1278.810, 33137.00
1279.882, 32989.00
1280.953, 33158.00
1282.025, 33295.00
1283.096, 33069.00
1284.167, 32940.00
1285.238, 33321.00
1286.308, 33127.00
1287.379, 33197.00
1288.449, 33248.00
1289.519, 33360.00
1290.589, 33167.00
1291.659, 33431.00
