##NAMES=Elbaite
##RRUFFID=R050260
##IDEAL CHEMISTRY=Na(Al_1.5_Li_1.5_)Al_6_(Si_6_O_18_)(BO_3_)_3_(OH)_3_OH
##LOCALITY=Minas Gerais, Brazil
##OWNER=RRUFF
##SOURCE=Marcus Origlieri
##DESCRIPTION=Greenish-gray prismatic single crystal
##STATUS=The identification of this mineral has been confirmed by X-ray diffraction and chemical analysis
##URL=rruff.info/R050260
##MEASURED CHEMISTRY=(Na_0.76_[box]_0.17_Ca_0.07_)_Σ=1_(Al_1.67_Li_0.97_Mn_0.36_)_Σ=3_Al_6.00_(B_1.00_O_3_)_3_Si_6.00_O_18_((OH)_3.40_F_0.60_)_Σ=4_; B assumed by stoichiometry; OH estimated by charge balance
##PIN_ID=L01093
##ORIENTATION=Laser parallel to c* (0 0 1). Fiducial mark perpendicular to laser is parallel to -a [-1 0 0]
118.1340, 16065.00
119.3650, 15874.00
120.5960, 15809.00
121.8270, 16111.00
123.0580, 16566.00
124.2880, 17073.00
125.5190, 17709.00
126.7490, 16877.00
127.9790, 17169.00
129.2090, 17473.00
130.4390, 17753.00
131.6680, 17752.00
132.8980, 17891.00
134.1270, 17783.00
135.3560, 17521.00
136.5850, 17284.00
137.8140, 17269.00
139.0430, 17314.00
140.2710, 17155.00
141.5000, 16945.00
142.7280, 16714.00
143.9560, 16617.00
145.1840, 16681.00
146.4120, 16988.00
147.6390, 17179.00
148.8670, 17314.00
150.0940, 17626.00
151.3210, 17956.00
152.5490, 18242.00
153.7750, 18141.00
155.0020, 18342.00
156.2290, 18386.00
157.4550, 18335.00
158.6810, 18285.00
159.9080, 18169.00
161.1340, 18053.00
162.3590, 18088.00
163.5850, 18182.00
164.8110, 18363.00
166.0360, 18120.00
167.2610, 18189.00
168.4860, 17945.00
169.7110, 17963.00
170.9360, 17999.00
172.1610, 17926.00
173.3850, 17592.00
174.6100, 17655.00
175.8340, 17561.00
177.0580, 17539.00
178.2820, 17803.00
179.5050, 18000.00
180.7290, 17759.00
181.9520, 17980.00
183.1760, 18081.00
184.3990, 18162.00
185.6220, 18549.00
186.8450, 18921.00
188.0670, 18996.00
189.2900, 19103.00
190.5120, 19669.00
191.7340, 19911.00
192.9560, 20217.00
194.1780, 20229.00
195.4000, 20598.00
196.6220, 20718.00
197.8430, 20793.00
199.0640, 21272.00
200.2860, 21637.00
201.5070, 21934.00
202.7270, 22078.00
203.9480, 22071.00
205.1690, 22038.00
206.3890, 22519.00
207.6090, 22834.00
208.8290, 23448.00
210.0490, 24365.00
211.2690, 25217.00
212.4890, 27016.00
213.7080, 28384.00
214.9280, 29877.00
216.1470, 31261.00
217.3660, 33032.00
218.5850, 34664.00
219.8030, 36187.00
221.0220, 37215.00
222.2400, 38093.00
223.4590, 38159.00
224.6770, 37638.00
225.8950, 36399.00
227.1120, 35271.00
228.3300, 33804.00
229.5480, 32595.00
230.7650, 31326.00
231.9820, 30403.00
233.1990, 29515.00
234.4160, 28747.00
235.6330, 28569.00
236.8490, 28347.00
238.0660, 28162.00
239.2820, 28209.00
240.4980, 28001.00
241.7140, 27845.00
242.9300, 27518.00
244.1460, 27249.00
245.3610, 26929.00
246.5770, 26623.00
247.7920, 25986.00
249.0070, 25472.00
250.2220, 24794.00
251.4370, 24249.00
252.6510, 23463.00
253.8660, 23288.00
255.0800, 23042.00
256.2940, 22644.00
257.5080, 22895.00
258.7220, 23535.00
259.9360, 23875.00
261.1490, 22734.00
262.3630, 21743.00
263.5760, 21563.00
264.7890, 21737.00
266.0020, 21743.00
267.2150, 21906.00
268.4270, 21913.00
269.6400, 21960.00
270.8520, 22241.00
272.0640, 22152.00
273.2760, 22425.00
274.4880, 22469.00
275.7000, 22430.00
276.9120, 22390.00
278.1230, 22516.00
279.3340, 22483.00
280.5450, 22297.00
281.7560, 22401.00
282.9670, 22300.00
284.1780, 22100.00
285.3880, 22049.00
286.5980, 22053.00
287.8090, 21955.00
289.0190, 21733.00
290.2290, 21485.00
291.4380, 21394.00
292.6480, 21354.00
293.8570, 21150.00
295.0670, 21215.00
296.2760, 21175.00
297.4850, 21190.00
298.6930, 21214.00
299.9020, 21255.00
301.1110, 21565.00
302.3190, 21611.50
303.5270, 21983.00
304.7350, 22026.00
305.9430, 22320.00
307.1510, 22774.00
308.3580, 22769.00
309.5660, 23062.00
310.7730, 23260.00
311.9800, 23502.00
313.1870, 23567.00
314.3940, 23829.00
315.6010, 23953.00
316.8070, 24357.00
318.0130, 24809.00
319.2200, 25023.00
320.4260, 25655.00
321.6310, 25998.00
322.8370, 26471.00
324.0430, 26875.00
325.2480, 27531.00
326.4540, 27911.74
327.6590, 28571.00
328.8640, 28792.00
330.0680, 29226.00
331.2730, 29631.00
332.4780, 29569.00
333.6820, 29935.00
334.8860, 29904.00
336.0900, 29685.00
337.2940, 29678.00
338.4980, 29728.00
339.7010, 29625.00
340.9050, 29444.00
342.1080, 29400.00
343.3110, 29657.00
344.5140, 29296.00
345.7170, 29246.00
346.9200, 29294.00
348.1220, 29020.00
349.3240, 29046.00
350.5270, 29174.00
351.7290, 29150.00
352.9310, 29222.00
354.1320, 29433.00
355.3340, 29849.00
356.5350, 30157.00
357.7370, 30606.00
358.9380, 31365.00
360.1390, 32063.00
361.3400, 32650.00
362.5400, 33482.00
363.7410, 34677.00
364.9410, 35870.00
366.1410, 37144.00
367.3410, 38707.00
368.5410, 40567.00
369.7410, 42372.00
370.9400, 44619.00
372.1400, 47177.00
373.3390, 49244.00
374.5380, 51282.00
375.7370, 52735.00
376.9360, 52959.00
378.1350, 52283.00
379.3330, 50815.00
380.5310, 48915.00
381.7300, 46722.00
382.9280, 43976.00
384.1260, 41671.00
385.3230, 39594.00
386.5210, 37768.29
387.7180, 35982.00
388.9160, 34866.00
390.1130, 33827.00
391.3100, 32771.00
392.5060, 32072.00
393.7030, 31714.00
394.9000, 31470.00
396.0960, 31202.57
397.2920, 31004.00
398.4880, 31033.00
399.6840, 30793.00
400.8800, 30762.00
402.0750, 30916.00
403.2710, 30904.00
404.4660, 31024.00
405.6610, 31513.00
406.8560, 31411.00
408.0510, 31539.00
409.2450, 31473.00
410.4400, 31240.00
411.6340, 30697.00
412.8280, 30395.00
414.0220, 29923.00
415.2160, 29335.00
416.4100, 28663.00
417.6030, 28050.00
418.7970, 27411.00
419.9900, 26925.98
421.1830, 26428.39
422.3760, 26038.00
423.5690, 25659.00
424.7610, 25285.00
425.9540, 25105.00
427.1460, 24973.00
428.3380, 24832.00
429.5300, 24657.00
430.7220, 24931.00
431.9140, 24777.00
433.1050, 24665.00
434.2970, 25062.00
435.4880, 24869.00
436.6790, 25084.00
437.8700, 25289.00
439.0610, 25194.00
440.2510, 25225.00
441.4420, 25589.00
442.6320, 25336.00
443.8220, 25770.00
445.0120, 25599.00
446.2020, 25799.00
447.3910, 25481.00
448.5810, 25640.00
449.7700, 25680.00
450.9600, 25531.00
452.1490, 25252.00
453.3370, 25327.00
454.5260, 25378.00
455.7150, 25248.00
456.9030, 25383.00
458.0910, 25400.00
459.2800, 25457.00
460.4670, 25572.00
461.6550, 25597.00
462.8430, 25608.00
464.0300, 25975.00
465.2180, 26106.00
466.4050, 26340.00
467.5920, 26458.45
468.7790, 26598.00
469.9650, 26563.00
471.1520, 26553.00
472.3380, 26495.00
473.5250, 26487.00
474.7110, 26424.00
475.8970, 26629.00
477.0820, 26323.00
478.2680, 26442.00
479.4540, 26377.00
480.6390, 26084.00
481.8240, 26208.00
483.0090, 26026.00
484.1940, 26109.00
485.3780, 26330.00
486.5630, 26123.00
487.7470, 26257.00
488.9320, 26119.00
490.1160, 26251.00
491.3000, 26025.00
492.4830, 26285.00
493.6670, 26264.00
494.8500, 26339.00
496.0340, 26222.00
497.2170, 26875.00
498.4000, 27251.00
499.5820, 27207.00
500.7650, 27028.00
501.9480, 27295.00
503.1300, 27183.00
504.3120, 27443.00
505.4940, 27453.00
506.6760, 27905.00
507.8580, 27731.00
509.0390, 27772.00
510.2210, 27895.00
511.4020, 27841.00
512.5830, 27959.00
513.7640, 27687.00
514.9450, 27906.00
516.1250, 27616.00
517.3060, 27403.00
518.4860, 27316.00
519.6660, 27123.26
520.8460, 27079.00
522.0260, 26975.00
523.2060, 26902.00
524.3850, 27019.00
525.5650, 26964.00
526.7440, 27269.00
527.9230, 27315.00
529.1020, 27599.00
530.2810, 27607.00
531.4590, 27812.00
532.6380, 28126.00
533.8160, 28343.00
534.9940, 28476.00
536.1720, 28807.00
537.3500, 28749.00
538.5270, 28935.00
539.7050, 29130.00
540.8820, 29363.00
542.0590, 29277.00
543.2360, 29277.00
544.4130, 29483.00
545.5900, 29562.00
546.7660, 29519.00
547.9430, 29801.00
549.1190, 29883.00
550.2950, 29406.00
551.4710, 29397.00
552.6470, 29389.00
553.8220, 29196.00
554.9980, 28946.00
556.1730, 28545.00
557.3480, 28355.00
558.5230, 28121.00
559.6980, 27759.00
560.8730, 27576.00
562.0470, 27401.00
563.2220, 27144.00
564.3960, 26819.00
565.5700, 26601.00
566.7440, 26339.00
567.9170, 26398.00
569.0910, 25931.00
570.2640, 25776.00
571.4380, 25472.00
572.6110, 25709.00
573.7840, 25528.00
574.9570, 25341.00
576.1290, 25327.00
577.3020, 25141.00
578.4740, 25183.00
579.6460, 25184.00
580.8180, 24934.00
581.9900, 24879.00
583.1620, 25064.00
584.3330, 24629.00
585.5040, 24726.00
586.6760, 24531.00
587.8470, 24795.00
589.0180, 24540.00
590.1880, 24879.00
591.3590, 24307.00
592.5290, 24218.00
593.7000, 24280.00
594.8700, 23999.00
596.0400, 24035.00
597.2090, 23925.00
598.3790, 23686.00
599.5490, 23714.00
600.7180, 23605.65
601.8870, 23569.88
603.0560, 23555.00
604.2250, 23526.00
605.3940, 23547.00
606.5620, 23456.00
607.7300, 23442.00
608.8990, 23304.00
610.0670, 23445.00
611.2350, 23500.00
612.4020, 23387.00
613.5700, 23178.00
614.7370, 23206.00
615.9050, 23378.00
617.0720, 23407.00
618.2390, 23454.00
619.4060, 23522.00
620.5720, 23360.00
621.7390, 23207.00
622.9050, 23490.00
624.0710, 23382.00
625.2370, 23476.00
626.4030, 23632.00
627.5690, 23705.00
628.7340, 23812.00
629.9000, 23989.00
631.0650, 24127.00
632.2300, 24127.00
633.3950, 24228.00
634.5600, 24401.00
635.7240, 24224.00
636.8890, 24689.00
638.0530, 24502.00
639.2170, 24411.00
640.3810, 24751.00
641.5450, 24552.00
642.7080, 24554.00
643.8720, 24561.00
645.0350, 24356.00
646.1980, 24467.00
647.3610, 24247.00
648.5240, 24047.00
649.6870, 24049.00
650.8490, 23992.00
652.0120, 24008.00
653.1740, 24095.00
654.3360, 24156.00
655.4980, 24153.00
656.6600, 24373.00
657.8210, 24227.00
658.9830, 24457.00
660.1440, 24282.00
661.3050, 24463.00
662.4660, 24365.00
663.6270, 24296.00
664.7870, 24135.00
665.9480, 24135.00
667.1080, 24384.00
668.2680, 24191.00
669.4280, 24213.00
670.5880, 23988.00
671.7480, 24026.00
672.9070, 23831.00
674.0670, 23742.00
675.2260, 23822.00
676.3850, 23801.00
677.5440, 23742.00
678.7030, 23565.00
679.8610, 23472.00
681.0200, 23440.00
682.1780, 23435.00
683.3360, 23266.00
684.4940, 23241.00
685.6520, 23146.00
686.8090, 23421.00
687.9670, 23228.00
689.1240, 23377.00
690.2810, 23450.00
691.4380, 23420.00
692.5950, 23624.00
693.7520, 23767.00
694.9080, 23998.00
696.0650, 24216.00
697.2210, 24237.00
698.3770, 24495.00
699.5330, 24723.00
700.6880, 25142.00
701.8440, 25371.00
702.9990, 25864.00
704.1550, 26256.60
705.3100, 26626.00
706.4650, 27194.00
707.6190, 27680.00
708.7740, 28242.00
709.9290, 29269.00
711.0830, 30017.00
712.2370, 31045.00
713.3910, 32243.00
714.5450, 33619.00
715.6980, 35435.00
716.8520, 37448.91
718.0050, 39507.00
719.1580, 42404.00
720.3110, 45196.00
721.4640, 48402.00
722.6170, 51542.00
723.7700, 54881.00
724.9220, 57905.00
726.0740, 60529.00
727.2260, 62556.00
728.3780, 63384.00
729.5300, 63357.00
730.6810, 62220.00
731.8330, 59899.00
732.9840, 57081.00
734.1350, 53688.00
735.2860, 50177.00
736.4370, 46449.00
737.5880, 43683.00
738.7380, 40919.00
739.8880, 38462.00
741.0390, 36576.00
742.1890, 35025.00
743.3380, 33919.00
744.4880, 32824.00
745.6380, 32013.00
746.7870, 31400.00
747.9360, 31041.00
749.0850, 30509.00
750.2340, 30346.00
751.3830, 30034.00
752.5310, 29873.00
753.6800, 29746.00
754.8280, 29810.00
755.9760, 29712.00
757.1240, 29632.00
758.2720, 29394.00
759.4190, 29195.00
760.5670, 28797.00
761.7140, 28371.00
762.8610, 27987.00
764.0080, 27638.37
765.1550, 27354.00
766.3020, 26960.00
767.4480, 26536.00
768.5950, 26161.00
769.7410, 25939.00
770.8870, 25402.00
772.0330, 25267.00
773.1780, 25011.00
774.3240, 24969.00
775.4690, 24778.00
776.6140, 24411.00
777.7590, 24235.00
778.9040, 24225.00
780.0490, 24341.00
781.1940, 24158.00
782.3380, 24185.00
783.4820, 24181.00
784.6260, 23980.00
785.7700, 24112.00
786.9140, 24058.00
788.0580, 24257.00
789.2010, 24430.00
790.3450, 24204.00
791.4880, 24133.00
792.6310, 24165.00
793.7730, 24533.00
794.9160, 24491.00
796.0590, 24734.00
797.2010, 24795.00
798.3430, 24758.00
799.4850, 24821.00
800.6270, 25031.00
801.7690, 25079.00
802.9100, 25314.00
804.0520, 25182.00
805.1930, 25256.00
806.3340, 24926.00
807.4750, 25040.00
808.6160, 24892.00
809.7560, 24805.00
810.8970, 24758.11
812.0370, 24648.70
813.1770, 24537.00
814.3170, 24553.00
815.4570, 24402.00
816.5960, 24473.00
817.7360, 24030.00
818.8750, 24386.00
820.0140, 24401.00
821.1530, 24584.00
822.2920, 24219.00
823.4310, 24601.00
824.5690, 24801.00
825.7070, 24763.00
826.8460, 25081.00
827.9840, 25313.00
829.1220, 25403.00
830.2590, 25881.00
831.3970, 26225.00
832.5340, 26193.00
833.6710, 26531.00
834.8080, 26667.00
835.9450, 27099.00
837.0820, 27125.00
838.2190, 26796.00
839.3550, 27136.00
840.4910, 27019.00
841.6270, 26592.00
842.7630, 26533.00
843.8990, 26198.00
845.0350, 26249.00
846.1700, 25973.00
847.3060, 25954.00
848.4410, 25734.00
849.5760, 25809.00
850.7100, 25872.00
851.8450, 25657.00
852.9800, 25805.00
854.1140, 25711.00
855.2480, 25535.00
856.3820, 25809.00
857.5160, 25595.00
858.6500, 25608.00
859.7830, 25776.00
860.9170, 25707.00
862.0500, 25544.00
863.1830, 25536.00
864.3160, 25523.00
865.4480, 25559.00
866.5810, 25531.11
867.7130, 25483.52
868.8460, 25458.00
869.9780, 25316.00
871.1100, 25169.00
872.2410, 25000.00
873.3730, 25054.00
874.5050, 25281.00
875.6360, 25142.00
876.7670, 25134.00
877.8980, 24682.00
879.0290, 25149.00
880.1590, 24893.00
881.2900, 24765.00
882.4200, 24970.00
883.5500, 24780.00
884.6800, 24819.00
885.8100, 24820.00
886.9400, 25031.00
888.0690, 24903.00
889.1990, 24940.00
890.3280, 24783.00
891.4570, 24671.00
892.5860, 25062.00
893.7140, 24705.00
894.8430, 24770.00
895.9710, 24862.00
897.1000, 24669.00
898.2280, 24918.00
899.3560, 24712.00
900.4830, 24681.00
901.6110, 24894.00
902.7380, 25007.00
903.8660, 24798.00
904.9930, 25013.00
906.1200, 24973.00
907.2460, 24710.00
908.3730, 24791.00
909.5000, 24692.00
910.6260, 24822.00
911.7520, 24882.00
912.8780, 24805.00
914.0040, 24937.00
915.1290, 25046.00
916.2550, 25143.00
917.3800, 25266.85
918.5050, 25336.00
919.6300, 25439.00
920.7550, 25362.00
921.8800, 25314.00
923.0040, 25560.00
924.1290, 25663.00
925.2530, 25813.00
926.3770, 25893.00
927.5010, 26166.00
928.6250, 26130.00
929.7480, 26175.00
930.8720, 26414.00
931.9950, 26505.00
933.1180, 26439.00
934.2410, 26511.00
935.3640, 26803.00
936.4860, 27044.00
937.6090, 27079.00
938.7310, 27098.00
939.8530, 27268.00
940.9750, 27366.00
942.0970, 27380.00
943.2180, 27286.00
944.3400, 27590.00
945.4610, 27621.00
946.5820, 27723.00
947.7030, 27556.00
948.8240, 27841.00
949.9450, 27920.00
951.0650, 27825.00
952.1860, 28073.00
953.3060, 28133.00
954.4260, 28085.00
955.5460, 28239.00
956.6650, 28281.00
957.7850, 28252.00
958.9040, 28252.00
960.0230, 28413.00
961.1420, 28401.00
962.2610, 28514.00
963.3800, 28579.59
964.4990, 28530.00
965.6170, 28738.00
966.7350, 28787.00
967.8530, 28930.00
968.9710, 28990.00
970.0890, 29026.00
971.2070, 29202.00
972.3240, 29057.00
973.4410, 29124.00
974.5580, 29285.05
975.6750, 29245.27
976.7920, 29327.29
977.9090, 29370.00
979.0250, 29340.00
980.1410, 29439.00
981.2580, 29354.00
982.3740, 29331.00
983.4890, 29276.00
984.6050, 29328.00
985.7200, 29290.00
986.8360, 29321.00
987.9510, 29083.00
989.0660, 29125.79
990.1810, 29139.00
991.2950, 29039.00
992.4100, 29162.00
993.5240, 29084.00
994.6390, 29118.00
995.7530, 29054.00
996.8660, 29065.86
997.9800, 29177.00
999.0940, 29173.00
1000.207, 29212.09
1001.320, 29338.00
1002.433, 29245.00
1003.546, 29239.00
1004.659, 29236.00
1005.772, 29384.00
1006.884, 29430.00
1007.996, 29618.00
1009.108, 29824.00
1010.220, 29888.00
1011.332, 30125.00
1012.444, 30123.00
1013.555, 30427.00
1014.666, 30653.00
1015.777, 30784.00
1016.888, 31159.00
1017.999, 31609.00
1019.110, 31855.00
1020.220, 32001.00
1021.331, 32025.00
1022.441, 32303.00
1023.551, 32563.00
1024.661, 32749.00
1025.770, 32564.00
1026.880, 32853.00
1027.989, 32989.00
1029.098, 33268.00
1030.207, 33413.00
1031.316, 33526.00
1032.425, 33970.00
1033.533, 34046.00
1034.642, 34174.00
1035.750, 34723.00
1036.858, 35181.00
1037.966, 35414.00
1039.073, 36035.00
1040.181, 36649.00
1041.288, 37261.00
1042.396, 37944.00
1043.503, 38831.00
1044.610, 39369.00
1045.716, 40384.00
1046.823, 41513.00
1047.929, 42390.00
1049.036, 43367.00
1050.142, 44406.00
1051.248, 45966.00
1052.353, 47769.00
1053.459, 49139.00
1054.564, 50673.00
1055.670, 52217.00
1056.775, 54090.00
1057.880, 55312.00
1058.985, 56492.00
1060.089, 58068.00
1061.194, 58704.00
1062.298, 59312.00
1063.402, 59178.00
1064.506, 58629.00
1065.610, 57852.00
1066.713, 56643.00
1067.817, 54770.00
1068.920, 53328.00
1070.023, 51184.00
1071.126, 49689.00
1072.229, 47191.00
1073.332, 45289.00
1074.435, 43472.00
1075.537, 42192.00
1076.639, 40476.00
1077.741, 39191.00
1078.843, 37793.00
1079.945, 37064.00
1081.046, 35978.00
1082.148, 34997.00
1083.249, 34061.00
1084.350, 33614.00
1085.451, 32979.00
1086.551, 32549.00
1087.652, 32064.00
1088.752, 31705.69
1089.853, 31258.00
1090.953, 31122.00
1092.053, 30994.00
1093.152, 30757.00
1094.252, 30646.37
1095.351, 30240.00
1096.451, 30329.00
1097.550, 30096.00
1098.649, 29876.00
1099.748, 29937.00
1100.846, 29887.00
1101.945, 29733.00
1103.043, 29706.00
1104.141, 29666.00
1105.239, 29599.00
1106.337, 29478.00
1107.434, 29415.19
1108.532, 29332.60
1109.629, 29166.00
1110.726, 29257.00
1111.823, 29005.00
1112.920, 29108.00
1114.017, 28994.00
1115.113, 29047.78
1116.210, 28954.00
1117.306, 29239.00
1118.402, 29259.00
1119.498, 29392.00
1120.593, 29258.00
1121.689, 29316.00
1122.784, 29257.00
1123.879, 29179.00
1124.974, 29151.00
1126.069, 28917.00
1127.164, 29153.00
1128.259, 28906.00
1129.353, 28815.00
1130.447, 28458.00
1131.541, 28711.00
1132.635, 28786.00
1133.729, 28487.00
1134.822, 28738.00
1135.916, 28703.00
1137.009, 28517.00
1138.102, 28641.00
1139.195, 28443.00
1140.288, 28175.00
1141.380, 28625.00
1142.473, 28565.00
1143.565, 28346.00
1144.657, 28407.00
1145.749, 28331.00
1146.841, 28165.00
1147.932, 28254.00
1149.024, 28141.00
1150.115, 28275.00
1151.206, 28075.00
1152.297, 27909.00
1153.388, 27965.00
1154.479, 28064.00
1155.569, 28210.00
1156.659, 27852.00
1157.750, 28159.00
1158.839, 28039.00
1159.929, 27932.00
1161.019, 28031.00
1162.108, 28211.00
1163.198, 27814.00
1164.287, 27930.00
1165.376, 27889.00
1166.465, 28509.00
1167.553, 28306.23
1168.642, 28657.00
1169.730, 28210.00
1170.818, 28091.00
1171.906, 27962.00
1172.994, 28049.00
1174.082, 28090.00
1175.170, 28102.00
1176.257, 27998.00
1177.344, 28181.00
1178.431, 28133.00
1179.518, 28213.00
1180.605, 27909.00
1181.691, 28140.00
1182.778, 28033.00
1183.864, 28009.00
1184.950, 28377.00
1186.036, 28346.00
1187.122, 28137.00
1188.207, 28465.00
1189.292, 28115.00
1190.378, 28170.00
1191.463, 28377.00
1192.548, 28239.00
1193.632, 28221.00
1194.717, 28481.00
1195.801, 28264.00
1196.886, 28368.00
1197.970, 28388.00
1199.054, 28408.00
1200.137, 28418.00
1201.221, 28321.00
1202.305, 28283.00
1203.388, 28549.00
1204.471, 28463.00
1205.554, 28472.00
1206.637, 28470.00
1207.719, 28300.00
1208.802, 28433.00
1209.884, 28691.00
1210.966, 28456.00
1212.048, 28596.00
1213.130, 28798.00
1214.212, 28719.00
1215.293, 28637.00
1216.374, 28647.00
1217.456, 28711.00
1218.536, 28814.00
1219.617, 28700.00
1220.698, 28656.00
1221.778, 28770.00
1222.859, 28767.00
1223.939, 28854.00
1225.019, 28819.00
1226.099, 28892.00
1227.178, 28930.00
1228.258, 28840.00
1229.337, 28902.00
1230.417, 28916.00
1231.496, 28905.00
1232.574, 28867.00
1233.653, 29042.00
1234.732, 28979.00
1235.810, 29172.00
1236.888, 29065.00
1237.966, 29103.00
1239.044, 28964.00
1240.122, 29253.00
1241.199, 29102.00
1242.277, 28976.00
1243.354, 29185.00
1244.431, 29101.00
1245.508, 29444.00
1246.585, 29066.00
1247.661, 29373.00
1248.738, 29453.00
1249.814, 29207.00
1250.890, 29153.00
1251.966, 29170.00
1253.042, 29151.00
1254.117, 29164.75
1255.193, 29229.35
1256.268, 29224.00
1257.343, 29342.00
1258.418, 29405.00
1259.493, 29379.00
1260.567, 29432.00
1261.642, 29315.00
1262.716, 29461.00
1263.790, 29283.00
1264.864, 29425.00
1265.938, 29606.00
1267.011, 29509.00
1268.085, 29563.00
1269.158, 29910.00
1270.231, 29726.00
1271.304, 29569.00
1272.377, 29621.00
1273.450, 29404.00
1274.522, 29531.00
1275.594, 29585.00
1276.666, 29592.00
1277.738, 29989.00
1278.810, 29854.00
1279.882, 29827.00
1280.953, 29589.00
1282.025, 29829.00
1283.096, 29776.00
1284.167, 29923.00
1285.238, 29736.00
1286.308, 29985.00
1287.379, 29978.00
