##NAMES=Elbaite
##RRUFFID=R060003
##IDEAL CHEMISTRY=Na(Al_1.5_Li_1.5_)Al_6_(Si_6_O_18_)(BO_3_)_3_(OH)_3_OH
##LOCALITY=Mount Begbie, Revelstoke, British Columbia, Canada
##OWNER=RRUFF
##SOURCE=Bob Downs
##DESCRIPTION=Pink crystal associated with trilithionite, R060004
##STATUS=The identification of this mineral has been confirmed by X-ray diffraction and chemical analysis
##URL=rruff.info/R060003
##MEASURED CHEMISTRY=(Na_0.58_[box]_0.42_)(Al_1.69_Li_1.27_Mn_0.04_)Al_6_(BO_3_)_3_[Si_6_O_18_](OH)_4_
##PIN_ID=M00450
##ORIENTATION=Laser parallel to -c* (0 0 -1). Fiducial mark perpendicular to laser is parallel to -a [-1 0 0]
167.2610, 16601.00
168.4860, 16729.00
169.7110, 16861.00
170.9360, 16989.00
172.1610, 16768.00
173.3850, 16920.00
174.6100, 17087.00
175.8340, 16965.00
177.0580, 17136.00
178.2820, 17147.00
179.5050, 17425.00
180.7290, 17359.00
181.9520, 17544.00
183.1760, 17709.00
184.3990, 17790.00
185.6220, 18097.00
186.8450, 18206.00
188.0670, 18357.00
189.2900, 18474.00
190.5120, 18875.00
191.7340, 19004.00
192.9560, 19329.00
194.1780, 19251.00
195.4000, 19475.00
196.6220, 19587.00
197.8430, 19763.00
199.0640, 19898.00
200.2860, 20139.00
201.5070, 20368.00
202.7270, 20428.00
203.9480, 20399.00
205.1690, 20301.00
206.3890, 20553.00
207.6090, 20732.00
208.8290, 21154.00
210.0490, 21490.00
211.2690, 22235.00
212.4890, 22701.00
213.7080, 23348.00
214.9280, 24307.00
216.1470, 25184.00
217.3660, 26242.00
218.5850, 27146.00
219.8030, 27996.00
221.0220, 28716.00
222.2400, 28958.00
223.4590, 29114.00
224.6770, 28693.00
225.8950, 27953.00
227.1120, 27275.00
228.3300, 26361.00
229.5480, 25430.00
230.7650, 25052.00
231.9820, 24631.00
233.1990, 24276.07
234.4160, 24303.00
235.6330, 24016.00
236.8490, 23948.00
238.0660, 24057.00
239.2820, 24302.00
240.4980, 24278.00
241.7140, 24283.00
242.9300, 24241.00
244.1460, 24280.00
245.3610, 24009.00
246.5770, 23694.00
247.7920, 23761.00
249.0070, 23324.00
250.2220, 22923.00
251.4370, 22709.00
252.6510, 22378.00
253.8660, 22140.00
255.0800, 22207.00
256.2940, 21901.00
257.5080, 22065.00
258.7220, 22260.00
259.9360, 22241.00
261.1490, 21827.00
262.3630, 21894.00
263.5760, 22014.00
264.7890, 22155.00
266.0020, 22337.00
267.2150, 22529.40
268.4270, 22575.00
269.6400, 22881.00
270.8520, 23068.00
272.0640, 23047.00
273.2760, 23090.00
274.4880, 23004.00
275.7000, 23021.08
276.9120, 23072.00
278.1230, 22988.00
279.3340, 22933.00
280.5450, 22896.00
281.7560, 22813.90
282.9670, 22849.00
284.1780, 22635.00
285.3880, 22568.00
286.5980, 22392.00
287.8090, 22030.00
289.0190, 22049.00
290.2290, 21743.00
291.4380, 21498.00
292.6480, 20974.00
293.8570, 21024.00
295.0670, 20870.00
296.2760, 20913.00
297.4850, 20686.00
298.6930, 21009.00
299.9020, 21014.00
301.1110, 21438.00
302.3190, 21418.00
303.5270, 21655.00
304.7350, 21976.00
305.9430, 22358.00
307.1510, 22427.00
308.3580, 22751.00
309.5660, 22649.00
310.7730, 22796.00
311.9800, 22976.00
313.1870, 22963.00
314.3940, 23170.00
315.6010, 23186.00
316.8070, 23318.00
318.0130, 23387.00
319.2200, 23656.00
320.4260, 23988.00
321.6310, 24451.00
322.8370, 24701.00
324.0430, 25078.00
325.2480, 25396.00
326.4540, 25713.00
327.6590, 25973.00
328.8640, 26228.00
330.0680, 26480.00
331.2730, 26343.00
332.4780, 26642.00
333.6820, 26376.00
334.8860, 26165.00
336.0900, 25901.00
337.2940, 25652.00
338.4980, 25629.00
339.7010, 25221.00
340.9050, 25089.00
342.1080, 24962.00
343.3110, 25004.00
344.5140, 24874.00
345.7170, 24827.00
346.9200, 25111.00
348.1220, 24903.00
349.3240, 25110.00
350.5270, 25157.00
351.7290, 25402.00
352.9310, 25697.00
354.1320, 26031.00
355.3340, 26509.00
356.5350, 27016.00
357.7370, 27477.00
358.9380, 28033.00
360.1390, 28614.00
361.3400, 29194.00
362.5400, 29907.00
363.7410, 30528.00
364.9410, 31522.00
366.1410, 32121.00
367.3410, 32692.00
368.5410, 33922.00
369.7410, 34547.00
370.9400, 35789.00
372.1400, 36575.00
373.3390, 37704.00
374.5380, 38164.00
375.7370, 39011.00
376.9360, 38843.00
378.1350, 38524.00
379.3330, 37865.00
380.5310, 37181.00
381.7300, 35702.00
382.9280, 34621.00
384.1260, 33536.00
385.3230, 32599.00
386.5210, 31460.00
387.7180, 30985.00
388.9160, 30140.00
390.1130, 29925.00
391.3100, 29240.00
392.5060, 29234.00
393.7030, 29129.00
394.9000, 28907.00
396.0960, 28933.00
397.2920, 29003.00
398.4880, 29049.00
399.6840, 29304.00
400.8800, 29385.00
402.0750, 29634.00
403.2710, 29743.00
404.4660, 29986.00
405.6610, 29923.00
406.8560, 29834.00
408.0510, 29680.00
409.2450, 29482.52
410.4400, 29268.00
411.6340, 28917.00
412.8280, 28651.00
414.0220, 28200.00
415.2160, 27765.89
416.4100, 27183.00
417.6030, 26831.00
418.7970, 26055.00
419.9900, 25684.00
421.1830, 25275.00
422.3760, 24917.00
423.5690, 24650.00
424.7610, 24475.00
425.9540, 24318.60
427.1460, 24238.00
428.3380, 24186.00
429.5300, 24157.00
430.7220, 24145.00
431.9140, 24084.00
433.1050, 24072.00
434.2970, 24358.00
435.4880, 24535.00
436.6790, 24424.00
437.8700, 24522.00
439.0610, 24619.00
440.2510, 24953.00
441.4420, 24984.00
442.6320, 25113.00
443.8220, 25333.00
445.0120, 25428.00
446.2020, 25596.00
447.3910, 25513.00
448.5810, 25804.00
449.7700, 25845.00
450.9600, 25721.00
452.1490, 25931.00
453.3370, 25821.00
454.5260, 25670.00
455.7150, 25572.00
456.9030, 25503.00
458.0910, 25574.00
459.2800, 25457.00
460.4670, 25377.00
461.6550, 25040.00
462.8430, 25176.00
464.0300, 25089.00
465.2180, 25103.00
466.4050, 25065.00
467.5920, 25128.00
468.7790, 25008.00
469.9650, 25029.33
471.1520, 25105.00
472.3380, 24982.00
473.5250, 25059.00
474.7110, 25019.00
475.8970, 25011.00
477.0820, 25084.00
478.2680, 25045.00
479.4540, 24963.00
480.6390, 25220.00
481.8240, 25262.00
483.0090, 25114.00
484.1940, 24978.00
485.3780, 25321.00
486.5630, 25028.00
487.7470, 25140.00
488.9320, 25367.00
490.1160, 25260.00
491.3000, 25393.00
492.4830, 25557.00
493.6670, 25663.00
494.8500, 25579.00
496.0340, 25499.00
497.2170, 25791.00
498.4000, 25961.00
499.5820, 25943.00
500.7650, 26232.00
501.9480, 26612.00
503.1300, 26674.00
504.3120, 27186.00
505.4940, 27054.00
506.6760, 27362.73
507.8580, 28106.00
509.0390, 27952.00
510.2210, 28258.00
511.4020, 28990.00
512.5830, 28927.37
513.7640, 29164.00
514.9450, 29264.00
516.1250, 29177.00
517.3060, 29178.00
518.4860, 29435.00
519.6660, 29445.00
520.8460, 29512.00
522.0260, 29185.00
523.2060, 29185.00
524.3850, 29105.00
525.5650, 29107.00
526.7440, 28962.00
527.9230, 28876.00
529.1020, 29019.00
530.2810, 29363.00
531.4590, 29882.00
532.6380, 30310.00
533.8160, 30286.00
534.9940, 30768.00
536.1720, 31059.00
537.3500, 31424.00
538.5270, 31524.00
539.7050, 31842.00
540.8820, 31907.00
542.0590, 31964.00
543.2360, 32023.93
544.4130, 32076.00
545.5900, 31947.00
546.7660, 31757.00
547.9430, 31660.00
549.1190, 31803.00
550.2950, 31952.00
551.4710, 31326.00
552.6470, 31429.00
553.8220, 31106.00
554.9980, 30999.00
556.1730, 30867.00
557.3480, 30768.00
558.5230, 30327.00
559.6980, 29822.00
560.8730, 29573.00
562.0470, 29341.00
563.2220, 28982.00
564.3960, 28781.00
565.5700, 28487.00
566.7440, 28116.00
567.9170, 27832.00
569.0910, 27772.00
570.2640, 27338.00
571.4380, 26960.00
572.6110, 27018.00
573.7840, 27080.00
574.9570, 26727.00
576.1290, 26535.00
577.3020, 26574.00
578.4740, 26384.00
579.6460, 26214.00
580.8180, 26144.00
581.9900, 26069.02
583.1620, 26023.00
584.3330, 26024.00
585.5040, 25927.02
586.6760, 25884.08
587.8470, 25929.00
589.0180, 25594.00
590.1880, 25747.00
591.3590, 25604.00
592.5290, 25726.00
593.7000, 25786.00
594.8700, 25544.00
596.0400, 25599.00
597.2090, 25666.00
598.3790, 25528.00
599.5490, 25560.00
600.7180, 25333.00
601.8870, 25409.00
603.0560, 25446.00
604.2250, 25644.00
605.3940, 25312.00
606.5620, 25335.00
607.7300, 25396.00
608.8990, 25481.00
610.0670, 25163.00
611.2350, 25341.00
612.4020, 25421.00
613.5700, 25112.00
614.7370, 25389.00
615.9050, 25158.00
617.0720, 25033.00
618.2390, 25350.00
619.4060, 25253.00
620.5720, 25119.00
621.7390, 25299.00
622.9050, 25051.00
624.0710, 25164.00
625.2370, 25199.00
626.4030, 25154.00
627.5690, 25363.00
628.7340, 25132.00
629.9000, 25540.00
631.0650, 25482.00
632.2300, 25352.00
633.3950, 25690.00
634.5600, 25624.00
635.7240, 25562.00
636.8890, 25822.00
638.0530, 25686.00
639.2170, 25755.00
640.3810, 25916.00
641.5450, 25686.00
642.7080, 25945.00
643.8720, 25659.00
645.0350, 25986.00
646.1980, 25998.00
647.3610, 26020.00
648.5240, 25822.00
649.6870, 26139.00
650.8490, 25936.00
652.0120, 25978.00
653.1740, 25955.00
654.3360, 25688.00
655.4980, 25766.76
656.6600, 25811.00
657.8210, 25820.00
658.9830, 25864.00
660.1440, 25945.84
661.3050, 26065.00
662.4660, 26137.00
663.6270, 26221.00
664.7870, 26330.00
665.9480, 26399.00
667.1080, 26430.81
668.2680, 26418.13
669.4280, 26510.00
670.5880, 26295.00
671.7480, 26418.00
672.9070, 26322.00
674.0670, 26460.00
675.2260, 26356.00
676.3850, 26318.00
677.5440, 26526.00
678.7030, 26158.00
679.8610, 26344.00
681.0200, 26074.00
682.1780, 26259.00
683.3360, 26045.00
684.4940, 26095.00
685.6520, 25999.00
686.8090, 26023.00
687.9670, 26237.00
689.1240, 26094.00
690.2810, 26139.00
691.4380, 26004.00
692.5950, 26186.00
693.7520, 26291.00
694.9080, 26194.00
696.0650, 26559.00
697.2210, 26603.00
698.3770, 26782.00
699.5330, 26783.00
700.6880, 26941.00
701.8440, 27267.00
702.9990, 27336.00
704.1550, 27693.00
705.3100, 27830.00
706.4650, 27776.63
707.6190, 28611.00
708.7740, 29265.31
709.9290, 29748.92
711.0830, 29550.11
712.2370, 30232.01
713.3910, 30560.96
714.5450, 30961.00
715.6980, 31783.00
716.8520, 32820.00
718.0050, 33610.00
719.1580, 34984.00
720.3110, 36543.00
721.4640, 38392.00
722.6170, 40326.00
723.7700, 42599.00
724.9220, 45123.00
726.0740, 47758.00
727.2260, 49736.00
728.3780, 51298.00
729.5300, 52352.00
730.6810, 52522.00
731.8330, 51981.00
732.9840, 49980.00
734.1350, 48263.00
735.2860, 46043.00
736.4370, 43709.00
737.5880, 41560.00
738.7380, 39642.00
739.8880, 38175.00
741.0390, 36738.00
742.1890, 35569.00
743.3380, 34865.00
744.4880, 34099.00
745.6380, 33353.00
746.7870, 32809.00
747.9360, 32212.00
749.0850, 32190.00
750.2340, 31932.00
751.3830, 31415.00
752.5310, 31439.00
753.6800, 31250.00
754.8280, 30869.00
755.9760, 30586.00
757.1240, 30697.00
758.2720, 30462.00
759.4190, 29959.00
760.5670, 30205.00
761.7140, 29577.00
762.8610, 29549.00
764.0080, 29333.00
765.1550, 29029.00
766.3020, 28852.00
767.4480, 28570.00
768.5950, 28558.00
769.7410, 28226.00
770.8870, 28093.00
772.0330, 27858.00
773.1780, 27779.00
774.3240, 27665.00
775.4690, 27636.00
776.6140, 27574.52
777.7590, 27588.00
778.9040, 27487.00
780.0490, 27501.00
781.1940, 27424.00
782.3380, 27525.00
783.4820, 27450.00
784.6260, 27596.00
785.7700, 27453.00
786.9140, 27508.00
788.0580, 27285.00
789.2010, 27602.00
790.3450, 27500.00
791.4880, 27625.00
792.6310, 27700.00
793.7730, 27682.00
794.9160, 27764.68
796.0590, 27723.00
797.2010, 27829.00
798.3430, 27929.00
799.4850, 27965.00
800.6270, 28027.00
801.7690, 28211.00
802.9100, 28074.00
804.0520, 28001.00
805.1930, 28151.00
806.3340, 28133.00
807.4750, 28289.00
808.6160, 27886.00
809.7560, 27659.00
810.8970, 27511.00
812.0370, 27363.24
813.1770, 27532.00
814.3170, 27357.00
815.4570, 27356.00
816.5960, 27557.00
817.7360, 27381.00
818.8750, 27543.00
820.0140, 27567.00
821.1530, 27939.00
822.2920, 27506.00
823.4310, 27715.00
824.5690, 27779.00
825.7070, 28130.00
826.8460, 27868.00
827.9840, 27878.00
829.1220, 27854.00
830.2590, 27703.00
831.3970, 27693.00
832.5340, 28083.00
833.6710, 27898.00
834.8080, 28045.00
835.9450, 28028.00
837.0820, 28078.00
838.2190, 28215.00
839.3550, 28207.00
840.4910, 28192.00
841.6270, 28238.00
842.7630, 28383.00
843.8990, 28430.00
845.0350, 28259.00
846.1700, 28423.00
847.3060, 28366.00
848.4410, 28440.00
849.5760, 28379.00
850.7100, 28487.00
851.8450, 28566.00
852.9800, 28723.00
854.1140, 28747.00
855.2480, 28763.00
856.3820, 28910.00
857.5160, 28913.00
858.6500, 29044.00
859.7830, 28863.00
860.9170, 29069.00
862.0500, 29133.00
863.1830, 29280.00
864.3160, 29401.00
865.4480, 29477.00
866.5810, 29486.00
867.7130, 29487.00
868.8460, 29631.00
869.9780, 29687.00
871.1100, 29502.00
872.2410, 29774.00
873.3730, 29656.00
874.5050, 29935.00
875.6360, 29803.00
876.7670, 29974.00
877.8980, 29979.00
879.0290, 30052.00
880.1590, 29804.00
881.2900, 29907.00
882.4200, 29489.00
883.5500, 29740.00
884.6800, 29512.00
885.8100, 29780.00
886.9400, 29861.00
888.0690, 29830.00
889.1990, 29521.00
890.3280, 29483.00
891.4570, 29505.00
892.5860, 29615.00
893.7140, 29389.00
894.8430, 29213.00
895.9710, 29550.00
897.1000, 29437.00
898.2280, 29648.00
899.3560, 29470.00
900.4830, 29524.00
901.6110, 29535.00
902.7380, 29653.00
903.8660, 29431.00
904.9930, 29555.00
906.1200, 29381.00
907.2460, 29475.00
908.3730, 29315.00
909.5000, 29649.00
910.6260, 29503.00
911.7520, 29558.00
912.8780, 29475.00
914.0040, 29811.00
915.1290, 29732.00
916.2550, 29673.00
917.3800, 29553.00
918.5050, 29725.00
919.6300, 29619.00
920.7550, 30056.00
921.8800, 30083.00
923.0040, 30247.00
924.1290, 30003.00
925.2530, 30216.00
926.3770, 30140.00
927.5010, 30383.00
928.6250, 30374.00
929.7480, 30452.00
930.8720, 30724.00
931.9950, 30601.00
933.1180, 30692.00
934.2410, 30853.00
935.3640, 30837.00
936.4860, 31166.00
937.6090, 31232.93
938.7310, 31509.00
939.8530, 31504.00
940.9750, 31363.00
942.0970, 31429.00
943.2180, 31394.00
944.3400, 31527.00
945.4610, 31598.00
946.5820, 31662.98
947.7030, 31825.00
948.8240, 31796.00
949.9450, 31894.00
951.0650, 31863.00
952.1860, 32078.00
953.3060, 31969.00
954.4260, 32117.00
955.5460, 32087.00
956.6650, 32248.00
957.7850, 32083.00
958.9040, 32323.00
960.0230, 32288.00
961.1420, 32127.00
962.2610, 32306.00
963.3800, 32500.00
964.4990, 32395.00
965.6170, 32533.00
966.7350, 32581.00
967.8530, 32575.00
968.9710, 32751.00
970.0890, 32820.00
971.2070, 33036.00
972.3240, 32877.00
973.4410, 33049.00
974.5580, 32926.00
975.6750, 33201.00
976.7920, 33249.00
977.9090, 33268.00
979.0250, 33502.00
980.1410, 33312.00
981.2580, 33274.00
982.3740, 33576.00
983.4890, 33557.00
984.6050, 33392.00
985.7200, 33546.00
986.8360, 33730.00
987.9510, 33513.00
989.0660, 33627.00
990.1810, 33466.00
991.2950, 33522.00
992.4100, 33428.00
993.5240, 33418.00
994.6390, 33364.00
995.7530, 33442.00
996.8660, 33442.00
997.9800, 33392.00
999.0940, 33474.00
1000.207, 33600.00
1001.320, 33788.00
1002.433, 33638.00
1003.546, 33810.00
1004.659, 33724.00
1005.772, 33739.00
1006.884, 33965.00
1007.996, 33928.00
1009.108, 33834.00
1010.220, 34012.00
1011.332, 34322.00
1012.444, 34036.00
1013.555, 34536.00
1014.666, 34564.00
1015.777, 34766.00
1016.888, 34698.00
1017.999, 34679.00
1019.110, 34966.00
1020.220, 35203.00
1021.331, 35362.00
1022.441, 35441.00
1023.551, 35824.00
1024.661, 35721.00
1025.770, 36109.00
1026.880, 36390.00
1027.989, 36128.00
1029.098, 36284.00
1030.207, 36750.00
1031.316, 36721.00
1032.425, 36802.00
1033.533, 36857.00
1034.642, 37241.00
1035.750, 37213.00
1036.858, 37378.00
1037.966, 37434.00
1039.073, 37557.00
1040.181, 37721.00
1041.288, 37943.00
1042.396, 38059.00
1043.503, 38314.00
1044.610, 38738.00
1045.716, 38905.00
1046.823, 39106.00
1047.929, 39791.00
1049.036, 39775.00
1050.142, 40474.00
1051.248, 40658.00
1052.353, 41278.00
1053.459, 41762.00
1054.564, 42209.00
1055.670, 42904.00
1056.775, 43497.00
1057.880, 44453.00
1058.985, 45070.00
1060.089, 45863.00
1061.194, 46977.00
1062.298, 47894.00
1063.402, 48741.00
1064.506, 49252.00
1065.610, 50117.00
1066.713, 50701.00
1067.817, 50625.00
1068.920, 51155.00
1070.023, 50454.00
1071.126, 50083.00
1072.229, 49479.00
1073.332, 48889.00
1074.435, 47836.00
1075.537, 46823.00
1076.639, 45641.00
1077.741, 44561.00
1078.843, 43724.00
1079.945, 42600.00
1081.046, 41997.00
1082.148, 41501.00
1083.249, 40475.00
1084.350, 39692.00
1085.451, 39027.00
1086.551, 38518.00
1087.652, 38186.00
1088.752, 37481.00
1089.853, 36952.00
1090.953, 36806.00
1092.053, 36770.00
1093.152, 36638.00
1094.252, 36287.00
1095.351, 36255.00
1096.451, 36134.00
1097.550, 36010.00
1098.649, 36153.00
1099.748, 35983.00
1100.846, 35743.00
1101.945, 35514.00
1103.043, 35568.00
1104.141, 35530.00
1105.239, 35458.00
1106.337, 35377.00
1107.434, 35579.00
1108.532, 35498.00
1109.629, 35326.00
1110.726, 35404.00
1111.823, 35160.00
1112.920, 35366.00
1114.017, 35225.00
1115.113, 35465.00
1116.210, 35217.00
1117.306, 35333.00
1118.402, 35502.00
1119.498, 35120.00
1120.593, 35346.00
1121.689, 35483.00
1122.784, 35340.00
1123.879, 35431.00
1124.974, 35384.00
1126.069, 35296.00
1127.164, 35333.00
1128.259, 35192.00
1129.353, 35427.00
1130.447, 35034.00
1131.541, 35341.00
1132.635, 35458.00
1133.729, 35298.00
1134.822, 35324.00
1135.916, 35235.00
1137.009, 35145.00
1138.102, 35503.00
1139.195, 35330.00
1140.288, 35387.00
1141.380, 35518.00
1142.473, 35303.00
1143.565, 35335.00
1144.657, 35344.00
1145.749, 35260.00
1146.841, 35421.00
1147.932, 35484.00
1149.024, 35255.00
1150.115, 35133.00
1151.206, 35222.00
1152.297, 35410.00
1153.388, 35396.00
1154.479, 35234.00
1155.569, 35150.00
1156.659, 35510.00
1157.750, 35176.00
1158.839, 35456.00
1159.929, 35171.00
1161.019, 35273.00
1162.108, 35339.00
1163.198, 35451.00
1164.287, 35342.00
1165.376, 35664.00
1166.465, 35162.00
1167.553, 35475.00
1168.642, 35569.00
1169.730, 35469.00
1170.818, 35717.00
1171.906, 35678.00
1172.994, 35708.00
1174.082, 35770.00
1175.170, 35653.00
1176.257, 35772.00
1177.344, 35793.55
1178.431, 35849.00
1179.518, 35897.00
1180.605, 35794.00
1181.691, 35767.00
1182.778, 35778.00
1183.864, 35768.86
1184.950, 35799.66
1186.036, 35859.00
1187.122, 35906.00
1188.207, 36006.00
1189.292, 36127.00
1190.378, 36077.00
1191.463, 36038.00
1192.548, 36333.00
1193.632, 36141.00
1194.717, 35975.00
1195.801, 36169.00
1196.886, 36347.00
1197.970, 36492.00
1199.054, 36408.00
1200.137, 36255.00
1201.221, 36407.00
1202.305, 36390.00
1203.388, 36362.00
1204.471, 36504.00
1205.554, 36600.00
1206.637, 36719.00
1207.719, 36533.00
1208.802, 36734.00
1209.884, 36502.00
1210.966, 36442.00
1212.048, 36564.00
1213.130, 36557.29
1214.212, 36645.00
1215.293, 36742.00
1216.374, 37013.00
1217.456, 36979.00
1218.536, 36779.00
1219.617, 37001.00
1220.698, 36939.00
1221.778, 36839.00
1222.859, 36806.00
1223.939, 36974.00
1225.019, 36917.00
1226.099, 36986.00
1227.178, 37011.00
1228.258, 36994.00
1229.337, 37299.00
1230.417, 37400.00
1231.496, 37416.00
1232.574, 37304.00
1233.653, 37249.00
1234.732, 37435.00
1235.810, 37431.00
1236.888, 37517.00
1237.966, 37466.00
1239.044, 37356.00
1240.122, 37616.00
1241.199, 37694.00
1242.277, 37532.00
1243.354, 37552.00
1244.431, 37660.00
1245.508, 37747.00
1246.585, 37827.00
1247.661, 37821.71
1248.738, 37871.00
1249.814, 37774.00
1250.890, 37669.00
1251.966, 37650.00
1253.042, 38028.00
1254.117, 37705.00
1255.193, 38028.00
1256.268, 37893.00
1257.343, 37616.00
1258.418, 37880.00
1259.493, 37981.00
1260.567, 37972.00
1261.642, 38118.00
1262.716, 38303.00
1263.790, 38222.00
1264.864, 38396.00
1265.938, 38364.00
1267.011, 38393.00
1268.085, 38384.00
1269.158, 38374.00
1270.231, 38515.00
1271.304, 38454.02
1272.377, 38458.00
1273.450, 38512.00
1274.522, 38382.00
1275.594, 38576.00
1276.666, 38778.00
1277.738, 38453.00
1278.810, 38857.00
1279.882, 38702.00
1280.953, 38645.00
1282.025, 38737.00
1283.096, 38830.00
1284.167, 38817.00
1285.238, 38809.00
1286.308, 38761.00
1287.379, 38686.00
1288.449, 39082.00
1289.519, 39136.00
1290.589, 39180.00
1291.659, 38967.00
1292.729, 39119.00
1293.798, 39003.00
1294.868, 39250.00
1295.937, 39257.00
1297.006, 39099.00
1298.075, 39343.00
1299.143, 39251.00
1300.212, 39360.00
1301.280, 39384.00
1302.348, 39287.00
1303.416, 39441.00
1304.484, 39384.00
1305.552, 39445.00
1306.620, 39432.00
1307.687, 39462.00
1308.754, 39464.00
1309.821, 39471.39
1310.888, 39675.00
1311.955, 39565.00
1313.021, 39588.00
1314.088, 39800.00
1315.154, 39755.00
1316.220, 39819.74
1317.286, 39772.00
1318.352, 39867.00
1319.417, 39860.00
1320.483, 39923.00
1321.548, 40058.00
1322.613, 39861.00
1323.678, 40058.00
1324.743, 39922.00
1325.807, 39974.00
1326.872, 40353.00
1327.936, 40209.00
1329.000, 40259.00
1330.064, 40460.00
1331.128, 40457.00
1332.191, 40138.00
1333.255, 40358.00
