##NAMES=Elbaite
##RRUFFID=R060560
##IDEAL CHEMISTRY=Na(Al_1.5_Li_1.5_)Al_6_(Si_6_O_18_)(BO_3_)_3_(OH)_3_OH
##LOCALITY=California, USA
##OWNER=RRUFF
##SOURCE=Gemological Institute of America
##DESCRIPTION=Pink fragment
##STATUS=The identification of this mineral has been confirmed by X-ray diffraction and chemical analysis
##URL=rruff.info/R060560
##MEASURED CHEMISTRY=(Na_0.56_Ca_0.12_[box]_0.32_)(Al_1.60_Li_1.40_)Al_6_(BO_3_)_3_[Si_6_O_18_](OH)_4_
##PIN_ID=L01799
##ORIENTATION=Laser parallel to -a* (-1 0 0). Fiducial mark perpendicular to laser is parallel to -c [0 0 -1]
118.1340, 12297.00
119.3650, 12188.00
120.5960, 12111.00
121.8270, 12242.00
123.0580, 12314.00
124.2880, 12521.00
125.5190, 12375.00
126.7490, 12544.00
127.9790, 12611.00
129.2090, 12702.00
130.4390, 12959.00
131.6680, 13224.00
132.8980, 13158.00
134.1270, 13328.00
135.3560, 13352.00
136.5850, 13668.00
137.8140, 13676.00
139.0430, 14063.00
140.2710, 14163.00
141.5000, 14226.00
142.7280, 14291.00
143.9560, 14338.00
145.1840, 14377.00
146.4120, 14335.00
147.6390, 14618.00
148.8670, 14732.00
150.0940, 14755.00
151.3210, 14808.47
152.5490, 14748.00
153.7750, 14654.00
155.0020, 14678.00
156.2290, 14465.00
157.4550, 14364.00
158.6810, 14086.00
159.9080, 14044.00
161.1340, 14050.00
162.3590, 14008.00
163.5850, 14238.00
164.8110, 14430.00
166.0360, 14391.00
167.2610, 14534.00
168.4860, 14627.00
169.7110, 14696.00
170.9360, 14742.00
172.1610, 14859.00
173.3850, 14854.20
174.6100, 14801.00
175.8340, 14879.00
177.0580, 14913.00
178.2820, 14949.11
179.5050, 14916.00
180.7290, 14943.00
181.9520, 14937.00
183.1760, 14918.00
184.3990, 15137.00
185.6220, 15106.00
186.8450, 15185.00
188.0670, 15548.00
189.2900, 15768.00
190.5120, 16037.00
191.7340, 16255.00
192.9560, 16497.00
194.1780, 17106.00
195.4000, 17370.00
196.6220, 17813.00
197.8430, 18147.00
199.0640, 18748.00
200.2860, 19382.00
201.5070, 19932.00
202.7270, 20312.00
203.9480, 20677.00
205.1690, 21413.00
206.3890, 21966.00
207.6090, 23015.00
208.8290, 24126.00
210.0490, 25338.77
211.2690, 26775.65
212.4890, 28328.00
213.7080, 30040.00
214.9280, 31871.00
216.1470, 33938.00
217.3660, 36001.00
218.5850, 38184.00
219.8030, 40489.00
221.0220, 42137.00
222.2400, 43473.00
223.4590, 43768.00
224.6770, 43394.00
225.8950, 42397.00
227.1120, 41215.00
228.3300, 39045.00
229.5480, 37009.00
230.7650, 35448.00
231.9820, 34091.89
233.1990, 33079.00
234.4160, 32338.00
235.6330, 31958.00
236.8490, 31877.00
238.0660, 32007.00
239.2820, 32043.00
240.4980, 31906.00
241.7140, 32493.00
242.9300, 32870.00
244.1460, 32801.00
245.3610, 32865.00
246.5770, 33075.00
247.7920, 32762.00
249.0070, 32366.00
250.2220, 31720.00
251.4370, 31067.00
252.6510, 29988.00
253.8660, 29222.00
255.0800, 28345.00
256.2940, 27969.00
257.5080, 27649.00
258.7220, 27099.21
259.9360, 27217.00
261.1490, 26403.00
262.3630, 26175.00
263.5760, 25994.00
264.7890, 26036.00
266.0020, 26025.00
267.2150, 26080.00
268.4270, 26390.00
269.6400, 26276.00
270.8520, 26277.00
272.0640, 26351.00
273.2760, 26066.00
274.4880, 25995.00
275.7000, 25800.00
276.9120, 25145.00
278.1230, 24698.00
279.3340, 23982.00
280.5450, 23370.00
281.7560, 22847.00
282.9670, 22159.00
284.1780, 21510.00
285.3880, 21120.00
286.5980, 20645.00
287.8090, 20256.65
289.0190, 19832.00
290.2290, 19643.00
291.4380, 19365.00
292.6480, 19176.00
293.8570, 19014.21
295.0670, 18631.00
296.2760, 18721.00
297.4850, 18596.00
298.6930, 18439.00
299.9020, 18706.00
301.1110, 18615.00
302.3190, 18646.00
303.5270, 19038.00
304.7350, 19168.00
305.9430, 19201.00
307.1510, 19626.00
308.3580, 19761.00
309.5660, 20321.00
310.7730, 20456.00
311.9800, 20704.00
313.1870, 21337.00
314.3940, 21450.00
315.6010, 21448.00
316.8070, 21521.00
318.0130, 21299.00
319.2200, 21318.39
320.4260, 21168.00
321.6310, 21151.00
322.8370, 21135.00
324.0430, 21004.00
325.2480, 21181.00
326.4540, 21082.00
327.6590, 21183.00
328.8640, 21445.00
330.0680, 21307.00
331.2730, 21433.00
332.4780, 21388.00
333.6820, 21469.00
334.8860, 21479.00
336.0900, 21385.00
337.2940, 21347.00
338.4980, 21558.00
339.7010, 21661.00
340.9050, 21866.00
342.1080, 22089.09
343.3110, 22290.13
344.5140, 22512.00
345.7170, 22823.00
346.9200, 22918.00
348.1220, 23280.00
349.3240, 23579.00
350.5270, 24108.00
351.7290, 24163.00
352.9310, 24640.00
354.1320, 25045.00
355.3340, 25832.00
356.5350, 26452.00
357.7370, 27302.00
358.9380, 28248.00
360.1390, 29700.00
361.3400, 31202.00
362.5400, 33247.00
363.7410, 35571.00
364.9410, 38113.00
366.1410, 40957.00
367.3410, 43791.00
368.5410, 47323.00
369.7410, 50206.00
370.9400, 53438.00
372.1400, 56060.00
373.3390, 57735.00
374.5380, 57982.10
375.7370, 58429.00
376.9360, 55677.00
378.1350, 53221.00
379.3330, 49577.00
380.5310, 46201.00
381.7300, 42957.00
382.9280, 40082.00
384.1260, 37789.00
385.3230, 35742.35
386.5210, 34135.00
387.7180, 32908.00
388.9160, 31856.00
390.1130, 31283.00
391.3100, 30827.00
392.5060, 30615.00
393.7030, 30667.00
394.9000, 30648.00
396.0960, 30916.00
397.2920, 30989.00
398.4880, 31389.00
399.6840, 31550.00
400.8800, 32076.00
402.0750, 32383.00
403.2710, 32597.00
404.4660, 32497.00
405.6610, 32904.00
406.8560, 32900.00
408.0510, 32728.00
409.2450, 31993.00
410.4400, 31618.00
411.6340, 30605.00
412.8280, 29786.00
414.0220, 28945.00
415.2160, 27945.00
416.4100, 27115.00
417.6030, 26147.99
418.7970, 25124.00
419.9900, 24321.00
421.1830, 23412.00
422.3760, 22671.00
423.5690, 22281.00
424.7610, 21845.00
425.9540, 21513.00
427.1460, 21201.86
428.3380, 20885.00
429.5300, 20689.00
430.7220, 20664.00
431.9140, 20495.87
433.1050, 20293.00
434.2970, 20187.00
435.4880, 19996.00
436.6790, 19870.00
437.8700, 20003.00
439.0610, 19869.00
440.2510, 20119.00
441.4420, 19860.00
442.6320, 20027.00
443.8220, 19749.00
445.0120, 20056.00
446.2020, 19966.00
447.3910, 20015.00
448.5810, 19853.00
449.7700, 19850.00
450.9600, 19837.00
452.1490, 19736.00
453.3370, 19715.00
454.5260, 19691.31
455.7150, 19658.00
456.9030, 19684.00
458.0910, 19575.00
459.2800, 19606.00
460.4670, 19634.00
461.6550, 19581.00
462.8430, 19654.00
464.0300, 19632.00
465.2180, 19608.00
466.4050, 19608.00
467.5920, 19736.00
468.7790, 19696.00
469.9650, 19722.00
471.1520, 19638.00
472.3380, 19568.00
473.5250, 19466.00
474.7110, 19603.00
475.8970, 19765.00
477.0820, 19801.00
478.2680, 19712.00
479.4540, 19651.00
480.6390, 19835.00
481.8240, 19920.00
483.0090, 20119.00
484.1940, 20055.00
485.3780, 20156.00
486.5630, 20322.00
487.7470, 20607.00
488.9320, 20577.00
490.1160, 20745.00
491.3000, 20879.00
492.4830, 21286.00
493.6670, 21191.00
494.8500, 21590.00
496.0340, 21826.00
497.2170, 21901.00
498.4000, 22238.00
499.5820, 22576.00
500.7650, 22805.00
501.9480, 23151.00
503.1300, 23460.00
504.3120, 23533.00
505.4940, 23981.00
506.6760, 24111.00
507.8580, 24601.00
509.0390, 24775.00
510.2210, 24949.00
511.4020, 25363.00
512.5830, 25565.00
513.7640, 25702.00
514.9450, 25801.00
516.1250, 26109.00
517.3060, 25856.00
518.4860, 26040.00
519.6660, 25778.00
520.8460, 25856.00
522.0260, 25488.00
523.2060, 24985.00
524.3850, 24762.00
525.5650, 24530.00
526.7440, 24331.00
527.9230, 24156.24
529.1020, 23896.00
530.2810, 23867.00
531.4590, 23603.00
532.6380, 23508.00
533.8160, 23640.00
534.9940, 23718.00
536.1720, 23730.00
537.3500, 23622.00
538.5270, 23686.00
539.7050, 23606.00
540.8820, 23278.00
542.0590, 23284.00
543.2360, 23130.00
544.4130, 23113.00
545.5900, 23000.00
546.7660, 22721.00
547.9430, 22481.00
549.1190, 22467.00
550.2950, 22461.00
551.4710, 22249.00
552.6470, 22369.00
553.8220, 22150.00
554.9980, 22199.00
556.1730, 21923.00
557.3480, 21816.00
558.5230, 21736.00
559.6980, 21831.00
560.8730, 21922.00
562.0470, 21800.00
563.2220, 21727.00
564.3960, 21678.00
565.5700, 21528.00
566.7440, 21488.00
567.9170, 21505.00
569.0910, 21725.00
570.2640, 21517.00
571.4380, 21670.00
572.6110, 21605.00
573.7840, 21497.00
574.9570, 21727.00
576.1290, 21653.00
577.3020, 21599.00
578.4740, 21844.00
579.6460, 21918.00
580.8180, 21841.00
581.9900, 21845.00
583.1620, 22043.00
584.3330, 22028.00
585.5040, 21884.00
586.6760, 22090.00
587.8470, 21987.00
589.0180, 22117.00
590.1880, 22213.00
591.3590, 22226.00
592.5290, 22210.25
593.7000, 22090.00
594.8700, 22062.00
596.0400, 22174.00
597.2090, 22106.00
598.3790, 21881.00
599.5490, 22190.00
600.7180, 21978.00
601.8870, 22229.00
603.0560, 21988.00
604.2250, 21985.00
605.3940, 21978.00
606.5620, 21946.00
607.7300, 22043.00
608.8990, 22202.00
610.0670, 22164.00
611.2350, 21949.00
612.4020, 22336.00
613.5700, 22071.00
614.7370, 22297.00
615.9050, 22469.00
617.0720, 22373.00
618.2390, 22619.00
619.4060, 22785.00
620.5720, 22751.00
621.7390, 23057.00
622.9050, 23267.00
624.0710, 23496.00
625.2370, 23803.00
626.4030, 24318.00
627.5690, 24559.00
628.7340, 25073.00
629.9000, 25422.00
631.0650, 26187.00
632.2300, 26927.00
633.3950, 27389.00
634.5600, 27749.00
635.7240, 28548.00
636.8890, 28838.00
638.0530, 29230.00
639.2170, 29868.00
640.3810, 29866.00
641.5450, 30011.00
642.7080, 29693.00
643.8720, 29316.00
645.0350, 29149.00
646.1980, 28763.00
647.3610, 28427.00
648.5240, 28129.00
649.6870, 27948.00
650.8490, 27658.00
652.0120, 27559.00
653.1740, 26916.00
654.3360, 26690.00
655.4980, 26690.00
656.6600, 26202.00
657.8210, 26204.00
658.9830, 25720.00
660.1440, 25531.00
661.3050, 25326.00
662.4660, 24864.00
663.6270, 24507.00
664.7870, 24202.00
665.9480, 23986.00
667.1080, 23633.00
668.2680, 23561.00
669.4280, 23330.00
670.5880, 23115.00
671.7480, 23173.00
672.9070, 23144.00
674.0670, 23203.00
675.2260, 23071.00
676.3850, 22977.00
677.5440, 23196.00
678.7030, 22936.00
679.8610, 23052.00
681.0200, 23093.00
682.1780, 22933.00
683.3360, 23009.00
684.4940, 23167.00
685.6520, 23407.00
686.8090, 23481.00
687.9670, 23749.00
689.1240, 24019.00
690.2810, 24507.00
691.4380, 24863.42
692.5950, 25195.00
693.7520, 25815.00
694.9080, 26314.00
696.0650, 26910.00
697.2210, 27790.00
698.3770, 28790.00
699.5330, 29870.00
700.6880, 31295.00
701.8440, 32613.00
702.9990, 34268.00
704.1550, 35720.00
705.3100, 37108.00
706.4650, 38751.00
707.6190, 40238.00
708.7740, 40900.00
709.9290, 41975.00
711.0830, 42111.00
712.2370, 42294.00
713.3910, 41424.00
714.5450, 40346.00
715.6980, 39014.00
716.8520, 37568.00
718.0050, 36164.00
719.1580, 34645.00
720.3110, 33005.00
721.4640, 31533.00
722.6170, 30539.00
723.7700, 29814.00
724.9220, 28981.00
726.0740, 28239.00
727.2260, 27666.00
728.3780, 27298.00
729.5300, 26826.00
730.6810, 26747.00
731.8330, 26646.00
732.9840, 26563.00
734.1350, 26699.00
735.2860, 26867.00
736.4370, 26689.00
737.5880, 26986.00
738.7380, 27083.00
739.8880, 27537.00
741.0390, 28022.00
742.1890, 28389.00
743.3380, 28689.54
744.4880, 28990.64
745.6380, 29176.00
746.7870, 29272.00
747.9360, 29500.00
749.0850, 29263.00
750.2340, 29152.00
751.3830, 28974.00
752.5310, 28499.00
753.6800, 27982.00
754.8280, 27318.00
755.9760, 26738.00
757.1240, 26475.00
758.2720, 26042.00
759.4190, 25761.00
760.5670, 25300.00
761.7140, 24970.00
762.8610, 24754.00
764.0080, 24515.00
765.1550, 24323.00
766.3020, 24072.00
767.4480, 23823.00
768.5950, 23650.00
769.7410, 23543.00
770.8870, 23449.00
772.0330, 23341.00
773.1780, 23367.00
774.3240, 23274.00
775.4690, 23193.00
776.6140, 23253.00
777.7590, 23187.00
778.9040, 23203.00
780.0490, 23135.00
781.1940, 23230.00
782.3380, 22976.00
783.4820, 22967.00
784.6260, 22790.00
785.7700, 22882.00
786.9140, 22616.00
788.0580, 22821.00
789.2010, 22777.00
790.3450, 22633.00
791.4880, 22666.00
792.6310, 22424.00
793.7730, 22579.00
794.9160, 22697.00
796.0590, 22570.00
797.2010, 22418.00
798.3430, 22538.00
799.4850, 22559.00
800.6270, 22341.00
801.7690, 22285.00
802.9100, 22255.00
804.0520, 22117.00
805.1930, 22293.00
806.3340, 22330.00
807.4750, 22416.00
808.6160, 22194.00
809.7560, 22541.00
810.8970, 22163.00
812.0370, 22214.00
813.1770, 22248.00
814.3170, 22459.00
815.4570, 22259.00
816.5960, 22378.00
817.7360, 22414.00
818.8750, 22397.00
820.0140, 22558.00
821.1530, 22333.00
822.2920, 22380.00
823.4310, 22272.00
824.5690, 22270.00
825.7070, 22509.00
826.8460, 22520.00
827.9840, 22529.00
829.1220, 22679.00
830.2590, 22568.00
831.3970, 22713.00
832.5340, 22657.00
833.6710, 22675.00
834.8080, 22853.00
835.9450, 22748.00
837.0820, 22688.00
838.2190, 22645.00
839.3550, 22614.92
840.4910, 22695.00
841.6270, 22619.00
842.7630, 22861.00
843.8990, 22914.00
845.0350, 22884.00
846.1700, 22950.00
847.3060, 23060.00
848.4410, 23028.00
849.5760, 22795.00
850.7100, 23178.00
851.8450, 22874.00
852.9800, 22993.00
854.1140, 23015.66
855.2480, 23190.15
856.3820, 23311.23
857.5160, 23381.74
858.6500, 23250.30
859.7830, 23379.60
860.9170, 23404.44
862.0500, 23424.94
863.1830, 23590.95
864.3160, 23488.83
865.4480, 23652.49
866.5810, 23710.08
867.7130, 23816.19
868.8460, 23817.18
869.9780, 23850.62
871.1100, 23989.24
872.2410, 24069.57
873.3730, 24058.41
874.5050, 24167.61
875.6360, 24109.00
876.7670, 24124.00
877.8980, 24131.00
879.0290, 24015.00
880.1590, 24132.00
881.2900, 23997.00
882.4200, 24048.00
883.5500, 24182.00
884.6800, 24158.00
885.8100, 24110.00
886.9400, 24099.00
888.0690, 24135.00
889.1990, 24333.00
890.3280, 24347.00
891.4570, 24413.38
892.5860, 24395.67
893.7140, 24455.00
894.8430, 24227.00
895.9710, 24162.00
897.1000, 23989.00
898.2280, 24204.00
899.3560, 24119.00
900.4830, 24100.00
901.6110, 24173.00
902.7380, 24148.00
903.8660, 24046.00
904.9930, 24253.00
906.1200, 24257.00
907.2460, 24200.00
908.3730, 24113.00
909.5000, 24293.00
910.6260, 24169.00
911.7520, 24404.00
912.8780, 24377.00
914.0040, 24539.00
915.1290, 24544.00
916.2550, 24500.00
917.3800, 24534.00
918.5050, 24577.00
919.6300, 24749.00
920.7550, 24668.00
921.8800, 24604.00
923.0040, 24724.00
924.1290, 24934.00
925.2530, 25063.00
926.3770, 24903.00
927.5010, 25067.00
928.6250, 25072.00
929.7480, 25136.00
930.8720, 25334.00
931.9950, 25295.00
933.1180, 25442.00
934.2410, 25458.00
935.3640, 25595.00
936.4860, 25475.00
937.6090, 25710.00
938.7310, 25731.00
939.8530, 25876.00
940.9750, 25943.00
942.0970, 26046.00
943.2180, 25984.00
944.3400, 26126.00
945.4610, 26462.00
946.5820, 26702.00
947.7030, 27007.00
948.8240, 26828.00
949.9450, 26963.00
951.0650, 26876.00
952.1860, 27010.00
953.3060, 27235.00
954.4260, 27633.00
955.5460, 28185.00
956.6650, 27957.00
957.7850, 28049.00
958.9040, 27999.00
960.0230, 28476.00
961.1420, 28631.00
962.2610, 28789.00
963.3800, 29303.00
964.4990, 29344.00
965.6170, 29677.00
966.7350, 29591.00
967.8530, 29862.00
968.9710, 30131.00
970.0890, 30132.00
971.2070, 30017.00
972.3240, 30454.00
973.4410, 30456.00
974.5580, 30601.00
975.6750, 30732.00
976.7920, 31192.00
977.9090, 30993.00
979.0250, 31158.00
980.1410, 30918.00
981.2580, 31003.00
982.3740, 31007.00
983.4890, 30981.00
984.6050, 31004.00
985.7200, 30917.00
986.8360, 31041.00
987.9510, 31090.00
989.0660, 31255.00
990.1810, 31181.00
991.2950, 31206.07
992.4100, 31096.00
993.5240, 31148.00
994.6390, 31257.00
995.7530, 31298.00
996.8660, 31239.00
997.9800, 31228.00
999.0940, 31229.59
1000.207, 31147.00
1001.320, 31214.00
1002.433, 31127.00
1003.546, 31106.00
1004.659, 31024.00
1005.772, 30821.00
1006.884, 30966.00
1007.996, 30767.00
1009.108, 30703.00
1010.220, 30808.00
1011.332, 30839.00
1012.444, 30758.00
1013.555, 30775.60
1014.666, 30698.00
1015.777, 30705.00
1016.888, 30578.00
1017.999, 30600.00
1019.110, 30638.00
1020.220, 30727.00
1021.331, 30842.00
1022.441, 30805.00
1023.551, 30934.00
1024.661, 30978.00
1025.770, 30877.00
1026.880, 30831.00
1027.989, 30845.00
1029.098, 30557.00
1030.207, 30823.00
1031.316, 30518.00
1032.425, 30540.00
1033.533, 30591.00
1034.642, 30720.00
1035.750, 30378.00
1036.858, 30708.00
1037.966, 30495.00
1039.073, 30575.00
1040.181, 30614.00
1041.288, 30889.00
1042.396, 30892.00
1043.503, 30879.00
1044.610, 31152.00
1045.716, 31194.00
1046.823, 31476.00
1047.929, 31724.00
1049.036, 31543.00
1050.142, 31900.00
1051.248, 31837.00
1052.353, 31906.00
1053.459, 32529.00
1054.564, 32565.00
1055.670, 32893.00
1056.775, 33048.00
1057.880, 33054.00
1058.985, 33274.00
1060.089, 33376.00
1061.194, 33650.00
1062.298, 33693.00
1063.402, 33734.00
1064.506, 34057.00
1065.610, 34157.00
1066.713, 34477.00
1067.817, 34347.00
1068.920, 34513.00
1070.023, 34596.00
1071.126, 34565.00
1072.229, 34775.00
1073.332, 34857.00
1074.435, 34745.00
1075.537, 34982.00
1076.639, 35107.00
1077.741, 35035.00
1078.843, 35313.00
1079.945, 35313.00
1081.046, 35384.00
1082.148, 35539.00
1083.249, 35603.00
1084.350, 35709.00
1085.451, 35704.00
1086.551, 35883.00
1087.652, 35904.00
1088.752, 36195.00
1089.853, 36144.00
1090.953, 35976.00
1092.053, 36330.00
1093.152, 36177.00
1094.252, 35857.00
1095.351, 35934.00
1096.451, 35618.00
1097.550, 35186.00
1098.649, 35190.00
1099.748, 34891.00
1100.846, 34669.00
1101.945, 34463.64
1103.043, 34012.00
1104.141, 33857.00
1105.239, 33664.00
1106.337, 33207.00
1107.434, 33052.00
1108.532, 32877.00
1109.629, 32722.00
1110.726, 32528.00
1111.823, 32194.00
1112.920, 32104.00
1114.017, 31947.00
1115.113, 32096.00
1116.210, 31845.00
1117.306, 32468.00
1118.402, 32549.00
1119.498, 32651.00
1120.593, 32485.00
1121.689, 32290.00
1122.784, 32470.00
1123.879, 32216.00
1124.974, 31923.00
1126.069, 31545.00
1127.164, 31130.00
1128.259, 30714.00
1129.353, 30519.00
1130.447, 30409.00
1131.541, 30438.00
1132.635, 30226.00
1133.729, 30076.00
1134.822, 29946.00
1135.916, 29835.69
1137.009, 29747.61
1138.102, 29761.00
1139.195, 29632.00
1140.288, 29761.00
1141.380, 29767.00
1142.473, 29594.00
1143.565, 29731.00
1144.657, 29646.00
1145.749, 29406.00
1146.841, 29289.00
1147.932, 29527.00
1149.024, 29303.00
1150.115, 29442.00
1151.206, 29182.00
1152.297, 29166.00
1153.388, 29028.00
1154.479, 29076.00
1155.569, 29111.00
1156.659, 29162.00
1157.750, 29041.00
1158.839, 29093.00
1159.929, 28904.00
1161.019, 29066.00
1162.108, 28987.00
1163.198, 29111.00
1164.287, 28949.00
1165.376, 29080.00
1166.465, 29252.00
1167.553, 29050.00
1168.642, 29124.00
1169.730, 29035.00
1170.818, 29087.00
1171.906, 28924.00
1172.994, 29169.00
1174.082, 29170.00
1175.170, 28987.00
1176.257, 29321.00
1177.344, 29309.00
1178.431, 29374.00
1179.518, 29085.00
1180.605, 29278.00
1181.691, 29335.00
1182.778, 29318.00
1183.864, 29329.00
1184.950, 29280.00
1186.036, 29437.00
1187.122, 29327.00
1188.207, 29594.00
1189.292, 29365.00
1190.378, 29428.00
1191.463, 29416.00
1192.548, 29364.72
1193.632, 29569.00
1194.717, 29452.00
1195.801, 29467.00
1196.886, 29682.00
1197.970, 29579.00
1199.054, 29504.00
1200.137, 29696.00
1201.221, 29763.00
1202.305, 29870.00
1203.388, 29767.00
1204.471, 29757.00
1205.554, 29755.00
1206.637, 29733.80
1207.719, 29750.87
1208.802, 29774.00
1209.884, 29803.00
1210.966, 29862.00
1212.048, 29939.00
1213.130, 30008.00
1214.212, 29921.00
1215.293, 29987.00
1216.374, 29986.00
1217.456, 30058.00
1218.536, 29931.00
1219.617, 30060.00
1220.698, 29925.00
1221.778, 29893.00
1222.859, 30274.00
1223.939, 30186.00
1225.019, 30275.00
1226.099, 30393.00
1227.178, 30337.00
1228.258, 30328.00
1229.337, 30367.00
1230.417, 30209.00
1231.496, 30191.00
1232.574, 30501.00
1233.653, 30221.00
1234.732, 30187.00
1235.810, 30499.00
1236.888, 30450.00
1237.966, 30555.00
1239.044, 30559.00
1240.122, 30325.00
1241.199, 30580.00
1242.277, 30560.00
1243.354, 30449.00
1244.431, 30716.00
1245.508, 30706.00
1246.585, 30487.00
1247.661, 30769.00
1248.738, 30638.00
1249.814, 30743.00
1250.890, 30902.00
1251.966, 30607.00
1253.042, 30817.00
1254.117, 30636.00
1255.193, 30914.00
1256.268, 31160.00
1257.343, 30879.00
1258.418, 31017.00
1259.493, 31101.00
1260.567, 30735.00
1261.642, 30942.00
1262.716, 31124.00
1263.790, 30864.00
1264.864, 31011.00
1265.938, 30878.00
1267.011, 31113.00
1268.085, 31093.00
1269.158, 31117.00
1270.231, 31073.00
1271.304, 31031.00
1272.377, 31031.57
1273.450, 31186.00
1274.522, 31014.00
1275.594, 31178.00
1276.666, 31214.00
1277.738, 31202.00
1278.810, 31362.00
1279.882, 31235.00
1280.953, 31358.00
1282.025, 31523.00
1283.096, 31475.00
1284.167, 31503.00
1285.238, 31481.00
1286.308, 31412.00
1287.379, 31472.55
1288.449, 31460.00
1289.519, 31531.00
1290.589, 31507.00
1291.659, 31498.00
1292.729, 31519.00
1293.798, 31610.00
