##NAMES=Elbaite
##RRUFFID=R050260
##IDEAL CHEMISTRY=Na(Al_1.5_Li_1.5_)Al_6_(Si_6_O_18_)(BO_3_)_3_(OH)_3_OH
##LOCALITY=Minas Gerais, Brazil
##OWNER=RRUFF
##SOURCE=Marcus Origlieri
##DESCRIPTION=Greenish-gray prismatic single crystal
##STATUS=The identification of this mineral has been confirmed by X-ray diffraction and chemical analysis
##URL=rruff.info/R050260
##MEASURED CHEMISTRY=(Na_0.76_[box]_0.17_Ca_0.07_)_Σ=1_(Al_1.67_Li_0.97_Mn_0.36_)_Σ=3_Al_6.00_(B_1.00_O_3_)_3_Si_6.00_O_18_((OH)_3.40_F_0.60_)_Σ=4_; B assumed by stoichiometry; OH estimated by charge balance
##PIN_ID=L01093
##ORIENTATION=Laser parallel to c* (0 0 1). Fiducial mark perpendicular to laser is parallel to -a [-1 0 0]
118.1340, 13367.00
119.3650, 13697.00
120.5960, 13627.00
121.8270, 13758.00
123.0580, 14274.00
124.2880, 14699.00
125.5190, 14581.00
126.7490, 14599.00
127.9790, 14896.00
129.2090, 14978.00
130.4390, 15298.00
131.6680, 15449.00
132.8980, 15301.00
134.1270, 15057.00
135.3560, 14950.00
136.5850, 14830.00
137.8140, 14844.00
139.0430, 14724.00
140.2710, 14842.00
141.5000, 14532.00
142.7280, 14254.00
143.9560, 14293.00
145.1840, 14320.00
146.4120, 14449.00
147.6390, 14592.15
148.8670, 14723.00
150.0940, 15080.00
151.3210, 15331.00
152.5490, 15804.00
153.7750, 15694.00
155.0020, 15739.00
156.2290, 15749.00
157.4550, 15609.00
158.6810, 15602.00
159.9080, 15553.00
161.1340, 15490.00
162.3590, 15577.00
163.5850, 15726.00
164.8110, 15839.00
166.0360, 15598.00
167.2610, 15459.00
168.4860, 15355.00
169.7110, 15243.00
170.9360, 15226.00
172.1610, 15137.30
173.3850, 15052.00
174.6100, 15061.00
175.8340, 15001.00
177.0580, 15027.00
178.2820, 15119.00
179.5050, 15290.00
180.7290, 15440.00
181.9520, 15417.00
183.1760, 15622.00
184.3990, 15776.00
185.6220, 16067.00
186.8450, 16300.00
188.0670, 16508.33
189.2900, 16753.40
190.5120, 16958.00
191.7340, 17149.00
192.9560, 17383.00
194.1780, 17495.00
195.4000, 17797.00
196.6220, 18084.00
197.8430, 18073.00
199.0640, 18402.00
200.2860, 18859.00
201.5070, 19035.00
202.7270, 19183.00
203.9480, 19232.00
205.1690, 19410.00
206.3890, 19501.00
207.6090, 19911.00
208.8290, 20701.00
210.0490, 21599.00
211.2690, 22583.00
212.4890, 23899.00
213.7080, 25027.00
214.9280, 26468.00
216.1470, 28024.00
217.3660, 29590.00
218.5850, 31166.00
219.8030, 32376.00
221.0220, 33382.00
222.2400, 33775.00
223.4590, 33822.00
224.6770, 33515.00
225.8950, 32306.00
227.1120, 31114.00
228.3300, 29694.00
229.5480, 28562.00
230.7650, 27643.00
231.9820, 26614.00
233.1990, 25943.00
234.4160, 25458.00
235.6330, 25275.00
236.8490, 24934.00
238.0660, 24828.00
239.2820, 24703.19
240.4980, 24488.11
241.7140, 24478.00
242.9300, 24194.00
244.1460, 23851.00
245.3610, 23733.00
246.5770, 23082.00
247.7920, 22747.00
249.0070, 22073.00
250.2220, 21552.00
251.4370, 21257.00
252.6510, 20815.00
253.8660, 20238.00
255.0800, 19902.00
256.2940, 19556.00
257.5080, 19726.00
258.7220, 19576.44
259.9360, 19299.37
261.1490, 19569.00
262.3630, 18911.00
263.5760, 18561.00
264.7890, 18728.00
266.0020, 18966.00
267.2150, 19036.00
268.4270, 19188.00
269.6400, 19037.00
270.8520, 19473.00
272.0640, 19260.00
273.2760, 19491.00
274.4880, 19407.00
275.7000, 19631.00
276.9120, 19512.00
278.1230, 19628.00
279.3340, 19426.00
280.5450, 19424.00
281.7560, 19267.00
282.9670, 19271.00
284.1780, 19198.00
285.3880, 19119.00
286.5980, 18973.00
287.8090, 18906.06
289.0190, 18744.00
290.2290, 18671.00
291.4380, 18638.00
292.6480, 18417.00
293.8570, 18417.00
295.0670, 18268.00
296.2760, 18313.00
297.4850, 18229.00
298.6930, 18229.00
299.9020, 18660.00
301.1110, 18660.00
302.3190, 19027.00
303.5270, 19061.00
304.7350, 19328.00
305.9430, 19558.00
307.1510, 19665.00
308.3580, 20003.00
309.5660, 20062.00
310.7730, 20086.00
311.9800, 20401.00
313.1870, 20561.00
314.3940, 20794.00
315.6010, 20914.00
316.8070, 21288.00
318.0130, 21523.00
319.2200, 21782.00
320.4260, 22381.00
321.6310, 22772.00
322.8370, 23151.00
324.0430, 23750.00
325.2480, 23997.00
326.4540, 24596.00
327.6590, 25129.00
328.8640, 25265.00
330.0680, 25669.00
331.2730, 25798.00
332.4780, 26014.00
333.6820, 26028.00
334.8860, 26196.00
336.0900, 26197.13
337.2940, 25881.00
338.4980, 26142.00
339.7010, 25897.00
340.9050, 25778.00
342.1080, 25726.00
343.3110, 25684.00
344.5140, 25623.00
345.7170, 25648.00
346.9200, 25608.00
348.1220, 25412.00
349.3240, 25608.00
350.5270, 25484.00
351.7290, 25594.00
352.9310, 25610.00
354.1320, 25923.00
355.3340, 26327.00
356.5350, 26437.00
357.7370, 27008.00
358.9380, 27627.00
360.1390, 28235.00
361.3400, 28775.00
362.5400, 29756.00
363.7410, 30733.00
364.9410, 31766.00
366.1410, 33268.00
367.3410, 34703.00
368.5410, 36639.00
369.7410, 38357.00
370.9400, 40289.00
372.1400, 42639.00
373.3390, 44269.00
374.5380, 46487.00
375.7370, 47333.00
376.9360, 47468.00
378.1350, 46798.00
379.3330, 45357.00
380.5310, 43397.00
381.7300, 41035.00
382.9280, 38756.00
384.1260, 36341.00
385.3230, 34406.00
386.5210, 32597.00
387.7180, 31668.00
388.9160, 30521.00
390.1130, 29559.00
391.3100, 28941.00
392.5060, 28247.00
393.7030, 27899.00
394.9000, 27477.00
396.0960, 27257.00
397.2920, 27192.00
398.4880, 27048.00
399.6840, 26983.00
400.8800, 27136.00
402.0750, 27201.00
403.2710, 27286.00
404.4660, 27393.00
405.6610, 27578.00
406.8560, 27596.00
408.0510, 27477.00
409.2450, 27400.44
410.4400, 27155.00
411.6340, 26986.00
412.8280, 26531.00
414.0220, 26249.00
415.2160, 25569.00
416.4100, 24832.00
417.6030, 24288.00
418.7970, 23664.00
419.9900, 23275.00
421.1830, 22925.00
422.3760, 22595.00
423.5690, 22310.66
424.7610, 22043.17
425.9540, 21872.00
427.1460, 21705.67
428.3380, 21577.00
429.5300, 21534.80
430.7220, 21477.00
431.9140, 21511.00
433.1050, 21451.00
434.2970, 21564.00
435.4880, 21610.00
436.6790, 21599.00
437.8700, 21652.00
439.0610, 21718.93
440.2510, 22039.00
441.4420, 21993.00
442.6320, 21945.00
443.8220, 22309.00
445.0120, 22437.00
446.2020, 22077.00
447.3910, 22159.00
448.5810, 21994.00
449.7700, 21919.00
450.9600, 22006.00
452.1490, 22108.00
453.3370, 22035.00
454.5260, 22060.00
455.7150, 22059.00
456.9030, 22047.36
458.0910, 21771.00
459.2800, 22088.00
460.4670, 22032.00
461.6550, 22105.00
462.8430, 22367.00
464.0300, 22440.00
465.2180, 22560.00
466.4050, 22670.00
467.5920, 22689.00
468.7790, 22802.39
469.9650, 23026.00
471.1520, 22953.00
472.3380, 22961.00
473.5250, 23024.00
474.7110, 22915.00
475.8970, 22951.00
477.0820, 22963.00
478.2680, 22996.00
479.4540, 22927.07
480.6390, 22812.00
481.8240, 22734.00
483.0090, 22642.00
484.1940, 22471.00
485.3780, 22776.00
486.5630, 22689.00
487.7470, 22718.00
488.9320, 22672.00
490.1160, 22656.00
491.3000, 22742.00
492.4830, 22961.00
493.6670, 23009.00
494.8500, 22967.00
496.0340, 22982.00
497.2170, 23060.00
498.4000, 23139.05
499.5820, 23503.00
500.7650, 23421.00
501.9480, 23714.00
503.1300, 23918.00
504.3120, 23932.00
505.4940, 24142.00
506.6760, 24012.00
507.8580, 24288.00
509.0390, 24500.00
510.2210, 24332.00
511.4020, 24314.00
512.5830, 24161.00
513.7640, 24195.00
514.9450, 24151.00
516.1250, 24135.00
517.3060, 23780.00
518.4860, 23832.00
519.6660, 23628.00
520.8460, 23526.00
522.0260, 23565.00
523.2060, 23401.00
524.3850, 23463.00
525.5650, 23405.00
526.7440, 23417.00
527.9230, 23624.00
529.1020, 23855.00
530.2810, 24063.00
531.4590, 24386.00
532.6380, 24343.00
533.8160, 24549.00
534.9940, 24769.00
536.1720, 25130.00
537.3500, 25259.00
538.5270, 25276.00
539.7050, 25593.00
540.8820, 25401.00
542.0590, 25425.00
543.2360, 25807.00
544.4130, 25769.00
545.5900, 25576.00
546.7660, 25765.00
547.9430, 25715.00
549.1190, 25633.00
550.2950, 25622.00
551.4710, 25586.00
552.6470, 25193.00
553.8220, 25121.00
554.9980, 24845.00
556.1730, 24631.00
557.3480, 24465.00
558.5230, 24225.00
559.6980, 23945.00
560.8730, 23634.00
562.0470, 23499.00
563.2220, 23188.00
564.3960, 23076.00
565.5700, 22746.00
566.7440, 22602.00
567.9170, 22235.00
569.0910, 22309.00
570.2640, 22153.00
571.4380, 21986.00
572.6110, 21894.00
573.7840, 21818.00
574.9570, 21672.00
576.1290, 21581.00
577.3020, 21629.00
578.4740, 21370.00
579.6460, 21634.00
580.8180, 21399.00
581.9900, 21390.00
583.1620, 21316.00
584.3330, 21193.48
585.5040, 21080.00
586.6760, 21043.00
587.8470, 21027.00
589.0180, 21002.00
590.1880, 20876.00
591.3590, 20708.00
592.5290, 20967.00
593.7000, 20561.00
594.8700, 20642.00
596.0400, 20675.00
597.2090, 20316.00
598.3790, 20244.00
599.5490, 20346.00
600.7180, 20231.00
601.8870, 20238.88
603.0560, 20228.00
604.2250, 20212.00
605.3940, 20248.00
606.5620, 20295.00
607.7300, 20128.00
608.8990, 19892.00
610.0670, 20191.00
611.2350, 20130.00
612.4020, 19891.00
613.5700, 19968.00
614.7370, 19799.00
615.9050, 19961.00
617.0720, 19997.00
618.2390, 20060.00
619.4060, 19892.00
620.5720, 20084.00
621.7390, 19900.00
622.9050, 19960.00
624.0710, 20073.00
625.2370, 20090.00
626.4030, 20195.00
627.5690, 20311.00
628.7340, 20329.00
629.9000, 20387.00
631.0650, 20540.00
632.2300, 20650.00
633.3950, 20756.00
634.5600, 20892.00
635.7240, 20856.00
636.8890, 21165.00
638.0530, 21132.00
639.2170, 21179.00
640.3810, 21420.00
641.5450, 21063.00
642.7080, 21327.00
643.8720, 21055.00
645.0350, 20806.00
646.1980, 20772.00
647.3610, 20706.00
648.5240, 20733.00
649.6870, 20645.00
650.8490, 20685.01
652.0120, 20694.41
653.1740, 20752.00
654.3360, 20782.00
655.4980, 20830.00
656.6600, 20931.00
657.8210, 20696.00
658.9830, 20820.00
660.1440, 20991.00
661.3050, 21013.00
662.4660, 20724.00
663.6270, 20729.00
664.7870, 20723.00
665.9480, 20849.00
667.1080, 20686.00
668.2680, 20569.00
669.4280, 20565.00
670.5880, 20591.00
671.7480, 20402.00
672.9070, 20424.00
674.0670, 20377.00
675.2260, 20502.00
676.3850, 20263.00
677.5440, 20348.00
678.7030, 20032.00
679.8610, 20176.00
681.0200, 20199.00
682.1780, 19874.00
683.3360, 19922.00
684.4940, 20022.00
685.6520, 19786.00
686.8090, 19840.00
687.9670, 19882.00
689.1240, 19897.00
690.2810, 19840.00
691.4380, 20082.00
692.5950, 20134.00
693.7520, 20377.00
694.9080, 20479.00
696.0650, 20649.00
697.2210, 20838.19
698.3770, 21066.84
699.5330, 21246.00
700.6880, 21577.00
701.8440, 21903.00
702.9990, 22117.00
704.1550, 22646.00
705.3100, 22952.00
706.4650, 23386.00
707.6190, 23980.00
708.7740, 24635.00
709.9290, 25345.00
711.0830, 26209.00
712.2370, 27204.00
713.3910, 28254.00
714.5450, 29769.00
715.6980, 31325.00
716.8520, 33239.67
718.0050, 35416.85
719.1580, 37760.00
720.3110, 40508.00
721.4640, 43354.00
722.6170, 46551.00
723.7700, 49508.00
724.9220, 52112.00
726.0740, 54360.00
727.2260, 56584.00
728.3780, 57540.00
729.5300, 57163.00
730.6810, 55833.00
731.8330, 53326.00
732.9840, 50228.00
734.1350, 47431.00
735.2860, 43758.00
736.4370, 40680.00
737.5880, 37904.00
738.7380, 35405.00
739.8880, 33387.00
741.0390, 31857.00
742.1890, 30376.00
743.3380, 29258.00
744.4880, 28379.00
745.6380, 27581.00
746.7870, 27108.00
747.9360, 26932.00
749.0850, 26524.00
750.2340, 26241.00
751.3830, 26030.00
752.5310, 25970.00
753.6800, 25711.00
754.8280, 25838.00
755.9760, 25645.00
757.1240, 25649.00
758.2720, 25323.00
759.4190, 25089.00
760.5670, 24737.00
761.7140, 24499.00
762.8610, 24086.00
764.0080, 23701.00
765.1550, 23354.00
766.3020, 23077.00
767.4480, 22711.00
768.5950, 22439.00
769.7410, 22082.00
770.8870, 21870.00
772.0330, 21539.00
773.1780, 21211.00
774.3240, 20965.00
775.4690, 21037.00
776.6140, 20824.00
777.7590, 20604.00
778.9040, 20812.00
780.0490, 20710.00
781.1940, 20557.00
782.3380, 20461.00
783.4820, 20506.00
784.6260, 20372.00
785.7700, 20590.00
786.9140, 20470.00
788.0580, 20618.00
789.2010, 20802.00
790.3450, 20755.00
791.4880, 20632.00
792.6310, 20792.00
793.7730, 20965.00
794.9160, 20819.00
796.0590, 20945.00
797.2010, 21143.00
798.3430, 21024.00
799.4850, 21318.00
800.6270, 21425.00
801.7690, 21746.00
802.9100, 21716.77
804.0520, 21638.00
805.1930, 21573.00
806.3340, 21353.00
807.4750, 21084.00
808.6160, 21059.00
809.7560, 20966.00
810.8970, 20712.00
812.0370, 20606.00
813.1770, 20590.00
814.3170, 20561.00
815.4570, 20615.00
816.5960, 20471.00
817.7360, 20493.00
818.8750, 20681.00
820.0140, 20816.00
821.1530, 20752.00
822.2920, 20736.00
823.4310, 20961.00
824.5690, 21119.00
825.7070, 21019.00
826.8460, 21447.00
827.9840, 21530.00
829.1220, 21740.00
830.2590, 22228.00
831.3970, 22297.42
832.5340, 22555.71
833.6710, 22768.00
834.8080, 22847.00
835.9450, 23237.00
837.0820, 23310.00
838.2190, 23260.00
839.3550, 23768.00
840.4910, 23017.00
841.6270, 22737.00
842.7630, 22565.00
843.8990, 22578.00
845.0350, 22252.00
846.1700, 22144.00
847.3060, 22130.00
848.4410, 22058.00
849.5760, 21834.00
850.7100, 21794.00
851.8450, 21582.00
852.9800, 21692.00
854.1140, 21791.00
855.2480, 21930.00
856.3820, 21736.00
857.5160, 21803.00
858.6500, 21990.00
859.7830, 21757.00
860.9170, 21904.00
862.0500, 21741.00
863.1830, 21786.00
864.3160, 21704.00
865.4480, 21713.00
866.5810, 21666.00
867.7130, 21481.00
868.8460, 21255.00
869.9780, 21435.00
871.1100, 21372.00
872.2410, 21092.00
873.3730, 21203.00
874.5050, 21294.00
875.6360, 21239.00
876.7670, 21331.00
877.8980, 21528.00
879.0290, 21368.11
880.1590, 21376.62
881.2900, 21183.00
882.4200, 21173.00
883.5500, 21137.00
884.6800, 21087.00
885.8100, 21155.00
886.9400, 21172.00
888.0690, 21117.00
889.1990, 21030.00
890.3280, 20866.00
891.4570, 20933.38
892.5860, 21116.00
893.7140, 21003.00
894.8430, 21071.00
895.9710, 21052.00
897.1000, 21122.00
898.2280, 21101.00
899.3560, 21030.00
900.4830, 21122.00
901.6110, 20954.00
902.7380, 21068.00
903.8660, 20819.00
904.9930, 21015.00
906.1200, 21085.00
907.2460, 21103.00
908.3730, 21191.00
909.5000, 21014.00
910.6260, 20963.00
911.7520, 21098.00
912.8780, 21111.00
914.0040, 21317.00
915.1290, 21147.00
916.2550, 21368.00
917.3800, 21207.00
918.5050, 21507.00
919.6300, 21542.00
920.7550, 21722.00
921.8800, 21652.00
923.0040, 21784.00
924.1290, 21854.00
925.2530, 21903.00
926.3770, 22057.00
927.5010, 22243.00
928.6250, 22103.00
929.7480, 22128.00
930.8720, 22487.00
931.9950, 22658.00
933.1180, 22619.00
934.2410, 22889.00
935.3640, 22835.00
936.4860, 23202.00
937.6090, 22975.00
938.7310, 22897.00
939.8530, 23094.00
940.9750, 23407.00
942.0970, 23418.00
943.2180, 23513.00
944.3400, 23522.00
945.4610, 23555.00
946.5820, 23585.00
947.7030, 23879.00
948.8240, 23737.00
949.9450, 23701.00
951.0650, 23839.00
952.1860, 23693.00
953.3060, 23797.00
954.4260, 24094.00
955.5460, 24032.00
956.6650, 24142.00
957.7850, 24324.00
958.9040, 24173.00
960.0230, 24285.00
961.1420, 24358.00
962.2610, 24362.00
963.3800, 24485.00
964.4990, 24380.00
965.6170, 24542.00
966.7350, 24568.00
967.8530, 24618.00
968.9710, 24840.00
970.0890, 24905.00
971.2070, 24835.00
972.3240, 25052.00
973.4410, 25127.00
974.5580, 24956.00
975.6750, 24975.00
976.7920, 24992.00
977.9090, 24811.00
979.0250, 25289.00
980.1410, 25124.00
981.2580, 25138.00
982.3740, 25058.00
983.4890, 25184.00
984.6050, 25083.00
985.7200, 25217.00
986.8360, 24982.00
987.9510, 24882.00
989.0660, 25029.00
990.1810, 25047.00
991.2950, 25042.00
992.4100, 25102.00
993.5240, 24846.00
994.6390, 24922.00
995.7530, 24835.00
996.8660, 24546.00
997.9800, 24962.00
999.0940, 24768.00
1000.207, 24889.00
1001.320, 25027.00
1002.433, 25092.00
1003.546, 25069.00
1004.659, 25155.00
1005.772, 25134.00
1006.884, 25534.00
1007.996, 25353.00
1009.108, 25717.00
1010.220, 25678.00
1011.332, 25803.00
1012.444, 26028.00
1013.555, 26018.00
1014.666, 26491.00
1015.777, 26617.00
1016.888, 26994.00
1017.999, 27091.00
1019.110, 27139.00
1020.220, 27331.00
1021.331, 27652.00
1022.441, 27912.00
1023.551, 28057.00
1024.661, 28235.51
1025.770, 28345.00
1026.880, 28477.00
1027.989, 28466.00
1029.098, 28643.00
1030.207, 28662.00
1031.316, 28828.00
1032.425, 29131.00
1033.533, 29247.00
1034.642, 29838.00
1035.750, 30145.00
1036.858, 30482.00
1037.966, 30968.00
1039.073, 31320.00
1040.181, 32075.00
1041.288, 32488.00
1042.396, 33213.00
1043.503, 33724.00
1044.610, 34396.00
1045.716, 35276.00
1046.823, 36012.00
1047.929, 36992.00
1049.036, 38215.00
1050.142, 39263.00
1051.248, 40424.00
1052.353, 41811.00
1053.459, 43499.00
1054.564, 44741.00
1055.670, 46330.00
1056.775, 47573.00
1057.880, 49094.00
1058.985, 49915.00
1060.089, 51058.00
1061.194, 51750.00
1062.298, 52337.00
1063.402, 52605.00
1064.506, 51852.00
1065.610, 50812.00
1066.713, 49676.00
1067.817, 48377.00
1068.920, 46658.00
1070.023, 44809.00
1071.126, 42936.00
1072.229, 41095.00
1073.332, 39357.00
1074.435, 38042.00
1075.537, 36421.00
1076.639, 35126.00
1077.741, 33864.00
1078.843, 32512.00
1079.945, 31821.00
1081.046, 30878.00
1082.148, 29988.00
1083.249, 29463.00
1084.350, 28735.00
1085.451, 28379.00
1086.551, 27767.00
1087.652, 27397.00
1088.752, 26975.00
1089.853, 26939.00
1090.953, 26474.00
1092.053, 26389.00
1093.152, 26195.00
1094.252, 25992.00
1095.351, 26010.00
1096.451, 25821.00
1097.550, 25487.00
1098.649, 25592.00
1099.748, 25691.00
1100.846, 25467.00
1101.945, 25322.00
1103.043, 25368.00
1104.141, 25273.00
1105.239, 25032.00
1106.337, 25002.00
1107.434, 24958.00
1108.532, 24809.00
1109.629, 24887.00
1110.726, 24799.00
1111.823, 24570.00
1112.920, 24476.00
1114.017, 24692.00
1115.113, 24752.00
1116.210, 24668.00
1117.306, 24659.00
1118.402, 24782.00
1119.498, 24752.00
1120.593, 24896.00
1121.689, 24862.00
1122.784, 24620.00
1123.879, 24821.00
1124.974, 24606.00
1126.069, 24550.00
1127.164, 24795.00
1128.259, 24731.00
1129.353, 24407.00
1130.447, 24461.00
1131.541, 24114.00
1132.635, 24398.00
1133.729, 24083.00
1134.822, 24282.00
1135.916, 24235.00
1137.009, 24182.00
1138.102, 24373.00
1139.195, 24130.00
1140.288, 24095.00
1141.380, 24207.00
1142.473, 24209.00
1143.565, 24106.00
1144.657, 23853.00
1145.749, 23931.00
1146.841, 23787.00
1147.932, 23780.00
1149.024, 23875.00
1150.115, 23780.00
1151.206, 23828.00
1152.297, 23631.00
1153.388, 23543.00
1154.479, 23607.00
1155.569, 23843.00
1156.659, 23883.00
1157.750, 23868.23
1158.839, 23723.00
1159.929, 23759.00
1161.019, 23665.00
1162.108, 23638.00
1163.198, 23593.00
1164.287, 23503.00
1165.376, 23558.66
1166.465, 23561.33
1167.553, 23661.00
1168.642, 23679.00
1169.730, 23751.00
1170.818, 23835.00
1171.906, 23815.00
1172.994, 23808.16
1174.082, 23834.44
1175.170, 23828.58
1176.257, 23832.00
1177.344, 23829.00
1178.431, 23812.00
1179.518, 23764.00
1180.605, 23965.00
1181.691, 23883.00
1182.778, 23850.00
1183.864, 23675.00
1184.950, 23792.00
1186.036, 23896.00
1187.122, 23823.00
1188.207, 23839.00
1189.292, 23834.00
1190.378, 23804.00
1191.463, 23841.77
1192.548, 23722.00
1193.632, 23885.00
1194.717, 23926.00
1195.801, 23926.00
1196.886, 23670.00
1197.970, 23770.00
1199.054, 23793.00
1200.137, 23959.00
1201.221, 24043.00
1202.305, 23974.00
1203.388, 24022.00
1204.471, 24130.00
1205.554, 24052.00
1206.637, 24030.00
1207.719, 23972.00
1208.802, 24059.00
1209.884, 23984.00
1210.966, 24017.00
1212.048, 23932.00
1213.130, 24198.00
1214.212, 24081.00
1215.293, 24118.00
1216.374, 24170.00
1217.456, 24028.00
1218.536, 24096.00
1219.617, 24174.00
1220.698, 24107.00
1221.778, 24214.00
1222.859, 24367.00
1223.939, 24114.00
1225.019, 24290.00
1226.099, 24458.00
1227.178, 24425.00
1228.258, 24360.00
1229.337, 24477.00
1230.417, 24388.00
1231.496, 24521.00
1232.574, 24235.00
1233.653, 24400.00
1234.732, 24204.00
1235.810, 24549.00
1236.888, 24676.00
1237.966, 24389.00
1239.044, 24488.00
1240.122, 24698.00
1241.199, 24599.00
1242.277, 24667.00
1243.354, 24570.00
1244.431, 24740.00
1245.508, 24674.57
1246.585, 24632.00
1247.661, 24679.00
1248.738, 24683.00
1249.814, 24772.00
1250.890, 24665.00
1251.966, 24729.00
1253.042, 24567.00
1254.117, 24670.00
1255.193, 24763.00
1256.268, 24925.00
1257.343, 24974.00
1258.418, 24656.00
1259.493, 25083.00
1260.567, 24816.00
1261.642, 24977.00
1262.716, 24784.00
1263.790, 24795.00
1264.864, 24760.00
1265.938, 24700.64
1267.011, 24963.00
1268.085, 24691.00
1269.158, 24869.00
1270.231, 24934.00
1271.304, 24903.00
1272.377, 24909.00
1273.450, 25100.00
1274.522, 25092.00
1275.594, 24975.00
1276.666, 24833.00
1277.738, 25038.00
1278.810, 25022.00
1279.882, 25188.00
1280.953, 25221.00
1282.025, 25107.00
1283.096, 25129.00
1284.167, 25171.00
1285.238, 25139.00
1286.308, 25207.00
1287.379, 25244.00
