##NAMES=Elbaite
##RRUFFID=R060631
##IDEAL CHEMISTRY=Na(Al_1.5_Li_1.5_)Al_6_(Si_6_O_18_)(BO_3_)_3_(OH)_3_OH
##LOCALITY=unknown
##OWNER=RRUFF
##SOURCE=Gemological Institute of America
##DESCRIPTION=Pink polished fragment
##STATUS=The identification of this mineral is confirmed by single-crystal X-ray diffraction and chemical analysis.
##URL=rruff.info/R060631
##MEASURED CHEMISTRY=(Na_0.55_Ca_0.34_[box]_0.11_)(Li_1.53_Al_1.30_Mn_0.14_Fe^2+^_0.03_)Al_6.00_(BO_3_)_3_[Si_6.00_O_18_]((OH)_0.82_F_0.18_)_4_
##PIN_ID=L01625
##ORIENTATION=Laser parallel to a* (1 0 0). Fiducial mark perpendicular to laser is parallel to c [0 0 1]
113.2080, 17666.00
114.4400, 18432.00
115.6710, 18625.00
116.9030, 18676.00
118.1340, 18863.00
119.3650, 19114.00
120.5960, 19368.00
121.8270, 19539.96
123.0580, 19889.60
124.2880, 20011.00
125.5190, 20475.00
126.7490, 20953.00
127.9790, 21088.00
129.2090, 21095.00
130.4390, 21337.00
131.6680, 21054.00
132.8980, 21130.00
134.1270, 20977.00
135.3560, 20900.00
136.5850, 20863.00
137.8140, 20738.98
139.0430, 20835.00
140.2710, 20697.00
141.5000, 20716.00
142.7280, 20999.00
143.9560, 21163.00
145.1840, 21254.00
146.4120, 21558.00
147.6390, 21755.00
148.8670, 22264.00
150.0940, 22618.00
151.3210, 22656.00
152.5490, 22384.00
153.7750, 22517.00
155.0020, 22350.00
156.2290, 22187.00
157.4550, 21792.00
158.6810, 21773.00
159.9080, 21386.00
161.1340, 21607.00
162.3590, 21529.00
163.5850, 21290.00
164.8110, 21143.00
166.0360, 21054.00
167.2610, 20875.00
168.4860, 20862.63
169.7110, 21012.00
170.9360, 20803.00
172.1610, 20932.00
173.3850, 20858.00
174.6100, 20923.00
175.8340, 21146.00
177.0580, 21250.00
178.2820, 21320.00
179.5050, 21461.00
180.7290, 21559.00
181.9520, 21756.00
183.1760, 21969.00
184.3990, 22320.00
185.6220, 22517.00
186.8450, 22809.00
188.0670, 23280.00
189.2900, 23417.00
190.5120, 23878.00
191.7340, 24110.00
192.9560, 24700.00
194.1780, 24852.00
195.4000, 25322.00
196.6220, 25745.00
197.8430, 26135.00
199.0640, 26672.00
200.2860, 26914.00
201.5070, 27540.00
202.7270, 27628.00
203.9480, 27672.00
205.1690, 28155.00
206.3890, 28729.00
207.6090, 29691.00
208.8290, 30735.02
210.0490, 32005.00
211.2690, 33428.00
212.4890, 34845.00
213.7080, 36499.00
214.9280, 38056.00
216.1470, 39684.00
217.3660, 41533.00
218.5850, 42895.00
219.8030, 43861.00
221.0220, 44315.00
222.2400, 44711.00
223.4590, 44032.00
224.6770, 43103.00
225.8950, 41783.00
227.1120, 40743.00
228.3300, 39582.00
229.5480, 38428.00
230.7650, 37809.00
231.9820, 37269.00
233.1990, 36415.00
234.4160, 36486.00
235.6330, 36244.00
236.8490, 36007.00
238.0660, 35555.00
239.2820, 35257.33
240.4980, 34904.00
241.7140, 34472.00
242.9300, 33983.00
244.1460, 33541.00
245.3610, 32823.10
246.5770, 32404.00
247.7920, 31345.00
249.0070, 30605.00
250.2220, 29907.00
251.4370, 29186.00
252.6510, 28627.00
253.8660, 28406.00
255.0800, 27955.00
256.2940, 27977.00
257.5080, 27687.15
258.7220, 28132.00
259.9360, 27316.00
261.1490, 26892.00
262.3630, 26623.00
263.5760, 26948.00
264.7890, 26676.00
266.0020, 26501.00
267.2150, 26732.00
268.4270, 26759.00
269.6400, 26860.00
270.8520, 26857.00
272.0640, 26896.00
273.2760, 26748.00
274.4880, 27258.00
275.7000, 27188.00
276.9120, 27050.00
278.1230, 26898.00
279.3340, 26790.00
280.5450, 27009.00
281.7560, 26758.00
282.9670, 26776.00
284.1780, 26760.00
285.3880, 26469.00
286.5980, 26302.00
287.8090, 26365.00
289.0190, 26096.00
290.2290, 25789.00
291.4380, 25844.00
292.6480, 25583.00
293.8570, 25671.00
295.0670, 25468.00
296.2760, 25534.00
297.4850, 25550.00
298.6930, 25829.00
299.9020, 26016.00
301.1110, 26110.00
302.3190, 26341.00
303.5270, 26860.00
304.7350, 27214.00
305.9430, 27468.00
307.1510, 27945.00
308.3580, 28147.00
309.5660, 28485.00
310.7730, 29067.00
311.9800, 29363.00
313.1870, 29645.00
314.3940, 29768.00
315.6010, 30463.00
316.8070, 30955.00
318.0130, 31349.00
319.2200, 31940.18
320.4260, 32234.00
321.6310, 32934.00
322.8370, 33440.00
324.0430, 33925.00
325.2480, 34607.00
326.4540, 34761.00
327.6590, 35335.00
328.8640, 35308.00
330.0680, 35736.00
331.2730, 35506.00
332.4780, 35630.00
333.6820, 35115.00
334.8860, 34823.00
336.0900, 34644.00
337.2940, 34534.00
338.4980, 34156.00
339.7010, 34083.00
340.9050, 33812.00
342.1080, 33613.00
343.3110, 33526.00
344.5140, 33468.76
345.7170, 33493.40
346.9200, 33577.00
348.1220, 33747.00
349.3240, 33933.00
350.5270, 34238.00
351.7290, 34849.00
352.9310, 35034.00
354.1320, 35729.00
355.3340, 36252.00
356.5350, 37396.00
357.7370, 38421.00
358.9380, 39979.00
360.1390, 41621.00
361.3400, 43686.00
362.5400, 45609.00
363.7410, 47959.00
364.9410, 50491.00
366.1410, 53882.00
367.3410, 56941.00
368.5410, 59898.00
369.7410, 62878.00
370.9400, 65079.00
372.1400, 65535.00
373.3390, 65535.00
374.5380, 65535.00
375.7370, 65535.00
376.9360, 63899.00
378.1350, 61626.00
379.3330, 58491.00
380.5310, 55536.00
381.7300, 52735.00
382.9280, 50170.00
384.1260, 48037.00
385.3230, 46050.96
386.5210, 44502.00
387.7180, 42953.00
388.9160, 41938.00
390.1130, 40981.00
391.3100, 40354.00
392.5060, 39987.00
393.7030, 39774.00
394.9000, 39344.00
396.0960, 39500.00
397.2920, 39893.00
398.4880, 39579.00
399.6840, 40049.00
400.8800, 40117.00
402.0750, 40462.00
403.2710, 40487.00
404.4660, 40429.00
405.6610, 40130.00
406.8560, 39725.00
408.0510, 39391.00
409.2450, 38571.00
410.4400, 37696.00
411.6340, 36897.00
412.8280, 36107.00
414.0220, 35021.00
415.2160, 33872.00
416.4100, 33242.00
417.6030, 32350.00
418.7970, 31398.00
419.9900, 31001.00
421.1830, 30616.00
422.3760, 30097.00
423.5690, 29635.00
424.7610, 29636.00
425.9540, 29207.00
427.1460, 29069.00
428.3380, 29020.00
429.5300, 28903.00
430.7220, 28812.00
431.9140, 28836.00
433.1050, 29038.00
434.2970, 28855.00
435.4880, 29136.00
436.6790, 29237.00
437.8700, 29330.00
439.0610, 29473.98
440.2510, 29612.05
441.4420, 29642.00
442.6320, 29928.00
443.8220, 30018.28
445.0120, 30161.74
446.2020, 30148.00
447.3910, 30182.00
448.5810, 30167.00
449.7700, 29931.00
450.9600, 29962.00
452.1490, 29984.00
453.3370, 30215.00
454.5260, 30123.00
455.7150, 30331.00
456.9030, 30214.00
458.0910, 30094.00
459.2800, 30057.00
460.4670, 30198.00
461.6550, 30282.00
462.8430, 30186.00
464.0300, 30200.00
465.2180, 30225.00
466.4050, 30054.00
467.5920, 30144.00
468.7790, 29960.00
469.9650, 29751.00
471.1520, 29800.00
472.3380, 29881.00
473.5250, 29768.00
474.7110, 29835.00
475.8970, 29785.00
477.0820, 29722.00
478.2680, 30083.00
479.4540, 30186.00
480.6390, 30292.00
481.8240, 30751.00
483.0090, 30847.00
484.1940, 31138.00
485.3780, 31551.00
486.5630, 31603.00
487.7470, 31844.00
488.9320, 32061.00
490.1160, 32165.00
491.3000, 32488.00
492.4830, 32761.00
493.6670, 33098.00
494.8500, 32859.00
496.0340, 33249.00
497.2170, 33261.00
498.4000, 33592.00
499.5820, 33601.00
500.7650, 33879.00
501.9480, 34169.00
503.1300, 34293.00
504.3120, 34547.00
505.4940, 34812.00
506.6760, 34851.00
507.8580, 35119.00
509.0390, 34951.00
510.2210, 35407.00
511.4020, 35501.00
512.5830, 35283.00
513.7640, 35230.00
514.9450, 35143.00
516.1250, 34957.00
517.3060, 34559.00
518.4860, 34374.00
519.6660, 34154.00
520.8460, 33671.00
522.0260, 33613.00
523.2060, 33364.00
524.3850, 33365.00
525.5650, 33195.00
526.7440, 33339.29
527.9230, 33514.00
529.1020, 33763.00
530.2810, 34116.00
531.4590, 34468.00
532.6380, 34622.90
533.8160, 34658.00
534.9940, 34833.00
536.1720, 34938.00
537.3500, 34785.00
538.5270, 34590.00
539.7050, 34780.00
540.8820, 34530.00
542.0590, 34260.00
543.2360, 33990.00
544.4130, 33916.00
545.5900, 33730.00
546.7660, 33482.00
547.9430, 33059.00
549.1190, 32976.00
550.2950, 32658.00
551.4710, 32154.00
552.6470, 32347.00
553.8220, 31962.00
554.9980, 31786.00
556.1730, 31582.00
557.3480, 31278.00
558.5230, 31053.00
559.6980, 30903.00
560.8730, 30714.00
562.0470, 30554.00
563.2220, 30239.00
564.3960, 30167.00
565.5700, 30028.00
566.7440, 30036.00
567.9170, 30022.00
569.0910, 29820.00
570.2640, 29975.00
571.4380, 29803.00
572.6110, 29810.00
573.7840, 29786.00
574.9570, 29837.00
576.1290, 29822.00
577.3020, 29939.00
578.4740, 29764.00
579.6460, 29966.00
580.8180, 29949.00
581.9900, 29893.00
583.1620, 29996.00
584.3330, 30087.00
585.5040, 30087.00
586.6760, 30065.00
587.8470, 29995.00
589.0180, 29963.35
590.1880, 29891.00
591.3590, 29847.00
592.5290, 29684.00
593.7000, 29616.00
594.8700, 29628.00
596.0400, 29499.73
597.2090, 29544.82
598.3790, 29426.00
599.5490, 29543.00
600.7180, 29684.00
601.8870, 29586.00
603.0560, 29509.00
604.2250, 29504.00
605.3940, 29726.00
606.5620, 29594.00
607.7300, 29594.00
608.8990, 29702.00
610.0670, 29647.00
611.2350, 29613.00
612.4020, 29811.00
613.5700, 29826.00
614.7370, 29897.42
615.9050, 29963.00
617.0720, 30028.00
618.2390, 30207.00
619.4060, 30283.00
620.5720, 30473.00
621.7390, 30613.00
622.9050, 30780.00
624.0710, 31132.00
625.2370, 31871.00
626.4030, 32238.00
627.5690, 32385.00
628.7340, 32797.00
629.9000, 33033.00
631.0650, 33280.00
632.2300, 33499.43
633.3950, 33739.00
634.5600, 33800.00
635.7240, 33864.38
636.8890, 33953.00
638.0530, 33755.00
639.2170, 33419.00
640.3810, 33284.00
641.5450, 32715.00
642.7080, 32108.00
643.8720, 31924.00
645.0350, 31745.00
646.1980, 31201.00
647.3610, 31035.00
648.5240, 30908.00
649.6870, 30779.00
650.8490, 30578.00
652.0120, 30359.00
653.1740, 30338.00
654.3360, 30087.00
655.4980, 30175.00
656.6600, 29819.00
657.8210, 30021.00
658.9830, 29788.00
660.1440, 29916.00
661.3050, 30076.00
662.4660, 30130.00
663.6270, 30112.00
664.7870, 30205.00
665.9480, 30308.00
667.1080, 30638.00
668.2680, 30358.00
669.4280, 30576.00
670.5880, 30935.00
671.7480, 30599.00
672.9070, 30840.00
674.0670, 31065.00
675.2260, 30944.00
676.3850, 30678.00
677.5440, 30523.00
678.7030, 30612.00
679.8610, 30438.00
681.0200, 30308.00
682.1780, 30197.00
683.3360, 30147.00
684.4940, 30256.00
685.6520, 30616.00
686.8090, 30426.00
687.9670, 30520.00
689.1240, 31191.00
690.2810, 31841.00
691.4380, 32371.00
692.5950, 33213.00
693.7520, 34033.00
694.9080, 34681.00
696.0650, 35787.00
697.2210, 37001.00
698.3770, 38409.00
699.5330, 40148.00
700.6880, 41723.00
701.8440, 43290.00
702.9990, 45021.00
704.1550, 46484.00
705.3100, 47418.00
706.4650, 48073.00
707.6190, 48691.00
708.7740, 48840.00
709.9290, 48434.00
711.0830, 47333.00
712.2370, 46200.00
713.3910, 45069.00
714.5450, 43474.00
715.6980, 42296.00
716.8520, 40559.00
718.0050, 39211.00
719.1580, 38181.00
720.3110, 36956.00
721.4640, 36201.00
722.6170, 35505.00
723.7700, 35102.00
724.9220, 34807.00
726.0740, 34559.00
727.2260, 34555.00
728.3780, 34733.00
729.5300, 34521.00
730.6810, 35015.00
731.8330, 35587.00
732.9840, 36047.00
734.1350, 36352.00
735.2860, 37451.00
736.4370, 38062.00
737.5880, 38908.00
738.7380, 39964.00
739.8880, 40821.00
741.0390, 42351.00
742.1890, 43320.00
743.3380, 44290.00
744.4880, 45472.00
745.6380, 46497.00
746.7870, 47427.00
747.9360, 48013.00
749.0850, 48316.88
750.2340, 48508.00
751.3830, 48158.00
752.5310, 47797.00
753.6800, 47060.00
754.8280, 46280.00
755.9760, 45156.00
757.1240, 44354.00
758.2720, 43726.00
759.4190, 42593.00
760.5670, 41895.00
761.7140, 41481.00
762.8610, 40520.00
764.0080, 40240.00
765.1550, 39916.00
766.3020, 39374.99
767.4480, 39242.90
768.5950, 38942.00
769.7410, 38635.00
770.8870, 39052.00
772.0330, 38367.05
773.1780, 38489.00
774.3240, 38170.00
775.4690, 37776.00
776.6140, 37127.00
777.7590, 36422.00
778.9040, 35482.00
780.0490, 34679.00
781.1940, 33762.00
782.3380, 33323.00
783.4820, 32511.00
784.6260, 32234.00
785.7700, 31585.00
786.9140, 31257.00
788.0580, 30911.91
789.2010, 31024.00
790.3450, 30371.00
791.4880, 30276.00
792.6310, 30201.00
793.7730, 29927.00
794.9160, 30011.00
796.0590, 29757.00
797.2010, 29600.00
798.3430, 29544.00
799.4850, 29378.00
800.6270, 29209.00
801.7690, 29284.00
802.9100, 29191.00
804.0520, 29244.00
805.1930, 29003.00
806.3340, 29047.00
807.4750, 29029.00
808.6160, 28976.00
809.7560, 29163.00
810.8970, 29049.70
812.0370, 29171.00
813.1770, 29033.00
814.3170, 29080.00
815.4570, 29231.00
816.5960, 29380.00
817.7360, 29442.00
818.8750, 29262.00
820.0140, 29532.00
821.1530, 29573.00
822.2920, 29601.00
823.4310, 29769.00
824.5690, 29821.00
825.7070, 29876.00
826.8460, 29909.00
827.9840, 30010.00
829.1220, 29978.00
830.2590, 30168.00
831.3970, 30228.15
832.5340, 30325.00
833.6710, 30446.00
834.8080, 30497.11
835.9450, 30598.00
837.0820, 30480.00
838.2190, 30604.00
839.3550, 30425.00
840.4910, 30500.00
841.6270, 30563.00
842.7630, 30435.00
843.8990, 30234.00
845.0350, 30424.00
846.1700, 30359.00
847.3060, 30669.00
848.4410, 30594.00
849.5760, 30521.00
850.7100, 30545.00
851.8450, 30630.00
852.9800, 30749.00
854.1140, 30668.00
855.2480, 30846.00
856.3820, 31014.00
857.5160, 30775.00
858.6500, 31012.00
859.7830, 30874.00
860.9170, 31122.00
862.0500, 31077.00
863.1830, 31184.00
864.3160, 31311.03
865.4480, 31410.00
866.5810, 31497.00
867.7130, 31518.00
868.8460, 31542.00
869.9780, 31738.00
871.1100, 31540.00
872.2410, 31756.00
873.3730, 31825.00
874.5050, 31793.00
875.6360, 31998.00
876.7670, 31740.00
877.8980, 31709.00
879.0290, 31531.00
880.1590, 31577.00
881.2900, 31659.00
882.4200, 31468.00
883.5500, 31402.00
884.6800, 31360.00
885.8100, 31294.52
886.9400, 31251.00
888.0690, 31221.00
889.1990, 31225.00
890.3280, 31096.00
891.4570, 31198.00
892.5860, 30929.00
893.7140, 30847.00
894.8430, 31006.00
895.9710, 30921.00
897.1000, 30806.00
898.2280, 30981.00
899.3560, 30731.00
900.4830, 30499.00
901.6110, 30809.00
902.7380, 30755.00
903.8660, 30611.00
904.9930, 30730.00
906.1200, 30845.00
907.2460, 30830.00
908.3730, 30864.00
909.5000, 30916.00
910.6260, 30947.75
911.7520, 31070.00
912.8780, 30990.00
914.0040, 31005.00
915.1290, 30880.00
916.2550, 31205.00
917.3800, 31253.00
918.5050, 31429.00
919.6300, 31277.00
920.7550, 31354.00
921.8800, 31611.00
923.0040, 31706.00
924.1290, 31787.00
925.2530, 31925.00
926.3770, 32022.70
927.5010, 31775.00
928.6250, 32265.00
929.7480, 32273.00
930.8720, 32406.00
931.9950, 32779.00
933.1180, 32798.00
934.2410, 33121.00
935.3640, 33101.00
936.4860, 33188.00
937.6090, 33097.00
938.7310, 33192.25
939.8530, 33270.00
940.9750, 33381.00
942.0970, 33489.00
943.2180, 33708.00
944.3400, 33882.00
945.4610, 33974.00
946.5820, 34135.00
947.7030, 34099.00
948.8240, 34243.01
949.9450, 34323.00
951.0650, 34419.00
952.1860, 34493.84
953.3060, 34364.00
954.4260, 34566.00
955.5460, 34627.00
956.6650, 34566.00
957.7850, 34767.00
958.9040, 34693.00
960.0230, 34918.00
961.1420, 34841.00
962.2610, 35335.00
963.3800, 35146.00
964.4990, 35331.00
965.6170, 35279.00
966.7350, 35436.00
967.8530, 35461.00
968.9710, 35947.00
970.0890, 36014.00
971.2070, 35984.00
972.3240, 36287.00
973.4410, 36170.00
974.5580, 36271.00
975.6750, 36336.00
976.7920, 36408.00
977.9090, 36397.00
979.0250, 36655.00
980.1410, 36538.00
981.2580, 36448.00
982.3740, 36356.00
983.4890, 36538.00
984.6050, 36382.00
985.7200, 36662.00
986.8360, 36752.00
987.9510, 36431.00
989.0660, 36200.00
990.1810, 36507.00
991.2950, 36363.00
992.4100, 36239.00
993.5240, 36361.00
994.6390, 36302.00
995.7530, 36373.00
996.8660, 36369.00
997.9800, 36276.00
999.0940, 36569.00
1000.207, 36413.00
1001.320, 36564.00
1002.433, 36779.00
1003.546, 36809.00
1004.659, 36638.00
1005.772, 36883.00
1006.884, 37017.00
1007.996, 37120.00
1009.108, 37424.00
1010.220, 37432.00
1011.332, 37737.00
1012.444, 37467.00
1013.555, 37733.00
1014.666, 37915.00
1015.777, 38229.00
1016.888, 38448.30
1017.999, 38722.00
1019.110, 38990.00
1020.220, 39211.00
1021.331, 39591.00
1022.441, 39439.00
1023.551, 39727.00
1024.661, 39888.00
1025.770, 40228.00
1026.880, 40237.00
1027.989, 40693.00
1029.098, 40854.00
1030.207, 41285.00
1031.316, 41491.00
1032.425, 41942.79
1033.533, 42356.00
1034.642, 42943.00
1035.750, 43454.00
1036.858, 44125.00
1037.966, 44911.00
1039.073, 45730.00
1040.181, 46579.00
1041.288, 47440.00
1042.396, 48231.00
1043.503, 49258.00
1044.610, 50653.00
1045.716, 51729.00
1046.823, 53256.00
1047.929, 54392.00
1049.036, 55862.00
1050.142, 57230.00
1051.248, 58367.00
1052.353, 59395.47
1053.459, 60214.00
1054.564, 60983.00
1055.670, 61453.11
1056.775, 61904.00
1057.880, 61831.00
1058.985, 61566.00
1060.089, 61218.00
1061.194, 60793.00
1062.298, 60370.00
1063.402, 59595.67
1064.506, 58256.00
1065.610, 57753.00
1066.713, 56695.00
1067.817, 55422.00
1068.920, 54663.00
1070.023, 53788.00
1071.126, 52739.00
1072.229, 52339.00
1073.332, 51343.00
1074.435, 50792.00
1075.537, 49853.00
1076.639, 49192.00
1077.741, 48386.00
1078.843, 47796.00
1079.945, 47223.00
1081.046, 46919.00
1082.148, 46477.00
1083.249, 45864.00
1084.350, 45454.00
1085.451, 45080.00
1086.551, 44601.00
1087.652, 44403.00
1088.752, 43674.00
1089.853, 43533.00
1090.953, 42993.70
1092.053, 42347.00
1093.152, 41977.00
1094.252, 41390.00
1095.351, 40997.30
1096.451, 40660.00
1097.550, 40217.00
1098.649, 39918.00
1099.748, 39507.00
1100.846, 39220.00
1101.945, 38935.00
1103.043, 38578.00
1104.141, 38415.00
1105.239, 37952.00
1106.337, 37993.00
1107.434, 37611.00
1108.532, 37529.00
1109.629, 37386.00
1110.726, 37184.00
1111.823, 37122.00
1112.920, 37084.00
1114.017, 36857.00
1115.113, 36973.00
1116.210, 36660.00
1117.306, 36661.00
1118.402, 36514.00
1119.498, 36643.00
1120.593, 36545.00
1121.689, 36439.00
1122.784, 36550.00
1123.879, 36424.00
1124.974, 36368.00
1126.069, 36223.00
1127.164, 36267.00
1128.259, 36064.00
1129.353, 35833.00
1130.447, 36045.00
1131.541, 35994.00
1132.635, 36044.00
1133.729, 35913.00
1134.822, 35864.00
1135.916, 35810.00
1137.009, 35887.00
1138.102, 35691.00
1139.195, 35521.00
1140.288, 35671.00
1141.380, 35758.00
1142.473, 35733.00
1143.565, 35423.00
1144.657, 35783.00
1145.749, 35483.00
1146.841, 35659.00
1147.932, 35356.00
1149.024, 35458.51
1150.115, 35561.00
1151.206, 35556.00
1152.297, 35644.00
1153.388, 35583.00
1154.479, 35508.00
1155.569, 35587.00
1156.659, 35635.00
1157.750, 35412.00
1158.839, 35624.00
1159.929, 35627.00
1161.019, 35554.00
1162.108, 35635.00
1163.198, 35748.00
1164.287, 35709.00
1165.376, 35676.00
1166.465, 35805.00
1167.553, 35731.00
1168.642, 35951.00
1169.730, 35739.00
1170.818, 35780.00
1171.906, 35473.00
1172.994, 35608.00
1174.082, 35899.00
1175.170, 35986.00
1176.257, 35982.00
1177.344, 36045.00
1178.431, 35916.00
1179.518, 35809.00
1180.605, 36042.00
1181.691, 36438.00
1182.778, 36096.00
1183.864, 36178.00
1184.950, 35996.00
1186.036, 36237.00
1187.122, 35969.00
1188.207, 36295.00
1189.292, 36177.00
1190.378, 36196.00
1191.463, 36065.00
1192.548, 36290.00
1193.632, 36150.00
1194.717, 36177.00
1195.801, 36357.00
1196.886, 36225.00
1197.970, 36357.00
1199.054, 36164.00
1200.137, 36749.00
1201.221, 36361.00
1202.305, 36540.00
1203.388, 36384.00
1204.471, 36590.00
1205.554, 36628.00
1206.637, 36448.00
1207.719, 36614.00
1208.802, 36730.00
1209.884, 36553.00
1210.966, 36811.00
1212.048, 36550.00
1213.130, 36849.00
1214.212, 36633.00
1215.293, 36881.00
1216.374, 36960.00
1217.456, 36826.00
1218.536, 36877.00
1219.617, 36926.00
1220.698, 37149.00
1221.778, 36933.00
1222.859, 37071.00
1223.939, 37025.00
1225.019, 37021.00
1226.099, 37153.00
1227.178, 37060.00
1228.258, 37254.00
1229.337, 37161.00
1230.417, 37372.00
1231.496, 37349.00
1232.574, 37223.00
1233.653, 37288.00
1234.732, 37192.00
1235.810, 37356.00
1236.888, 37283.00
1237.966, 37483.00
1239.044, 37479.00
1240.122, 37482.00
1241.199, 37503.00
1242.277, 37514.25
1243.354, 37542.98
1244.431, 37575.00
1245.508, 37600.05
1246.585, 37669.59
1247.661, 37686.00
1248.738, 37761.00
1249.814, 37648.00
1250.890, 37694.00
1251.966, 37692.00
1253.042, 37841.00
1254.117, 37786.00
1255.193, 37840.00
1256.268, 37828.40
1257.343, 37893.00
1258.418, 37818.00
1259.493, 37878.00
1260.567, 38003.00
1261.642, 38034.87
1262.716, 38232.00
1263.790, 38248.00
1264.864, 38240.00
1265.938, 38377.00
1267.011, 38252.00
1268.085, 38039.00
1269.158, 38104.00
1270.231, 38620.00
1271.304, 38488.00
1272.377, 38555.00
1273.450, 38216.00
1274.522, 38827.00
1275.594, 38845.00
1276.666, 38335.00
1277.738, 38682.00
1278.810, 38608.00
1279.882, 38752.00
1280.953, 38795.00
1282.025, 38654.00
1283.096, 38921.00
1284.167, 38820.00
1285.238, 38816.00
1286.308, 38795.00
