##NAMES=Elbaite
##RRUFFID=R050260
##IDEAL CHEMISTRY=Na(Al_1.5_Li_1.5_)Al_6_(Si_6_O_18_)(BO_3_)_3_(OH)_3_OH
##LOCALITY=Minas Gerais, Brazil
##OWNER=RRUFF
##SOURCE=Marcus Origlieri
##DESCRIPTION=Greenish-gray prismatic single crystal
##STATUS=The identification of this mineral has been confirmed by X-ray diffraction and chemical analysis
##URL=rruff.info/R050260
##MEASURED CHEMISTRY=(Na_0.76_[box]_0.17_Ca_0.07_)_Σ=1_(Al_1.67_Li_0.97_Mn_0.36_)_Σ=3_Al_6.00_(B_1.00_O_3_)_3_Si_6.00_O_18_((OH)_3.40_F_0.60_)_Σ=4_; B assumed by stoichiometry; OH estimated by charge balance
##PIN_ID=L01093
##ORIENTATION=Laser parallel to c* (0 0 1). Fiducial mark perpendicular to laser is parallel to -a [-1 0 0]
118.1340, 16106.00
119.3650, 16192.00
120.5960, 16139.00
121.8270, 16494.00
123.0580, 16878.00
124.2880, 17361.00
125.5190, 17345.00
126.7490, 17130.00
127.9790, 17290.00
129.2090, 17529.00
130.4390, 17826.00
131.6680, 18081.00
132.8980, 18159.00
134.1270, 17713.00
135.3560, 17700.00
136.5850, 17735.00
137.8140, 17683.00
139.0430, 17738.00
140.2710, 17748.00
141.5000, 17399.00
142.7280, 17036.00
143.9560, 16863.00
145.1840, 17067.00
146.4120, 17186.00
147.6390, 17327.00
148.8670, 17670.00
150.0940, 17842.00
151.3210, 18078.63
152.5490, 18529.00
153.7750, 18503.00
155.0020, 18650.00
156.2290, 18791.00
157.4550, 18524.00
158.6810, 18512.00
159.9080, 18517.00
161.1340, 18583.00
162.3590, 18470.00
163.5850, 18582.00
164.8110, 18606.00
166.0360, 18582.00
167.2610, 18313.00
168.4860, 18466.00
169.7110, 18197.00
170.9360, 18241.00
172.1610, 18123.00
173.3850, 17953.00
174.6100, 18007.00
175.8340, 17809.00
177.0580, 17864.00
178.2820, 18021.00
179.5050, 18178.00
180.7290, 18259.00
181.9520, 18437.34
183.1760, 18434.00
184.3990, 18799.00
185.6220, 18877.00
186.8450, 19171.00
188.0670, 19534.00
189.2900, 19585.00
190.5120, 19978.00
191.7340, 20305.00
192.9560, 20424.00
194.1780, 20902.00
195.4000, 21060.00
196.6220, 21100.00
197.8430, 21426.00
199.0640, 21852.00
200.2860, 21951.00
201.5070, 22302.00
202.7270, 22720.00
203.9480, 22669.00
205.1690, 22515.00
206.3890, 22999.00
207.6090, 23220.00
208.8290, 24011.00
210.0490, 24921.00
211.2690, 26049.00
212.4890, 27539.00
213.7080, 28692.00
214.9280, 30437.00
216.1470, 31944.00
217.3660, 33734.00
218.5850, 35641.00
219.8030, 37034.00
221.0220, 38442.00
222.2400, 39325.00
223.4590, 39605.00
224.6770, 38879.00
225.8950, 37943.00
227.1120, 36509.00
228.3300, 34698.00
229.5480, 33475.00
230.7650, 32185.00
231.9820, 31154.00
233.1990, 30522.00
234.4160, 30090.00
235.6330, 29445.00
236.8490, 29299.00
238.0660, 28979.00
239.2820, 28982.00
240.4980, 28789.00
241.7140, 28740.00
242.9300, 28493.00
244.1460, 27994.00
245.3610, 27796.00
246.5770, 27188.00
247.7920, 26779.00
249.0070, 26196.00
250.2220, 25547.00
251.4370, 25019.00
252.6510, 24434.00
253.8660, 24040.00
255.0800, 23631.00
256.2940, 23209.00
257.5080, 23301.00
258.7220, 23090.38
259.9360, 22766.45
261.1490, 22992.00
262.3630, 22407.00
263.5760, 22089.00
264.7890, 22498.00
266.0020, 22065.00
267.2150, 22190.00
268.4270, 22575.00
269.6400, 22612.00
270.8520, 22681.00
272.0640, 22881.00
273.2760, 22810.00
274.4880, 23028.00
275.7000, 23111.00
276.9120, 23019.00
278.1230, 23007.00
279.3340, 22890.00
280.5450, 22795.00
281.7560, 22710.00
282.9670, 22656.00
284.1780, 22417.00
285.3880, 22437.00
286.5980, 22373.00
287.8090, 22165.00
289.0190, 22171.00
290.2290, 22010.00
291.4380, 21969.00
292.6480, 21673.00
293.8570, 21739.00
295.0670, 21696.00
296.2760, 21742.00
297.4850, 21701.00
298.6930, 21756.00
299.9020, 21829.00
301.1110, 21956.00
302.3190, 22247.00
303.5270, 22392.00
304.7350, 22450.00
305.9430, 22858.00
307.1510, 23093.00
308.3580, 23455.00
309.5660, 23693.00
310.7730, 23850.00
311.9800, 23970.00
313.1870, 24373.00
314.3940, 24565.00
315.6010, 24599.00
316.8070, 25055.00
318.0130, 25241.00
319.2200, 25903.00
320.4260, 26126.00
321.6310, 26592.00
322.8370, 27118.00
324.0430, 27544.00
325.2480, 28114.00
326.4540, 28717.00
327.6590, 29297.00
328.8640, 29721.00
330.0680, 29866.00
331.2730, 30373.00
332.4780, 30557.00
333.6820, 30730.00
334.8860, 30486.00
336.0900, 30393.00
337.2940, 30578.00
338.4980, 30168.00
339.7010, 30309.00
340.9050, 30213.00
342.1080, 30027.00
343.3110, 29870.00
344.5140, 29812.42
345.7170, 29671.00
346.9200, 29689.00
348.1220, 29801.00
349.3240, 29749.00
350.5270, 29530.00
351.7290, 29783.00
352.9310, 29770.00
354.1320, 29826.00
355.3340, 30317.00
356.5350, 30880.00
357.7370, 31363.00
358.9380, 32040.00
360.1390, 32462.00
361.3400, 33536.00
362.5400, 34455.00
363.7410, 35168.00
364.9410, 36636.00
366.1410, 38095.00
367.3410, 39491.00
368.5410, 41283.00
369.7410, 43716.00
370.9400, 45490.00
372.1400, 48307.00
373.3390, 50730.00
374.5380, 52823.00
375.7370, 54290.00
376.9360, 54914.00
378.1350, 54292.00
379.3330, 52617.00
380.5310, 50706.00
381.7300, 48180.00
382.9280, 45380.00
384.1260, 43060.00
385.3230, 40505.00
386.5210, 38657.00
387.7180, 37052.00
388.9160, 35638.00
390.1130, 34537.00
391.3100, 33895.00
392.5060, 33132.00
393.7030, 32724.00
394.9000, 32245.00
396.0960, 32126.00
397.2920, 31806.00
398.4880, 31667.00
399.6840, 31573.00
400.8800, 31671.00
402.0750, 31894.00
403.2710, 31972.00
404.4660, 32008.00
405.6610, 32340.00
406.8560, 32438.00
408.0510, 32260.00
409.2450, 32337.00
410.4400, 32055.00
411.6340, 31895.00
412.8280, 31195.00
414.0220, 30805.00
415.2160, 30166.00
416.4100, 29226.00
417.6030, 28726.00
418.7970, 28198.00
419.9900, 27565.00
421.1830, 27065.00
422.3760, 26515.00
423.5690, 26203.61
424.7610, 26056.00
425.9540, 25782.00
427.1460, 25567.00
428.3380, 25578.00
429.5300, 25073.00
430.7220, 25292.00
431.9140, 25266.00
433.1050, 25346.00
434.2970, 25599.00
435.4880, 25401.00
436.6790, 25676.00
437.8700, 25868.00
439.0610, 25827.00
440.2510, 25976.00
441.4420, 25725.00
442.6320, 26058.00
443.8220, 26172.00
445.0120, 26284.00
446.2020, 26066.00
447.3910, 26297.00
448.5810, 26064.00
449.7700, 26044.00
450.9600, 26061.00
452.1490, 25970.00
453.3370, 25893.00
454.5260, 25870.00
455.7150, 25866.09
456.9030, 25993.00
458.0910, 26003.00
459.2800, 25901.00
460.4670, 26123.00
461.6550, 26208.00
462.8430, 26420.00
464.0300, 26416.00
465.2180, 26721.00
466.4050, 26717.00
467.5920, 26784.00
468.7790, 27105.00
469.9650, 27101.00
471.1520, 27209.00
472.3380, 27280.00
473.5250, 27372.00
474.7110, 27447.00
475.8970, 27416.42
477.0820, 27270.00
478.2680, 27244.00
479.4540, 27200.00
480.6390, 26939.00
481.8240, 27124.00
483.0090, 26963.00
484.1940, 26978.00
485.3780, 27102.00
486.5630, 26873.00
487.7470, 27080.00
488.9320, 26968.00
490.1160, 26967.00
491.3000, 26727.00
492.4830, 27001.00
493.6670, 27078.00
494.8500, 27269.00
496.0340, 27244.00
497.2170, 27397.00
498.4000, 27543.00
499.5820, 27529.00
500.7650, 27609.00
501.9480, 27907.00
503.1300, 28225.00
504.3120, 28279.00
505.4940, 28464.00
506.6760, 28481.00
507.8580, 28773.00
509.0390, 28721.00
510.2210, 28702.00
511.4020, 28516.00
512.5830, 28755.00
513.7640, 28705.00
514.9450, 28607.00
516.1250, 28520.00
517.3060, 28418.31
518.4860, 28284.63
519.6660, 28160.00
520.8460, 28029.16
522.0260, 27834.00
523.2060, 27760.00
524.3850, 27731.00
525.5650, 27851.00
526.7440, 27848.00
527.9230, 27950.00
529.1020, 28028.00
530.2810, 28545.00
531.4590, 28593.00
532.6380, 28821.00
533.8160, 28979.00
534.9940, 29265.00
536.1720, 29496.00
537.3500, 29706.00
538.5270, 29648.00
539.7050, 29629.00
540.8820, 30165.00
542.0590, 29958.00
543.2360, 30337.00
544.4130, 30469.00
545.5900, 30134.00
546.7660, 30427.00
547.9430, 30290.00
549.1190, 30020.00
550.2950, 30098.00
551.4710, 30287.00
552.6470, 29925.00
553.8220, 29946.00
554.9980, 29565.00
556.1730, 29415.00
557.3480, 29029.00
558.5230, 28830.00
559.6980, 28356.00
560.8730, 28361.00
562.0470, 27539.00
563.2220, 27596.00
564.3960, 27381.00
565.5700, 26898.00
566.7440, 26969.00
567.9170, 26577.00
569.0910, 26540.00
570.2640, 26080.00
571.4380, 25999.00
572.6110, 25934.00
573.7840, 25694.00
574.9570, 25651.00
576.1290, 25746.00
577.3020, 25763.00
578.4740, 25566.00
579.6460, 25396.00
580.8180, 25464.00
581.9900, 25574.00
583.1620, 25324.00
584.3330, 25223.00
585.5040, 25266.00
586.6760, 25100.00
587.8470, 25118.00
589.0180, 25024.00
590.1880, 24721.00
591.3590, 24653.00
592.5290, 24763.00
593.7000, 24553.00
594.8700, 24619.00
596.0400, 24380.00
597.2090, 24505.00
598.3790, 24404.00
599.5490, 24235.00
600.7180, 24235.00
601.8870, 24193.00
603.0560, 23984.00
604.2250, 23996.00
605.3940, 23930.00
606.5620, 24021.00
607.7300, 23877.00
608.8990, 23952.00
610.0670, 23786.00
611.2350, 23842.00
612.4020, 23928.00
613.5700, 23878.00
614.7370, 23697.00
615.9050, 23798.00
617.0720, 23833.00
618.2390, 23586.00
619.4060, 23736.00
620.5720, 23877.00
621.7390, 23834.00
622.9050, 23863.00
624.0710, 23725.00
625.2370, 24197.00
626.4030, 24642.00
627.5690, 24195.00
628.7340, 24288.00
629.9000, 24407.00
631.0650, 24431.00
632.2300, 24521.00
633.3950, 24575.00
634.5600, 24779.00
635.7240, 24750.00
636.8890, 25287.00
638.0530, 25110.00
639.2170, 25258.00
640.3810, 25176.00
641.5450, 25122.00
642.7080, 25048.00
643.8720, 24996.73
645.0350, 24910.00
646.1980, 24910.24
647.3610, 24840.46
648.5240, 24820.00
649.6870, 24692.00
650.8490, 24706.00
652.0120, 24607.00
653.1740, 24539.00
654.3360, 24560.00
655.4980, 24818.00
656.6600, 24708.00
657.8210, 24723.00
658.9830, 24739.00
660.1440, 24615.00
661.3050, 24957.00
662.4660, 24735.00
663.6270, 24917.00
664.7870, 24915.00
665.9480, 24654.00
667.1080, 24445.00
668.2680, 24676.00
669.4280, 24319.00
670.5880, 24457.00
671.7480, 24477.00
672.9070, 24350.00
674.0670, 24311.93
675.2260, 24271.50
676.3850, 24215.67
677.5440, 24196.00
678.7030, 24119.00
679.8610, 24112.00
681.0200, 23984.00
682.1780, 23916.00
683.3360, 23920.00
684.4940, 23721.00
685.6520, 23653.00
686.8090, 23558.00
687.9670, 23808.00
689.1240, 23868.00
690.2810, 23836.00
691.4380, 24050.00
692.5950, 24110.00
693.7520, 24398.00
694.9080, 24401.00
696.0650, 24501.00
697.2210, 24998.00
698.3770, 25094.00
699.5330, 25328.00
700.6880, 25608.00
701.8440, 26011.00
702.9990, 26336.00
704.1550, 26733.00
705.3100, 27315.00
706.4650, 27797.00
707.6190, 28282.00
708.7740, 29083.00
709.9290, 29741.00
711.0830, 30775.00
712.2370, 31917.00
713.3910, 33047.00
714.5450, 34481.00
715.6980, 36407.00
716.8520, 38195.00
718.0050, 40877.00
719.1580, 43339.00
720.3110, 46349.00
721.4640, 49460.00
722.6170, 52902.00
723.7700, 56092.00
724.9220, 59729.00
726.0740, 62138.00
727.2260, 64531.00
728.3780, 65292.00
729.5300, 65375.00
730.6810, 64428.00
731.8330, 62436.00
732.9840, 59353.00
734.1350, 55506.00
735.2860, 52144.00
736.4370, 48158.00
737.5880, 44883.00
738.7380, 42281.00
739.8880, 39656.00
741.0390, 37921.00
742.1890, 36097.00
743.3380, 34901.00
744.4880, 33707.00
745.6380, 32958.00
746.7870, 32126.00
747.9360, 31697.00
749.0850, 31325.00
750.2340, 31125.00
751.3830, 30980.00
752.5310, 30690.00
753.6800, 30685.00
754.8280, 30446.00
755.9760, 30514.00
757.1240, 30394.00
758.2720, 30116.00
759.4190, 29843.00
760.5670, 29592.64
761.7140, 29133.00
762.8610, 28937.00
764.0080, 28473.00
765.1550, 28002.00
766.3020, 27589.00
767.4480, 27272.00
768.5950, 26971.00
769.7410, 26627.00
770.8870, 26140.00
772.0330, 25988.00
773.1780, 25569.00
774.3240, 25253.00
775.4690, 25341.00
776.6140, 25023.00
777.7590, 24986.00
778.9040, 24670.00
780.0490, 24748.00
781.1940, 24653.00
782.3380, 24641.00
783.4820, 24546.00
784.6260, 24634.00
785.7700, 24607.00
786.9140, 24605.00
788.0580, 24819.00
789.2010, 24593.00
790.3450, 24758.00
791.4880, 24708.00
792.6310, 24803.00
793.7730, 24903.00
794.9160, 24998.00
796.0590, 25059.00
797.2010, 25234.00
798.3430, 25399.00
799.4850, 25464.00
800.6270, 25660.00
801.7690, 25632.00
802.9100, 25715.00
804.0520, 25733.93
805.1930, 25675.00
806.3340, 25667.00
807.4750, 25451.00
808.6160, 25294.00
809.7560, 25172.00
810.8970, 24990.00
812.0370, 24898.21
813.1770, 25015.00
814.3170, 24778.00
815.4570, 24735.00
816.5960, 24844.00
817.7360, 24722.00
818.8750, 24833.00
820.0140, 24753.00
821.1530, 24856.00
822.2920, 24941.00
823.4310, 25028.00
824.5690, 25319.00
825.7070, 25511.00
826.8460, 25460.00
827.9840, 25955.00
829.1220, 25971.00
830.2590, 26323.00
831.3970, 26617.00
832.5340, 27020.00
833.6710, 27128.00
834.8080, 27189.00
835.9450, 27641.00
837.0820, 27753.00
838.2190, 27751.00
839.3550, 27459.00
840.4910, 27379.00
841.6270, 27332.00
842.7630, 27207.00
843.8990, 26876.00
845.0350, 26606.00
846.1700, 26537.00
847.3060, 26470.00
848.4410, 26215.00
849.5760, 26154.00
850.7100, 26140.04
851.8450, 26267.00
852.9800, 26196.00
854.1140, 26259.00
855.2480, 26300.00
856.3820, 26132.00
857.5160, 26213.00
858.6500, 26113.00
859.7830, 26310.00
860.9170, 26209.00
862.0500, 26183.00
863.1830, 26153.00
864.3160, 25965.00
865.4480, 26067.00
866.5810, 25946.00
867.7130, 25878.00
868.8460, 25893.00
869.9780, 25727.00
871.1100, 25520.00
872.2410, 25602.00
873.3730, 25486.00
874.5050, 25382.00
875.6360, 25538.00
876.7670, 25510.00
877.8980, 25702.00
879.0290, 25444.00
880.1590, 25501.00
881.2900, 25392.00
882.4200, 25177.00
883.5500, 25225.00
884.6800, 25115.43
885.8100, 25328.00
886.9400, 25138.00
888.0690, 25113.00
889.1990, 25320.00
890.3280, 25479.00
891.4570, 25125.00
892.5860, 25349.00
893.7140, 25259.00
894.8430, 25229.00
895.9710, 25275.00
897.1000, 25248.00
898.2280, 25350.00
899.3560, 25377.00
900.4830, 25280.00
901.6110, 25255.00
902.7380, 25202.00
903.8660, 25188.47
904.9930, 25263.00
906.1200, 25186.00
907.2460, 25297.00
908.3730, 25293.00
909.5000, 25270.00
910.6260, 25543.00
911.7520, 25293.00
912.8780, 25444.00
914.0040, 25593.00
915.1290, 25739.00
916.2550, 25596.00
917.3800, 25859.00
918.5050, 25815.00
919.6300, 25796.00
920.7550, 25999.00
921.8800, 25923.00
923.0040, 26234.00
924.1290, 26171.00
925.2530, 26365.00
926.3770, 26242.00
927.5010, 26515.00
928.6250, 26588.00
929.7480, 26502.00
930.8720, 26847.00
931.9950, 26824.00
933.1180, 26951.00
934.2410, 27262.00
935.3640, 27341.00
936.4860, 27340.00
937.6090, 27607.00
938.7310, 27569.00
939.8530, 27632.00
940.9750, 27698.00
942.0970, 27770.02
943.2180, 27865.00
944.3400, 28032.00
945.4610, 28014.00
946.5820, 28233.00
947.7030, 28195.00
948.8240, 28365.00
949.9450, 28487.00
951.0650, 28295.00
952.1860, 28511.00
953.3060, 28466.00
954.4260, 28610.00
955.5460, 28734.00
956.6650, 28662.00
957.7850, 28730.00
958.9040, 28801.00
960.0230, 28840.00
961.1420, 28949.00
962.2610, 29136.00
963.3800, 28906.00
964.4990, 29312.00
965.6170, 29451.00
966.7350, 29346.00
967.8530, 29111.00
968.9710, 29299.00
970.0890, 29604.00
971.2070, 29355.00
972.3240, 29477.00
973.4410, 29825.00
974.5580, 29761.00
975.6750, 29774.00
976.7920, 29839.00
977.9090, 29693.00
979.0250, 30034.00
980.1410, 29926.00
981.2580, 29741.00
982.3740, 29974.00
983.4890, 29988.00
984.6050, 29994.00
985.7200, 29828.00
986.8360, 29777.00
987.9510, 29708.00
989.0660, 29923.00
990.1810, 29815.00
991.2950, 29818.00
992.4100, 29896.00
993.5240, 29671.00
994.6390, 29653.00
995.7530, 29824.00
996.8660, 29756.00
997.9800, 29785.00
999.0940, 29551.00
1000.207, 30076.00
1001.320, 29766.00
1002.433, 29965.00
1003.546, 29961.00
1004.659, 30164.00
1005.772, 29952.00
1006.884, 30333.00
1007.996, 30066.00
1009.108, 30487.00
1010.220, 30600.00
1011.332, 30568.00
1012.444, 30655.00
1013.555, 31227.00
1014.666, 31277.00
1015.777, 31412.00
1016.888, 31870.00
1017.999, 31955.00
1019.110, 32147.00
1020.220, 32619.00
1021.331, 32957.00
1022.441, 33060.00
1023.551, 33408.00
1024.661, 33454.00
1025.770, 33330.00
1026.880, 33543.00
1027.989, 33740.00
1029.098, 33818.00
1030.207, 34026.00
1031.316, 34234.82
1032.425, 34470.34
1033.533, 34730.00
1034.642, 35076.00
1035.750, 35392.00
1036.858, 35784.00
1037.966, 36148.00
1039.073, 36690.00
1040.181, 37240.00
1041.288, 37990.00
1042.396, 38846.00
1043.503, 39531.00
1044.610, 40240.00
1045.716, 41343.00
1046.823, 42411.00
1047.929, 43482.00
1049.036, 44245.00
1050.142, 45840.00
1051.248, 47062.00
1052.353, 48394.00
1053.459, 50080.00
1054.564, 51591.00
1055.670, 53378.00
1056.775, 55085.00
1057.880, 56875.00
1058.985, 57946.00
1060.089, 59126.00
1061.194, 59878.00
1062.298, 60810.00
1063.402, 60507.00
1064.506, 60112.00
1065.610, 59126.00
1066.713, 58210.00
1067.817, 56233.00
1068.920, 54267.00
1070.023, 52630.00
1071.126, 50403.00
1072.229, 48297.00
1073.332, 46351.00
1074.435, 44511.00
1075.537, 42912.16
1076.639, 41274.00
1077.741, 40088.00
1078.843, 38826.00
1079.945, 37646.00
1081.046, 36606.00
1082.148, 35760.00
1083.249, 34922.04
1084.350, 34342.00
1085.451, 33727.00
1086.551, 33183.00
1087.652, 33011.00
1088.752, 32496.00
1089.853, 31793.00
1090.953, 31734.00
1092.053, 31507.00
1093.152, 31299.00
1094.252, 31149.00
1095.351, 30839.00
1096.451, 31093.00
1097.550, 30851.00
1098.649, 30566.00
1099.748, 30204.00
1100.846, 30117.00
1101.945, 30250.00
1103.043, 30166.00
1104.141, 30140.00
1105.239, 30150.00
1106.337, 30040.00
1107.434, 29943.00
1108.532, 30013.00
1109.629, 29718.00
1110.726, 29779.00
1111.823, 29638.00
1112.920, 29360.00
1114.017, 29799.00
1115.113, 29638.00
1116.210, 29717.00
1117.306, 29576.00
1118.402, 29448.00
1119.498, 29623.00
1120.593, 29523.00
1121.689, 29472.00
1122.784, 29744.00
1123.879, 29542.00
1124.974, 29589.00
1126.069, 29423.00
1127.164, 29570.00
1128.259, 29312.00
1129.353, 29420.00
1130.447, 29247.00
1131.541, 29141.00
1132.635, 29114.00
1133.729, 29186.00
1134.822, 29214.00
1135.916, 29279.00
1137.009, 29263.00
1138.102, 28929.00
1139.195, 29333.00
1140.288, 29022.00
1141.380, 29155.00
1142.473, 29183.00
1143.565, 28760.00
1144.657, 28811.00
1145.749, 28862.00
1146.841, 28701.00
1147.932, 28602.00
1149.024, 28607.99
1150.115, 28683.00
1151.206, 28601.00
1152.297, 28513.00
1153.388, 28577.00
1154.479, 28339.00
1155.569, 28554.00
1156.659, 28462.00
1157.750, 28802.00
1158.839, 28520.00
1159.929, 28632.00
1161.019, 28576.00
1162.108, 28475.00
1163.198, 28418.00
1164.287, 28470.00
1165.376, 28543.00
1166.465, 28499.00
1167.553, 28384.00
1168.642, 28561.00
1169.730, 28539.00
1170.818, 28624.00
1171.906, 28787.00
1172.994, 28552.00
1174.082, 28524.00
1175.170, 28517.00
1176.257, 28496.57
1177.344, 28510.92
1178.431, 28653.00
1179.518, 28595.00
1180.605, 28753.00
1181.691, 28905.00
1182.778, 28560.00
1183.864, 28524.00
1184.950, 28670.00
1186.036, 28818.00
1187.122, 28781.00
1188.207, 28910.00
1189.292, 28640.00
1190.378, 28769.00
1191.463, 28718.00
1192.548, 28737.00
1193.632, 28803.00
1194.717, 28776.00
1195.801, 28777.00
1196.886, 28817.00
1197.970, 28897.00
1199.054, 28850.00
1200.137, 28754.00
1201.221, 28912.00
1202.305, 28935.00
1203.388, 28858.00
1204.471, 28897.00
1205.554, 28916.69
1206.637, 29029.00
1207.719, 28954.00
1208.802, 28952.00
1209.884, 28869.00
1210.966, 29088.00
1212.048, 29119.00
1213.130, 29072.00
1214.212, 29160.00
1215.293, 29027.00
1216.374, 29237.00
1217.456, 29129.00
1218.536, 29054.00
1219.617, 29212.00
1220.698, 29178.00
1221.778, 29306.00
1222.859, 29389.00
1223.939, 29122.00
1225.019, 29247.00
1226.099, 29017.00
1227.178, 29470.00
1228.258, 29379.00
1229.337, 29563.00
1230.417, 29241.00
1231.496, 29290.00
1232.574, 29605.00
1233.653, 29530.00
1234.732, 29428.00
1235.810, 29490.00
1236.888, 29445.36
1237.966, 29495.00
1239.044, 29470.00
1240.122, 29582.00
1241.199, 29594.00
1242.277, 29606.54
1243.354, 29647.01
1244.431, 29617.00
1245.508, 29677.00
1246.585, 29672.00
1247.661, 29703.00
1248.738, 29562.00
1249.814, 29777.00
1250.890, 29919.00
1251.966, 29530.00
1253.042, 29837.00
1254.117, 29671.00
1255.193, 29710.00
1256.268, 29952.00
1257.343, 29801.00
1258.418, 29745.00
1259.493, 30018.00
1260.567, 29540.00
1261.642, 29848.00
1262.716, 29947.00
1263.790, 30130.00
1264.864, 30067.00
1265.938, 29955.00
1267.011, 30010.00
1268.085, 30085.00
1269.158, 30010.00
1270.231, 30062.00
1271.304, 29897.00
1272.377, 30003.09
1273.450, 30226.00
1274.522, 30128.00
1275.594, 30170.00
1276.666, 30176.00
1277.738, 30184.25
1278.810, 30426.00
1279.882, 30287.00
1280.953, 30307.00
1282.025, 30417.00
1283.096, 30251.00
1284.167, 30345.00
1285.238, 30275.00
1286.308, 30206.00
1287.379, 30451.00
