##NAMES=Elbaite
##RRUFFID=R050487
##IDEAL CHEMISTRY=Na(Al_1.5_Li_1.5_)Al_6_(Si_6_O_18_)(BO_3_)_3_(OH)_3_OH
##LOCALITY=White Queen mine, Pala, San Diego County, California, USA
##OWNER=RRUFF
##SOURCE=California Institute of Technology
##DESCRIPTION=Mass of blue acicular crystals
##STATUS=The identification of this mineral has been confirmed by X-ray diffraction and chemical analysis
##URL=rruff.info/R050487
##MEASURED CHEMISTRY=(Na_0.86_[box]_0.13_Ca_0.01_)(Al_0.42_Li_0.38_Fe^2+^_0.18_Mn_0.02_)_3_Al_6_(BO_3_)_3_Si_6_O_18_((OH)_0.85_F_0.15_)_4_
##PIN_ID=M00967
##ORIENTATION=Laser parallel to -a* (-1 0 0). Fiducial mark perpendicular to laser is parallel to c [0 0 1]
178.1550, 4992.000
179.3840, 5097.000
180.6130, 5132.000
181.8420, 5204.000
183.0710, 5232.000
184.3000, 5494.000
185.5280, 5601.000
186.7570, 5674.000
187.9850, 5940.000
189.2130, 6084.000
190.4400, 6423.000
191.6680, 6569.000
192.8960, 6888.000
194.1230, 7163.000
195.3500, 7597.000
196.5770, 7799.000
197.8030, 8198.000
199.0300, 8557.000
200.2560, 9013.000
201.4830, 9502.000
202.7090, 9914.000
203.9340, 10417.00
205.1600, 11074.00
206.3860, 11924.00
207.6110, 12876.00
208.8360, 13882.00
210.0610, 15250.00
211.2860, 16780.00
212.5100, 18643.00
213.7350, 20584.00
214.9590, 22927.00
216.1830, 25039.00
217.4070, 27425.00
218.6310, 29990.00
219.8540, 31795.00
221.0780, 33334.00
222.3010, 33505.00
223.5240, 33535.00
224.7470, 32947.00
225.9690, 31639.00
227.1920, 29932.00
228.4140, 28192.00
229.6360, 26864.00
230.8580, 25443.00
232.0800, 24500.00
233.3020, 23723.00
234.5230, 23019.00
235.7440, 22604.00
236.9650, 22168.00
238.1860, 22012.00
239.4070, 21822.00
240.6280, 21765.00
241.8480, 21535.00
243.0680, 21367.91
244.2880, 21210.00
245.5080, 20937.00
246.7280, 20664.00
247.9470, 20379.29
249.1660, 20231.00
250.3860, 19872.00
251.6040, 19687.00
252.8230, 19408.00
254.0420, 19083.00
255.2600, 18730.00
256.4790, 18354.83
257.6970, 17964.34
258.9150, 17535.00
260.1320, 17117.44
261.3500, 16695.00
262.5670, 16225.00
263.7840, 15924.00
265.0010, 15451.00
266.2180, 15117.00
267.4350, 14828.00
268.6510, 14531.00
269.8680, 14130.00
271.0840, 13697.00
272.3000, 13349.00
273.5160, 12787.00
274.7310, 12146.00
275.9470, 11670.00
277.1620, 11071.00
278.3770, 10662.00
279.5920, 10140.00
280.8070, 9695.000
282.0210, 9124.000
283.2360, 8603.000
284.4500, 8285.000
285.6640, 7798.000
286.8780, 7250.000
288.0920, 6989.000
289.3050, 6672.000
290.5180, 6407.000
291.7320, 6299.000
292.9450, 6077.000
294.1570, 5950.000
295.3700, 5878.000
296.5830, 5707.000
297.7950, 5729.000
299.0070, 5740.000
300.2190, 5705.000
301.4310, 5828.000
302.6420, 5955.000
303.8540, 5917.000
305.0650, 6062.000
306.2760, 6268.000
307.4870, 6440.000
308.6980, 6618.000
309.9080, 6883.000
311.1190, 7153.000
312.3290, 7406.000
313.5390, 7659.000
314.7490, 7895.000
315.9580, 7976.000
317.1680, 7935.000
318.3770, 7654.000
319.5860, 7530.000
320.7950, 7239.000
322.0040, 6963.000
323.2130, 6829.000
324.4210, 6686.000
325.6290, 6634.000
326.8380, 6610.000
328.0460, 6702.000
329.2530, 6846.000
330.4610, 6831.000
331.6680, 7053.000
332.8760, 7198.000
334.0830, 7332.000
335.2890, 7377.000
336.4960, 7628.000
337.7030, 7812.000
338.9090, 7975.000
340.1150, 8321.000
341.3210, 8429.000
342.5270, 8672.000
343.7330, 8930.000
344.9380, 8978.000
346.1440, 9391.000
347.3490, 9419.000
348.5540, 9668.000
349.7590, 10016.00
350.9630, 10300.00
352.1680, 10801.00
353.3720, 11199.00
354.5760, 11751.00
355.7800, 12570.00
356.9840, 13447.00
358.1870, 14647.00
359.3910, 16103.00
360.5940, 18237.00
361.7970, 20620.00
363.0000, 23044.00
364.2030, 26574.00
365.4050, 30473.00
366.6080, 35080.00
367.8100, 39692.00
369.0120, 43784.00
370.2140, 46965.00
371.4150, 48125.00
372.6170, 47862.00
373.8180, 45787.00
375.0190, 42211.00
376.2200, 37785.00
377.4210, 33161.00
378.6220, 29588.00
379.8220, 26162.00
381.0230, 23297.00
382.2230, 21004.00
383.4230, 19369.00
384.6220, 17922.00
385.8220, 17071.00
387.0220, 16216.00
388.2210, 15461.00
389.4200, 15244.00
390.6190, 14703.00
391.8180, 14671.00
393.0160, 14442.00
394.2150, 14509.00
395.4130, 14862.00
396.6110, 14840.00
397.8090, 14967.00
399.0060, 15560.00
400.2040, 16028.00
401.4010, 16779.00
402.5980, 17413.00
403.7950, 18097.00
404.9920, 18786.00
406.1890, 19218.00
407.3860, 19614.00
408.5820, 19612.00
409.7780, 19199.00
410.9740, 18816.00
412.1700, 17636.00
413.3650, 16467.00
414.5610, 15356.00
415.7560, 14037.00
416.9510, 12843.00
418.1460, 11797.00
419.3410, 10775.00
420.5360, 10096.00
421.7300, 9366.000
422.9240, 8580.000
424.1180, 8222.000
425.3120, 7836.000
426.5060, 7314.000
427.7000, 7059.000
428.8930, 6729.000
430.0860, 6560.000
431.2790, 6488.000
432.4720, 6273.000
433.6650, 6150.000
434.8580, 6066.000
436.0500, 6097.000
437.2420, 5971.000
438.4340, 5951.000
439.6260, 5826.000
440.8180, 5873.000
442.0090, 5691.000
443.2010, 5721.000
444.3920, 5639.000
445.5830, 5680.000
446.7740, 5592.000
447.9640, 5550.000
449.1550, 5466.000
450.3450, 5481.000
451.5350, 5420.000
452.7250, 5418.000
453.9150, 5239.000
455.1050, 5381.000
456.2940, 5394.000
457.4830, 5300.000
458.6720, 5394.000
459.8610, 5411.000
461.0500, 5327.000
462.2390, 5366.000
463.4270, 5396.000
464.6150, 5310.000
465.8040, 5386.000
466.9910, 5388.000
468.1790, 5228.000
469.3670, 5289.000
470.5540, 5372.000
471.7410, 5202.000
472.9280, 5238.000
474.1150, 5199.000
475.3020, 5236.000
476.4890, 5200.000
477.6750, 5173.000
478.8610, 5263.000
480.0470, 5300.000
481.2330, 5406.000
482.4190, 5420.000
483.6040, 5551.000
484.7900, 5637.000
485.9750, 5789.000
487.1600, 5840.000
488.3450, 6035.000
489.5290, 6232.000
490.7140, 6327.000
491.8980, 6403.000
493.0820, 6645.000
494.2660, 6815.000
495.4500, 6864.000
496.6340, 7009.000
497.8170, 7195.000
499.0010, 7297.000
500.1840, 7414.733
501.3670, 7462.000
502.5500, 7582.000
503.7320, 7636.000
504.9150, 7682.000
506.0970, 7797.000
507.2790, 7805.000
508.4610, 7825.000
509.6430, 7792.381
510.8250, 7744.000
512.0060, 7625.000
513.1870, 7493.000
514.3680, 7341.000
515.5490, 7227.000
516.7300, 7074.000
517.9110, 6904.218
519.0910, 6709.000
520.2710, 6521.000
521.4510, 6346.000
522.6310, 6197.172
523.8110, 5998.000
524.9910, 5946.000
526.1700, 5766.000
527.3490, 5684.146
528.5280, 5532.000
529.7070, 5482.000
530.8860, 5369.000
532.0650, 5335.000
533.2430, 5174.000
534.4210, 5182.000
535.5990, 5032.000
536.7770, 5090.000
537.9550, 5068.000
539.1320, 4940.000
540.3100, 4922.260
541.4870, 4760.000
542.6640, 4755.000
543.8410, 4766.000
545.0170, 4688.000
546.1940, 4710.000
547.3700, 4714.000
548.5470, 4698.000
549.7230, 4703.505
550.8980, 4720.233
552.0740, 4670.000
553.2500, 4775.000
554.4250, 4729.000
555.6000, 4773.000
556.7750, 4816.000
557.9500, 4886.000
559.1250, 4881.000
560.2990, 4933.338
561.4730, 4943.000
562.6480, 4988.000
563.8220, 5018.000
564.9950, 5028.000
566.1690, 5012.000
567.3430, 5150.000
568.5160, 5105.000
569.6890, 5152.000
570.8620, 5207.000
572.0350, 5223.000
573.2070, 5268.000
574.3800, 5276.000
575.5520, 5442.000
576.7240, 5429.000
577.8960, 5379.000
579.0680, 5584.000
580.2400, 5457.000
581.4110, 5571.000
582.5830, 5601.000
583.7540, 5618.000
584.9250, 5716.000
586.0950, 5660.000
587.2660, 5651.000
588.4370, 5719.000
589.6070, 5686.000
590.7770, 5675.000
591.9470, 5635.000
593.1170, 5618.000
594.2860, 5549.000
595.4560, 5719.000
596.6250, 5575.000
597.7940, 5782.000
598.9630, 5786.000
600.1320, 5914.000
601.3000, 5980.554
602.4690, 6015.243
603.6370, 6044.000
604.8050, 6074.000
605.9730, 6014.000
607.1410, 5983.000
608.3090, 6005.000
609.4760, 6056.067
610.6430, 6194.000
611.8100, 6241.000
612.9770, 6428.000
614.1440, 6536.000
615.3110, 6685.000
616.4770, 6915.000
617.6430, 7267.000
618.8090, 7556.000
619.9750, 8043.000
621.1410, 8565.936
622.3070, 9102.000
623.4720, 9841.000
624.6370, 10699.00
625.8020, 11498.00
626.9670, 12551.00
628.1320, 13453.00
629.2970, 14375.00
630.4610, 15359.00
631.6250, 16126.00
632.7890, 16684.00
633.9530, 17256.00
635.1170, 17422.00
636.2810, 17392.00
637.4440, 17244.00
638.6070, 16645.00
639.7700, 16087.00
640.9330, 15617.00
642.0960, 15253.00
643.2590, 14778.00
644.4210, 14446.00
645.5830, 14287.00
646.7450, 13792.00
647.9070, 13795.00
649.0690, 13452.00
650.2310, 13148.00
651.3920, 12984.00
652.5530, 12704.00
653.7140, 12345.00
654.8750, 12121.00
656.0360, 11781.00
657.1970, 11397.00
658.3570, 10890.00
659.5170, 10563.00
660.6770, 10267.00
661.8370, 9791.000
662.9970, 9491.000
664.1570, 9049.000
665.3160, 8629.000
666.4750, 8282.000
667.6340, 7946.285
668.7930, 7638.000
669.9520, 7401.000
671.1110, 7280.000
672.2690, 7099.000
673.4270, 7099.000
674.5850, 6994.000
675.7430, 6930.000
676.9010, 6918.000
678.0590, 6879.000
679.2160, 6938.000
680.3730, 6960.786
681.5300, 7056.000
682.6870, 7137.000
683.8440, 7259.000
685.0010, 7482.000
686.1570, 7877.000
687.3130, 8246.000
688.4690, 8741.000
689.6250, 9323.000
690.7810, 10296.00
691.9370, 11311.00
693.0920, 12518.00
694.2470, 13782.00
695.4020, 15471.00
696.5570, 17207.00
697.7120, 18644.00
698.8670, 20386.00
700.0210, 21629.00
701.1750, 22927.00
702.3290, 23537.00
703.4830, 23775.00
704.6370, 23264.00
705.7910, 22300.00
706.9440, 20907.00
708.0970, 19465.00
709.2510, 17601.00
710.4030, 15891.00
711.5560, 14228.00
712.7090, 12836.00
713.8610, 11385.00
715.0140, 10353.00
716.1660, 9463.000
717.3180, 8540.000
718.4690, 7817.000
719.6210, 7270.000
720.7730, 6874.000
721.9240, 6514.000
723.0750, 6342.000
724.2260, 6087.000
725.3770, 5902.000
726.5270, 5767.000
727.6780, 5631.000
728.8280, 5519.000
729.9780, 5396.000
731.1280, 5389.000
732.2780, 5444.000
733.4280, 5485.000
734.5770, 5389.000
735.7260, 5349.000
736.8760, 5387.000
738.0250, 5379.000
739.1730, 5395.000
740.3220, 5503.000
741.4700, 5620.000
742.6190, 5655.000
743.7670, 5912.000
744.9150, 6072.000
746.0630, 6372.000
747.2100, 6656.000
748.3580, 6895.000
749.5050, 7070.000
750.6520, 7200.000
751.7990, 7069.000
752.9460, 6932.000
754.0930, 6680.000
755.2390, 6454.000
756.3860, 6140.000
757.5320, 5894.000
758.6780, 5712.550
759.8240, 5462.000
760.9690, 5359.000
762.1150, 5211.000
763.2600, 5002.000
764.4060, 4868.000
765.5510, 4845.000
766.6950, 4694.000
767.8400, 4697.000
768.9850, 4537.000
770.1290, 4454.000
771.2730, 4494.000
772.4170, 4317.000
773.5610, 4427.000
774.7050, 4244.000
775.8480, 4161.000
776.9920, 4120.000
778.1350, 4146.000
779.2780, 4073.000
780.4210, 3973.000
781.5640, 4032.000
782.7060, 3927.000
783.8490, 3940.000
784.9910, 3896.000
786.1330, 3913.000
787.2750, 3865.000
788.4170, 3864.000
789.5580, 3890.000
790.7000, 4014.000
791.8410, 3976.000
792.9820, 4042.000
794.1230, 4018.000
795.2640, 4052.000
796.4040, 4068.000
797.5450, 4090.000
798.6850, 4000.000
799.8250, 4037.000
800.9650, 3972.000
802.1050, 4052.000
803.2450, 3957.000
804.3840, 4073.000
805.5230, 3915.000
806.6630, 4023.000
807.8020, 3950.000
808.9400, 3970.000
810.0790, 3970.000
811.2170, 4022.000
812.3560, 4016.000
813.4940, 3974.000
814.6320, 3988.000
815.7700, 4126.000
816.9070, 4130.000
818.0450, 4116.000
819.1820, 4055.000
820.3190, 4112.000
821.4560, 4134.000
822.5930, 4163.000
823.7300, 4200.000
824.8670, 4187.000
826.0030, 4210.000
827.1390, 4227.000
828.2750, 4321.000
829.4110, 4409.000
830.5470, 4331.000
831.6820, 4320.000
832.8180, 4365.000
833.9530, 4307.000
835.0880, 4428.000
836.2230, 4467.000
837.3580, 4439.000
838.4920, 4427.000
839.6270, 4522.000
840.7610, 4530.000
841.8950, 4759.000
843.0290, 4698.000
844.1630, 4747.000
845.2960, 4725.000
846.4300, 4740.340
847.5630, 4774.074
848.6960, 4789.000
849.8290, 4875.000
850.9620, 4917.000
852.0940, 5052.000
853.2270, 5062.000
854.3590, 5222.000
855.4910, 5329.000
856.6230, 5409.000
857.7550, 5542.000
858.8870, 5668.000
860.0180, 5773.000
861.1500, 5712.000
862.2810, 5696.000
863.4120, 5501.000
864.5430, 5239.000
865.6730, 5245.000
866.8040, 5000.000
867.9340, 4927.000
869.0640, 4815.000
870.1940, 4706.000
871.3240, 4664.000
872.4540, 4599.000
873.5830, 4675.000
874.7130, 4535.000
875.8420, 4594.000
876.9710, 4509.000
878.1000, 4452.000
879.2290, 4475.000
880.3570, 4532.000
881.4860, 4593.000
882.6140, 4582.022
883.7420, 4560.357
884.8700, 4555.000
885.9980, 4470.000
887.1250, 4421.000
888.2530, 4429.000
889.3800, 4438.000
890.5070, 4490.000
891.6340, 4428.000
892.7610, 4474.000
893.8880, 4457.000
895.0140, 4493.000
896.1400, 4472.000
897.2670, 4497.000
898.3930, 4457.000
899.5180, 4597.000
900.6440, 4486.000
901.7700, 4549.000
902.8950, 4469.000
904.0200, 4449.000
905.1450, 4408.000
906.2700, 4389.000
907.3950, 4397.000
908.5190, 4406.000
909.6440, 4476.000
910.7680, 4463.000
911.8920, 4439.000
913.0160, 4522.000
914.1400, 4381.000
915.2630, 4376.000
916.3870, 4387.000
917.5100, 4328.000
918.6330, 4414.000
919.7560, 4328.000
920.8790, 4293.000
922.0010, 4276.000
923.1240, 4353.000
924.2460, 4299.000
925.3680, 4274.000
926.4900, 4391.000
927.6120, 4326.000
928.7340, 4388.000
929.8550, 4494.000
930.9760, 4458.000
932.0980, 4562.000
933.2190, 4513.000
934.3390, 4640.000
935.4600, 4653.000
936.5810, 4634.000
937.7010, 4628.000
938.8210, 4765.000
939.9410, 4709.000
941.0610, 4765.000
942.1810, 4880.000
943.3010, 4868.000
944.4200, 4908.000
945.5390, 5006.000
946.6580, 5122.000
947.7770, 5218.000
948.8960, 5356.000
950.0150, 5469.000
951.1330, 5587.000
952.2510, 5707.000
953.3690, 5878.000
954.4870, 6033.000
955.6050, 6154.000
956.7230, 6202.000
957.8400, 6344.000
958.9580, 6447.000
960.0750, 6565.000
961.1920, 6674.000
962.3090, 6691.000
963.4250, 6804.000
964.5420, 6833.000
965.6580, 6722.000
966.7740, 6731.000
967.8900, 6791.000
969.0060, 6754.000
970.1220, 6796.000
971.2380, 6591.000
972.3530, 6576.000
973.4680, 6449.000
974.5830, 6536.000
975.6980, 6511.000
976.8130, 6277.000
977.9280, 6403.000
979.0420, 6447.000
980.1560, 6453.000
981.2710, 6302.000
982.3850, 6321.000
983.4980, 6419.000
984.6120, 6486.000
985.7260, 6501.000
986.8390, 6527.000
987.9520, 6596.000
989.0650, 6649.000
990.1780, 6683.000
991.2910, 6816.000
992.4030, 6802.000
993.5160, 6858.000
994.6280, 6900.728
995.7400, 7124.921
996.8520, 7276.832
997.9640, 7360.344
999.0750, 7170.545
1000.187, 7333.655
1001.298, 7355.300
1002.409, 7371.150
1003.520, 7583.872
1004.631, 7433.813
1005.741, 7643.360
1006.852, 7709.388
1007.962, 7841.071
1009.072, 7830.475
1010.182, 7863.821
1011.292, 8039.496
1012.402, 8010.000
1013.511, 8179.000
1014.621, 8251.000
1015.730, 8350.000
1016.839, 8396.000
1017.948, 8591.000
1019.056, 8540.000
1020.165, 8626.000
1021.273, 8652.000
1022.382, 8598.000
1023.490, 8653.000
1024.598, 8626.000
1025.706, 8524.000
1026.813, 8474.000
1027.921, 8373.000
1029.028, 8383.000
1030.135, 8316.000
1031.242, 8162.000
1032.349, 8001.000
1033.456, 7943.000
1034.562, 7754.000
1035.668, 7680.000
1036.775, 7724.000
1037.881, 7665.000
1038.987, 7489.000
1040.092, 7467.000
1041.198, 7406.000
1042.303, 7472.000
1043.408, 7474.000
1044.514, 7527.000
1045.618, 7587.000
1046.723, 7641.000
1047.828, 7765.282
1048.932, 7907.684
1050.037, 8069.000
1051.141, 8289.000
1052.245, 8531.000
1053.349, 8783.000
1054.452, 8930.000
1055.556, 9112.000
1056.659, 9234.000
1057.762, 9338.000
1058.865, 9447.000
1059.968, 9331.000
1061.071, 9322.000
1062.174, 9383.000
1063.276, 9402.000
1064.378, 9215.000
1065.480, 9158.000
1066.582, 9157.000
1067.684, 9027.000
1068.786, 8980.000
1069.887, 9070.000
1070.988, 9090.000
1072.090, 9206.000
1073.191, 9122.000
1074.291, 9287.000
1075.392, 9382.000
1076.493, 9655.000
1077.593, 10034.00
1078.693, 10286.00
1079.793, 10736.00
1080.893, 11132.00
1081.993, 11394.00
1083.092, 11783.00
1084.192, 11759.00
1085.291, 11768.00
1086.390, 11523.00
1087.489, 11170.00
1088.588, 10727.00
1089.686, 10253.00
1090.785, 10021.00
1091.883, 9478.000
1092.981, 9016.000
1094.079, 8799.000
1095.177, 8252.000
1096.275, 7964.000
1097.373, 7678.000
1098.470, 7401.000
1099.567, 7224.000
1100.664, 6991.000
1101.761, 6716.000
1102.858, 6626.000
1103.954, 6373.000
1105.051, 6318.000
1106.147, 6222.000
1107.243, 6190.000
1108.339, 6046.000
1109.435, 5929.000
1110.531, 5972.000
1111.626, 5824.000
1112.722, 5750.000
1113.817, 5566.000
1114.912, 5577.000
1116.007, 5521.000
1117.101, 5336.000
1118.196, 5384.000
1119.290, 5292.000
1120.385, 5161.000
1121.479, 5094.000
1122.573, 5035.000
1123.666, 5044.000
1124.760, 5074.000
1125.853, 4953.000
1126.947, 4860.000
1128.040, 4897.000
1129.133, 4852.000
1130.226, 4737.000
1131.318, 4668.000
1132.411, 4721.000
1133.503, 4615.000
1134.596, 4676.000
1135.688, 4576.000
1136.780, 4446.000
1137.871, 4395.000
1138.963, 4423.000
1140.054, 4368.000
1141.146, 4283.000
1142.237, 4318.000
1143.328, 4270.000
1144.419, 4205.000
1145.509, 4229.000
1146.600, 4204.905
1147.690, 4321.000
1148.780, 4237.000
1149.870, 4269.000
1150.960, 4320.000
1152.050, 4293.000
1153.139, 4247.000
1154.229, 4319.000
1155.318, 4297.000
1156.407, 4280.000
1157.496, 4340.000
1158.585, 4256.000
1159.674, 4375.000
1160.762, 4309.000
1161.850, 4276.000
1162.939, 4348.000
1164.027, 4308.000
1165.114, 4362.000
1166.202, 4369.000
1167.290, 4326.000
1168.377, 4283.000
1169.464, 4386.000
1170.551, 4388.000
1171.638, 4363.000
1172.725, 4399.000
1173.812, 4371.000
1174.898, 4373.000
1175.984, 4369.000
1177.071, 4367.123
1178.157, 4369.246
1179.242, 4381.000
1180.328, 4369.000
1181.414, 4381.000
1182.499, 4374.000
1183.584, 4382.000
1184.669, 4432.000
1185.754, 4390.000
1186.839, 4366.000
1187.924, 4416.000
1189.008, 4413.000
1190.092, 4313.000
1191.177, 4305.000
1192.260, 4288.000
1193.344, 4270.000
1194.428, 4298.000
1195.512, 4215.000
1196.595, 4240.000
1197.678, 4342.000
1198.761, 4275.000
1199.844, 4305.000
1200.927, 4295.000
1202.009, 4302.000
1203.092, 4272.000
1204.174, 4282.000
1205.256, 4248.000
1206.338, 4257.000
1207.420, 4213.000
1208.502, 4200.000
1209.583, 4245.000
1210.665, 4199.000
1211.746, 4287.000
1212.827, 4421.000
1213.908, 4324.334
1214.988, 4498.967
1216.069, 4601.325
1217.149, 4635.277
1218.230, 4395.978
1219.310, 4509.529
1220.390, 4481.669
1221.470, 4448.011
1222.549, 4611.215
1223.629, 4411.653
1224.708, 4571.735
1225.787, 4588.250
1226.866, 4670.472
1227.945, 4610.412
1229.024, 4594.299
1230.103, 4720.513
1231.181, 4767.911
1232.259, 4691.462
1233.337, 4724.000
1234.415, 4748.000
1235.493, 4688.000
1236.571, 4757.000
1237.648, 4714.000
1238.726, 4779.000
1239.803, 4741.000
1240.880, 4745.000
1241.957, 4733.000
1243.034, 4705.000
1244.110, 4687.000
1245.187, 4708.000
1246.263, 4843.000
1247.339, 4825.000
1248.415, 4830.000
1249.491, 4844.000
1250.566, 4803.000
1251.642, 4837.000
1252.717, 4821.000
1253.793, 4803.000
1254.868, 4809.000
1255.943, 4866.000
1257.017, 4869.000
1258.092, 4873.000
1259.166, 4833.000
1260.241, 4967.000
1261.315, 4974.000
1262.389, 4995.000
1263.462, 4950.000
1264.536, 5106.000
1265.610, 5109.000
1266.683, 5173.000
1267.756, 5222.354
1268.829, 5257.000
1269.902, 5261.000
1270.975, 5284.000
1272.048, 5271.000
1273.120, 5187.000
1274.192, 5197.000
1275.264, 5161.382
1276.336, 5164.000
1277.408, 5114.000
1278.480, 5113.000
1279.551, 5068.000
1280.623, 5011.000
1281.694, 4950.000
1282.765, 4898.000
1283.836, 4946.000
1284.907, 4897.144
1285.977, 4997.000
1287.048, 4897.000
1288.118, 4950.000
1289.188, 4991.000
1290.258, 5031.000
1291.328, 5049.000
1292.398, 5091.000
1293.467, 5183.000
1294.537, 5207.000
1295.606, 5155.000
1296.675, 5230.000
1297.744, 5198.000
1298.813, 5081.000
1299.882, 5197.000
1300.950, 5077.000
1302.018, 5051.000
1303.086, 5061.000
1304.155, 5182.000
1305.222, 5197.000
1306.290, 5194.000
1307.358, 5197.000
1308.425, 5375.000
1309.492, 5451.000
1310.559, 5382.000
1311.626, 5306.000
1312.693, 5338.000
1313.760, 5281.000
1314.826, 5348.000
1315.893, 5237.000
1316.959, 5366.000
1318.025, 5293.000
1319.091, 5390.000
1320.157, 5304.000
1321.222, 5227.000
1322.288, 5168.000
1323.353, 5199.000
1324.418, 5114.000
1325.483, 5066.000
1326.548, 4933.000
1327.612, 4883.000
1328.677, 4897.000
1329.741, 4773.000
1330.806, 4784.000
1331.870, 4700.000
1332.934, 4611.000
1333.997, 4598.000
1335.061, 4561.724
1336.124, 4540.983
1337.188, 4563.000
1338.251, 4550.000
1339.314, 4566.000
1340.377, 4613.000
