##NAMES=Elbaite
##RRUFFID=R060003
##IDEAL CHEMISTRY=Na(Al_1.5_Li_1.5_)Al_6_(Si_6_O_18_)(BO_3_)_3_(OH)_3_OH
##LOCALITY=Mount Begbie, Revelstoke, British Columbia, Canada
##OWNER=RRUFF
##SOURCE=Bob Downs
##DESCRIPTION=Pink crystal associated with trilithionite, R060004
##STATUS=The identification of this mineral has been confirmed by X-ray diffraction and chemical analysis
##URL=rruff.info/R060003
##MEASURED CHEMISTRY=(Na_0.58_[box]_0.42_)(Al_1.69_Li_1.27_Mn_0.04_)Al_6_(BO_3_)_3_[Si_6_O_18_](OH)_4_
##PIN_ID=M00450
##ORIENTATION=Laser parallel to -c* (0 0 -1). Fiducial mark perpendicular to laser is parallel to -a [-1 0 0]
167.2610, 15785.73
168.4860, 15615.00
169.7110, 15762.00
170.9360, 15805.00
172.1610, 15785.00
173.3850, 15889.00
174.6100, 15904.00
175.8340, 15954.00
177.0580, 15903.00
178.2820, 16051.15
179.5050, 16155.53
180.7290, 16342.00
181.9520, 16493.00
183.1760, 16685.00
184.3990, 16876.00
185.6220, 17052.23
186.8450, 17232.00
188.0670, 17457.00
189.2900, 17633.00
190.5120, 17898.00
191.7340, 18095.14
192.9560, 18193.00
194.1780, 18447.00
195.4000, 18622.00
196.6220, 18621.00
197.8430, 18823.00
199.0640, 18836.00
200.2860, 19136.00
201.5070, 19497.00
202.7270, 19545.00
203.9480, 19614.00
205.1690, 19600.00
206.3890, 19681.00
207.6090, 20100.47
208.8290, 20441.06
210.0490, 21133.00
211.2690, 21594.00
212.4890, 22256.00
213.7080, 23041.00
214.9280, 24039.00
216.1470, 25036.00
217.3660, 25980.00
218.5850, 27075.00
219.8030, 27950.00
221.0220, 28666.00
222.2400, 28633.00
223.4590, 28377.00
224.6770, 27810.00
225.8950, 27116.00
227.1120, 26095.00
228.3300, 25290.00
229.5480, 24625.00
230.7650, 24094.00
231.9820, 23687.00
233.1990, 23326.00
234.4160, 23167.00
235.6330, 23031.53
236.8490, 23117.00
238.0660, 23058.00
239.2820, 23290.00
240.4980, 23453.00
241.7140, 23216.00
242.9300, 23306.00
244.1460, 23259.00
245.3610, 23100.00
246.5770, 22816.00
247.7920, 22564.00
249.0070, 22306.00
250.2220, 21890.00
251.4370, 21832.00
252.6510, 21381.00
253.8660, 21109.00
255.0800, 20985.00
256.2940, 20800.00
257.5080, 20867.00
258.7220, 21307.00
259.9360, 21607.00
261.1490, 21879.00
262.3630, 20969.00
263.5760, 20991.00
264.7890, 21011.00
266.0020, 21849.00
267.2150, 21397.00
268.4270, 21722.00
269.6400, 21797.00
270.8520, 21884.00
272.0640, 22111.00
273.2760, 22000.00
274.4880, 22148.00
275.7000, 21939.00
276.9120, 22067.00
278.1230, 21951.00
279.3340, 21710.00
280.5450, 21830.00
281.7560, 21725.00
282.9670, 21661.00
284.1780, 21438.00
285.3880, 21143.00
286.5980, 21061.00
287.8090, 20730.00
289.0190, 20396.00
290.2290, 20119.00
291.4380, 20126.00
292.6480, 19774.00
293.8570, 19993.00
295.0670, 19710.00
296.2760, 19623.00
297.4850, 19366.00
298.6930, 19729.00
299.9020, 19728.00
301.1110, 20141.00
302.3190, 20228.00
303.5270, 20542.00
304.7350, 20813.00
305.9430, 20961.00
307.1510, 21290.00
308.3580, 21363.00
309.5660, 21561.73
310.7730, 21644.00
311.9800, 21820.00
313.1870, 21956.00
314.3940, 22004.00
315.6010, 22266.00
316.8070, 22240.00
318.0130, 22497.00
319.2200, 22644.00
320.4260, 23154.00
321.6310, 23392.00
322.8370, 23716.00
324.0430, 24178.00
325.2480, 24530.00
326.4540, 25169.00
327.6590, 25238.00
328.8640, 25556.00
330.0680, 25620.00
331.2730, 25662.00
332.4780, 25442.00
333.6820, 25330.00
334.8860, 24996.00
336.0900, 24681.00
337.2940, 24400.00
338.4980, 24162.35
339.7010, 23916.00
340.9050, 23873.00
342.1080, 23776.00
343.3110, 23916.00
344.5140, 23673.00
345.7170, 23817.00
346.9200, 23460.00
348.1220, 23642.00
349.3240, 23930.00
350.5270, 24112.00
351.7290, 24470.00
352.9310, 24785.00
354.1320, 25101.00
355.3340, 25426.00
356.5350, 25963.00
357.7370, 26772.00
358.9380, 27107.00
360.1390, 27900.00
361.3400, 28582.00
362.5400, 29182.00
363.7410, 30024.00
364.9410, 30798.00
366.1410, 31778.00
367.3410, 32798.00
368.5410, 33788.00
369.7410, 34475.00
370.9400, 35719.00
372.1400, 36734.00
373.3390, 38010.00
374.5380, 38580.00
375.7370, 38691.00
376.9360, 38842.00
378.1350, 38484.00
379.3330, 37660.00
380.5310, 36462.00
381.7300, 35152.00
382.9280, 33843.00
384.1260, 32535.00
385.3230, 31577.00
386.5210, 30629.00
387.7180, 30135.00
388.9160, 29204.00
390.1130, 28735.00
391.3100, 28177.00
392.5060, 27998.00
393.7030, 28211.00
394.9000, 28255.00
396.0960, 28003.00
397.2920, 28200.00
398.4880, 28376.00
399.6840, 28772.00
400.8800, 28806.00
402.0750, 29069.00
403.2710, 28949.00
404.4660, 29131.00
405.6610, 28909.00
406.8560, 29080.00
408.0510, 28796.00
409.2450, 28721.00
410.4400, 28173.00
411.6340, 27939.00
412.8280, 27073.00
414.0220, 26948.00
415.2160, 26232.00
416.4100, 25545.00
417.6030, 25224.00
418.7970, 24554.00
419.9900, 24199.00
421.1830, 23678.00
422.3760, 23335.00
423.5690, 23085.00
424.7610, 22919.00
425.9540, 22828.00
427.1460, 22734.00
428.3380, 22643.00
429.5300, 22541.00
430.7220, 22458.00
431.9140, 22477.00
433.1050, 22493.00
434.2970, 22889.00
435.4880, 22844.00
436.6790, 23013.00
437.8700, 23029.00
439.0610, 23385.00
440.2510, 23596.00
441.4420, 23506.00
442.6320, 23945.00
443.8220, 23866.00
445.0120, 23975.00
446.2020, 24294.00
447.3910, 24364.00
448.5810, 24519.00
449.7700, 24517.00
450.9600, 24541.04
452.1490, 24495.66
453.3370, 24471.00
454.5260, 24289.00
455.7150, 24186.00
456.9030, 24040.00
458.0910, 23908.00
459.2800, 23828.28
460.4670, 23744.00
461.6550, 23696.00
462.8430, 23518.00
464.0300, 23505.00
465.2180, 23476.65
466.4050, 23681.00
467.5920, 23502.00
468.7790, 23590.00
469.9650, 23628.00
471.1520, 23240.00
472.3380, 23339.00
473.5250, 23271.00
474.7110, 23383.00
475.8970, 23290.00
477.0820, 23419.00
478.2680, 23379.81
479.4540, 23377.00
480.6390, 23317.00
481.8240, 23316.00
483.0090, 23231.00
484.1940, 23288.00
485.3780, 23266.00
486.5630, 23379.00
487.7470, 23542.00
488.9320, 23399.00
490.1160, 23683.00
491.3000, 23409.00
492.4830, 23592.00
493.6670, 23737.00
494.8500, 23767.00
496.0340, 23750.00
497.2170, 24217.00
498.4000, 24362.00
499.5820, 24369.00
500.7650, 24772.00
501.9480, 24909.00
503.1300, 25056.00
504.3120, 25410.00
505.4940, 25661.00
506.6760, 25975.00
507.8580, 26116.00
509.0390, 26412.66
510.2210, 26654.63
511.4020, 26960.00
512.5830, 27155.00
513.7640, 27519.00
514.9450, 27759.00
516.1250, 27814.00
517.3060, 27894.00
518.4860, 27797.00
519.6660, 27974.00
520.8460, 27929.00
522.0260, 27660.00
523.2060, 27561.00
524.3850, 27611.00
525.5650, 27545.00
526.7440, 27664.00
527.9230, 27615.00
529.1020, 27640.00
530.2810, 27991.00
531.4590, 28534.00
532.6380, 28841.00
533.8160, 29106.00
534.9940, 29632.00
536.1720, 29748.00
537.3500, 29892.00
538.5270, 30361.00
539.7050, 30466.00
540.8820, 30539.00
542.0590, 30596.00
543.2360, 30528.00
544.4130, 30609.00
545.5900, 30541.00
546.7660, 30278.00
547.9430, 30103.00
549.1190, 30339.00
550.2950, 30360.00
551.4710, 29983.00
552.6470, 29992.00
553.8220, 29904.00
554.9980, 29702.00
556.1730, 29389.00
557.3480, 29224.88
558.5230, 29116.00
559.6980, 28689.00
560.8730, 28374.00
562.0470, 27973.00
563.2220, 27772.00
564.3960, 27538.00
565.5700, 27088.00
566.7440, 26896.00
567.9170, 26678.00
569.0910, 26311.00
570.2640, 25838.00
571.4380, 25759.00
572.6110, 25431.00
573.7840, 25430.00
574.9570, 25271.00
576.1290, 24994.00
577.3020, 24557.00
578.4740, 24871.00
579.6460, 24585.00
580.8180, 24298.00
581.9900, 24276.00
583.1620, 23994.00
584.3330, 24286.00
585.5040, 23998.00
586.6760, 24131.00
587.8470, 23820.00
589.0180, 23652.00
590.1880, 23966.00
591.3590, 23898.00
592.5290, 23792.00
593.7000, 23470.00
594.8700, 23563.00
596.0400, 23737.00
597.2090, 23393.00
598.3790, 23424.00
599.5490, 23618.00
600.7180, 23689.00
601.8870, 23264.00
603.0560, 23261.00
604.2250, 23275.00
605.3940, 23587.00
606.5620, 23036.00
607.7300, 23293.00
608.8990, 23245.00
610.0670, 23126.00
611.2350, 23077.00
612.4020, 23097.00
613.5700, 23120.00
614.7370, 23068.10
615.9050, 23077.20
617.0720, 23025.00
618.2390, 22987.00
619.4060, 23031.00
620.5720, 22881.00
621.7390, 22851.00
622.9050, 22873.00
624.0710, 22982.00
625.2370, 23133.00
626.4030, 22914.00
627.5690, 23156.00
628.7340, 23106.00
629.9000, 23390.00
631.0650, 23345.00
632.2300, 23279.00
633.3950, 23265.00
634.5600, 23379.00
635.7240, 23464.00
636.8890, 23318.00
638.0530, 23529.00
639.2170, 23473.00
640.3810, 23658.00
641.5450, 23625.00
642.7080, 23466.00
643.8720, 23825.00
645.0350, 23639.00
646.1980, 23597.00
647.3610, 23714.00
648.5240, 23617.00
649.6870, 23597.00
650.8490, 23668.00
652.0120, 23518.00
653.1740, 23458.00
654.3360, 23424.00
655.4980, 23633.00
656.6600, 23391.00
657.8210, 23543.00
658.9830, 23693.00
660.1440, 23557.00
661.3050, 24015.00
662.4660, 23912.00
663.6270, 23691.00
664.7870, 23777.00
665.9480, 23946.00
667.1080, 23766.00
668.2680, 23708.00
669.4280, 23810.00
670.5880, 23811.00
671.7480, 23979.00
672.9070, 23851.00
674.0670, 23906.00
675.2260, 24048.00
676.3850, 24264.00
677.5440, 23920.00
678.7030, 23910.00
679.8610, 23981.00
681.0200, 23694.00
682.1780, 23775.00
683.3360, 23811.00
684.4940, 23608.00
685.6520, 23602.00
686.8090, 23597.00
687.9670, 23605.00
689.1240, 23545.00
690.2810, 23737.00
691.4380, 23937.00
692.5950, 23697.00
693.7520, 23949.00
694.9080, 24019.00
696.0650, 23938.00
697.2210, 24187.00
698.3770, 24219.00
699.5330, 24167.00
700.6880, 24588.00
701.8440, 24745.00
702.9990, 25088.00
704.1550, 25197.00
705.3100, 25673.00
706.4650, 25885.09
707.6190, 26210.24
708.7740, 26586.00
709.9290, 26851.00
711.0830, 27489.00
712.2370, 27791.00
713.3910, 28413.00
714.5450, 29034.00
715.6980, 29816.00
716.8520, 30807.00
718.0050, 31867.00
719.1580, 33541.00
720.3110, 35078.00
721.4640, 37529.00
722.6170, 39272.00
723.7700, 41906.00
724.9220, 44580.00
726.0740, 47120.00
727.2260, 49472.00
728.3780, 51317.00
729.5300, 51849.00
730.6810, 51996.00
731.8330, 50800.00
732.9840, 48836.00
734.1350, 46415.00
735.2860, 44266.00
736.4370, 41917.00
737.5880, 39624.00
738.7380, 37693.00
739.8880, 36062.00
741.0390, 34555.00
742.1890, 33422.79
743.3380, 32718.00
744.4880, 31737.00
745.6380, 31158.00
746.7870, 30688.00
747.9360, 30452.00
749.0850, 29872.00
750.2340, 29669.00
751.3830, 29401.00
752.5310, 29118.00
753.6800, 28815.00
754.8280, 28787.00
755.9760, 28523.00
757.1240, 28425.00
758.2720, 28020.00
759.4190, 27799.00
760.5670, 27530.00
761.7140, 27206.00
762.8610, 26968.00
764.0080, 26633.00
765.1550, 26554.00
766.3020, 26387.00
767.4480, 26126.00
768.5950, 25988.00
769.7410, 25836.00
770.8870, 25525.00
772.0330, 25424.35
773.1780, 25323.00
774.3240, 25090.00
775.4690, 25015.00
776.6140, 24814.00
777.7590, 24770.00
778.9040, 24857.00
780.0490, 24804.00
781.1940, 24724.00
782.3380, 24619.00
783.4820, 24464.00
784.6260, 24482.29
785.7700, 24732.00
786.9140, 24452.00
788.0580, 24711.00
789.2010, 24622.00
790.3450, 24748.00
791.4880, 24688.00
792.6310, 24872.00
793.7730, 24988.00
794.9160, 24952.00
796.0590, 24954.00
797.2010, 25222.00
798.3430, 25241.00
799.4850, 25205.00
800.6270, 25419.00
801.7690, 25368.00
802.9100, 25490.00
804.0520, 25367.00
805.1930, 25151.00
806.3340, 24880.00
807.4750, 25073.00
808.6160, 24807.00
809.7560, 24903.00
810.8970, 24821.00
812.0370, 24739.00
813.1770, 24489.00
814.3170, 24593.00
815.4570, 24611.00
816.5960, 24494.00
817.7360, 24527.77
818.8750, 24574.20
820.0140, 24444.00
821.1530, 24683.00
822.2920, 24669.00
823.4310, 24615.00
824.5690, 24543.00
825.7070, 24859.00
826.8460, 24863.00
827.9840, 24888.00
829.1220, 24908.00
830.2590, 24883.00
831.3970, 25034.00
832.5340, 25119.00
833.6710, 25272.00
834.8080, 25094.00
835.9450, 25187.00
837.0820, 25102.00
838.2190, 25254.00
839.3550, 25295.00
840.4910, 25202.00
841.6270, 25232.00
842.7630, 25227.00
843.8990, 25216.00
845.0350, 25478.00
846.1700, 25632.00
847.3060, 25600.00
848.4410, 25463.00
849.5760, 25622.00
850.7100, 25597.00
851.8450, 25569.34
852.9800, 25586.00
854.1140, 25586.00
855.2480, 25616.50
856.3820, 25679.81
857.5160, 25692.00
858.6500, 25858.00
859.7830, 25893.00
860.9170, 26030.00
862.0500, 26091.00
863.1830, 26268.00
864.3160, 26191.00
865.4480, 26374.00
866.5810, 26301.00
867.7130, 26483.00
868.8460, 26422.00
869.9780, 26627.00
871.1100, 26654.00
872.2410, 26809.00
873.3730, 26653.00
874.5050, 26971.00
875.6360, 26627.00
876.7670, 26759.00
877.8980, 26722.00
879.0290, 26735.00
880.1590, 26891.00
881.2900, 26738.00
882.4200, 26887.00
883.5500, 26602.00
884.6800, 26884.00
885.8100, 26713.00
886.9400, 26688.00
888.0690, 26636.00
889.1990, 26688.00
890.3280, 26615.00
891.4570, 26510.00
892.5860, 26494.00
893.7140, 26540.00
894.8430, 26463.00
895.9710, 26289.00
897.1000, 26402.00
898.2280, 26456.00
899.3560, 26284.00
900.4830, 26383.00
901.6110, 26339.00
902.7380, 26282.00
903.8660, 26201.00
904.9930, 26447.00
906.1200, 26273.00
907.2460, 26274.00
908.3730, 26178.00
909.5000, 26389.00
910.6260, 26319.00
911.7520, 26472.00
912.8780, 26714.00
914.0040, 26434.00
915.1290, 26380.00
916.2550, 26600.00
917.3800, 26620.00
918.5050, 26766.00
919.6300, 26792.00
920.7550, 26874.18
921.8800, 26841.00
923.0040, 26999.00
924.1290, 27052.00
925.2530, 27073.00
926.3770, 27013.00
927.5010, 27490.00
928.6250, 27401.00
929.7480, 27515.00
930.8720, 27457.00
931.9950, 27665.00
933.1180, 27638.00
934.2410, 27876.00
935.3640, 27915.00
936.4860, 27868.00
937.6090, 28218.00
938.7310, 27948.00
939.8530, 28211.00
940.9750, 28380.00
942.0970, 28519.00
943.2180, 28474.00
944.3400, 28498.55
945.4610, 28520.54
946.5820, 28415.00
947.7030, 28506.00
948.8240, 28590.00
949.9450, 28581.00
951.0650, 28725.00
952.1860, 28785.00
953.3060, 28693.00
954.4260, 28857.00
955.5460, 28964.00
956.6650, 29024.00
957.7850, 29149.00
958.9040, 28850.00
960.0230, 29008.00
961.1420, 29068.00
962.2610, 29317.00
963.3800, 29317.56
964.4990, 29128.00
965.6170, 29352.00
966.7350, 29346.00
967.8530, 29304.00
968.9710, 29460.00
970.0890, 29547.00
971.2070, 29558.00
972.3240, 29641.00
973.4410, 29882.00
974.5580, 30079.00
975.6750, 29704.00
976.7920, 29934.00
977.9090, 30099.00
979.0250, 29989.00
980.1410, 30183.00
981.2580, 30096.00
982.3740, 30069.00
983.4890, 30217.00
984.6050, 30039.00
985.7200, 30073.00
986.8360, 30380.00
987.9510, 30412.00
989.0660, 30064.00
990.1810, 30178.00
991.2950, 30111.00
992.4100, 30173.00
993.5240, 30060.00
994.6390, 30051.00
995.7530, 30233.00
996.8660, 30493.00
997.9800, 30228.00
999.0940, 30244.00
1000.207, 30431.00
1001.320, 30294.00
1002.433, 30542.00
1003.546, 30209.00
1004.659, 30478.00
1005.772, 30576.00
1006.884, 30179.00
1007.996, 30506.00
1009.108, 30630.00
1010.220, 30713.00
1011.332, 31023.00
1012.444, 30936.00
1013.555, 31050.00
1014.666, 31191.00
1015.777, 31277.00
1016.888, 31321.00
1017.999, 31565.00
1019.110, 31817.00
1020.220, 31745.00
1021.331, 32075.00
1022.441, 32117.00
1023.551, 32623.00
1024.661, 32538.00
1025.770, 32884.00
1026.880, 32808.00
1027.989, 33261.00
1029.098, 33126.00
1030.207, 32967.00
1031.316, 33390.00
1032.425, 34171.00
1033.533, 34644.00
1034.642, 34198.00
1035.750, 33895.00
1036.858, 33987.00
1037.966, 34186.00
1039.073, 34480.00
1040.181, 34773.00
1041.288, 34779.00
1042.396, 34993.00
1043.503, 35360.00
1044.610, 35854.00
1045.716, 35878.00
1046.823, 36378.00
1047.929, 36573.00
1049.036, 37170.00
1050.142, 37618.00
1051.248, 38416.00
1052.353, 38711.00
1053.459, 39299.00
1054.564, 39830.00
1055.670, 40351.00
1056.775, 41267.00
1057.880, 42347.00
1058.985, 42908.00
1060.089, 43880.00
1061.194, 45083.00
1062.298, 45624.00
1063.402, 46774.00
1064.506, 47888.00
1065.610, 48274.00
1066.713, 48490.00
1067.817, 49010.00
1068.920, 48943.00
1070.023, 48630.00
1071.126, 48112.00
1072.229, 47351.00
1073.332, 46281.00
1074.435, 45183.00
1075.537, 44046.00
1076.639, 43280.00
1077.741, 41987.00
1078.843, 41039.43
1079.945, 39881.00
1081.046, 39042.00
1082.148, 38069.00
1083.249, 37261.00
1084.350, 36249.00
1085.451, 35921.00
1086.551, 35221.00
1087.652, 34704.00
1088.752, 34435.00
1089.853, 33690.00
1090.953, 33479.00
1092.053, 32940.00
1093.152, 33162.00
1094.252, 32930.00
1095.351, 32678.00
1096.451, 32303.00
1097.550, 32617.00
1098.649, 31982.00
1099.748, 32359.00
1100.846, 32090.00
1101.945, 31858.00
1103.043, 31842.00
1104.141, 31955.00
1105.239, 31703.00
1106.337, 31970.00
1107.434, 31612.00
1108.532, 31640.00
1109.629, 31868.00
1110.726, 31644.00
1111.823, 31617.00
1112.920, 31591.00
1114.017, 31564.00
1115.113, 31681.00
1116.210, 31657.58
1117.306, 31790.00
1118.402, 31763.00
1119.498, 31782.00
1120.593, 31931.00
1121.689, 31715.00
1122.784, 31883.00
1123.879, 31836.00
1124.974, 31546.00
1126.069, 31669.00
1127.164, 31553.00
1128.259, 31495.00
1129.353, 31514.00
1130.447, 31560.00
1131.541, 31333.00
1132.635, 31354.00
1133.729, 31301.00
1134.822, 31233.00
1135.916, 31371.00
1137.009, 31290.00
1138.102, 31419.00
1139.195, 31422.00
1140.288, 31425.00
1141.380, 31283.00
1142.473, 31432.00
1143.565, 31408.34
1144.657, 31453.00
1145.749, 31493.00
1146.841, 31241.00
1147.932, 31222.00
1149.024, 31450.00
1150.115, 31022.00
1151.206, 31308.00
1152.297, 31407.00
1153.388, 31542.00
1154.479, 31426.00
1155.569, 31329.00
1156.659, 31463.00
1157.750, 31401.00
1158.839, 31433.00
1159.929, 31447.00
1161.019, 31455.29
1162.108, 31483.96
1163.198, 31530.00
1164.287, 31525.00
1165.376, 31591.00
1166.465, 31607.00
1167.553, 31611.40
1168.642, 31631.29
1169.730, 31569.00
1170.818, 31614.00
1171.906, 31498.00
1172.994, 31445.00
1174.082, 31408.00
1175.170, 31661.00
1176.257, 31766.00
1177.344, 31593.00
1178.431, 31613.00
1179.518, 31468.00
1180.605, 31738.00
1181.691, 31524.00
1182.778, 31772.00
1183.864, 32008.00
1184.950, 31855.00
1186.036, 31865.00
1187.122, 32045.00
1188.207, 31951.00
1189.292, 31978.00
1190.378, 31939.00
1191.463, 31944.00
1192.548, 31950.00
1193.632, 32003.00
1194.717, 32063.00
1195.801, 32256.00
1196.886, 32016.00
1197.970, 32081.00
1199.054, 31821.00
1200.137, 32451.00
1201.221, 32012.00
1202.305, 32263.00
1203.388, 32198.00
1204.471, 32291.00
1205.554, 32057.00
1206.637, 32388.00
1207.719, 32238.00
1208.802, 32448.00
1209.884, 32552.00
1210.966, 32359.00
1212.048, 32394.00
1213.130, 32456.00
1214.212, 32556.00
1215.293, 32429.00
1216.374, 32662.00
1217.456, 32612.00
1218.536, 32454.00
1219.617, 32772.00
1220.698, 32719.00
1221.778, 32825.00
1222.859, 32789.00
1223.939, 32791.00
1225.019, 32614.00
1226.099, 32890.00
1227.178, 32807.00
1228.258, 32863.00
1229.337, 33092.00
1230.417, 32954.00
1231.496, 32815.00
1232.574, 32937.00
1233.653, 33140.00
1234.732, 33006.00
1235.810, 32878.00
1236.888, 33225.00
1237.966, 33222.00
1239.044, 33204.00
1240.122, 33175.00
1241.199, 33170.00
1242.277, 33365.00
1243.354, 33279.00
1244.431, 33216.00
1245.508, 33462.00
1246.585, 33507.00
1247.661, 33522.00
1248.738, 33724.00
1249.814, 33402.00
1250.890, 33410.00
1251.966, 33489.00
1253.042, 33285.00
1254.117, 33651.00
1255.193, 33558.00
1256.268, 33421.00
1257.343, 33571.00
1258.418, 33654.00
1259.493, 33492.00
1260.567, 33729.00
1261.642, 33496.00
1262.716, 33828.00
1263.790, 33839.00
1264.864, 34010.00
1265.938, 34041.00
1267.011, 33997.00
1268.085, 33854.00
1269.158, 33838.00
1270.231, 33918.00
1271.304, 34033.00
1272.377, 34009.70
1273.450, 34043.62
1274.522, 34081.00
1275.594, 34060.00
1276.666, 34209.00
1277.738, 34334.00
1278.810, 34083.00
1279.882, 34268.00
1280.953, 34210.00
1282.025, 34233.00
1283.096, 34398.00
1284.167, 34395.00
1285.238, 34233.00
1286.308, 34609.00
1287.379, 34354.00
1288.449, 34504.00
1289.519, 34326.00
1290.589, 34534.00
1291.659, 34412.00
1292.729, 34765.00
1293.798, 34425.00
1294.868, 34496.00
1295.937, 34713.00
1297.006, 34716.00
1298.075, 34919.00
1299.143, 34851.65
1300.212, 34846.00
1301.280, 34699.00
1302.348, 34841.00
1303.416, 34771.00
1304.484, 34920.00
1305.552, 34965.00
1306.620, 35112.00
1307.687, 34912.00
1308.754, 35106.00
1309.821, 35141.00
1310.888, 35117.00
1311.955, 35221.00
1313.021, 35147.00
1314.088, 35117.00
1315.154, 35072.00
1316.220, 35203.00
1317.286, 35287.00
1318.352, 35121.00
1319.417, 35323.00
1320.483, 35372.00
1321.548, 35447.00
1322.613, 35581.00
1323.678, 35580.00
1324.743, 35534.00
1325.807, 35246.00
1326.872, 35660.00
1327.936, 35363.00
1329.000, 35741.00
1330.064, 35631.00
1331.128, 35534.00
1332.191, 35517.00
1333.255, 35567.16
