##NAMES=Elbaite
##RRUFFID=R060003
##IDEAL CHEMISTRY=Na(Al_1.5_Li_1.5_)Al_6_(Si_6_O_18_)(BO_3_)_3_(OH)_3_OH
##LOCALITY=Mount Begbie, Revelstoke, British Columbia, Canada
##OWNER=RRUFF
##SOURCE=Bob Downs
##DESCRIPTION=Pink crystal associated with trilithionite, R060004
##STATUS=The identification of this mineral has been confirmed by X-ray diffraction and chemical analysis
##URL=rruff.info/R060003
##MEASURED CHEMISTRY=(Na_0.58_[box]_0.42_)(Al_1.69_Li_1.27_Mn_0.04_)Al_6_(BO_3_)_3_[Si_6_O_18_](OH)_4_
##PIN_ID=M00450
##ORIENTATION=Laser parallel to -c* (0 0 -1). Fiducial mark perpendicular to laser is parallel to -a [-1 0 0]
167.2610, 19737.00
168.4860, 19443.00
169.7110, 19712.00
170.9360, 20019.00
172.1610, 19838.00
173.3850, 19838.00
174.6100, 19932.00
175.8340, 20096.00
177.0580, 20214.00
178.2820, 20238.00
179.5050, 20439.00
180.7290, 20282.00
181.9520, 20412.00
183.1760, 20474.00
184.3990, 20716.00
185.6220, 20888.00
186.8450, 21021.00
188.0670, 21300.00
189.2900, 21454.00
190.5120, 21607.00
191.7340, 22015.00
192.9560, 22011.00
194.1780, 22287.00
195.4000, 22146.00
196.6220, 22220.00
197.8430, 22514.00
199.0640, 22706.00
200.2860, 23010.00
201.5070, 23022.00
202.7270, 23139.00
203.9480, 23262.00
205.1690, 23019.00
206.3890, 23261.00
207.6090, 23476.00
208.8290, 23970.00
210.0490, 24339.00
211.2690, 24854.00
212.4890, 25667.00
213.7080, 26369.00
214.9280, 26896.00
216.1470, 27664.00
217.3660, 28300.00
218.5850, 29332.00
219.8030, 30239.00
221.0220, 30728.00
222.2400, 30957.00
223.4590, 30577.00
224.6770, 30341.00
225.8950, 29673.00
227.1120, 29037.00
228.3300, 28199.00
229.5480, 27899.00
230.7650, 27157.00
231.9820, 26988.00
233.1990, 26656.00
234.4160, 26438.00
235.6330, 26542.00
236.8490, 26446.00
238.0660, 26450.00
239.2820, 26625.00
240.4980, 26785.00
241.7140, 26713.00
242.9300, 26770.22
244.1460, 26681.21
245.3610, 26601.00
246.5770, 26392.00
247.7920, 26131.00
249.0070, 25872.00
250.2220, 25667.63
251.4370, 25421.00
252.6510, 25331.00
253.8660, 25018.00
255.0800, 25036.00
256.2940, 24728.00
257.5080, 24807.00
258.7220, 25358.00
259.9360, 25359.00
261.1490, 25217.00
262.3630, 25047.00
263.5760, 24855.00
264.7890, 25396.00
266.0020, 25458.00
267.2150, 25426.00
268.4270, 25819.00
269.6400, 25778.00
270.8520, 26028.00
272.0640, 25898.00
273.2760, 25967.75
274.4880, 26013.75
275.7000, 25927.00
276.9120, 26000.00
278.1230, 25884.00
279.3340, 25770.00
280.5450, 25958.00
281.7560, 25919.00
282.9670, 25579.00
284.1780, 25578.00
285.3880, 25457.00
286.5980, 25277.00
287.8090, 25185.00
289.0190, 24793.00
290.2290, 24901.00
291.4380, 24596.00
292.6480, 24655.00
293.8570, 24212.00
295.0670, 24330.00
296.2760, 24266.00
297.4850, 24420.00
298.6930, 24454.00
299.9020, 24512.00
301.1110, 24721.00
302.3190, 24919.00
303.5270, 24964.00
304.7350, 25244.00
305.9430, 25462.00
307.1510, 25804.00
308.3580, 25838.00
309.5660, 25884.00
310.7730, 26066.00
311.9800, 26258.00
313.1870, 26240.00
314.3940, 26289.00
315.6010, 26371.00
316.8070, 26374.00
318.0130, 26590.00
319.2200, 26731.00
320.4260, 27239.00
321.6310, 27385.00
322.8370, 27748.00
324.0430, 28133.00
325.2480, 28524.00
326.4540, 28879.00
327.6590, 29275.00
328.8640, 29306.00
330.0680, 29639.00
331.2730, 29398.00
332.4780, 29340.00
333.6820, 29150.00
334.8860, 29034.85
336.0900, 29030.00
337.2940, 28831.00
338.4980, 28785.00
339.7010, 28724.00
340.9050, 28712.00
342.1080, 28546.55
343.3110, 28388.00
344.5140, 28420.00
345.7170, 28164.00
346.9200, 28531.00
348.1220, 28331.00
349.3240, 28572.00
350.5270, 28784.00
351.7290, 28866.00
352.9310, 29276.00
354.1320, 29527.00
355.3340, 29762.00
356.5350, 30215.00
357.7370, 30642.00
358.9380, 31184.00
360.1390, 31781.00
361.3400, 32256.00
362.5400, 32954.00
363.7410, 33462.00
364.9410, 34186.00
366.1410, 35056.00
367.3410, 35567.00
368.5410, 36510.00
369.7410, 37050.00
370.9400, 37940.00
372.1400, 38866.00
373.3390, 39691.00
374.5380, 40312.00
375.7370, 40721.00
376.9360, 40697.23
378.1350, 40323.00
379.3330, 39833.00
380.5310, 39040.00
381.7300, 37790.00
382.9280, 36816.00
384.1260, 35741.00
385.3230, 34771.00
386.5210, 34264.00
387.7180, 33520.00
388.9160, 32892.00
390.1130, 32646.00
391.3100, 32245.00
392.5060, 32123.00
393.7030, 32154.00
394.9000, 32220.00
396.0960, 32171.00
397.2920, 32073.00
398.4880, 32370.00
399.6840, 32376.00
400.8800, 32743.00
402.0750, 32809.00
403.2710, 33031.00
404.4660, 32964.00
405.6610, 33014.00
406.8560, 32760.00
408.0510, 32804.00
409.2450, 32726.00
410.4400, 32336.00
411.6340, 32110.00
412.8280, 31816.00
414.0220, 31207.00
415.2160, 30768.00
416.4100, 30352.00
417.6030, 30055.00
418.7970, 29651.97
419.9900, 29313.00
421.1830, 28962.00
422.3760, 28789.00
423.5690, 28479.00
424.7610, 28557.00
425.9540, 28005.00
427.1460, 28192.00
428.3380, 28153.00
429.5300, 28096.00
430.7220, 28130.00
431.9140, 28029.00
433.1050, 28313.00
434.2970, 28516.00
435.4880, 28347.00
436.6790, 28642.00
437.8700, 28640.00
439.0610, 28889.00
440.2510, 28896.00
441.4420, 28941.00
442.6320, 29366.00
443.8220, 29648.00
445.0120, 29546.00
446.2020, 29624.00
447.3910, 29820.00
448.5810, 29650.00
449.7700, 29910.00
450.9600, 29864.00
452.1490, 30022.00
453.3370, 29609.00
454.5260, 29739.00
455.7150, 29545.00
456.9030, 29712.00
458.0910, 29382.00
459.2800, 29374.00
460.4670, 29345.00
461.6550, 29314.00
462.8430, 29333.00
464.0300, 29298.05
465.2180, 29407.00
466.4050, 29229.00
467.5920, 29188.00
468.7790, 29079.00
469.9650, 29137.00
471.1520, 28901.00
472.3380, 29223.00
473.5250, 29005.00
474.7110, 29340.00
475.8970, 29139.00
477.0820, 28969.00
478.2680, 28766.00
479.4540, 28840.85
480.6390, 29062.00
481.8240, 29074.00
483.0090, 29207.00
484.1940, 29380.00
485.3780, 29210.00
486.5630, 29265.00
487.7470, 29194.00
488.9320, 29268.00
490.1160, 29363.00
491.3000, 29551.00
492.4830, 29561.00
493.6670, 29414.00
494.8500, 29633.00
496.0340, 29551.00
497.2170, 29797.00
498.4000, 30126.00
499.5820, 30436.00
500.7650, 30300.00
501.9480, 30590.00
503.1300, 30737.00
504.3120, 31065.00
505.4940, 31166.00
506.6760, 31528.00
507.8580, 31575.00
509.0390, 31889.00
510.2210, 32192.00
511.4020, 32548.00
512.5830, 32736.04
513.7640, 32886.00
514.9450, 33076.00
516.1250, 33033.00
517.3060, 33100.00
518.4860, 33282.00
519.6660, 33150.00
520.8460, 33170.00
522.0260, 33206.00
523.2060, 33036.00
524.3850, 32798.00
525.5650, 32884.00
526.7440, 33093.00
527.9230, 33094.00
529.1020, 33326.00
530.2810, 33377.00
531.4590, 33630.00
532.6380, 33885.09
533.8160, 34082.00
534.9940, 34547.00
536.1720, 34707.00
537.3500, 35179.00
538.5270, 35331.00
539.7050, 35399.00
540.8820, 35456.00
542.0590, 35556.60
543.2360, 35614.00
544.4130, 35654.00
545.5900, 35513.00
546.7660, 35441.00
547.9430, 35217.00
549.1190, 35448.00
550.2950, 35500.00
551.4710, 35141.00
552.6470, 35325.00
553.8220, 35129.00
554.9980, 35066.00
556.1730, 34858.00
557.3480, 34657.32
558.5230, 34692.00
559.6980, 34250.00
560.8730, 33939.00
562.0470, 33830.00
563.2220, 33627.00
564.3960, 33362.00
565.5700, 32955.00
566.7440, 32879.00
567.9170, 32675.00
569.0910, 32644.00
570.2640, 32176.00
571.4380, 31869.00
572.6110, 31947.00
573.7840, 31503.00
574.9570, 31647.00
576.1290, 31418.00
577.3020, 31315.00
578.4740, 31357.00
579.6460, 31176.55
580.8180, 31046.00
581.9900, 30965.00
583.1620, 31104.00
584.3330, 30970.00
585.5040, 30938.00
586.6760, 30883.00
587.8470, 30864.00
589.0180, 30835.00
590.1880, 30971.00
591.3590, 30777.00
592.5290, 30753.00
593.7000, 30685.00
594.8700, 30884.00
596.0400, 30995.00
597.2090, 30761.00
598.3790, 30680.00
599.5490, 30837.00
600.7180, 30542.00
601.8870, 30485.00
603.0560, 30573.00
604.2250, 30604.00
605.3940, 30614.00
606.5620, 30629.57
607.7300, 30638.98
608.8990, 30616.00
610.0670, 30610.00
611.2350, 30631.00
612.4020, 30537.00
613.5700, 30658.00
614.7370, 30581.00
615.9050, 30641.00
617.0720, 30555.00
618.2390, 30355.00
619.4060, 30694.00
620.5720, 30374.00
621.7390, 30504.00
622.9050, 30154.00
624.0710, 30309.00
625.2370, 30486.00
626.4030, 30454.00
627.5690, 30633.00
628.7340, 30548.00
629.9000, 30944.00
631.0650, 30744.00
632.2300, 30886.00
633.3950, 30906.00
634.5600, 30966.00
635.7240, 31004.00
636.8890, 31088.02
638.0530, 31007.00
639.2170, 31190.00
640.3810, 31244.00
641.5450, 31115.00
642.7080, 31113.00
643.8720, 31337.00
645.0350, 31260.00
646.1980, 31398.00
647.3610, 31171.00
648.5240, 31462.00
649.6870, 31376.00
650.8490, 31222.00
652.0120, 31435.00
653.1740, 31393.00
654.3360, 31254.00
655.4980, 31349.00
656.6600, 31370.00
657.8210, 31534.00
658.9830, 31629.00
660.1440, 31521.00
661.3050, 31817.00
662.4660, 31944.00
663.6270, 31605.00
664.7870, 31813.00
665.9480, 31999.00
667.1080, 31693.00
668.2680, 31778.00
669.4280, 32079.00
670.5880, 31760.00
671.7480, 32106.00
672.9070, 32162.00
674.0670, 32086.00
675.2260, 32153.00
676.3850, 32154.00
677.5440, 31861.00
678.7030, 31874.00
679.8610, 31878.00
681.0200, 32011.00
682.1780, 31793.00
683.3360, 31659.00
684.4940, 31670.00
685.6520, 31682.00
686.8090, 31448.00
687.9670, 31696.00
689.1240, 31483.00
690.2810, 32024.00
691.4380, 31792.00
692.5950, 32077.00
693.7520, 32081.00
694.9080, 31985.00
696.0650, 32148.00
697.2210, 32217.00
698.3770, 32392.00
699.5330, 32552.34
700.6880, 32618.00
701.8440, 32866.00
702.9990, 33076.00
704.1550, 33137.00
705.3100, 33337.00
706.4650, 33435.00
707.6190, 33808.00
708.7740, 34157.00
709.9290, 34794.00
711.0830, 34800.00
712.2370, 35266.00
713.3910, 35956.00
714.5450, 36363.00
715.6980, 37000.00
716.8520, 37779.00
718.0050, 38666.00
719.1580, 39943.10
720.3110, 41564.00
721.4640, 43017.00
722.6170, 44873.00
723.7700, 46915.00
724.9220, 48882.00
726.0740, 51081.00
727.2260, 52889.00
728.3780, 54488.00
729.5300, 55117.00
730.6810, 55062.00
731.8330, 54064.00
732.9840, 52762.00
734.1350, 51033.00
735.2860, 48897.00
736.4370, 46968.00
737.5880, 45306.00
738.7380, 44001.00
739.8880, 42459.00
741.0390, 41097.00
742.1890, 40369.00
743.3380, 39347.00
744.4880, 38757.00
745.6380, 38357.00
746.7870, 38044.00
747.9360, 37545.00
749.0850, 37462.00
750.2340, 37027.00
751.3830, 36979.00
752.5310, 36843.00
753.6800, 36650.00
754.8280, 36420.00
755.9760, 36254.00
757.1240, 36091.85
758.2720, 35921.87
759.4190, 35811.00
760.5670, 35643.00
761.7140, 35508.00
762.8610, 35405.00
764.0080, 35082.00
765.1550, 35055.00
766.3020, 34693.00
767.4480, 34345.00
768.5950, 34482.00
769.7410, 34432.00
770.8870, 34148.00
772.0330, 34151.00
773.1780, 34211.00
774.3240, 33840.00
775.4690, 33987.00
776.6140, 33773.00
777.7590, 34001.00
778.9040, 33803.00
780.0490, 33625.00
781.1940, 33558.00
782.3380, 33701.00
783.4820, 33868.00
784.6260, 33869.00
785.7700, 33632.00
786.9140, 33856.00
788.0580, 33824.00
789.2010, 33842.00
790.3450, 33950.00
791.4880, 33877.00
792.6310, 33839.00
793.7730, 33766.00
794.9160, 33792.00
796.0590, 34226.00
797.2010, 34024.00
798.3430, 34060.00
799.4850, 34340.00
800.6270, 34211.00
801.7690, 34477.00
802.9100, 34521.00
804.0520, 34620.00
805.1930, 34306.00
806.3340, 33997.00
807.4750, 34161.00
808.6160, 34096.00
809.7560, 34008.00
810.8970, 34193.00
812.0370, 34205.00
813.1770, 33862.00
814.3170, 33800.00
815.4570, 33761.00
816.5960, 33885.00
817.7360, 33907.96
818.8750, 34156.00
820.0140, 34163.00
821.1530, 34031.00
822.2920, 34262.00
823.4310, 34286.00
824.5690, 34184.00
825.7070, 34215.00
826.8460, 34354.00
827.9840, 34440.00
829.1220, 34346.00
830.2590, 34320.00
831.3970, 34381.00
832.5340, 34471.00
833.6710, 34356.00
834.8080, 34602.00
835.9450, 34695.00
837.0820, 34545.00
838.2190, 34782.00
839.3550, 34878.00
840.4910, 34693.00
841.6270, 34631.00
842.7630, 34688.00
843.8990, 34968.00
845.0350, 35150.00
846.1700, 35195.05
847.3060, 35181.00
848.4410, 35226.00
849.5760, 35208.00
850.7100, 35055.00
851.8450, 35308.00
852.9800, 35207.00
854.1140, 35500.00
855.2480, 35453.00
856.3820, 35439.00
857.5160, 35831.00
858.6500, 35537.00
859.7830, 35747.00
860.9170, 35747.00
862.0500, 35838.00
863.1830, 35768.00
864.3160, 35858.00
865.4480, 36019.00
866.5810, 35854.00
867.7130, 35906.00
868.8460, 36358.00
869.9780, 36394.00
871.1100, 36307.00
872.2410, 36239.00
873.3730, 36446.00
874.5050, 36524.00
875.6360, 36560.00
876.7670, 36677.00
877.8980, 36476.00
879.0290, 36491.00
880.1590, 36581.00
881.2900, 36304.00
882.4200, 36844.00
883.5500, 36424.00
884.6800, 36817.00
885.8100, 36499.00
886.9400, 36516.00
888.0690, 36367.00
889.1990, 36596.00
890.3280, 36561.00
891.4570, 36571.00
892.5860, 36485.00
893.7140, 36541.00
894.8430, 36332.00
895.9710, 36275.00
897.1000, 36300.00
898.2280, 36137.00
899.3560, 36383.00
900.4830, 36406.00
901.6110, 36526.00
902.7380, 36273.00
903.8660, 36580.00
904.9930, 36694.00
906.1200, 36336.00
907.2460, 36691.00
908.3730, 36399.00
909.5000, 36527.00
910.6260, 36533.00
911.7520, 36523.00
912.8780, 36712.00
914.0040, 36498.00
915.1290, 36772.00
916.2550, 36728.00
917.3800, 36991.00
918.5050, 36718.00
919.6300, 37000.00
920.7550, 37066.00
921.8800, 36941.00
923.0040, 37097.00
924.1290, 37285.00
925.2530, 37363.00
926.3770, 37526.00
927.5010, 37560.00
928.6250, 37653.00
929.7480, 37640.00
930.8720, 37608.00
931.9950, 37587.00
933.1180, 37685.78
934.2410, 37899.00
935.3640, 37909.00
936.4860, 38256.00
937.6090, 38381.00
938.7310, 38402.90
939.8530, 38363.00
940.9750, 38459.00
942.0970, 38585.00
943.2180, 38696.00
944.3400, 38839.00
945.4610, 38891.00
946.5820, 38927.00
947.7030, 39056.00
948.8240, 39004.00
949.9450, 39070.96
951.0650, 38927.00
952.1860, 39140.00
953.3060, 39279.00
954.4260, 39372.00
955.5460, 39189.00
956.6650, 39308.00
957.7850, 39250.00
958.9040, 39443.00
960.0230, 39462.21
961.1420, 39468.00
962.2610, 39630.00
963.3800, 39683.00
964.4990, 39856.00
965.6170, 40122.00
966.7350, 39993.34
967.8530, 39732.00
968.9710, 39928.00
970.0890, 39715.00
971.2070, 39928.00
972.3240, 40144.00
973.4410, 40135.00
974.5580, 40529.00
975.6750, 40502.00
976.7920, 40526.00
977.9090, 40542.00
979.0250, 40545.00
980.1410, 40680.00
981.2580, 40678.00
982.3740, 40861.00
983.4890, 40784.00
984.6050, 40831.00
985.7200, 40896.00
986.8360, 40807.00
987.9510, 40596.00
989.0660, 40770.00
990.1810, 40770.00
991.2950, 40854.00
992.4100, 40981.00
993.5240, 40813.00
994.6390, 40885.00
995.7530, 40723.00
996.8660, 40835.00
997.9800, 40788.00
999.0940, 40840.00
1000.207, 40948.92
1001.320, 40909.00
1002.433, 41177.00
1003.546, 41355.00
1004.659, 41482.00
1005.772, 41533.10
1006.884, 41247.00
1007.996, 41525.00
1009.108, 41372.00
1010.220, 41398.00
1011.332, 41841.00
1012.444, 41746.00
1013.555, 41690.00
1014.666, 41834.00
1015.777, 42251.00
1016.888, 42370.00
1017.999, 42445.00
1019.110, 42666.00
1020.220, 42608.00
1021.331, 43132.00
1022.441, 42812.00
1023.551, 42828.00
1024.661, 43534.00
1025.770, 43470.00
1026.880, 43523.00
1027.989, 43469.00
1029.098, 43575.29
1030.207, 43716.01
1031.316, 43866.00
1032.425, 44011.00
1033.533, 44300.00
1034.642, 44278.00
1035.750, 44557.00
1036.858, 44789.00
1037.966, 44781.00
1039.073, 44900.00
1040.181, 45278.00
1041.288, 45073.00
1042.396, 45240.00
1043.503, 45788.00
1044.610, 45941.00
1045.716, 46101.00
1046.823, 46428.00
1047.929, 46785.00
1049.036, 47093.00
1050.142, 47614.00
1051.248, 48150.00
1052.353, 48579.52
1053.459, 49296.00
1054.564, 49609.00
1055.670, 49969.00
1056.775, 50559.00
1057.880, 51131.00
1058.985, 52018.00
1060.089, 52705.00
1061.194, 53606.00
1062.298, 54063.00
1063.402, 54871.00
1064.506, 55389.00
1065.610, 56339.00
1066.713, 56364.00
1067.817, 56650.00
1068.920, 56908.00
1070.023, 56803.00
1071.126, 56438.00
1072.229, 55638.00
1073.332, 55057.00
1074.435, 54199.00
1075.537, 53234.00
1076.639, 52432.00
1077.741, 51670.00
1078.843, 50813.00
1079.945, 49865.00
1081.046, 48987.00
1082.148, 48304.00
1083.249, 47783.00
1084.350, 46915.00
1085.451, 46629.00
1086.551, 46263.00
1087.652, 45750.00
1088.752, 45169.00
1089.853, 45151.00
1090.953, 45051.00
1092.053, 44587.00
1093.152, 44568.00
1094.252, 44251.00
1095.351, 44169.00
1096.451, 44184.00
1097.550, 44014.00
1098.649, 44204.00
1099.748, 43926.00
1100.846, 44004.00
1101.945, 43810.00
1103.043, 43891.00
1104.141, 43811.42
1105.239, 43630.00
1106.337, 43781.00
1107.434, 43646.00
1108.532, 43790.00
1109.629, 43493.00
1110.726, 43473.00
1111.823, 43625.00
1112.920, 43693.00
1114.017, 43667.00
1115.113, 43534.00
1116.210, 43413.00
1117.306, 43797.00
1118.402, 43855.00
1119.498, 43652.00
1120.593, 43930.00
1121.689, 43763.00
1122.784, 43930.00
1123.879, 43946.00
1124.974, 44104.00
1126.069, 43830.00
1127.164, 43918.00
1128.259, 43758.00
1129.353, 43854.00
1130.447, 43771.00
1131.541, 43709.00
1132.635, 43800.17
1133.729, 43761.64
1134.822, 43910.00
1135.916, 43836.00
1137.009, 43852.00
1138.102, 43927.00
1139.195, 43923.00
1140.288, 43936.37
1141.380, 43941.11
1142.473, 43897.00
1143.565, 43904.00
1144.657, 43906.85
1145.749, 43774.00
1146.841, 43910.00
1147.932, 43929.00
1149.024, 43889.00
1150.115, 43748.00
1151.206, 43816.00
1152.297, 44061.00
1153.388, 43851.00
1154.479, 44064.00
1155.569, 43946.00
1156.659, 43802.00
1157.750, 44195.00
1158.839, 43857.00
1159.929, 44184.00
1161.019, 44122.00
1162.108, 43986.00
1163.198, 43990.00
1164.287, 44008.01
1165.376, 43930.00
1166.465, 44148.00
1167.553, 44167.00
1168.642, 44256.00
1169.730, 44238.00
1170.818, 44362.00
1171.906, 44275.00
1172.994, 44478.00
1174.082, 44451.00
1175.170, 44542.00
1176.257, 44494.00
1177.344, 44087.00
1178.431, 44465.00
1179.518, 44876.00
1180.605, 44523.00
1181.691, 44510.00
1182.778, 44986.00
1183.864, 44623.00
1184.950, 44731.00
1186.036, 44857.00
1187.122, 45100.00
1188.207, 44841.00
1189.292, 45092.00
1190.378, 44906.00
1191.463, 44837.00
1192.548, 44950.00
1193.632, 45268.00
1194.717, 45273.00
1195.801, 44965.00
1196.886, 44875.00
1197.970, 45231.00
1199.054, 45222.00
1200.137, 45547.00
1201.221, 45287.00
1202.305, 45199.00
1203.388, 45585.00
1204.471, 45420.00
1205.554, 45552.00
1206.637, 45476.00
1207.719, 45636.00
1208.802, 45825.00
1209.884, 45854.00
1210.966, 45727.00
1212.048, 45911.00
1213.130, 45823.09
1214.212, 45783.00
1215.293, 45807.00
1216.374, 45828.00
1217.456, 45874.00
1218.536, 45918.00
1219.617, 46012.00
1220.698, 45990.00
1221.778, 46140.00
1222.859, 46072.00
1223.939, 46350.00
1225.019, 45962.00
1226.099, 46263.00
1227.178, 46345.00
1228.258, 46319.00
1229.337, 46676.00
1230.417, 46473.00
1231.496, 46194.00
1232.574, 46323.00
1233.653, 46455.00
1234.732, 46546.00
1235.810, 46502.00
1236.888, 46640.52
1237.966, 46554.00
1239.044, 46686.00
1240.122, 46867.00
1241.199, 46649.00
1242.277, 47142.00
1243.354, 46743.00
1244.431, 46829.00
1245.508, 47020.00
1246.585, 46815.00
1247.661, 46833.00
1248.738, 46868.00
1249.814, 47096.00
1250.890, 46950.00
1251.966, 46922.00
1253.042, 47291.00
1254.117, 47249.00
1255.193, 47169.00
1256.268, 47140.00
1257.343, 47368.00
1258.418, 47001.00
1259.493, 47625.00
1260.567, 47368.00
1261.642, 47361.00
1262.716, 47745.00
1263.790, 47754.00
1264.864, 47811.01
1265.938, 47673.00
1267.011, 47724.00
1268.085, 47941.00
1269.158, 47698.00
1270.231, 47685.00
1271.304, 47952.00
1272.377, 47889.00
1273.450, 47658.00
1274.522, 48151.00
1275.594, 48045.00
1276.666, 47922.00
1277.738, 48038.00
1278.810, 47946.67
1279.882, 48018.55
1280.953, 48001.00
1282.025, 48152.00
1283.096, 48328.00
1284.167, 48393.00
1285.238, 48337.00
1286.308, 48243.00
1287.379, 48459.00
1288.449, 48711.00
1289.519, 48574.00
1290.589, 48607.00
1291.659, 48698.00
1292.729, 48438.00
1293.798, 48316.00
1294.868, 48525.00
1295.937, 48428.00
1297.006, 48381.00
1298.075, 48779.00
1299.143, 48662.00
1300.212, 48775.00
1301.280, 48932.00
1302.348, 48706.00
1303.416, 48474.00
1304.484, 48892.00
1305.552, 49069.00
1306.620, 48748.00
1307.687, 48898.00
1308.754, 49022.00
1309.821, 49092.00
1310.888, 49137.82
1311.955, 49250.00
1313.021, 49233.00
1314.088, 49337.78
1315.154, 49394.00
1316.220, 49511.00
1317.286, 49534.00
1318.352, 49652.00
1319.417, 49590.00
1320.483, 49817.00
1321.548, 49651.00
1322.613, 49828.00
1323.678, 49736.00
1324.743, 49918.00
1325.807, 49990.00
1326.872, 49890.00
1327.936, 50008.00
1329.000, 49861.00
1330.064, 50125.00
1331.128, 50193.00
1332.191, 50238.00
1333.255, 50365.00
