##NAMES=Enstatite
##RRUFFID=R040093
##IDEAL CHEMISTRY=MgSiO_3_
##LOCALITY=Castle Rock, Pennsylvania, USA
##OWNER=RRUFF
##SOURCE=University of Arizona Mineral Museum
##DESCRIPTION=Dark green massive
##STATUS=The identification of this mineral has been confirmed by X-ray diffraction and chemical analysis
##URL=rruff.info/R040093
##MEASURED CHEMISTRY=(Mg_0.84_Fe_0.15_Al_0.01_)Si_1.00_O_3_
##PIN_ID=L00247
##ORIENTATION=Laser parallel to a* (1 0 0). Fiducial mark perpendicular to laser is parallel to -b [0 -1 0]
137.6560, 10002.00
138.8880, 10245.00
140.1200, 10097.00
141.3520, 10004.00
142.5830, 10065.00
143.8150, 9974.000
145.0460, 10025.00
146.2770, 10283.00
147.5080, 10448.00
148.7390, 10356.00
149.9700, 10370.00
151.2000, 10313.00
152.4310, 10378.00
153.6610, 10326.00
154.8910, 10389.00
156.1210, 10264.00
157.3500, 10351.00
158.5800, 10232.00
159.8090, 10533.00
161.0380, 10459.00
162.2670, 10520.00
163.4960, 10794.00
164.7240, 10829.00
165.9530, 11046.00
167.1810, 11198.00
168.4090, 11449.00
169.6370, 11913.00
170.8650, 12422.00
172.0920, 12819.00
173.3200, 13425.00
174.5470, 14113.28
175.7740, 14978.00
177.0010, 15764.00
178.2280, 16752.00
179.4540, 17854.00
180.6810, 18870.00
181.9070, 19978.00
183.1330, 21341.00
184.3590, 22728.00
185.5850, 23889.00
186.8100, 24938.00
188.0350, 25574.00
189.2610, 25865.00
190.4860, 25846.00
191.7110, 25442.00
192.9350, 25135.00
194.1600, 25113.00
195.3840, 25564.00
196.6080, 26048.00
197.8320, 26416.00
199.0560, 26811.00
200.2800, 27352.00
201.5030, 28114.00
202.7270, 28659.00
203.9500, 29369.00
205.1730, 29981.00
206.3950, 29976.00
207.6180, 29936.00
208.8410, 29299.00
210.0630, 28737.00
211.2850, 27709.00
212.5070, 26307.00
213.7290, 25074.00
214.9500, 23477.00
216.1720, 22004.00
217.3930, 20642.00
218.6140, 19484.00
219.8350, 18969.00
221.0560, 18435.00
222.2770, 18141.00
223.4970, 17802.00
224.7170, 17489.00
225.9370, 17141.00
227.1570, 16650.00
228.3770, 16281.00
229.5970, 15880.00
230.8160, 15483.00
232.0350, 14960.00
233.2540, 14725.00
234.4730, 14184.00
235.6920, 13926.00
236.9110, 13419.00
238.1290, 12946.00
239.3470, 12507.00
240.5650, 12068.00
241.7830, 11780.00
243.0010, 11524.14
244.2180, 11403.00
245.4360, 11225.00
246.6530, 11119.00
247.8700, 11092.00
249.0870, 11070.00
250.3040, 11183.00
251.5200, 11114.00
252.7370, 11292.00
253.9530, 11647.00
255.1690, 11930.00
256.3850, 12098.00
257.6000, 12172.00
258.8160, 12039.00
260.0310, 12075.00
261.2460, 12139.00
262.4610, 12454.00
263.6760, 12384.00
264.8910, 12429.00
266.1050, 12371.00
267.3200, 11885.00
268.5340, 11692.00
269.7480, 11392.00
270.9620, 11339.00
272.1750, 11177.00
273.3890, 10914.00
274.6020, 10914.00
275.8150, 10921.00
277.0280, 10883.00
278.2410, 10884.49
279.4540, 10801.00
280.6660, 10882.00
281.8790, 10890.32
283.0910, 10943.48
284.3030, 11032.00
285.5140, 11069.00
286.7260, 11141.00
287.9380, 11289.00
289.1490, 11190.00
290.3600, 11394.84
291.5710, 11611.57
292.7820, 11826.00
293.9920, 12296.00
295.2030, 12837.00
296.4130, 13438.00
297.6230, 13755.00
298.8330, 14630.00
300.0430, 15180.00
301.2520, 15715.00
302.4620, 15791.00
303.6710, 15717.00
304.8800, 15169.00
306.0890, 14959.00
307.2980, 14561.00
308.5070, 14158.00
309.7150, 14270.00
310.9230, 14670.00
312.1310, 15339.00
313.3390, 16434.00
314.5470, 17996.00
315.7550, 20207.00
316.9620, 23147.00
318.1690, 27029.00
319.3760, 31693.00
320.5830, 37005.00
321.7900, 42661.00
322.9960, 47732.00
324.2030, 51480.00
325.4090, 54011.00
326.6150, 54749.00
327.8210, 53634.00
329.0270, 49567.00
330.2320, 44777.00
331.4380, 40503.00
332.6430, 33111.00
333.8480, 28513.00
335.0530, 25937.00
336.2580, 24003.00
337.4620, 23224.00
338.6670, 22470.00
339.8710, 21755.00
341.0750, 20794.00
342.2790, 19769.00
343.4820, 18758.00
344.6860, 17751.00
345.8890, 16563.00
347.0920, 15647.00
348.2960, 14945.00
349.4980, 14466.00
350.7010, 14013.00
351.9040, 13534.00
353.1060, 13289.05
354.3080, 13291.00
355.5100, 12963.00
356.7120, 12920.00
357.9140, 13014.00
359.1150, 12956.00
360.3170, 13031.00
361.5180, 13098.00
362.7190, 13105.00
363.9200, 13200.00
365.1200, 13491.00
366.3210, 13449.00
367.5210, 13744.00
368.7210, 13723.00
369.9210, 13867.00
371.1210, 14030.00
372.3210, 14352.00
373.5200, 14463.00
374.7200, 14420.00
375.9190, 14812.00
377.1180, 14786.00
378.3170, 15037.00
379.5150, 15127.00
380.7140, 15386.00
381.9120, 15494.00
383.1110, 15596.00
384.3090, 15831.00
385.5060, 16065.00
386.7040, 15881.00
387.9020, 15877.00
389.0990, 15977.00
390.2960, 15899.00
391.4930, 16008.00
392.6900, 15871.00
393.8860, 15777.00
395.0830, 15740.00
396.2790, 15417.00
397.4750, 15305.00
398.6710, 15043.00
399.8670, 14812.00
401.0630, 14411.00
402.2580, 14123.00
403.4540, 13876.00
404.6490, 13727.00
405.8440, 13420.00
407.0390, 13232.00
408.2330, 13069.00
409.4280, 13043.00
410.6220, 12919.00
411.8160, 12770.00
413.0100, 12638.00
414.2040, 12565.85
415.3980, 12651.00
416.5910, 12438.00
417.7850, 12417.00
418.9780, 12359.00
420.1710, 12251.00
421.3640, 12294.88
422.5560, 12313.88
423.7490, 12393.00
424.9410, 12454.00
426.1330, 12605.00
427.3250, 12662.00
428.5170, 12900.00
429.7090, 12867.00
430.9000, 13066.00
432.0910, 12892.00
433.2820, 12768.00
434.4730, 12680.00
435.6640, 12250.00
436.8550, 12237.00
438.0450, 11836.00
439.2360, 11639.00
440.4260, 11567.00
441.6160, 11405.00
442.8060, 11295.00
443.9950, 11275.00
445.1850, 11143.00
446.3740, 11047.00
447.5630, 10929.00
448.7520, 10855.34
449.9410, 10764.00
451.1300, 10697.00
452.3180, 10623.00
453.5060, 10491.00
454.6950, 10641.00
455.8830, 10460.00
457.0700, 10433.00
458.2580, 10528.00
459.4450, 10404.00
460.6330, 10532.00
461.8200, 10451.00
463.0070, 10660.00
464.1940, 10517.00
465.3800, 10665.00
466.5670, 10505.00
467.7530, 10454.00
468.9390, 10453.00
470.1250, 10453.00
471.3110, 10473.00
472.4970, 10467.00
473.6820, 10479.00
474.8680, 10328.00
476.0530, 10459.00
477.2380, 10363.00
478.4230, 10401.00
479.6070, 10385.00
480.7920, 10504.00
481.9760, 10533.99
483.1600, 10538.92
484.3440, 10710.00
485.5280, 10545.00
486.7120, 10700.00
487.8950, 10718.00
489.0780, 10666.00
490.2620, 10844.00
491.4450, 10875.00
492.6270, 11079.00
493.8100, 11338.00
494.9920, 11322.00
496.1750, 11625.00
497.3570, 11731.00
498.5390, 11947.00
499.7210, 12250.00
500.9020, 12379.00
502.0840, 12467.00
503.2650, 12511.74
504.4460, 12618.00
505.6270, 12451.00
506.8080, 12163.00
507.9890, 12149.00
509.1690, 11937.00
510.3500, 11834.00
511.5300, 11903.00
512.7100, 11964.00
513.8900, 11992.00
515.0690, 12083.00
516.2490, 12157.00
517.4280, 12230.18
518.6070, 12301.25
519.7860, 12380.00
520.9650, 12407.00
522.1440, 12431.00
523.3220, 12429.69
524.5010, 12364.94
525.6790, 12482.00
526.8570, 12265.00
528.0350, 12264.00
529.2130, 12377.00
530.3900, 12257.00
531.5670, 12312.00
532.7450, 12169.00
533.9220, 12331.00
535.0980, 12537.00
536.2750, 12532.00
537.4520, 12719.00
538.6280, 12674.00
539.8040, 12491.00
540.9800, 12598.00
542.1560, 12457.00
543.3320, 12351.00
544.5070, 12322.00
545.6830, 12096.00
546.8580, 12060.00
548.0330, 11983.00
549.2080, 11863.00
550.3830, 11777.00
551.5570, 11692.00
552.7310, 11516.00
553.9060, 11359.00
555.0800, 11338.00
556.2540, 11313.00
557.4270, 11066.00
558.6010, 11161.00
559.7740, 11180.00
560.9470, 11002.00
562.1210, 11015.00
563.2930, 11037.00
564.4660, 11125.00
565.6390, 10967.00
566.8110, 11033.00
567.9830, 11143.00
569.1550, 11048.00
570.3270, 11232.00
571.4990, 10982.00
572.6710, 11183.00
573.8420, 11230.00
575.0130, 11107.00
576.1840, 11022.00
577.3550, 11285.00
578.5260, 11003.00
579.6970, 11090.00
580.8670, 11092.00
582.0370, 10968.00
583.2070, 10968.00
584.3770, 10828.00
585.5470, 10651.00
586.7170, 10602.00
587.8860, 10482.00
589.0550, 10468.00
590.2240, 10552.00
591.3930, 10465.00
592.5620, 10537.00
593.7310, 10445.00
594.8990, 10447.46
596.0670, 10436.00
597.2350, 10406.00
598.4030, 10409.00
599.5710, 10361.00
600.7390, 10384.00
601.9060, 10469.00
603.0740, 10516.00
604.2410, 10497.00
605.4080, 10523.98
606.5740, 10475.24
607.7410, 10474.00
608.9080, 10472.00
610.0740, 10395.00
611.2400, 10631.00
612.4060, 10776.00
613.5720, 10571.00
614.7370, 10698.00
615.9030, 10616.00
617.0680, 10801.00
618.2330, 10795.00
619.3980, 10894.00
620.5630, 10776.00
621.7280, 10825.00
622.8920, 10914.00
624.0570, 10944.00
625.2210, 10928.00
626.3850, 11057.00
627.5490, 11205.00
628.7120, 11168.00
629.8760, 11155.00
631.0390, 11288.00
632.2020, 11401.00
633.3650, 11543.00
634.5280, 11657.00
635.6910, 11865.00
636.8530, 11919.00
638.0160, 11878.00
639.1780, 12135.00
640.3400, 12276.00
641.5020, 12512.00
642.6640, 12557.00
643.8250, 12822.00
644.9870, 12955.00
646.1480, 13319.00
647.3090, 13666.00
648.4700, 14062.00
649.6300, 14351.00
650.7910, 14936.00
651.9510, 15486.00
653.1120, 16082.00
654.2720, 16959.00
655.4320, 18035.00
656.5910, 18812.00
657.7510, 20137.00
658.9100, 21512.00
660.0690, 23372.00
661.2290, 25364.00
662.3880, 27747.00
663.5460, 30429.00
664.7050, 34455.00
665.8630, 38397.00
667.0220, 43617.00
668.1800, 48659.00
669.3380, 54964.00
670.4950, 60088.00
671.6530, 64904.00
672.8100, 67635.00
673.9680, 67793.00
675.1250, 64892.00
676.2820, 60342.00
677.4390, 54366.00
678.5950, 48239.00
679.7520, 42680.00
680.9080, 37390.00
682.0640, 33494.00
683.2200, 30120.00
684.3760, 27230.00
685.5320, 25248.00
686.6870, 23329.00
687.8420, 21531.00
688.9980, 20203.00
690.1530, 18953.00
691.3070, 18090.00
692.4620, 17342.00
693.6170, 16593.00
694.7710, 16118.00
695.9250, 15548.00
697.0790, 15481.00
698.2330, 14941.00
699.3870, 14569.00
700.5400, 14290.00
701.6940, 13855.00
702.8470, 13799.00
704.0000, 13433.00
705.1530, 13397.00
706.3050, 13151.00
707.4580, 13077.00
708.6100, 13006.00
709.7630, 12862.00
710.9150, 12740.00
712.0660, 12894.00
713.2180, 12822.00
714.3700, 12727.00
715.5210, 12913.00
716.6720, 12905.00
717.8240, 12855.00
718.9740, 12864.00
720.1250, 12914.67
721.2760, 12934.00
722.4260, 13113.00
723.5770, 13128.00
724.7270, 13342.00
725.8770, 13418.00
727.0260, 13530.00
728.1760, 14104.00
729.3250, 14247.36
730.4750, 14555.00
731.6240, 14969.00
732.7730, 15257.00
733.9220, 15745.00
735.0700, 16021.00
736.2190, 16042.00
737.3670, 16063.00
738.5150, 15994.00
739.6630, 15943.00
740.8110, 15610.00
741.9590, 15244.00
743.1060, 14763.00
744.2540, 14580.00
745.4010, 14162.46
746.5480, 13716.00
747.6950, 13517.00
748.8410, 13229.00
749.9880, 12974.00
751.1340, 12781.52
752.2800, 12569.00
753.4260, 12432.00
754.5720, 12328.00
755.7180, 12260.00
756.8640, 12083.00
758.0090, 11984.00
759.1540, 12005.00
760.2990, 11863.00
761.4440, 11833.00
762.5890, 11659.00
763.7340, 11636.00
764.8780, 11592.00
766.0220, 11669.00
767.1660, 11616.00
768.3100, 11399.00
769.4540, 11494.00
770.5980, 11558.00
771.7410, 11222.00
772.8840, 11442.00
774.0280, 11365.00
775.1700, 11491.00
776.3130, 11540.00
777.4560, 11469.00
778.5980, 11665.00
779.7410, 11727.00
780.8830, 11807.00
782.0250, 11647.00
783.1670, 11577.00
784.3080, 11553.00
785.4500, 11434.00
786.5910, 11434.00
787.7320, 11430.00
788.8730, 11231.00
790.0140, 11205.00
791.1550, 11181.00
792.2950, 11018.00
793.4360, 10965.00
794.5760, 11089.00
795.7160, 11031.00
796.8560, 11031.00
797.9960, 11058.00
799.1350, 10927.00
800.2750, 10990.00
801.4140, 10768.00
802.5530, 10872.00
803.6920, 10861.00
804.8310, 10864.00
805.9690, 10935.00
807.1080, 10931.00
808.2460, 11037.00
809.3840, 11016.00
810.5220, 10783.00
811.6600, 10852.00
812.7970, 10908.00
813.9350, 10859.00
815.0720, 10870.56
816.2090, 10983.18
817.3460, 11052.95
818.4830, 11081.07
819.6200, 11004.01
820.7560, 11015.99
821.8930, 10963.66
823.0290, 10889.17
824.1650, 11197.00
825.3010, 10957.00
826.4360, 11014.00
827.5720, 11158.05
828.7070, 11013.26
829.8420, 11041.19
830.9770, 10952.00
832.1120, 10976.00
833.2470, 10987.00
834.3820, 11098.00
835.5160, 11020.00
836.6500, 11022.00
837.7840, 11170.00
838.9180, 11169.00
840.0520, 10957.00
841.1860, 11052.00
842.3190, 11107.00
843.4520, 11097.00
844.5850, 11155.00
845.7180, 11208.00
846.8510, 11132.00
847.9840, 11226.00
849.1160, 11138.00
850.2490, 11372.00
851.3810, 11291.00
852.5130, 11368.00
853.6450, 11352.00
854.7760, 11436.00
855.9080, 11512.00
857.0390, 11448.00
858.1700, 11564.00
859.3010, 11591.00
860.4320, 11510.00
861.5630, 11474.00
862.6930, 11524.00
863.8240, 11673.00
864.9540, 11688.00
866.0840, 11718.20
867.2140, 11736.93
868.3440, 11713.00
869.4730, 11684.00
870.6030, 11674.00
871.7320, 11620.00
872.8610, 11650.00
873.9900, 11649.13
875.1190, 11768.00
876.2470, 11681.00
877.3760, 11765.00
878.5040, 11759.00
879.6320, 11905.00
880.7600, 11846.00
881.8880, 11827.00
883.0150, 11991.00
884.1430, 11949.00
885.2700, 11865.00
886.3970, 11786.00
887.5240, 11854.00
888.6510, 11847.05
889.7780, 12010.00
890.9040, 12016.00
892.0310, 12159.00
893.1570, 12363.00
894.2830, 12273.00
895.4090, 12472.00
896.5350, 12402.00
897.6600, 12613.00
898.7860, 12348.00
899.9110, 12548.00
901.0360, 12503.00
902.1610, 12501.00
903.2860, 12369.00
904.4100, 12343.00
905.5350, 12520.00
906.6590, 12586.00
907.7830, 12525.00
908.9070, 12670.00
910.0310, 12785.00
911.1540, 12913.00
912.2780, 12954.00
913.4010, 13077.00
914.5240, 13309.00
915.6470, 13491.40
916.7700, 13831.00
917.8930, 14067.00
919.0150, 14453.00
920.1380, 14881.00
921.2600, 15151.00
922.3820, 15346.00
923.5040, 15738.00
924.6260, 15914.00
925.7470, 16019.00
926.8690, 16191.00
927.9900, 15871.00
929.1110, 15514.00
930.2320, 15287.00
931.3530, 14992.00
932.4730, 14853.00
933.5940, 14507.00
934.7140, 14464.00
935.8340, 14112.00
936.9540, 14009.00
938.0740, 13722.00
939.1930, 13720.00
940.3130, 13766.00
941.4320, 13418.00
942.5510, 13357.00
943.6700, 13528.00
944.7890, 13173.00
945.9080, 13189.00
947.0260, 13198.00
948.1450, 13178.00
949.2630, 13171.44
950.3810, 13011.00
951.4990, 13158.00
952.6170, 12995.00
953.7340, 13040.00
954.8520, 13182.00
955.9690, 13125.00
957.0860, 13237.00
958.2030, 13139.00
959.3200, 13244.00
960.4360, 13147.00
961.5530, 13237.00
962.6690, 13344.00
963.7850, 13579.00
964.9010, 13553.00
966.0170, 13509.00
967.1330, 13874.00
968.2480, 13790.00
969.3630, 14138.00
970.4790, 14250.00
971.5940, 14184.00
972.7080, 14580.00
973.8230, 14693.00
974.9380, 14807.00
976.0520, 14927.00
977.1660, 14952.07
978.2800, 15028.00
979.3940, 14997.00
980.5080, 14948.00
981.6220, 14991.00
982.7350, 15052.00
983.8480, 14879.00
984.9610, 14838.00
986.0740, 14989.00
987.1870, 15041.00
988.3000, 15223.00
989.4120, 15248.00
990.5250, 15463.00
991.6370, 15485.00
992.7490, 15527.00
993.8610, 15698.50
994.9720, 15878.94
996.0840, 16040.00
997.1950, 16300.00
998.3060, 16460.13
999.4170, 16679.00
1000.528, 16874.00
1001.639, 17198.00
1002.750, 17488.00
1003.860, 17659.00
1004.970, 18213.00
1006.080, 18588.00
1007.190, 18758.00
1008.300, 18807.00
1009.410, 18963.00
1010.519, 18967.00
1011.628, 18899.00
1012.738, 18859.00
1013.846, 18824.00
1014.955, 18699.00
1016.064, 18778.00
1017.172, 18641.00
1018.281, 18916.00
1019.389, 19124.00
1020.497, 19187.00
1021.605, 19547.00
1022.713, 19600.00
1023.820, 19777.00
1024.928, 19965.00
1026.035, 20003.00
1027.142, 20493.00
1028.249, 21003.00
1029.356, 21724.00
1030.462, 22239.00
1031.569, 22993.00
1032.675, 24245.00
1033.781, 25348.00
1034.887, 26862.00
1035.993, 29249.00
1037.098, 31393.00
1038.204, 33403.00
1039.309, 34716.00
1040.415, 36059.00
1041.520, 35959.00
1042.624, 34951.00
1043.729, 33023.00
1044.834, 30657.00
1045.938, 28223.00
1047.042, 25598.00
1048.146, 23880.00
1049.250, 22237.00
1050.354, 20760.00
1051.458, 19878.00
1052.561, 19019.00
1053.664, 18293.00
1054.767, 17828.00
1055.870, 17381.10
1056.973, 17259.00
1058.076, 16937.00
1059.178, 16950.00
1060.281, 16960.00
1061.383, 17036.00
1062.485, 17078.00
1063.587, 17169.93
1064.688, 17352.66
1065.790, 17463.00
1066.891, 17775.00
1067.993, 18124.00
1069.094, 18362.00
1070.195, 18718.00
1071.295, 19115.00
1072.396, 19642.00
1073.496, 20221.00
1074.597, 20950.00
1075.697, 21883.00
1076.797, 22910.00
1077.897, 24261.00
1078.996, 25843.00
1080.096, 28132.00
1081.195, 30806.00
1082.294, 34236.00
1083.393, 38269.00
1084.492, 43092.00
1085.591, 48477.00
1086.689, 55083.00
1087.788, 61564.00
1088.886, 68324.00
1089.984, 75399.00
1091.082, 81897.00
1092.180, 86479.00
1093.277, 89096.00
1094.375, 89873.00
1095.472, 86867.00
1096.569, 82619.00
1097.666, 75789.00
1098.763, 68946.00
1099.860, 62026.00
1100.956, 55408.00
1102.053, 49686.00
1103.149, 44763.00
1104.245, 40035.00
1105.341, 36096.00
1106.436, 32763.00
1107.532, 29868.00
1108.627, 27235.00
1109.723, 24970.00
1110.818, 22971.00
1111.913, 21772.00
1113.007, 20204.00
1114.102, 19291.00
1115.197, 18435.00
1116.291, 17739.00
1117.385, 17151.00
1118.479, 16646.00
1119.573, 16165.00
1120.666, 15929.00
1121.760, 15631.00
1122.853, 15404.00
1123.947, 15033.00
1125.040, 14966.00
1126.132, 14714.00
1127.225, 14722.00
1128.318, 14439.00
1129.410, 14436.00
1130.502, 14033.00
1131.595, 14115.00
1132.687, 14049.00
1133.778, 14052.00
1134.870, 13990.00
1135.961, 13897.00
1137.053, 13769.00
1138.144, 13802.00
1139.235, 13888.00
1140.326, 13704.00
1141.416, 13691.00
1142.507, 13759.00
1143.597, 13582.00
1144.688, 13631.00
1145.778, 13628.00
1146.868, 13660.00
1147.957, 13629.00
1149.047, 13682.00
1150.136, 13564.00
1151.226, 13625.00
1152.315, 13609.00
1153.404, 13579.00
1154.493, 13602.32
1155.581, 13376.00
1156.670, 13599.00
1157.758, 13429.00
1158.846, 13417.00
1159.934, 13614.00
1161.022, 13417.00
1162.110, 13451.00
1163.198, 13492.00
1164.285, 13468.00
1165.372, 13473.69
1166.459, 13529.00
1167.546, 13455.00
1168.633, 13406.00
1169.720, 13442.00
1170.806, 13518.00
1171.892, 13428.00
1172.979, 13606.00
1174.065, 13454.00
1175.150, 13558.00
1176.236, 13482.00
1177.322, 13600.00
1178.407, 13619.00
1179.492, 13604.66
1180.577, 13502.00
1181.662, 13560.00
1182.747, 13532.00
1183.832, 13425.00
1184.916, 13632.00
1186.000, 13469.00
1187.084, 13393.00
1188.168, 13492.00
1189.252, 13435.00
1190.336, 13456.00
1191.419, 13602.00
1192.503, 13455.00
1193.586, 13520.00
1194.669, 13497.00
1195.752, 13532.00
1196.835, 13526.07
1197.917, 13496.00
1199.000, 13536.00
1200.082, 13500.00
1201.164, 13574.00
1202.246, 13552.64
1203.328, 13760.00
1204.409, 13587.00
1205.491, 13566.00
1206.572, 13673.00
1207.653, 13573.00
1208.734, 13651.00
1209.815, 13696.00
1210.896, 13704.00
1211.976, 13774.00
1213.057, 13660.00
1214.137, 13688.00
1215.217, 13664.00
1216.297, 13692.00
1217.377, 13849.00
1218.456, 13820.75
1219.536, 13809.00
1220.615, 13895.00
1221.694, 13831.00
1222.773, 13892.00
1223.852, 13840.00
1224.931, 13831.00
1226.009, 13737.00
1227.088, 13751.00
1228.166, 13881.00
1229.244, 13800.00
1230.322, 14027.00
1231.400, 13897.00
1232.477, 13811.00
1233.555, 13893.00
1234.632, 13938.00
1235.709, 14113.00
1236.786, 14141.00
1237.863, 13905.00
1238.939, 13794.00
1240.016, 13966.00
1241.092, 13944.00
1242.168, 13866.00
1243.245, 14028.00
1244.320, 13923.00
1245.396, 13974.00
1246.472, 14013.00
1247.547, 13954.00
1248.622, 14013.55
1249.697, 14112.00
1250.772, 14047.00
1251.847, 14079.00
1252.922, 14074.44
1253.996, 14069.00
1255.071, 14142.00
1256.145, 14170.00
1257.219, 14198.00
1258.293, 14187.00
1259.366, 14051.00
1260.440, 14096.00
1261.513, 14231.00
1262.587, 14005.00
1263.660, 14222.00
1264.733, 14243.00
1265.805, 14109.00
1266.878, 14334.00
1267.951, 14276.00
1269.023, 14312.00
1270.095, 14354.00
1271.167, 14335.00
1272.239, 14356.00
1273.311, 14416.00
1274.382, 14359.00
1275.454, 14421.00
1276.525, 14292.00
1277.596, 14482.00
1278.667, 14409.00
1279.738, 14241.00
1280.808, 14537.00
1281.879, 14414.00
1282.949, 14420.00
1284.019, 14332.00
1285.089, 14586.00
1286.159, 14584.00
1287.229, 14470.00
1288.298, 14615.00
1289.368, 14579.00
1290.437, 14563.00
1291.506, 14535.00
1292.575, 14551.45
1293.644, 14555.00
1294.712, 14649.00
1295.781, 14707.00
1296.849, 14716.09
1297.917, 14739.00
1298.985, 14751.00
1300.053, 14728.00
1301.121, 14752.00
1302.188, 14694.00
1303.255, 14712.54
1304.323, 14753.00
1305.390, 14771.00
1306.457, 14658.00
1307.523, 14789.00
1308.590, 14738.00
1309.656, 14885.00
1310.723, 14864.00
1311.789, 14696.00
1312.855, 14583.00
