##NAMES=Enstatite
##RRUFFID=R040093
##IDEAL CHEMISTRY=MgSiO_3_
##LOCALITY=Castle Rock, Pennsylvania, USA
##OWNER=RRUFF
##SOURCE=University of Arizona Mineral Museum
##DESCRIPTION=Dark green massive
##STATUS=The identification of this mineral has been confirmed by X-ray diffraction and chemical analysis
##URL=rruff.info/R040093
##MEASURED CHEMISTRY=(Mg_0.84_Fe_0.15_Al_0.01_)Si_1.00_O_3_
##PIN_ID=L00247
##ORIENTATION=Laser parallel to a* (1 0 0). Fiducial mark perpendicular to laser is parallel to -b [0 -1 0]
137.6560, 14923.00
138.8880, 14881.00
140.1200, 14896.00
141.3520, 14898.00
142.5830, 14749.00
143.8150, 14821.00
145.0460, 14936.00
146.2770, 14940.00
147.5080, 15072.00
148.7390, 15082.00
149.9700, 15133.00
151.2000, 15063.00
152.4310, 15219.38
153.6610, 15224.00
154.8910, 15461.00
156.1210, 15487.13
157.3500, 15277.00
158.5800, 15574.00
159.8090, 15588.00
161.0380, 15538.00
162.2670, 15837.00
163.4960, 16001.00
164.7240, 16294.00
165.9530, 16424.00
167.1810, 16849.00
168.4090, 17284.00
169.6370, 17983.00
170.8650, 18591.00
172.0920, 19391.77
173.3200, 20284.00
174.5470, 21191.00
175.7740, 22177.00
177.0010, 23222.00
178.2280, 24520.84
179.4540, 26065.00
180.6810, 27435.00
181.9070, 29262.00
183.1330, 31058.00
184.3590, 32524.00
185.5850, 34148.00
186.8100, 35288.00
188.0350, 36013.00
189.2610, 36586.00
190.4860, 36354.00
191.7110, 36089.00
192.9350, 35505.00
194.1600, 35550.00
195.3840, 35574.00
196.6080, 36103.00
197.8320, 36655.00
199.0560, 37418.00
200.2800, 37874.00
201.5030, 37972.00
202.7270, 38224.00
203.9500, 38543.00
205.1730, 38182.00
206.3950, 38257.00
207.6180, 37524.00
208.8410, 36679.00
210.0630, 36076.00
211.2850, 35078.00
212.5070, 33951.00
213.7290, 32506.00
214.9500, 30977.00
216.1720, 29586.00
217.3930, 28375.00
218.6140, 27411.00
219.8350, 26972.00
221.0560, 26691.00
222.2770, 26104.00
223.4970, 25531.00
224.7170, 25044.17
225.9370, 24533.00
227.1570, 23920.00
228.3770, 23220.00
229.5970, 22685.00
230.8160, 21769.00
232.0350, 21316.00
233.2540, 20637.00
234.4730, 20021.00
235.6920, 19710.00
236.9110, 18993.00
238.1290, 18533.00
239.3470, 18166.00
240.5650, 17702.00
241.7830, 17469.00
243.0010, 17186.00
244.2180, 17269.00
245.4360, 16989.00
246.6530, 16898.00
247.8700, 16925.00
249.0870, 16873.00
250.3040, 16989.00
251.5200, 17084.00
252.7370, 17201.00
253.9530, 17379.00
255.1690, 17597.00
256.3850, 17932.00
257.6000, 17923.00
258.8160, 17971.00
260.0310, 17962.00
261.2460, 18205.00
262.4610, 18481.00
263.6760, 18319.00
264.8910, 18346.00
266.1050, 18154.00
267.3200, 17790.00
268.5340, 17461.00
269.7480, 17223.00
270.9620, 17004.00
272.1750, 16771.00
273.3890, 16542.00
274.6020, 16432.00
275.8150, 16473.00
277.0280, 16221.00
278.2410, 16427.00
279.4540, 16422.00
280.6660, 16376.00
281.8790, 16674.00
283.0910, 16600.00
284.3030, 16609.00
285.5140, 16724.00
286.7260, 16829.00
287.9380, 16901.00
289.1490, 17013.00
290.3600, 17110.00
291.5710, 17444.00
292.7820, 17812.00
293.9920, 18336.00
295.2030, 18925.00
296.4130, 19760.00
297.6230, 20584.00
298.8330, 21175.00
300.0430, 21815.00
301.2520, 22346.00
302.4620, 22221.00
303.6710, 22380.00
304.8800, 21991.00
306.0890, 21117.00
307.2980, 20560.00
308.5070, 19978.00
309.7150, 19670.00
310.9230, 19743.00
312.1310, 19939.00
313.3390, 20642.00
314.5470, 21724.00
315.7550, 22851.00
316.9620, 24409.00
318.1690, 26325.00
319.3760, 28418.00
320.5830, 30563.00
321.7900, 32971.00
322.9960, 35145.00
324.2030, 36446.00
325.4090, 37626.00
326.6150, 37699.00
327.8210, 37282.00
329.0270, 35941.00
330.2320, 33879.00
331.4380, 31595.00
332.6430, 29492.00
333.8480, 27823.00
335.0530, 26700.00
336.2580, 26061.00
337.4620, 25581.00
338.6670, 25350.00
339.8710, 24695.00
341.0750, 24147.00
342.2790, 23358.00
343.4820, 22569.00
344.6860, 21865.00
345.8890, 21201.72
347.0920, 20472.00
348.2960, 20074.00
349.4980, 19624.00
350.7010, 19297.00
351.9040, 19157.00
353.1060, 18764.00
354.3080, 19003.00
355.5100, 18825.00
356.7120, 18764.00
357.9140, 18715.00
359.1150, 18914.00
360.3170, 18868.00
361.5180, 18791.00
362.7190, 19177.00
363.9200, 19073.00
365.1200, 19436.00
366.3210, 19652.00
367.5210, 19774.00
368.7210, 19894.00
369.9210, 19974.00
371.1210, 20292.00
372.3210, 20468.00
373.5200, 20461.00
374.7200, 20776.00
375.9190, 20842.00
377.1180, 20898.00
378.3170, 21188.00
379.5150, 21493.00
380.7140, 21811.00
381.9120, 21796.00
383.1110, 22005.00
384.3090, 22115.00
385.5060, 22190.00
386.7040, 22268.00
387.9020, 22214.61
389.0990, 22159.00
390.2960, 22044.00
391.4930, 21812.00
392.6900, 21692.00
393.8860, 21457.00
395.0830, 21191.00
396.2790, 21160.00
397.4750, 20979.00
398.6710, 20243.00
399.8670, 20096.00
401.0630, 19732.00
402.2580, 19540.00
403.4540, 19197.00
404.6490, 19032.00
405.8440, 18876.00
407.0390, 18781.05
408.2330, 18824.00
409.4280, 18762.00
410.6220, 18822.00
411.8160, 18879.00
413.0100, 18679.00
414.2040, 18453.00
415.3980, 18711.00
416.5910, 18474.00
417.7850, 18685.00
418.9780, 18515.00
420.1710, 18797.00
421.3640, 18894.00
422.5560, 19166.00
423.7490, 19026.00
424.9410, 19324.00
426.1330, 19375.00
427.3250, 19805.00
428.5170, 19759.00
429.7090, 19935.00
430.9000, 19831.00
432.0910, 19917.00
433.2820, 19903.00
434.4730, 19626.00
435.6640, 19331.00
436.8550, 19130.00
438.0450, 19087.00
439.2360, 18700.00
440.4260, 18450.00
441.6160, 18267.00
442.8060, 18304.00
443.9950, 18247.00
445.1850, 18031.00
446.3740, 17996.00
447.5630, 17849.00
448.7520, 17606.00
449.9410, 17662.00
451.1300, 17482.00
452.3180, 17611.00
453.5060, 17328.00
454.6950, 17440.00
455.8830, 17460.00
457.0700, 17423.00
458.2580, 17308.00
459.4450, 17404.00
460.6330, 17386.00
461.8200, 17419.00
463.0070, 17491.00
464.1940, 17560.00
465.3800, 17411.00
466.5670, 17240.00
467.7530, 17547.00
468.9390, 17373.00
470.1250, 17310.00
471.3110, 17374.00
472.4970, 17308.60
473.6820, 17318.00
474.8680, 17404.00
476.0530, 17344.00
477.2380, 17511.00
478.4230, 17500.00
479.6070, 17613.00
480.7920, 17574.00
481.9760, 17494.00
483.1600, 17719.00
484.3440, 17677.00
485.5280, 17555.00
486.7120, 17655.00
487.8950, 17851.00
489.0780, 17698.00
490.2620, 18069.00
491.4450, 18055.00
492.6270, 18195.00
493.8100, 18442.00
494.9920, 18697.00
496.1750, 18916.00
497.3570, 19137.03
498.5390, 19408.00
499.7210, 19576.00
500.9020, 19653.00
502.0840, 19919.00
503.2650, 19737.00
504.4460, 19781.00
505.6270, 19649.00
506.8080, 19366.00
507.9890, 19314.00
509.1690, 19026.00
510.3500, 18956.00
511.5300, 18983.00
512.7100, 18854.00
513.8900, 19013.00
515.0690, 19034.00
516.2490, 19044.00
517.4280, 19228.00
518.6070, 19314.00
519.7860, 19447.00
520.9650, 19401.00
522.1440, 19383.00
523.3220, 19379.00
524.5010, 19364.98
525.6790, 19383.00
526.8570, 19368.00
528.0350, 19302.00
529.2130, 19300.00
530.3900, 19475.00
531.5670, 19627.00
532.7450, 19618.00
533.9220, 19765.38
535.0980, 19820.18
536.2750, 19937.00
537.4520, 19927.00
538.6280, 19933.90
539.8040, 19923.94
540.9800, 19845.00
542.1560, 19793.00
543.3320, 19699.00
544.5070, 19546.00
545.6830, 19396.00
546.8580, 19338.00
548.0330, 19372.00
549.2080, 19134.00
550.3830, 19161.00
551.5570, 18902.00
552.7310, 19001.00
553.9060, 18851.00
555.0800, 18850.00
556.2540, 18849.00
557.4270, 18788.00
558.6010, 18708.00
559.7740, 18744.00
560.9470, 18703.37
562.1210, 18672.00
563.2930, 18704.00
564.4660, 18757.00
565.6390, 18759.00
566.8110, 18669.00
567.9830, 18695.00
569.1550, 18594.00
570.3270, 18823.00
571.4990, 18784.00
572.6710, 18740.00
573.8420, 19072.00
575.0130, 18810.00
576.1840, 18989.00
577.3550, 19060.00
578.5260, 19050.00
579.6970, 18970.00
580.8670, 18933.00
582.0370, 18759.00
583.2070, 18736.00
584.3770, 18653.00
585.5470, 18580.00
586.7170, 18315.00
587.8860, 18394.00
589.0550, 18482.00
590.2240, 18299.00
591.3930, 18474.00
592.5620, 18378.00
593.7310, 18459.00
594.8990, 18459.00
596.0670, 18454.00
597.2350, 18375.00
598.4030, 18450.00
599.5710, 18435.00
600.7390, 18515.00
601.9060, 18515.38
603.0740, 18539.00
604.2410, 18562.00
605.4080, 18521.00
606.5740, 18608.00
607.7410, 18674.00
608.9080, 18824.00
610.0740, 18678.00
611.2400, 18767.00
612.4060, 18831.00
613.5720, 19028.00
614.7370, 19004.00
615.9030, 18940.00
617.0680, 18917.00
618.2330, 19005.00
619.3980, 19118.00
620.5630, 19259.00
621.7280, 19277.83
622.8920, 19287.00
624.0570, 19327.00
625.2210, 19422.00
626.3850, 19448.00
627.5490, 19396.00
628.7120, 19541.00
629.8760, 19488.00
631.0390, 19722.00
632.2020, 19830.00
633.3650, 20095.00
634.5280, 20155.00
635.6910, 20215.00
636.8530, 20513.00
638.0160, 20490.00
639.1780, 20903.00
640.3400, 21196.00
641.5020, 21108.00
642.6640, 21473.00
643.8250, 21727.00
644.9870, 22097.00
646.1480, 22219.00
647.3090, 22626.00
648.4700, 22988.00
649.6300, 23255.00
650.7910, 24181.00
651.9510, 24796.00
653.1120, 25343.00
654.2720, 26415.00
655.4320, 27405.00
656.5910, 28989.00
657.7510, 30407.00
658.9100, 32116.00
660.0690, 34512.00
661.2290, 37170.00
662.3880, 40510.00
663.5460, 44766.00
664.7050, 49658.00
665.8630, 55345.00
667.0220, 61994.00
668.1800, 68910.00
669.3380, 76150.00
670.4950, 82666.00
671.6530, 88200.00
672.8100, 90836.00
673.9680, 90741.00
675.1250, 87410.00
676.2820, 81543.00
677.4390, 73543.00
678.5950, 66261.00
679.7520, 58726.00
680.9080, 52199.00
682.0640, 46765.00
683.2200, 42657.00
684.3760, 38753.00
685.5320, 36010.00
686.6870, 33796.00
687.8420, 31851.00
688.9980, 30241.00
690.1530, 29003.00
691.3070, 27983.00
692.4620, 26998.00
693.6170, 26197.99
694.7710, 25694.00
695.9250, 24955.00
697.0790, 24600.00
698.2330, 24285.00
699.3870, 23632.00
700.5400, 23487.00
701.6940, 23297.00
702.8470, 22889.00
704.0000, 22557.00
705.1530, 22497.00
706.3050, 22208.00
707.4580, 22207.00
708.6100, 22090.00
709.7630, 21837.00
710.9150, 22166.00
712.0660, 21869.00
713.2180, 21916.00
714.3700, 22119.00
715.5210, 21850.00
716.6720, 21951.00
717.8240, 21913.00
718.9740, 21869.00
720.1250, 21751.00
721.2760, 21763.00
722.4260, 21701.00
723.5770, 21908.00
724.7270, 21939.00
725.8770, 22094.65
727.0260, 22040.00
728.1760, 22428.00
729.3250, 22547.00
730.4750, 22679.00
731.6240, 23005.00
732.7730, 23484.00
733.9220, 23547.00
735.0700, 23773.00
736.2190, 23982.00
737.3670, 24119.00
738.5150, 23882.00
739.6630, 23888.00
740.8110, 23601.00
741.9590, 23368.00
743.1060, 23172.00
744.2540, 22750.00
745.4010, 22604.00
746.5480, 22273.00
747.6950, 22283.00
748.8410, 21899.00
749.9880, 21902.00
751.1340, 21663.00
752.2800, 21535.00
753.4260, 21667.00
754.5720, 21365.00
755.7180, 21450.00
756.8640, 21474.00
758.0090, 21259.00
759.1540, 21164.00
760.2990, 21071.00
761.4440, 21053.00
762.5890, 21122.00
763.7340, 21099.00
764.8780, 20897.00
766.0220, 21100.00
767.1660, 20770.00
768.3100, 20759.00
769.4540, 20907.00
770.5980, 20872.00
771.7410, 20766.00
772.8840, 20801.00
774.0280, 21014.00
775.1700, 20916.00
776.3130, 21203.00
777.4560, 21033.00
778.5980, 21053.00
779.7410, 21477.00
780.8830, 21263.00
782.0250, 21264.00
783.1670, 21189.00
784.3080, 21291.00
785.4500, 21108.00
786.5910, 21106.00
787.7320, 21123.00
788.8730, 20781.00
790.0140, 20837.00
791.1550, 20818.00
792.2950, 20634.00
793.4360, 20763.00
794.5760, 20642.00
795.7160, 20557.00
796.8560, 20606.00
797.9960, 20644.00
799.1350, 20594.00
800.2750, 20629.00
801.4140, 20641.00
802.5530, 20529.00
803.6920, 20686.00
804.8310, 20475.00
805.9690, 20374.00
807.1080, 20451.00
808.2460, 20514.00
809.3840, 20641.00
810.5220, 20553.00
811.6600, 20487.00
812.7970, 20699.00
813.9350, 20815.00
815.0720, 20588.00
816.2090, 20794.00
817.3460, 20840.00
818.4830, 20628.00
819.6200, 20512.00
820.7560, 20659.00
821.8930, 20858.00
823.0290, 20867.00
824.1650, 20890.00
825.3010, 20895.00
826.4360, 20991.00
827.5720, 20881.00
828.7070, 20942.00
829.8420, 20759.00
830.9770, 20964.00
832.1120, 20849.00
833.2470, 20949.00
834.3820, 21042.00
835.5160, 21000.00
836.6500, 20972.00
837.7840, 20977.00
838.9180, 20962.87
840.0520, 20996.97
841.1860, 21010.00
842.3190, 21036.00
843.4520, 21143.00
844.5850, 21073.00
845.7180, 21113.00
846.8510, 21036.00
847.9840, 21084.00
849.1160, 21353.00
850.2490, 21310.00
851.3810, 21397.00
852.5130, 21400.00
853.6450, 21211.00
854.7760, 21487.00
855.9080, 21624.00
857.0390, 21459.00
858.1700, 21689.00
859.3010, 21568.00
860.4320, 21586.00
861.5630, 21415.00
862.6930, 21753.00
863.8240, 21517.00
864.9540, 21762.00
866.0840, 21568.00
867.2140, 22020.00
868.3440, 21571.00
869.4730, 21738.00
870.6030, 21798.00
871.7320, 21774.00
872.8610, 21950.00
873.9900, 21778.00
875.1190, 21777.00
876.2470, 21987.00
877.3760, 21913.00
878.5040, 22015.00
879.6320, 21831.00
880.7600, 22062.00
881.8880, 22168.00
883.0150, 22211.00
884.1430, 22375.00
885.2700, 22275.00
886.3970, 22339.00
887.5240, 22250.00
888.6510, 22435.00
889.7780, 22437.00
890.9040, 22571.00
892.0310, 22692.00
893.1570, 22939.00
894.2830, 23061.00
895.4090, 23054.00
896.5350, 22981.00
897.6600, 23216.00
898.7860, 23129.00
899.9110, 23359.00
901.0360, 23219.00
902.1610, 22961.00
903.2860, 23384.00
904.4100, 23224.00
905.5350, 23279.00
906.6590, 23314.00
907.7830, 23415.00
908.9070, 23430.00
910.0310, 23743.00
911.1540, 23740.00
912.2780, 23991.00
913.4010, 24237.00
914.5240, 24722.00
915.6470, 24820.00
916.7700, 24990.00
917.8930, 25325.00
919.0150, 26017.00
920.1380, 26420.00
921.2600, 26979.00
922.3820, 27328.00
923.5040, 27488.00
924.6260, 27778.00
925.7470, 27860.00
926.8690, 27845.00
927.9900, 27364.00
929.1110, 27023.00
930.2320, 26617.00
931.3530, 26115.00
932.4730, 25943.00
933.5940, 25570.00
934.7140, 25382.00
935.8340, 24910.00
936.9540, 24925.00
938.0740, 24607.00
939.1930, 24706.00
940.3130, 24537.00
941.4320, 24433.00
942.5510, 24449.00
943.6700, 24206.00
944.7890, 24208.00
945.9080, 24114.00
947.0260, 24171.00
948.1450, 24142.00
949.2630, 24221.00
950.3810, 24072.00
951.4990, 24106.00
952.6170, 23954.00
953.7340, 24046.00
954.8520, 24271.00
955.9690, 24168.00
957.0860, 24104.00
958.2030, 24244.00
959.3200, 24601.00
960.4360, 24453.00
961.5530, 24624.00
962.6690, 24658.00
963.7850, 24706.00
964.9010, 24964.00
966.0170, 25073.00
967.1330, 25175.00
968.2480, 25132.00
969.3630, 25632.00
970.4790, 25608.00
971.5940, 25762.00
972.7080, 26062.00
973.8230, 26154.00
974.9380, 26526.00
976.0520, 26390.00
977.1660, 26591.00
978.2800, 26493.00
979.3940, 26508.00
980.5080, 26313.00
981.6220, 26353.00
982.7350, 26351.00
983.8480, 26522.00
984.9610, 26545.27
986.0740, 26584.00
987.1870, 26656.00
988.3000, 26663.00
989.4120, 26622.00
990.5250, 26671.00
991.6370, 26758.29
992.7490, 27002.00
993.8610, 26938.00
994.9720, 27235.00
996.0840, 27207.00
997.1950, 27467.00
998.3060, 27558.00
999.4170, 27731.00
1000.528, 27808.00
1001.639, 27958.00
1002.750, 28138.00
1003.860, 28224.00
1004.970, 28530.00
1006.080, 28658.00
1007.190, 28943.00
1008.300, 29086.00
1009.410, 28938.00
1010.519, 29037.00
1011.628, 29147.00
1012.738, 29103.00
1013.846, 28864.00
1014.955, 29065.00
1016.064, 28917.00
1017.172, 29182.00
1018.281, 29190.00
1019.389, 29451.00
1020.497, 29867.00
1021.605, 30105.00
1022.713, 30185.00
1023.820, 30301.00
1024.928, 30859.00
1026.035, 31454.00
1027.142, 31877.00
1028.249, 32658.00
1029.356, 33607.00
1030.462, 34542.00
1031.569, 36038.00
1032.675, 37715.00
1033.781, 39557.00
1034.887, 42553.00
1035.993, 45322.00
1037.098, 48645.00
1038.204, 51742.00
1039.309, 54050.00
1040.415, 55657.00
1041.520, 55694.00
1042.624, 54832.00
1043.729, 51914.00
1044.834, 48431.00
1045.938, 44746.00
1047.042, 41585.00
1048.146, 38937.00
1049.250, 36272.00
1050.354, 34912.00
1051.458, 33379.00
1052.561, 32155.00
1053.664, 31358.00
1054.767, 30712.00
1055.870, 30217.00
1056.973, 29840.00
1058.076, 29452.00
1059.178, 29073.00
1060.281, 29057.00
1061.383, 28929.00
1062.485, 29037.00
1063.587, 29248.00
1064.688, 29166.00
1065.790, 29328.00
1066.891, 29399.00
1067.993, 29596.00
1069.094, 29616.00
1070.195, 30084.00
1071.295, 30241.00
1072.396, 30503.00
1073.496, 31266.00
1074.597, 31610.00
1075.697, 32062.00
1076.797, 32934.00
1077.897, 34026.00
1078.996, 35209.00
1080.096, 36803.00
1081.195, 39084.00
1082.294, 41904.00
1083.393, 45407.00
1084.492, 49345.00
1085.591, 53634.00
1086.689, 58002.00
1087.788, 62814.00
1088.886, 67571.00
1089.984, 71422.00
1091.082, 75539.00
1092.180, 78609.00
1093.277, 80475.00
1094.375, 80734.00
1095.472, 78464.00
1096.569, 75315.00
1097.666, 70709.00
1098.763, 65911.00
1099.860, 60722.00
1100.956, 56169.00
1102.053, 52489.00
1103.149, 48623.00
1104.245, 45321.00
1105.341, 42319.00
1106.436, 40024.00
1107.532, 38147.00
1108.627, 36326.00
1109.723, 34765.83
1110.818, 33413.00
1111.913, 32278.00
1113.007, 31152.00
1114.102, 30425.00
1115.197, 29468.00
1116.291, 29207.00
1117.385, 28966.00
1118.479, 28441.00
1119.573, 28042.00
1120.666, 27844.00
1121.760, 27749.00
1122.853, 27464.00
1123.947, 27424.00
1125.040, 27298.00
1126.132, 27098.00
1127.225, 26990.00
1128.318, 26782.00
1129.410, 26594.00
1130.502, 26640.00
1131.595, 26700.00
1132.687, 26525.00
1133.778, 26568.00
1134.870, 26451.00
1135.961, 26342.00
1137.053, 26425.00
1138.144, 26394.00
1139.235, 26528.00
1140.326, 26371.00
1141.416, 26462.00
1142.507, 26267.00
1143.597, 26346.00
1144.688, 26454.00
1145.778, 26458.00
1146.868, 26272.00
1147.957, 26294.00
1149.047, 26210.00
1150.136, 26308.00
1151.226, 26378.00
1152.315, 26442.00
1153.404, 26460.00
1154.493, 26311.00
1155.581, 26352.00
1156.670, 26341.00
1157.758, 26319.32
1158.846, 26335.00
1159.934, 26371.00
1161.022, 26297.00
1162.110, 26364.00
1163.198, 26417.00
1164.285, 26403.00
1165.372, 26353.00
1166.459, 26286.00
1167.546, 26327.00
1168.633, 26494.00
1169.720, 26302.00
1170.806, 26465.00
1171.892, 26688.00
1172.979, 26552.00
1174.065, 26474.00
1175.150, 26334.00
1176.236, 26391.85
1177.322, 26371.67
1178.407, 26529.00
1179.492, 26538.00
1180.577, 26589.00
1181.662, 26825.00
1182.747, 26680.00
1183.832, 26531.00
1184.916, 26728.00
1186.000, 26735.00
1187.084, 26747.00
1188.168, 26754.00
1189.252, 26787.00
1190.336, 26808.00
1191.419, 26807.00
1192.503, 26866.00
1193.586, 26732.00
1194.669, 26784.00
1195.752, 26799.00
1196.835, 26904.00
1197.917, 26978.00
1199.000, 26980.88
1200.082, 26978.00
1201.164, 26964.00
1202.246, 27067.00
1203.328, 26994.00
1204.409, 26965.00
1205.491, 27079.00
1206.572, 26977.00
1207.653, 27060.00
1208.734, 27120.00
1209.815, 26933.00
1210.896, 27275.00
1211.976, 27392.00
1213.057, 27208.00
1214.137, 27307.00
1215.217, 27122.00
1216.297, 27253.00
1217.377, 27248.00
1218.456, 27214.00
1219.536, 27157.00
1220.615, 27088.00
1221.694, 27326.00
1222.773, 27348.00
1223.852, 27437.00
1224.931, 27652.00
1226.009, 27496.00
1227.088, 27478.00
1228.166, 27472.00
1229.244, 27763.00
1230.322, 27789.00
1231.400, 27553.00
1232.477, 27758.00
1233.555, 27484.00
1234.632, 27678.00
1235.709, 27688.00
1236.786, 27564.00
1237.863, 27530.00
1238.939, 27929.00
1240.016, 27995.00
1241.092, 27906.00
1242.168, 27858.00
1243.245, 27820.00
1244.320, 27829.00
1245.396, 27884.00
1246.472, 28047.00
1247.547, 28110.00
1248.622, 28128.55
1249.697, 27933.00
1250.772, 28136.00
1251.847, 28067.00
1252.922, 28084.00
1253.996, 28104.00
1255.071, 28247.00
1256.145, 28067.00
1257.219, 28300.00
1258.293, 28138.00
1259.366, 28295.00
1260.440, 28254.00
1261.513, 28155.00
1262.587, 28272.00
1263.660, 28315.00
1264.733, 28265.00
1265.805, 28315.00
1266.878, 28470.00
1267.951, 28496.00
1269.023, 28410.00
1270.095, 28331.00
1271.167, 28446.00
1272.239, 28478.00
1273.311, 28441.00
1274.382, 28511.00
1275.454, 28561.00
1276.525, 28794.00
1277.596, 28618.00
1278.667, 28764.00
1279.738, 28723.00
1280.808, 28584.00
1281.879, 28836.00
1282.949, 28695.00
1284.019, 28820.00
1285.089, 28908.00
1286.159, 28768.00
1287.229, 28868.00
1288.298, 28994.00
1289.368, 28985.00
1290.437, 29056.00
1291.506, 29054.00
1292.575, 28955.00
1293.644, 29084.00
1294.712, 29072.00
1295.781, 29277.00
1296.849, 29036.00
1297.917, 29205.00
1298.985, 29251.00
1300.053, 29268.00
1301.121, 29413.00
1302.188, 29152.00
1303.255, 29488.00
1304.323, 29356.00
1305.390, 29411.00
1306.457, 29216.00
1307.523, 29532.00
1308.590, 29658.00
1309.656, 29715.00
1310.723, 29639.00
1311.789, 29402.00
1312.855, 29109.00
