##NAMES=Enstatite
##RRUFFID=R050644
##IDEAL CHEMISTRY=MgSiO_3_
##LOCALITY=Morogoro, Tanzania
##OWNER=RRUFF
##SOURCE=Jibamitra Ganguly
##DESCRIPTION=Light brown crystal fragment
##STATUS=The identification of this mineral has been confirmed by X-ray diffraction and chemical analysis
##URL=rruff.info/R050644
##MEASURED CHEMISTRY=(Mg_0.90_Fe_0.10_)SiO_3_
##PIN_ID=L01041
##ORIENTATION=Laser parallel to -a* (-1 0 0). Fiducial mark perpendicular to laser is parallel to -b [0 -1 0]
113.2080, 13247.00
114.4400, 13605.00
115.6710, 13589.00
116.9030, 13769.00
118.1340, 13998.00
119.3650, 13858.00
120.5960, 14110.00
121.8270, 14214.00
123.0580, 14301.00
124.2880, 14458.00
125.5190, 14554.00
126.7490, 14775.00
127.9790, 15000.81
129.2090, 15271.31
130.4390, 15607.00
131.6680, 15950.00
132.8980, 16409.00
134.1270, 16842.00
135.3560, 17583.00
136.5850, 18207.00
137.8140, 19000.00
139.0430, 19752.00
140.2710, 20135.00
141.5000, 19854.00
142.7280, 19398.00
143.9560, 18871.00
145.1840, 18415.00
146.4120, 18198.00
147.6390, 17675.00
148.8670, 17553.00
150.0940, 17252.00
151.3210, 17038.00
152.5490, 16857.00
153.7750, 16585.00
155.0020, 16705.00
156.2290, 16411.00
157.4550, 16467.00
158.6810, 16338.00
159.9080, 16231.00
161.1340, 16484.00
162.3590, 16375.00
163.5850, 16294.00
164.8110, 16354.00
166.0360, 16341.00
167.2610, 16321.00
168.4860, 16460.00
169.7110, 16397.00
170.9360, 16323.00
172.1610, 16470.00
173.3850, 16606.00
174.6100, 16663.00
175.8340, 16688.00
177.0580, 16761.00
178.2820, 16699.00
179.5050, 16875.00
180.7290, 17048.00
181.9520, 17307.00
183.1760, 17562.00
184.3990, 17825.00
185.6220, 18241.00
186.8450, 18416.00
188.0670, 18559.00
189.2900, 18596.00
190.5120, 18592.35
191.7340, 18646.00
192.9560, 18414.00
194.1780, 18310.00
195.4000, 18145.00
196.6220, 18026.00
197.8430, 17892.00
199.0640, 17764.00
200.2860, 17708.00
201.5070, 17665.00
202.7270, 17622.00
203.9480, 17639.00
205.1690, 17409.00
206.3890, 17422.00
207.6090, 17343.00
208.8290, 17355.00
210.0490, 17342.00
211.2690, 17524.00
212.4890, 17585.00
213.7080, 17533.00
214.9280, 17507.00
216.1470, 17600.00
217.3660, 17812.00
218.5850, 17879.00
219.8030, 18061.00
221.0220, 18164.00
222.2400, 18397.00
223.4590, 18468.00
224.6770, 18845.00
225.8950, 19184.00
227.1120, 19729.00
228.3300, 20139.00
229.5480, 20579.00
230.7650, 21224.00
231.9820, 21740.00
233.1990, 22040.00
234.4160, 22011.00
235.6330, 21546.00
236.8490, 21001.00
238.0660, 20370.00
239.2820, 19932.00
240.4980, 19473.00
241.7140, 19165.00
242.9300, 18904.65
244.1460, 18684.00
245.3610, 18574.00
246.5770, 18588.00
247.7920, 18529.45
249.0070, 18398.00
250.2220, 18472.00
251.4370, 18429.00
252.6510, 18366.00
253.8660, 18373.00
255.0800, 18484.00
256.2940, 18542.00
257.5080, 18558.38
258.7220, 18696.00
259.9360, 18603.00
261.1490, 18557.00
262.3630, 18586.00
263.5760, 18566.70
264.7890, 18557.00
266.0020, 18668.00
267.2150, 18663.00
268.4270, 18810.00
269.6400, 18731.00
270.8520, 18947.00
272.0640, 18915.00
273.2760, 19019.00
274.4880, 18993.00
275.7000, 19243.00
276.9120, 19077.00
278.1230, 19416.00
279.3340, 19318.00
280.5450, 19453.00
281.7560, 19232.00
282.9670, 19217.00
284.1780, 19463.00
285.3880, 19599.00
286.5980, 19691.00
287.8090, 19732.00
289.0190, 19977.00
290.2290, 20243.00
291.4380, 20261.00
292.6480, 20842.00
293.8570, 21115.00
295.0670, 21291.00
296.2760, 21452.00
297.4850, 21187.00
298.6930, 20866.00
299.9020, 21135.00
301.1110, 21010.00
302.3190, 21031.00
303.5270, 20814.00
304.7350, 20844.00
305.9430, 20997.00
307.1510, 20994.00
308.3580, 21203.00
309.5660, 21591.00
310.7730, 21946.00
311.9800, 22393.00
313.1870, 22569.00
314.3940, 23045.00
315.6010, 23480.00
316.8070, 23724.00
318.0130, 23928.00
319.2200, 23770.00
320.4260, 23670.00
321.6310, 23634.00
322.8370, 23640.00
324.0430, 23857.00
325.2480, 24344.00
326.4540, 24735.00
327.6590, 25782.00
328.8640, 26809.00
330.0680, 28307.00
331.2730, 30241.00
332.4780, 31793.00
333.6820, 33821.00
334.8860, 35742.00
336.0900, 37665.00
337.2940, 38428.00
338.4980, 38480.00
339.7010, 37481.00
340.9050, 35882.00
342.1080, 34318.00
343.3110, 32232.00
344.5140, 30424.00
345.7170, 28651.00
346.9200, 27546.00
348.1220, 26609.00
349.3240, 25459.00
350.5270, 24806.00
351.7290, 24444.00
352.9310, 23763.00
354.1320, 23661.00
355.3340, 23271.00
356.5350, 23056.00
357.7370, 23080.00
358.9380, 22876.00
360.1390, 22973.00
361.3400, 23056.00
362.5400, 22969.00
363.7410, 22953.00
364.9410, 23036.00
366.1410, 23118.00
367.3410, 23280.00
368.5410, 23411.00
369.7410, 23726.00
370.9400, 23954.00
372.1400, 24102.00
373.3390, 24580.00
374.5380, 24781.00
375.7370, 25271.00
376.9360, 25257.00
378.1350, 25495.00
379.3330, 25399.00
380.5310, 25569.00
381.7300, 25468.00
382.9280, 25401.00
384.1260, 25624.00
385.3230, 26143.00
386.5210, 26584.00
387.7180, 27126.00
388.9160, 27958.00
390.1130, 28582.00
391.3100, 29413.00
392.5060, 30525.00
393.7030, 31206.00
394.9000, 31698.00
396.0960, 31976.00
397.2920, 31738.00
398.4880, 31562.00
399.6840, 31319.00
400.8800, 30712.00
402.0750, 30270.00
403.2710, 30004.00
404.4660, 29539.00
405.6610, 29223.00
406.8560, 29154.00
408.0510, 28836.00
409.2450, 28703.00
410.4400, 28455.00
411.6340, 28533.00
412.8280, 28346.00
414.0220, 28037.00
415.2160, 27916.00
416.4100, 27435.00
417.6030, 27201.00
418.7970, 26786.00
419.9900, 26065.00
421.1830, 25623.00
422.3760, 25145.00
423.5690, 24768.00
424.7610, 24579.00
425.9540, 24171.00
427.1460, 23869.00
428.3380, 23864.00
429.5300, 23771.00
430.7220, 23595.00
431.9140, 23587.00
433.1050, 23670.00
434.2970, 23503.00
435.4880, 23437.00
436.6790, 23672.00
437.8700, 23572.00
439.0610, 23501.00
440.2510, 23410.00
441.4420, 23528.00
442.6320, 23708.00
443.8220, 23715.00
445.0120, 23583.00
446.2020, 23489.00
447.3910, 23795.00
448.5810, 23395.00
449.7700, 23443.00
450.9600, 23733.00
452.1490, 23880.00
453.3370, 23685.00
454.5260, 23727.00
455.7150, 24025.00
456.9030, 23891.00
458.0910, 23739.00
459.2800, 24099.00
460.4670, 23991.00
461.6550, 23912.00
462.8430, 23952.00
464.0300, 23935.00
465.2180, 23976.00
466.4050, 24111.00
467.5920, 23845.00
468.7790, 23865.00
469.9650, 23968.00
471.1520, 24183.00
472.3380, 24156.00
473.5250, 23973.00
474.7110, 24226.00
475.8970, 24106.00
477.0820, 24233.00
478.2680, 24074.00
479.4540, 24233.00
480.6390, 24418.00
481.8240, 24276.00
483.0090, 24225.00
484.1940, 24282.00
485.3780, 24390.00
486.5630, 24589.00
487.7470, 24609.66
488.9320, 24701.79
490.1160, 24704.00
491.3000, 24771.00
492.4830, 24762.51
493.6670, 24757.00
494.8500, 24707.00
496.0340, 24648.00
497.2170, 24690.00
498.4000, 24948.00
499.5820, 24872.00
500.7650, 25034.46
501.9480, 24858.00
503.1300, 25164.00
504.3120, 25297.00
505.4940, 25219.00
506.6760, 25278.00
507.8580, 25461.00
509.0390, 25625.00
510.2210, 25984.00
511.4020, 25990.00
512.5830, 26173.00
513.7640, 26385.00
514.9450, 26866.00
516.1250, 26980.00
517.3060, 27420.00
518.4860, 27725.00
519.6660, 28048.00
520.8460, 28319.00
522.0260, 28385.00
523.2060, 28573.00
524.3850, 28204.00
525.5650, 27948.00
526.7440, 28017.00
527.9230, 27623.00
529.1020, 27680.00
530.2810, 27938.00
531.4590, 27657.00
532.6380, 27911.00
533.8160, 28014.00
534.9940, 28044.00
536.1720, 28322.00
537.3500, 28204.00
538.5270, 27871.00
539.7050, 27918.00
540.8820, 27847.00
542.0590, 27756.00
543.2360, 27711.00
544.4130, 27971.00
545.5900, 27888.00
546.7660, 27823.00
547.9430, 28041.00
549.1190, 27763.00
550.2950, 27493.00
551.4710, 27618.00
552.6470, 27311.00
553.8220, 27141.00
554.9980, 26903.00
556.1730, 27114.00
557.3480, 26850.00
558.5230, 26955.00
559.6980, 26842.00
560.8730, 26542.00
562.0470, 26770.00
563.2220, 26938.00
564.3960, 26661.00
565.5700, 26875.00
566.7440, 26968.00
567.9170, 27070.00
569.0910, 26904.00
570.2640, 27159.00
571.4380, 27152.00
572.6110, 27340.00
573.7840, 27377.00
574.9570, 27522.00
576.1290, 27444.00
577.3020, 27506.00
578.4740, 27304.00
579.6460, 27295.00
580.8180, 27240.00
581.9900, 27288.00
583.1620, 27243.00
584.3330, 27366.00
585.5040, 27374.00
586.6760, 27112.00
587.8470, 27329.00
589.0180, 27139.00
590.1880, 27596.00
591.3590, 27604.00
592.5290, 27466.00
593.7000, 27208.00
594.8700, 27405.00
596.0400, 27447.00
597.2090, 27628.00
598.3790, 27436.00
599.5490, 27394.00
600.7180, 27583.00
601.8870, 27459.00
603.0560, 27505.00
604.2250, 27527.00
605.3940, 27579.00
606.5620, 27650.04
607.7300, 27631.00
608.8990, 27802.00
610.0670, 27844.00
611.2350, 27898.00
612.4020, 27913.00
613.5700, 27658.00
614.7370, 28222.00
615.9050, 27969.00
617.0720, 27980.00
618.2390, 28298.00
619.4060, 28184.00
620.5720, 28325.00
621.7390, 28140.00
622.9050, 28496.00
624.0710, 28603.00
625.2370, 28777.00
626.4030, 28756.00
627.5690, 28646.00
628.7340, 28864.00
629.9000, 28831.00
631.0650, 28954.00
632.2300, 28964.00
633.3950, 29192.00
634.5600, 29289.00
635.7240, 29290.00
636.8890, 29428.00
638.0530, 29554.00
639.2170, 29643.00
640.3810, 29748.07
641.5450, 29653.00
642.7080, 29919.00
643.8720, 29997.00
645.0350, 30085.00
646.1980, 30373.00
647.3610, 30391.00
648.5240, 30971.00
649.6870, 31246.00
650.8490, 31653.00
652.0120, 32366.00
653.1740, 33035.00
654.3360, 33675.00
655.4980, 34663.00
656.6600, 35189.00
657.8210, 35885.00
658.9830, 36451.00
660.1440, 36671.00
661.3050, 36254.00
662.4660, 35681.00
663.6270, 35116.00
664.7870, 34586.00
665.9480, 33652.00
667.1080, 33541.00
668.2680, 33160.00
669.4280, 33145.00
670.5880, 33112.00
671.7480, 33166.00
672.9070, 33665.00
674.0670, 34039.00
675.2260, 34293.00
676.3850, 35215.00
677.5440, 36074.00
678.7030, 36565.00
679.8610, 36925.00
681.0200, 37051.00
682.1780, 37152.00
683.3360, 36605.00
684.4940, 36295.00
685.6520, 35255.00
686.8090, 34715.00
687.9670, 33623.00
689.1240, 33040.00
690.2810, 32627.00
691.4380, 31905.00
692.5950, 31559.00
693.7520, 31608.00
694.9080, 31438.00
696.0650, 31048.00
697.2210, 31134.00
698.3770, 30825.00
699.5330, 30763.00
700.6880, 30729.00
701.8440, 30876.00
702.9990, 30971.00
704.1550, 30745.00
705.3100, 30958.00
706.4650, 31023.00
707.6190, 30811.00
708.7740, 30677.00
709.9290, 30959.00
711.0830, 31029.00
712.2370, 31135.00
713.3910, 31193.79
714.5450, 31196.48
715.6980, 31185.00
716.8520, 31142.00
718.0050, 31115.00
719.1580, 31136.66
720.3110, 31125.98
721.4640, 31179.00
722.6170, 31221.00
723.7700, 31226.00
724.9220, 31278.36
726.0740, 31305.38
727.2260, 31371.00
728.3780, 31370.00
729.5300, 31456.00
730.6810, 31481.00
731.8330, 31390.00
732.9840, 31631.00
734.1350, 31498.00
735.2860, 31580.00
736.4370, 31526.00
737.5880, 31674.00
738.7380, 31609.00
739.8880, 31503.00
741.0390, 31619.00
742.1890, 31667.00
743.3380, 31918.00
744.4880, 31724.00
745.6380, 31833.00
746.7870, 31921.00
747.9360, 31810.00
749.0850, 31836.00
750.2340, 31898.00
751.3830, 31920.00
752.5310, 31967.00
753.6800, 31926.00
754.8280, 31744.00
755.9760, 31733.00
757.1240, 31872.00
758.2720, 32031.00
759.4190, 32321.00
760.5670, 32233.00
761.7140, 32108.00
762.8610, 31789.00
764.0080, 32358.00
765.1550, 32246.00
766.3020, 32023.00
767.4480, 32230.00
768.5950, 31946.00
769.7410, 32367.00
770.8870, 32373.00
772.0330, 32297.00
773.1780, 32408.00
774.3240, 32470.00
775.4690, 32357.00
776.6140, 32296.00
777.7590, 32526.00
778.9040, 32661.00
780.0490, 32485.00
781.1940, 32708.00
782.3380, 32489.00
783.4820, 32943.00
784.6260, 32614.00
785.7700, 32582.00
786.9140, 32983.00
788.0580, 32754.00
789.2010, 32756.00
790.3450, 32890.00
791.4880, 32599.00
792.6310, 32601.00
793.7730, 32874.00
794.9160, 33036.00
796.0590, 33027.00
797.2010, 33024.00
798.3430, 33080.00
799.4850, 32984.00
800.6270, 33309.00
801.7690, 33168.00
802.9100, 33261.00
804.0520, 33130.00
805.1930, 33309.00
806.3340, 33260.00
807.4750, 33393.00
808.6160, 33278.00
809.7560, 33214.00
810.8970, 33642.00
812.0370, 33565.00
813.1770, 33559.00
814.3170, 33506.00
815.4570, 33557.00
816.5960, 33570.00
817.7360, 33664.00
818.8750, 33622.00
820.0140, 33563.00
821.1530, 33897.00
822.2920, 33618.00
823.4310, 34001.00
824.5690, 33906.00
825.7070, 34090.00
826.8460, 34301.00
827.9840, 34085.00
829.1220, 34251.00
830.2590, 34130.00
831.3970, 34092.00
832.5340, 33997.00
833.6710, 34385.00
834.8080, 34190.00
835.9450, 34600.00
837.0820, 34298.00
838.2190, 34393.00
839.3550, 34691.00
840.4910, 34458.00
841.6270, 34574.00
842.7630, 34824.00
843.8990, 34791.00
845.0350, 34831.00
846.1700, 35047.00
847.3060, 35201.00
848.4410, 35374.00
849.5760, 35537.00
850.7100, 35676.00
851.8450, 35824.81
852.9800, 36063.00
854.1140, 36037.00
855.2480, 36064.00
856.3820, 36038.00
857.5160, 35719.00
858.6500, 35913.00
859.7830, 35537.00
860.9170, 35469.00
862.0500, 35433.00
863.1830, 35661.00
864.3160, 35619.00
865.4480, 35578.00
866.5810, 35478.00
867.7130, 35447.00
868.8460, 35534.00
869.9780, 35696.00
871.1100, 35434.00
872.2410, 35519.00
873.3730, 35677.00
874.5050, 35406.00
875.6360, 35712.00
876.7670, 35604.00
877.8980, 35661.00
879.0290, 35532.00
880.1590, 35617.00
881.2900, 35686.00
882.4200, 35718.00
883.5500, 35730.00
884.6800, 35881.00
885.8100, 35941.32
886.9400, 35979.52
888.0690, 36122.00
889.1990, 36080.00
890.3280, 36068.00
891.4570, 36172.00
892.5860, 36203.00
893.7140, 36044.00
894.8430, 36293.00
895.9710, 36177.00
897.1000, 36120.00
898.2280, 36522.00
899.3560, 36405.00
900.4830, 36479.00
901.6110, 36582.00
902.7380, 36559.00
903.8660, 36642.00
904.9930, 36729.00
906.1200, 36460.00
907.2460, 36641.00
908.3730, 36920.00
909.5000, 36737.00
910.6260, 37065.00
911.7520, 37036.00
912.8780, 37047.00
914.0040, 37438.00
915.1290, 37505.00
916.2550, 37693.00
917.3800, 37666.00
918.5050, 38314.00
919.6300, 38387.00
920.7550, 38859.00
921.8800, 39460.00
923.0040, 39385.00
924.1290, 39791.00
925.2530, 39989.00
926.3770, 39989.00
927.5010, 40076.00
928.6250, 39866.00
929.7480, 39889.00
930.8720, 39679.00
931.9950, 39685.00
933.1180, 39973.00
934.2410, 39829.00
935.3640, 39846.00
936.4860, 39703.00
937.6090, 39672.00
938.7310, 39313.00
939.8530, 39355.00
940.9750, 38913.00
942.0970, 38975.00
943.2180, 38986.00
944.3400, 38543.00
945.4610, 38599.00
946.5820, 38648.00
947.7030, 38554.00
948.8240, 38406.00
949.9450, 38430.00
951.0650, 38378.00
952.1860, 38121.00
953.3060, 38005.00
954.4260, 38188.00
955.5460, 38337.00
956.6650, 38397.00
957.7850, 38457.00
958.9040, 38262.00
960.0230, 38613.00
961.1420, 38625.00
962.2610, 38421.00
963.3800, 38507.00
964.4990, 38769.00
965.6170, 38599.00
966.7350, 38887.00
967.8530, 38659.00
968.9710, 38606.00
970.0890, 38800.00
971.2070, 38833.00
972.3240, 38755.00
973.4410, 39057.00
974.5580, 38879.00
975.6750, 38763.00
976.7920, 39209.00
977.9090, 39269.00
979.0250, 39149.00
980.1410, 39578.00
981.2580, 39424.00
982.3740, 39655.00
983.4890, 39945.00
984.6050, 40385.00
985.7200, 40659.00
986.8360, 40699.00
987.9510, 40814.40
989.0660, 40210.00
990.1810, 40652.00
991.2950, 40872.00
992.4100, 40665.00
993.5240, 41155.00
994.6390, 41918.00
995.7530, 41762.00
996.8660, 42515.00
997.9800, 42985.00
999.0940, 43779.00
1000.207, 44384.00
1001.320, 45209.00
1002.433, 46310.00
1003.546, 47400.00
1004.659, 48555.00
1005.772, 50001.00
1006.884, 50953.00
1007.996, 51868.00
1009.108, 52270.00
1010.220, 52214.00
1011.332, 52016.00
1012.444, 52117.00
1013.555, 51877.00
1014.666, 51674.00
1015.777, 52003.00
1016.888, 52091.00
1017.999, 52794.00
1019.110, 53339.00
1020.220, 53910.00
1021.331, 54674.00
1022.441, 55322.00
1023.551, 56172.00
1024.661, 56736.00
1025.770, 57383.00
1026.880, 57855.00
1027.989, 58168.00
1029.098, 58084.00
1030.207, 57505.00
1031.316, 56777.00
1032.425, 55902.00
1033.533, 54814.00
1034.642, 53430.00
1035.750, 52421.00
1036.858, 51129.00
1037.966, 50238.00
1039.073, 49092.00
1040.181, 47879.00
1041.288, 47223.00
1042.396, 46592.00
1043.503, 45588.00
1044.610, 45142.00
1045.716, 44507.00
1046.823, 44492.00
1047.929, 43886.00
1049.036, 43574.00
1050.142, 43365.00
1051.248, 43259.00
1052.353, 43225.00
1053.459, 43058.61
1054.564, 42882.00
1055.670, 42867.00
1056.775, 42683.00
1057.880, 42655.00
1058.985, 42803.00
1060.089, 42672.00
1061.194, 42197.00
1062.298, 42026.00
1063.402, 42292.00
1064.506, 42407.00
1065.610, 42182.00
1066.713, 42135.00
1067.817, 42085.00
1068.920, 42306.00
1070.023, 42016.00
1071.126, 41982.00
1072.229, 42232.00
1073.332, 42047.00
1074.435, 42269.00
1075.537, 42078.00
1076.639, 42112.00
1077.741, 42264.00
1078.843, 42213.00
1079.945, 42435.00
1081.046, 42269.00
1082.148, 42259.00
1083.249, 42859.00
1084.350, 42838.00
1085.451, 42825.00
1086.551, 42771.00
1087.652, 42647.00
1088.752, 42442.00
1089.853, 42269.00
1090.953, 42323.14
1092.053, 42331.38
1093.152, 42439.00
1094.252, 42481.00
1095.351, 42477.00
1096.451, 42322.00
1097.550, 42628.00
1098.649, 42336.00
1099.748, 42510.00
1100.846, 42552.00
1101.945, 42655.00
1103.043, 42555.00
1104.141, 42645.00
1105.239, 42479.00
1106.337, 42724.00
1107.434, 42824.00
1108.532, 42583.00
1109.629, 42513.00
1110.726, 42854.00
1111.823, 42952.00
1112.920, 42854.00
1114.017, 43017.00
1115.113, 42825.00
1116.210, 42914.00
1117.306, 42931.00
1118.402, 43022.00
1119.498, 42888.00
1120.593, 43226.00
1121.689, 43030.00
1122.784, 43324.00
1123.879, 43233.00
1124.974, 43116.00
1126.069, 43340.00
1127.164, 43474.00
1128.259, 43262.00
1129.353, 43350.00
1130.447, 43324.00
1131.541, 43449.00
1132.635, 43480.00
1133.729, 43613.00
1134.822, 43677.00
1135.916, 43662.00
1137.009, 43472.00
1138.102, 43740.00
1139.195, 43682.00
1140.288, 43652.00
1141.380, 43903.00
1142.473, 43869.00
1143.565, 44012.00
1144.657, 43758.00
1145.749, 43904.00
1146.841, 43717.00
1147.932, 43895.00
1149.024, 43827.00
1150.115, 44186.00
1151.206, 44058.00
1152.297, 43979.00
1153.388, 44056.00
1154.479, 43992.00
1155.569, 44025.77
1156.659, 44242.00
1157.750, 44149.00
1158.839, 44177.00
1159.929, 44382.00
1161.019, 44192.00
1162.108, 44230.00
1163.198, 44159.00
1164.287, 44427.00
1165.376, 44513.00
1166.465, 44622.00
1167.553, 44484.00
1168.642, 44679.00
1169.730, 44621.00
1170.818, 44795.00
1171.906, 44580.00
1172.994, 44909.00
1174.082, 44606.00
1175.170, 44822.00
1176.257, 44711.00
1177.344, 44727.00
1178.431, 44932.00
1179.518, 44898.00
1180.605, 44914.00
1181.691, 45016.00
1182.778, 45097.00
1183.864, 45067.00
1184.950, 45040.00
1186.036, 45255.00
1187.122, 45163.00
1188.207, 45153.00
1189.292, 45260.00
1190.378, 45186.00
1191.463, 45275.00
1192.548, 45267.00
1193.632, 45247.00
1194.717, 45299.00
1195.801, 45412.00
1196.886, 45651.00
1197.970, 45355.00
1199.054, 45572.00
1200.137, 45802.00
1201.221, 45564.00
1202.305, 45748.00
1203.388, 45616.00
1204.471, 45903.00
1205.554, 46080.00
1206.637, 45657.00
1207.719, 45858.00
1208.802, 45968.00
1209.884, 45941.00
1210.966, 45849.00
1212.048, 45985.00
1213.130, 46219.00
1214.212, 45967.00
1215.293, 45831.00
1216.374, 46068.00
1217.456, 46036.00
1218.536, 46114.00
1219.617, 46168.00
1220.698, 46172.00
1221.778, 46494.00
1222.859, 46328.00
1223.939, 46529.00
1225.019, 46400.00
1226.099, 46518.00
1227.178, 46411.00
1228.258, 46595.00
1229.337, 46653.00
1230.417, 46942.00
1231.496, 46717.00
1232.574, 46686.00
1233.653, 46906.00
1234.732, 46787.00
1235.810, 47030.00
1236.888, 47081.00
1237.966, 47085.00
1239.044, 46857.00
1240.122, 46802.00
1241.199, 47032.00
1242.277, 46958.00
1243.354, 47254.00
1244.431, 47356.00
1245.508, 47060.00
1246.585, 47079.00
1247.661, 47470.00
1248.738, 47348.00
1249.814, 47305.00
1250.890, 47551.00
1251.966, 47616.00
1253.042, 47607.79
1254.117, 47554.00
1255.193, 47590.00
1256.268, 47541.00
1257.343, 47538.00
1258.418, 47574.00
1259.493, 47821.00
1260.567, 48054.00
1261.642, 48070.00
1262.716, 48141.91
1263.790, 48186.00
1264.864, 48095.00
1265.938, 47964.00
1267.011, 47975.00
1268.085, 47974.00
1269.158, 48280.00
1270.231, 48137.00
1271.304, 48133.00
1272.377, 48599.00
1273.450, 48161.00
1274.522, 48386.00
1275.594, 48378.00
1276.666, 48562.00
1277.738, 48611.41
1278.810, 48585.78
1279.882, 48672.00
1280.953, 48514.00
1282.025, 48442.00
1283.096, 48412.00
1284.167, 48497.00
1285.238, 48746.00
1286.308, 48804.00
1287.379, 49003.00
1288.449, 48919.00
1289.519, 49024.00
1290.589, 48838.00
1291.659, 49101.00
1292.729, 49116.00
1293.798, 49042.00
1294.868, 49272.00
