##NAMES=Enstatite
##RRUFFID=R060630
##IDEAL CHEMISTRY=MgSiO_3_
##LOCALITY=unknown
##OWNER=RRUFF
##SOURCE=Gemological Institute of America
##DESCRIPTION=Tan colored fragment
##STATUS=The identification of this mineral has been confirmed by X-ray diffraction and chemical analysis
##URL=rruff.info/R060630
##MEASURED CHEMISTRY=(Mg_0.89_Fe_0.07_Al_0.04_)_Σ=1_(Si_0.96_Al_0.04_)_Σ=1_O_3_
##PIN_ID=L00984
##ORIENTATION=Laser parallel to a* (1 0 0). Fiducial mark perpendicular to laser is parallel to -b [0 -1 0]
118.1340, 15197.00
119.3650, 15381.00
120.5960, 15184.00
121.8270, 15439.00
123.0580, 15909.00
124.2880, 16066.00
125.5190, 15986.00
126.7490, 16297.00
127.9790, 16621.00
129.2090, 17165.00
130.4390, 17797.50
131.6680, 18693.00
132.8980, 19469.00
134.1270, 20538.00
135.3560, 21736.00
136.5850, 23178.00
137.8140, 25006.00
139.0430, 26736.00
140.2710, 27917.00
141.5000, 28078.00
142.7280, 27755.00
143.9560, 26585.00
145.1840, 24704.00
146.4120, 23134.00
147.6390, 21676.00
148.8670, 20725.00
150.0940, 19882.00
151.3210, 19690.00
152.5490, 19354.00
153.7750, 18746.00
155.0020, 18677.00
156.2290, 18373.00
157.4550, 17960.00
158.6810, 17554.00
159.9080, 17175.00
161.1340, 17186.00
162.3590, 17125.00
163.5850, 17032.00
164.8110, 17035.00
166.0360, 16831.00
167.2610, 16846.00
168.4860, 16831.00
169.7110, 16743.00
170.9360, 16838.00
172.1610, 16814.00
173.3850, 16637.00
174.6100, 16457.00
175.8340, 16585.00
177.0580, 16579.00
178.2820, 16726.00
179.5050, 16450.00
180.7290, 16450.00
181.9520, 16385.00
183.1760, 16800.00
184.3990, 16649.00
185.6220, 16794.00
186.8450, 17071.00
188.0670, 16889.00
189.2900, 16890.00
190.5120, 17034.00
191.7340, 17165.00
192.9560, 17410.00
194.1780, 17640.00
195.4000, 17402.00
196.6220, 17651.00
197.8430, 17760.00
199.0640, 18060.00
200.2860, 18275.12
201.5070, 18550.00
202.7270, 18658.00
203.9480, 18856.00
205.1690, 18781.00
206.3890, 18804.00
207.6090, 18682.00
208.8290, 18729.00
210.0490, 18418.00
211.2690, 18445.00
212.4890, 18144.00
213.7080, 17979.00
214.9280, 17940.00
216.1470, 17661.00
217.3660, 17718.00
218.5850, 17911.00
219.8030, 17624.00
221.0220, 17755.00
222.2400, 17744.00
223.4590, 18021.00
224.6770, 18099.00
225.8950, 18169.00
227.1120, 18463.00
228.3300, 18829.00
229.5480, 19101.00
230.7650, 19823.00
231.9820, 20235.00
233.1990, 20762.00
234.4160, 21796.00
235.6330, 22742.00
236.8490, 23226.00
238.0660, 23152.00
239.2820, 22888.00
240.4980, 22031.00
241.7140, 21194.00
242.9300, 20314.00
244.1460, 19632.00
245.3610, 19143.00
246.5770, 18737.00
247.7920, 18371.00
249.0070, 18234.00
250.2220, 18160.00
251.4370, 17902.00
252.6510, 17959.00
253.8660, 17875.00
255.0800, 17792.00
256.2940, 17715.00
257.5080, 18239.00
258.7220, 18091.39
259.9360, 18064.62
261.1490, 18158.00
262.3630, 17914.00
263.5760, 17773.00
264.7890, 17995.00
266.0020, 18027.00
267.2150, 18051.00
268.4270, 17939.00
269.6400, 17928.00
270.8520, 18049.00
272.0640, 18137.00
273.2760, 18106.00
274.4880, 18253.00
275.7000, 18316.00
276.9120, 18270.00
278.1230, 18437.00
279.3340, 18252.00
280.5450, 18396.00
281.7560, 18532.00
282.9670, 18497.00
284.1780, 18642.00
285.3880, 18527.00
286.5980, 18677.00
287.8090, 18961.00
289.0190, 18964.00
290.2290, 18962.00
291.4380, 19029.00
292.6480, 19265.00
293.8570, 19451.00
295.0670, 19641.00
296.2760, 19718.97
297.4850, 19764.00
298.6930, 19803.00
299.9020, 19762.00
301.1110, 19766.00
302.3190, 19712.00
303.5270, 19700.00
304.7350, 19469.00
305.9430, 19584.00
307.1510, 19550.00
308.3580, 19841.00
309.5660, 19748.00
310.7730, 19966.00
311.9800, 19944.00
313.1870, 20163.00
314.3940, 20381.00
315.6010, 20506.00
316.8070, 20561.00
318.0130, 20735.00
319.2200, 20803.00
320.4260, 21290.00
321.6310, 21411.00
322.8370, 21689.00
324.0430, 21872.00
325.2480, 22215.00
326.4540, 22813.00
327.6590, 23357.00
328.8640, 23754.00
330.0680, 24297.00
331.2730, 24872.00
332.4780, 25914.00
333.6820, 26597.00
334.8860, 27566.00
336.0900, 28592.00
337.2940, 29663.00
338.4980, 31229.00
339.7010, 32554.00
340.9050, 34167.00
342.1080, 35717.00
343.3110, 37329.00
344.5140, 38829.00
345.7170, 40156.00
346.9200, 41212.00
348.1220, 42020.00
349.3240, 42287.00
350.5270, 41841.00
351.7290, 41364.00
352.9310, 40400.00
354.1320, 38957.00
355.3340, 37919.00
356.5350, 36240.00
357.7370, 34985.00
358.9380, 33965.00
360.1390, 32558.00
361.3400, 31787.00
362.5400, 30612.00
363.7410, 29430.00
364.9410, 28864.00
366.1410, 28028.00
367.3410, 27269.00
368.5410, 26807.00
369.7410, 26094.00
370.9400, 25835.00
372.1400, 25296.00
373.3390, 25124.00
374.5380, 24879.00
375.7370, 24809.00
376.9360, 24776.00
378.1350, 24436.00
379.3330, 24248.00
380.5310, 24307.00
381.7300, 24121.00
382.9280, 24434.00
384.1260, 24321.00
385.3230, 24209.00
386.5210, 24500.00
387.7180, 24442.00
388.9160, 24665.00
390.1130, 24790.00
391.3100, 24903.08
392.5060, 24828.00
393.7030, 25289.00
394.9000, 25425.00
396.0960, 25772.00
397.2920, 26091.00
398.4880, 26525.00
399.6840, 26688.00
400.8800, 26681.00
402.0750, 27005.00
403.2710, 26971.00
404.4660, 27027.00
405.6610, 26855.00
406.8560, 26833.00
408.0510, 26776.00
409.2450, 26531.00
410.4400, 26692.00
411.6340, 26558.00
412.8280, 27093.00
414.0220, 27138.00
415.2160, 27761.00
416.4100, 28008.00
417.6030, 28112.00
418.7970, 28340.00
419.9900, 28085.00
421.1830, 28097.00
422.3760, 27475.00
423.5690, 26945.00
424.7610, 26268.00
425.9540, 25536.00
427.1460, 24756.00
428.3380, 24034.00
429.5300, 23711.00
430.7220, 23395.00
431.9140, 23349.00
433.1050, 23158.00
434.2970, 23209.00
435.4880, 23359.00
436.6790, 23439.00
437.8700, 24170.00
439.0610, 24706.00
440.2510, 25434.00
441.4420, 25960.00
442.6320, 26471.00
443.8220, 27176.00
445.0120, 27145.00
446.2020, 27301.00
447.3910, 27113.00
448.5810, 26327.00
449.7700, 25758.00
450.9600, 25179.00
452.1490, 24642.00
453.3370, 24258.00
454.5260, 23799.41
455.7150, 23162.00
456.9030, 23118.00
458.0910, 22762.00
459.2800, 22583.00
460.4670, 22519.00
461.6550, 22197.00
462.8430, 22432.00
464.0300, 22173.00
465.2180, 22112.00
466.4050, 22248.00
467.5920, 21991.00
468.7790, 22046.00
469.9650, 22033.00
471.1520, 21903.00
472.3380, 21919.00
473.5250, 21984.00
474.7110, 21868.00
475.8970, 21747.00
477.0820, 21861.00
478.2680, 21765.00
479.4540, 21863.00
480.6390, 21878.00
481.8240, 21837.00
483.0090, 21924.00
484.1940, 21891.00
485.3780, 21751.00
486.5630, 22035.00
487.7470, 21913.00
488.9320, 21908.00
490.1160, 21786.00
491.3000, 21874.00
492.4830, 21887.00
493.6670, 21771.00
494.8500, 21802.00
496.0340, 21867.00
497.2170, 21761.00
498.4000, 21942.00
499.5820, 21917.00
500.7650, 21979.00
501.9480, 22036.00
503.1300, 22131.00
504.3120, 22035.00
505.4940, 22091.00
506.6760, 21885.00
507.8580, 22010.00
509.0390, 22007.00
510.2210, 22028.91
511.4020, 22295.00
512.5830, 22211.00
513.7640, 22410.00
514.9450, 22594.00
516.1250, 22553.00
517.3060, 22603.00
518.4860, 22681.00
519.6660, 22714.00
520.8460, 22785.00
522.0260, 22816.14
523.2060, 22896.00
524.3850, 22903.00
525.5650, 22968.00
526.7440, 23072.00
527.9230, 22866.00
529.1020, 22909.00
530.2810, 22914.00
531.4590, 23164.00
532.6380, 23180.00
533.8160, 23281.00
534.9940, 23361.00
536.1720, 23620.00
537.3500, 23475.00
538.5270, 23608.00
539.7050, 23691.00
540.8820, 23306.00
542.0590, 23474.00
543.2360, 23481.00
544.4130, 23232.00
545.5900, 23312.00
546.7660, 23310.00
547.9430, 23260.00
549.1190, 23268.00
550.2950, 23308.00
551.4710, 23092.00
552.6470, 23146.00
553.8220, 23057.00
554.9980, 23281.00
556.1730, 23056.00
557.3480, 23128.00
558.5230, 23031.00
559.6980, 23133.00
560.8730, 22764.00
562.0470, 22937.00
563.2220, 22905.00
564.3960, 22700.00
565.5700, 22979.00
566.7440, 22681.00
567.9170, 23054.00
569.0910, 23209.00
570.2640, 23005.00
571.4380, 22976.00
572.6110, 23100.00
573.7840, 23251.00
574.9570, 23297.00
576.1290, 23113.00
577.3020, 23124.00
578.4740, 23104.00
579.6460, 23248.00
580.8180, 23168.00
581.9900, 23915.00
583.1620, 24010.00
584.3330, 24017.00
585.5040, 23740.00
586.6760, 23195.00
587.8470, 23270.00
589.0180, 23071.00
590.1880, 23117.00
591.3590, 23246.00
592.5290, 23110.00
593.7000, 23233.00
594.8700, 23177.00
596.0400, 23139.00
597.2090, 23252.00
598.3790, 23353.00
599.5490, 23186.00
600.7180, 23272.00
601.8870, 23193.00
603.0560, 23300.00
604.2250, 23246.00
605.3940, 23263.00
606.5620, 23422.00
607.7300, 23375.00
608.8990, 23451.00
610.0670, 23409.00
611.2350, 23570.00
612.4020, 23561.00
613.5700, 23423.00
614.7370, 23705.00
615.9050, 23527.00
617.0720, 23743.00
618.2390, 23795.00
619.4060, 23621.00
620.5720, 23881.00
621.7390, 23889.00
622.9050, 23908.00
624.0710, 23979.00
625.2370, 24115.00
626.4030, 24237.00
627.5690, 24258.00
628.7340, 24514.00
629.9000, 24787.00
631.0650, 25147.00
632.2300, 25339.00
633.3950, 25491.00
634.5600, 25586.00
635.7240, 25969.00
636.8890, 26135.00
638.0530, 26652.00
639.2170, 26821.00
640.3810, 26816.00
641.5450, 27281.00
642.7080, 27277.00
643.8720, 27531.00
645.0350, 27849.00
646.1980, 28177.00
647.3610, 28831.00
648.5240, 29391.00
649.6870, 30413.00
650.8490, 31309.00
652.0120, 32265.00
653.1740, 33258.00
654.3360, 34584.00
655.4980, 35916.00
656.6600, 37633.00
657.8210, 38663.00
658.9830, 39855.00
660.1440, 40592.00
661.3050, 40896.00
662.4660, 40805.00
663.6270, 39933.00
664.7870, 39161.00
665.9480, 38413.00
667.1080, 37779.00
668.2680, 37160.00
669.4280, 36891.00
670.5880, 36661.00
671.7480, 36748.00
672.9070, 37137.00
674.0670, 38140.00
675.2260, 39225.00
676.3850, 40706.00
677.5440, 42770.00
678.7030, 45296.00
679.8610, 47947.00
681.0200, 51175.00
682.1780, 54943.00
683.3360, 57624.00
684.4940, 60207.00
685.6520, 61633.00
686.8090, 61612.00
687.9670, 60189.00
689.1240, 58218.00
690.2810, 54656.00
691.4380, 51034.00
692.5950, 47952.00
693.7520, 44609.00
694.9080, 41625.00
696.0650, 39395.00
697.2210, 37333.00
698.3770, 35397.00
699.5330, 33881.00
700.6880, 32936.00
701.8440, 31959.00
702.9990, 31158.00
704.1550, 30609.00
705.3100, 29783.00
706.4650, 29621.00
707.6190, 29066.00
708.7740, 28857.00
709.9290, 28464.00
711.0830, 28088.00
712.2370, 28084.00
713.3910, 27560.00
714.5450, 27421.00
715.6980, 27273.00
716.8520, 27118.00
718.0050, 27199.00
719.1580, 26931.00
720.3110, 27005.00
721.4640, 26812.00
722.6170, 26718.00
723.7700, 26554.00
724.9220, 26393.00
726.0740, 26689.00
727.2260, 26442.00
728.3780, 26570.00
729.5300, 26544.00
730.6810, 26453.00
731.8330, 26488.00
732.9840, 26347.00
734.1350, 26478.00
735.2860, 26248.00
736.4370, 26380.00
737.5880, 26254.00
738.7380, 26359.00
739.8880, 26395.00
741.0390, 26336.00
742.1890, 26087.00
743.3380, 26259.00
744.4880, 26196.00
745.6380, 26339.00
746.7870, 26337.00
747.9360, 26486.00
749.0850, 26304.00
750.2340, 26420.00
751.3830, 26519.00
752.5310, 26398.00
753.6800, 26421.00
754.8280, 26235.00
755.9760, 26159.00
757.1240, 25929.00
758.2720, 25954.00
759.4190, 26158.00
760.5670, 25745.00
761.7140, 26125.00
762.8610, 26062.00
764.0080, 25918.00
765.1550, 25955.00
766.3020, 26103.00
767.4480, 25828.00
768.5950, 25793.00
769.7410, 25894.00
770.8870, 25727.00
772.0330, 25930.00
773.1780, 25877.00
774.3240, 25904.00
775.4690, 25812.00
776.6140, 25862.30
777.7590, 25738.00
778.9040, 25916.00
780.0490, 25939.00
781.1940, 25926.00
782.3380, 25990.00
783.4820, 25867.00
784.6260, 25906.00
785.7700, 25912.00
786.9140, 25989.00
788.0580, 25896.00
789.2010, 25673.00
790.3450, 25891.00
791.4880, 25983.00
792.6310, 25885.00
793.7730, 26129.00
794.9160, 26281.00
796.0590, 26208.00
797.2010, 26129.00
798.3430, 26069.00
799.4850, 26082.00
800.6270, 26053.16
801.7690, 26000.00
802.9100, 26129.00
804.0520, 26125.00
805.1930, 26288.00
806.3340, 26275.00
807.4750, 26263.00
808.6160, 26199.00
809.7560, 26209.76
810.8970, 26307.00
812.0370, 26235.00
813.1770, 26322.00
814.3170, 26419.00
815.4570, 26418.00
816.5960, 26590.00
817.7360, 26421.00
818.8750, 26596.00
820.0140, 26732.00
821.1530, 26559.00
822.2920, 26711.00
823.4310, 26811.00
824.5690, 26977.00
825.7070, 26859.00
826.8460, 26795.00
827.9840, 26904.00
829.1220, 26980.00
830.2590, 27007.07
831.3970, 27202.00
832.5340, 27155.00
833.6710, 27152.00
834.8080, 27271.00
835.9450, 27372.04
837.0820, 27737.00
838.2190, 27759.00
839.3550, 28078.00
840.4910, 28367.00
841.6270, 28319.00
842.7630, 28673.00
843.8990, 28831.00
845.0350, 29100.00
846.1700, 29126.00
847.3060, 29114.00
848.4410, 29278.00
849.5760, 29212.00
850.7100, 29100.00
851.8450, 29349.00
852.9800, 29133.00
854.1140, 29377.00
855.2480, 29334.00
856.3820, 29151.00
857.5160, 28928.00
858.6500, 28885.64
859.7830, 28767.00
860.9170, 28726.00
862.0500, 28762.00
863.1830, 28719.00
864.3160, 28740.00
865.4480, 28735.00
866.5810, 28700.00
867.7130, 28773.00
868.8460, 28531.00
869.9780, 28497.00
871.1100, 28504.00
872.2410, 28552.00
873.3730, 28298.00
874.5050, 28435.00
875.6360, 28429.00
876.7670, 28249.00
877.8980, 28255.00
879.0290, 28382.00
880.1590, 28297.00
881.2900, 28191.00
882.4200, 28218.00
883.5500, 28217.00
884.6800, 28132.00
885.8100, 28238.00
886.9400, 28178.00
888.0690, 28125.00
889.1990, 28216.00
890.3280, 28032.00
891.4570, 28254.00
892.5860, 28115.00
893.7140, 28188.00
894.8430, 28364.00
895.9710, 28062.00
897.1000, 28291.00
898.2280, 28556.00
899.3560, 28308.00
900.4830, 28391.00
901.6110, 28306.00
902.7380, 28398.00
903.8660, 28528.00
904.9930, 28257.00
906.1200, 28387.00
907.2460, 28534.00
908.3730, 28621.00
909.5000, 28723.00
910.6260, 28628.00
911.7520, 28715.00
912.8780, 28841.00
914.0040, 28679.00
915.1290, 29034.00
916.2550, 28940.00
917.3800, 29069.00
918.5050, 29041.00
919.6300, 29114.00
920.7550, 29258.00
921.8800, 29230.00
923.0040, 29382.00
924.1290, 29445.00
925.2530, 29541.00
926.3770, 29531.00
927.5010, 29787.00
928.6250, 29693.00
929.7480, 30016.00
930.8720, 30194.00
931.9950, 29981.00
933.1180, 30029.00
934.2410, 30077.00
935.3640, 30137.00
936.4860, 30388.00
937.6090, 30321.00
938.7310, 30498.00
939.8530, 30423.00
940.9750, 30398.62
942.0970, 30589.00
943.2180, 30415.00
944.3400, 30415.00
945.4610, 30728.00
946.5820, 30701.00
947.7030, 30521.00
948.8240, 30604.00
949.9450, 30662.00
951.0650, 30673.00
952.1860, 30894.00
953.3060, 30834.00
954.4260, 30870.00
955.5460, 30435.00
956.6650, 30573.00
957.7850, 30367.00
958.9040, 30386.00
960.0230, 30265.00
961.1420, 30058.00
962.2610, 29799.00
963.3800, 29953.00
964.4990, 29572.00
965.6170, 29723.00
966.7350, 29654.00
967.8530, 29418.00
968.9710, 29497.00
970.0890, 29392.00
971.2070, 29539.00
972.3240, 29472.00
973.4410, 29448.00
974.5580, 29338.00
975.6750, 29410.00
976.7920, 29505.00
977.9090, 29510.00
979.0250, 29517.00
980.1410, 29676.00
981.2580, 29604.00
982.3740, 29755.00
983.4890, 29929.00
984.6050, 29999.00
985.7200, 30282.00
986.8360, 30381.00
987.9510, 30446.00
989.0660, 30676.00
990.1810, 30807.00
991.2950, 30925.00
992.4100, 31263.44
993.5240, 31825.00
994.6390, 31981.00
995.7530, 32553.00
996.8660, 33069.00
997.9800, 33321.00
999.0940, 33954.00
1000.207, 34611.00
1001.320, 35242.00
1002.433, 35834.18
1003.546, 36487.07
1004.659, 36986.00
1005.772, 37672.00
1006.884, 38229.00
1007.996, 38643.00
1009.108, 38903.00
1010.220, 39401.00
1011.332, 39269.00
1012.444, 39483.00
1013.555, 39210.00
1014.666, 38947.00
1015.777, 38762.00
1016.888, 38504.34
1017.999, 38339.00
1019.110, 38094.00
1020.220, 37827.00
1021.331, 37702.30
1022.441, 37575.58
1023.551, 37637.00
1024.661, 37521.00
1025.770, 37583.00
1026.880, 37722.00
1027.989, 37729.00
1029.098, 37689.00
1030.207, 37694.00
1031.316, 37874.00
1032.425, 37478.00
1033.533, 37521.00
1034.642, 37513.00
1035.750, 36904.00
1036.858, 36653.00
1037.966, 36261.00
1039.073, 35884.00
1040.181, 35245.00
1041.288, 35005.00
1042.396, 34336.00
1043.503, 34156.00
1044.610, 33667.00
1045.716, 33372.00
1046.823, 33094.00
1047.929, 32637.00
1049.036, 32612.00
1050.142, 32263.00
1051.248, 32228.00
1052.353, 32082.00
1053.459, 31766.00
1054.564, 31820.00
1055.670, 31700.00
1056.775, 31488.00
1057.880, 31405.00
1058.985, 31407.00
1060.089, 31067.00
1061.194, 31213.00
1062.298, 31025.00
1063.402, 31068.00
1064.506, 31030.00
1065.610, 31135.00
1066.713, 31084.00
1067.817, 30896.00
1068.920, 30858.00
1070.023, 30764.00
1071.126, 30820.00
1072.229, 31040.00
1073.332, 30795.00
1074.435, 30892.00
1075.537, 30765.25
1076.639, 30885.00
1077.741, 30671.00
1078.843, 30477.00
1079.945, 30824.00
1081.046, 30735.00
1082.148, 30893.00
1083.249, 30729.00
1084.350, 30669.00
1085.451, 30681.00
1086.551, 30651.00
1087.652, 30555.00
1088.752, 31322.00
1089.853, 31539.00
1090.953, 31599.00
1092.053, 31395.00
1093.152, 30843.00
1094.252, 30812.00
1095.351, 30972.00
1096.451, 31098.00
1097.550, 30599.00
1098.649, 30687.00
1099.748, 30789.00
1100.846, 30852.00
1101.945, 31044.00
1103.043, 30791.00
1104.141, 30885.00
1105.239, 30639.00
1106.337, 30901.00
1107.434, 30908.00
1108.532, 30651.00
1109.629, 30855.00
1110.726, 30993.00
1111.823, 30915.00
1112.920, 30939.00
1114.017, 30859.00
1115.113, 31086.00
1116.210, 31298.00
1117.306, 31341.00
1118.402, 31198.00
1119.498, 31252.00
1120.593, 31348.00
1121.689, 31329.00
1122.784, 31590.00
1123.879, 31545.00
1124.974, 31663.00
1126.069, 31442.00
1127.164, 31201.00
1128.259, 31751.00
1129.353, 31318.00
1130.447, 31223.00
1131.541, 31370.00
1132.635, 31283.00
1133.729, 31342.00
1134.822, 31147.00
1135.916, 31225.00
1137.009, 31157.00
1138.102, 31407.00
1139.195, 31589.00
1140.288, 31550.69
1141.380, 31357.00
1142.473, 31526.00
1143.565, 31557.00
1144.657, 31468.00
1145.749, 31472.00
1146.841, 31467.00
1147.932, 31369.00
1149.024, 31331.00
1150.115, 31341.49
1151.206, 31459.00
1152.297, 31369.00
1153.388, 31402.00
1154.479, 31410.00
1155.569, 31399.00
1156.659, 31467.00
1157.750, 31673.00
1158.839, 31574.00
1159.929, 31558.00
1161.019, 31693.00
1162.108, 31492.00
1163.198, 31431.00
1164.287, 31459.00
1165.376, 31569.00
1166.465, 31778.00
1167.553, 31898.00
1168.642, 31786.00
1169.730, 31883.00
1170.818, 31682.00
1171.906, 31684.00
1172.994, 31883.00
1174.082, 31738.00
1175.170, 31926.00
1176.257, 31859.00
1177.344, 31824.00
1178.431, 32021.00
1179.518, 31851.00
1180.605, 32059.00
1181.691, 31811.00
1182.778, 32032.00
1183.864, 31991.00
1184.950, 32147.00
1186.036, 32081.00
1187.122, 31958.00
1188.207, 31956.00
1189.292, 31983.00
1190.378, 31998.00
1191.463, 32409.00
1192.548, 32276.00
1193.632, 32337.00
1194.717, 32005.00
1195.801, 32194.00
1196.886, 32186.00
1197.970, 32137.00
1199.054, 32134.00
1200.137, 32015.00
1201.221, 32324.00
1202.305, 32119.00
1203.388, 32256.00
1204.471, 32386.00
1205.554, 32355.00
1206.637, 32310.00
1207.719, 32611.00
1208.802, 32379.00
1209.884, 32078.00
1210.966, 32559.00
1212.048, 32171.00
1213.130, 32360.00
1214.212, 32461.00
1215.293, 32619.00
1216.374, 32503.00
1217.456, 32567.00
1218.536, 32653.00
1219.617, 32450.00
1220.698, 32625.00
1221.778, 32515.00
1222.859, 32765.00
1223.939, 32615.00
1225.019, 32512.00
1226.099, 32557.00
1227.178, 32768.00
1228.258, 32681.85
1229.337, 32922.00
1230.417, 32718.00
1231.496, 32725.00
1232.574, 32786.00
1233.653, 32674.00
1234.732, 32823.00
1235.810, 32856.00
1236.888, 32591.00
1237.966, 32808.00
1239.044, 32768.00
1240.122, 33050.00
1241.199, 32887.00
1242.277, 32951.00
1243.354, 32905.00
1244.431, 32926.00
1245.508, 33019.00
1246.585, 33114.00
1247.661, 33010.00
1248.738, 32922.00
1249.814, 33125.00
1250.890, 33027.00
1251.966, 32958.00
1253.042, 33213.00
1254.117, 33258.00
1255.193, 33009.00
1256.268, 32976.00
1257.343, 33343.00
1258.418, 33203.00
1259.493, 33117.00
1260.567, 33228.00
1261.642, 33013.00
1262.716, 33212.75
1263.790, 33640.00
1264.864, 33500.00
1265.938, 33484.00
1267.011, 33560.00
1268.085, 33403.00
1269.158, 33371.00
1270.231, 33495.00
1271.304, 33568.00
1272.377, 33596.00
1273.450, 33708.00
1274.522, 33736.75
1275.594, 34036.00
1276.666, 33791.00
1277.738, 33578.00
1278.810, 33507.00
1279.882, 33762.00
1280.953, 33740.00
1282.025, 33784.00
1283.096, 33772.00
1284.167, 33662.00
1285.238, 33522.00
1286.308, 33629.00
1287.379, 33675.00
1288.449, 33773.00
1289.519, 33544.00
1290.589, 33588.00
1291.659, 33747.00
1292.729, 33596.00
1293.798, 33792.00
1294.868, 33623.00
1295.937, 33935.00
1297.006, 34015.00
