##NAMES=Enstatite
##RRUFFID=R060630
##IDEAL CHEMISTRY=MgSiO_3_
##LOCALITY=unknown
##OWNER=RRUFF
##SOURCE=Gemological Institute of America
##DESCRIPTION=Tan colored fragment
##STATUS=The identification of this mineral has been confirmed by X-ray diffraction and chemical analysis
##URL=rruff.info/R060630
##MEASURED CHEMISTRY=(Mg_0.89_Fe_0.07_Al_0.04_)_Σ=1_(Si_0.96_Al_0.04_)_Σ=1_O_3_
##PIN_ID=L00984
##ORIENTATION=Laser parallel to a* (1 0 0). Fiducial mark perpendicular to laser is parallel to -b [0 -1 0]
118.1340, 8505.000
119.3650, 8442.000
120.5960, 8405.000
121.8270, 8479.000
123.0580, 8742.000
124.2880, 8883.000
125.5190, 8847.000
126.7490, 8874.000
127.9790, 8921.000
129.2090, 9062.000
130.4390, 9107.000
131.6680, 9283.000
132.8980, 9280.000
134.1270, 9283.000
135.3560, 9525.000
136.5850, 9550.000
137.8140, 9810.000
139.0430, 10076.00
140.2710, 10215.00
141.5000, 10110.00
142.7280, 10317.00
143.9560, 10500.00
145.1840, 10481.00
146.4120, 10836.00
147.6390, 10914.00
148.8670, 10970.00
150.0940, 11196.00
151.3210, 11379.00
152.5490, 11468.00
153.7750, 11522.95
155.0020, 11378.00
156.2290, 11468.00
157.4550, 11348.00
158.6810, 11238.00
159.9080, 11263.00
161.1340, 11262.00
162.3590, 11337.00
163.5850, 11363.00
164.8110, 11403.00
166.0360, 11171.00
167.2610, 10963.00
168.4860, 10871.00
169.7110, 10972.00
170.9360, 10971.00
172.1610, 10823.00
173.3850, 10707.00
174.6100, 10705.00
175.8340, 10750.00
177.0580, 10894.00
178.2820, 10855.00
179.5050, 10937.00
180.7290, 11008.00
181.9520, 11308.00
183.1760, 11384.00
184.3990, 11818.00
185.6220, 11981.00
186.8450, 12343.00
188.0670, 12568.00
189.2900, 13127.00
190.5120, 13308.00
191.7340, 13655.00
192.9560, 13960.23
194.1780, 14137.52
195.4000, 14374.00
196.6220, 14490.00
197.8430, 14473.00
199.0640, 14548.00
200.2860, 14303.00
201.5070, 14090.00
202.7270, 13916.00
203.9480, 13506.00
205.1690, 13024.00
206.3890, 12705.00
207.6090, 12613.00
208.8290, 12324.00
210.0490, 12095.00
211.2690, 12219.00
212.4890, 12269.00
213.7080, 12249.00
214.9280, 12240.00
216.1470, 12339.00
217.3660, 12476.00
218.5850, 12708.00
219.8030, 12884.00
221.0220, 13172.00
222.2400, 13515.00
223.4590, 13996.00
224.6770, 14351.00
225.8950, 15170.00
227.1120, 16082.00
228.3300, 17220.00
229.5480, 18020.00
230.7650, 19104.00
231.9820, 20228.00
233.1990, 21866.00
234.4160, 21790.00
235.6330, 22546.00
236.8490, 22424.00
238.0660, 21619.00
239.2820, 20318.00
240.4980, 18841.00
241.7140, 17679.00
242.9300, 16653.00
244.1460, 15486.00
245.3610, 14496.00
246.5770, 13887.00
247.7920, 13617.00
249.0070, 12934.00
250.2220, 12781.00
251.4370, 12496.00
252.6510, 12307.00
253.8660, 12270.00
255.0800, 12026.00
256.2940, 11936.00
257.5080, 12235.00
258.7220, 12065.07
259.9360, 12527.00
261.1490, 12083.00
262.3630, 11801.00
263.5760, 11758.00
264.7890, 11832.00
266.0020, 11813.00
267.2150, 12016.00
268.4270, 11976.00
269.6400, 11889.00
270.8520, 12007.00
272.0640, 11956.00
273.2760, 12060.00
274.4880, 12116.00
275.7000, 12342.00
276.9120, 12333.00
278.1230, 12390.00
279.3340, 12577.00
280.5450, 12573.00
281.7560, 12794.00
282.9670, 12880.00
284.1780, 13110.00
285.3880, 13371.00
286.5980, 13430.00
287.8090, 13649.00
289.0190, 13893.00
290.2290, 14190.00
291.4380, 14370.07
292.6480, 14629.00
293.8570, 14764.00
295.0670, 14937.00
296.2760, 15119.00
297.4850, 15128.00
298.6930, 15002.00
299.9020, 14751.00
301.1110, 14621.00
302.3190, 14518.00
303.5270, 14396.00
304.7350, 14280.00
305.9430, 14230.00
307.1510, 14217.00
308.3580, 14225.00
309.5660, 14302.00
310.7730, 14516.00
311.9800, 14797.00
313.1870, 14862.00
314.3940, 15230.00
315.6010, 15302.00
316.8070, 15704.00
318.0130, 16053.00
319.2200, 16266.00
320.4260, 16711.00
321.6310, 16962.00
322.8370, 17555.00
324.0430, 17983.00
325.2480, 18340.00
326.4540, 18806.00
327.6590, 19435.00
328.8640, 20080.00
330.0680, 20872.00
331.2730, 21347.00
332.4780, 22200.00
333.6820, 23169.00
334.8860, 24047.00
336.0900, 25218.00
337.2940, 26079.00
338.4980, 27425.00
339.7010, 28467.00
340.9050, 29659.00
342.1080, 30857.00
343.3110, 31914.00
344.5140, 32679.00
345.7170, 32973.00
346.9200, 33183.00
348.1220, 33247.00
349.3240, 32744.00
350.5270, 32037.00
351.7290, 30988.00
352.9310, 29910.00
354.1320, 28868.00
355.3340, 27635.00
356.5350, 26851.00
357.7370, 25863.00
358.9380, 24557.00
360.1390, 23692.00
361.3400, 22842.00
362.5400, 22340.00
363.7410, 21549.00
364.9410, 20960.00
366.1410, 20518.00
367.3410, 19983.00
368.5410, 19615.00
369.7410, 19472.00
370.9400, 19517.00
372.1400, 19689.00
373.3390, 19087.00
374.5380, 19153.00
375.7370, 19105.00
376.9360, 19408.00
378.1350, 19479.00
379.3330, 19719.00
380.5310, 20078.00
381.7300, 19995.00
382.9280, 20284.00
384.1260, 20525.00
385.3230, 20620.00
386.5210, 20557.00
387.7180, 20943.00
388.9160, 20885.00
390.1130, 21177.00
391.3100, 21240.00
392.5060, 21715.00
393.7030, 21834.00
394.9000, 22197.00
396.0960, 22263.00
397.2920, 22601.00
398.4880, 22806.00
399.6840, 22788.00
400.8800, 22886.00
402.0750, 22740.39
403.2710, 22703.00
404.4660, 22386.00
405.6610, 22262.00
406.8560, 22159.00
408.0510, 22116.00
409.2450, 21990.00
410.4400, 22086.00
411.6340, 22216.00
412.8280, 22248.00
414.0220, 22301.00
415.2160, 22280.00
416.4100, 22266.00
417.6030, 21976.00
418.7970, 21530.00
419.9900, 21147.00
421.1830, 20520.00
422.3760, 19823.00
423.5690, 19192.00
424.7610, 18187.00
425.9540, 17632.00
427.1460, 17143.00
428.3380, 16676.00
429.5300, 16270.00
430.7220, 15846.00
431.9140, 15533.35
433.1050, 15204.00
434.2970, 15040.00
435.4880, 14851.00
436.6790, 14786.00
437.8700, 14725.00
439.0610, 14583.00
440.2510, 14728.00
441.4420, 14698.00
442.6320, 14735.00
443.8220, 14750.00
445.0120, 14772.60
446.2020, 14830.00
447.3910, 14825.00
448.5810, 14924.00
449.7700, 14918.00
450.9600, 14982.00
452.1490, 15018.15
453.3370, 14912.00
454.5260, 15060.00
455.7150, 14976.00
456.9030, 14938.00
458.0910, 15057.00
459.2800, 14953.00
460.4670, 14825.00
461.6550, 14667.00
462.8430, 14853.00
464.0300, 14674.00
465.2180, 14793.00
466.4050, 14898.00
467.5920, 14723.00
468.7790, 14791.00
469.9650, 14830.00
471.1520, 14851.00
472.3380, 14916.33
473.5250, 14996.00
474.7110, 14988.00
475.8970, 15122.00
477.0820, 15094.00
478.2680, 15192.00
479.4540, 15135.00
480.6390, 15200.00
481.8240, 15221.00
483.0090, 15216.00
484.1940, 15226.00
485.3780, 15157.00
486.5630, 15239.00
487.7470, 15201.45
488.9320, 15256.00
490.1160, 15204.00
491.3000, 15260.00
492.4830, 15289.00
493.6670, 15196.00
494.8500, 15221.00
496.0340, 15280.00
497.2170, 15336.00
498.4000, 15311.00
499.5820, 15315.00
500.7650, 15571.00
501.9480, 15528.00
503.1300, 15524.00
504.3120, 15789.00
505.4940, 16047.00
506.6760, 15906.00
507.8580, 16203.00
509.0390, 16306.00
510.2210, 16582.00
511.4020, 16823.00
512.5830, 17042.00
513.7640, 17215.00
514.9450, 17393.15
516.1250, 17514.00
517.3060, 17633.00
518.4860, 17865.00
519.6660, 17869.00
520.8460, 17853.00
522.0260, 18071.00
523.2060, 17969.00
524.3850, 18075.00
525.5650, 18307.00
526.7440, 18227.00
527.9230, 18349.00
529.1020, 18453.00
530.2810, 18589.00
531.4590, 18723.00
532.6380, 18873.00
533.8160, 18899.00
534.9940, 18810.00
536.1720, 18752.00
537.3500, 18562.00
538.5270, 18476.00
539.7050, 18087.00
540.8820, 17688.00
542.0590, 17544.13
543.2360, 17330.73
544.4130, 17210.00
545.5900, 17157.00
546.7660, 17220.00
547.9430, 17198.00
549.1190, 17107.00
550.2950, 17164.00
551.4710, 17033.00
552.6470, 17136.00
553.8220, 17094.00
554.9980, 16996.00
556.1730, 17011.00
557.3480, 17028.00
558.5230, 16922.00
559.6980, 16774.00
560.8730, 16796.00
562.0470, 16887.00
563.2220, 17037.00
564.3960, 17270.00
565.5700, 17443.00
566.7440, 17829.00
567.9170, 18025.00
569.0910, 18363.00
570.2640, 18961.00
571.4380, 19280.00
572.6110, 19706.00
573.7840, 19764.00
574.9570, 19903.00
576.1290, 19844.00
577.3020, 19514.00
578.4740, 19268.00
579.6460, 18889.00
580.8180, 18546.00
581.9900, 18069.00
583.1620, 17692.00
584.3330, 17217.00
585.5040, 17110.00
586.6760, 17034.00
587.8470, 16736.00
589.0180, 16819.00
590.1880, 16617.00
591.3590, 16624.00
592.5290, 16499.00
593.7000, 16332.00
594.8700, 16407.00
596.0400, 16186.00
597.2090, 16190.00
598.3790, 16061.00
599.5490, 16060.00
600.7180, 15984.03
601.8870, 16028.00
603.0560, 15871.00
604.2250, 15899.00
605.3940, 15892.00
606.5620, 15917.00
607.7300, 16064.00
608.8990, 15999.00
610.0670, 16087.00
611.2350, 16075.00
612.4020, 16125.00
613.5700, 16290.00
614.7370, 16088.00
615.9050, 16195.00
617.0720, 16378.00
618.2390, 16223.00
619.4060, 16360.00
620.5720, 16478.00
621.7390, 16562.00
622.9050, 16782.00
624.0710, 16728.00
625.2370, 16725.00
626.4030, 16963.00
627.5690, 17220.00
628.7340, 17378.00
629.9000, 17846.00
631.0650, 17739.00
632.2300, 18294.00
633.3950, 18380.00
634.5600, 18725.00
635.7240, 18829.00
636.8890, 19278.00
638.0530, 19279.00
639.2170, 19496.00
640.3810, 19641.00
641.5450, 19899.00
642.7080, 20197.00
643.8720, 20564.00
645.0350, 20869.00
646.1980, 21502.00
647.3610, 22289.00
648.5240, 22870.00
649.6870, 23838.00
650.8490, 24954.00
652.0120, 25740.00
653.1740, 26927.00
654.3360, 28010.00
655.4980, 28986.00
656.6600, 29652.00
657.8210, 30361.00
658.9830, 30598.30
660.1440, 30704.82
661.3050, 30562.00
662.4660, 30189.00
663.6270, 29644.00
664.7870, 28803.00
665.9480, 28240.00
667.1080, 28053.00
668.2680, 27665.00
669.4280, 27862.00
670.5880, 28039.00
671.7480, 28872.00
672.9070, 29693.00
674.0670, 30903.00
675.2260, 32757.00
676.3850, 34788.00
677.5440, 37169.00
678.7030, 39858.00
679.8610, 42343.00
681.0200, 44665.00
682.1780, 46476.00
683.3360, 47817.00
684.4940, 48131.00
685.6520, 47515.00
686.8090, 46426.00
687.9670, 43929.00
689.1240, 41131.00
690.2810, 38101.00
691.4380, 35530.00
692.5950, 32635.00
693.7520, 30701.00
694.9080, 28451.00
696.0650, 26853.00
697.2210, 25205.00
698.3770, 24155.00
699.5330, 23289.00
700.6880, 22653.00
701.8440, 21878.00
702.9990, 21388.00
704.1550, 20902.00
705.3100, 20446.00
706.4650, 20184.00
707.6190, 20035.00
708.7740, 19349.00
709.9290, 19265.00
711.0830, 19243.00
712.2370, 19220.00
713.3910, 18763.00
714.5450, 18861.00
715.6980, 18591.00
716.8520, 18699.00
718.0050, 18285.00
719.1580, 18506.00
720.3110, 18243.00
721.4640, 18128.00
722.6170, 18364.00
723.7700, 18444.00
724.9220, 18093.00
726.0740, 18173.00
727.2260, 18117.00
728.3780, 18248.00
729.5300, 18014.00
730.6810, 18056.00
731.8330, 17975.00
732.9840, 17974.00
734.1350, 17838.00
735.2860, 17808.00
736.4370, 17984.00
737.5880, 17610.00
738.7380, 17616.00
739.8880, 17748.00
741.0390, 17669.00
742.1890, 17632.00
743.3380, 17619.00
744.4880, 17563.00
745.6380, 17563.00
746.7870, 17572.00
747.9360, 17543.13
749.0850, 17542.00
750.2340, 17507.00
751.3830, 17560.00
752.5310, 17515.00
753.6800, 17605.00
754.8280, 17542.43
755.9760, 17475.00
757.1240, 17449.00
758.2720, 17299.00
759.4190, 17247.00
760.5670, 17143.00
761.7140, 17345.00
762.8610, 17190.00
764.0080, 17358.00
765.1550, 17156.00
766.3020, 17426.00
767.4480, 17146.00
768.5950, 17091.00
769.7410, 17121.00
770.8870, 17122.00
772.0330, 17154.00
773.1780, 17082.00
774.3240, 17017.00
775.4690, 16983.00
776.6140, 17098.00
777.7590, 17069.00
778.9040, 17168.00
780.0490, 17139.00
781.1940, 17238.00
782.3380, 17274.00
783.4820, 17155.00
784.6260, 17046.00
785.7700, 17107.00
786.9140, 17143.00
788.0580, 17172.00
789.2010, 17246.00
790.3450, 17235.00
791.4880, 17342.00
792.6310, 17244.00
793.7730, 17251.00
794.9160, 17339.00
796.0590, 17379.00
797.2010, 17250.00
798.3430, 17188.00
799.4850, 17280.00
800.6270, 17346.00
801.7690, 17335.00
802.9100, 17295.00
804.0520, 17211.00
805.1930, 17236.00
806.3340, 17256.85
807.4750, 17380.00
808.6160, 17413.00
809.7560, 17421.00
810.8970, 17573.00
812.0370, 17511.00
813.1770, 17609.00
814.3170, 17494.00
815.4570, 17633.00
816.5960, 17727.00
817.7360, 17771.00
818.8750, 17704.00
820.0140, 17938.00
821.1530, 17870.00
822.2920, 17979.00
823.4310, 17800.00
824.5690, 18070.00
825.7070, 18039.00
826.8460, 18043.00
827.9840, 18188.00
829.1220, 18330.00
830.2590, 18363.00
831.3970, 18495.00
832.5340, 18536.00
833.6710, 18373.00
834.8080, 18614.00
835.9450, 18787.00
837.0820, 18938.00
838.2190, 19212.00
839.3550, 19172.00
840.4910, 19221.00
841.6270, 19364.00
842.7630, 19221.00
843.8990, 19311.00
845.0350, 19278.00
846.1700, 19142.00
847.3060, 19317.00
848.4410, 18967.00
849.5760, 19129.00
850.7100, 19074.00
851.8450, 18860.00
852.9800, 18815.00
854.1140, 18790.00
855.2480, 18661.00
856.3820, 18478.00
857.5160, 18714.00
858.6500, 18604.00
859.7830, 18561.00
860.9170, 18661.00
862.0500, 18646.00
863.1830, 18664.59
864.3160, 18505.00
865.4480, 18676.00
866.5810, 18633.00
867.7130, 18601.00
868.8460, 18664.00
869.9780, 18647.00
871.1100, 18611.00
872.2410, 18765.00
873.3730, 18779.00
874.5050, 18575.00
875.6360, 18963.00
876.7670, 18747.00
877.8980, 18895.00
879.0290, 18887.00
880.1590, 18900.00
881.2900, 19020.00
882.4200, 18850.00
883.5500, 19162.00
884.6800, 19145.00
885.8100, 19064.00
886.9400, 19108.00
888.0690, 19197.00
889.1990, 19286.00
890.3280, 19349.00
891.4570, 19440.05
892.5860, 19315.00
893.7140, 19617.00
894.8430, 19645.00
895.9710, 19758.00
897.1000, 19479.00
898.2280, 19635.00
899.3560, 19690.00
900.4830, 19699.00
901.6110, 19937.00
902.7380, 19981.00
903.8660, 19918.00
904.9930, 20035.00
906.1200, 20026.00
907.2460, 20211.00
908.3730, 20307.00
909.5000, 20272.00
910.6260, 20595.00
911.7520, 20623.00
912.8780, 20833.00
914.0040, 20859.00
915.1290, 21120.00
916.2550, 21252.00
917.3800, 21639.00
918.5050, 21561.00
919.6300, 21943.00
920.7550, 22102.00
921.8800, 22620.00
923.0040, 22883.00
924.1290, 23118.00
925.2530, 23780.00
926.3770, 24056.00
927.5010, 24625.00
928.6250, 25002.00
929.7480, 25269.00
930.8720, 25685.00
931.9950, 25573.00
933.1180, 26087.00
934.2410, 26008.00
935.3640, 25583.00
936.4860, 25723.00
937.6090, 25322.00
938.7310, 25106.00
939.8530, 24823.00
940.9750, 24731.00
942.0970, 24614.00
943.2180, 24655.00
944.3400, 24182.00
945.4610, 24274.00
946.5820, 24070.00
947.7030, 23815.00
948.8240, 23771.00
949.9450, 23742.00
951.0650, 23624.00
952.1860, 23496.00
953.3060, 23217.00
954.4260, 23008.00
955.5460, 22792.00
956.6650, 22644.00
957.7850, 22539.00
958.9040, 22131.00
960.0230, 21864.00
961.1420, 21672.00
962.2610, 21708.00
963.3800, 21396.00
964.4990, 21268.00
965.6170, 21130.00
966.7350, 21031.00
967.8530, 21098.00
968.9710, 21028.00
970.0890, 20989.00
971.2070, 21149.00
972.3240, 21127.00
973.4410, 21174.00
974.5580, 21313.76
975.6750, 21371.00
976.7920, 21590.00
977.9090, 21776.00
979.0250, 21975.00
980.1410, 22450.00
981.2580, 22754.00
982.3740, 22945.00
983.4890, 23767.00
984.6050, 23999.00
985.7200, 24848.00
986.8360, 25452.00
987.9510, 26508.00
989.0660, 27752.00
990.1810, 28621.00
991.2950, 30114.00
992.4100, 31494.00
993.5240, 33692.00
994.6390, 35437.00
995.7530, 37298.00
996.8660, 40177.00
997.9800, 42362.00
999.0940, 44951.00
1000.207, 47430.00
1001.320, 50126.00
1002.433, 52609.00
1003.546, 55180.00
1004.659, 57753.00
1005.772, 59457.00
1006.884, 60678.00
1007.996, 61457.00
1009.108, 61639.00
1010.220, 61466.00
1011.332, 60427.00
1012.444, 58969.00
1013.555, 57248.00
1014.666, 55218.00
1015.777, 53427.00
1016.888, 51693.00
1017.999, 50499.00
1019.110, 48839.00
1020.220, 48060.00
1021.331, 47327.00
1022.441, 46401.00
1023.551, 45861.00
1024.661, 45441.00
1025.770, 45132.00
1026.880, 45284.00
1027.989, 45192.00
1029.098, 44962.00
1030.207, 44760.00
1031.316, 44958.00
1032.425, 44351.00
1033.533, 43935.00
1034.642, 42846.00
1035.750, 41579.00
1036.858, 40422.00
1037.966, 39239.00
1039.073, 37947.00
1040.181, 36514.00
1041.288, 35395.00
1042.396, 34340.00
1043.503, 33272.00
1044.610, 32326.00
1045.716, 30943.00
1046.823, 30167.00
1047.929, 29397.00
1049.036, 28975.00
1050.142, 28065.00
1051.248, 27514.00
1052.353, 26999.00
1053.459, 26364.00
1054.564, 25933.00
1055.670, 25462.00
1056.775, 24924.00
1057.880, 24652.00
1058.985, 24385.00
1060.089, 24075.00
1061.194, 23772.72
1062.298, 23486.00
1063.402, 23136.00
1064.506, 22947.00
1065.610, 22651.00
1066.713, 22466.00
1067.817, 22233.00
1068.920, 22250.00
1070.023, 22049.00
1071.126, 21856.00
1072.229, 21706.00
1073.332, 21566.00
1074.435, 21499.00
1075.537, 21398.00
1076.639, 21187.00
1077.741, 21209.00
1078.843, 21086.00
1079.945, 21169.00
1081.046, 21150.00
1082.148, 21070.00
1083.249, 20942.00
1084.350, 21016.00
1085.451, 20928.00
1086.551, 20794.00
1087.652, 20898.00
1088.752, 20780.00
1089.853, 20742.00
1090.953, 20835.00
1092.053, 20814.00
1093.152, 20787.00
1094.252, 20869.00
1095.351, 20941.00
1096.451, 20720.00
1097.550, 20858.00
1098.649, 20817.00
1099.748, 20861.00
1100.846, 20745.00
1101.945, 20883.00
1103.043, 20705.00
1104.141, 20938.00
1105.239, 20794.00
1106.337, 20845.00
1107.434, 20951.00
1108.532, 20991.00
1109.629, 20918.00
1110.726, 20900.00
1111.823, 20908.00
1112.920, 20884.00
1114.017, 20888.70
1115.113, 20761.00
1116.210, 20928.00
1117.306, 20846.00
1118.402, 20938.00
1119.498, 21264.00
1120.593, 21026.00
1121.689, 21090.00
1122.784, 21145.00
1123.879, 21033.00
1124.974, 21163.00
1126.069, 20944.00
1127.164, 21038.00
1128.259, 20810.00
1129.353, 20962.00
1130.447, 20969.00
1131.541, 20887.00
1132.635, 20820.00
1133.729, 20885.00
1134.822, 21013.00
1135.916, 20906.00
1137.009, 20941.00
1138.102, 20821.00
1139.195, 20928.00
1140.288, 20865.00
1141.380, 20798.00
1142.473, 20824.00
1143.565, 20865.00
1144.657, 20784.00
1145.749, 20838.00
1146.841, 20860.00
1147.932, 20809.00
1149.024, 20850.00
1150.115, 20899.00
1151.206, 20880.80
1152.297, 20920.64
1153.388, 20907.00
1154.479, 20901.00
1155.569, 20935.00
1156.659, 20814.00
1157.750, 20897.00
1158.839, 20855.00
1159.929, 20856.00
1161.019, 21016.00
1162.108, 20913.00
1163.198, 20905.00
1164.287, 20741.00
1165.376, 20929.00
1166.465, 21003.00
1167.553, 20935.00
1168.642, 21000.00
1169.730, 21030.00
1170.818, 21060.00
1171.906, 21013.00
1172.994, 21046.00
1174.082, 21116.00
1175.170, 20961.00
1176.257, 20992.00
1177.344, 21108.00
1178.431, 21214.00
1179.518, 21118.00
1180.605, 20931.00
1181.691, 21074.00
1182.778, 21003.00
1183.864, 21086.00
1184.950, 21059.00
1186.036, 21048.00
1187.122, 21237.00
1188.207, 21232.00
1189.292, 21128.00
1190.378, 21208.00
1191.463, 21084.00
1192.548, 21159.00
1193.632, 21258.00
1194.717, 21367.00
1195.801, 21239.00
1196.886, 21305.00
1197.970, 21353.00
1199.054, 21111.00
1200.137, 21350.00
1201.221, 21236.00
1202.305, 21305.00
1203.388, 21328.00
1204.471, 21257.00
1205.554, 21215.00
1206.637, 21334.00
1207.719, 21229.00
1208.802, 21307.00
1209.884, 21335.00
1210.966, 21215.00
1212.048, 21300.00
1213.130, 21467.00
1214.212, 21503.00
1215.293, 21502.00
1216.374, 21437.00
1217.456, 21366.00
1218.536, 21484.00
1219.617, 21416.00
1220.698, 21351.00
1221.778, 21478.00
1222.859, 21580.00
1223.939, 21380.00
1225.019, 21530.00
1226.099, 21503.00
1227.178, 21349.00
1228.258, 21604.00
1229.337, 21677.00
1230.417, 21807.00
1231.496, 21518.00
1232.574, 21699.00
1233.653, 21762.00
1234.732, 21640.00
1235.810, 21726.00
1236.888, 21745.00
1237.966, 21515.00
1239.044, 21722.00
1240.122, 21777.00
1241.199, 21681.00
1242.277, 21720.00
1243.354, 21797.00
1244.431, 21772.12
1245.508, 21826.00
1246.585, 21828.00
1247.661, 21916.00
1248.738, 21957.00
1249.814, 21911.00
1250.890, 22054.00
1251.966, 21872.00
1253.042, 21694.00
1254.117, 22005.00
1255.193, 22035.00
1256.268, 21858.00
1257.343, 21977.00
1258.418, 22087.00
1259.493, 22061.00
1260.567, 22147.00
1261.642, 22146.00
1262.716, 21975.00
1263.790, 22162.00
1264.864, 22209.00
1265.938, 22329.00
1267.011, 22152.00
1268.085, 22138.00
1269.158, 22069.00
1270.231, 22051.54
1271.304, 22205.00
1272.377, 22144.00
1273.450, 22251.00
1274.522, 22434.00
1275.594, 22352.00
1276.666, 22281.00
1277.738, 22301.00
1278.810, 22281.00
1279.882, 22320.00
1280.953, 22360.00
1282.025, 22489.00
1283.096, 22305.00
1284.167, 22534.00
1285.238, 22484.00
1286.308, 22222.00
1287.379, 22559.00
1288.449, 22546.00
1289.519, 22445.00
1290.589, 22366.00
1291.659, 22488.00
1292.729, 22482.00
1293.798, 22493.00
1294.868, 22663.00
1295.937, 22511.00
1297.006, 22693.00
