##NAMES=Enstatite
##RRUFFID=R040093
##IDEAL CHEMISTRY=MgSiO_3_
##LOCALITY=Castle Rock, Pennsylvania, USA
##OWNER=RRUFF
##SOURCE=University of Arizona Mineral Museum
##DESCRIPTION=Dark green massive
##STATUS=The identification of this mineral has been confirmed by X-ray diffraction and chemical analysis
##URL=rruff.info/R040093
##MEASURED CHEMISTRY=(Mg_0.84_Fe_0.15_Al_0.01_)Si_1.00_O_3_
##PIN_ID=L00094
##ORIENTATION=Laser parallel to -b* (0 -1 0). Fiducial mark perpendicular to laser is parallel to c [0 0 1]
103.0850, 14605.00
104.3220, 15472.00
105.5590, 15920.00
106.7950, 16144.00
108.0320, 15874.00
109.2680, 15262.00
110.5040, 15073.00
111.7400, 14947.00
112.9760, 14958.00
114.2120, 15356.00
115.4470, 15853.00
116.6820, 15643.00
117.9170, 15640.00
119.1520, 15912.00
120.3870, 15752.00
121.6220, 15181.00
122.8560, 14702.00
124.0900, 14935.00
125.3240, 14665.00
126.5580, 14579.00
127.7920, 14541.00
129.0260, 14807.00
130.2590, 15078.00
131.4920, 14912.00
132.7250, 15079.00
133.9580, 15086.00
135.1910, 14789.00
136.4230, 15000.00
137.6560, 15008.00
138.8880, 15142.00
140.1200, 15460.00
141.3520, 15551.00
142.5830, 15583.00
143.8150, 15707.00
145.0460, 15815.00
146.2770, 15870.00
147.5080, 15887.98
148.7390, 15917.00
149.9700, 15850.00
151.2000, 15781.00
152.4310, 15755.00
153.6610, 15868.00
154.8910, 15932.00
156.1210, 16037.00
157.3500, 16241.00
158.5800, 16407.00
159.8090, 16575.00
161.0380, 16675.00
162.2670, 16712.00
163.4960, 16684.74
164.7240, 16640.00
165.9530, 16482.00
167.1810, 16237.00
168.4090, 16071.00
169.6370, 15974.15
170.8650, 15892.38
172.0920, 15902.00
173.3200, 15944.00
174.5470, 16097.00
175.7740, 16330.00
177.0010, 16629.00
178.2280, 16829.00
179.4540, 17037.00
180.6810, 17215.00
181.9070, 17343.00
183.1330, 17633.00
184.3590, 18089.00
185.5850, 18266.00
186.8100, 18663.00
188.0350, 19205.00
189.2610, 19528.00
190.4860, 19945.00
191.7110, 20297.00
192.9350, 20491.00
194.1600, 20272.00
195.3840, 19958.00
196.6080, 19504.00
197.8320, 18916.00
199.0560, 18508.00
200.2800, 17990.00
201.5030, 17748.20
202.7270, 17512.00
203.9500, 17467.00
205.1730, 17312.00
206.3950, 17436.00
207.6180, 17581.00
208.8410, 17705.00
210.0630, 17527.00
211.2850, 17617.00
212.5070, 17912.00
213.7290, 18140.00
214.9500, 18405.00
216.1720, 18831.00
217.3930, 19348.00
218.6140, 19614.00
219.8350, 20198.00
221.0560, 20728.00
222.2770, 21251.00
223.4970, 22237.00
224.7170, 22641.23
225.9370, 23473.07
227.1570, 23917.00
228.3770, 25043.00
229.5970, 26070.00
230.8160, 27022.00
232.0350, 28275.00
233.2540, 29714.00
234.4730, 30482.00
235.6920, 31195.00
236.9110, 31008.00
238.1290, 29882.00
239.3470, 27889.00
240.5650, 25694.00
241.7830, 23257.00
243.0010, 21131.00
244.2180, 19731.00
245.4360, 18841.00
246.6530, 18031.00
247.8700, 17539.00
249.0870, 17522.00
250.3040, 17516.00
251.5200, 17474.00
252.7370, 17588.00
253.9530, 17722.00
255.1690, 17855.00
256.3850, 17814.90
257.6000, 17620.99
258.8160, 17684.00
260.0310, 17162.00
261.2460, 17016.00
262.4610, 17100.00
263.6760, 17166.00
264.8910, 17350.00
266.1050, 17572.00
267.3200, 17683.00
268.5340, 18175.00
269.7480, 18197.00
270.9620, 18507.00
272.1750, 18561.00
273.3890, 18860.00
274.6020, 18809.00
275.8150, 18576.00
277.0280, 18149.00
278.2410, 17713.00
279.4540, 17292.00
280.6660, 16783.00
281.8790, 16599.00
283.0910, 16418.00
284.3030, 16422.00
285.5140, 16550.00
286.7260, 16750.00
287.9380, 16878.00
289.1490, 17178.00
290.3600, 17479.00
291.5710, 17969.00
292.7820, 18136.00
293.9920, 18736.00
295.2030, 19012.00
296.4130, 19265.00
297.6230, 19378.00
298.8330, 19414.00
300.0430, 19402.00
301.2520, 19203.00
302.4620, 18755.00
303.6710, 18708.00
304.8800, 18659.00
306.0890, 18613.00
307.2980, 18601.00
308.5070, 18928.00
309.7150, 19040.00
310.9230, 19644.00
312.1310, 20315.00
313.3390, 21040.00
314.5470, 21777.00
315.7550, 22718.00
316.9620, 23459.00
318.1690, 24405.00
319.3760, 25072.00
320.5830, 25725.00
321.7900, 26276.00
322.9960, 26847.00
324.2030, 27130.00
325.4090, 27758.00
326.6150, 28650.00
327.8210, 29668.00
329.0270, 31095.00
330.2320, 32689.00
331.4380, 34549.00
332.6430, 36779.00
333.8480, 39522.00
335.0530, 42470.00
336.2580, 45501.00
337.4620, 48400.00
338.6670, 50395.00
339.8710, 52242.00
341.0750, 53013.00
342.2790, 51471.00
343.4820, 49114.00
344.6860, 45786.00
345.8890, 41928.00
347.0920, 37828.00
348.2960, 34061.00
349.4980, 31268.00
350.7010, 28874.00
351.9040, 26904.00
353.1060, 25296.00
354.3080, 24094.00
355.5100, 23366.00
356.7120, 22405.00
357.9140, 21992.00
359.1150, 21662.00
360.3170, 21176.00
361.5180, 20718.00
362.7190, 20430.00
363.9200, 20270.00
365.1200, 19973.00
366.3210, 19902.00
367.5210, 19882.00
368.7210, 19594.00
369.9210, 19841.00
371.1210, 20073.00
372.3210, 20192.00
373.5200, 20607.00
374.7200, 20509.00
375.9190, 21009.00
377.1180, 21439.00
378.3170, 21767.00
379.5150, 21654.00
380.7140, 21793.00
381.9120, 21583.00
383.1110, 21632.00
384.3090, 21419.00
385.5060, 21238.00
386.7040, 20765.00
387.9020, 20521.00
389.0990, 20461.00
390.2960, 20290.00
391.4930, 20158.00
392.6900, 20202.00
393.8860, 19930.00
395.0830, 20073.00
396.2790, 19926.00
397.4750, 19769.00
398.6710, 19633.00
399.8670, 19294.00
401.0630, 19100.00
402.2580, 19074.00
403.4540, 18796.00
404.6490, 18856.00
405.8440, 18614.00
407.0390, 18600.00
408.2330, 18709.00
409.4280, 18560.00
410.6220, 18721.00
411.8160, 18768.00
413.0100, 18518.00
414.2040, 18574.00
415.3980, 18518.00
416.5910, 18210.00
417.7850, 18017.00
418.9780, 17813.00
420.1710, 17428.00
421.3640, 17195.00
422.5560, 17204.00
423.7490, 16872.00
424.9410, 16953.00
426.1330, 16607.00
427.3250, 16651.00
428.5170, 16654.00
429.7090, 16653.00
430.9000, 16649.26
432.0910, 16566.00
433.2820, 16621.00
434.4730, 16508.00
435.6640, 16510.00
436.8550, 16457.00
438.0450, 16550.00
439.2360, 16520.00
440.4260, 16429.00
441.6160, 16533.00
442.8060, 16477.37
443.9950, 16498.00
445.1850, 16537.00
446.3740, 16649.00
447.5630, 16813.00
448.7520, 16886.86
449.9410, 17011.19
451.1300, 17099.00
452.3180, 17152.00
453.5060, 17225.00
454.6950, 17152.00
455.8830, 16941.00
457.0700, 17059.00
458.2580, 17050.00
459.4450, 17091.00
460.6330, 17176.00
461.8200, 17088.00
463.0070, 17252.00
464.1940, 17187.00
465.3800, 17291.00
466.5670, 17134.00
467.7530, 17387.00
468.9390, 17435.00
470.1250, 17438.00
471.3110, 17373.00
472.4970, 17389.00
473.6820, 17068.00
474.8680, 17161.00
476.0530, 16887.00
477.2380, 16875.00
478.4230, 16892.00
479.6070, 16828.00
480.7920, 16830.00
481.9760, 16703.00
483.1600, 16798.00
484.3440, 16671.00
485.5280, 16667.00
486.7120, 16683.00
487.8950, 16687.00
489.0780, 16579.00
490.2620, 16580.00
491.4450, 16574.00
492.6270, 16591.00
493.8100, 16452.00
494.9920, 16579.00
496.1750, 16296.00
497.3570, 16510.00
498.5390, 16448.00
499.7210, 16424.55
500.9020, 16616.00
502.0840, 16515.00
503.2650, 16585.00
504.4460, 16786.00
505.6270, 16858.00
506.8080, 16705.00
507.9890, 16883.00
509.1690, 17071.00
510.3500, 17239.00
511.5300, 17427.00
512.7100, 17591.65
513.8900, 17758.99
515.0690, 17924.00
516.2490, 18073.00
517.4280, 18243.00
518.6070, 18376.00
519.7860, 18357.00
520.9650, 18672.00
522.1440, 18732.00
523.3220, 18606.00
524.5010, 18825.00
525.6790, 18881.00
526.8570, 18752.00
528.0350, 19331.00
529.2130, 19351.00
530.3900, 19805.00
531.5670, 20122.00
532.7450, 20261.00
533.9220, 20740.00
535.0980, 21242.00
536.2750, 21891.00
537.4520, 22105.00
538.6280, 22204.00
539.8040, 22049.00
540.9800, 21770.00
542.1560, 21093.00
543.3320, 20516.00
544.5070, 20070.00
545.6830, 19763.00
546.8580, 19594.00
548.0330, 19571.00
549.2080, 19435.00
550.3830, 19303.00
551.5570, 19340.00
552.7310, 19064.00
553.9060, 19056.00
555.0800, 18749.00
556.2540, 18661.00
557.4270, 18538.00
558.6010, 18562.00
559.7740, 18469.12
560.9470, 18521.00
562.1210, 18420.19
563.2930, 18443.00
564.4660, 18518.00
565.6390, 18544.19
566.8110, 18675.16
567.9830, 18754.00
569.1550, 18943.00
570.3270, 19132.55
571.4990, 19256.00
572.6710, 19587.00
573.8420, 19806.00
575.0130, 19999.00
576.1840, 19955.00
577.3550, 19850.57
578.5260, 19474.00
579.6970, 19300.00
580.8670, 19098.00
582.0370, 18668.00
583.2070, 18649.00
584.3770, 18373.00
585.5470, 18233.00
586.7170, 18308.00
587.8860, 18199.00
589.0550, 18208.00
590.2240, 18125.00
591.3930, 18151.00
592.5620, 18103.60
593.7310, 18048.00
594.8990, 18058.00
596.0670, 18051.00
597.2350, 18075.00
598.4030, 18069.00
599.5710, 18089.00
600.7390, 18100.91
601.9060, 17899.00
603.0740, 18097.00
604.2410, 17962.00
605.4080, 17880.00
606.5740, 18033.00
607.7410, 18157.00
608.9080, 18055.00
610.0740, 18096.00
611.2400, 18159.00
612.4060, 18249.00
613.5720, 18412.00
614.7370, 18326.00
615.9030, 18460.00
617.0680, 18460.00
618.2330, 18616.00
619.3980, 18689.00
620.5630, 18900.00
621.7280, 18815.00
622.8920, 19073.00
624.0570, 19229.00
625.2210, 19215.00
626.3850, 19441.00
627.5490, 19533.00
628.7120, 19805.00
629.8760, 19981.34
631.0390, 20247.00
632.2020, 20369.00
633.3650, 20708.00
634.5280, 20848.00
635.6910, 20976.00
636.8530, 21505.00
638.0160, 21756.00
639.1780, 22389.00
640.3400, 22744.00
641.5020, 23409.00
642.6640, 24267.00
643.8250, 25020.00
644.9870, 25934.00
646.1480, 27094.00
647.3090, 28400.00
648.4700, 30229.00
649.6300, 32233.00
650.7910, 34802.00
651.9510, 37523.00
653.1120, 41208.00
654.2720, 45137.00
655.4320, 50022.00
656.5910, 55149.00
657.7510, 60199.00
658.9100, 65382.00
660.0690, 70235.00
661.2290, 73023.00
662.3880, 74145.00
663.5460, 74131.00
664.7050, 72094.00
665.8630, 68805.00
667.0220, 66475.00
668.1800, 64671.00
669.3380, 63741.00
670.4950, 63566.00
671.6530, 64861.00
672.8100, 67060.00
673.9680, 70604.00
675.1250, 73962.00
676.2820, 79337.00
677.4390, 84457.00
678.5950, 90447.00
679.7520, 95247.00
680.9080, 100499.0
682.0640, 103002.0
683.2200, 103343.0
684.3760, 100867.0
685.5320, 95769.00
686.6870, 87683.00
687.8420, 78429.00
688.9980, 69140.00
690.1530, 60122.00
691.3070, 53039.00
692.4620, 46361.00
693.6170, 41355.00
694.7710, 37244.00
695.9250, 34204.00
697.0790, 31768.00
698.2330, 29658.00
699.3870, 27937.00
700.5400, 26658.00
701.6940, 25490.00
702.8470, 24667.00
704.0000, 23959.00
705.1530, 23339.00
706.3050, 22922.00
707.4580, 22485.00
708.6100, 21962.00
709.7630, 21837.00
710.9150, 21377.00
712.0660, 20879.00
713.2180, 20780.00
714.3700, 20571.00
715.5210, 20231.00
716.6720, 20161.00
717.8240, 19965.00
718.9740, 19903.00
720.1250, 19651.00
721.2760, 19516.00
722.4260, 19421.95
723.5770, 19310.00
724.7270, 19263.00
725.8770, 19262.00
727.0260, 19253.00
728.1760, 19196.25
729.3250, 19162.00
730.4750, 19088.00
731.6240, 19028.00
732.7730, 18961.57
733.9220, 18929.72
735.0700, 18902.00
736.2190, 18882.00
737.3670, 18912.00
738.5150, 18902.00
739.6630, 18890.05
740.8110, 18728.00
741.9590, 18790.00
743.1060, 18779.00
744.2540, 18581.00
745.4010, 18776.00
746.5480, 18703.00
747.6950, 18697.00
748.8410, 18753.00
749.9880, 18680.00
751.1340, 18705.00
752.2800, 18628.00
753.4260, 18643.00
754.5720, 18590.00
755.7180, 18597.00
756.8640, 18650.00
758.0090, 18580.00
759.1540, 18366.00
760.2990, 18307.00
761.4440, 18300.00
762.5890, 18554.00
763.7340, 18368.00
764.8780, 18375.00
766.0220, 18388.00
767.1660, 18127.00
768.3100, 18148.00
769.4540, 18279.00
770.5980, 18200.00
771.7410, 18286.00
772.8840, 18168.00
774.0280, 18193.00
775.1700, 18330.00
776.3130, 18336.00
777.4560, 18075.00
778.5980, 18147.00
779.7410, 18166.00
780.8830, 18367.00
782.0250, 18146.00
783.1670, 18226.00
784.3080, 18320.00
785.4500, 18339.00
786.5910, 18359.00
787.7320, 18286.00
788.8730, 18155.00
790.0140, 18258.00
791.1550, 18306.00
792.2950, 18130.00
793.4360, 18210.00
794.5760, 18232.00
795.7160, 18289.00
796.8560, 18303.00
797.9960, 18304.72
799.1350, 18325.00
800.2750, 18264.00
801.4140, 18326.00
802.5530, 18265.19
803.6920, 18447.00
804.8310, 18331.00
805.9690, 18436.00
807.1080, 18531.00
808.2460, 18393.00
809.3840, 18489.00
810.5220, 18485.00
811.6600, 18355.00
812.7970, 18512.00
813.9350, 18358.00
815.0720, 18430.00
816.2090, 18501.00
817.3460, 18812.00
818.4830, 18729.00
819.6200, 18662.00
820.7560, 18482.00
821.8930, 18605.00
823.0290, 18611.00
824.1650, 18624.00
825.3010, 18727.00
826.4360, 18702.49
827.5720, 18778.00
828.7070, 18702.00
829.8420, 18787.00
830.9770, 18765.00
832.1120, 18706.00
833.2470, 18844.00
834.3820, 18799.00
835.5160, 18844.00
836.6500, 18700.00
837.7840, 18819.88
838.9180, 18816.51
840.0520, 18974.00
841.1860, 18920.00
842.3190, 18932.00
843.4520, 18992.00
844.5850, 18903.00
845.7180, 19080.00
846.8510, 19162.00
847.9840, 19328.00
849.1160, 19384.00
850.2490, 19332.00
851.3810, 19563.00
852.5130, 19588.00
853.6450, 19763.00
854.7760, 19839.00
855.9080, 19784.00
857.0390, 19872.00
858.1700, 19940.00
859.3010, 19985.00
860.4320, 19857.00
861.5630, 19972.00
862.6930, 20027.00
863.8240, 19691.00
864.9540, 19749.00
866.0840, 19717.00
867.2140, 19697.00
868.3440, 19562.00
869.4730, 19558.00
870.6030, 19752.00
871.7320, 19524.00
872.8610, 19611.00
873.9900, 19699.00
875.1190, 19496.00
876.2470, 19769.00
877.3760, 19646.00
878.5040, 19541.00
879.6320, 19487.00
880.7600, 19679.00
881.8880, 19619.00
883.0150, 19728.00
884.1430, 19725.00
885.2700, 19952.00
886.3970, 19723.00
887.5240, 19786.00
888.6510, 19896.00
889.7780, 19803.00
890.9040, 19979.00
892.0310, 20206.00
893.1570, 20055.00
894.2830, 20141.00
895.4090, 19900.00
896.5350, 20257.00
897.6600, 20106.00
898.7860, 20269.00
899.9110, 20457.00
901.0360, 20283.00
902.1610, 20272.00
903.2860, 20385.00
904.4100, 20470.00
905.5350, 20364.00
906.6590, 20563.00
907.7830, 20727.00
908.9070, 20959.00
910.0310, 20915.90
911.1540, 20880.00
912.2780, 20784.00
913.4010, 21242.00
914.5240, 21176.00
915.6470, 21696.00
916.7700, 21546.00
917.8930, 21656.00
919.0150, 22254.00
920.1380, 22293.64
921.2600, 23031.00
922.3820, 22879.00
923.5040, 23332.00
924.6260, 23615.00
925.7470, 24107.00
926.8690, 24662.00
927.9900, 25106.00
929.1110, 25760.00
930.2320, 26353.00
931.3530, 27008.00
932.4730, 27527.00
933.5940, 28310.00
934.7140, 28778.00
935.8340, 29060.00
936.9540, 29392.00
938.0740, 29533.00
939.1930, 29555.00
940.3130, 29213.00
941.4320, 28815.00
942.5510, 28134.00
943.6700, 27744.00
944.7890, 27336.00
945.9080, 26612.00
947.0260, 26008.00
948.1450, 25651.00
949.2630, 25150.00
950.3810, 24880.00
951.4990, 24348.00
952.6170, 24230.00
953.7340, 23980.00
954.8520, 23856.00
955.9690, 23564.00
957.0860, 23616.00
958.2030, 23311.00
959.3200, 23323.00
960.4360, 23226.00
961.5530, 23069.00
962.6690, 23179.00
963.7850, 23107.00
964.9010, 23275.00
966.0170, 23159.00
967.1330, 23176.00
968.2480, 23166.00
969.3630, 23190.00
970.4790, 23207.00
971.5940, 23443.00
972.7080, 23476.00
973.8230, 23691.00
974.9380, 23995.00
976.0520, 24084.00
977.1660, 24388.00
978.2800, 24564.00
979.3940, 24915.93
980.5080, 25287.00
981.6220, 25761.00
982.7350, 26217.00
983.8480, 26818.00
984.9610, 27575.00
986.0740, 28259.00
987.1870, 29364.00
988.3000, 30576.00
989.4120, 31847.00
990.5250, 33628.00
991.6370, 35729.00
992.7490, 37940.00
993.8610, 40936.00
994.9720, 44908.00
996.0840, 49498.00
997.1950, 55032.00
998.3060, 61704.00
999.4170, 69571.00
1000.528, 79829.00
1001.639, 91189.00
1002.750, 105258.0
1003.860, 120128.0
1004.970, 137455.0
1006.080, 154442.0
1007.190, 169330.0
1008.300, 179685.0
1009.410, 182558.0
1010.519, 178555.0
1011.628, 166724.0
1012.738, 149475.0
1013.846, 130551.0
1014.955, 112604.0
1016.064, 98212.00
1017.172, 86643.00
1018.281, 78194.00
1019.389, 72996.00
1020.497, 68028.00
1021.605, 62484.00
1022.713, 59743.00
1023.820, 56115.00
1024.928, 54304.00
1026.035, 52551.00
1027.142, 50755.00
1028.249, 49254.00
1029.356, 48007.00
1030.462, 46649.00
1031.569, 45146.00
1032.675, 43736.00
1033.781, 42155.00
1034.887, 40639.00
1035.993, 39180.00
1037.098, 37841.32
1038.204, 36617.00
1039.309, 35319.00
1040.415, 34300.00
1041.520, 33113.00
1042.624, 32307.00
1043.729, 31535.00
1044.834, 30714.00
1045.938, 30323.00
1047.042, 29573.00
1048.146, 29207.00
1049.250, 28760.00
1050.354, 28469.00
1051.458, 28274.00
1052.561, 27748.00
1053.664, 27950.00
1054.767, 27317.00
1055.870, 27253.00
1056.973, 26987.00
1058.076, 26681.00
1059.178, 26252.00
1060.281, 25859.00
1061.383, 25419.00
1062.485, 25082.00
1063.587, 24943.00
1064.688, 24561.00
1065.790, 24224.00
1066.891, 23784.00
1067.993, 23551.00
1069.094, 23282.17
1070.195, 23170.00
1071.295, 22885.00
1072.396, 22794.00
1073.496, 22632.00
1074.597, 22532.00
1075.697, 22356.00
1076.797, 22105.00
1077.897, 22021.00
1078.996, 22237.00
1080.096, 21987.00
1081.195, 22004.00
1082.294, 21804.00
1083.393, 21958.00
1084.492, 22003.00
1085.591, 22118.00
1086.689, 21985.00
1087.788, 21957.00
1088.886, 21868.00
1089.984, 22013.00
1091.082, 21976.00
1092.180, 21973.00
1093.277, 22034.00
1094.375, 21823.00
1095.472, 21975.00
1096.569, 21885.00
1097.666, 21646.00
1098.763, 21858.00
1099.860, 21834.00
1100.956, 21646.00
1102.053, 21715.00
1103.149, 21648.00
1104.245, 21479.00
1105.341, 21475.00
1106.436, 21418.00
1107.532, 21492.00
1108.627, 21566.00
1109.723, 21397.00
1110.818, 21574.00
1111.913, 21375.00
1113.007, 21213.00
1114.102, 21290.00
1115.197, 21201.00
1116.291, 21311.00
1117.385, 21456.00
1118.479, 21163.00
1119.573, 21119.00
1120.666, 21278.00
1121.760, 21166.00
1122.853, 21185.00
1123.947, 21212.00
1125.040, 21187.00
1126.132, 21148.00
1127.225, 21048.00
1128.318, 20987.00
1129.410, 21005.92
1130.502, 20993.84
1131.595, 21048.00
1132.687, 21113.00
1133.778, 21107.00
1134.870, 21261.00
1135.961, 20998.00
1137.053, 21055.00
1138.144, 21222.00
1139.235, 21084.00
1140.326, 21181.00
1141.416, 20977.00
1142.507, 20788.00
1143.597, 20858.00
1144.688, 20878.00
1145.778, 20955.00
1146.868, 21005.00
1147.957, 20972.00
1149.047, 21076.00
1150.136, 20919.00
1151.226, 20987.00
1152.315, 20975.00
1153.404, 21013.00
1154.493, 20969.00
1155.581, 20911.00
1156.670, 20947.95
1157.758, 20908.00
1158.846, 20986.00
1159.934, 20899.00
1161.022, 20928.00
1162.110, 20833.00
1163.198, 20760.00
1164.285, 20999.00
1165.372, 21034.00
1166.459, 20885.00
1167.546, 20835.00
1168.633, 20898.00
1169.720, 20767.00
1170.806, 20935.00
1171.892, 21047.00
1172.979, 20857.00
1174.065, 20968.00
1175.150, 21038.00
1176.236, 21070.00
1177.322, 21118.35
1178.407, 20866.00
1179.492, 21033.00
1180.577, 21040.00
1181.662, 20737.00
1182.747, 20901.00
1183.832, 21079.00
1184.916, 20807.00
1186.000, 20837.00
1187.084, 20866.00
1188.168, 20870.00
1189.252, 20886.00
1190.336, 20914.00
1191.419, 20712.00
1192.503, 20916.00
1193.586, 20838.00
1194.669, 21066.00
1195.752, 20867.00
1196.835, 20820.00
1197.917, 20665.00
1199.000, 20681.86
1200.082, 20800.00
1201.164, 20821.00
1202.246, 20788.00
1203.328, 20997.00
1204.409, 21041.00
1205.491, 21005.00
1206.572, 20839.00
1207.653, 20917.00
1208.734, 20914.00
1209.815, 21038.00
1210.896, 21011.00
1211.976, 21028.00
1213.057, 20898.00
1214.137, 20939.00
1215.217, 21022.00
1216.297, 20955.00
1217.377, 21085.00
1218.456, 21149.00
1219.536, 21006.00
1220.615, 21097.00
1221.694, 21032.00
1222.773, 21147.00
1223.852, 21149.00
1224.931, 21125.00
1226.009, 21174.00
1227.088, 21016.00
1228.166, 21039.00
1229.244, 21006.00
1230.322, 20992.99
1231.400, 21077.00
1232.477, 21055.00
1233.555, 21251.00
1234.632, 21335.00
1235.709, 21253.00
1236.786, 21202.00
1237.863, 21437.00
1238.939, 21281.00
1240.016, 21234.00
1241.092, 21255.00
1242.168, 21123.00
1243.245, 21359.00
1244.320, 21479.00
1245.396, 21385.00
1246.472, 21170.00
1247.547, 21299.00
1248.622, 21335.00
1249.697, 21406.00
1250.772, 21452.00
1251.847, 21347.00
1252.922, 21401.00
1253.996, 21429.00
1255.071, 21262.00
1256.145, 21724.00
1257.219, 21340.00
1258.293, 21529.00
1259.366, 21456.00
1260.440, 21668.00
1261.513, 21672.00
1262.587, 21735.00
1263.660, 21607.00
1264.733, 21688.00
1265.805, 21581.00
1266.878, 21754.00
1267.951, 21564.00
1269.023, 21621.00
1270.095, 21738.00
1271.167, 21813.00
1272.239, 21655.00
1273.311, 21737.00
1274.382, 21822.00
1275.454, 21893.00
1276.525, 22009.00
1277.596, 21766.00
1278.667, 21807.00
1279.738, 21858.00
1280.808, 21888.00
1281.879, 21919.00
1282.949, 21833.00
