##NAMES=Enstatite
##RRUFFID=R040093
##IDEAL CHEMISTRY=MgSiO_3_
##LOCALITY=Castle Rock, Pennsylvania, USA
##OWNER=RRUFF
##SOURCE=University of Arizona Mineral Museum
##DESCRIPTION=Dark green massive
##STATUS=The identification of this mineral has been confirmed by X-ray diffraction and chemical analysis
##URL=rruff.info/R040093
##MEASURED CHEMISTRY=(Mg_0.84_Fe_0.15_Al_0.01_)Si_1.00_O_3_
##PIN_ID=L00247
##ORIENTATION=Laser parallel to a* (1 0 0). Fiducial mark perpendicular to laser is parallel to -b [0 -1 0]
137.6560, 13706.00
138.8880, 13766.00
140.1200, 13727.00
141.3520, 13546.00
142.5830, 13498.00
143.8150, 13593.00
145.0460, 13683.00
146.2770, 13725.00
147.5080, 13881.00
148.7390, 13916.12
149.9700, 14074.00
151.2000, 14039.00
152.4310, 14035.00
153.6610, 14095.31
154.8910, 14089.13
156.1210, 14269.00
157.3500, 14231.00
158.5800, 14399.00
159.8090, 14667.00
161.0380, 14716.00
162.2670, 14971.00
163.4960, 15166.00
164.7240, 15501.00
165.9530, 15917.00
167.1810, 16433.00
168.4090, 16850.00
169.6370, 17605.00
170.8650, 18461.00
172.0920, 19481.00
173.3200, 20530.00
174.5470, 21954.00
175.7740, 23382.00
177.0010, 25332.00
178.2280, 26983.00
179.4540, 29151.00
180.6810, 31265.00
181.9070, 33595.00
183.1330, 35880.00
184.3590, 37922.00
185.5850, 39963.00
186.8100, 41889.00
188.0350, 43014.00
189.2610, 43505.00
190.4860, 43460.00
191.7110, 42820.00
192.9350, 42571.00
194.1600, 42460.00
195.3840, 42769.00
196.6080, 43155.00
197.8320, 43488.00
199.0560, 44238.00
200.2800, 44932.00
201.5030, 45399.00
202.7270, 45446.00
203.9500, 45635.00
205.1730, 45204.00
206.3950, 45273.00
207.6180, 44747.00
208.8410, 43458.00
210.0630, 42500.00
211.2850, 40864.00
212.5070, 39042.00
213.7290, 36846.00
214.9500, 34999.00
216.1720, 33144.00
217.3930, 31426.00
218.6140, 30270.00
219.8350, 29725.00
221.0560, 29183.00
222.2770, 28498.00
223.4970, 27975.00
224.7170, 27347.00
225.9370, 26618.00
227.1570, 25787.00
228.3770, 25093.00
229.5970, 24092.00
230.8160, 23478.00
232.0350, 22707.00
233.2540, 22044.00
234.4730, 21342.00
235.6920, 20608.00
236.9110, 19656.00
238.1290, 19245.00
239.3470, 18539.00
240.5650, 17858.00
241.7830, 17379.00
243.0010, 17084.00
244.2180, 16822.00
245.4360, 16759.00
246.6530, 16548.00
247.8700, 16540.00
249.0870, 16385.00
250.3040, 16452.00
251.5200, 16576.00
252.7370, 16878.00
253.9530, 16943.00
255.1690, 17195.00
256.3850, 17573.00
257.6000, 17804.00
258.8160, 17785.00
260.0310, 17683.00
261.2460, 17987.00
262.4610, 18218.00
263.6760, 18307.00
264.8910, 18053.00
266.1050, 17908.00
267.3200, 17298.00
268.5340, 16822.00
269.7480, 16418.00
270.9620, 16148.00
272.1750, 15785.00
273.3890, 15640.00
274.6020, 15340.00
275.8150, 15147.00
277.0280, 15302.00
278.2410, 15010.00
279.4540, 15357.00
280.6660, 15330.00
281.8790, 15347.00
283.0910, 15322.00
284.3030, 15427.57
285.5140, 15589.00
286.7260, 15684.00
287.9380, 15943.00
289.1490, 16136.00
290.3600, 16403.00
291.5710, 17051.00
292.7820, 17604.00
293.9920, 18398.00
295.2030, 19344.00
296.4130, 20335.00
297.6230, 21221.00
298.8330, 22245.00
300.0430, 23242.00
301.2520, 24053.00
302.4620, 24165.00
303.6710, 23727.00
304.8800, 22985.00
306.0890, 22012.00
307.2980, 21091.00
308.5070, 20402.00
309.7150, 20033.00
310.9230, 19798.00
312.1310, 20237.00
313.3390, 20673.00
314.5470, 22049.00
315.7550, 23586.00
316.9620, 25655.00
318.1690, 28272.00
319.3760, 31594.00
320.5830, 35309.00
321.7900, 39303.00
322.9960, 43087.00
324.2030, 46087.00
325.4090, 48349.00
326.6150, 49049.00
327.8210, 48400.00
329.0270, 45875.00
330.2320, 42836.00
331.4380, 38916.00
332.6430, 35339.00
333.8480, 32944.00
335.0530, 31299.00
336.2580, 30568.00
337.4620, 30009.00
338.6670, 29321.00
339.8710, 28864.00
341.0750, 27822.00
342.2790, 26621.00
343.4820, 25458.00
344.6860, 23971.00
345.8890, 22661.00
347.0920, 21675.00
348.2960, 20970.00
349.4980, 20104.00
350.7010, 19314.00
351.9040, 19146.00
353.1060, 18869.00
354.3080, 18742.00
355.5100, 18514.00
356.7120, 18334.00
357.9140, 18252.00
359.1150, 18259.85
360.3170, 18280.75
361.5180, 18446.00
362.7190, 18537.00
363.9200, 18670.00
365.1200, 18922.00
366.3210, 18910.00
367.5210, 18971.00
368.7210, 19189.00
369.9210, 19367.00
371.1210, 19565.00
372.3210, 19978.00
373.5200, 20103.00
374.7200, 20121.00
375.9190, 20580.00
377.1180, 20690.00
378.3170, 21157.00
379.5150, 21484.00
380.7140, 22055.00
381.9120, 22283.00
383.1110, 22801.00
384.3090, 23031.00
385.5060, 23632.00
386.7040, 23426.00
387.9020, 23513.00
389.0990, 23253.00
390.2960, 23340.00
391.4930, 23326.00
392.6900, 23045.00
393.8860, 23242.00
395.0830, 22750.00
396.2790, 22400.00
397.4750, 22085.00
398.6710, 21529.00
399.8670, 21150.00
401.0630, 20651.00
402.2580, 20262.00
403.4540, 19980.00
404.6490, 19661.00
405.8440, 19495.00
407.0390, 19249.58
408.2330, 19098.93
409.4280, 18908.00
410.6220, 18832.00
411.8160, 18761.00
413.0100, 18605.00
414.2040, 18431.00
415.3980, 18166.00
416.5910, 18097.00
417.7850, 17988.00
418.9780, 17835.00
420.1710, 17969.00
421.3640, 18059.00
422.5560, 18171.00
423.7490, 18375.00
424.9410, 18771.00
426.1330, 18896.00
427.3250, 19180.00
428.5170, 19349.00
429.7090, 19610.00
430.9000, 19677.00
432.0910, 19463.00
433.2820, 19259.00
434.4730, 18773.00
435.6640, 18710.00
436.8550, 18273.00
438.0450, 17844.00
439.2360, 17452.00
440.4260, 17279.00
441.6160, 17040.00
442.8060, 16770.00
443.9950, 16492.00
445.1850, 16385.00
446.3740, 16216.00
447.5630, 16107.00
448.7520, 16023.34
449.9410, 15928.00
451.1300, 15889.00
452.3180, 15941.00
453.5060, 15902.00
454.6950, 15851.00
455.8830, 15630.00
457.0700, 15818.00
458.2580, 15650.00
459.4450, 15604.00
460.6330, 15801.00
461.8200, 15855.00
463.0070, 15809.00
464.1940, 15738.00
465.3800, 15666.00
466.5670, 15664.61
467.7530, 15611.69
468.9390, 15702.00
470.1250, 15603.00
471.3110, 15699.00
472.4970, 15792.00
473.6820, 15484.00
474.8680, 15655.00
476.0530, 15474.00
477.2380, 15460.00
478.4230, 15582.00
479.6070, 15650.00
480.7920, 15801.00
481.9760, 15689.00
483.1600, 15723.00
484.3440, 15805.00
485.5280, 15663.00
486.7120, 15777.00
487.8950, 15704.00
489.0780, 15915.00
490.2620, 15908.00
491.4450, 16164.00
492.6270, 16082.00
493.8100, 16297.00
494.9920, 16494.00
496.1750, 16606.00
497.3570, 16783.72
498.5390, 16792.00
499.7210, 17037.00
500.9020, 17161.00
502.0840, 17238.55
503.2650, 17421.00
504.4460, 17315.00
505.6270, 17198.00
506.8080, 17140.00
507.9890, 17074.70
509.1690, 17143.00
510.3500, 17061.00
511.5300, 17132.00
512.7100, 17279.00
513.8900, 17399.00
515.0690, 17423.00
516.2490, 17537.00
517.4280, 17826.00
518.6070, 17837.00
519.7860, 18009.52
520.9650, 18197.00
522.1440, 18196.00
523.3220, 18326.00
524.5010, 18335.00
525.6790, 18169.00
526.8570, 18245.00
528.0350, 17943.00
529.2130, 18011.00
530.3900, 18133.00
531.5670, 18043.00
532.7450, 18230.00
533.9220, 18126.00
535.0980, 18590.00
536.2750, 18678.00
537.4520, 18660.00
538.6280, 18734.00
539.8040, 18442.00
540.9800, 18423.00
542.1560, 18202.00
543.3320, 18109.85
544.5070, 18214.00
545.6830, 17951.00
546.8580, 17817.00
548.0330, 17758.00
549.2080, 17607.00
550.3830, 17586.00
551.5570, 17375.00
552.7310, 17384.00
553.9060, 17025.00
555.0800, 17113.00
556.2540, 17149.00
557.4270, 16744.00
558.6010, 16906.00
559.7740, 16791.00
560.9470, 16967.00
562.1210, 16965.00
563.2930, 16747.00
564.4660, 17006.00
565.6390, 16919.00
566.8110, 17003.00
567.9830, 16933.00
569.1550, 16923.00
570.3270, 16874.00
571.4990, 16977.00
572.6710, 17047.00
573.8420, 17082.02
575.0130, 17189.52
576.1840, 17167.00
577.3550, 17343.00
578.5260, 17299.00
579.6970, 17315.00
580.8670, 17108.00
582.0370, 17227.00
583.2070, 17191.00
584.3770, 16921.00
585.5470, 16786.00
586.7170, 16867.00
587.8860, 16720.00
589.0550, 16530.00
590.2240, 16514.00
591.3930, 16495.00
592.5620, 16366.00
593.7310, 16336.00
594.8990, 16522.00
596.0670, 16536.00
597.2350, 16443.00
598.4030, 16523.00
599.5710, 16536.00
600.7390, 16494.00
601.9060, 16342.00
603.0740, 16384.00
604.2410, 16675.00
605.4080, 16485.00
606.5740, 16579.00
607.7410, 16506.00
608.9080, 16563.00
610.0740, 16577.00
611.2400, 16599.94
612.4060, 16682.09
613.5720, 16741.00
614.7370, 16783.00
615.9030, 16958.00
617.0680, 16891.00
618.2330, 17017.00
619.3980, 16966.00
620.5630, 17120.00
621.7280, 17164.00
622.8920, 17227.00
624.0570, 17200.00
625.2210, 17458.00
626.3850, 17453.00
627.5490, 17764.00
628.7120, 17572.00
629.8760, 17522.00
631.0390, 17773.00
632.2020, 18023.00
633.3650, 18208.00
634.5280, 18286.00
635.6910, 18354.00
636.8530, 18697.00
638.0160, 18724.00
639.1780, 19098.00
640.3400, 19247.00
641.5020, 19558.00
642.6640, 19791.00
643.8250, 20111.00
644.9870, 20554.00
646.1480, 21064.00
647.3090, 21348.00
648.4700, 21894.00
649.6300, 22578.00
650.7910, 23409.00
651.9510, 24163.00
653.1120, 25342.00
654.2720, 26570.00
655.4320, 28128.00
656.5910, 29773.00
657.7510, 31935.00
658.9100, 34679.00
660.0690, 37484.00
661.2290, 41558.00
662.3880, 47264.00
663.5460, 51033.00
664.7050, 57579.00
665.8630, 65388.00
667.0220, 74217.00
668.1800, 83713.00
669.3380, 93699.00
670.4950, 102783.0
671.6530, 109523.0
672.8100, 113281.0
673.9680, 112153.0
675.1250, 107201.0
676.2820, 98838.00
677.4390, 88251.00
678.5950, 77837.00
679.7520, 67742.00
680.9080, 58978.00
682.0640, 52482.00
683.2200, 46860.00
684.3760, 42167.00
685.5320, 38413.00
686.6870, 35244.00
687.8420, 32744.00
688.9980, 30485.00
690.1530, 28900.00
691.3070, 27462.00
692.4620, 26378.00
693.6170, 25341.00
694.7710, 24644.00
695.9250, 23764.00
697.0790, 23301.00
698.2330, 22646.00
699.3870, 22052.00
700.5400, 21728.00
701.6940, 21387.00
702.8470, 21043.78
704.0000, 20723.24
705.1530, 20556.00
706.3050, 20183.00
707.4580, 20007.00
708.6100, 19982.00
709.7630, 19772.00
710.9150, 19705.00
712.0660, 19693.00
713.2180, 19642.97
714.3700, 19792.00
715.5210, 19667.00
716.6720, 19657.35
717.8240, 19632.00
718.9740, 19592.32
720.1250, 19518.00
721.2760, 19600.00
722.4260, 19652.00
723.5770, 19723.98
724.7270, 19913.00
725.8770, 19906.00
727.0260, 20084.00
728.1760, 20318.00
729.3250, 20522.00
730.4750, 20882.00
731.6240, 21178.00
732.7730, 21555.00
733.9220, 21484.00
735.0700, 21867.00
736.2190, 21765.00
737.3670, 22049.00
738.5150, 22022.00
739.6630, 21829.00
740.8110, 21779.00
741.9590, 21102.00
743.1060, 21085.00
744.2540, 20722.00
745.4010, 20621.00
746.5480, 20086.00
747.6950, 19950.00
748.8410, 19848.00
749.9880, 19545.00
751.1340, 19414.00
752.2800, 19345.00
753.4260, 19228.00
754.5720, 19009.00
755.7180, 18967.00
756.8640, 19082.00
758.0090, 18922.00
759.1540, 18672.00
760.2990, 18730.00
761.4440, 18986.00
762.5890, 18776.00
763.7340, 18877.00
764.8780, 18745.00
766.0220, 18771.00
767.1660, 18599.00
768.3100, 18663.00
769.4540, 18562.00
770.5980, 18467.00
771.7410, 18552.00
772.8840, 18613.00
774.0280, 18767.00
775.1700, 18809.00
776.3130, 18701.00
777.4560, 18853.00
778.5980, 19167.00
779.7410, 19252.00
780.8830, 19014.00
782.0250, 19176.00
783.1670, 19094.00
784.3080, 19010.00
785.4500, 18845.35
786.5910, 18905.21
787.7320, 18872.39
788.8730, 18751.89
790.0140, 18281.06
791.1550, 18262.60
792.2950, 18445.00
793.4360, 18080.00
794.5760, 18023.00
795.7160, 18017.00
796.8560, 18088.00
797.9960, 18132.00
799.1350, 18136.00
800.2750, 18023.00
801.4140, 17982.00
802.5530, 17837.00
803.6920, 17933.00
804.8310, 18114.00
805.9690, 17971.00
807.1080, 17909.00
808.2460, 18071.00
809.3840, 18020.00
810.5220, 18196.00
811.6600, 17848.00
812.7970, 18033.00
813.9350, 17908.00
815.0720, 18067.00
816.2090, 17980.00
817.3460, 17919.00
818.4830, 18118.00
819.6200, 18013.00
820.7560, 18131.00
821.8930, 18028.00
823.0290, 18095.00
824.1650, 18119.00
825.3010, 18147.00
826.4360, 18224.00
827.5720, 18257.00
828.7070, 18092.00
829.8420, 18078.00
830.9770, 18156.00
832.1120, 18147.00
833.2470, 18254.00
834.3820, 18308.00
835.5160, 18359.00
836.6500, 18395.00
837.7840, 18353.00
838.9180, 18302.00
840.0520, 18316.00
841.1860, 18249.00
842.3190, 18339.00
843.4520, 18296.00
844.5850, 18402.00
845.7180, 18346.00
846.8510, 18551.00
847.9840, 18332.00
849.1160, 18718.00
850.2490, 18536.00
851.3810, 18630.00
852.5130, 18681.00
853.6450, 18850.00
854.7760, 18988.00
855.9080, 18873.00
857.0390, 18848.00
858.1700, 18897.00
859.3010, 18885.46
860.4320, 18710.00
861.5630, 18881.00
862.6930, 19088.00
863.8240, 18886.00
864.9540, 18977.00
866.0840, 19049.00
867.2140, 18933.00
868.3440, 18963.00
869.4730, 19000.00
870.6030, 19048.00
871.7320, 18981.00
872.8610, 19150.00
873.9900, 18928.00
875.1190, 19130.00
876.2470, 19240.00
877.3760, 19275.00
878.5040, 19149.00
879.6320, 19517.00
880.7600, 19240.00
881.8880, 19422.00
883.0150, 19350.00
884.1430, 19610.00
885.2700, 19705.00
886.3970, 20061.00
887.5240, 19617.00
888.6510, 19628.00
889.7780, 19974.00
890.9040, 19951.00
892.0310, 19979.00
893.1570, 20088.00
894.2830, 20202.00
895.4090, 20390.00
896.5350, 20345.00
897.6600, 20511.00
898.7860, 20437.00
899.9110, 20380.00
901.0360, 20592.00
902.1610, 20628.00
903.2860, 20548.00
904.4100, 20693.00
905.5350, 20456.00
906.6590, 20518.00
907.7830, 20694.00
908.9070, 20889.00
910.0310, 20889.00
911.1540, 21167.00
912.2780, 21238.00
913.4010, 21620.00
914.5240, 21917.00
915.6470, 22436.00
916.7700, 22691.00
917.8930, 22925.00
919.0150, 23604.00
920.1380, 24136.00
921.2600, 24867.00
922.3820, 25168.00
923.5040, 25854.00
924.6260, 26061.00
925.7470, 26334.00
926.8690, 26063.00
927.9900, 25844.00
929.1110, 25313.00
930.2320, 24855.00
931.3530, 24376.00
932.4730, 23775.00
933.5940, 23357.00
934.7140, 22940.00
935.8340, 22885.00
936.9540, 22504.00
938.0740, 22179.00
939.1930, 22267.00
940.3130, 21964.00
941.4320, 21759.00
942.5510, 21762.00
943.6700, 21696.00
944.7890, 21508.00
945.9080, 21447.00
947.0260, 21560.00
948.1450, 21294.00
949.2630, 21152.00
950.3810, 21000.00
951.4990, 21113.00
952.6170, 21262.00
953.7340, 21039.00
954.8520, 21137.00
955.9690, 21133.00
957.0860, 21275.00
958.2030, 21345.00
959.3200, 21329.00
960.4360, 21489.00
961.5530, 21438.83
962.6690, 21637.02
963.7850, 21796.35
964.9010, 21918.90
966.0170, 21894.55
967.1330, 22059.90
968.2480, 22149.12
969.3630, 22235.23
970.4790, 22359.00
971.5940, 22595.00
972.7080, 22888.00
973.8230, 23020.00
974.9380, 23154.00
976.0520, 23312.00
977.1660, 23374.00
978.2800, 23306.00
979.3940, 23217.00
980.5080, 23178.00
981.6220, 23271.00
982.7350, 23056.00
983.8480, 23164.00
984.9610, 23266.00
986.0740, 23501.00
987.1870, 23537.00
988.3000, 23475.00
989.4120, 23717.00
990.5250, 24024.00
991.6370, 24070.00
992.7490, 24040.00
993.8610, 24283.00
994.9720, 24408.00
996.0840, 24951.00
997.1950, 25032.00
998.3060, 25303.00
999.4170, 25445.00
1000.528, 26059.00
1001.639, 26271.00
1002.750, 26702.00
1003.860, 27086.00
1004.970, 27408.00
1006.080, 28164.00
1007.190, 28282.00
1008.300, 28466.00
1009.410, 28557.00
1010.519, 28470.00
1011.628, 28569.00
1012.738, 28436.00
1013.846, 28462.00
1014.955, 28594.00
1016.064, 28501.00
1017.172, 28660.00
1018.281, 28669.00
1019.389, 29251.00
1020.497, 29259.00
1021.605, 29611.00
1022.713, 29999.00
1023.820, 30201.00
1024.928, 30729.00
1026.035, 31075.00
1027.142, 31935.00
1028.249, 32597.00
1029.356, 33502.00
1030.462, 34720.00
1031.569, 36370.00
1032.675, 38497.67
1033.781, 40875.00
1034.887, 43946.00
1035.993, 47269.00
1037.098, 50992.00
1038.204, 54703.00
1039.309, 57251.00
1040.415, 58758.00
1041.520, 58698.00
1042.624, 57015.00
1043.729, 53808.00
1044.834, 49780.00
1045.938, 45464.00
1047.042, 41564.00
1048.146, 38174.00
1049.250, 35703.00
1050.354, 33240.00
1051.458, 31447.00
1052.561, 30242.00
1053.664, 29090.00
1054.767, 28292.00
1055.870, 27762.00
1056.973, 27220.00
1058.076, 26678.00
1059.178, 26543.00
1060.281, 26447.00
1061.383, 26284.00
1062.485, 26468.00
1063.587, 26253.00
1064.688, 26374.00
1065.790, 26644.00
1066.891, 26791.00
1067.993, 26985.00
1069.094, 27011.00
1070.195, 27230.00
1071.295, 27466.00
1072.396, 27709.00
1073.496, 28325.00
1074.597, 28879.00
1075.697, 29367.00
1076.797, 30287.00
1077.897, 31503.00
1078.996, 34024.00
1080.096, 34579.00
1081.195, 37038.00
1082.294, 40492.00
1083.393, 43838.00
1084.492, 48152.38
1085.591, 52737.00
1086.689, 58073.00
1087.788, 63406.00
1088.886, 69469.00
1089.984, 74819.00
1091.082, 79556.00
1092.180, 84090.00
1093.277, 85405.00
1094.375, 85449.00
1095.472, 82412.00
1096.569, 78715.00
1097.666, 73392.00
1098.763, 67500.00
1099.860, 61692.00
1100.956, 56562.00
1102.053, 52531.00
1103.149, 48018.00
1104.245, 44575.00
1105.341, 41015.00
1106.436, 37979.00
1107.532, 35830.00
1108.627, 33859.00
1109.723, 32227.00
1110.818, 30495.00
1111.913, 29060.00
1113.007, 28156.00
1114.102, 27194.00
1115.197, 26534.00
1116.291, 25865.00
1117.385, 25410.00
1118.479, 24837.00
1119.573, 24657.00
1120.666, 24331.00
1121.760, 24165.00
1122.853, 23999.00
1123.947, 23666.00
1125.040, 23533.00
1126.132, 23452.00
1127.225, 23390.00
1128.318, 23006.00
1129.410, 22996.00
1130.502, 22806.00
1131.595, 22990.00
1132.687, 22772.00
1133.778, 22649.00
1134.870, 22439.00
1135.961, 22692.00
1137.053, 22511.00
1138.144, 22543.00
1139.235, 22445.00
1140.326, 22479.00
1141.416, 22553.00
1142.507, 22355.00
1143.597, 22370.00
1144.688, 22348.00
1145.778, 22322.00
1146.868, 22358.49
1147.957, 22544.00
1149.047, 22443.00
1150.136, 22516.00
1151.226, 22614.00
1152.315, 22571.00
1153.404, 22425.00
1154.493, 22421.00
1155.581, 22416.00
1156.670, 22406.00
1157.758, 22400.00
1158.846, 22409.00
1159.934, 22487.00
1161.022, 22369.00
1162.110, 22179.00
1163.198, 22493.00
1164.285, 22454.00
1165.372, 22257.00
1166.459, 22260.00
1167.546, 22198.38
1168.633, 22369.00
1169.720, 22264.00
1170.806, 22378.00
1171.892, 22662.00
1172.979, 22411.00
1174.065, 22662.00
1175.150, 22488.00
1176.236, 22380.00
1177.322, 22486.00
1178.407, 22570.00
1179.492, 22499.00
1180.577, 22449.00
1181.662, 22732.00
1182.747, 22541.00
1183.832, 22654.00
1184.916, 22591.00
1186.000, 22444.00
1187.084, 22589.00
1188.168, 22511.00
1189.252, 22643.00
1190.336, 22486.00
1191.419, 22652.00
1192.503, 22626.00
1193.586, 22699.00
1194.669, 22706.00
1195.752, 22756.00
1196.835, 22658.00
1197.917, 22733.00
1199.000, 22740.00
1200.082, 22720.00
1201.164, 22889.00
1202.246, 22760.00
1203.328, 22770.00
1204.409, 22785.00
1205.491, 22928.00
1206.572, 22739.00
1207.653, 22871.00
1208.734, 22736.00
1209.815, 22801.00
1210.896, 23048.00
1211.976, 23082.00
1213.057, 22949.00
1214.137, 22880.00
1215.217, 23209.00
1216.297, 22889.00
1217.377, 23163.00
1218.456, 23207.00
1219.536, 23081.00
1220.615, 23012.00
1221.694, 23221.00
1222.773, 23067.00
1223.852, 23239.00
1224.931, 23280.00
1226.009, 23288.00
1227.088, 23330.00
1228.166, 23232.00
1229.244, 23291.00
1230.322, 23196.00
1231.400, 23145.00
1232.477, 23299.00
1233.555, 23369.00
1234.632, 23197.00
1235.709, 23374.00
1236.786, 23318.00
1237.863, 23234.00
1238.939, 23407.00
1240.016, 23434.00
1241.092, 23608.00
1242.168, 23485.00
1243.245, 23435.00
1244.320, 23653.00
1245.396, 23439.00
1246.472, 23554.00
1247.547, 23626.00
1248.622, 23574.00
1249.697, 23428.00
1250.772, 23645.00
1251.847, 23666.00
1252.922, 23592.00
1253.996, 23677.00
1255.071, 23641.90
1256.145, 23735.00
1257.219, 23644.00
1258.293, 23672.00
1259.366, 23693.00
1260.440, 23804.00
1261.513, 23804.00
1262.587, 23726.00
1263.660, 23768.00
1264.733, 23768.00
1265.805, 23911.00
1266.878, 24074.00
1267.951, 23957.00
1269.023, 23828.00
1270.095, 24028.00
1271.167, 23969.00
1272.239, 24105.00
1273.311, 24076.00
1274.382, 24005.00
1275.454, 24005.00
1276.525, 24241.00
1277.596, 24247.00
1278.667, 24149.00
1279.738, 24101.00
1280.808, 24104.00
1281.879, 24035.00
1282.949, 24072.45
1284.019, 24324.00
1285.089, 24160.00
1286.159, 24329.00
1287.229, 24434.00
1288.298, 24377.00
1289.368, 24368.00
1290.437, 24470.00
1291.506, 24489.00
1292.575, 24297.00
1293.644, 24598.00
1294.712, 24416.00
1295.781, 24499.00
1296.849, 24491.00
1297.917, 24619.00
1298.985, 24685.00
1300.053, 24617.00
1301.121, 24650.00
1302.188, 24768.00
1303.255, 24579.00
1304.323, 24632.00
1305.390, 24752.00
1306.457, 24625.00
1307.523, 24812.00
1308.590, 24801.00
1309.656, 24630.00
1310.723, 24913.00
1311.789, 24647.00
1312.855, 24448.00
